SpectraSuite Data File
++++++++++++++++++++++++++++++++++++
Date: Thu May 14 14:38:04 PDT 2015
User: schluterlab
Dark Spectrum Present: Yes
Reference Spectrum Present: Yes
Number of Sampled Component Spectra: 1
Spectrometers: USB2E3373
Integration Time (usec): 3000 (USB2E3373)
Spectra Averaged: 3 (USB2E3373)
Boxcar Smoothing: 0 (USB2E3373)
Correct for Electrical Dark: No (USB2E3373)
Strobe/Lamp Enabled: No (USB2E3373)
Correct for Detector Non-linearity: No (USB2E3373)
Correct for Stray Light: No (USB2E3373)
Number of Pixels in Processed Spectrum: 2048
>>>>>Begin Processed Spectral Data<<<<<
178.53	0.000
178.91	-228.571
179.29	500.000
179.67	400.000
180.04	-35.714
180.42	-120.000
180.80	-280.000
181.18	1500.000
181.56	2900.000
181.94	-400.000
182.31	550.000
182.69	-333.333
183.07	500.000
183.45	-275.000
183.83	283.333
184.20	300.000
184.58	-1200.000
184.96	400.000
185.34	222.222
185.72	640.000
186.09	-44.444
186.47	-950.000
186.85	-40.000
187.23	88.889
187.61	800.000
187.98	-300.000
188.36	-250.000
188.74	500.000
189.12	733.333
189.49	106.250
189.87	250.000
190.25	255.556
190.63	140.000
191.00	88.889
191.38	0.000
191.76	250.000
192.14	266.667
192.51	-900.000
192.89	383.333
193.27	0.000
193.65	185.714
194.02	700.000
194.40	271.429
194.78	-200.000
195.15	0.000
195.53	163.636
195.91	0.000
196.29	525.000
196.66	176.923
197.04	1300.000
197.42	228.571
197.79	400.000
198.17	237.500
198.55	228.571
198.92	255.556
199.30	287.500
199.68	227.273
200.05	185.714
200.43	250.000
200.81	-142.857
201.18	0.000
201.56	-100.000
201.94	0.000
202.31	-366.667
202.69	155.556
203.07	-2700.000
203.44	200.000
203.82	325.000
204.19	116.667
204.57	233.333
204.95	150.000
205.32	2200.000
205.70	-400.000
206.08	316.667
206.45	433.333
206.83	-0.000
207.20	283.333
207.58	240.000
207.96	266.667
208.33	250.000
208.71	-166.667
209.08	250.000
209.46	0.000
209.84	-133.333
210.21	-1150.000
210.59	-400.000
210.96	-66.667
211.34	475.000
211.71	250.000
212.09	2100.000
212.46	0.000
212.84	-650.000
213.22	340.000
213.59	425.000
213.97	140.000
214.34	400.000
214.72	-266.667
215.09	175.000
215.47	0.000
215.84	-257.143
216.22	-450.000
216.59	380.000
216.97	340.000
217.34	325.000
217.72	325.000
218.09	350.000
218.47	100.000
218.84	0.000
219.22	-200.000
219.59	152.941
219.97	100.000
220.34	-550.000
220.72	222.222
221.09	169.231
221.47	466.667
221.84	30.000
222.22	142.857
222.59	0.000
222.97	200.000
223.34	240.000
223.72	2100.000
224.09	450.000
224.46	225.000
224.84	240.000
225.21	85.714
225.59	150.000
225.96	450.000
226.34	76.923
226.71	-266.667
227.08	850.000
227.46	113.333
227.83	300.000
228.21	121.053
228.58	-187.500
228.95	-650.000
229.33	166.667
229.70	120.000
230.08	157.895
230.45	-90.000
230.82	700.000
231.20	128.571
231.57	133.333
231.95	136.364
232.32	136.364
232.69	150.000
233.07	350.000
233.44	100.000
233.81	120.000
234.19	144.444
234.56	77.273
234.93	100.000
235.31	121.053
235.68	116.667
236.05	100.000
236.43	153.846
236.80	116.000
237.17	96.296
237.55	72.727
237.92	230.000
238.29	48.387
238.67	56.818
239.04	72.222
239.41	52.381
239.79	50.000
240.16	59.259
240.53	78.261
240.91	70.588
241.28	44.262
241.65	56.716
242.02	47.297
242.40	52.308
242.77	52.000
243.14	45.122
243.51	39.474
243.89	51.282
244.26	53.465
244.63	38.235
245.00	56.075
245.38	38.596
245.75	29.204
246.12	42.857
246.49	40.310
246.87	37.857
247.24	41.060
247.61	41.447
247.98	34.228
248.36	35.185
248.73	34.356
249.10	36.612
249.47	37.313
249.84	43.455
250.22	36.269
250.59	32.778
250.96	38.636
251.33	39.286
251.70	33.761
252.08	37.083
252.45	34.836
252.82	33.471
253.19	35.156
253.56	33.840
253.94	33.077
254.31	34.091
254.68	34.266
255.05	34.853
255.42	34.014
255.79	32.039
256.16	32.450
256.54	36.093
256.91	35.738
257.28	36.393
257.65	31.210
258.02	30.678
258.39	33.903
258.76	38.838
259.14	37.356
259.51	33.141
259.88	35.127
260.25	32.500
260.62	34.521
260.99	35.792
261.36	36.461
261.73	34.218
262.10	36.264
262.47	36.193
262.85	34.343
263.22	32.208
263.59	29.474
263.96	34.783
264.33	33.248
264.70	33.827
265.07	33.652
265.44	34.921
265.81	34.722
266.18	33.333
266.55	35.714
266.92	31.891
267.29	34.354
267.66	33.925
268.03	31.223
268.40	34.029
268.77	31.435
269.14	33.260
269.51	34.649
269.88	35.246
270.25	30.986
270.62	34.388
270.99	34.949
271.36	33.267
271.73	33.988
272.10	30.862
272.47	32.064
272.84	30.522
273.21	32.064
273.58	32.460
273.95	28.654
274.32	30.418
274.69	30.174
275.06	34.249
275.43	30.499
275.80	30.511
276.17	30.185
276.54	31.157
276.91	31.843
277.28	31.103
277.65	31.957
278.02	31.985
278.39	32.246
278.76	30.404
279.13	33.688
279.50	32.302
279.87	31.127
280.23	29.577
280.60	30.339
280.97	31.414
281.34	30.900
281.71	32.318
282.08	29.236
282.45	30.442
282.82	28.728
283.19	28.756
283.56	31.148
283.92	31.682
284.29	30.648
284.66	31.691
285.03	29.808
285.40	30.448
285.77	29.721
286.14	29.924
286.51	29.224
286.87	29.858
287.24	29.217
287.61	27.653
287.98	28.248
288.35	28.846
288.72	29.290
289.08	28.990
289.45	27.959
289.82	27.410
290.19	29.310
290.56	28.310
290.93	27.675
291.29	28.237
291.66	27.548
292.03	27.001
292.40	26.939
292.77	25.202
293.13	26.793
293.50	25.887
293.87	26.577
294.24	27.333
294.60	26.169
294.97	24.161
295.34	26.633
295.71	24.212
296.08	25.323
296.44	23.529
296.81	24.970
297.18	24.408
297.55	24.292
297.91	23.962
298.28	22.512
298.65	23.306
299.02	23.495
299.38	22.540
299.75	24.416
300.12	22.569
300.48	23.848
300.85	23.622
301.22	23.490
301.59	22.831
301.95	22.938
302.32	22.222
302.69	22.892
303.05	23.069
303.42	21.508
303.79	22.604
304.15	22.503
304.52	21.564
304.89	21.047
305.25	21.946
305.62	22.989
305.99	23.402
306.35	21.472
306.72	23.268
307.09	21.624
307.45	22.257
307.82	21.695
308.19	21.594
308.55	21.215
308.92	23.077
309.29	22.031
309.65	21.735
310.02	21.980
310.38	20.965
310.75	21.650
311.12	22.052
311.48	21.603
311.85	22.507
312.22	22.011
312.58	22.441
312.95	22.275
313.31	21.048
313.68	21.520
314.05	22.403
314.41	21.949
314.78	21.344
315.14	21.325
315.51	20.591
315.87	20.882
316.24	21.005
316.61	20.426
316.97	20.724
317.34	20.106
317.70	21.659
318.07	20.459
318.43	21.259
318.80	22.659
319.16	20.773
319.53	20.394
319.89	20.684
320.26	21.174
320.62	20.745
320.99	20.591
321.35	20.702
321.72	22.977
322.08	19.477
322.45	20.596
322.81	20.487
323.18	20.973
323.54	20.517
323.91	21.619
324.27	20.740
324.64	21.746
325.00	19.818
325.37	20.639
325.73	21.322
326.10	20.357
326.46	21.336
326.83	21.057
327.19	20.157
327.56	22.688
327.92	20.220
328.29	21.048
328.65	20.268
329.01	20.474
329.38	20.640
329.74	21.490
330.11	20.805
330.47	20.893
330.84	21.533
331.20	21.167
331.56	20.884
331.93	21.757
332.29	21.780
332.66	20.764
333.02	20.854
333.38	19.295
333.75	20.455
334.11	20.934
334.48	21.287
334.84	21.495
335.20	19.983
335.57	20.658
335.93	19.669
336.29	19.967
336.66	20.774
337.02	20.569
337.38	20.918
337.75	19.421
338.11	20.690
338.47	19.768
338.84	19.797
339.20	19.292
339.56	19.769
339.93	20.525
340.29	19.887
340.65	19.059
341.02	19.792
341.38	21.099
341.74	19.693
342.11	20.434
342.47	18.745
342.83	20.370
343.20	20.605
343.56	19.808
343.92	19.456
344.28	20.078
344.65	20.543
345.01	19.813
345.37	20.218
345.73	18.628
346.10	19.267
346.46	19.462
346.82	19.925
347.19	19.862
347.55	20.789
347.91	20.208
348.27	19.954
348.63	20.944
349.00	19.165
349.36	20.149
349.72	19.717
350.08	19.911
350.45	18.631
350.81	18.250
351.17	19.699
351.53	19.484
351.89	19.514
352.26	19.701
352.62	19.328
352.98	19.847
353.34	18.671
353.70	18.952
354.07	19.374
354.43	19.286
354.79	19.521
355.15	18.543
355.51	19.298
355.87	19.297
356.24	19.544
356.60	18.551
356.96	19.274
357.32	18.959
357.68	19.327
358.04	19.311
358.40	18.433
358.77	19.664
359.13	18.095
359.49	17.844
359.85	18.709
360.21	18.867
360.57	19.311
360.93	19.041
361.29	18.596
361.66	19.044
362.02	20.042
362.38	19.255
362.74	18.296
363.10	18.157
363.46	18.490
363.82	18.821
364.18	18.227
364.54	19.225
364.90	18.595
365.26	18.414
365.62	18.667
365.98	18.312
366.35	18.725
366.71	18.639
367.07	19.418
367.43	18.910
367.79	18.912
368.15	18.528
368.51	18.200
368.87	18.419
369.23	18.933
369.59	18.648
369.95	18.053
370.31	18.839
370.67	18.432
371.03	18.352
371.39	18.670
371.75	17.744
372.11	17.886
372.47	18.077
372.83	17.736
373.19	18.145
373.55	18.089
373.91	18.609
374.27	17.788
374.63	18.809
374.99	17.573
375.35	18.896
375.71	18.710
376.07	18.593
376.42	18.955
376.78	18.086
377.14	18.403
377.50	18.406
377.86	18.904
378.22	18.263
378.58	18.371
378.94	17.664
379.30	17.809
379.66	17.931
380.02	17.600
380.38	19.067
380.74	17.915
381.09	18.525
381.45	17.841
381.81	18.501
382.17	18.468
382.53	17.836
382.89	18.228
383.25	17.819
383.61	17.998
383.97	18.375
384.32	18.421
384.68	17.807
385.04	18.276
385.40	18.798
385.76	18.992
386.12	18.133
386.48	19.176
386.83	19.070
387.19	17.729
387.55	17.958
387.91	18.265
388.27	18.764
388.62	18.041
388.98	17.936
389.34	18.150
389.70	18.129
390.06	18.650
390.42	18.072
390.77	18.001
391.13	18.075
391.49	18.357
391.85	17.758
392.20	18.505
392.56	18.370
392.92	18.321
393.28	18.684
393.64	18.156
393.99	18.652
394.35	18.107
394.71	18.503
395.07	18.383
395.42	18.104
395.78	18.952
396.14	18.063
396.50	18.765
396.85	18.485
397.21	18.107
397.57	17.786
397.92	18.729
398.28	18.034
398.64	17.220
399.00	17.277
399.35	17.592
399.71	17.554
400.07	18.641
400.42	17.928
400.78	17.766
401.14	18.327
401.49	17.965
401.85	17.965
402.21	18.134
402.57	18.779
402.92	18.262
403.28	17.506
403.63	17.303
403.99	18.527
404.35	18.192
404.70	17.904
405.06	18.207
405.42	17.857
405.77	18.757
406.13	17.882
406.49	17.849
406.84	18.449
407.20	17.440
407.55	18.050
407.91	18.479
408.27	18.375
408.62	18.906
408.98	17.818
409.34	17.185
409.69	19.036
410.05	18.816
410.40	19.142
410.76	18.732
411.11	17.767
411.47	18.428
411.83	18.460
412.18	18.494
412.54	18.494
412.89	18.161
413.25	18.059
413.60	18.380
413.96	18.415
414.31	17.960
414.67	18.128
415.03	17.600
415.38	18.348
415.74	18.387
416.09	18.322
416.45	17.721
416.80	18.176
417.16	18.646
417.51	17.870
417.87	18.026
418.22	17.964
418.58	17.720
418.93	18.976
419.29	17.263
419.64	17.887
420.00	18.101
420.35	17.799
420.71	18.265
421.06	17.884
421.42	18.234
421.77	17.501
422.12	17.389
422.48	18.024
422.83	19.003
423.19	17.825
423.54	17.976
423.90	17.670
424.25	18.667
424.61	17.681
424.96	18.726
425.31	18.206
425.67	17.069
426.02	17.654
426.38	17.279
426.73	17.188
427.09	18.858
427.44	17.695
427.79	17.966
428.15	17.865
428.50	17.809
428.85	17.451
429.21	18.085
429.56	17.423
429.92	18.182
430.27	18.361
430.62	17.978
430.98	18.151
431.33	17.204
431.68	17.146
432.04	18.436
432.39	18.211
432.74	17.694
433.10	18.064
433.45	17.781
433.80	18.562
434.16	17.769
434.51	17.780
434.86	17.807
435.22	17.800
435.57	17.866
435.92	18.141
436.28	18.487
436.63	18.897
436.98	17.499
437.34	18.095
437.69	17.666
438.04	17.874
438.39	18.093
438.75	17.820
439.10	18.182
439.45	18.111
439.81	17.288
440.16	17.641
440.51	18.060
440.86	17.510
441.22	17.899
441.57	17.820
441.92	17.895
442.27	18.030
442.63	18.033
442.98	17.769
443.33	17.991
443.68	18.930
444.03	18.674
444.39	18.123
444.74	18.683
445.09	18.196
445.44	18.440
445.79	18.439
446.15	17.729
446.50	17.829
446.85	18.872
447.20	17.602
447.55	18.305
447.91	17.330
448.26	18.340
448.61	17.853
448.96	18.401
449.31	18.558
449.66	17.810
450.02	18.302
450.37	18.434
450.72	18.084
451.07	18.679
451.42	17.851
451.77	18.121
452.12	18.510
452.47	18.004
452.83	18.525
453.18	17.747
453.53	17.404
453.88	18.332
454.23	18.644
454.58	18.746
454.93	18.447
455.28	18.904
455.63	18.476
455.98	19.162
456.34	18.728
456.69	17.931
457.04	18.499
457.39	17.738
457.74	18.233
458.09	18.122
458.44	18.050
458.79	18.154
459.14	18.563
459.49	18.789
459.84	18.520
460.19	18.268
460.54	19.421
460.89	17.734
461.24	17.644
461.59	18.871
461.94	16.771
462.29	18.309
462.64	18.045
462.99	18.707
463.34	18.559
463.69	18.288
464.04	19.122
464.39	18.161
464.74	18.814
465.09	18.800
465.44	18.348
465.79	18.403
466.14	17.926
466.49	18.158
466.84	17.961
467.19	18.613
467.54	18.038
467.89	18.621
468.24	17.950
468.59	17.603
468.94	17.949
469.29	18.476
469.64	18.690
469.99	18.164
470.34	18.131
470.68	18.865
471.03	19.319
471.38	18.247
471.73	18.270
472.08	18.528
472.43	18.182
472.78	18.136
473.13	18.331
473.48	18.852
473.83	18.166
474.17	19.050
474.52	18.461
474.87	17.996
475.22	19.493
475.57	18.017
475.92	18.517
476.27	18.584
476.61	18.692
476.96	18.040
477.31	18.614
477.66	18.783
478.01	18.099
478.36	17.946
478.70	18.177
479.05	18.661
479.40	18.460
479.75	18.348
480.10	18.522
480.45	18.687
480.79	18.186
481.14	18.520
481.49	18.401
481.84	18.016
482.19	17.935
482.53	18.627
482.88	18.919
483.23	18.897
483.58	17.948
483.92	17.199
484.27	18.163
484.62	17.698
484.97	18.079
485.31	17.599
485.66	17.202
486.01	17.267
486.36	17.511
486.70	17.678
487.05	17.552
487.40	17.599
487.75	17.863
488.09	17.582
488.44	17.725
488.79	17.774
489.13	17.632
489.48	17.243
489.83	17.867
490.17	16.606
490.52	17.980
490.87	17.936
491.22	18.111
491.56	18.601
491.91	18.491
492.26	18.087
492.60	18.277
492.95	18.341
493.30	18.198
493.64	17.871
493.99	17.807
494.34	18.510
494.68	17.730
495.03	18.855
495.37	17.577
495.72	18.277
496.07	18.142
496.41	18.404
496.76	18.390
497.11	18.344
497.45	18.127
497.80	18.036
498.14	17.868
498.49	17.785
498.84	18.510
499.18	18.174
499.53	19.013
499.87	18.330
500.22	17.943
500.56	18.129
500.91	18.124
501.26	18.318
501.60	18.294
501.95	18.454
502.29	18.210
502.64	18.627
502.98	18.507
503.33	18.099
503.67	17.662
504.02	18.301
504.36	18.588
504.71	18.604
505.06	17.917
505.40	18.007
505.75	18.488
506.09	17.864
506.44	18.802
506.78	18.670
507.13	18.626
507.47	18.143
507.82	18.371
508.16	17.543
508.51	17.909
508.85	18.328
509.19	18.617
509.54	18.204
509.88	18.018
510.23	18.601
510.57	19.188
510.92	18.820
511.26	18.711
511.61	17.673
511.95	19.229
512.30	18.513
512.64	18.591
512.98	18.209
513.33	18.901
513.67	18.511
514.02	19.366
514.36	18.414
514.70	18.854
515.05	18.300
515.39	18.793
515.74	20.042
516.08	19.176
516.42	18.786
516.77	18.507
517.11	18.257
517.46	19.035
517.80	18.813
518.14	18.770
518.49	19.306
518.83	18.627
519.17	18.686
519.52	18.606
519.86	19.483
520.20	18.637
520.55	18.510
520.89	18.863
521.23	18.816
521.58	19.548
521.92	18.414
522.26	18.900
522.61	18.866
522.95	18.224
523.29	18.966
523.64	18.049
523.98	18.996
524.32	19.885
524.66	18.896
525.01	18.686
525.35	18.667
525.69	19.026
526.04	18.197
526.38	19.425
526.72	18.858
527.06	19.355
527.41	19.475
527.75	18.646
528.09	19.067
528.43	19.183
528.78	18.902
529.12	18.635
529.46	18.437
529.80	19.279
530.15	18.783
530.49	18.505
530.83	18.477
531.17	19.355
531.51	18.833
531.86	19.591
532.20	19.268
532.54	18.133
532.88	19.333
533.22	19.328
533.57	19.100
533.91	19.024
534.25	18.711
534.59	19.310
534.93	19.015
535.27	19.437
535.62	19.102
535.96	19.640
536.30	19.213
536.64	19.940
536.98	20.049
537.32	20.309
537.66	19.027
538.01	18.489
538.35	19.549
538.69	19.351
539.03	19.559
539.37	19.611
539.71	19.279
540.05	18.585
540.39	19.193
540.73	19.004
541.07	20.233
541.42	19.315
541.76	19.395
542.10	18.938
542.44	18.758
542.78	20.316
543.12	18.653
543.46	19.475
543.80	18.225
544.14	18.911
544.48	18.499
544.82	18.911
545.16	19.141
545.50	19.892
545.84	18.800
546.18	21.173
546.52	18.981
546.86	18.805
547.20	20.038
547.54	18.851
547.88	18.385
548.22	18.947
548.56	19.017
548.90	18.806
549.24	18.784
549.58	19.811
549.92	18.814
550.26	19.288
550.60	19.974
550.94	19.599
551.28	18.812
551.62	18.666
551.96	19.547
552.30	20.076
552.64	19.726
552.98	18.902
553.32	19.293
553.66	18.971
554.00	18.916
554.34	18.983
554.68	19.561
555.02	18.988
555.36	19.198
555.69	19.154
556.03	19.042
556.37	19.149
556.71	19.277
557.05	19.617
557.39	18.845
557.73	18.890
558.07	18.609
558.41	19.867
558.75	18.864
559.08	20.320
559.42	18.244
559.76	19.878
560.10	20.295
560.44	18.470
560.78	19.688
561.12	19.089
561.45	19.282
561.79	19.414
562.13	19.409
562.47	18.742
562.81	19.747
563.15	18.308
563.48	18.956
563.82	18.984
564.16	18.716
564.50	18.951
564.84	19.233
565.17	18.353
565.51	18.527
565.85	19.062
566.19	18.952
566.52	18.724
566.86	18.732
567.20	17.781
567.54	18.534
567.88	18.909
568.21	18.972
568.55	18.801
568.89	19.473
569.23	19.349
569.56	18.132
569.90	18.567
570.24	17.976
570.57	17.575
570.91	17.606
571.25	17.356
571.59	17.645
571.92	17.804
572.26	18.184
572.60	18.373
572.93	17.618
573.27	17.421
573.61	17.390
573.95	17.237
574.28	17.449
574.62	17.121
574.96	16.917
575.29	17.515
575.63	17.186
575.97	17.485
576.30	17.839
576.64	17.323
576.98	17.563
577.31	17.827
577.65	17.870
577.98	17.338
578.32	17.669
578.66	17.471
578.99	17.694
579.33	17.697
579.67	17.520
580.00	17.285
580.34	17.299
580.67	17.454
581.01	17.330
581.35	17.144
581.68	16.877
582.02	17.345
582.35	17.741
582.69	17.294
583.02	17.268
583.36	17.293
583.70	17.382
584.03	17.423
584.37	17.527
584.70	17.115
585.04	17.019
585.37	17.411
585.71	17.066
586.04	17.459
586.38	17.270
586.72	17.348
587.05	17.345
587.39	17.527
587.72	17.584
588.06	17.432
588.39	17.600
588.73	17.698
589.06	17.523
589.40	17.517
589.73	17.609
590.07	17.706
590.40	18.526
590.73	18.169
591.07	18.094
591.40	17.496
591.74	17.488
592.07	18.879
592.41	17.784
592.74	17.678
593.08	18.057
593.41	18.139
593.75	17.701
594.08	17.873
594.41	17.917
594.75	17.370
595.08	17.463
595.42	17.273
595.75	17.727
596.09	17.926
596.42	17.449
596.75	18.101
597.09	19.071
597.42	17.998
597.75	17.954
598.09	17.540
598.42	17.813
598.76	18.151
599.09	17.658
599.42	17.432
599.76	17.597
600.09	17.818
600.42	18.151
600.76	17.635
601.09	17.358
601.42	17.336
601.76	17.517
602.09	17.906
602.42	17.339
602.76	17.454
603.09	18.135
603.42	17.594
603.76	17.935
604.09	18.666
604.42	17.872
604.76	17.123
605.09	17.870
605.42	17.504
605.75	17.654
606.09	17.768
606.42	17.475
606.75	17.429
607.09	17.512
607.42	17.919
607.75	18.054
608.08	17.877
608.42	17.936
608.75	17.869
609.08	18.124
609.41	18.086
609.75	17.768
610.08	18.338
610.41	17.884
610.74	17.773
611.07	18.162
611.41	19.013
611.74	18.614
612.07	18.046
612.40	17.918
612.73	18.435
613.07	17.995
613.40	18.431
613.73	17.670
614.06	18.744
614.39	18.027
614.72	18.098
615.06	18.431
615.39	17.786
615.72	18.057
616.05	17.727
616.38	18.517
616.71	18.443
617.05	17.519
617.38	18.085
617.71	18.413
618.04	17.755
618.37	18.142
618.70	18.552
619.03	18.459
619.36	17.941
619.69	18.834
620.03	18.142
620.36	18.834
620.69	18.816
621.02	19.291
621.35	18.433
621.68	19.812
622.01	19.075
622.34	18.340
622.67	18.144
623.00	18.556
623.33	19.111
623.66	19.261
623.99	18.038
624.32	20.403
624.65	18.275
624.99	20.156
625.32	19.660
625.65	19.285
625.98	18.915
626.31	18.427
626.64	19.487
626.97	18.905
627.30	19.210
627.63	18.080
627.96	20.420
628.29	20.000
628.62	18.472
628.95	20.245
629.28	19.371
629.61	19.865
629.94	20.418
630.26	18.983
630.59	19.516
630.92	19.567
631.25	19.141
631.58	20.904
631.91	20.337
632.24	19.981
632.57	20.873
632.90	20.160
