SpectraSuite Data File
++++++++++++++++++++++++++++++++++++
Date: Thu May 14 14:34:52 PDT 2015
User: schluterlab
Dark Spectrum Present: Yes
Reference Spectrum Present: Yes
Number of Sampled Component Spectra: 1
Spectrometers: USB2E3373
Integration Time (usec): 3000 (USB2E3373)
Spectra Averaged: 3 (USB2E3373)
Boxcar Smoothing: 0 (USB2E3373)
Correct for Electrical Dark: No (USB2E3373)
Strobe/Lamp Enabled: No (USB2E3373)
Correct for Detector Non-linearity: No (USB2E3373)
Correct for Stray Light: No (USB2E3373)
Number of Pixels in Processed Spectrum: 2048
>>>>>Begin Processed Spectral Data<<<<<
178.53	0.000
178.91	-200.000
179.29	500.000
179.67	900.000
180.04	-28.571
180.42	-130.000
180.80	-420.000
181.18	1400.000
181.56	3100.000
181.94	-425.000
182.31	375.000
182.69	-933.333
183.07	850.000
183.45	-300.000
183.83	266.667
184.20	333.333
184.58	-1900.000
184.96	475.000
185.34	177.778
185.72	540.000
186.09	-66.667
186.47	-700.000
186.85	-420.000
187.23	88.889
187.61	1700.000
187.98	-200.000
188.36	-225.000
188.74	400.000
189.12	766.667
189.49	156.250
189.87	175.000
190.25	200.000
190.63	320.000
191.00	211.111
191.38	0.000
191.76	275.000
192.14	316.667
192.51	-900.000
192.89	483.333
193.27	0.000
193.65	314.286
194.02	300.000
194.40	371.429
194.78	-271.429
195.15	0.000
195.53	218.182
195.91	0.000
196.29	675.000
196.66	115.385
197.04	1000.000
197.42	228.571
197.79	800.000
198.17	212.500
198.55	242.857
198.92	200.000
199.30	287.500
199.68	245.455
200.05	150.000
200.43	450.000
200.81	-300.000
201.18	0.000
201.56	-66.667
201.94	0.000
202.31	-433.333
202.69	111.111
203.07	-2200.000
203.44	233.333
203.82	350.000
204.19	108.333
204.57	466.667
204.95	237.500
205.32	1500.000
205.70	-325.000
206.08	400.000
206.45	366.667
206.83	-180.000
207.20	333.333
207.58	220.000
207.96	266.667
208.33	500.000
208.71	-133.333
209.08	400.000
209.46	0.000
209.84	-233.333
210.21	-900.000
210.59	-850.000
210.96	-633.333
211.34	400.000
211.71	162.500
212.09	1900.000
212.46	0.000
212.84	-300.000
213.22	160.000
213.59	200.000
213.97	120.000
214.34	500.000
214.72	-200.000
215.09	250.000
215.47	0.000
215.84	-142.857
216.22	-400.000
216.59	360.000
216.97	160.000
217.34	325.000
217.72	250.000
218.09	275.000
218.47	300.000
218.84	0.000
219.22	-500.000
219.59	129.412
219.97	135.000
220.34	-600.000
220.72	188.889
221.09	192.308
221.47	566.667
221.84	130.000
222.22	142.857
222.59	0.000
222.97	287.500
223.34	120.000
223.72	1600.000
224.09	600.000
224.46	275.000
224.84	480.000
225.21	157.143
225.59	300.000
225.96	275.000
226.34	103.846
226.71	-133.333
227.08	1000.000
227.46	173.333
227.83	375.000
228.21	126.316
228.58	-275.000
228.95	-500.000
229.33	150.000
229.70	220.000
230.08	126.316
230.45	-200.000
230.82	866.667
231.20	178.571
231.57	208.333
231.95	172.727
232.32	154.545
232.69	110.000
233.07	525.000
233.44	117.647
233.81	200.000
234.19	144.444
234.56	145.455
234.93	96.552
235.31	121.053
235.68	138.889
236.05	110.000
236.43	119.231
236.80	164.000
237.17	96.296
237.55	81.818
237.92	160.000
238.29	112.903
238.67	63.636
239.04	88.889
239.41	59.524
239.79	78.261
240.16	74.074
240.53	71.739
240.91	76.471
241.28	60.656
241.65	61.194
242.02	54.054
242.40	38.462
242.77	57.333
243.14	50.000
243.51	64.474
243.89	47.436
244.26	44.554
244.63	48.039
245.00	48.598
245.38	38.596
245.75	33.628
246.12	51.587
246.49	37.209
246.87	45.000
247.24	43.709
247.61	40.789
247.98	43.624
248.36	40.123
248.73	36.810
249.10	37.705
249.47	39.801
249.84	41.361
250.22	37.824
250.59	37.778
250.96	42.273
251.33	38.776
251.70	35.043
252.08	38.333
252.45	38.934
252.82	36.364
253.19	38.672
253.56	42.586
253.94	33.462
254.31	40.530
254.68	38.811
255.05	37.785
255.42	38.095
255.79	32.039
256.16	33.775
256.54	32.781
256.91	35.410
257.28	36.721
257.65	31.847
258.02	35.103
258.39	33.903
258.76	34.557
259.14	38.506
259.51	35.159
259.88	35.127
260.25	35.556
260.62	38.356
260.99	37.158
261.36	34.584
261.73	35.013
262.10	35.989
262.47	38.070
262.85	37.626
263.22	32.987
263.59	33.684
263.96	34.015
264.33	34.015
264.70	34.815
265.07	35.800
265.44	35.601
265.81	30.324
266.18	34.240
266.55	35.045
266.92	33.485
267.29	34.136
267.66	34.812
268.03	33.188
268.40	34.656
268.77	31.435
269.14	32.599
269.51	35.307
269.88	33.811
270.25	33.602
270.62	33.755
270.99	32.727
271.36	32.079
271.73	34.185
272.10	33.667
272.47	32.665
272.84	33.133
273.21	32.665
273.58	32.056
273.95	31.923
274.32	31.559
274.69	33.269
275.06	34.982
275.43	31.793
275.80	30.335
276.17	29.444
276.54	30.970
276.91	30.948
277.28	31.465
277.65	31.418
278.02	31.250
278.39	30.435
278.76	30.404
279.13	30.851
279.50	31.787
279.87	31.843
280.23	29.049
280.60	31.864
280.97	30.757
281.34	31.749
281.71	31.641
282.08	31.894
282.45	31.097
282.82	29.984
283.19	28.433
283.56	30.492
283.92	31.231
284.29	30.016
284.66	29.557
285.03	28.526
285.40	29.057
285.77	32.198
286.14	30.992
286.51	30.746
286.87	29.542
287.24	29.669
287.61	30.194
287.98	28.399
288.35	28.698
288.72	28.994
289.08	29.575
289.45	27.071
289.82	28.012
290.19	27.155
290.56	28.028
290.93	27.675
291.29	26.997
291.66	26.446
292.03	26.459
292.40	27.619
292.77	26.954
293.13	27.740
293.50	26.544
293.87	26.980
294.24	26.533
294.60	25.664
294.97	23.356
295.34	27.273
295.71	25.095
296.08	25.452
296.44	27.206
296.81	25.457
297.18	26.152
297.55	25.472
297.91	23.962
298.28	24.171
298.65	24.019
299.02	24.203
299.38	22.769
299.75	22.780
300.12	23.148
300.48	24.654
300.85	24.409
301.22	25.391
301.59	23.516
301.95	22.938
302.32	23.556
302.69	22.125
303.05	23.721
303.42	24.169
303.79	22.812
304.15	23.344
304.52	23.362
304.89	22.513
305.25	23.395
305.62	23.093
305.99	23.814
306.35	22.480
306.72	22.751
307.09	22.335
307.45	23.085
307.82	21.897
308.19	23.007
308.55	23.144
308.92	22.687
309.29	22.701
309.65	22.125
310.02	23.168
310.38	22.244
310.75	24.369
311.12	22.627
311.48	23.167
311.85	23.552
312.22	23.150
312.58	23.380
312.95	22.945
313.31	22.945
313.68	22.985
314.05	23.035
314.41	23.770
314.78	23.797
315.14	24.229
315.51	24.469
315.87	24.302
316.24	24.932
316.61	25.311
316.97	24.887
317.34	23.280
317.70	25.415
318.07	25.044
318.43	25.425
318.80	25.585
319.16	24.635
319.53	24.422
319.89	25.504
320.26	25.178
320.62	24.911
320.99	26.223
321.35	25.416
321.72	26.977
322.08	25.969
322.45	27.010
322.81	26.444
323.18	25.398
323.54	26.638
323.91	27.669
324.27	25.904
324.64	25.945
325.00	26.783
325.37	27.027
325.73	27.355
326.10	27.413
326.46	28.990
326.83	29.063
327.19	27.323
327.56	27.905
327.92	27.616
328.29	26.774
328.65	28.141
329.01	28.680
329.38	28.391
329.74	29.024
330.11	28.425
330.47	28.475
330.84	28.768
331.20	29.250
331.56	28.163
331.93	28.870
332.29	28.136
332.66	30.233
333.02	28.643
333.38	28.859
333.75	29.209
334.11	27.940
334.48	29.208
334.84	28.717
335.20	28.799
335.57	27.993
335.93	28.678
336.29	28.203
336.66	28.175
337.02	29.849
337.38	29.337
337.75	28.512
338.11	30.193
338.47	29.694
338.84	28.511
339.20	29.823
339.56	28.748
339.93	29.557
340.29	28.744
340.65	28.224
341.02	28.731
341.38	28.618
341.74	28.168
342.11	27.595
342.47	28.038
342.83	28.744
343.20	29.763
343.56	28.869
343.92	28.183
344.28	28.750
344.65	29.302
345.01	28.549
345.37	28.694
345.73	27.436
346.10	29.329
346.46	28.244
346.82	29.213
347.19	28.648
347.55	28.983
347.91	27.935
348.27	29.135
348.63	27.875
349.00	28.486
349.36	28.699
349.72	29.241
350.08	28.603
350.45	28.365
350.81	29.261
351.17	28.271
351.53	29.492
351.89	28.018
352.26	29.403
352.62	28.955
352.98	28.015
353.34	27.782
353.70	28.428
354.07	28.465
354.43	27.563
354.79	27.674
355.15	28.035
355.51	28.289
355.87	27.749
356.24	28.669
356.60	27.642
356.96	27.724
357.32	28.550
357.68	27.672
358.04	27.320
358.40	27.761
358.77	28.509
359.13	27.105
359.49	27.881
359.85	28.354
360.21	28.910
360.57	26.418
360.93	27.504
361.29	28.000
361.66	28.023
362.02	28.532
362.38	28.672
362.74	28.492
363.10	28.955
363.46	28.601
363.82	28.054
364.18	29.064
364.54	28.216
364.90	28.094
365.26	28.828
365.62	29.733
365.98	28.319
366.35	28.054
366.71	29.728
367.07	28.687
367.43	29.416
367.79	28.865
368.15	30.635
368.51	28.687
368.87	29.131
369.23	28.600
369.59	28.825
369.95	28.127
370.31	29.575
370.67	29.298
371.03	28.740
371.39	27.602
371.75	29.023
372.11	29.336
372.47	28.233
372.83	29.254
373.19	29.420
373.55	29.336
373.91	28.903
374.27	29.043
374.63	29.635
374.99	30.106
375.35	29.675
375.71	29.871
376.07	29.051
376.42	29.723
376.78	29.832
377.14	29.507
377.50	30.108
377.86	30.542
378.22	30.539
378.58	29.548
378.94	30.634
379.30	30.287
379.66	29.865
380.02	30.006
380.38	30.069
380.74	30.197
381.09	29.965
381.45	30.625
381.81	31.382
382.17	31.532
382.53	31.871
382.89	30.926
383.25	31.360
383.61	30.556
383.97	30.801
384.32	31.041
384.68	30.974
385.04	31.695
385.40	32.705
385.76	32.239
386.12	32.017
386.48	31.941
386.83	32.539
387.19	31.344
387.55	31.514
387.91	31.906
388.27	32.564
388.62	32.646
388.98	32.431
389.34	32.587
389.70	33.178
390.06	33.629
390.42	31.627
390.77	32.812
391.13	32.923
391.49	33.213
391.85	32.485
392.20	34.045
392.56	32.664
392.92	33.424
393.28	33.333
393.64	33.017
393.99	33.643
394.35	33.528
394.71	34.012
395.07	33.772
395.42	33.124
395.78	34.065
396.14	34.343
396.50	33.492
396.85	33.214
397.21	33.905
397.57	34.511
397.92	33.505
398.28	33.134
398.64	34.096
399.00	32.723
399.35	33.770
399.71	32.609
400.07	34.419
400.42	34.400
400.78	33.623
401.14	33.125
401.49	35.247
401.85	34.884
402.21	34.705
402.57	34.272
402.92	35.225
403.28	33.489
403.63	34.666
403.99	33.848
404.35	33.542
404.70	34.504
405.06	34.293
405.42	34.016
405.77	34.678
406.13	34.522
406.49	34.291
406.84	33.463
407.20	33.706
407.55	34.585
407.91	33.690
408.27	34.393
408.62	34.380
408.98	33.836
409.34	35.308
409.69	35.229
410.05	34.291
410.40	34.745
410.76	34.436
411.11	35.126
411.47	34.582
411.83	35.332
412.18	34.819
412.54	34.618
412.89	34.459
413.25	35.327
413.60	35.267
413.96	34.674
414.31	33.824
414.67	35.659
415.03	34.769
415.38	35.309
415.74	35.675
416.09	35.225
416.45	34.878
416.80	35.067
417.16	36.079
417.51	35.305
417.87	35.377
418.22	35.269
418.58	35.626
418.93	35.448
419.29	35.512
419.64	35.354
420.00	34.303
420.35	35.205
420.71	36.071
421.06	34.733
421.42	35.034
421.77	34.895
422.12	34.937
422.48	35.996
422.83	35.980
423.19	35.862
423.54	36.615
423.90	36.057
424.25	35.787
424.61	35.132
424.96	35.310
425.31	36.571
425.67	35.749
426.02	35.030
426.38	35.189
426.73	34.654
427.09	36.678
427.44	34.735
427.79	36.042
428.15	35.788
428.50	35.169
428.85	36.165
429.21	36.968
429.56	35.390
429.92	36.364
430.27	35.952
430.62	36.199
430.98	35.563
431.33	35.875
431.68	35.680
432.04	36.313
432.39	37.065
432.74	36.815
433.10	37.317
433.45	37.068
433.80	37.768
434.16	36.415
434.51	37.873
434.86	37.025
435.22	36.823
435.57	38.915
435.92	37.841
436.28	37.941
436.63	38.613
436.98	37.627
437.34	37.937
437.69	38.140
438.04	38.815
438.39	37.392
438.75	38.794
439.10	38.478
439.45	38.737
439.81	38.644
440.16	37.909
440.51	38.573
440.86	37.410
441.22	38.210
441.57	39.518
441.92	37.585
442.27	39.545
442.63	38.450
442.98	39.061
443.33	38.401
443.68	38.999
444.03	38.617
444.39	38.465
444.74	39.051
445.09	38.723
445.44	39.041
445.79	38.697
446.15	39.979
446.50	39.018
446.85	39.494
447.20	39.120
447.55	38.703
447.91	38.482
448.26	38.901
448.61	39.373
448.96	40.612
449.31	38.653
449.66	37.908
450.02	40.032
450.37	40.011
450.72	39.397
451.07	39.465
451.42	39.110
451.77	39.133
452.12	39.898
452.47	39.810
452.83	41.329
453.18	40.455
453.53	40.207
453.88	40.420
454.23	40.734
454.58	40.859
454.93	40.595
455.28	41.421
455.63	39.966
455.98	40.503
456.34	40.636
456.69	40.035
457.04	40.839
457.39	40.299
457.74	41.443
458.09	39.649
458.44	40.302
458.79	40.536
459.14	41.164
459.49	40.634
459.84	41.815
460.19	40.533
460.54	40.829
460.89	40.709
461.24	41.322
461.59	40.232
461.94	39.817
462.29	40.929
462.64	40.072
462.99	41.871
463.34	42.245
463.69	41.383
464.04	41.857
464.39	41.536
464.74	41.676
465.09	42.561
465.44	41.738
465.79	40.508
466.14	40.803
466.49	41.632
466.84	42.755
467.19	42.312
467.54	40.188
467.89	42.529
468.24	42.493
468.59	41.691
468.94	41.900
469.29	42.651
469.64	42.594
469.99	42.830
470.34	42.203
470.68	44.156
471.03	43.746
471.38	44.474
471.73	43.043
472.08	43.909
472.43	43.046
472.78	43.136
473.13	43.869
473.48	44.230
473.83	43.297
474.17	43.494
474.52	44.137
474.87	43.023
475.22	43.944
475.57	43.094
475.92	43.106
476.27	43.024
476.61	42.731
476.96	42.701
477.31	42.822
477.66	44.439
478.01	44.128
478.36	43.868
478.70	44.236
479.05	44.427
479.40	42.646
479.75	43.564
480.10	43.818
480.45	43.573
480.79	43.537
481.14	43.658
481.49	44.025
481.84	43.037
482.19	44.172
482.53	43.900
482.88	43.686
483.23	43.708
483.58	43.668
483.92	43.041
484.27	43.184
484.62	43.358
484.97	42.068
485.31	43.330
485.66	41.453
486.01	39.982
486.36	40.089
486.70	40.222
487.05	41.303
487.40	41.258
487.75	42.010
488.09	42.406
488.44	42.787
488.79	43.575
489.13	43.121
489.48	44.155
489.83	43.702
490.17	44.188
490.52	43.514
490.87	44.120
491.22	44.237
491.56	44.155
491.91	44.222
492.26	44.613
492.60	44.338
492.95	43.528
493.30	44.688
493.64	44.634
493.99	44.474
494.34	44.251
494.68	44.069
495.03	44.934
495.37	45.495
495.72	44.354
496.07	44.741
496.41	44.573
496.76	44.370
497.11	44.756
497.45	44.756
497.80	44.780
498.14	44.671
498.49	45.588
498.84	45.293
499.18	45.704
499.53	45.785
499.87	46.110
500.22	44.301
500.56	45.794
500.91	45.355
501.26	46.318
501.60	45.250
501.95	45.680
502.29	45.327
502.64	45.256
502.98	44.996
503.33	45.270
503.67	45.312
504.02	46.322
504.36	46.336
504.71	46.670
505.06	45.975
505.40	46.161
505.75	45.674
506.09	46.179
506.44	47.075
506.78	46.697
507.13	46.611
507.47	47.513
507.82	46.591
508.16	47.467
508.51	46.507
508.85	47.709
509.19	47.892
509.54	47.310
509.88	47.450
510.23	47.693
510.57	48.719
510.92	48.137
511.26	47.475
511.61	45.678
511.95	47.096
512.30	49.926
512.64	47.126
512.98	47.974
513.33	48.942
513.67	49.108
514.02	50.077
514.36	49.361
514.70	49.479
515.05	48.957
515.39	48.661
515.74	49.682
516.08	49.815
516.42	50.288
516.77	49.579
517.11	48.788
517.46	49.735
517.80	50.508
518.14	51.795
518.49	50.000
518.83	49.601
519.17	48.681
519.52	50.996
519.86	49.472
520.20	49.468
520.55	49.945
520.89	49.775
521.23	50.865
521.58	50.847
521.92	50.765
522.26	50.286
522.61	50.579
522.95	51.384
523.29	50.747
523.64	51.065
523.98	51.055
524.32	51.404
524.66	50.484
525.01	50.453
525.35	50.431
525.69	51.218
526.04	49.885
526.38	51.437
526.72	51.153
527.06	51.613
527.41	50.671
527.75	51.603
528.09	51.712
528.43	50.918
528.78	50.578
529.12	51.319
529.46	50.646
529.80	51.144
530.15	51.304
530.49	50.830
530.83	51.122
531.17	51.613
531.51	51.324
531.86	50.841
532.20	51.402
532.54	51.227
532.88	51.879
533.22	52.151
533.57	49.913
533.91	51.122
534.25	50.876
534.59	50.977
534.93	49.802
535.27	50.028
535.62	51.450
535.96	51.482
536.30	51.058
536.64	52.312
536.98	53.075
537.32	52.222
537.66	52.090
538.01	51.118
538.35	50.792
538.69	50.601
539.03	51.625
539.37	51.708
539.71	51.291
540.05	52.278
540.39	50.795
540.73	49.666
541.07	51.747
541.42	50.502
541.76	50.297
542.10	50.663
542.44	50.061
542.78	50.243
543.12	50.656
543.46	51.404
543.80	49.460
544.14	49.431
544.48	50.591
544.82	51.706
545.16	50.268
545.50	51.348
545.84	49.663
546.18	50.617
546.52	51.274
546.86	50.566
547.20	52.481
547.54	51.748
547.88	50.573
548.22	50.877
548.56	49.269
548.90	52.060
549.24	51.125
549.58	50.536
549.92	51.594
550.26	51.780
550.60	51.436
550.94	50.323
551.28	51.287
551.62	52.291
551.96	51.715
552.30	50.988
552.64	51.400
552.98	51.029
553.32	51.704
553.66	51.511
554.00	50.757
554.34	50.837
554.68	49.128
555.02	51.774
555.36	51.940
555.69	51.634
556.03	49.685
556.37	51.001
556.71	51.997
557.05	51.182
557.39	51.626
557.73	52.114
558.07	51.921
558.41	51.894
558.75	52.603
559.08	52.818
559.42	51.372
559.76	51.560
560.10	51.909
560.44	50.660
560.78	52.000
561.12	51.970
561.45	50.973
561.79	51.282
562.13	51.078
562.47	49.815
562.81	50.316
563.15	50.505
563.48	51.833
563.82	50.302
564.16	50.636
564.50	51.013
564.84	49.794
565.17	49.882
565.51	48.677
565.85	49.881
566.19	49.654
566.52	50.263
566.86	49.689
567.20	49.538
567.54	49.708
567.88	50.102
568.21	48.419
568.55	49.257
568.89	48.434
569.23	47.782
569.56	46.854
569.90	46.115
570.24	46.813
570.57	46.600
570.91	45.285
571.25	45.270
571.59	45.561
571.92	44.989
572.26	45.236
572.60	45.564
572.93	45.116
573.27	44.732
573.61	44.521
573.95	44.792
574.28	43.915
574.62	44.134
574.96	43.449
575.29	43.181
575.63	44.375
575.97	44.000
576.30	44.683
576.64	44.548
576.98	44.282
577.31	44.612
577.65	44.160
577.98	43.976
578.32	43.721
578.66	42.612
578.99	43.088
579.33	44.220
579.67	43.654
580.00	43.560
580.34	43.783
580.67	43.667
581.01	44.158
581.35	43.698
581.68	43.461
582.02	42.622
582.35	43.423
582.69	43.449
583.02	43.599
583.36	44.075
583.70	44.081
584.03	44.780
584.37	44.680
584.70	44.890
585.04	43.571
585.37	43.615
585.71	43.991
586.04	44.100
586.38	43.895
586.72	44.071
587.05	43.848
587.39	44.303
587.72	44.234
588.06	44.826
588.39	44.660
588.73	44.577
589.06	45.203
589.40	45.913
589.73	45.276
590.07	45.126
590.40	45.639
590.73	46.271
591.07	46.463
591.40	46.073
591.74	47.377
592.07	47.056
592.41	45.544
592.74	45.616
593.08	45.350
593.41	44.794
593.75	44.914
594.08	44.986
594.41	45.769
594.75	44.537
595.08	45.390
595.42	45.487
595.75	45.108
596.09	46.018
596.42	46.471
596.75	46.160
597.09	47.071
597.42	47.040
597.75	46.648
598.09	46.230
598.42	47.004
598.76	45.166
599.09	45.568
599.42	44.284
599.76	44.371
600.09	45.412
600.42	45.279
600.76	45.046
601.09	44.739
601.42	44.422
601.76	45.000
602.09	44.961
602.42	45.656
602.76	45.277
603.09	45.705
603.42	45.845
603.76	45.278
604.09	46.735
604.42	45.688
604.76	45.396
605.09	47.028
605.42	46.172
605.75	45.192
606.09	45.203
606.42	44.582
606.75	46.064
607.09	44.547
607.42	45.819
607.75	45.643
608.08	46.054
608.42	45.143
608.75	45.771
609.08	45.671
609.41	46.890
609.75	46.607
610.08	47.054
610.41	46.347
610.74	46.723
611.07	47.469
611.41	47.085
611.74	47.760
612.07	47.359
612.40	47.481
612.73	46.944
613.07	47.335
613.40	47.449
613.73	46.509
614.06	48.283
614.39	47.133
614.72	46.870
615.06	46.391
615.39	46.399
615.72	47.346
616.05	46.139
616.38	47.730
616.71	48.537
617.05	48.349
617.38	47.994
617.71	47.894
618.04	47.868
618.37	49.071
618.70	48.869
619.03	48.029
619.36	49.568
619.69	48.174
620.03	49.153
620.36	48.957
620.69	49.661
621.02	51.181
621.35	52.104
621.68	51.193
622.01	51.032
622.34	50.209
622.67	49.278
623.00	48.988
623.33	50.498
623.66	50.259
623.99	48.650
624.32	50.162
624.65	48.391
624.99	49.675
625.32	50.882
625.65	49.899
625.98	49.288
626.31	51.595
626.64	51.795
626.97	50.038
627.30	51.481
627.63	51.763
627.96	52.252
628.29	51.284
628.62	51.721
628.95	53.374
629.28	51.402
629.61	52.946
629.94	50.962
630.26	51.695
630.59	53.022
630.92	51.515
631.25	54.651
631.58	54.802
631.91	54.358
632.24	56.292
632.57	54.459
