SpectraSuite Data File
++++++++++++++++++++++++++++++++++++
Date: Thu May 14 15:03:43 PDT 2015
User: schluterlab
Dark Spectrum Present: Yes
Reference Spectrum Present: Yes
Number of Sampled Component Spectra: 1
Spectrometers: USB2E3373
Integration Time (usec): 3000 (USB2E3373)
Spectra Averaged: 3 (USB2E3373)
Boxcar Smoothing: 0 (USB2E3373)
Correct for Electrical Dark: No (USB2E3373)
Strobe/Lamp Enabled: No (USB2E3373)
Correct for Detector Non-linearity: No (USB2E3373)
Correct for Stray Light: No (USB2E3373)
Number of Pixels in Processed Spectrum: 2048
>>>>>Begin Processed Spectral Data<<<<<
178.53	0.000
178.91	314.286
179.29	-2300.000
179.67	-2300.000
180.04	285.714
180.42	220.000
180.80	520.000
181.18	-3100.000
181.56	-2100.000
181.94	425.000
182.31	-400.000
182.69	700.000
183.07	-750.000
183.45	775.000
183.83	-366.667
184.20	-900.000
184.58	2400.000
184.96	-575.000
185.34	-344.444
185.72	-400.000
186.09	322.222
186.47	750.000
186.85	840.000
187.23	-244.444
187.61	-2400.000
187.98	560.000
188.36	550.000
188.74	-650.000
189.12	-633.333
189.49	-125.000
189.87	-337.500
190.25	-177.778
190.63	-360.000
191.00	-300.000
191.38	0.000
191.76	-725.000
192.14	-450.000
192.51	950.000
192.89	-166.667
193.27	0.000
193.65	-314.286
194.02	-3900.000
194.40	-300.000
194.78	371.429
195.15	0.000
195.53	-200.000
195.91	0.000
196.29	-675.000
196.66	-146.154
197.04	-2400.000
197.42	-328.571
197.79	-1200.000
198.17	-350.000
198.55	-400.000
198.92	-222.222
199.30	-300.000
199.68	-181.818
200.05	-185.714
200.43	-1500.000
200.81	428.571
201.18	0.000
201.56	433.333
201.94	0.000
202.31	933.333
202.69	-266.667
203.07	2300.000
203.44	-188.889
203.82	-700.000
204.19	-200.000
204.57	-516.667
204.95	-325.000
205.32	-2700.000
205.70	725.000
206.08	-300.000
206.45	-233.333
206.83	760.000
207.20	-483.333
207.58	-500.000
207.96	-500.000
208.33	-216.667
208.71	233.333
209.08	-316.667
209.46	0.000
209.84	566.667
210.21	850.000
210.59	1200.000
210.96	800.000
211.34	-400.000
211.71	-300.000
212.09	-3000.000
212.46	0.000
212.84	1750.000
213.22	-440.000
213.59	-650.000
213.97	-250.000
214.34	-900.000
214.72	383.333
215.09	-675.000
215.47	0.000
215.84	371.429
216.22	1450.000
216.59	-340.000
216.97	-380.000
217.34	-550.000
217.72	-337.500
218.09	-500.000
218.47	-750.000
218.84	0.000
219.22	340.000
219.59	-123.529
219.97	-55.000
220.34	1400.000
220.72	-222.222
221.09	-53.846
221.47	-900.000
221.84	-150.000
222.22	-400.000
222.59	0.000
222.97	-237.500
223.34	-620.000
223.72	-2900.000
224.09	-975.000
224.46	-800.000
224.84	-380.000
225.21	-442.857
225.59	-700.000
225.96	-425.000
226.34	-42.308
226.71	550.000
227.08	-1600.000
227.46	-80.000
227.83	-675.000
228.21	-89.474
228.58	362.500
228.95	1600.000
229.33	-125.000
229.70	-260.000
230.08	-47.368
230.45	300.000
230.82	-933.333
231.20	-121.429
231.57	-91.667
231.95	-218.182
232.32	-236.364
232.69	-120.000
233.07	-650.000
233.44	-129.412
233.81	-240.000
234.19	-88.889
234.56	-100.000
234.93	-44.828
235.31	-110.526
235.68	-116.667
236.05	-185.000
236.43	-61.538
236.80	-52.000
237.17	-59.259
237.55	-72.727
237.92	-310.000
238.29	-74.194
238.67	-50.000
239.04	-44.444
239.41	-57.143
239.79	-60.870
240.16	-44.444
240.53	-67.391
240.91	-70.588
241.28	-36.066
241.65	-19.403
242.02	-27.027
242.40	-50.769
242.77	-30.667
243.14	-37.805
243.51	-57.895
243.89	-50.000
244.26	-14.851
244.63	-15.686
245.00	-20.561
245.38	-23.684
245.75	-33.628
246.12	-12.698
246.49	-22.481
246.87	-17.857
247.24	-11.258
247.61	-17.763
247.98	-17.450
248.36	-16.049
248.73	-18.405
249.10	-13.661
249.47	-7.960
249.84	-6.283
250.22	-13.990
250.59	-8.889
250.96	-6.364
251.33	-18.878
251.70	-8.974
252.08	-10.000
252.45	-9.836
252.82	-13.636
253.19	-13.672
253.56	-8.365
253.94	-8.077
254.31	-5.303
254.68	-6.294
255.05	-5.863
255.42	-7.823
255.79	-6.472
256.16	-10.596
256.54	-10.265
256.91	-3.934
257.28	-10.820
257.65	-10.510
258.02	-10.029
258.39	-5.698
258.76	-3.364
259.14	-6.034
259.51	-5.187
259.88	-9.065
260.25	-7.778
260.62	-7.397
260.99	-5.464
261.36	-4.021
261.73	-8.753
262.10	-8.791
262.47	-6.702
262.85	-4.545
263.22	-6.753
263.59	-7.632
263.96	-4.348
264.33	-7.417
264.70	-4.444
265.07	-4.296
265.44	-1.587
265.81	-5.787
266.18	-3.628
266.55	-4.911
266.92	-7.289
267.29	-5.033
267.66	-5.543
268.03	-3.930
268.40	-4.384
268.77	-7.289
269.14	-7.269
269.51	-5.921
269.88	-3.484
270.25	-2.616
270.62	-4.008
270.99	-2.020
271.36	-3.960
271.73	-4.126
272.10	-3.407
272.47	-6.012
272.84	-5.622
273.21	-4.008
273.58	-5.847
273.95	-5.769
274.32	-6.084
274.69	-6.576
275.06	-3.663
275.43	-5.730
275.80	-2.998
276.17	-4.630
276.54	-4.664
276.91	-4.472
277.28	-5.063
277.65	-4.488
278.02	-2.206
278.39	-3.986
278.76	-3.866
279.13	-3.901
279.50	-2.749
279.87	-3.041
280.23	-5.634
280.60	-4.237
280.97	-1.809
281.34	-5.093
281.71	-2.538
282.08	-3.156
282.45	-4.910
282.82	-3.297
283.19	-6.947
283.56	-5.902
283.92	-1.802
284.29	-1.580
284.66	-3.448
285.03	-4.968
285.40	-1.700
285.77	-3.715
286.14	-2.595
286.51	-2.131
286.87	-2.686
287.24	-4.217
287.61	-4.933
287.98	-3.323
288.35	-4.290
288.72	-5.473
289.08	-2.343
289.45	-3.254
289.82	-3.614
290.19	-3.305
290.56	-3.099
290.93	-4.850
291.29	-1.928
291.66	-2.893
292.03	-3.392
292.40	-2.041
292.77	-2.426
293.13	-2.842
293.50	-3.154
293.87	-2.953
294.24	-2.133
294.60	-1.643
294.97	-4.564
295.34	-2.689
295.71	-3.279
296.08	-2.713
296.44	-2.206
296.81	-3.776
297.18	-3.611
297.55	-3.420
297.91	-2.610
298.28	-2.962
298.65	-3.210
299.02	-2.834
299.38	-2.059
299.75	-1.636
300.12	-3.125
300.48	-3.802
300.85	-1.912
301.22	-1.678
301.59	-2.397
301.95	-2.373
302.32	-1.444
302.69	-1.972
303.05	-1.306
303.42	-1.441
303.79	-1.771
304.15	-1.998
304.52	-3.066
304.89	-2.094
305.25	-1.553
305.62	-1.881
305.99	-1.753
306.35	-1.210
306.72	-1.448
307.09	-1.929
307.45	-2.484
307.82	-2.624
308.19	-1.917
308.55	-0.771
308.92	-2.434
309.29	-1.437
309.65	-2.047
310.02	-2.178
310.38	-2.559
310.75	-1.748
311.12	-1.438
311.48	-2.737
311.85	-1.994
312.22	-2.372
312.58	-1.878
312.95	-2.390
313.31	-1.355
313.68	-1.465
314.05	-1.084
314.41	-1.548
314.78	-2.452
315.14	-2.269
315.51	-1.293
315.87	-0.450
316.24	-0.731
316.61	-0.888
316.97	-1.900
317.34	-1.587
317.70	-1.223
318.07	-1.764
318.43	-1.105
318.80	-0.084
319.16	-2.318
319.53	-2.314
319.89	-1.753
320.26	-0.356
320.62	-1.241
320.99	-0.185
321.35	-1.848
321.72	-0.558
322.08	-2.615
322.45	-1.084
322.81	-1.083
323.18	-1.504
323.54	-1.121
323.91	-0.623
324.27	-0.947
324.64	-0.840
325.00	-0.829
325.37	-0.573
325.73	-0.992
326.10	-0.487
326.46	-0.163
326.83	-0.160
327.19	-0.945
327.56	0.079
327.92	-1.416
328.29	-0.887
328.65	-1.173
329.01	-0.761
329.38	-0.168
329.74	0.428
330.11	-0.171
330.47	-0.758
330.84	-0.517
331.20	-0.083
331.56	-1.386
331.93	-0.335
332.29	-0.085
332.66	-0.831
333.02	-0.503
333.38	-0.755
333.75	-1.010
334.11	-0.417
334.48	-0.413
334.84	0.340
335.20	-0.840
335.57	-0.927
335.93	0.248
336.29	-0.832
336.66	0.084
337.02	0.251
337.38	0.425
337.75	-0.909
338.11	-0.841
338.47	-0.744
338.84	-0.677
339.20	-1.011
339.56	-0.659
339.93	-1.067
340.29	0.403
340.65	-0.487
341.02	-0.239
341.38	0.000
341.74	-0.081
342.11	0.161
342.47	-0.715
342.83	-0.242
343.20	-0.327
343.56	-1.043
343.92	-0.320
344.28	0.469
344.65	0.620
345.01	-0.156
345.37	0.000
345.73	-0.857
346.10	-0.078
346.46	-0.396
346.82	0.974
347.19	0.993
347.55	0.152
347.91	0.223
348.27	-0.683
348.63	0.381
349.00	-0.075
349.36	0.892
349.72	-0.372
350.08	0.817
350.45	-1.217
350.81	0.302
351.17	-0.602
351.53	-0.303
351.89	0.228
352.26	-0.522
352.62	0.299
352.98	-0.687
353.34	-0.523
353.70	-1.002
354.07	0.596
354.43	-1.595
354.79	0.150
355.15	-0.368
355.51	0.439
355.87	-0.898
356.24	-0.456
356.60	-0.222
356.96	-0.519
357.32	-0.149
357.68	-0.659
358.04	-1.198
358.40	-0.149
358.77	0.219
359.13	-0.591
359.49	-1.190
359.85	-0.508
360.21	-0.072
360.57	-0.287
360.93	-0.141
361.29	0.140
361.66	-0.217
362.02	0.626
362.38	-0.211
362.74	-0.140
363.10	0.344
363.46	-0.623
363.82	-0.568
364.18	0.211
364.54	0.207
364.90	0.535
365.26	-0.690
365.62	0.733
365.98	-0.477
366.35	-0.067
366.71	0.476
367.07	0.406
367.43	0.131
367.79	0.332
368.15	0.803
368.51	0.677
368.87	0.849
369.23	0.400
369.59	0.068
369.95	0.338
370.31	0.135
370.67	0.069
371.03	0.346
371.39	-0.201
371.75	0.138
372.11	0.407
372.47	0.339
372.83	1.047
373.19	0.467
373.55	0.000
373.91	-0.204
374.27	0.453
374.63	-0.609
374.99	0.133
375.35	0.519
375.71	0.129
376.07	0.194
376.42	0.441
376.78	1.181
377.14	0.686
377.50	0.063
377.86	1.170
378.22	0.838
378.58	0.535
378.94	0.587
379.30	0.937
379.66	0.294
380.02	0.635
380.38	1.037
380.74	0.620
381.09	1.278
381.45	1.307
381.81	0.995
382.17	0.653
382.53	0.877
382.89	0.959
383.25	0.469
383.61	0.174
383.97	0.942
384.32	0.538
384.68	0.580
385.04	1.562
385.40	1.650
385.76	1.524
386.12	1.496
386.48	1.412
386.83	1.907
387.19	0.811
387.55	0.528
387.91	1.199
388.27	1.848
388.62	1.604
388.98	0.790
389.34	1.532
389.70	1.627
390.06	1.362
390.42	1.265
390.77	2.288
391.13	1.291
391.49	2.234
391.85	0.970
392.20	1.483
392.56	2.126
392.92	2.072
393.28	2.045
393.64	1.117
393.99	2.150
394.35	1.636
394.71	1.916
395.07	0.898
395.42	1.599
395.78	1.889
396.14	1.901
396.50	1.960
396.85	1.968
397.21	1.479
397.57	1.649
397.92	2.463
398.28	1.141
398.64	1.659
399.00	1.990
399.35	1.885
399.71	1.359
400.07	1.965
400.42	1.863
400.78	1.968
401.14	1.764
401.49	2.103
401.85	1.337
402.21	1.738
402.57	2.171
402.92	1.478
403.28	1.756
403.63	1.492
403.99	1.247
404.35	2.160
404.70	2.040
405.06	2.065
405.42	1.581
405.77	2.072
406.13	1.729
406.49	2.083
406.84	2.271
407.20	1.453
407.55	1.514
407.91	1.006
408.27	1.943
408.62	2.152
408.98	2.089
409.34	1.232
409.69	1.483
410.05	2.286
410.40	2.262
410.76	1.626
411.11	1.812
411.47	1.843
411.83	2.234
412.18	1.325
412.54	1.897
412.89	1.688
413.25	1.580
413.60	1.264
413.96	1.981
414.31	1.813
414.67	1.789
415.03	1.785
415.38	1.955
415.74	1.649
416.09	2.283
416.45	1.190
416.80	1.958
417.16	2.107
417.51	1.930
417.87	1.839
418.22	1.856
418.58	2.354
418.93	2.445
419.29	1.295
419.64	1.261
420.00	1.721
420.35	2.021
420.71	1.723
421.06	1.265
421.42	1.778
421.77	1.346
422.12	2.326
422.48	2.202
422.83	1.807
423.19	1.538
423.54	2.102
423.90	1.767
424.25	1.867
424.61	1.493
424.96	2.142
425.31	2.229
425.67	1.718
426.02	1.273
426.38	2.181
426.73	1.172
427.09	3.287
427.44	1.584
427.79	2.101
428.15	1.998
428.50	1.517
428.85	1.952
429.21	2.660
429.56	1.974
429.92	1.671
430.27	2.217
430.62	1.368
430.98	1.869
431.33	2.004
431.68	1.628
432.04	2.133
432.39	2.035
432.74	1.712
433.10	2.488
433.45	1.394
433.80	1.985
434.16	2.221
434.51	2.312
434.86	1.900
435.22	2.285
435.57	2.123
435.92	1.781
436.28	2.048
436.63	1.912
436.98	2.791
437.34	2.255
437.69	2.146
438.04	2.538
438.39	2.068
438.75	1.826
439.10	2.484
439.45	2.124
439.81	2.768
440.16	2.145
440.51	2.731
440.86	1.890
441.22	2.626
441.57	2.044
441.92	2.522
442.27	2.626
442.63	2.534
442.98	3.415
443.33	2.841
443.68	3.271
444.03	3.246
444.39	3.098
444.74	2.603
445.09	2.737
445.44	2.898
445.79	3.065
446.15	2.569
446.50	2.739
446.85	2.821
447.20	3.240
447.55	2.824
447.91	3.037
448.26	2.696
448.61	2.604
448.96	3.273
449.31	3.393
449.66	2.778
450.02	3.481
450.37	3.090
450.72	3.068
451.07	3.075
451.42	2.600
451.77	2.501
452.12	2.822
452.47	2.496
452.83	2.872
453.18	2.452
453.53	2.470
453.88	2.650
454.23	3.277
454.58	3.134
454.93	1.881
455.28	3.131
455.63	2.729
455.98	3.240
456.34	3.121
456.69	2.469
457.04	2.837
457.39	2.716
457.74	3.132
458.09	3.020
458.44	3.125
458.79	2.733
459.14	3.146
459.49	2.660
459.84	3.358
460.19	2.776
460.54	2.953
460.89	3.123
461.24	2.471
461.59	3.874
461.94	2.339
462.29	3.024
462.64	3.138
462.99	2.762
463.34	2.920
463.69	3.517
464.04	3.669
464.39	3.363
464.74	2.965
465.09	2.537
465.44	3.165
465.79	3.490
466.14	3.127
466.49	3.211
466.84	3.030
467.19	3.064
467.54	2.879
467.89	3.161
468.24	3.601
468.59	2.432
468.94	2.855
469.29	2.220
469.64	1.971
469.99	2.422
470.34	3.032
470.68	2.461
471.03	3.405
471.38	2.878
471.73	2.731
472.08	3.363
472.43	3.131
472.78	3.526
473.13	2.592
473.48	2.840
473.83	3.424
474.17	3.224
474.52	2.946
474.87	3.322
475.22	3.493
475.57	3.479
475.92	3.385
476.27	3.088
476.61	3.219
476.96	2.920
477.31	3.564
477.66	3.620
478.01	3.559
478.36	3.141
478.70	3.350
479.05	3.681
479.40	3.455
479.75	3.362
480.10	3.269
480.45	3.601
480.79	3.946
481.14	2.941
481.49	3.226
481.84	3.916
482.19	3.742
482.53	4.023
482.88	3.190
483.23	3.424
483.58	3.755
483.92	3.014
484.27	3.641
484.62	3.630
484.97	3.499
485.31	3.555
485.66	3.646
486.01	3.657
486.36	4.133
486.70	4.319
487.05	4.259
487.40	4.133
487.75	4.046
488.09	3.832
488.44	3.761
488.79	3.744
489.13	3.802
489.48	3.184
489.83	3.501
490.17	2.997
490.52	3.736
490.87	4.061
491.22	3.423
491.56	3.584
491.91	3.881
492.26	3.635
492.60	3.323
492.95	3.774
493.30	3.541
493.64	3.022
493.99	3.904
494.34	3.484
494.68	3.340
495.03	3.216
495.37	3.862
495.72	3.719
496.07	3.550
496.41	3.604
496.76	3.628
497.11	3.694
497.45	3.841
497.80	3.465
498.14	3.537
498.49	3.768
498.84	3.382
499.18	3.239
499.53	3.274
499.87	3.824
500.22	3.117
500.56	3.239
500.91	3.661
501.26	3.682
501.60	3.624
501.95	3.691
502.29	3.335
502.64	4.198
502.98	3.926
503.33	3.629
503.67	3.402
504.02	3.634
504.36	3.619
504.71	3.583
505.06	3.411
505.40	3.428
505.75	4.007
506.09	3.591
506.44	3.482
506.78	4.174
507.13	3.642
507.47	3.837
507.82	3.835
508.16	3.920
508.51	3.751
508.85	3.496
509.19	3.837
509.54	4.083
509.88	3.400
510.23	3.643
510.57	4.060
510.92	4.354
511.26	3.367
511.61	4.056
511.95	3.758
512.30	4.530
512.64	3.548
512.98	3.602
513.33	3.881
513.67	3.315
514.02	3.577
514.36	3.734
514.70	3.594
515.05	3.806
515.39	2.992
515.74	4.348
516.08	4.068
516.42	4.343
516.77	4.574
517.11	4.177
517.46	3.499
517.80	4.169
518.14	4.733
518.49	4.338
518.83	4.098
519.17	4.416
519.52	4.140
519.86	3.696
520.20	4.420
520.55	4.217
520.89	3.378
521.23	3.462
521.58	4.237
521.92	3.796
522.26	3.608
522.61	4.514
522.95	3.922
523.29	3.851
523.64	4.092
523.98	4.450
524.32	3.668
524.66	4.269
525.01	3.964
525.35	3.274
525.69	3.074
526.04	3.961
526.38	3.736
526.72	3.806
527.06	3.226
527.41	3.790
527.75	4.157
528.09	4.250
528.43	3.908
528.78	3.295
529.12	4.358
529.46	3.429
529.80	3.890
530.15	3.884
530.49	3.381
530.83	4.073
531.17	3.286
531.51	4.152
531.86	4.688
532.20	3.537
532.54	3.651
532.88	3.879
533.22	3.771
533.57	4.328
533.91	4.714
534.25	4.296
534.59	4.138
534.93	3.509
535.27	3.606
535.62	4.321
535.96	3.661
536.30	3.114
536.64	3.904
536.98	4.121
537.32	4.074
537.66	3.930
538.01	3.384
538.35	4.141
538.69	3.005
539.03	3.985
539.37	3.710
539.71	4.264
540.05	3.597
540.39	3.362
540.73	3.157
541.07	3.556
541.42	4.017
541.76	4.211
542.10	3.981
542.44	3.228
542.78	4.805
543.12	3.695
543.46	3.480
543.80	3.058
544.14	4.189
544.48	4.019
544.82	4.189
545.16	3.757
545.50	3.954
545.84	3.980
546.18	4.383
546.52	3.185
546.86	3.585
547.20	3.562
547.54	3.870
547.88	4.219
548.22	3.275
548.56	4.506
548.90	4.119
549.24	4.195
549.58	4.164
549.92	3.635
550.26	3.883
550.60	3.701
550.94	4.140
551.28	3.960
551.62	3.841
551.96	4.142
552.30	4.143
552.64	4.543
552.98	4.117
553.32	4.051
553.66	4.373
554.00	4.351
554.34	3.990
554.68	3.938
555.02	3.745
555.36	4.208
555.69	2.627
556.03	3.279
556.37	4.819
556.71	3.614
557.05	3.450
557.39	3.251
557.73	3.501
558.07	3.709
558.41	4.186
558.75	3.786
559.08	4.036
559.42	3.224
559.76	4.681
560.10	4.153
560.44	3.892
560.78	4.063
561.12	4.187
561.45	4.197
561.79	3.907
562.13	4.067
562.47	3.453
562.81	3.544
563.15	3.725
563.48	4.288
563.82	3.748
564.16	4.119
564.50	3.635
564.84	3.481
565.17	3.706
565.51	3.913
565.85	3.741
566.19	3.283
566.52	3.862
566.86	3.565
567.20	2.773
567.54	3.133
567.88	4.128
568.21	4.200
568.55	3.741
568.89	4.448
569.23	4.816
569.56	4.455
569.90	4.063
570.24	4.216
570.57	3.592
570.91	3.735
571.25	4.223
571.59	4.147
571.92	3.811
572.26	4.156
572.60	4.259
572.93	4.370
573.27	4.102
573.61	4.076
573.95	4.321
574.28	4.275
574.62	3.638
574.96	4.058
575.29	4.274
575.63	4.158
575.97	4.120
576.30	4.022
576.64	4.080
576.98	4.077
577.31	4.139
577.65	4.292
577.98	4.292
578.32	3.935
578.66	4.146
578.99	4.342
579.33	3.935
579.67	4.329
580.00	4.091
580.34	4.058
580.67	4.126
581.01	4.132
581.35	4.189
581.68	4.028
582.02	4.137
582.35	4.209
582.69	4.294
583.02	4.261
583.36	4.457
583.70	3.772
584.03	4.080
584.37	4.048
584.70	4.132
585.04	4.092
585.37	3.933
585.71	4.358
586.04	4.161
586.38	4.318
586.72	3.986
587.05	3.965
587.39	4.288
587.72	4.211
588.06	4.400
588.39	4.406
588.73	4.392
589.06	4.289
589.40	4.057
589.73	3.856
590.07	3.979
590.40	4.429
590.73	3.959
591.07	4.356
591.40	3.927
591.74	4.054
592.07	4.344
592.41	4.062
592.74	4.295
593.08	4.331
593.41	4.520
593.75	4.339
594.08	4.483
594.41	4.551
594.75	4.284
595.08	3.836
595.42	4.221
595.75	4.327
596.09	4.846
596.42	4.228
596.75	4.631
597.09	4.162
597.42	4.132
597.75	4.155
598.09	4.127
598.42	4.906
598.76	3.745
599.09	4.130
599.42	4.090
599.76	4.061
600.09	4.471
600.42	4.338
600.76	4.392
601.09	3.983
601.42	4.291
601.76	4.034
602.09	3.931
602.42	3.780
602.76	4.133
603.09	3.855
603.42	4.444
603.76	3.946
604.09	4.400
604.42	4.220
604.76	4.033
605.09	4.667
605.42	3.947
605.75	4.077
606.09	3.882
606.42	4.123
606.75	3.973
607.09	4.032
607.42	4.355
607.75	4.259
608.08	4.104
608.42	4.152
608.75	4.104
609.08	4.032
609.41	4.191
609.75	4.107
610.08	4.002
610.41	4.036
610.74	4.370
611.07	3.641
611.41	4.170
611.74	3.926
612.07	4.161
612.40	3.992
612.73	3.521
613.07	4.010
613.40	4.187
613.73	3.707
614.06	3.876
614.39	4.227
614.72	3.396
615.06	3.994
615.39	3.335
615.72	4.076
616.05	3.448
616.38	4.440
616.71	4.075
617.05	2.982
617.38	4.120
617.71	3.726
618.04	3.886
618.37	3.716
618.70	3.507
619.03	3.047
619.36	3.453
619.69	3.716
620.03	3.578
620.36	3.129
620.69	3.701
621.02	4.396
621.35	3.483
621.68	3.109
622.01	3.132
622.34	3.417
622.67	3.299
623.00	2.362
623.33	3.716
623.66	3.891
623.99	2.699
624.32	4.678
624.65	3.604
624.99	2.731
625.32	3.788
625.65	3.978
625.98	3.186
626.31	3.473
626.64	3.516
626.97	2.926
627.30	2.733
627.63	3.151
627.96	3.679
628.29	3.502
628.62	2.771
628.95	3.418
629.28	3.229
629.61	3.199
629.94	2.176
630.26	3.390
630.59	3.713
630.92	2.857
631.25	3.309
631.58	3.484
631.91	2.062
632.24	3.266
632.57	3.510
632.90	3.210
633.23	2.653
633.56	1.327
633.89	2.583
634.22	1.663
634.55	2.610
634.88	2.056
635.20	3.014
635.53	2.712
635.86	2.275
636.19	3.499
636.52	3.481
636.85	2.451
637.18	2.079
637.51	2.796
637.83	3.212
638.16	2.765
638.49	2.113
638.82	1.917
639.15	1.031
639.48	3.002
639.81	4.503
640.13	2.945
640.46	2.061
640.79	1.961
641.12	3.354
641.45	2.258
641.77	4.750
642.10	1.837
642.43	3.856
642.76	2.033
643.09	2.329
643.41	0.700
643.74	2.483
644.07	2.345
644.40	1.132
644.73	0.726
645.05	1.468
645.38	2.590
645.71	2.053
646.04	4.448
646.36	1.022
646.69	1.994
647.02	2.141
647.35	2.595
647.67	1.127
648.00	0.318
648.33	1.351
648.66	0.428
