SpectraSuite Data File
++++++++++++++++++++++++++++++++++++
Date: Thu May 14 15:04:02 PDT 2015
User: schluterlab
Dark Spectrum Present: Yes
Reference Spectrum Present: Yes
Number of Sampled Component Spectra: 1
Spectrometers: USB2E3373
Integration Time (usec): 3000 (USB2E3373)
Spectra Averaged: 3 (USB2E3373)
Boxcar Smoothing: 0 (USB2E3373)
Correct for Electrical Dark: No (USB2E3373)
Strobe/Lamp Enabled: No (USB2E3373)
Correct for Detector Non-linearity: No (USB2E3373)
Correct for Stray Light: No (USB2E3373)
Number of Pixels in Processed Spectrum: 2048
>>>>>Begin Processed Spectral Data<<<<<
178.53	0.000
178.91	385.714
179.29	-3200.000
179.67	-2800.000
180.04	242.857
180.42	160.000
180.80	680.000
181.18	-2900.000
181.56	-2700.000
181.94	550.000
182.31	-375.000
182.69	633.333
183.07	-1150.000
183.45	700.000
183.83	-300.000
184.20	-900.000
184.58	1900.000
184.96	-600.000
185.34	-222.222
185.72	-420.000
186.09	355.556
186.47	1150.000
186.85	780.000
187.23	-333.333
187.61	-2800.000
187.98	500.000
188.36	575.000
188.74	-550.000
189.12	-266.667
189.49	-100.000
189.87	-237.500
190.25	-133.333
190.63	-400.000
191.00	-311.111
191.38	0.000
191.76	-575.000
192.14	-300.000
192.51	1050.000
192.89	-300.000
193.27	0.000
193.65	-328.571
194.02	-3300.000
194.40	-300.000
194.78	414.286
195.15	0.000
195.53	-227.273
195.91	0.000
196.29	-450.000
196.66	-92.308
197.04	-2500.000
197.42	-328.571
197.79	-850.000
198.17	-325.000
198.55	-385.714
198.92	-233.333
199.30	-350.000
199.68	-181.818
200.05	-121.429
200.43	-1300.000
200.81	442.857
201.18	0.000
201.56	466.667
201.94	0.000
202.31	733.333
202.69	-255.556
203.07	2400.000
203.44	-255.556
203.82	-600.000
204.19	-158.333
204.57	-333.333
204.95	-250.000
205.32	-2700.000
205.70	450.000
206.08	-450.000
206.45	-433.333
206.83	680.000
207.20	-433.333
207.58	-540.000
207.96	-383.333
208.33	-383.333
208.71	208.333
209.08	-50.000
209.46	0.000
209.84	416.667
210.21	1050.000
210.59	1400.000
210.96	666.667
211.34	-350.000
211.71	-325.000
212.09	-3200.000
212.46	0.000
212.84	1900.000
213.22	-600.000
213.59	-650.000
213.97	-140.000
214.34	-833.333
214.72	566.667
215.09	-675.000
215.47	0.000
215.84	357.143
216.22	1450.000
216.59	-440.000
216.97	-540.000
217.34	-550.000
217.72	-275.000
218.09	-525.000
218.47	-575.000
218.84	0.000
219.22	620.000
219.59	-105.882
219.97	-95.000
220.34	1300.000
220.72	-255.556
221.09	-169.231
221.47	-700.000
221.84	-240.000
222.22	-300.000
222.59	0.000
222.97	-237.500
223.34	-480.000
223.72	-1800.000
224.09	-550.000
224.46	-650.000
224.84	-440.000
225.21	-514.286
225.59	-775.000
225.96	-500.000
226.34	-84.615
226.71	500.000
227.08	-900.000
227.46	-66.667
227.83	-525.000
228.21	-47.368
228.58	300.000
228.95	1300.000
229.33	-166.667
229.70	-150.000
230.08	-52.632
230.45	250.000
230.82	-666.667
231.20	-178.571
231.57	-175.000
231.95	-190.909
232.32	-263.636
232.69	-65.000
233.07	-725.000
233.44	-82.353
233.81	-280.000
234.19	-50.000
234.56	-95.455
234.93	-51.724
235.31	-68.421
235.68	-100.000
236.05	-125.000
236.43	-42.308
236.80	0.000
237.17	-70.370
237.55	-15.152
237.92	-260.000
238.29	-41.935
238.67	-40.909
239.04	-8.333
239.41	-28.571
239.79	-26.087
240.16	-14.815
240.53	-6.522
240.91	-33.333
241.28	-8.197
241.65	7.463
242.02	10.811
242.40	-9.231
242.77	9.333
243.14	-6.098
243.51	-7.895
243.89	-5.128
244.26	8.911
244.63	8.824
245.00	10.280
245.38	0.877
245.75	-2.655
246.12	11.905
246.49	5.426
246.87	20.714
247.24	15.894
247.61	21.053
247.98	14.094
248.36	12.963
248.73	12.270
249.10	13.115
249.47	21.891
249.84	20.942
250.22	16.062
250.59	21.667
250.96	23.182
251.33	16.327
251.70	17.094
252.08	20.000
252.45	18.443
252.82	17.769
253.19	17.187
253.56	19.392
253.94	18.462
254.31	19.697
254.68	20.979
255.05	23.127
255.42	20.408
255.79	19.741
256.16	17.219
256.54	21.192
256.91	22.295
257.28	22.951
257.65	21.019
258.02	20.354
258.39	19.658
258.76	25.688
259.14	25.575
259.51	21.326
259.88	18.130
260.25	25.556
260.62	23.836
260.99	27.869
261.36	24.933
261.73	22.546
262.10	22.527
262.47	24.397
262.85	26.010
263.22	19.740
263.59	20.263
263.96	22.762
264.33	23.529
264.70	20.494
265.07	24.105
265.44	26.531
265.81	20.370
266.18	25.850
266.55	26.339
266.92	23.235
267.29	25.602
267.66	26.608
268.03	24.672
268.40	22.547
268.77	22.096
269.14	22.467
269.51	25.000
269.88	25.205
270.25	22.133
270.62	23.629
270.99	25.657
271.36	21.386
271.73	25.933
272.10	24.248
272.47	24.048
272.84	23.092
273.21	24.850
273.58	23.790
273.95	20.192
274.32	21.483
274.69	21.663
275.06	24.359
275.43	20.518
275.80	24.339
276.17	23.519
276.54	19.403
276.91	22.719
277.28	23.689
277.65	23.160
278.02	23.713
278.39	23.913
278.76	22.671
279.13	21.099
279.50	23.368
279.87	23.077
280.23	20.423
280.60	22.373
280.97	23.520
281.34	22.920
281.71	23.350
282.08	20.930
282.45	20.949
282.82	24.019
283.19	21.486
283.56	21.475
283.92	22.823
284.29	22.749
284.66	22.332
285.03	20.353
285.40	25.193
285.77	23.375
286.14	23.511
286.51	21.766
286.87	22.117
287.24	22.440
287.61	22.272
287.98	21.148
288.35	22.485
288.72	21.598
289.08	22.401
289.45	22.485
289.82	19.880
290.19	21.983
290.56	20.563
290.93	20.970
291.29	21.350
291.66	22.039
292.03	20.353
292.40	23.265
292.77	19.677
293.13	19.621
293.50	19.974
293.87	19.195
294.24	19.733
294.60	19.343
294.97	17.584
295.34	19.846
295.71	18.159
296.08	18.605
296.44	18.873
296.81	17.905
297.18	18.182
297.55	17.335
297.91	18.505
298.28	17.180
298.65	17.004
299.02	16.765
299.38	19.451
299.75	17.523
300.12	17.361
300.48	16.935
300.85	18.448
301.22	16.890
301.59	17.580
301.95	18.079
302.32	17.889
302.69	18.401
303.05	17.519
303.42	18.625
303.79	16.562
304.15	16.930
304.52	17.759
304.89	16.230
305.25	17.598
305.62	17.032
305.99	17.835
306.35	17.238
306.72	18.511
307.09	16.853
307.45	17.495
307.82	17.154
308.19	16.852
308.55	17.936
308.92	18.014
309.29	16.762
309.65	17.836
310.02	17.228
310.38	16.437
310.75	17.087
311.12	18.025
311.48	17.302
311.85	16.239
312.22	17.078
312.58	17.277
312.95	17.113
313.31	18.248
313.68	19.048
314.05	20.416
314.41	18.944
314.78	18.892
315.14	19.056
315.51	19.391
315.87	19.802
316.24	19.178
316.61	19.005
316.97	19.819
317.34	19.753
317.70	21.223
318.07	20.635
318.43	19.133
318.80	20.485
319.16	21.030
319.53	19.452
319.89	19.982
320.26	21.352
320.62	20.390
320.99	20.314
321.35	20.887
321.72	21.767
322.08	20.739
322.45	22.403
322.81	22.924
323.18	23.451
323.54	23.793
323.91	23.221
324.27	24.182
324.64	23.594
325.00	22.968
325.37	24.324
325.73	24.050
326.10	23.520
326.46	24.837
326.83	24.339
327.19	24.252
327.56	25.217
327.92	25.256
328.29	23.790
328.65	24.707
329.01	25.127
329.38	25.948
329.74	26.627
330.11	26.284
330.47	26.032
330.84	25.065
331.20	25.167
331.56	24.350
331.93	26.527
332.29	27.627
332.66	26.163
333.02	25.377
333.38	26.091
333.75	25.337
334.11	26.355
334.48	26.073
334.84	26.253
335.20	25.105
335.57	27.825
335.93	26.281
336.29	25.208
336.66	25.147
337.02	25.669
337.38	27.211
337.75	24.959
338.11	26.072
338.47	26.716
338.84	25.973
339.20	24.684
339.56	25.947
339.93	25.862
340.29	26.490
340.65	26.115
341.02	27.294
341.38	26.677
341.74	25.182
342.11	25.905
342.47	24.861
342.83	25.523
343.20	26.410
343.56	26.544
343.92	26.101
344.28	26.172
344.65	25.736
345.01	25.741
345.37	26.128
345.73	25.409
346.10	26.131
346.46	25.870
346.82	25.243
347.19	25.898
347.55	26.252
347.91	25.706
348.27	25.948
348.63	26.733
349.00	26.547
349.36	26.097
349.72	25.744
350.08	27.637
350.45	25.627
350.81	26.094
351.17	25.489
351.53	26.611
351.89	27.031
352.26	26.194
352.62	26.194
352.98	26.641
353.34	24.645
353.70	26.733
354.07	26.826
354.43	25.133
354.79	26.477
355.15	27.079
355.51	26.754
355.87	26.702
356.24	27.072
356.60	26.090
356.96	26.686
357.32	26.766
357.68	26.794
358.04	25.823
358.40	26.791
358.77	27.412
359.13	26.662
359.49	26.171
359.85	26.686
360.21	26.829
360.57	27.207
360.93	26.939
361.29	26.596
361.66	26.865
362.02	27.975
362.38	28.039
362.74	28.003
363.10	28.129
363.46	27.770
363.82	28.267
364.18	27.234
364.54	27.524
364.90	28.963
365.26	28.138
365.62	28.600
365.98	28.863
366.35	28.322
366.71	28.435
367.07	28.146
367.43	28.168
367.79	28.733
368.15	28.428
368.51	28.823
368.87	28.543
369.23	28.200
369.59	28.689
369.95	28.736
370.31	29.237
370.67	29.023
371.03	28.393
371.39	28.811
371.75	29.367
372.11	28.930
372.47	29.248
372.83	29.450
373.19	29.286
373.55	29.675
373.91	28.766
374.27	29.625
374.63	30.108
374.99	28.979
375.35	30.519
375.71	30.323
376.07	30.213
376.42	29.282
376.78	30.143
377.14	29.694
377.50	31.120
377.86	30.480
378.22	32.216
378.58	30.321
378.94	32.160
379.30	30.521
379.66	30.864
380.02	31.564
380.38	31.682
380.74	31.831
381.09	31.417
381.45	31.932
381.81	32.611
382.17	31.413
382.53	31.988
382.89	30.926
383.25	32.063
383.61	32.060
383.97	32.921
384.32	32.356
384.68	30.626
385.04	32.504
385.40	32.646
385.76	32.356
386.12	32.136
386.48	32.412
386.83	33.313
387.19	32.851
387.55	32.688
387.91	32.591
388.27	34.238
388.62	32.589
388.98	32.375
389.34	34.178
389.70	33.876
390.06	33.215
390.42	32.349
390.77	33.835
391.13	33.040
391.49	33.213
391.85	33.879
392.20	34.638
392.56	33.136
392.92	32.933
393.28	33.499
393.64	32.905
393.99	34.399
394.35	34.638
394.71	34.611
395.07	33.234
395.42	34.209
395.78	35.405
396.14	34.522
396.50	32.779
396.85	33.035
397.21	33.195
397.57	34.452
397.92	34.708
398.28	33.297
398.64	33.124
399.00	32.565
399.35	33.508
399.71	33.533
400.07	34.812
400.42	34.692
400.78	34.259
401.14	32.954
401.49	33.485
401.85	33.837
402.21	34.067
402.57	34.448
402.92	34.043
403.28	33.255
403.63	33.294
403.99	32.779
404.35	34.508
404.70	33.144
405.06	33.587
405.42	33.899
405.77	34.460
406.13	33.117
406.49	33.784
406.84	33.684
407.20	32.979
407.55	33.313
407.91	33.438
408.27	33.216
408.62	34.380
408.98	33.314
409.34	31.730
409.69	32.818
410.05	34.174
410.40	33.295
410.76	33.483
411.11	34.015
411.47	34.767
411.83	33.451
412.18	34.277
412.54	34.440
412.89	33.527
413.25	33.747
413.60	33.027
413.96	33.741
414.31	33.711
414.67	34.049
415.03	33.846
415.38	34.174
415.74	33.903
416.09	34.608
416.45	34.001
416.80	33.537
417.16	34.163
417.51	33.499
417.87	34.151
418.22	33.353
418.58	34.015
418.93	35.099
419.29	34.710
419.64	34.754
420.00	35.490
420.35	34.756
420.71	33.774
421.06	35.480
421.42	35.206
421.77	34.733
422.12	35.359
422.48	35.740
422.83	36.966
423.19	36.233
423.54	37.223
423.90	35.726
424.25	37.173
424.61	36.682
424.96	36.354
425.31	36.093
425.67	36.822
426.02	37.465
426.38	37.141
426.73	36.942
427.09	38.120
427.44	36.592
427.79	37.645
428.15	38.071
428.50	37.640
428.85	36.510
429.21	37.979
429.56	37.808
429.92	37.494
430.27	38.602
430.62	38.105
430.98	37.826
431.33	39.052
431.68	37.835
432.04	39.005
432.39	39.368
432.74	38.927
433.10	39.319
433.45	38.239
433.80	39.002
434.16	40.341
434.51	40.288
434.86	41.042
435.22	41.286
435.57	40.625
435.92	40.234
436.28	39.647
436.63	41.234
436.98	40.741
437.34	40.868
437.69	41.057
438.04	40.455
438.39	40.609
438.75	41.118
439.10	42.389
439.45	41.196
439.81	40.339
440.16	40.751
440.51	42.140
440.86	41.190
441.22	41.265
441.57	41.667
441.92	41.077
442.27	42.273
442.63	41.580
442.98	41.676
443.33	42.820
443.68	42.963
444.03	42.897
444.39	42.117
444.74	42.369
445.09	41.004
445.44	42.940
445.79	42.337
446.15	42.754
446.50	41.395
446.85	42.315
447.20	43.182
447.55	43.828
447.91	42.461
448.26	42.918
448.61	42.667
448.96	42.328
449.31	42.577
449.66	41.667
450.02	42.932
450.37	43.527
450.72	43.380
451.07	44.021
451.42	43.328
451.77	42.968
452.12	43.172
452.47	42.424
452.83	44.426
453.18	43.199
453.53	44.170
453.88	43.512
454.23	43.446
454.58	44.457
454.93	43.568
455.28	44.371
455.63	44.116
455.98	43.520
456.34	43.463
456.69	44.033
457.04	44.208
457.39	43.792
457.74	45.190
458.09	43.657
458.44	44.720
458.79	43.837
459.14	42.842
459.49	44.482
459.84	43.652
460.19	43.531
460.54	44.804
460.89	44.733
461.24	43.736
461.59	44.328
461.94	42.727
462.29	44.121
462.64	44.659
462.99	44.068
463.34	44.517
463.69	43.435
464.04	45.192
464.39	44.339
464.74	42.930
465.09	44.867
465.44	44.099
465.79	44.474
466.14	43.147
466.49	45.158
466.84	44.187
467.19	45.202
467.54	43.302
467.89	43.851
468.24	43.324
468.59	45.049
468.94	43.415
469.29	43.251
469.64	44.247
469.99	44.551
470.34	45.050
470.68	45.933
471.03	45.776
471.38	44.539
471.73	44.148
472.08	45.685
472.43	44.130
472.78	45.529
473.13	44.564
473.48	44.834
473.83	45.212
474.17	44.549
474.52	44.618
474.87	45.404
475.22	44.845
475.57	44.133
475.92	45.396
476.27	46.113
476.61	44.548
476.96	44.161
477.31	45.050
477.66	45.750
478.01	45.348
478.36	44.467
478.70	45.961
479.05	45.501
479.40	45.212
479.75	45.149
480.10	45.192
480.45	45.305
480.79	44.490
481.14	45.037
481.49	45.706
481.84	45.735
482.19	45.591
482.53	45.387
482.88	46.167
483.23	46.376
483.58	45.371
483.92	44.548
484.27	45.385
484.62	44.348
484.97	44.518
485.31	43.823
485.66	40.967
486.01	40.794
486.36	42.706
486.70	45.777
487.05	48.118
487.40	46.970
487.75	46.870
488.09	46.379
488.44	44.883
488.79	45.093
489.13	44.171
489.48	44.583
489.83	44.869
490.17	43.540
490.52	45.197
490.87	45.305
491.22	45.017
491.56	45.691
491.91	45.704
492.26	44.786
492.60	45.256
492.95	45.502
493.30	44.913
493.64	45.160
493.99	45.175
494.34	44.991
494.68	45.011
495.03	44.934
495.37	45.539
495.72	45.125
496.07	45.136
496.41	44.273
496.76	45.038
497.11	45.648
497.45	45.058
497.80	44.647
498.14	45.805
498.49	46.002
498.84	45.293
499.18	45.209
499.53	45.067
499.87	45.626
500.22	45.904
500.56	45.884
500.91	46.041
501.26	45.818
501.60	45.117
501.95	45.289
502.29	45.722
502.64	46.393
502.98	45.039
503.33	45.227
503.67	45.486
504.02	45.447
504.36	46.783
504.71	46.532
505.06	46.930
505.40	45.704
505.75	46.858
506.09	46.087
506.44	46.611
506.78	46.284
507.13	47.257
507.47	46.566
507.82	47.112
508.16	46.750
508.51	45.757
508.85	46.009
509.19	47.229
509.54	47.166
509.88	47.062
510.23	47.790
510.57	47.608
510.92	47.412
511.26	46.368
511.61	46.789
511.95	47.340
512.30	46.430
512.64	47.576
512.98	47.224
513.33	47.127
513.67	47.782
514.02	47.982
514.36	48.082
514.70	47.031
515.05	48.801
515.39	48.556
515.74	49.258
516.08	48.125
516.42	47.881
516.77	48.843
517.11	47.911
517.46	48.834
517.80	49.546
518.14	48.585
518.49	48.156
518.83	47.632
519.17	47.658
519.52	48.899
519.86	48.786
520.20	48.509
520.55	49.781
520.89	49.662
521.23	48.744
521.58	49.718
521.92	49.632
522.26	49.485
522.61	50.347
522.95	50.231
523.29	51.034
523.64	50.673
523.98	50.998
524.32	50.258
524.66	50.142
525.01	49.490
525.35	48.823
525.69	50.406
526.04	49.885
526.38	50.115
526.72	49.712
527.06	51.026
527.41	49.446
527.75	51.366
528.09	50.531
528.43	49.911
528.78	49.653
529.12	49.713
529.46	49.016
529.80	50.057
530.15	49.971
530.49	51.127
530.83	50.649
531.17	50.358
531.51	50.963
531.86	50.962
532.20	51.220
532.54	50.269
532.88	50.848
533.22	49.322
533.57	50.606
533.91	48.373
534.25	50.650
534.59	50.287
534.93	49.179
535.27	49.521
535.62	50.256
535.96	50.145
536.30	49.824
536.64	51.051
536.98	52.091
537.32	50.988
537.66	51.154
538.01	50.030
538.35	51.462
538.69	49.459
539.03	51.196
539.37	49.823
539.71	50.390
540.05	51.139
540.39	49.205
540.73	49.909
541.07	49.785
541.42	48.553
541.76	47.628
542.10	49.698
542.44	49.391
542.78	50.487
543.12	48.689
543.46	49.573
543.80	48.861
544.14	49.072
544.48	50.059
544.82	49.551
545.16	50.149
545.50	50.449
545.84	50.704
546.18	50.556
546.52	50.446
546.86	50.943
547.20	50.700
547.54	49.189
547.88	48.885
548.22	49.357
548.56	50.614
548.90	50.328
549.24	49.605
549.58	49.590
549.92	50.128
550.26	51.197
550.60	50.223
550.94	50.776
551.28	49.571
551.62	52.156
551.96	49.320
552.30	50.669
552.64	50.031
552.98	50.094
553.32	50.804
553.66	49.968
554.00	51.513
554.34	51.416
554.68	50.678
555.02	50.920
555.36	50.888
555.69	49.327
556.03	49.622
556.37	50.876
556.71	51.237
557.05	50.479
557.39	50.299
557.73	52.444
558.07	50.199
558.41	50.498
558.75	50.913
559.08	51.427
559.42	50.274
559.76	50.339
560.10	51.105
560.44	50.660
560.78	51.125
561.12	50.739
561.45	51.338
561.79	50.916
562.13	51.263
562.47	50.123
562.81	50.127
563.15	50.694
563.48	51.461
563.82	49.577
564.16	50.394
564.50	49.821
564.84	50.265
565.17	51.176
565.51	49.942
565.85	49.881
566.19	49.366
566.52	50.614
566.86	50.311
567.20	49.266
567.54	49.018
567.88	49.745
568.21	49.605
568.55	49.065
568.89	50.613
569.23	49.345
569.56	48.808
569.90	48.610
570.24	48.668
570.57	47.787
570.91	48.377
571.25	46.977
571.59	47.676
571.92	47.468
572.26	47.485
572.60	47.748
572.93	48.455
573.27	48.300
573.61	47.141
573.95	46.905
574.28	47.255
574.62	46.885
574.96	46.162
575.29	46.266
575.63	47.147
575.97	47.234
576.30	47.348
576.64	46.910
576.98	46.515
577.31	46.868
577.65	46.987
577.98	46.668
578.32	46.718
578.66	47.248
578.99	47.860
579.33	47.821
579.67	47.484
580.00	47.696
580.34	47.469
580.67	46.999
581.01	47.252
581.35	46.523
581.68	46.158
582.02	46.645
582.35	47.567
582.69	48.187
583.02	48.608
583.36	48.716
583.70	48.103
584.03	48.404
584.37	48.309
584.70	48.044
585.04	46.966
585.37	46.840
585.71	46.969
586.04	47.600
586.38	48.050
586.72	48.233
587.05	48.401
587.39	48.566
587.72	47.967
588.06	48.622
588.39	48.220
588.73	48.704
589.06	49.097
589.40	50.307
589.73	49.165
590.07	49.801
590.40	48.918
590.73	49.134
591.07	50.298
591.40	48.989
591.74	49.126
592.07	49.411
592.41	49.054
592.74	47.817
593.08	48.344
593.41	48.498
593.75	48.649
594.08	49.228
594.41	49.359
594.75	49.585
595.08	50.034
595.42	49.610
595.75	49.403
596.09	50.051
596.42	49.803
596.75	50.058
597.09	50.909
597.42	48.947
597.75	49.902
598.09	49.722
598.42	49.980
598.76	49.561
599.09	48.523
599.42	47.871
599.76	48.729
600.09	49.483
600.42	49.516
600.76	49.273
601.09	48.722
601.42	49.674
601.76	49.793
602.09	49.857
602.42	48.710
602.76	48.672
603.09	49.816
603.42	49.747
603.76	48.943
604.09	51.419
604.42	49.835
604.76	49.734
605.09	49.701
605.42	49.801
605.75	49.962
606.09	50.131
606.42	49.033
606.75	49.175
607.09	48.925
607.42	49.711
607.75	49.941
608.08	50.039
608.42	50.544
608.75	50.083
609.08	49.660
609.41	50.684
609.75	50.446
610.08	50.396
610.41	50.510
610.74	49.748
611.07	50.355
611.41	51.928
611.74	50.808
612.07	50.631
612.40	50.856
612.73	52.176
613.07	51.051
613.40	51.251
613.73	50.602
614.06	50.393
614.39	50.049
614.72	50.024
615.06	50.818
615.39	49.348
615.72	50.379
616.05	50.801
616.38	52.472
616.71	51.411
617.05	51.544
617.38	50.990
617.71	51.782
618.04	51.808
618.37	52.623
618.70	53.620
619.03	52.449
619.36	52.343
619.69	53.812
620.03	52.542
620.36	51.534
620.69	52.807
621.02	53.084
621.35	55.152
621.68	53.362
622.01	53.238
622.34	52.929
622.67	54.364
623.00	51.889
623.33	52.953
623.66	52.918
623.99	52.666
624.32	53.671
624.65	51.351
624.99	51.886
625.32	52.645
625.65	53.675
625.98	53.288
626.31	54.075
626.64	53.993
626.97	54.089
627.30	54.594
627.63	54.314
627.96	54.354
628.29	54.163
628.62	55.248
628.95	57.581
629.28	54.291
629.61	54.461
629.94	52.971
630.26	55.254
630.59	54.491
630.92	54.978
