SpectraSuite Data File
++++++++++++++++++++++++++++++++++++
Date: Thu May 14 14:49:12 PDT 2015
User: schluterlab
Dark Spectrum Present: Yes
Reference Spectrum Present: Yes
Number of Sampled Component Spectra: 1
Spectrometers: USB2E3373
Integration Time (usec): 3000 (USB2E3373)
Spectra Averaged: 3 (USB2E3373)
Boxcar Smoothing: 0 (USB2E3373)
Correct for Electrical Dark: No (USB2E3373)
Strobe/Lamp Enabled: No (USB2E3373)
Correct for Detector Non-linearity: No (USB2E3373)
Correct for Stray Light: No (USB2E3373)
Number of Pixels in Processed Spectrum: 2048
>>>>>Begin Processed Spectral Data<<<<<
178.53	0.000
178.91	114.286
179.29	-2400.000
179.67	-200.000
180.04	142.857
180.42	-0.000
180.80	180.000
181.18	-900.000
181.56	200.000
181.94	150.000
182.31	-25.000
182.69	300.000
183.07	-50.000
183.45	275.000
183.83	0.000
184.20	-33.333
184.58	-200.000
184.96	-150.000
185.34	-133.333
185.72	-20.000
186.09	144.444
186.47	700.000
186.85	380.000
187.23	-44.444
187.61	-1000.000
187.98	260.000
188.36	425.000
188.74	0.000
189.12	0.000
189.49	-6.250
189.87	-187.500
190.25	-33.333
190.63	60.000
191.00	-33.333
191.38	0.000
191.76	-225.000
192.14	66.667
192.51	100.000
192.89	116.667
193.27	0.000
193.65	57.143
194.02	-2200.000
194.40	42.857
194.78	85.714
195.15	0.000
195.53	-18.182
195.91	0.000
196.29	75.000
196.66	7.692
197.04	-900.000
197.42	-200.000
197.79	-400.000
198.17	-37.500
198.55	-100.000
198.92	-55.556
199.30	-62.500
199.68	-18.182
200.05	-7.143
200.43	-400.000
200.81	200.000
201.18	0.000
201.56	200.000
201.94	0.000
202.31	466.667
202.69	-66.667
203.07	200.000
203.44	11.111
203.82	-150.000
204.19	-8.333
204.57	-33.333
204.95	-100.000
205.32	-500.000
205.70	325.000
206.08	-33.333
206.45	116.667
206.83	200.000
207.20	-133.333
207.58	-280.000
207.96	-183.333
208.33	16.667
208.71	25.000
209.08	83.333
209.46	0.000
209.84	250.000
210.21	500.000
210.59	-100.000
210.96	333.333
211.34	-25.000
211.71	-75.000
212.09	-200.000
212.46	0.000
212.84	650.000
213.22	-200.000
213.59	-25.000
213.97	-40.000
214.34	100.000
214.72	116.667
215.09	-200.000
215.47	0.000
215.84	28.571
216.22	950.000
216.59	40.000
216.97	-40.000
217.34	-200.000
217.72	-50.000
218.09	-25.000
218.47	-200.000
218.84	0.000
219.22	40.000
219.59	58.824
219.97	0.000
220.34	500.000
220.72	-122.222
221.09	23.077
221.47	33.333
221.84	50.000
222.22	-42.857
222.59	0.000
222.97	12.500
223.34	-240.000
223.72	-400.000
224.09	-350.000
224.46	-225.000
224.84	-60.000
225.21	-100.000
225.59	-300.000
225.96	-250.000
226.34	-30.769
226.71	200.000
227.08	-50.000
227.46	-13.333
227.83	-200.000
228.21	-10.526
228.58	75.000
228.95	550.000
229.33	0.000
229.70	-60.000
230.08	21.053
230.45	40.000
230.82	233.333
231.20	0.000
231.57	75.000
231.95	27.273
232.32	45.455
232.69	25.000
233.07	-200.000
233.44	-29.412
233.81	-90.000
234.19	16.667
234.56	13.636
234.93	51.724
235.31	-5.263
235.68	5.556
236.05	-65.000
236.43	26.923
236.80	64.000
237.17	-7.407
237.55	30.303
237.92	-170.000
238.29	-9.677
238.67	-4.545
239.04	30.556
239.41	9.524
239.79	6.522
240.16	16.667
240.53	6.522
240.91	11.765
241.28	11.475
241.65	25.373
242.02	22.973
242.40	23.077
242.77	14.667
243.14	19.512
243.51	9.211
243.89	11.538
244.26	22.772
244.63	24.510
245.00	22.430
245.38	10.526
245.75	3.540
246.12	26.190
246.49	12.403
246.87	17.857
247.24	21.192
247.61	16.447
247.98	7.383
248.36	19.753
248.73	14.724
249.10	18.033
249.47	18.905
249.84	25.131
250.22	13.990
250.59	22.222
250.96	20.000
251.33	18.878
251.70	19.658
252.08	20.417
252.45	20.082
252.82	17.769
253.19	19.141
253.56	18.251
253.94	17.308
254.31	18.561
254.68	22.727
255.05	22.476
255.42	19.728
255.79	14.887
256.16	19.536
256.54	17.881
256.91	21.967
257.28	16.066
257.65	16.242
258.02	18.289
258.39	17.094
258.76	25.076
259.14	21.839
259.51	18.156
259.88	20.397
260.25	18.611
260.62	18.904
260.99	18.579
261.36	18.499
261.73	19.098
262.10	17.033
262.47	19.571
262.85	23.990
263.22	16.883
263.59	16.053
263.96	20.205
264.33	17.136
264.70	20.000
265.07	18.854
265.44	20.181
265.81	19.213
266.18	20.181
266.55	19.643
266.92	14.351
267.29	21.663
267.66	20.177
268.03	20.087
268.40	19.624
268.77	17.084
269.14	18.062
269.51	19.956
269.88	20.697
270.25	19.718
270.62	18.987
270.99	21.616
271.36	20.792
271.73	20.432
272.10	21.844
272.47	19.439
272.84	20.281
273.21	18.236
273.58	17.137
273.95	17.692
274.32	17.490
274.69	19.536
275.06	20.147
275.43	18.669
275.80	19.400
276.17	17.222
276.54	15.485
276.91	18.962
277.28	18.626
277.65	21.185
278.02	18.015
278.39	17.935
278.76	19.156
279.13	18.617
279.50	18.557
279.87	20.394
280.23	14.965
280.60	19.153
280.97	20.066
281.34	19.185
281.71	19.797
282.08	17.110
282.45	16.694
282.82	18.681
283.19	15.670
283.56	17.377
283.92	18.468
284.29	19.115
284.66	18.883
285.03	17.628
285.40	19.320
285.77	17.183
286.14	18.779
286.51	17.199
286.87	15.798
287.24	17.470
287.61	18.087
287.98	15.559
288.35	18.195
288.72	17.160
289.08	19.327
289.45	16.124
289.82	17.470
290.19	16.092
290.56	18.028
290.93	15.549
291.29	15.702
291.66	14.738
292.03	15.197
292.40	18.367
292.77	17.116
293.13	16.238
293.50	14.455
293.87	16.107
294.24	15.067
294.60	14.918
294.97	13.020
295.34	16.773
295.71	14.124
296.08	15.245
296.44	14.706
296.81	15.225
297.18	13.325
297.55	13.561
297.91	13.998
298.28	13.033
298.65	14.388
299.02	13.932
299.38	13.730
299.75	14.720
300.12	14.120
300.48	14.516
300.85	14.061
301.22	14.989
301.59	14.498
301.95	14.237
302.32	13.889
302.69	14.020
303.05	15.016
303.42	13.304
303.79	11.562
304.15	15.668
304.52	12.579
304.89	14.241
305.25	13.975
305.62	13.898
305.99	13.711
306.35	14.214
306.72	15.098
307.09	13.401
307.45	14.182
307.82	12.815
308.19	13.824
308.55	15.043
308.92	13.535
309.29	14.368
309.65	13.450
310.02	14.059
310.38	13.878
310.75	13.592
311.12	14.861
311.48	14.076
311.85	13.485
312.22	14.042
312.58	13.709
312.95	13.098
313.31	13.098
313.68	14.103
314.05	16.079
314.41	14.936
314.78	15.713
315.14	14.791
315.51	14.312
315.87	15.752
316.24	14.886
316.61	14.920
316.97	14.932
317.34	14.198
317.70	15.459
318.07	15.344
318.43	16.156
318.80	16.639
319.16	15.794
319.53	15.081
319.89	15.337
320.26	17.527
320.62	16.489
320.99	16.620
321.35	16.821
321.72	17.767
322.08	16.952
322.45	17.706
322.81	18.141
323.18	18.230
323.54	19.138
323.91	19.306
324.27	19.019
324.64	18.976
325.00	19.071
325.37	19.328
325.73	20.165
326.10	21.817
326.46	22.231
326.83	22.898
327.19	21.654
327.56	23.636
327.92	23.131
328.29	24.032
328.65	23.451
329.01	24.027
329.38	24.853
329.74	26.627
330.11	26.199
330.47	25.358
330.84	25.065
331.20	27.167
331.56	25.997
331.93	27.699
332.29	27.034
332.66	26.661
333.02	27.471
333.38	26.258
333.75	26.431
334.11	27.189
334.48	27.888
334.84	27.528
335.20	27.876
335.57	28.921
335.93	27.521
336.29	27.038
336.66	27.670
337.02	28.763
337.38	28.912
337.75	27.190
338.11	29.521
338.47	28.453
338.84	27.496
339.20	26.959
339.56	27.677
339.93	27.997
340.29	28.261
340.65	27.170
341.02	29.529
341.38	29.264
341.74	26.877
342.11	28.801
342.47	27.482
342.83	27.778
343.20	29.845
343.56	28.709
343.92	29.063
344.28	28.828
344.65	29.690
345.01	27.925
345.37	28.694
345.73	28.059
346.10	28.549
346.46	28.244
346.82	29.513
347.19	29.030
347.55	28.832
347.91	28.603
348.27	28.604
348.63	28.865
349.00	30.276
349.36	28.253
349.72	28.943
350.08	28.455
350.45	29.049
350.81	28.808
351.17	28.195
351.53	29.644
351.89	30.144
352.26	28.955
352.62	29.030
352.98	29.695
353.34	28.902
353.70	30.046
354.07	28.838
354.43	30.220
354.79	28.646
355.15	29.065
355.51	28.655
355.87	28.123
356.24	29.506
356.60	28.899
356.96	30.022
357.32	29.442
357.68	28.990
358.04	28.668
358.40	30.149
358.77	29.751
359.13	28.804
359.49	29.442
359.85	29.224
360.21	28.479
360.57	29.720
360.93	29.337
361.29	29.965
361.66	30.268
362.02	31.454
362.38	30.148
362.74	29.749
363.10	29.849
363.46	30.679
363.82	29.972
364.18	30.260
364.54	30.360
364.90	31.171
365.26	30.414
365.62	30.333
365.98	28.727
366.35	30.738
366.71	30.884
367.07	30.447
367.43	30.729
367.79	31.188
368.15	32.107
368.51	31.461
368.87	30.699
369.23	31.333
369.59	31.352
369.95	31.237
370.31	32.816
370.67	31.155
371.03	32.618
371.39	31.766
371.75	32.118
372.11	31.640
372.47	31.347
372.83	32.526
373.19	33.155
373.55	31.369
373.91	31.697
374.27	31.759
374.63	32.409
374.99	33.289
375.35	33.701
375.71	32.194
376.07	32.085
376.42	32.683
376.78	33.002
377.14	33.500
377.50	33.460
377.86	33.805
378.22	33.772
378.58	33.650
378.94	33.920
379.30	34.095
379.66	33.921
380.02	33.122
380.38	35.253
380.74	34.423
381.09	34.321
381.45	35.511
381.81	35.304
382.17	33.848
382.53	34.854
382.89	34.594
383.25	35.639
383.61	35.880
383.97	35.512
384.32	34.868
384.68	34.977
385.04	36.322
385.40	36.417
385.76	36.694
386.12	36.505
386.48	37.059
386.83	38.260
387.19	36.790
387.55	35.915
387.91	37.100
388.27	37.587
388.62	36.655
388.98	36.717
389.34	37.419
389.70	38.524
390.06	37.833
390.42	37.229
390.77	37.989
391.13	37.735
391.49	37.802
391.85	37.091
392.20	37.248
392.56	38.039
392.92	38.604
393.28	38.972
393.64	37.989
393.99	39.105
394.35	39.603
394.71	39.341
395.07	38.263
395.42	38.778
395.78	39.793
396.14	39.691
396.50	37.827
396.85	38.760
397.21	38.994
397.57	38.634
397.92	38.488
398.28	38.186
398.64	39.016
399.00	38.429
399.35	38.691
399.71	38.207
400.07	38.798
400.42	38.475
400.78	40.162
401.14	38.930
401.49	39.397
401.85	39.593
402.21	39.919
402.57	39.906
402.92	40.012
403.28	38.700
403.63	38.126
403.99	39.430
404.35	38.943
404.70	38.867
405.06	38.696
405.42	39.930
405.77	39.040
406.13	38.844
406.49	38.964
406.84	38.947
407.20	38.010
407.55	38.886
407.91	39.598
408.27	38.751
408.62	39.616
408.98	39.234
409.34	37.654
409.69	39.555
410.05	39.156
410.40	39.617
410.76	38.755
411.11	39.275
411.47	39.128
411.83	40.212
412.18	39.217
412.54	39.004
412.89	39.115
413.25	38.318
413.60	39.518
413.96	39.161
414.31	39.263
414.67	39.475
415.03	38.769
415.38	40.290
415.74	39.218
416.09	39.790
416.45	37.633
416.80	39.106
417.16	39.464
417.51	38.730
417.87	38.933
418.22	39.042
418.58	37.856
418.93	39.814
419.29	39.827
419.64	38.896
420.00	38.516
420.35	39.304
420.71	38.713
421.06	38.988
421.42	39.679
421.77	39.095
422.12	38.795
422.48	38.914
422.83	39.978
423.19	39.841
423.54	40.044
423.90	39.150
424.25	39.947
424.61	39.437
424.96	38.880
425.31	39.862
425.67	39.291
426.02	39.402
426.38	39.724
426.73	39.118
427.09	40.600
427.44	39.050
427.79	38.861
428.15	39.840
428.50	40.112
428.85	39.667
429.21	39.681
429.56	39.289
429.92	39.410
430.27	40.096
430.62	40.449
430.98	39.400
431.33	39.443
431.68	39.368
432.04	39.512
432.39	39.475
432.74	38.927
433.10	39.751
433.45	39.688
433.80	39.700
434.16	39.514
434.51	39.928
434.86	40.934
435.22	40.223
435.57	40.507
435.92	40.568
436.28	40.671
436.63	40.579
436.98	39.667
437.34	40.699
437.69	40.176
438.04	39.820
438.39	40.034
438.75	39.292
439.10	40.328
439.45	39.519
439.81	40.565
440.16	38.391
440.51	40.747
440.86	39.188
441.22	39.282
441.57	39.046
441.92	40.252
442.27	41.263
442.63	40.835
442.98	41.355
443.33	40.715
443.68	40.040
444.03	40.828
444.39	40.176
444.74	40.684
445.09	40.142
445.44	40.832
445.79	40.996
446.15	40.545
446.50	39.638
446.85	40.613
447.20	40.716
447.55	40.900
447.91	40.314
448.26	40.275
448.61	39.639
448.96	41.041
449.31	40.403
449.66	39.325
450.02	40.823
450.37	40.650
450.72	40.850
451.07	39.749
451.42	39.977
451.77	40.689
452.12	41.648
452.47	39.750
452.83	40.991
453.18	40.630
453.53	40.839
453.88	39.757
454.23	40.452
454.58	41.323
454.93	39.867
455.28	40.277
455.63	41.217
455.98	40.335
456.34	39.929
456.69	39.506
457.04	40.662
457.39	40.521
457.74	41.834
458.09	40.417
458.44	40.409
458.79	39.917
459.14	39.067
459.49	40.351
459.84	42.078
460.19	40.533
460.54	40.375
460.89	40.974
461.24	40.517
461.59	40.011
461.94	40.103
462.29	39.754
462.64	39.831
462.99	40.427
463.34	40.883
463.69	40.152
464.04	40.078
464.39	41.087
464.74	39.795
465.09	39.965
465.44	39.753
465.79	40.296
466.14	40.803
466.49	40.263
466.84	41.102
467.19	40.058
467.54	39.542
467.89	39.885
468.24	39.945
468.59	39.548
468.94	39.510
469.29	39.532
469.64	39.797
469.99	39.898
470.34	40.099
470.68	41.353
471.03	40.406
471.38	39.830
471.73	39.077
472.08	40.546
472.43	40.217
472.78	40.428
473.13	40.076
473.48	39.940
473.83	39.872
474.17	39.625
474.52	41.010
474.87	39.978
475.22	40.338
475.57	39.045
475.92	38.875
476.27	40.256
476.61	40.187
476.96	39.051
477.31	39.208
477.66	41.186
478.01	38.536
478.36	38.036
478.70	39.606
479.05	40.542
479.40	39.931
479.75	40.538
480.10	40.076
480.45	39.517
480.79	40.635
481.14	39.292
481.49	39.982
481.84	40.383
482.19	39.656
482.53	39.790
482.88	40.408
483.23	39.440
483.58	39.039
483.92	38.874
484.27	39.839
484.62	38.531
484.97	39.852
485.31	38.789
485.66	37.996
486.01	37.895
486.36	39.063
486.70	40.735
487.05	41.680
487.40	40.933
487.75	40.254
488.09	40.575
488.44	39.797
488.79	39.595
489.13	39.319
489.48	38.913
489.83	38.270
490.17	38.437
490.52	38.629
490.87	38.706
491.22	39.255
491.56	38.396
491.91	39.512
492.26	39.550
492.60	39.571
492.95	38.833
493.30	39.265
493.64	39.991
493.99	38.904
494.34	38.545
494.68	38.715
495.03	39.339
495.37	39.237
495.72	39.048
496.07	39.395
496.41	39.254
496.76	39.074
497.11	39.660
497.45	38.886
497.80	38.827
498.14	38.730
498.49	39.798
498.84	38.757
499.18	39.001
499.53	39.821
499.87	39.253
500.22	37.756
500.56	38.462
500.91	40.458
501.26	39.864
501.60	38.533
501.95	38.558
502.29	39.359
502.64	39.134
502.98	38.525
503.33	38.531
503.67	39.294
504.02	39.405
504.36	39.589
504.71	39.274
505.06	39.336
505.40	38.665
505.75	38.434
506.09	39.503
506.44	39.740
506.78	39.037
507.13	39.281
507.47	39.365
507.82	39.394
508.16	39.197
508.51	37.693
508.85	39.821
509.19	39.886
509.54	39.577
509.88	38.757
510.23	39.582
510.57	40.454
510.92	40.106
511.26	38.624
511.61	38.774
511.95	39.043
512.30	39.734
512.64	38.731
512.98	38.469
513.33	39.214
513.67	39.419
514.02	39.244
514.36	39.744
514.70	39.844
515.05	39.625
515.39	38.898
515.74	39.926
516.08	39.831
516.42	40.869
516.77	39.800
517.11	38.370
517.46	39.555
517.80	40.406
518.14	39.173
518.49	39.642
518.83	40.128
519.17	39.418
519.52	38.994
519.86	39.810
520.20	40.096
520.55	38.280
520.89	40.259
521.23	39.363
521.58	40.621
521.92	39.603
522.26	39.118
522.61	39.757
522.95	39.677
523.29	40.057
523.64	38.285
523.98	40.787
524.32	40.917
524.66	40.979
525.01	39.128
525.35	39.747
525.69	39.965
526.04	39.323
526.38	38.966
526.72	40.484
527.06	40.117
527.41	39.067
527.75	40.558
528.09	40.142
528.43	39.432
528.78	39.017
529.12	39.335
529.46	39.348
529.80	39.531
530.15	40.290
530.49	40.154
530.83	39.433
531.17	39.367
531.51	38.748
531.86	39.663
532.20	40.854
532.54	39.916
532.88	39.939
533.22	39.540
533.57	39.873
533.91	40.292
534.25	38.892
534.59	40.057
534.93	39.615
535.27	39.718
535.62	39.909
535.96	40.383
536.30	39.600
536.64	39.399
536.98	39.668
537.32	38.580
537.66	39.988
538.01	39.215
538.35	39.708
538.69	38.942
539.03	40.466
539.37	39.576
539.71	40.120
540.05	39.568
540.39	39.670
540.73	39.405
541.07	40.589
541.42	38.866
541.76	38.375
542.10	39.204
542.44	40.073
542.78	39.416
543.12	39.571
543.46	39.011
543.80	38.429
544.14	39.318
544.48	39.657
544.82	39.378
545.16	39.416
545.50	39.545
545.84	39.559
546.18	40.741
546.52	39.363
546.86	39.182
547.20	39.122
547.54	39.638
547.88	39.060
548.22	40.351
548.56	39.029
548.90	40.239
549.24	39.210
549.58	39.748
549.92	39.668
550.26	39.159
550.60	39.694
550.94	40.168
551.28	38.878
551.62	39.623
551.96	38.123
552.30	39.069
552.64	39.826
552.98	40.861
553.32	39.743
553.66	39.228
554.00	39.849
554.34	39.640
554.68	39.638
555.02	40.079
555.36	38.725
555.69	39.526
556.03	39.660
556.37	40.363
556.71	40.013
557.05	39.808
557.39	40.279
557.73	40.225
558.07	39.073
558.41	39.801
558.75	38.675
559.08	40.640
559.42	39.095
559.76	39.688
560.10	39.384
560.44	40.303
560.78	40.562
561.12	40.148
561.45	40.815
561.79	39.866
562.13	39.926
562.47	39.088
562.81	39.557
563.15	39.268
563.48	40.336
563.82	38.634
564.16	40.218
564.50	39.094
564.84	38.761
565.17	39.059
565.51	38.608
565.85	41.271
566.19	38.998
566.52	39.263
566.86	38.936
567.20	39.478
567.54	39.989
567.88	39.399
568.21	39.872
568.55	40.144
568.89	39.128
569.23	40.051
569.56	39.664
569.90	39.487
570.24	39.595
570.57	40.346
570.91	40.080
571.25	39.832
571.59	39.549
571.92	38.859
572.26	39.783
572.60	39.585
572.93	39.800
573.27	39.618
573.61	39.439
573.95	39.573
574.28	39.196
574.62	39.427
574.96	39.038
575.29	38.687
575.63	39.247
575.97	39.808
576.30	38.959
576.64	39.561
576.98	39.271
577.31	39.269
577.65	40.322
577.98	39.552
578.32	39.952
578.66	39.804
578.99	38.829
579.33	39.529
579.67	39.279
580.00	39.200
580.34	39.551
580.67	39.276
581.01	39.788
581.35	39.041
581.68	39.255
582.02	39.430
582.35	40.398
582.69	40.062
583.02	40.366
583.36	40.173
583.70	40.241
584.03	39.021
584.37	39.694
584.70	38.655
585.04	39.479
585.37	39.439
585.71	38.878
586.04	39.278
586.38	39.879
586.72	39.308
587.05	39.524
587.39	40.015
587.72	39.737
588.06	39.531
588.39	40.080
588.73	39.524
589.06	39.221
589.40	40.350
589.73	39.814
590.07	39.357
590.40	40.297
590.73	39.413
591.07	39.613
591.40	38.958
591.74	39.507
592.07	40.560
592.41	40.142
592.74	39.191
593.08	39.522
593.41	39.458
593.75	39.598
594.08	39.715
594.41	40.577
594.75	39.555
595.08	39.166
595.42	39.773
595.75	39.070
596.09	39.715
596.42	39.914
596.75	40.139
597.09	40.525
597.42	39.134
597.75	40.180
598.09	39.127
598.42	40.290
598.76	38.976
599.09	39.658
599.42	38.518
599.76	39.056
600.09	39.540
600.42	39.606
600.76	39.597
601.09	39.396
601.42	39.204
601.76	40.034
602.09	39.993
602.42	39.295
602.76	39.631
603.09	39.611
603.42	40.679
603.76	39.183
604.09	39.957
604.42	39.303
604.76	39.003
605.09	39.649
605.42	39.753
605.75	39.269
606.09	39.156
606.42	39.183
606.75	39.693
607.09	39.363
607.42	39.037
607.75	39.703
608.08	39.661
608.42	38.815
608.75	38.972
609.08	39.049
609.41	39.876
609.75	39.509
610.08	39.490
610.41	39.337
610.74	39.454
611.07	40.009
611.41	39.417
611.74	39.908
612.07	40.206
612.40	39.163
612.73	39.804
613.07	39.560
613.40	40.087
613.73	39.817
614.06	39.156
614.39	38.581
614.72	38.137
615.06	38.787
615.39	39.923
615.72	39.526
616.05	39.922
616.38	39.808
616.71	39.446
617.05	38.179
617.38	39.058
617.71	39.687
618.04	40.151
618.37	40.109
618.70	40.045
619.03	39.665
619.36	39.704
619.69	40.167
620.03	39.360
620.36	39.571
620.69	38.618
621.02	39.501
621.35	40.711
621.68	39.913
622.01	40.285
622.34	39.540
622.67	38.419
623.00	38.731
623.33	39.482
623.66	39.689
623.99	39.566
624.32	39.701
624.65	39.254
624.99	39.467
625.32	40.105
625.65	39.717
625.98	39.254
626.31	39.405
626.64	39.780
626.97	39.235
627.30	39.104
627.63	38.110
627.96	39.189
628.29	39.377
628.62	38.539
628.95	39.001
629.28	38.828
629.61	38.552
629.94	39.331
630.26	38.644
630.59	38.169
630.92	39.740
631.25	39.803
631.58	40.113
631.91	41.799
632.24	39.769
632.57	40.512
632.90	38.516
633.23	39.286
633.56	38.980
633.89	39.669
