SpectraSuite Data File
++++++++++++++++++++++++++++++++++++
Date: Thu May 14 15:05:33 PDT 2015
User: schluterlab
Dark Spectrum Present: Yes
Reference Spectrum Present: Yes
Number of Sampled Component Spectra: 1
Spectrometers: USB2E3373
Integration Time (usec): 3000 (USB2E3373)
Spectra Averaged: 3 (USB2E3373)
Boxcar Smoothing: 0 (USB2E3373)
Correct for Electrical Dark: No (USB2E3373)
Strobe/Lamp Enabled: No (USB2E3373)
Correct for Detector Non-linearity: No (USB2E3373)
Correct for Stray Light: No (USB2E3373)
Number of Pixels in Processed Spectrum: 2048
>>>>>Begin Processed Spectral Data<<<<<
178.53	0.000
178.91	371.429
179.29	-3500.000
179.67	-3000.000
180.04	321.429
180.42	240.000
180.80	680.000
181.18	-2200.000
181.56	-2000.000
181.94	675.000
182.31	-750.000
182.69	933.333
183.07	-1050.000
183.45	750.000
183.83	-400.000
184.20	-766.667
184.58	2200.000
184.96	-725.000
185.34	-300.000
185.72	-300.000
186.09	411.111
186.47	1350.000
186.85	780.000
187.23	-388.889
187.61	-3500.000
187.98	560.000
188.36	725.000
188.74	-700.000
189.12	-533.333
189.49	-68.750
189.87	-387.500
190.25	-366.667
190.63	-500.000
191.00	-344.444
191.38	0.000
191.76	-775.000
192.14	-500.000
192.51	1350.000
192.89	-300.000
193.27	0.000
193.65	-314.286
194.02	-3500.000
194.40	-285.714
194.78	542.857
195.15	0.000
195.53	-172.727
195.91	0.000
196.29	-450.000
196.66	-138.462
197.04	-3400.000
197.42	-414.286
197.79	-1100.000
198.17	-337.500
198.55	-471.429
198.92	-300.000
199.30	-350.000
199.68	-209.091
200.05	-142.857
200.43	-1250.000
200.81	471.429
201.18	0.000
201.56	400.000
201.94	0.000
202.31	1133.333
202.69	-344.444
203.07	1700.000
203.44	-255.556
203.82	-700.000
204.19	-225.000
204.57	-433.333
204.95	-412.500
205.32	-2600.000
205.70	700.000
206.08	-433.333
206.45	-366.667
206.83	840.000
207.20	-466.667
207.58	-620.000
207.96	-566.667
208.33	-466.667
208.71	250.000
209.08	-383.333
209.46	0.000
209.84	600.000
210.21	1100.000
210.59	950.000
210.96	1133.333
211.34	-475.000
211.71	-375.000
212.09	-1800.000
212.46	0.000
212.84	1750.000
213.22	-680.000
213.59	-675.000
213.97	-250.000
214.34	-933.333
214.72	566.667
215.09	-850.000
215.47	0.000
215.84	385.714
216.22	1500.000
216.59	-460.000
216.97	-500.000
217.34	-525.000
217.72	-350.000
218.09	-525.000
218.47	-825.000
218.84	0.000
219.22	540.000
219.59	-135.294
219.97	-100.000
220.34	1900.000
220.72	-288.889
221.09	-184.615
221.47	-1033.333
221.84	-240.000
222.22	-457.143
222.59	0.000
222.97	-237.500
223.34	-660.000
223.72	-2500.000
224.09	-825.000
224.46	-1025.000
224.84	-420.000
225.21	-371.429
225.59	-750.000
225.96	-650.000
226.34	-30.769
226.71	566.667
227.08	-1350.000
227.46	-133.333
227.83	-750.000
228.21	-131.579
228.58	437.500
228.95	1750.000
229.33	-183.333
229.70	-240.000
230.08	-73.684
230.45	320.000
230.82	-866.667
231.20	-164.286
231.57	-241.667
231.95	-263.636
232.32	-145.455
232.69	-70.000
233.07	-900.000
233.44	-129.412
233.81	-260.000
234.19	-83.333
234.56	-113.636
234.93	-58.621
235.31	-152.632
235.68	-127.778
236.05	-170.000
236.43	-65.385
236.80	-80.000
237.17	-77.778
237.55	-96.970
237.92	-330.000
238.29	-93.548
238.67	-47.727
239.04	-55.556
239.41	-80.952
239.79	-63.043
240.16	-48.148
240.53	-56.522
240.91	-58.824
241.28	-47.541
241.65	-25.373
242.02	-28.378
242.40	-43.077
242.77	-36.000
243.14	-36.585
243.51	-44.737
243.89	-41.026
244.26	-19.802
244.63	-28.431
245.00	-15.888
245.38	-18.421
245.75	-30.973
246.12	-16.667
246.49	-25.581
246.87	-20.000
247.24	-15.232
247.61	-15.132
247.98	-15.436
248.36	-19.753
248.73	-19.632
249.10	-11.475
249.47	-13.433
249.84	-10.995
250.22	-13.472
250.59	-16.667
250.96	-4.091
251.33	-17.347
251.70	-11.538
252.08	-8.750
252.45	-8.607
252.82	-7.851
253.19	-9.375
253.56	-9.125
253.94	-12.692
254.31	-10.227
254.68	-6.294
255.05	-3.583
255.42	-7.483
255.79	-10.356
256.16	-9.272
256.54	-9.272
256.91	-8.525
257.28	-7.213
257.65	-9.236
258.02	-10.914
258.39	-7.977
258.76	-4.893
259.14	-5.172
259.51	-7.781
259.88	-7.649
260.25	-8.333
260.62	-9.315
260.99	-4.918
261.36	-4.290
261.73	-7.162
262.10	-10.165
262.47	-7.507
262.85	-3.030
263.22	-8.052
263.59	-6.842
263.96	-3.836
264.33	-6.650
264.70	-6.420
265.07	-4.535
265.44	-2.268
265.81	-5.556
266.18	-5.215
266.55	-6.027
266.92	-7.517
267.29	-3.939
267.66	-3.326
268.03	-5.677
268.40	-4.175
268.77	-7.745
269.14	-6.167
269.51	-5.044
269.88	-3.689
270.25	-2.012
270.62	-3.586
270.99	-2.424
271.36	-3.564
271.73	-2.554
272.10	-2.004
272.47	-5.010
272.84	-4.418
273.21	-3.607
273.58	-3.226
273.95	-3.846
274.32	-4.943
274.69	-4.642
275.06	-4.029
275.43	-4.067
275.80	-1.587
276.17	-5.000
276.54	-4.851
276.91	-4.114
277.28	-3.797
277.65	-2.873
278.02	-3.860
278.39	-5.616
278.76	-4.394
279.13	-4.787
279.50	-2.062
279.87	-3.041
280.23	-6.514
280.60	-2.203
280.97	-4.276
281.34	-5.603
281.71	-1.861
282.08	-2.824
282.45	-4.255
282.82	-3.611
283.19	-4.847
283.56	-4.262
283.92	-3.303
284.29	-1.896
284.66	-2.299
285.03	-5.288
285.40	-2.937
285.77	-5.263
286.14	-1.527
286.51	-4.414
286.87	-3.633
287.24	-3.313
287.61	-4.335
287.98	-5.438
288.35	-2.811
288.72	-4.438
289.08	-2.050
289.45	-3.254
289.82	-3.313
290.19	-3.448
290.56	-2.113
290.93	-3.994
291.29	-3.030
291.66	-3.306
292.03	-4.071
292.40	-2.041
292.77	-3.774
293.13	-2.842
293.50	-4.336
293.87	-3.490
294.24	-2.667
294.60	-1.391
294.97	-4.698
295.34	-1.408
295.71	-3.026
296.08	-3.359
296.44	-3.431
296.81	-2.314
297.18	-3.113
297.55	-3.302
297.91	-3.084
298.28	-3.555
298.65	-2.140
299.02	-2.834
299.38	-2.975
299.75	-2.336
300.12	-3.125
300.48	-2.189
300.85	-2.362
301.22	-2.461
301.59	-3.539
301.95	-3.164
302.32	-1.111
302.69	-1.862
303.05	-1.632
303.42	-2.550
303.79	-2.812
304.15	-1.788
304.52	-2.854
304.89	-2.513
305.25	-2.277
305.62	-1.672
305.99	-2.062
306.35	-1.915
306.72	-2.275
307.09	-2.437
307.45	-1.967
307.82	-1.615
308.19	-2.725
308.55	-1.446
308.92	-2.045
309.29	-1.628
309.65	-2.339
310.02	-2.376
310.38	-1.870
310.75	-1.845
311.12	-0.671
311.48	-2.053
311.85	-1.614
312.22	-1.423
312.58	-1.690
312.95	-2.390
313.31	-0.903
313.68	-0.275
314.05	0.271
314.41	-0.638
314.78	-0.908
315.14	0.091
315.51	-0.923
315.87	0.090
316.24	-0.457
316.61	-0.178
316.97	-0.905
317.34	-0.705
317.70	0.524
318.07	-0.176
318.43	1.276
318.80	1.672
319.16	0.429
319.53	-0.086
319.89	0.088
320.26	0.890
320.62	0.355
320.99	1.847
321.35	0.092
321.72	2.698
322.08	0.812
322.45	1.084
322.81	1.354
323.18	0.265
323.54	2.069
323.91	1.335
324.27	1.893
324.64	3.107
325.00	1.741
325.37	3.112
325.73	2.149
326.10	3.244
326.46	3.583
326.83	3.283
327.19	2.835
327.56	4.269
327.92	3.777
328.29	3.710
328.65	3.266
329.01	3.299
329.38	5.055
329.74	4.366
330.11	5.137
330.47	4.634
330.84	4.393
331.20	5.667
331.56	4.679
331.93	5.188
332.29	6.186
332.66	6.478
333.02	4.690
333.38	4.279
333.75	5.724
334.11	5.505
334.48	6.518
334.84	6.032
335.20	4.534
335.57	5.734
335.93	5.620
336.29	5.408
336.66	6.140
337.02	6.020
337.38	6.293
337.75	5.207
338.11	6.140
338.47	5.542
338.84	5.415
339.20	4.886
339.56	5.437
339.93	5.911
340.29	6.441
340.65	6.732
341.02	7.183
341.38	6.144
341.74	5.892
342.11	5.712
342.47	5.957
342.83	5.233
343.20	6.868
343.56	6.255
343.92	6.725
344.28	7.266
344.65	7.054
345.01	6.396
345.37	6.376
345.73	5.768
346.10	7.800
346.46	6.013
346.82	7.790
347.19	7.181
347.55	8.042
347.91	6.612
348.27	6.753
348.63	7.312
349.00	6.339
349.36	8.327
349.72	7.068
350.08	7.429
350.45	6.464
350.81	7.164
351.17	6.767
351.53	6.520
351.89	7.821
352.26	7.090
352.62	6.642
352.98	7.176
353.34	7.095
353.70	7.550
354.07	7.899
354.43	7.213
354.79	8.227
355.15	8.241
355.51	7.895
355.87	8.302
356.24	8.365
356.60	7.613
356.96	8.747
357.32	7.063
357.68	8.272
358.04	7.710
358.40	7.388
358.77	8.553
359.13	7.829
359.49	7.509
359.85	7.832
360.21	7.532
360.57	7.609
360.93	8.815
361.29	8.351
361.66	8.182
362.02	9.464
362.38	8.573
362.74	8.869
363.10	9.285
363.46	9.418
363.82	7.528
364.18	8.234
364.54	9.405
364.90	9.699
365.26	9.379
365.62	9.533
365.98	8.713
366.35	8.993
366.71	9.796
367.07	8.931
367.43	9.127
367.79	9.622
368.15	9.164
368.51	9.472
368.87	9.798
369.23	9.267
369.59	10.041
369.95	10.683
370.31	10.533
370.67	10.248
371.03	8.864
371.39	9.604
371.75	10.316
372.11	10.908
372.47	10.494
372.83	11.322
373.19	11.074
373.55	10.840
373.91	10.770
374.27	11.449
374.63	10.622
374.99	11.273
375.35	12.532
375.71	11.355
376.07	11.168
376.42	11.335
376.78	11.933
377.14	11.229
377.50	11.259
377.86	12.377
378.22	12.216
378.58	12.485
378.94	12.383
379.30	13.005
379.66	12.757
380.02	12.983
380.38	13.306
380.74	12.789
381.09	12.892
381.45	13.580
381.81	14.344
382.17	14.192
382.53	13.977
382.89	13.939
383.25	13.599
383.61	12.153
383.97	13.722
384.32	13.876
384.68	13.515
385.04	14.633
385.40	14.614
385.76	15.358
386.12	14.782
386.48	14.765
386.83	15.316
387.19	14.368
387.55	14.495
387.91	14.726
388.27	15.473
388.62	14.891
388.98	15.116
389.34	15.321
389.70	15.166
390.06	15.275
390.42	15.422
390.77	16.616
391.13	16.138
391.49	16.787
391.85	14.970
392.20	16.251
392.56	16.184
392.92	16.031
393.28	16.418
393.64	15.475
393.99	16.676
394.35	15.713
394.71	16.587
395.07	15.928
395.42	15.363
395.78	17.002
396.14	16.518
396.50	15.796
396.85	15.921
397.21	16.805
397.57	16.372
397.92	16.781
398.28	15.915
398.64	16.247
399.00	16.126
399.35	16.702
399.71	16.359
400.07	16.620
400.42	16.997
400.78	16.493
401.14	16.904
401.49	15.520
401.85	16.977
402.21	15.527
402.57	16.960
402.92	17.494
403.28	15.749
403.63	15.752
403.99	16.686
404.35	15.918
404.70	16.827
405.06	15.924
405.42	15.984
405.77	16.467
406.13	16.316
406.49	15.935
406.84	16.343
407.20	15.204
407.55	16.354
407.91	16.279
408.27	16.608
408.62	15.998
408.98	15.612
409.34	14.721
409.69	16.131
410.05	15.826
410.40	16.647
410.76	16.096
411.11	16.540
411.47	15.233
411.83	16.167
412.18	15.663
412.54	15.768
412.89	16.473
413.25	16.591
413.60	16.600
413.96	15.909
414.31	16.771
414.67	15.623
415.03	14.769
415.38	15.826
415.74	16.127
416.09	16.903
416.45	15.654
416.80	15.361
417.16	16.092
417.51	16.874
417.87	16.677
418.22	15.150
418.58	15.551
418.93	16.065
419.29	15.351
419.64	16.927
420.00	15.727
420.35	16.227
420.71	15.738
421.06	16.101
421.42	16.227
421.77	15.994
422.12	17.019
422.48	16.436
422.83	17.087
423.19	15.225
423.54	16.869
423.90	15.903
424.25	16.747
424.61	16.073
424.96	16.035
425.31	17.410
425.67	16.694
426.02	16.215
426.38	17.279
426.73	16.350
427.09	17.878
427.44	16.275
427.79	16.639
428.15	15.468
428.50	17.135
428.85	16.303
429.21	17.553
429.56	16.091
429.92	16.953
430.27	17.783
430.62	17.049
430.98	17.905
431.33	16.960
431.68	16.379
432.04	17.268
432.39	17.783
432.74	17.123
433.10	17.793
433.45	16.332
433.80	17.275
434.16	17.355
434.51	17.883
434.86	17.807
435.22	17.800
435.57	17.807
435.92	17.974
436.28	17.008
436.63	17.695
436.98	17.284
437.34	17.475
437.69	18.052
438.04	17.240
438.39	18.208
438.75	16.381
439.10	18.763
439.45	17.663
439.81	17.458
440.16	17.212
440.51	18.339
440.86	16.954
441.22	18.006
441.57	17.400
441.92	17.895
442.27	18.939
442.63	18.679
442.98	18.250
443.33	18.096
443.68	19.326
444.03	18.627
444.39	18.215
444.74	18.632
445.09	17.486
445.44	17.597
445.79	18.295
446.15	18.140
446.50	18.295
446.85	18.288
447.20	18.327
447.55	18.672
447.91	18.010
448.26	18.393
448.61	19.075
448.96	18.777
449.31	18.399
449.66	16.721
450.02	18.724
450.37	19.073
450.72	18.138
451.07	18.166
451.42	18.140
451.77	18.066
452.12	18.002
452.47	17.409
452.83	17.849
453.18	17.630
453.53	17.174
453.88	17.891
454.23	17.910
454.58	18.398
454.93	17.051
455.28	17.339
455.63	19.102
455.98	18.659
456.34	18.610
456.69	17.872
457.04	17.967
457.39	18.016
457.74	18.568
458.09	17.902
458.44	18.966
458.79	18.308
459.14	18.825
459.49	18.563
459.84	18.048
460.19	18.046
460.54	18.512
460.89	18.475
461.24	18.218
461.59	18.318
461.94	17.798
462.29	17.917
462.64	18.407
462.99	18.267
463.34	17.975
463.69	17.702
464.04	18.344
464.39	18.890
464.74	17.731
465.09	17.878
465.44	18.401
465.79	18.826
466.14	17.978
466.49	18.895
466.84	18.898
467.19	18.382
467.54	16.627
467.89	17.874
468.24	17.673
468.59	17.429
468.94	17.599
469.29	17.097
469.64	18.118
469.99	17.527
470.34	18.007
470.68	18.387
471.03	18.664
471.38	18.705
471.73	17.555
472.08	17.132
472.43	17.941
472.78	18.703
473.13	17.952
473.48	18.852
473.83	18.746
474.17	17.995
474.52	18.100
474.87	18.992
475.22	18.648
475.57	19.055
475.92	18.517
476.27	18.584
476.61	17.134
476.96	18.457
477.31	18.218
477.66	18.153
478.01	19.065
478.36	18.146
478.70	18.768
479.05	19.018
479.40	18.411
479.75	18.876
480.10	18.759
480.45	19.052
480.79	18.685
481.14	18.934
481.49	19.037
481.84	18.842
482.19	18.667
482.53	18.321
482.88	19.185
483.23	19.342
483.58	18.035
483.92	18.395
484.27	18.671
484.62	18.606
484.97	19.207
485.31	18.515
485.66	17.121
486.01	17.932
486.36	19.026
486.70	20.279
487.05	20.424
487.40	19.642
487.75	19.211
488.09	18.597
488.44	18.372
488.79	18.347
489.13	18.139
489.48	17.864
489.83	18.109
490.17	17.618
490.52	18.391
490.87	17.851
491.22	17.938
491.56	18.174
491.91	18.317
492.26	18.434
492.60	19.152
492.95	18.780
493.30	17.840
493.64	19.054
493.99	18.289
494.34	18.946
494.68	18.501
495.03	18.150
495.37	18.509
495.72	18.186
496.07	18.536
496.41	18.018
496.76	18.932
497.11	18.641
497.45	18.817
497.80	18.036
498.14	18.730
498.49	18.658
498.84	18.967
499.18	18.264
499.53	18.744
499.87	18.681
500.22	17.631
500.56	18.444
500.91	18.581
501.26	18.545
501.60	18.206
501.95	19.192
502.29	19.131
502.64	18.758
502.98	19.025
503.33	18.488
503.67	18.404
504.02	19.440
504.36	18.767
504.71	18.695
505.06	18.554
505.40	18.739
505.75	19.444
506.09	19.429
506.44	19.777
506.78	18.899
507.13	18.903
507.47	19.943
507.82	19.034
508.16	19.407
508.51	18.847
508.85	19.036
509.19	19.375
509.54	19.549
509.88	18.844
510.23	19.670
510.57	19.720
510.92	20.077
511.26	19.913
511.61	19.604
511.95	19.131
512.30	20.827
512.64	19.540
512.98	19.760
513.33	20.262
513.67	19.531
514.02	19.366
514.36	19.488
514.70	19.740
515.05	20.125
515.39	20.315
515.74	20.732
516.08	20.180
516.42	21.455
516.77	20.347
517.11	19.288
517.46	20.467
517.80	20.738
518.14	20.947
518.49	21.095
518.83	20.649
519.17	19.978
519.52	20.545
519.86	20.697
520.20	21.246
520.55	20.920
520.89	20.664
521.23	20.659
521.58	20.678
521.92	20.793
522.26	21.306
522.61	21.007
522.95	20.877
523.29	20.230
523.64	21.693
523.98	21.848
524.32	22.120
524.66	20.433
525.01	20.951
525.35	20.448
525.69	21.404
526.04	20.781
526.38	20.747
526.72	20.127
527.06	21.584
527.41	20.466
527.75	21.793
528.09	20.425
528.43	20.959
528.78	20.520
529.12	21.617
529.46	20.630
529.80	20.881
530.15	21.739
530.49	20.819
530.83	21.015
531.17	21.864
531.51	20.878
531.86	21.755
532.20	21.463
532.54	21.065
532.88	21.879
533.22	21.273
533.57	21.062
533.91	21.437
534.25	21.255
534.59	21.437
534.93	21.109
535.27	20.789
535.62	21.376
535.96	21.557
536.30	20.623
536.64	22.523
536.98	21.279
537.32	20.556
537.66	22.333
538.01	20.483
538.35	20.646
538.69	20.613
539.03	21.459
539.37	21.908
539.71	21.562
540.05	20.923
540.39	20.782
540.73	21.069
541.07	22.011
541.42	20.851
541.76	20.819
542.10	20.567
542.44	20.889
542.78	20.864
543.12	21.395
543.46	21.612
543.80	21.583
544.14	20.407
544.48	20.567
544.82	21.544
545.16	21.228
545.50	20.731
545.84	21.372
546.18	21.790
546.52	20.892
546.86	21.195
547.20	20.802
547.54	20.474
547.88	20.253
548.22	20.409
548.56	21.065
548.90	20.716
549.24	21.094
549.58	20.694
549.92	19.834
550.26	21.036
550.60	19.911
550.94	21.604
551.28	20.198
551.62	21.765
551.96	21.230
552.30	21.287
552.64	20.971
552.98	20.898
553.32	20.450
553.66	21.222
554.00	20.870
554.34	20.335
554.68	20.465
555.02	21.682
555.36	21.696
555.69	20.692
556.03	19.861
556.37	21.464
556.71	20.419
557.05	21.342
557.39	20.571
557.73	21.004
558.07	21.126
558.41	21.130
558.75	21.028
559.08	19.903
559.42	20.988
559.76	20.963
560.10	21.098
560.44	20.449
560.78	21.062
561.12	20.443
561.45	21.472
561.79	21.245
562.13	21.380
562.47	21.085
562.81	22.215
563.15	21.338
563.48	20.758
563.82	20.314
564.16	20.412
564.50	20.620
564.84	21.003
565.17	20.059
565.51	20.771
565.85	20.784
566.19	20.795
566.52	20.948
566.86	20.430
567.20	19.304
567.54	20.605
567.88	20.948
568.21	20.998
568.55	21.247
568.89	20.654
569.23	20.617
569.56	20.672
569.90	21.062
570.24	20.776
570.57	20.943
570.91	20.392
571.25	20.104
571.59	20.568
571.92	20.309
572.26	20.355
572.60	20.229
572.93	20.345
573.27	20.202
573.61	20.064
573.95	20.078
574.28	19.972
574.62	20.282
574.96	19.916
575.29	19.828
575.63	19.727
575.97	20.192
576.30	19.220
576.64	19.661
576.98	19.636
577.31	20.083
577.65	20.429
577.98	20.350
578.32	20.114
578.66	20.185
578.99	20.193
579.33	20.120
579.67	19.719
580.00	19.622
580.34	19.699
580.67	19.638
581.01	19.775
581.35	19.930
581.68	19.645
582.02	20.163
582.35	20.569
582.69	20.424
583.02	20.239
583.36	20.127
583.70	20.018
584.03	19.750
584.37	19.180
584.70	19.242
585.04	19.089
585.37	19.487
585.71	19.590
586.04	20.189
586.38	19.847
586.72	19.228
587.05	19.673
587.39	19.995
587.72	20.383
588.06	19.923
588.39	20.139
588.73	19.841
589.06	20.598
589.40	19.975
589.73	20.019
590.07	19.828
590.40	20.115
590.73	20.148
591.07	20.141
591.40	19.635
591.74	19.595
592.07	19.610
592.41	19.992
592.74	19.879
593.08	20.255
593.41	21.172
593.75	20.402
594.08	20.388
594.41	20.321
594.75	19.861
595.08	19.448
595.42	19.740
595.75	19.438
596.09	19.959
596.42	19.240
596.75	20.031
597.09	20.444
597.42	20.024
597.75	19.757
598.09	20.159
598.42	19.542
598.76	19.144
599.09	19.865
599.42	19.410
599.76	19.809
600.09	19.820
600.42	19.686
600.76	19.287
601.09	20.080
601.42	19.567
601.76	19.655
602.09	19.621
602.42	19.302
602.76	19.114
603.09	19.971
603.42	19.725
603.76	19.309
604.09	20.440
604.42	19.596
604.76	19.330
605.09	19.505
605.42	20.056
605.75	19.346
606.09	19.784
606.42	19.190
606.75	19.378
607.09	19.508
607.42	19.422
607.75	19.539
608.08	18.863
608.42	19.347
608.75	19.444
609.08	19.694
609.41	19.277
609.75	19.330
610.08	19.965
610.41	19.244
610.74	19.664
611.07	19.494
611.41	19.507
611.74	19.446
612.07	20.009
612.40	19.106
612.73	19.462
613.07	18.778
613.40	19.105
613.73	19.355
614.06	18.744
614.39	19.971
614.72	19.360
615.06	19.490
615.39	19.285
615.72	19.526
616.05	19.330
616.38	19.879
616.71	20.272
617.05	18.264
617.38	19.262
617.71	20.032
618.04	19.374
618.37	19.071
618.70	19.683
619.03	18.698
619.36	19.482
619.69	19.090
620.03	19.335
620.36	19.018
620.69	18.322
621.02	19.226
621.35	19.448
621.68	18.872
622.01	18.577
622.34	18.828
622.67	18.969
623.00	18.556
623.33	19.376
623.66	19.650
623.99	18.894
624.32	19.233
624.65	18.533
624.99	18.921
625.32	20.771
625.65	19.420
625.98	19.051
626.31	18.214
626.64	18.901
626.97	19.205
627.30	16.932
627.63	18.755
627.96	21.021
628.29	18.988
628.62	17.884
628.95	19.281
629.28	18.352
629.61	19.781
629.94	17.908
630.26	18.220
630.59	19.257
630.92	17.576
631.25	19.052
631.58	19.962
631.91	19.400
632.24	18.156
632.57	18.880
632.90	18.054
