SpectraSuite Data File
++++++++++++++++++++++++++++++++++++
Date: Thu May 14 14:29:42 PDT 2015
User: schluterlab
Dark Spectrum Present: Yes
Reference Spectrum Present: Yes
Number of Sampled Component Spectra: 1
Spectrometers: USB2E3373
Integration Time (usec): 3000 (USB2E3373)
Spectra Averaged: 3 (USB2E3373)
Boxcar Smoothing: 0 (USB2E3373)
Correct for Electrical Dark: No (USB2E3373)
Strobe/Lamp Enabled: No (USB2E3373)
Correct for Detector Non-linearity: No (USB2E3373)
Correct for Stray Light: No (USB2E3373)
Number of Pixels in Processed Spectrum: 2048
>>>>>Begin Processed Spectral Data<<<<<
178.53	0.000
178.91	-185.714
179.29	-100.000
179.67	1000.000
180.04	14.286
180.42	-230.000
180.80	-140.000
181.18	1400.000
181.56	2500.000
181.94	-375.000
182.31	425.000
182.69	-166.667
183.07	1050.000
183.45	-150.000
183.83	333.333
184.20	166.667
184.58	-1700.000
184.96	300.000
185.34	88.889
185.72	440.000
186.09	-33.333
186.47	-350.000
186.85	-220.000
187.23	-11.111
187.61	1000.000
187.98	-180.000
188.36	-275.000
188.74	475.000
189.12	533.333
189.49	143.750
189.87	162.500
190.25	211.111
190.63	320.000
191.00	0.000
191.38	0.000
191.76	275.000
192.14	283.333
192.51	-750.000
192.89	400.000
193.27	0.000
193.65	171.429
194.02	400.000
194.40	242.857
194.78	-242.857
195.15	0.000
195.53	181.818
195.91	0.000
196.29	750.000
196.66	53.846
197.04	1400.000
197.42	142.857
197.79	1150.000
198.17	200.000
198.55	0.000
198.92	155.556
199.30	175.000
199.68	218.182
200.05	150.000
200.43	500.000
200.81	-71.429
201.18	0.000
201.56	-55.556
201.94	0.000
202.31	-333.333
202.69	55.556
203.07	-1200.000
203.44	133.333
203.82	150.000
204.19	150.000
204.57	283.333
204.95	212.500
205.32	900.000
205.70	-350.000
206.08	333.333
206.45	316.667
206.83	-120.000
207.20	316.667
207.58	180.000
207.96	-16.667
208.33	366.667
208.71	-83.333
209.08	216.667
209.46	0.000
209.84	-116.667
210.21	-450.000
210.59	-500.000
210.96	-33.333
211.34	450.000
211.71	175.000
212.09	1100.000
212.46	0.000
212.84	50.000
213.22	220.000
213.59	375.000
213.97	190.000
214.34	300.000
214.72	-150.000
215.09	375.000
215.47	0.000
215.84	-128.571
216.22	-100.000
216.59	100.000
216.97	300.000
217.34	350.000
217.72	250.000
218.09	550.000
218.47	300.000
218.84	0.000
219.22	-140.000
219.59	52.941
219.97	45.000
220.34	-350.000
220.72	122.222
221.09	153.846
221.47	466.667
221.84	170.000
222.22	171.429
222.59	0.000
222.97	275.000
223.34	120.000
223.72	1100.000
224.09	500.000
224.46	200.000
224.84	380.000
225.21	157.143
225.59	225.000
225.96	250.000
226.34	111.538
226.71	-50.000
227.08	650.000
227.46	180.000
227.83	350.000
228.21	105.263
228.58	-237.500
228.95	-300.000
229.33	116.667
229.70	100.000
230.08	136.842
230.45	-180.000
230.82	1066.667
231.20	78.571
231.57	175.000
231.95	136.364
232.32	218.182
232.69	130.000
233.07	775.000
233.44	105.882
233.81	120.000
234.19	127.778
234.56	59.091
234.93	100.000
235.31	136.842
235.68	138.889
236.05	95.000
236.43	150.000
236.80	76.000
237.17	122.222
237.55	115.152
237.92	200.000
238.29	87.097
238.67	61.364
239.04	102.778
239.41	97.619
239.79	73.913
240.16	68.519
240.53	95.652
240.91	72.549
241.28	81.967
241.65	77.612
242.02	72.973
242.40	72.308
242.77	65.333
243.14	62.195
243.51	75.000
243.89	74.359
244.26	72.277
244.63	61.765
245.00	71.963
245.38	69.298
245.75	65.487
246.12	63.492
246.49	58.140
246.87	65.714
247.24	64.238
247.61	59.211
247.98	65.772
248.36	64.198
248.73	56.442
249.10	56.831
249.47	63.184
249.84	63.351
250.22	66.321
250.59	63.889
250.96	58.636
251.33	63.776
251.70	60.256
252.08	57.500
252.45	60.246
252.82	57.438
253.19	53.906
253.56	58.175
253.94	59.231
254.31	57.955
254.68	58.042
255.05	61.238
255.42	59.524
255.79	58.252
256.16	55.960
256.54	55.629
256.91	61.639
257.28	58.033
257.65	59.873
258.02	55.162
258.39	53.846
258.76	60.245
259.14	60.632
259.51	55.331
259.88	56.091
260.25	59.444
260.62	56.712
260.99	60.656
261.36	57.105
261.73	59.947
262.10	58.791
262.47	59.249
262.85	58.838
263.22	57.143
263.59	58.158
263.96	57.033
264.33	56.522
264.70	57.037
265.07	57.757
265.44	59.637
265.81	53.704
266.18	56.463
266.55	53.795
266.92	57.859
267.29	58.643
267.66	55.211
268.03	57.424
268.40	55.532
268.77	59.909
269.14	56.828
269.51	56.360
269.88	56.148
270.25	51.710
270.62	59.283
270.99	52.727
271.36	53.465
271.73	57.957
272.10	56.513
272.47	58.116
272.84	54.016
273.21	54.309
273.58	56.855
273.95	53.846
274.32	52.471
274.69	53.965
275.06	55.495
275.43	51.941
275.80	53.792
276.17	54.259
276.54	56.157
276.91	54.741
277.28	53.888
277.65	54.039
278.02	54.963
278.39	53.261
278.76	52.724
279.13	56.028
279.50	51.890
279.87	53.309
280.23	49.472
280.60	51.186
280.97	52.303
281.34	52.632
281.71	53.976
282.08	47.508
282.45	53.355
282.82	51.805
283.19	49.919
283.56	51.967
283.92	51.502
284.29	49.921
284.66	51.724
285.03	50.641
285.40	50.696
285.77	49.536
286.14	50.840
286.51	51.142
286.87	48.499
287.24	53.012
287.61	49.626
287.98	50.604
288.35	49.704
288.72	49.704
289.08	49.927
289.45	45.118
289.82	48.343
290.19	47.845
290.56	48.028
290.93	48.074
291.29	46.143
291.66	47.934
292.03	46.404
292.40	44.762
292.77	46.092
293.13	43.843
293.50	44.284
293.87	45.235
294.24	46.000
294.60	41.719
294.97	41.879
295.34	42.766
295.71	40.227
296.08	42.894
296.44	43.015
296.81	42.022
297.18	41.594
297.55	39.741
297.91	40.214
298.28	39.455
298.65	39.477
299.02	40.378
299.38	39.474
299.75	39.603
300.12	38.542
300.48	39.747
300.85	39.483
301.22	37.584
301.59	38.699
301.95	39.322
302.32	39.778
302.69	39.759
303.05	38.847
303.42	36.585
303.79	38.229
304.15	36.698
304.52	37.104
304.89	36.649
305.25	36.853
305.62	37.304
305.99	37.320
306.35	37.198
306.72	38.676
307.09	36.041
307.45	37.992
307.82	37.235
308.19	36.024
308.55	36.837
308.92	37.001
309.29	37.452
309.65	35.478
310.02	35.941
310.38	36.614
310.75	37.379
311.12	38.351
311.48	36.168
311.85	36.277
312.22	36.622
312.58	35.587
312.95	35.851
313.31	36.856
313.68	36.813
314.05	37.308
314.41	36.248
314.78	35.513
315.14	36.751
315.51	35.642
315.87	35.284
316.24	36.347
316.61	36.234
316.97	34.751
317.34	35.714
317.70	36.332
318.07	36.861
318.43	34.864
318.80	35.870
319.16	34.077
319.53	34.190
319.89	35.145
320.26	35.231
320.62	34.131
320.99	34.164
321.35	34.288
321.72	36.186
322.08	34.175
322.45	33.966
322.81	36.101
323.18	34.779
323.54	35.603
323.91	36.655
324.27	34.079
324.64	34.677
325.00	34.080
325.37	34.971
325.73	33.802
326.10	34.793
326.46	34.283
326.83	34.107
327.19	33.543
327.56	34.150
327.92	33.438
328.29	34.032
328.65	34.590
329.01	33.587
329.38	34.878
329.74	35.274
330.11	34.760
330.47	33.698
330.84	34.109
331.20	34.500
331.56	34.662
331.93	34.644
332.29	35.593
332.66	34.801
333.02	33.417
333.38	33.893
333.75	33.165
334.11	33.695
334.48	33.416
334.84	33.985
335.20	33.165
335.57	34.317
335.93	34.711
336.29	33.111
336.66	33.305
337.02	33.612
337.38	34.099
337.75	33.388
338.11	33.474
338.47	34.078
338.84	32.403
339.20	32.519
339.56	32.208
339.93	32.594
340.29	32.770
340.65	31.792
341.02	33.360
341.38	32.741
341.74	30.751
342.11	31.295
342.47	32.407
342.83	32.850
343.20	31.725
343.56	31.997
343.92	33.307
344.28	31.875
344.65	32.481
345.01	33.073
345.37	31.726
345.73	30.475
346.10	31.747
346.46	32.753
346.82	31.461
347.19	32.697
347.55	32.701
347.91	31.129
348.27	31.487
348.63	31.835
349.00	32.588
349.36	31.078
349.72	30.804
350.08	30.906
350.45	31.027
350.81	30.920
351.17	30.902
351.53	30.553
351.89	31.511
352.26	30.522
352.62	31.119
352.98	30.992
353.34	30.471
353.70	30.971
354.07	30.999
354.43	29.461
354.79	30.142
355.15	31.714
355.51	31.140
355.87	30.292
356.24	31.483
356.60	30.007
356.96	29.800
357.32	30.112
357.68	30.234
358.04	31.138
358.40	30.149
358.77	29.605
359.13	30.059
359.49	30.335
359.85	30.094
360.21	29.555
360.57	29.074
360.93	29.972
361.29	31.018
361.66	29.978
362.02	29.784
362.38	30.288
362.74	31.006
363.10	30.399
363.46	29.848
363.82	29.616
364.18	29.697
364.54	29.461
364.90	29.967
365.26	29.931
365.62	29.533
365.98	28.727
366.35	28.993
366.71	30.068
367.07	30.176
367.43	29.547
367.79	29.330
368.15	30.033
368.51	30.108
368.87	29.654
369.23	29.600
369.59	29.781
369.95	28.736
370.31	29.372
370.67	29.367
371.03	29.501
371.39	28.274
371.75	28.955
372.11	29.607
372.47	29.926
372.83	28.927
373.19	28.486
373.55	28.794
373.91	29.721
374.27	28.525
374.63	28.958
374.99	28.647
375.35	29.935
375.71	29.290
376.07	28.147
376.42	29.471
376.78	29.584
377.14	29.070
377.50	28.716
377.86	29.126
378.22	29.401
378.58	28.478
378.94	28.580
379.30	28.998
379.66	28.630
380.02	27.813
380.38	29.608
380.74	28.958
381.09	28.978
381.45	28.580
381.81	29.625
382.17	28.088
382.53	27.778
382.89	28.555
383.25	28.429
383.61	28.241
383.97	28.210
384.32	29.306
384.68	28.712
385.04	29.902
385.40	28.757
385.76	28.957
386.12	28.486
386.48	28.529
386.83	29.261
387.19	27.926
387.55	28.169
387.91	27.683
388.27	28.753
388.62	27.835
388.98	27.750
389.34	28.874
389.70	28.239
390.06	28.774
390.42	28.675
390.77	29.561
391.13	27.641
391.49	29.046
391.85	29.455
392.20	29.004
392.56	28.706
392.92	28.026
393.28	27.861
393.64	27.765
393.99	28.646
394.35	28.037
394.71	28.443
395.07	28.024
395.42	28.270
395.78	28.702
396.14	28.639
396.50	28.444
396.85	28.324
397.21	28.047
397.57	28.269
397.92	27.835
398.28	28.137
398.64	28.146
399.00	27.801
399.35	27.592
399.71	27.989
400.07	28.748
400.42	28.056
400.78	28.704
401.14	27.775
401.49	28.141
401.85	28.372
402.21	28.216
402.57	28.580
402.92	27.778
403.28	26.932
403.63	27.387
403.99	26.960
404.35	27.175
404.70	28.045
405.06	27.880
405.42	28.220
405.77	28.735
406.13	28.309
406.49	27.646
406.84	27.590
407.20	26.942
407.55	27.135
407.91	27.656
408.27	27.267
408.62	27.691
408.98	27.510
409.34	26.569
409.69	27.565
410.05	27.726
410.40	27.030
410.76	27.370
411.11	27.528
411.47	27.641
411.83	27.513
412.18	27.470
412.54	26.675
412.89	27.998
413.25	27.088
413.60	27.858
413.96	27.331
414.31	26.912
414.67	27.728
415.03	26.892
415.38	27.869
415.74	26.756
416.09	28.192
416.45	26.675
416.80	26.928
417.16	28.289
417.51	27.646
417.87	27.652
418.22	27.904
418.58	26.890
418.93	27.765
419.29	26.880
419.64	26.771
420.00	26.884
420.35	27.400
420.71	27.455
421.06	27.717
421.42	26.835
421.77	26.387
422.12	26.110
422.48	26.984
422.83	27.930
423.19	27.109
423.54	27.600
423.90	27.278
424.25	26.773
424.61	26.521
424.96	26.798
425.31	27.335
425.67	26.463
426.02	28.113
426.38	26.464
426.73	27.065
427.09	28.258
427.44	25.833
427.79	26.866
428.15	26.712
428.50	27.640
428.85	26.636
429.21	26.755
429.56	27.147
429.92	26.437
430.27	26.410
430.62	27.064
430.98	26.562
431.33	27.077
431.68	25.814
432.04	26.917
432.39	26.192
432.74	25.685
433.10	28.015
433.45	26.477
433.80	26.878
434.16	26.705
434.51	26.927
434.86	26.710
435.22	26.886
435.57	27.476
435.92	25.821
436.28	27.019
436.63	27.307
436.98	26.355
437.34	26.945
437.69	25.977
438.04	26.071
438.39	26.479
438.75	26.121
439.10	27.537
439.45	26.998
439.81	26.328
440.16	26.810
440.51	26.644
440.86	26.515
441.22	26.259
441.57	27.149
441.92	26.140
442.27	26.919
442.63	26.279
442.98	27.588
443.33	27.091
443.68	26.957
444.03	26.717
444.39	27.092
444.74	26.187
445.09	26.508
445.44	27.239
445.79	27.538
446.15	26.105
446.50	26.770
446.85	26.556
447.20	26.886
447.55	26.569
447.91	25.969
448.26	26.268
448.61	26.621
448.96	27.146
449.31	26.617
449.66	25.109
450.02	26.160
450.37	26.905
450.72	26.857
451.07	27.050
451.42	25.708
451.77	26.515
452.12	26.919
452.47	27.094
452.83	26.802
453.18	26.386
453.53	24.871
453.88	26.449
454.23	26.045
454.58	26.465
454.93	26.092
455.28	26.851
455.63	25.981
455.98	26.872
456.34	26.266
456.69	25.808
457.04	26.182
457.39	25.721
457.74	27.013
458.09	25.975
458.44	26.401
458.79	25.890
459.14	26.114
459.49	26.599
459.84	26.653
460.19	25.486
460.54	26.803
460.89	25.887
461.24	25.402
461.59	25.899
461.94	24.872
462.29	26.428
462.64	25.830
462.99	26.428
463.34	26.347
463.69	25.909
464.04	26.126
464.39	25.392
464.74	25.884
465.09	25.490
465.44	26.878
465.79	25.806
466.14	25.951
466.49	26.368
466.84	25.344
467.19	25.723
467.54	25.852
467.89	25.747
468.24	25.873
468.59	25.478
468.94	25.291
469.29	24.715
469.64	25.874
469.99	24.984
470.34	25.928
470.68	26.384
471.03	26.195
471.38	26.292
471.73	25.423
472.08	26.586
472.43	25.828
472.78	26.196
473.13	25.221
473.48	26.103
473.83	26.524
474.17	25.205
474.52	25.797
474.87	25.526
475.22	25.803
475.57	25.078
475.92	25.784
476.27	25.825
476.61	25.493
476.96	25.078
477.31	26.040
477.66	26.390
478.01	26.029
478.36	25.474
478.70	25.567
479.05	25.920
479.40	25.814
479.75	25.552
480.10	25.533
480.45	26.208
480.79	25.714
481.14	25.551
481.49	25.443
481.84	25.457
482.19	25.376
482.53	25.098
482.88	25.521
483.23	25.834
483.58	25.764
483.92	24.158
484.27	25.360
484.62	25.000
484.97	25.894
485.31	25.308
485.66	24.899
486.01	24.524
486.36	24.889
486.70	25.128
487.05	25.515
487.40	25.981
487.75	26.081
488.09	25.810
488.44	25.154
488.79	26.442
489.13	25.851
489.48	25.243
489.83	25.070
490.17	24.706
490.52	24.836
490.87	25.042
491.22	24.480
491.56	25.299
491.91	25.164
492.26	24.794
492.60	24.486
492.95	24.967
493.30	25.594
493.64	25.099
493.99	24.386
494.34	24.477
494.68	25.096
495.03	25.639
495.37	25.522
495.72	25.397
496.07	25.372
496.41	25.139
496.76	25.229
497.11	24.671
497.45	24.471
497.80	24.922
498.14	24.580
498.49	24.494
498.84	24.817
499.18	24.561
499.53	24.753
499.87	25.099
500.22	24.087
500.56	25.056
500.91	24.577
501.26	24.818
501.60	24.967
501.95	25.185
502.29	24.792
502.64	25.448
502.98	24.590
503.33	25.054
503.67	24.815
504.02	24.781
504.36	24.710
504.71	24.943
505.06	25.466
505.40	24.452
505.75	24.545
506.09	25.184
506.44	24.420
506.78	25.183
507.13	24.574
507.47	24.870
507.82	24.527
508.16	24.140
508.51	24.238
508.85	24.894
509.19	25.012
509.54	24.880
509.88	24.818
510.23	24.915
510.57	24.746
510.92	25.641
511.26	24.579
511.61	24.336
511.95	24.158
512.30	24.717
512.64	23.488
512.98	24.662
513.33	24.345
513.67	24.681
514.02	24.630
514.36	24.859
514.70	25.104
515.05	24.870
515.39	25.092
515.74	25.398
516.08	24.723
516.42	24.123
516.77	24.553
517.11	24.188
517.46	25.027
517.80	24.800
518.14	25.082
518.49	24.783
518.83	23.896
519.17	23.856
519.52	24.476
519.86	24.129
520.20	24.175
520.55	24.096
520.89	24.268
521.23	24.288
521.58	25.085
521.92	24.023
522.26	24.112
522.61	24.537
522.95	25.087
523.29	23.966
523.64	23.935
523.98	24.016
524.32	25.444
524.66	24.986
525.01	24.858
525.35	24.067
525.69	24.420
526.04	24.225
526.38	24.023
526.72	24.394
527.06	24.340
527.41	24.315
527.75	25.594
528.09	24.498
528.43	23.623
528.78	23.988
529.12	23.853
529.46	24.002
529.80	23.913
530.15	24.638
530.49	24.199
530.83	24.321
531.17	24.612
531.51	24.970
531.86	23.678
532.20	24.695
532.54	24.057
532.88	24.424
533.22	24.455
533.57	24.870
533.91	24.579
534.25	24.364
534.59	24.713
534.93	24.618
535.27	24.113
535.62	24.332
535.96	24.811
536.30	24.266
536.64	24.985
536.98	24.723
537.32	24.568
537.66	25.078
538.01	23.323
538.35	23.934
538.69	24.038
539.03	25.383
539.37	24.499
539.71	25.045
540.05	24.640
540.39	24.572
540.73	23.740
541.07	23.728
541.42	24.395
541.76	23.665
542.10	24.005
542.44	24.117
542.78	25.182
543.12	24.672
543.46	23.138
543.80	24.101
544.14	23.818
544.48	24.586
544.82	24.297
545.16	24.031
545.50	24.146
545.84	24.005
546.18	24.815
546.52	24.522
546.86	24.214
547.20	25.127
547.54	24.594
547.88	24.653
548.22	25.205
548.56	24.225
548.90	23.164
549.24	24.742
549.58	24.227
549.92	24.745
550.26	24.595
550.60	24.633
550.94	24.903
551.28	25.215
551.62	24.730
551.96	24.401
552.30	24.793
552.64	24.518
552.98	24.392
553.32	24.823
553.66	23.730
554.00	25.158
554.34	25.225
554.68	23.951
555.02	24.310
555.36	25.049
555.69	23.831
556.03	24.338
556.37	24.406
556.71	24.984
557.05	24.665
557.39	23.889
557.73	23.976
558.07	25.033
558.41	24.385
558.75	23.597
559.08	25.261
559.42	24.074
559.76	24.898
560.10	24.246
560.44	24.736
560.78	24.750
561.12	24.631
561.45	25.608
561.79	25.092
562.13	25.015
562.47	23.859
562.81	24.620
563.15	24.684
563.48	24.674
563.82	25.272
564.16	24.652
564.50	24.434
564.84	24.484
565.17	23.882
565.51	24.396
565.85	23.872
566.19	23.502
566.52	24.693
566.86	24.844
567.20	23.926
567.54	25.173
567.88	24.363
568.21	24.951
568.55	24.892
568.89	24.875
569.23	25.264
569.56	24.853
569.90	25.160
570.24	25.396
570.57	24.631
570.91	25.015
571.25	24.299
571.59	25.299
571.92	24.813
572.26	24.510
572.60	25.061
572.93	25.355
573.27	25.148
573.61	25.040
573.95	25.079
574.28	24.854
574.62	25.011
574.96	24.768
575.29	24.653
575.63	25.341
575.97	25.246
576.30	24.994
576.64	25.221
576.98	25.148
577.31	24.880
577.65	25.444
577.98	25.282
578.32	24.729
578.66	24.727
578.99	25.169
579.33	25.367
579.67	25.295
580.00	25.264
580.34	25.502
580.67	25.419
581.01	25.076
581.35	24.898
581.68	24.720
582.02	25.000
582.35	25.419
582.69	25.197
583.02	25.341
583.36	25.467
583.70	25.540
584.03	26.014
584.37	25.994
584.70	25.281
585.04	25.320
585.37	25.144
585.71	25.156
586.04	24.967
586.38	25.000
586.72	24.693
587.05	25.454
587.39	25.729
587.72	25.407
588.06	25.363
588.39	24.820
588.73	25.450
589.06	25.508
589.40	25.784
589.73	26.125
590.07	25.398
590.40	25.896
590.73	25.557
591.07	25.093
591.40	25.428
591.74	25.358
592.07	24.767
592.41	24.921
592.74	24.459
593.08	25.159
593.41	24.468
593.75	24.971
594.08	25.174
594.41	24.744
594.75	24.643
595.08	24.697
595.42	25.325
595.75	24.960
596.09	25.754
596.42	25.511
596.75	25.280
597.09	25.535
597.42	25.507
597.75	25.323
598.09	25.278
598.42	24.769
598.76	24.570
599.09	24.884
599.42	24.707
599.76	24.067
600.09	24.424
600.42	24.491
600.76	24.802
601.09	24.029
601.42	24.785
601.76	24.931
602.09	24.911
602.42	24.609
602.76	25.055
603.09	25.037
603.42	24.819
603.76	25.546
604.09	25.195
604.42	24.807
604.76	24.353
605.09	25.050
605.42	24.721
605.75	25.423
606.09	24.972
606.42	24.188
606.75	24.550
607.09	23.963
607.42	24.393
607.75	24.893
608.08	24.704
608.42	24.103
608.75	24.959
609.08	24.278
609.41	23.908
609.75	24.286
610.08	24.714
610.41	24.214
610.74	24.538
611.07	24.556
611.41	24.484
611.74	25.173
612.07	25.526
612.40	24.430
612.73	25.477
613.07	23.619
613.40	24.447
613.73	24.121
614.06	24.485
614.39	23.858
614.72	24.745
615.06	23.917
615.39	24.553
615.72	25.166
616.05	24.769
616.38	24.268
616.71	24.660
617.05	24.760
617.38	24.345
617.71	24.136
618.04	24.123
618.37	25.301
618.70	24.661
619.03	24.194
619.36	24.723
619.69	24.343
620.03	24.733
620.36	24.049
620.69	23.504
621.02	25.131
621.35	24.746
621.68	25.163
622.01	23.843
622.34	24.407
622.67	24.399
623.00	23.482
623.33	24.486
623.66	23.930
623.99	23.831
624.32	25.406
624.65	23.810
624.99	24.057
625.32	24.755
625.65	23.803
625.98	23.593
626.31	24.167
626.64	24.103
626.97	24.456
627.30	22.931
627.63	23.931
627.96	24.399
628.29	22.879
628.62	23.594
628.95	24.540
629.28	23.619
629.61	24.747
629.94	22.343
630.26	22.542
630.59	23.230
630.92	22.684
631.25	24.240
631.58	24.670
631.91	22.774
632.24	24.976
632.57	23.150
632.90	24.072
