SpectraSuite Data File
++++++++++++++++++++++++++++++++++++
Date: Thu May 14 15:05:19 PDT 2015
User: schluterlab
Dark Spectrum Present: Yes
Reference Spectrum Present: Yes
Number of Sampled Component Spectra: 1
Spectrometers: USB2E3373
Integration Time (usec): 3000 (USB2E3373)
Spectra Averaged: 3 (USB2E3373)
Boxcar Smoothing: 0 (USB2E3373)
Correct for Electrical Dark: No (USB2E3373)
Strobe/Lamp Enabled: No (USB2E3373)
Correct for Detector Non-linearity: No (USB2E3373)
Correct for Stray Light: No (USB2E3373)
Number of Pixels in Processed Spectrum: 2048
>>>>>Begin Processed Spectral Data<<<<<
178.53	0.000
178.91	414.286
179.29	-3400.000
179.67	-2500.000
180.04	314.286
180.42	270.000
180.80	600.000
181.18	-2800.000
181.56	-2200.000
181.94	725.000
182.31	-650.000
182.69	1066.667
183.07	-1250.000
183.45	600.000
183.83	-433.333
184.20	-466.667
184.58	2200.000
184.96	-675.000
185.34	-344.444
185.72	-380.000
186.09	366.667
186.47	1700.000
186.85	640.000
187.23	-355.556
187.61	-3100.000
187.98	620.000
188.36	850.000
188.74	-650.000
189.12	-466.667
189.49	-118.750
189.87	-387.500
190.25	-333.333
190.63	-420.000
191.00	-233.333
191.38	0.000
191.76	-600.000
192.14	-416.667
192.51	900.000
192.89	-283.333
193.27	0.000
193.65	-285.714
194.02	-2300.000
194.40	-314.286
194.78	471.429
195.15	0.000
195.53	-218.182
195.91	0.000
196.29	-425.000
196.66	-200.000
197.04	-2900.000
197.42	-414.286
197.79	-1600.000
198.17	-262.500
198.55	-428.571
198.92	-144.444
199.30	-375.000
199.68	-190.909
200.05	-171.429
200.43	-1600.000
200.81	471.429
201.18	0.000
201.56	477.778
201.94	0.000
202.31	966.667
202.69	-355.556
203.07	2300.000
203.44	-277.778
203.82	-725.000
204.19	-200.000
204.57	-400.000
204.95	-362.500
205.32	-2200.000
205.70	875.000
206.08	-583.333
206.45	-350.000
206.83	760.000
207.20	-466.667
207.58	-600.000
207.96	-533.333
208.33	-383.333
208.71	291.667
209.08	-333.333
209.46	0.000
209.84	550.000
210.21	1600.000
210.59	1350.000
210.96	900.000
211.34	-225.000
211.71	-250.000
212.09	-2600.000
212.46	0.000
212.84	1500.000
213.22	-620.000
213.59	-750.000
213.97	-160.000
214.34	-900.000
214.72	416.667
215.09	-625.000
215.47	0.000
215.84	257.143
216.22	1450.000
216.59	-500.000
216.97	-620.000
217.34	-750.000
217.72	-350.000
218.09	-850.000
218.47	-775.000
218.84	0.000
219.22	640.000
219.59	-141.176
219.97	-100.000
220.34	1450.000
220.72	-355.556
221.09	-184.615
221.47	-1033.333
221.84	-230.000
222.22	-428.571
222.59	0.000
222.97	-312.500
223.34	-640.000
223.72	-2900.000
224.09	-650.000
224.46	-600.000
224.84	-360.000
225.21	-342.857
225.59	-775.000
225.96	-775.000
226.34	-76.923
226.71	566.667
227.08	-1350.000
227.46	-153.333
227.83	-625.000
228.21	-131.579
228.58	400.000
228.95	1550.000
229.33	-166.667
229.70	-280.000
230.08	-36.842
230.45	350.000
230.82	-566.667
231.20	-221.429
231.57	-150.000
231.95	-272.727
232.32	-281.818
232.69	-80.000
233.07	-575.000
233.44	-129.412
233.81	-190.000
234.19	-77.778
234.56	-77.273
234.93	-65.517
235.31	-126.316
235.68	-155.556
236.05	-145.000
236.43	-57.692
236.80	-60.000
237.17	-96.296
237.55	-36.364
237.92	-280.000
238.29	-93.548
238.67	-54.545
239.04	-61.111
239.41	-69.048
239.79	-52.174
240.16	-31.481
240.53	-56.522
240.91	-49.020
241.28	-45.902
241.65	-25.373
242.02	-24.324
242.40	-50.769
242.77	-34.667
243.14	-28.049
243.51	-52.632
243.89	-48.718
244.26	-11.881
244.63	-18.627
245.00	-21.495
245.38	-20.175
245.75	-24.779
246.12	-13.492
246.49	-17.054
246.87	-3.571
247.24	-9.934
247.61	-8.553
247.98	-14.094
248.36	-20.988
248.73	-10.429
249.10	-13.661
249.47	-7.463
249.84	-8.377
250.22	-13.472
250.59	-10.000
250.96	-4.545
251.33	-10.714
251.70	-7.265
252.08	-3.750
252.45	-3.689
252.82	-9.917
253.19	-8.203
253.56	-3.422
253.94	-6.538
254.31	-5.682
254.68	-4.196
255.05	-2.932
255.42	-4.082
255.79	-5.825
256.16	-5.298
256.54	-7.947
256.91	-1.639
257.28	-5.246
257.65	-6.688
258.02	-5.900
258.39	-5.698
258.76	-1.529
259.14	-2.874
259.51	-4.899
259.88	-4.816
260.25	-3.056
260.62	-2.740
260.99	-4.098
261.36	0.536
261.73	-5.040
262.10	-3.297
262.47	-2.413
262.85	0.505
263.22	-5.714
263.59	-7.632
263.96	-2.046
264.33	-4.859
264.70	-3.704
265.07	0.000
265.44	0.227
265.81	-1.157
266.18	-1.587
266.55	-0.893
266.92	-4.784
267.29	-1.751
267.66	-2.439
268.03	0.218
268.40	-0.209
268.77	-6.606
269.14	-4.405
269.51	-1.974
269.88	0.410
270.25	-0.402
270.62	-0.211
270.99	2.222
271.36	0.594
271.73	0.589
272.10	0.802
272.47	-2.806
272.84	-2.209
273.21	-0.401
273.58	-2.621
273.95	-0.769
274.32	-1.711
274.69	-1.547
275.06	-0.183
275.43	-1.848
275.80	1.587
276.17	0.000
276.54	-2.799
276.91	-1.610
277.28	-1.447
277.65	-0.718
278.02	-1.654
278.39	-2.355
278.76	-1.230
279.13	-0.355
279.50	1.203
279.87	-1.073
280.23	-0.880
280.60	0.000
280.97	-0.164
281.34	-2.037
281.71	1.861
282.08	-1.329
282.45	-0.655
282.82	0.785
283.19	-3.231
283.56	-0.328
283.92	0.000
284.29	1.264
284.66	-0.164
285.03	-2.244
285.40	0.155
285.77	-0.464
286.14	1.679
286.51	-1.522
286.87	-2.370
287.24	0.151
287.61	0.149
287.98	-1.057
288.35	-1.183
288.72	0.296
289.08	0.878
289.45	-0.740
289.82	-0.452
290.19	-0.718
290.56	-0.423
290.93	-0.999
291.29	0.000
291.66	-0.138
292.03	-0.407
292.40	0.544
292.77	-1.887
293.13	0.947
293.50	-0.263
293.87	-0.268
294.24	0.267
294.60	0.885
294.97	-2.416
295.34	1.152
295.71	0.757
296.08	-0.388
296.44	0.613
296.81	0.974
297.18	-0.623
297.55	-0.825
297.91	0.119
298.28	-1.066
298.65	-0.357
299.02	-0.236
299.38	-0.114
299.75	0.818
300.12	-0.116
300.48	0.115
300.85	0.000
301.22	1.902
301.59	-0.913
301.95	-0.226
302.32	1.333
302.69	0.110
303.05	1.197
303.42	0.000
303.79	0.417
304.15	0.736
304.52	0.529
304.89	0.524
305.25	0.621
305.62	0.313
305.99	1.134
306.35	0.101
306.72	0.310
307.09	0.102
307.45	0.518
307.82	0.807
308.19	-0.202
308.55	1.157
308.92	0.389
309.29	1.341
309.65	-0.097
310.02	0.792
310.38	0.689
310.75	0.291
311.12	1.630
311.48	0.978
311.85	1.330
312.22	1.044
312.58	0.469
312.95	-0.574
313.31	1.084
313.68	0.824
314.05	2.529
314.41	1.184
314.78	0.182
315.14	1.452
315.51	1.754
315.87	1.620
316.24	1.826
316.61	1.865
316.97	0.543
317.34	0.176
317.70	1.921
318.07	0.882
318.43	2.466
318.80	2.926
319.16	2.232
319.53	1.799
319.89	1.840
320.26	2.046
320.62	1.507
320.99	2.124
321.35	1.479
321.72	2.512
322.08	1.713
322.45	1.265
322.81	1.625
323.18	1.416
323.54	2.500
323.91	2.135
324.27	2.151
324.64	3.946
325.00	2.073
325.37	2.867
325.73	2.149
326.10	2.595
326.46	3.502
326.83	3.763
327.19	2.992
327.56	3.557
327.92	2.439
328.29	2.419
328.65	3.015
329.01	2.623
329.38	2.780
329.74	3.425
330.11	3.682
330.47	3.623
330.84	3.359
331.20	3.833
331.56	2.946
331.93	3.766
332.29	3.305
332.66	3.405
333.02	3.601
333.38	2.433
333.75	3.199
334.11	3.920
334.48	3.713
334.84	4.078
335.20	3.191
335.57	3.963
335.93	3.058
336.29	2.829
336.66	2.187
337.02	3.094
337.38	4.762
337.75	2.810
338.11	4.458
338.47	4.549
338.84	3.046
339.20	2.359
339.56	4.201
339.93	4.187
340.29	4.106
340.65	3.731
341.02	4.070
341.38	4.527
341.74	3.874
342.11	3.298
342.47	3.574
342.83	4.670
343.20	4.007
343.56	4.010
343.92	3.443
344.28	4.375
344.65	4.729
345.01	3.432
345.37	5.210
345.73	2.962
346.10	4.914
346.46	3.956
346.82	5.393
347.19	4.431
347.55	4.476
347.91	4.235
348.27	3.642
348.63	4.494
349.00	4.176
349.36	4.089
349.72	3.943
350.08	5.052
350.45	3.498
350.81	2.941
351.17	4.135
351.53	5.762
351.89	4.556
352.26	3.955
352.62	4.478
352.98	3.969
353.34	3.734
353.70	3.544
354.07	4.247
354.43	3.721
354.79	3.441
355.15	5.151
355.51	5.482
355.87	4.263
356.24	4.106
356.60	3.769
356.96	3.484
357.32	4.238
357.68	3.953
358.04	3.817
358.40	4.104
358.77	4.898
359.13	4.284
359.49	3.717
359.85	4.786
360.21	4.232
360.57	5.169
360.93	3.808
361.29	3.930
361.66	4.272
362.02	5.915
362.38	4.849
362.74	4.260
363.10	5.089
363.46	4.709
363.82	4.545
364.18	4.715
364.54	5.187
364.90	5.418
365.26	4.966
365.62	5.200
365.98	4.833
366.35	5.570
366.71	5.646
367.07	5.819
367.43	5.647
367.79	5.508
368.15	5.753
368.51	5.751
368.87	5.617
369.23	5.933
369.59	4.986
369.95	5.206
370.31	5.739
370.67	4.952
371.03	5.817
371.39	4.768
371.75	4.539
372.11	6.436
372.47	6.093
372.83	5.563
373.19	6.204
373.55	6.233
373.91	5.249
374.27	6.145
374.63	5.548
374.99	4.907
375.35	6.429
375.71	5.677
376.07	6.327
376.42	6.171
376.78	6.837
377.14	6.550
377.50	5.882
377.86	6.712
378.22	6.886
378.58	7.015
378.94	6.631
379.30	6.385
379.66	6.408
380.02	6.232
380.38	7.488
380.74	7.155
381.09	6.446
381.45	7.045
381.81	7.787
382.17	6.591
382.53	6.842
382.89	7.280
383.25	7.268
383.61	6.713
383.97	7.244
384.32	6.818
384.68	6.497
385.04	8.213
385.40	8.191
385.76	8.324
386.12	7.540
386.48	8.000
386.83	7.807
387.19	7.648
387.55	7.453
387.91	7.477
388.27	7.852
388.62	7.446
388.98	7.783
389.34	7.896
389.70	7.786
390.06	8.052
390.42	8.012
390.77	9.031
391.13	8.744
391.49	8.333
391.85	8.364
392.20	7.948
392.56	8.387
392.92	8.670
393.28	7.850
393.64	8.547
393.99	9.006
394.35	8.528
394.71	8.862
395.07	7.365
395.42	8.567
395.78	9.263
396.14	8.794
396.50	8.967
396.85	8.229
397.21	7.692
397.57	8.775
397.92	9.049
398.28	7.876
398.64	8.581
399.00	7.487
399.35	9.058
399.71	8.587
400.07	8.647
400.42	9.080
400.78	8.391
401.14	8.936
401.49	9.039
401.85	8.430
402.21	8.459
402.57	8.920
402.92	8.274
403.28	7.260
403.63	8.473
403.99	7.898
404.35	8.130
404.70	8.499
405.06	8.207
405.42	8.372
405.77	9.324
406.13	8.482
406.49	8.502
406.84	8.698
407.20	8.385
407.55	7.692
407.91	7.857
408.27	8.422
408.62	8.610
408.98	8.532
409.34	8.035
409.69	8.776
410.05	9.730
410.40	9.281
410.76	8.469
411.11	8.650
411.47	8.661
411.83	8.818
412.18	8.735
412.54	8.477
412.89	8.091
413.25	8.296
413.60	8.558
413.96	8.100
414.31	8.555
414.67	9.064
415.03	8.615
415.38	7.818
415.74	8.735
416.09	8.143
416.45	8.579
416.80	8.507
417.16	8.685
417.51	8.655
417.87	8.032
418.22	8.024
418.58	9.232
418.93	8.964
419.29	9.309
419.64	7.983
420.00	8.012
420.35	8.871
420.71	8.960
421.06	8.223
421.42	9.346
421.77	8.778
422.12	9.302
422.48	8.961
422.83	8.981
423.19	9.178
423.54	8.905
423.90	8.504
424.25	9.493
424.61	8.324
424.96	9.281
425.31	9.979
425.67	8.803
426.02	9.297
426.38	9.127
426.73	8.482
427.09	9.977
427.44	8.356
427.79	8.568
428.15	8.733
428.50	8.483
428.85	8.726
429.21	9.468
429.56	8.934
429.92	9.337
430.27	9.205
430.62	8.891
430.98	9.149
431.33	9.042
431.68	9.100
432.04	9.650
432.39	9.159
432.74	9.646
433.10	9.519
433.45	8.751
433.80	9.388
434.16	9.917
434.51	9.044
434.86	10.478
435.22	9.936
435.57	9.139
435.92	9.738
436.28	9.443
436.63	10.213
436.98	9.769
437.34	9.639
437.69	9.191
438.04	9.730
438.39	9.765
438.75	9.629
439.10	10.148
439.45	9.894
439.81	9.718
440.16	9.759
440.51	10.368
440.86	9.339
441.22	9.593
441.57	10.168
441.92	9.699
442.27	9.848
442.63	10.432
442.98	10.085
443.33	9.416
443.68	10.406
444.03	10.818
444.39	10.680
444.74	9.903
445.09	10.644
445.44	9.852
445.79	9.962
446.15	10.791
446.50	9.612
446.85	9.436
447.20	10.251
447.55	10.303
447.91	9.476
448.26	9.302
448.61	10.096
448.96	10.032
449.31	9.809
449.66	9.804
450.02	10.759
450.37	10.602
450.72	9.580
451.07	10.364
451.42	9.128
451.77	9.950
452.12	9.763
452.47	9.804
452.83	9.910
453.18	9.749
453.53	9.994
453.88	9.663
454.23	10.282
454.58	9.983
454.93	9.284
455.28	10.114
455.63	9.778
455.98	10.112
456.34	10.071
456.69	9.700
457.04	9.161
457.39	9.978
457.74	10.123
458.09	10.159
458.44	10.453
458.79	9.954
459.14	9.649
459.49	9.847
459.84	9.601
460.19	9.994
460.54	9.086
460.89	10.641
461.24	9.425
461.59	11.068
461.94	8.842
462.29	10.358
462.64	9.897
462.99	10.232
463.34	9.604
463.69	9.320
464.04	10.061
464.39	9.697
464.74	10.319
465.09	9.977
465.44	9.657
465.79	10.471
466.14	10.005
466.49	10.684
466.84	9.972
467.19	10.520
467.54	9.342
467.89	9.770
468.24	10.582
468.59	9.786
468.94	9.732
469.29	9.238
469.64	10.235
469.99	10.134
470.34	9.468
470.68	10.458
471.03	10.871
471.38	9.810
471.73	10.013
472.08	9.962
472.43	10.476
472.78	10.516
473.13	10.683
473.48	10.695
473.83	9.750
474.17	10.551
474.52	9.982
474.87	10.576
475.22	11.099
475.57	10.488
475.92	11.050
476.27	10.437
476.61	10.592
476.96	9.958
477.31	10.396
477.66	11.280
478.01	10.574
478.36	10.020
478.70	10.099
479.05	10.378
479.40	11.056
479.75	10.711
480.10	10.469
480.45	11.440
480.79	10.658
481.14	10.110
481.49	10.359
481.84	11.271
482.19	10.495
482.53	10.756
482.88	10.722
483.23	10.538
483.58	10.131
483.92	10.594
484.27	10.373
484.62	10.520
484.97	11.081
485.31	10.243
485.66	9.857
486.01	10.009
486.36	10.592
486.70	11.224
487.05	11.351
487.40	11.354
487.75	11.578
488.09	11.045
488.44	11.036
488.79	10.691
489.13	10.427
489.48	9.942
489.83	10.503
490.17	10.207
490.52	10.632
490.87	10.829
491.22	10.745
491.56	10.751
491.91	11.034
492.26	10.688
492.60	10.931
492.95	10.399
493.30	10.668
493.64	11.389
493.99	10.044
494.34	10.453
494.68	10.236
495.03	11.322
495.37	10.564
495.72	10.794
496.07	10.999
496.41	10.553
496.76	10.759
497.11	10.531
497.45	10.358
497.80	10.751
498.14	10.703
498.49	10.892
498.84	11.015
499.18	11.156
499.53	10.987
499.87	11.121
500.22	10.819
500.56	10.526
500.91	11.442
501.26	10.727
501.60	10.871
501.95	11.116
502.29	10.970
502.64	11.806
502.98	11.432
503.33	10.929
503.67	10.641
504.02	10.946
504.36	11.260
504.71	10.795
505.06	11.414
505.40	11.700
505.75	11.157
506.09	11.464
506.44	11.328
506.78	11.606
507.13	11.987
507.47	11.369
507.82	11.837
508.16	10.803
508.51	10.970
508.85	11.573
509.19	12.174
509.54	12.824
509.88	11.170
510.23	11.559
510.57	12.663
510.92	11.756
511.26	11.159
511.61	10.768
511.95	11.762
512.30	12.211
512.64	12.044
512.98	11.606
513.33	11.946
513.67	12.086
514.02	12.161
514.36	12.123
514.70	12.604
515.05	12.513
515.39	12.651
515.74	12.672
516.08	12.573
516.42	13.448
516.77	12.723
517.11	12.790
517.46	13.627
517.80	13.201
518.14	13.439
518.49	13.178
518.83	12.507
519.17	12.978
519.52	12.788
519.86	13.780
520.20	13.845
520.55	13.089
520.89	13.570
521.23	12.284
521.58	13.898
521.92	13.031
522.26	12.371
522.61	12.963
522.95	13.091
523.29	12.874
523.64	13.397
523.98	13.748
524.32	14.499
524.66	13.944
525.01	13.703
525.35	13.268
525.69	13.283
526.04	12.859
526.38	14.310
526.72	14.302
527.06	14.311
527.41	13.761
527.75	14.192
528.09	13.991
528.43	14.032
528.78	13.699
529.12	13.532
529.46	14.221
529.80	13.730
530.15	14.609
530.49	13.998
530.83	14.404
531.17	14.158
531.51	14.380
531.86	14.784
532.20	14.695
532.54	14.243
532.88	14.364
533.22	14.850
533.57	14.080
533.91	14.590
534.25	14.585
534.59	14.713
534.93	13.639
535.27	13.690
535.62	14.213
535.96	14.585
536.30	13.749
536.64	14.595
536.98	15.252
537.32	14.877
537.66	13.600
538.01	13.353
538.35	13.946
538.69	13.882
539.03	14.470
539.37	14.134
539.71	14.595
540.05	15.048
540.39	14.303
540.73	14.147
541.07	14.960
541.42	13.408
541.76	13.345
542.10	14.234
542.44	13.946
542.78	13.625
543.12	14.601
543.46	13.980
543.80	13.669
544.14	14.961
544.48	14.657
544.82	14.722
545.16	14.490
545.50	14.020
545.84	14.513
546.18	14.753
546.52	13.439
546.86	13.522
547.20	13.931
547.54	13.795
547.88	13.864
548.22	14.444
548.56	15.623
548.90	14.030
549.24	14.043
549.58	14.259
549.92	14.349
550.26	14.369
550.60	14.614
550.94	14.618
551.28	14.785
551.62	15.566
551.96	14.563
552.30	14.595
552.64	14.437
552.98	14.972
553.32	15.177
553.66	14.341
554.00	14.061
554.34	14.543
554.68	14.461
555.02	14.915
555.36	14.859
555.69	14.414
556.03	15.006
556.37	14.706
556.71	14.965
557.05	14.633
557.39	14.731
557.73	14.267
558.07	14.305
558.41	15.748
558.75	15.010
559.08	14.823
559.42	14.746
559.76	15.061
560.10	15.003
560.44	13.786
560.78	14.500
561.12	14.101
561.45	14.781
561.79	14.469
562.13	16.513
562.47	13.810
562.81	14.684
563.15	14.520
563.48	14.605
563.82	15.417
564.16	14.416
564.50	14.541
564.84	14.513
565.17	14.235
565.51	13.751
565.85	14.667
566.19	13.767
566.52	14.102
566.86	14.375
567.20	13.431
567.54	14.551
567.88	14.169
568.21	14.822
568.55	14.628
568.89	14.798
569.23	14.364
569.56	14.068
569.90	14.113
570.24	14.132
570.57	13.855
570.91	13.962
571.25	14.348
571.59	14.361
571.92	14.046
572.26	13.790
572.60	14.141
572.93	14.222
573.27	14.049
573.61	13.896
573.95	13.790
574.28	13.829
574.62	14.006
574.96	13.586
575.29	13.902
575.63	14.137
575.97	13.653
576.30	14.039
576.64	13.911
576.98	13.827
577.31	13.622
577.65	14.115
577.98	13.837
578.32	13.716
578.66	14.210
578.99	13.926
579.33	13.895
579.67	13.758
580.00	13.756
580.34	14.267
580.67	13.769
581.01	13.955
581.35	13.891
581.68	13.665
582.02	14.039
582.35	14.387
582.69	14.471
583.02	14.334
583.36	14.377
583.70	14.110
584.03	14.015
584.37	14.071
584.70	13.692
585.04	13.741
585.37	14.030
585.71	13.894
586.04	14.025
586.38	14.044
586.72	13.813
587.05	13.917
587.39	13.662
587.72	14.569
588.06	14.265
588.39	14.737
588.73	13.942
589.06	14.278
589.40	14.628
589.73	14.139
590.07	13.727
590.40	14.875
590.73	14.528
591.07	14.892
591.40	14.114
591.74	13.951
592.07	13.967
592.41	14.038
592.74	14.022
593.08	14.618
593.41	14.407
593.75	14.483
594.08	14.268
594.41	14.391
594.75	14.480
595.08	14.166
595.42	14.188
595.75	14.014
596.09	14.673
596.42	14.690
596.75	14.203
597.09	14.343
597.42	14.303
597.75	13.720
598.09	14.603
598.42	14.757
598.76	14.291
599.09	13.777
599.42	13.711
599.76	14.097
600.09	14.314
600.42	14.648
600.76	14.333
601.09	14.404
601.42	14.006
601.76	14.310
602.09	14.367
602.42	14.722
602.76	14.428
603.09	14.134
603.42	14.342
603.76	14.165
604.09	14.727
604.42	14.862
604.76	14.079
605.09	14.200
605.42	14.354
605.75	13.846
606.09	14.147
606.42	14.155
606.75	13.906
607.09	13.940
607.42	14.258
607.75	14.263
608.08	14.325
608.42	14.470
608.75	14.718
609.08	13.964
609.41	14.689
609.75	14.018
610.08	14.468
610.41	13.976
610.74	14.118
611.07	14.165
611.41	14.709
611.74	15.427
612.07	13.932
612.40	14.163
612.73	14.132
613.07	14.279
613.40	14.966
613.73	13.818
614.06	14.426
614.39	13.800
614.72	14.508
615.06	13.763
615.39	14.161
615.72	14.739
616.05	13.842
616.38	14.834
616.71	14.420
617.05	14.271
617.38	14.553
617.71	14.471
618.04	14.787
618.37	14.208
618.70	14.027
619.03	13.859
619.36	14.612
619.69	15.119
620.03	13.936
620.36	13.558
620.69	14.497
621.02	14.633
621.35	14.659
621.68	15.184
622.01	14.377
622.34	14.086
622.67	14.570
623.00	13.833
623.33	13.802
623.66	15.305
623.99	14.615
624.32	15.919
624.65	13.707
624.99	14.434
625.32	15.349
625.65	14.970
625.98	15.186
626.31	13.749
626.64	14.799
626.97	14.104
627.30	13.819
627.63	14.029
627.96	15.465
628.29	14.864
628.62	14.274
628.95	16.126
629.28	13.679
629.61	15.572
629.94	14.310
630.26	14.407
630.59	13.558
630.92	13.766
631.25	15.206
631.58	14.124
631.91	14.902
632.24	14.121
632.57	14.231
632.90	13.240
633.23	15.204
633.56	14.694
633.89	14.153
634.22	15.593
634.55	14.823
634.88	14.827
635.20	14.962
635.53	14.463
635.86	14.735
636.19	16.861
636.52	14.768
636.85	14.505
637.18	15.385
637.51	14.086
637.83	15.615
638.16	15.323
638.49	14.319
638.82	15.558
639.15	12.715
639.48	16.513
639.81	15.127
640.13	16.019
640.46	12.727
