SpectraSuite Data File
++++++++++++++++++++++++++++++++++++
Date: Thu May 14 14:43:36 PDT 2015
User: schluterlab
Dark Spectrum Present: Yes
Reference Spectrum Present: Yes
Number of Sampled Component Spectra: 1
Spectrometers: USB2E3373
Integration Time (usec): 3000 (USB2E3373)
Spectra Averaged: 3 (USB2E3373)
Boxcar Smoothing: 0 (USB2E3373)
Correct for Electrical Dark: No (USB2E3373)
Strobe/Lamp Enabled: No (USB2E3373)
Correct for Detector Non-linearity: No (USB2E3373)
Correct for Stray Light: No (USB2E3373)
Number of Pixels in Processed Spectrum: 2048
>>>>>Begin Processed Spectral Data<<<<<
178.53	0.000
178.91	-100.000
179.29	-400.000
179.67	0.000
180.04	92.857
180.42	-20.000
180.80	60.000
181.18	-200.000
181.56	500.000
181.94	-100.000
182.31	0.000
182.69	-0.000
183.07	-150.000
183.45	25.000
183.83	133.333
184.20	100.000
184.58	-500.000
184.96	-125.000
185.34	44.444
185.72	40.000
186.09	66.667
186.47	50.000
186.85	-100.000
187.23	11.111
187.61	-700.000
187.98	40.000
188.36	100.000
188.74	25.000
189.12	133.333
189.49	0.000
189.87	75.000
190.25	11.111
190.63	60.000
191.00	-122.222
191.38	0.000
191.76	75.000
192.14	66.667
192.51	-450.000
192.89	100.000
193.27	0.000
193.65	-28.571
194.02	-1700.000
194.40	157.143
194.78	128.571
195.15	0.000
195.53	45.455
195.91	0.000
196.29	25.000
196.66	53.846
197.04	400.000
197.42	-42.857
197.79	-300.000
198.17	50.000
198.55	28.571
198.92	77.778
199.30	37.500
199.68	63.636
200.05	85.714
200.43	-100.000
200.81	128.571
201.18	0.000
201.56	111.111
201.94	0.000
202.31	233.333
202.69	-55.556
203.07	-400.000
203.44	-22.222
203.82	25.000
204.19	41.667
204.57	100.000
204.95	25.000
205.32	0.000
205.70	-25.000
206.08	0.000
206.45	33.333
206.83	280.000
207.20	50.000
207.58	0.000
207.96	-83.333
208.33	133.333
208.71	-16.667
209.08	183.333
209.46	0.000
209.84	33.333
210.21	100.000
210.59	-250.000
210.96	-0.000
211.34	375.000
211.71	125.000
212.09	600.000
212.46	0.000
212.84	800.000
213.22	0.000
213.59	75.000
213.97	100.000
214.34	-100.000
214.72	50.000
215.09	50.000
215.47	0.000
215.84	71.429
216.22	100.000
216.59	120.000
216.97	-80.000
217.34	275.000
217.72	-25.000
218.09	-100.000
218.47	50.000
218.84	0.000
219.22	-100.000
219.59	64.706
219.97	40.000
220.34	-50.000
220.72	88.889
221.09	115.385
221.47	166.667
221.84	50.000
222.22	-85.714
222.59	0.000
222.97	-37.500
223.34	-80.000
223.72	-500.000
224.09	-125.000
224.46	100.000
224.84	140.000
225.21	-42.857
225.59	-25.000
225.96	50.000
226.34	42.308
226.71	33.333
227.08	0.000
227.46	93.333
227.83	200.000
228.21	36.842
228.58	50.000
228.95	-50.000
229.33	125.000
229.70	160.000
230.08	121.053
230.45	-0.000
230.82	66.667
231.20	-14.286
231.57	75.000
231.95	45.455
232.32	54.545
232.69	50.000
233.07	100.000
233.44	29.412
233.81	130.000
234.19	50.000
234.56	54.545
234.93	13.793
235.31	36.842
235.68	100.000
236.05	20.000
236.43	26.923
236.80	68.000
237.17	48.148
237.55	57.576
237.92	70.000
238.29	19.355
238.67	38.636
239.04	47.222
239.41	11.905
239.79	36.957
240.16	18.519
240.53	21.739
240.91	23.529
241.28	18.033
241.65	43.284
242.02	39.189
242.40	16.923
242.77	28.000
243.14	7.317
243.51	21.053
243.89	10.256
244.26	18.812
244.63	12.745
245.00	20.561
245.38	21.053
245.75	8.850
246.12	17.460
246.49	17.829
246.87	18.571
247.24	19.868
247.61	19.079
247.98	24.832
248.36	16.667
248.73	11.043
249.10	14.208
249.47	19.403
249.84	19.372
250.22	18.653
250.59	18.889
250.96	22.727
251.33	18.367
251.70	20.940
252.08	20.000
252.45	19.672
252.82	16.116
253.19	13.672
253.56	13.688
253.94	16.538
254.31	18.939
254.68	20.629
255.05	19.218
255.42	19.048
255.79	14.239
256.16	17.881
256.54	15.232
256.91	19.344
257.28	18.689
257.65	13.694
258.02	16.814
258.39	16.809
258.76	22.630
259.14	18.391
259.51	22.190
259.88	18.414
260.25	16.667
260.62	15.890
260.99	19.672
261.36	15.550
261.73	18.302
262.10	15.110
262.47	17.426
262.85	23.232
263.22	18.961
263.59	16.053
263.96	16.624
264.33	15.090
264.70	18.519
265.07	21.957
265.44	18.367
265.81	17.130
266.18	19.048
266.55	16.295
266.92	17.312
267.29	17.068
267.66	17.960
268.03	17.686
268.40	18.789
268.77	13.440
269.14	14.978
269.51	17.763
269.88	17.418
270.25	16.499
270.62	17.722
270.99	18.788
271.36	18.812
271.73	19.646
272.10	17.836
272.47	17.836
272.84	16.667
273.21	15.631
273.58	19.758
273.95	13.462
274.32	14.829
274.69	17.408
275.06	17.766
275.43	16.266
275.80	17.460
276.17	16.481
276.54	14.366
276.91	16.100
277.28	14.647
277.65	17.774
278.02	15.441
278.39	16.667
278.76	15.466
279.13	17.730
279.50	17.698
279.87	15.742
280.23	14.789
280.60	15.763
280.97	15.296
281.34	16.299
281.71	18.613
282.08	16.113
282.45	14.894
282.82	15.385
283.19	13.893
283.56	14.262
283.92	16.366
284.29	17.694
284.66	15.928
285.03	15.064
285.40	17.465
285.77	15.480
286.14	17.405
286.51	17.504
286.87	14.060
287.24	15.361
287.61	15.546
287.98	15.710
288.35	15.533
288.72	15.533
289.08	16.105
289.45	15.533
289.82	14.157
290.19	15.374
290.56	15.634
290.93	15.121
291.29	14.738
291.66	14.738
292.03	13.569
292.40	15.374
292.77	14.151
293.13	14.479
293.50	14.455
293.87	14.631
294.24	15.600
294.60	15.676
294.97	12.215
295.34	16.005
295.71	13.493
296.08	14.212
296.44	12.868
296.81	13.398
297.18	13.823
297.55	13.443
297.91	14.828
298.28	11.730
298.65	14.269
299.02	13.105
299.38	14.188
299.75	14.019
300.12	11.921
300.48	13.018
300.85	13.273
301.22	14.206
301.59	12.215
301.95	14.011
302.32	12.889
302.69	12.815
303.05	13.493
303.42	13.525
303.79	13.021
304.15	13.144
304.52	12.051
304.89	13.613
305.25	12.733
305.62	13.584
305.99	13.196
306.35	13.508
306.72	14.685
307.09	13.401
307.45	13.147
307.82	14.834
308.19	13.421
308.55	14.851
308.92	13.827
309.29	13.314
309.65	14.327
310.02	13.564
310.38	14.961
310.75	14.272
311.12	15.724
311.48	13.490
311.85	14.815
312.22	15.275
312.58	15.399
312.95	13.576
313.31	15.357
313.68	15.842
314.05	15.808
314.41	16.302
314.78	14.714
315.14	16.878
315.51	17.359
315.87	17.012
316.24	16.804
316.61	18.117
316.97	16.833
317.34	17.196
317.70	18.777
318.07	17.813
318.43	20.153
318.80	19.398
319.16	19.313
319.53	17.566
319.89	18.230
320.26	20.463
320.62	18.262
320.99	20.037
321.35	19.409
321.72	21.209
322.08	19.928
322.45	22.132
322.81	22.653
323.18	20.708
323.54	22.759
323.91	22.331
324.27	22.892
324.64	23.929
325.00	22.471
325.37	23.833
325.73	25.207
326.10	23.844
326.46	24.756
326.83	26.101
327.19	24.961
327.56	25.455
327.92	25.256
328.29	25.161
328.65	25.377
329.01	25.888
329.38	27.043
329.74	28.082
330.11	27.483
330.47	27.380
330.84	28.165
331.20	28.833
331.56	29.376
331.93	28.536
332.29	29.661
332.66	28.987
333.02	28.141
333.38	29.195
333.75	30.303
334.11	29.358
334.48	29.950
334.84	31.436
335.20	29.891
335.57	30.691
335.93	30.248
336.29	30.532
336.66	29.605
337.02	30.686
337.38	31.548
337.75	31.818
338.11	31.876
338.47	30.190
338.84	31.557
339.20	30.497
339.56	29.984
339.93	30.624
340.29	29.791
340.65	30.819
341.02	31.524
341.38	32.175
341.74	31.396
342.11	31.939
342.47	31.136
342.83	32.850
343.20	32.134
343.56	31.917
343.92	32.106
344.28	30.859
344.65	32.326
345.01	31.981
345.37	31.026
345.73	31.878
346.10	32.293
346.46	31.725
346.82	31.760
347.19	32.009
347.55	32.853
347.91	31.872
348.27	31.335
348.63	31.759
349.00	31.693
349.36	32.045
349.72	32.068
350.08	31.575
350.45	31.559
350.81	32.202
351.17	31.805
351.53	32.070
351.89	32.726
352.26	32.537
352.62	32.239
352.98	32.443
353.34	32.114
353.70	33.282
354.07	32.489
354.43	33.789
354.79	32.610
355.15	32.082
355.51	34.722
355.87	32.610
356.24	33.916
356.60	33.481
356.96	33.432
357.32	32.193
357.68	32.870
358.04	32.784
358.40	33.881
358.77	33.626
359.13	33.161
359.49	32.639
359.85	33.720
360.21	33.214
360.57	33.955
360.93	33.780
361.29	34.175
361.66	33.454
362.02	34.795
362.38	34.083
362.74	34.358
363.10	34.113
363.46	34.280
363.82	35.724
364.18	34.342
364.54	34.855
364.90	35.251
365.26	34.069
365.62	36.133
365.98	34.377
366.35	35.638
366.71	37.007
367.07	35.792
367.43	35.653
367.79	36.828
368.15	36.722
368.51	35.589
368.87	35.271
369.23	37.400
369.59	36.270
369.95	37.255
370.31	36.867
370.67	36.451
371.03	37.119
371.39	36.333
371.75	38.171
372.11	37.534
372.47	37.102
372.83	37.238
373.19	37.492
373.55	37.669
373.91	37.900
374.27	39.004
374.63	38.363
374.99	38.263
375.35	39.286
375.71	38.516
376.07	38.606
376.42	38.980
376.78	40.087
377.14	40.175
377.50	39.216
377.86	39.286
378.22	40.180
378.58	39.952
378.94	40.610
379.30	39.777
379.66	41.387
380.02	41.431
380.38	40.956
380.74	40.901
381.09	41.812
381.45	41.534
381.81	41.511
382.17	41.627
382.53	42.807
382.89	41.704
383.25	43.728
383.61	42.419
383.97	42.167
384.32	43.840
384.68	43.271
385.04	44.592
385.40	44.903
385.76	43.787
386.12	44.345
386.48	44.294
386.83	46.067
387.19	45.365
387.55	44.249
387.91	45.662
388.27	45.266
388.62	44.387
388.98	45.121
389.34	46.258
389.70	47.531
390.06	46.832
390.42	46.867
390.77	46.779
391.13	46.655
391.49	46.618
391.85	45.818
392.20	46.738
392.56	47.076
392.92	46.783
393.28	46.877
393.64	46.816
393.99	48.867
394.35	48.481
394.71	48.323
395.07	47.425
395.42	48.372
395.78	49.604
396.14	48.544
396.50	48.812
396.85	49.314
397.21	49.231
397.57	49.352
397.92	49.599
398.28	47.746
398.64	49.027
399.00	47.487
399.35	49.005
399.71	49.348
400.07	49.635
400.42	50.116
400.78	49.826
401.14	49.915
401.49	50.142
401.85	50.581
402.21	50.637
402.57	50.176
402.92	51.064
403.28	50.117
403.63	49.761
403.99	51.010
404.35	50.085
404.70	50.822
405.06	50.217
405.42	50.351
405.77	51.527
406.13	50.567
406.49	51.182
406.84	51.468
407.20	51.928
407.55	51.302
407.91	50.471
408.27	50.707
408.62	51.891
408.98	50.842
409.34	51.554
409.69	51.854
410.05	51.641
410.40	52.842
410.76	51.823
411.11	52.951
411.47	53.378
411.83	54.027
412.18	52.952
412.54	52.460
412.89	52.154
413.25	52.427
413.60	52.499
413.96	53.380
414.31	52.295
414.67	52.832
415.03	52.062
415.38	53.846
415.74	53.329
416.09	54.041
416.45	52.974
416.80	53.672
417.16	54.981
417.51	53.985
417.87	53.587
418.22	54.311
418.58	54.585
418.93	55.413
419.29	54.809
419.64	54.382
420.00	55.015
420.35	54.969
420.71	54.796
421.06	55.434
421.42	55.447
421.77	54.120
422.12	53.700
422.48	54.992
422.83	56.188
423.19	56.605
423.54	56.250
423.90	55.605
424.25	55.840
424.61	56.372
424.96	56.947
425.31	56.635
425.67	55.985
426.02	57.554
426.38	58.094
426.73	56.696
427.09	57.785
427.44	57.783
427.79	57.767
428.15	57.534
428.50	58.427
428.85	57.692
429.21	57.979
429.56	57.009
429.92	57.690
430.27	56.916
430.62	59.013
430.98	57.600
431.33	57.967
431.68	56.609
432.04	58.913
432.39	58.650
432.74	58.904
433.10	59.708
433.45	59.086
433.80	59.388
434.16	58.626
434.51	60.175
434.86	60.478
435.22	60.786
435.57	61.439
435.92	60.156
436.28	61.547
436.63	61.223
436.98	60.548
437.34	60.541
437.69	60.759
438.04	60.286
438.39	61.344
438.75	60.874
439.10	61.575
439.45	61.207
439.81	61.299
440.16	60.751
440.51	62.207
440.86	61.089
441.22	61.736
441.57	63.312
441.92	61.882
442.27	62.879
442.63	61.500
442.98	62.593
443.33	63.493
443.68	63.231
444.03	63.311
444.39	64.078
444.74	63.604
445.09	61.885
445.44	63.488
445.79	64.224
446.15	63.669
446.50	63.514
446.85	63.716
447.20	64.362
447.55	64.487
447.91	62.461
448.26	65.011
448.61	64.772
448.96	65.665
449.31	63.839
449.66	63.889
450.02	65.612
450.37	65.530
450.72	64.747
451.07	65.490
451.42	64.818
451.77	65.481
452.12	65.350
452.47	64.646
452.83	67.061
453.18	66.258
453.53	66.743
453.88	66.538
454.23	66.328
454.58	66.338
454.93	66.990
455.28	66.466
455.63	65.208
455.98	65.419
456.34	67.373
456.69	67.784
457.04	67.730
457.39	66.408
457.74	67.562
458.09	66.447
458.44	67.188
458.79	66.890
459.14	66.492
459.49	66.950
459.84	68.363
460.19	66.963
460.54	67.632
460.89	68.025
461.24	67.816
461.59	67.515
461.94	67.142
462.29	68.477
462.64	66.928
462.99	68.927
463.34	68.981
463.69	67.526
464.04	68.149
464.39	67.265
464.74	67.104
465.09	67.243
465.44	67.918
465.79	66.684
466.14	66.441
466.49	68.421
466.84	68.595
467.19	68.092
467.54	66.745
467.89	67.874
468.24	67.867
468.59	66.821
468.94	67.774
469.29	68.626
469.64	68.722
469.99	68.196
470.34	69.864
470.68	71.292
471.03	70.727
471.38	70.961
471.73	70.091
472.08	70.939
472.43	70.379
472.78	69.836
473.13	71.492
473.48	68.761
473.83	70.459
474.17	69.343
474.52	70.535
474.87	68.715
475.22	68.451
475.57	69.211
475.92	69.886
476.27	69.276
476.61	69.367
476.96	69.656
477.31	69.307
477.66	71.668
478.01	69.802
478.36	68.544
478.70	70.246
479.05	70.859
479.40	70.286
479.75	69.452
480.10	69.730
480.45	69.553
480.79	70.204
481.14	69.393
481.49	70.468
481.84	70.583
482.19	70.022
482.53	71.141
482.88	70.669
483.23	71.009
483.58	69.956
483.92	69.415
484.27	69.644
484.62	69.513
484.97	67.924
485.31	67.265
485.66	63.381
486.01	62.124
486.36	64.013
486.70	66.651
487.05	69.057
487.40	68.911
487.75	69.847
488.09	69.851
488.44	68.342
488.79	69.916
489.13	69.986
489.48	69.515
489.83	68.974
490.17	69.421
490.52	69.007
490.87	70.305
491.22	70.407
491.56	71.032
491.91	70.824
492.26	71.311
492.60	70.923
492.95	70.426
493.30	70.775
493.64	71.266
493.99	69.649
494.34	70.862
494.68	70.364
495.03	70.705
495.37	70.839
495.72	71.519
496.07	70.026
496.41	71.214
496.76	70.642
497.11	72.102
497.45	71.472
497.80	71.168
498.14	70.975
498.49	71.783
498.84	70.612
499.18	71.345
499.53	71.570
499.87	72.220
500.22	70.926
500.56	71.570
500.91	72.128
501.26	71.818
501.60	70.482
501.95	71.385
502.29	71.084
502.64	71.447
502.98	70.664
503.33	69.892
503.67	71.130
504.02	71.016
504.36	72.252
504.71	72.623
505.06	71.942
505.40	72.441
505.75	71.630
506.09	71.869
506.44	72.470
506.78	72.844
507.13	73.260
507.47	73.520
507.82	72.159
508.16	72.323
508.51	71.402
508.85	73.406
509.19	72.999
509.54	73.247
509.88	72.171
510.23	73.045
510.57	71.870
510.92	71.746
511.26	72.342
511.61	71.222
511.95	72.523
512.30	73.067
512.64	70.415
512.98	72.236
513.33	73.992
513.67	72.718
514.02	74.195
514.36	74.783
514.70	74.531
515.05	73.514
515.39	73.333
515.74	74.231
516.08	73.745
516.42	74.254
516.77	74.606
517.11	72.615
517.46	74.337
517.80	75.575
518.14	76.551
518.49	75.000
518.83	73.337
519.17	74.098
519.52	73.795
519.86	73.601
520.20	75.133
520.55	75.027
520.89	74.155
521.23	73.869
521.58	76.554
521.92	75.127
522.26	74.399
522.61	75.752
522.95	74.452
523.29	75.747
523.64	74.776
523.98	76.612
524.32	75.702
524.66	76.096
525.01	74.858
525.35	74.842
525.69	75.058
526.04	73.651
526.38	74.483
526.72	74.913
527.06	76.422
527.41	75.277
527.75	76.841
528.09	75.266
528.43	75.370
528.78	75.607
529.12	74.312
529.46	74.424
529.80	75.057
530.15	74.783
530.49	76.453
530.83	76.092
531.17	75.149
531.51	75.391
531.86	75.240
532.20	76.524
532.54	73.788
532.88	76.000
533.22	73.659
533.57	73.803
533.91	73.345
534.25	74.392
534.59	75.287
534.93	73.628
535.27	73.634
535.62	74.417
535.96	76.060
536.30	74.853
536.64	76.036
536.98	75.523
537.32	74.753
537.66	76.232
538.01	72.387
538.35	74.300
538.69	73.978
539.03	75.843
539.37	73.734
539.71	73.574
540.05	75.180
540.39	75.550
540.73	73.770
541.07	75.414
541.42	72.829
541.76	73.843
542.10	74.367
542.44	74.543
542.78	75.061
543.12	73.600
543.46	74.969
543.80	73.861
544.14	73.788
544.48	73.109
544.82	73.369
545.16	73.882
545.50	73.996
545.84	73.852
546.18	76.296
546.52	74.586
546.86	73.836
547.20	75.064
547.54	72.909
547.88	73.418
548.22	74.152
548.56	73.025
548.90	74.269
549.24	74.347
549.58	74.826
549.92	75.765
550.26	75.534
550.60	72.878
550.94	74.515
551.28	73.135
551.62	77.561
551.96	73.139
552.30	74.697
552.64	74.051
552.98	74.922
553.32	76.334
553.66	74.920
554.00	74.401
554.34	74.196
554.68	74.952
555.02	75.821
555.36	76.331
555.69	73.414
556.03	74.779
556.37	75.344
556.71	73.938
557.05	74.121
557.39	75.050
557.73	75.826
558.07	75.430
558.41	76.346
558.75	76.538
559.08	76.688
559.42	75.857
559.76	74.898
560.10	74.883
560.44	74.934
560.78	74.062
561.12	73.830
561.45	75.243
561.79	74.542
562.13	74.615
562.47	73.428
562.81	74.747
563.15	75.189
563.48	75.264
563.82	74.909
564.16	73.289
564.50	73.182
564.84	73.451
565.17	72.824
565.51	72.555
565.85	74.881
566.19	73.445
566.52	73.552
566.86	72.666
567.20	69.821
567.54	73.022
567.88	72.630
568.21	71.640
568.55	71.127
568.89	70.767
569.23	69.835
569.56	68.386
569.90	67.997
570.24	67.622
570.57	67.896
570.91	66.656
571.25	65.982
571.59	65.962
571.92	65.405
572.26	65.405
572.60	65.984
572.93	66.045
573.27	65.468
573.61	65.776
573.95	64.385
574.28	64.705
574.62	64.688
574.96	63.697
575.29	63.913
575.63	64.149
575.97	64.383
576.30	64.643
576.64	64.639
576.98	64.055
577.31	64.367
577.65	64.754
577.98	62.933
578.32	62.640
578.66	63.362
578.99	64.202
579.33	64.584
579.67	65.186
580.00	64.396
580.34	63.133
580.67	63.989
581.01	63.219
581.35	62.887
581.68	62.857
582.02	62.362
582.35	63.071
582.69	63.462
583.02	64.138
583.36	64.839
583.70	65.508
584.03	65.275
584.37	64.725
584.70	64.670
585.04	63.497
585.37	63.721
585.71	63.279
586.04	63.738
586.38	64.485
586.72	64.051
587.05	64.722
587.39	65.221
587.72	64.402
588.06	65.015
588.39	66.069
588.73	64.339
589.06	65.773
589.40	66.872
589.73	66.742
590.07	66.512
590.40	66.971
590.73	66.879
591.07	66.754
591.40	67.846
591.74	67.727
592.07	68.859
592.41	67.192
592.74	66.028
593.08	66.274
593.41	64.246
593.75	65.460
594.08	65.586
594.41	66.506
594.75	66.323
595.08	67.160
595.42	66.883
595.75	67.162
596.09	66.757
596.42	66.822
596.75	67.773
597.09	67.232
597.42	68.455
597.75	67.346
598.09	67.460
598.42	67.873
598.76	65.571
599.09	65.575
599.42	65.370
599.76	65.038
600.09	66.266
600.42	65.699
600.76	65.456
601.09	65.881
601.42	65.328
601.76	66.138
602.09	65.690
602.42	66.739
602.76	67.491
603.09	66.153
603.42	66.402
603.76	66.138
604.09	66.714
604.42	67.083
604.76	66.629
605.09	67.092
605.42	66.986
605.75	66.538
606.09	66.331
606.42	65.742
606.75	65.967
607.09	65.553
607.42	66.243
607.75	66.940
608.08	66.811
608.42	66.747
608.75	67.786
609.08	67.020
609.41	68.284
609.75	68.125
610.08	68.470
610.41	67.842
610.74	66.933
611.07	68.339
611.41	67.803
611.74	68.314
612.07	69.238
612.40	69.629
612.73	68.851
613.07	68.655
613.40	68.720
613.73	67.886
614.06	68.793
614.39	68.659
614.72	67.540
615.06	67.132
615.39	68.101
615.72	69.336
616.05	68.091
616.38	70.686
616.71	69.122
617.05	68.317
617.38	68.218
617.71	70.626
618.04	71.020
618.37	70.820
618.70	71.041
619.03	70.729
619.36	72.873
619.69	71.813
620.03	71.626
620.36	71.166
620.69	71.006
621.02	74.016
621.35	75.907
621.68	75.054
622.01	74.591
622.34	72.664
622.67	71.821
623.00	70.513
623.33	73.922
623.66	71.595
623.99	72.679
624.32	73.164
624.65	71.236
624.99	73.277
625.32	71.979
625.65	73.365
625.98	72.136
626.31	73.140
626.64	73.553
626.97	73.368
627.30	74.791
627.63	74.044
627.96	75.225
628.29	73.541
628.62	76.994
628.95	77.651
629.28	74.087
629.61	76.431
629.94	74.979
630.26	76.186
630.59	76.425
630.92	76.450
631.25	77.460
631.58	81.544
631.91	79.007
632.24	78.866
632.57	78.368
632.90	79.940
633.23	81.327
633.56	80.000
633.89	77.479
634.22	80.665
634.55	79.854
634.88	81.926
