SpectraSuite Data File
++++++++++++++++++++++++++++++++++++
Date: Thu May 14 14:51:27 PDT 2015
User: schluterlab
Dark Spectrum Present: Yes
Reference Spectrum Present: Yes
Number of Sampled Component Spectra: 1
Spectrometers: USB2E3373
Integration Time (usec): 3000 (USB2E3373)
Spectra Averaged: 3 (USB2E3373)
Boxcar Smoothing: 0 (USB2E3373)
Correct for Electrical Dark: No (USB2E3373)
Strobe/Lamp Enabled: No (USB2E3373)
Correct for Detector Non-linearity: No (USB2E3373)
Correct for Stray Light: No (USB2E3373)
Number of Pixels in Processed Spectrum: 2048
>>>>>Begin Processed Spectral Data<<<<<
178.53	0.000
178.91	114.286
179.29	-1700.000
179.67	-500.000
180.04	128.571
180.42	110.000
180.80	140.000
181.18	-900.000
181.56	-300.000
181.94	475.000
182.31	-175.000
182.69	600.000
183.07	-300.000
183.45	200.000
183.83	-150.000
184.20	-666.667
184.58	1000.000
184.96	-200.000
185.34	44.444
185.72	20.000
186.09	166.667
186.47	500.000
186.85	380.000
187.23	-177.778
187.61	-1200.000
187.98	340.000
188.36	600.000
188.74	-425.000
189.12	-333.333
189.49	-37.500
189.87	-75.000
190.25	-88.889
190.63	-180.000
191.00	-88.889
191.38	0.000
191.76	-125.000
192.14	-83.333
192.51	-150.000
192.89	-100.000
193.27	0.000
193.65	-171.429
194.02	-1400.000
194.40	-114.286
194.78	142.857
195.15	0.000
195.53	-63.636
195.91	0.000
196.29	-400.000
196.66	-146.154
197.04	-1300.000
197.42	28.571
197.79	-750.000
198.17	-75.000
198.55	-57.143
198.92	-33.333
199.30	-162.500
199.68	-27.273
200.05	-35.714
200.43	-700.000
200.81	257.143
201.18	0.000
201.56	188.889
201.94	0.000
202.31	533.333
202.69	-166.667
203.07	1200.000
203.44	-44.444
203.82	-225.000
204.19	-16.667
204.57	-200.000
204.95	-100.000
205.32	-2000.000
205.70	275.000
206.08	-183.333
206.45	100.000
206.83	340.000
207.20	-183.333
207.58	-320.000
207.96	-300.000
208.33	-50.000
208.71	158.333
209.08	0.000
209.46	0.000
209.84	316.667
210.21	100.000
210.59	400.000
210.96	200.000
211.34	-225.000
211.71	-50.000
212.09	-800.000
212.46	0.000
212.84	400.000
213.22	-300.000
213.59	-150.000
213.97	30.000
214.34	100.000
214.72	116.667
215.09	-150.000
215.47	0.000
215.84	100.000
216.22	850.000
216.59	-100.000
216.97	-280.000
217.34	-250.000
217.72	-112.500
218.09	-375.000
218.47	-100.000
218.84	0.000
219.22	80.000
219.59	-41.176
219.97	10.000
220.34	450.000
220.72	-111.111
221.09	-38.462
221.47	-233.333
221.84	-100.000
222.22	-128.571
222.59	0.000
222.97	-50.000
223.34	-200.000
223.72	-1400.000
224.09	-225.000
224.46	-50.000
224.84	80.000
225.21	-185.714
225.59	-550.000
225.96	-125.000
226.34	-65.385
226.71	333.333
227.08	-650.000
227.46	-13.333
227.83	-425.000
228.21	-21.053
228.58	287.500
228.95	550.000
229.33	-25.000
229.70	-30.000
230.08	31.579
230.45	120.000
230.82	-100.000
231.20	-50.000
231.57	33.333
231.95	-27.273
232.32	36.364
232.69	35.000
233.07	-300.000
233.44	-23.529
233.81	-10.000
234.19	11.111
234.56	4.545
234.93	17.241
235.31	21.053
235.68	-5.556
236.05	-15.000
236.43	-3.846
236.80	12.000
237.17	-3.704
237.55	-24.242
237.92	-110.000
238.29	-19.355
238.67	6.818
239.04	-11.111
239.41	-19.048
239.79	4.348
240.16	-12.963
240.53	-8.696
240.91	-5.882
241.28	-19.672
241.65	14.925
242.02	13.514
242.40	1.538
242.77	1.333
243.14	-2.439
243.51	-2.632
243.89	0.000
244.26	16.832
244.63	9.804
245.00	3.738
245.38	2.632
245.75	-8.850
246.12	11.905
246.49	3.876
246.87	5.000
247.24	5.960
247.61	13.158
247.98	6.040
248.36	12.346
248.73	7.362
249.10	7.104
249.47	10.448
249.84	14.136
250.22	8.808
250.59	3.333
250.96	7.273
251.33	2.041
251.70	8.547
252.08	7.917
252.45	10.656
252.82	9.917
253.19	3.906
253.56	9.886
253.94	6.538
254.31	11.364
254.68	14.336
255.05	12.052
255.42	7.143
255.79	5.825
256.16	8.940
256.54	9.272
256.91	11.148
257.28	8.525
257.65	5.414
258.02	9.145
258.39	9.972
258.76	11.621
259.14	11.207
259.51	10.951
259.88	6.799
260.25	6.944
260.62	10.137
260.99	12.022
261.36	9.651
261.73	10.610
262.10	10.440
262.47	8.847
262.85	12.374
263.22	7.532
263.59	6.579
263.96	9.719
264.33	7.928
264.70	7.901
265.07	12.411
265.44	14.966
265.81	8.796
266.18	11.111
266.55	10.045
266.92	10.023
267.29	10.722
267.66	10.865
268.03	9.170
268.40	11.065
268.77	7.517
269.14	7.709
269.51	11.184
269.88	11.885
270.25	9.658
270.62	9.705
270.99	12.121
271.36	14.851
271.73	9.430
272.10	13.026
272.47	10.621
272.84	11.446
273.21	11.022
273.58	10.282
273.95	9.231
274.32	10.646
274.69	7.930
275.06	9.341
275.43	6.839
275.80	12.522
276.17	9.074
276.54	8.582
276.91	10.376
277.28	11.754
277.65	10.413
278.02	9.191
278.39	7.428
278.76	8.612
279.13	10.816
279.50	11.856
279.87	10.376
280.23	8.627
280.60	11.356
280.97	11.184
281.34	8.829
281.71	11.168
282.08	9.136
282.45	9.820
282.82	9.419
283.19	8.401
283.56	8.525
283.92	12.162
284.29	11.216
284.66	10.016
285.03	10.256
285.40	10.355
285.77	8.978
286.14	9.924
286.51	9.589
286.87	9.637
287.24	10.392
287.61	8.969
287.98	8.610
288.35	9.320
288.72	9.024
289.08	10.981
289.45	8.728
289.82	9.187
290.19	9.195
290.56	9.859
290.93	9.415
291.29	8.678
291.66	8.540
292.03	8.005
292.40	11.701
292.77	8.086
293.13	9.066
293.50	7.884
293.87	9.530
294.24	9.200
294.60	9.861
294.97	8.859
295.34	9.347
295.71	6.683
296.08	7.752
296.44	8.456
296.81	8.648
297.18	7.721
297.55	7.783
297.91	8.660
298.28	6.280
298.65	8.205
299.02	7.438
299.38	7.895
299.75	8.879
300.12	7.060
300.48	7.028
300.85	7.537
301.22	8.613
301.59	7.877
301.95	8.475
302.32	9.444
302.69	7.558
303.05	8.596
303.42	7.761
303.79	7.708
304.15	8.202
304.52	7.188
304.89	6.702
305.25	7.557
305.62	7.628
305.99	7.113
306.35	8.468
306.72	8.687
307.09	6.904
307.45	7.764
307.82	6.458
308.19	6.559
308.55	8.004
308.92	7.011
309.29	6.705
309.65	7.212
310.02	5.941
310.38	7.972
310.75	7.670
311.12	7.766
311.48	7.038
311.85	7.028
312.22	7.495
312.58	7.700
312.95	6.310
313.31	6.956
313.68	8.425
314.05	8.040
314.41	7.377
314.78	7.175
315.14	7.532
315.51	6.371
315.87	7.201
316.24	8.858
316.61	8.259
316.97	7.059
317.34	7.760
317.70	7.860
318.07	7.848
318.43	7.823
318.80	8.361
319.16	7.725
319.53	6.941
319.89	6.573
320.26	8.007
320.62	7.358
320.99	6.279
321.35	6.932
321.72	7.907
322.08	7.755
322.45	7.046
322.81	6.859
323.18	6.991
323.54	8.362
323.91	8.541
324.27	9.036
324.64	8.984
325.00	7.629
325.37	7.617
325.73	8.017
326.10	8.273
326.46	7.980
326.83	8.407
327.19	8.346
327.56	8.775
327.92	7.081
328.29	7.419
328.65	6.533
329.01	7.614
329.38	7.666
329.74	8.219
330.11	8.048
330.47	7.245
330.84	8.958
331.20	8.500
331.56	7.626
331.93	8.703
332.29	7.712
332.66	7.558
333.02	8.794
333.38	7.299
333.75	8.418
334.11	8.674
334.48	8.251
334.84	9.091
335.20	7.473
335.57	7.589
335.93	8.182
336.29	7.654
336.66	7.822
337.02	8.361
337.38	9.184
337.75	7.934
338.11	7.569
338.47	8.271
338.84	7.783
339.20	6.655
339.56	8.072
339.93	8.456
340.29	9.581
340.65	7.137
341.02	8.061
341.38	8.327
341.74	7.425
342.11	8.206
342.47	6.990
342.83	8.696
343.20	7.850
343.56	7.458
343.92	8.167
344.28	9.375
344.65	8.450
345.01	8.736
345.37	7.543
345.73	8.262
346.10	8.424
346.46	8.228
346.82	9.139
347.19	8.251
347.55	7.511
347.91	7.429
348.27	6.829
348.63	8.530
349.00	7.159
349.36	8.104
349.72	7.738
350.08	8.172
350.45	7.757
350.81	8.371
351.17	8.571
351.53	8.567
351.89	8.049
352.26	7.836
352.62	7.388
352.98	7.023
353.34	7.916
353.70	7.396
354.07	7.899
354.43	7.137
354.79	7.479
355.15	7.432
355.51	7.529
355.87	7.405
356.24	8.365
356.60	7.539
356.96	7.932
357.32	6.914
357.68	7.833
358.04	7.859
358.40	6.940
358.77	7.675
359.13	7.312
359.49	6.543
359.85	7.469
360.21	6.887
360.57	8.471
360.93	6.770
361.29	8.211
361.66	7.531
362.02	7.864
362.38	7.379
362.74	7.542
363.10	7.084
363.46	7.548
363.82	6.747
364.18	7.037
364.54	7.676
364.90	8.294
365.26	7.517
365.62	8.600
365.98	7.692
366.35	8.054
366.71	8.299
367.07	7.848
367.43	8.601
367.79	7.233
368.15	7.759
368.51	8.728
368.87	7.446
369.23	7.733
369.59	7.992
369.95	8.384
370.31	7.765
370.67	8.047
371.03	7.410
371.39	7.119
371.75	8.116
372.11	7.859
372.47	7.583
372.83	8.246
373.19	7.605
373.55	6.978
373.91	6.885
374.27	7.762
374.63	7.240
374.99	7.228
375.35	7.792
375.71	7.935
376.07	7.360
376.42	7.746
376.78	8.266
377.14	7.424
377.50	6.894
377.86	8.190
378.22	8.144
378.58	7.432
378.94	7.453
379.30	7.147
379.66	7.995
380.02	8.136
380.38	8.525
380.74	7.887
381.09	7.724
381.45	7.841
381.81	8.197
382.17	7.660
382.53	8.187
382.89	8.014
383.25	8.265
383.61	7.812
383.97	7.303
384.32	7.835
384.68	7.077
385.04	8.386
385.40	8.191
385.76	8.324
386.12	7.959
386.48	8.647
386.83	8.462
387.19	7.532
387.55	7.218
387.91	8.105
388.27	8.891
388.62	8.820
388.98	8.122
389.34	8.486
389.70	8.251
390.06	8.230
390.42	8.012
390.77	8.308
391.13	8.157
391.49	8.213
391.85	8.242
392.20	7.948
392.56	9.155
392.92	8.833
393.28	8.679
393.64	8.045
393.99	8.483
394.35	8.528
394.71	8.922
395.07	7.665
395.42	8.053
395.78	9.385
396.14	8.734
396.50	8.551
396.85	8.646
397.21	7.633
397.57	8.304
397.92	8.877
398.28	7.768
398.64	8.238
399.00	8.482
399.35	8.534
399.71	8.478
400.07	8.478
400.42	8.789
400.78	8.970
401.14	8.708
401.49	8.300
401.85	8.547
402.21	8.749
402.57	8.451
402.92	8.747
403.28	8.138
403.63	8.115
403.99	7.126
404.35	9.210
404.70	8.725
405.06	8.696
405.42	9.016
405.77	8.997
406.13	9.022
406.49	8.277
406.84	8.920
407.20	8.385
407.55	7.753
407.91	8.171
408.27	8.245
408.62	8.086
408.98	8.648
409.34	8.035
409.69	8.838
410.05	9.144
410.40	9.513
410.76	8.861
411.11	8.942
411.47	9.398
411.83	8.524
412.18	8.253
412.54	8.773
412.89	9.488
413.25	9.255
413.60	8.558
413.96	8.275
414.31	8.045
414.67	8.825
415.03	8.308
415.38	9.584
415.74	8.247
416.09	8.945
416.45	8.453
416.80	9.302
417.16	8.685
417.51	8.966
417.87	8.461
418.22	9.341
418.58	9.108
418.93	9.953
419.29	8.446
419.64	8.583
420.00	9.080
420.35	9.264
420.71	8.616
421.06	8.568
421.42	9.518
421.77	8.508
422.12	8.879
422.48	9.421
422.83	9.146
423.19	9.178
423.54	9.292
423.90	8.559
424.25	8.960
424.61	8.094
424.96	8.896
425.31	9.130
425.67	8.588
426.02	8.522
426.38	8.783
426.73	8.482
427.09	10.265
427.44	8.848
427.79	9.342
428.15	8.733
428.50	8.876
428.85	8.496
429.21	9.787
429.56	9.082
429.92	8.649
430.27	8.964
430.62	8.696
430.98	8.952
431.33	8.895
431.68	8.764
432.04	9.345
432.39	9.213
432.74	8.790
433.10	8.816
433.45	9.030
433.80	9.442
434.16	9.349
434.51	9.609
434.86	9.121
435.22	9.352
435.57	9.375
435.92	8.514
436.28	9.613
436.63	9.831
436.98	8.481
437.34	8.850
437.69	8.861
438.04	8.884
438.39	8.731
438.75	8.799
439.10	9.408
439.45	8.944
439.81	9.322
440.16	8.525
440.51	8.863
440.86	9.227
441.22	9.539
441.57	9.224
441.92	9.360
442.27	9.545
442.63	9.637
442.98	9.658
443.33	8.785
443.68	10.109
444.03	9.737
444.39	10.448
444.74	10.413
445.09	9.123
445.44	9.220
445.79	10.010
446.15	8.890
446.50	9.251
446.85	9.874
447.20	9.574
447.55	9.937
447.91	9.529
448.26	8.932
448.61	9.299
448.96	10.193
449.31	9.809
449.66	8.878
450.02	10.127
450.37	9.909
450.72	9.150
451.07	9.795
451.42	9.359
451.77	9.505
452.12	9.876
452.47	9.091
452.83	10.135
453.18	8.757
453.53	9.248
453.88	9.277
454.23	10.056
454.58	9.112
454.93	8.738
455.28	9.452
455.63	9.778
455.98	9.218
456.34	9.894
456.69	9.406
457.04	9.161
457.39	9.701
457.74	9.620
458.09	9.445
458.44	9.213
458.79	8.871
459.14	9.544
459.49	8.885
459.84	10.021
460.19	8.606
460.54	9.540
460.89	9.264
461.24	9.195
461.59	10.072
461.94	9.298
462.29	9.742
462.64	8.751
462.99	8.851
463.34	8.436
463.69	9.320
464.04	9.561
464.39	9.025
464.74	9.521
465.09	9.170
465.44	9.335
465.79	10.153
466.14	9.328
466.49	9.579
466.84	9.146
467.19	9.595
467.54	9.224
467.89	8.908
468.24	9.695
468.59	9.149
468.94	9.557
469.29	8.998
469.64	8.837
469.99	8.859
470.34	9.406
470.68	9.774
471.03	9.037
471.38	9.353
471.73	9.493
472.08	9.201
472.43	10.054
472.78	9.635
473.13	8.723
473.48	9.124
473.83	9.750
474.17	9.906
474.52	9.681
474.87	9.745
475.22	10.141
475.57	9.294
475.92	9.607
476.27	8.999
476.61	9.502
476.96	9.281
477.31	9.901
477.66	9.706
478.01	9.558
478.36	9.671
478.70	9.557
479.05	9.714
479.40	9.773
479.75	10.375
480.10	9.427
480.45	9.161
480.79	8.980
481.14	9.007
481.49	9.132
481.84	9.965
482.19	9.204
482.53	9.576
482.88	9.747
483.23	10.049
483.58	9.127
483.92	8.998
484.27	9.653
484.62	9.777
484.97	9.642
485.31	9.398
485.66	8.777
486.01	8.827
486.36	9.368
486.70	9.955
487.05	10.103
487.40	9.961
487.75	9.924
488.09	9.918
488.44	9.279
488.79	10.017
489.13	9.015
489.48	9.126
489.83	9.095
490.17	9.072
490.52	9.072
490.87	9.391
491.22	9.359
491.56	9.471
491.91	9.376
492.26	9.606
492.60	9.401
492.95	9.697
493.30	9.592
493.64	9.987
493.99	10.132
494.34	9.016
494.68	9.251
495.03	9.736
495.37	9.809
495.72	9.388
496.07	9.290
496.41	9.352
496.76	9.508
497.11	9.554
497.45	9.668
497.80	9.374
498.14	9.206
498.49	9.743
498.84	10.101
499.18	9.132
499.53	9.821
499.87	9.934
500.22	9.038
500.56	9.357
500.91	9.840
501.26	10.045
501.60	9.280
501.95	9.640
502.29	9.346
502.64	9.707
502.98	9.534
503.33	9.849
503.67	9.071
504.02	9.282
504.36	9.875
504.71	9.738
505.06	9.186
505.40	9.095
505.75	9.472
506.09	8.932
506.44	9.424
506.78	10.505
507.13	10.235
507.47	9.616
507.82	9.091
508.16	9.943
508.51	9.095
508.85	8.550
509.19	9.474
509.54	9.846
509.88	9.276
510.23	9.859
510.57	10.440
510.92	9.627
511.26	8.514
511.61	9.319
511.95	9.175
512.30	9.897
512.64	9.295
512.98	9.155
513.33	10.030
513.67	9.587
514.02	10.066
514.36	10.384
514.70	9.792
515.05	9.750
515.39	9.501
515.74	10.764
516.08	9.931
516.42	10.361
516.77	9.937
517.11	9.232
517.46	9.862
517.80	10.796
518.14	10.555
518.49	9.924
518.83	9.207
519.17	9.208
519.52	11.111
519.86	9.873
520.20	10.277
520.55	10.131
520.89	9.347
521.23	9.715
521.58	10.452
521.92	10.368
522.26	9.622
522.61	10.012
522.95	10.381
523.29	9.598
523.64	10.034
523.98	10.667
524.32	10.888
524.66	10.586
525.01	10.362
525.35	9.707
525.69	9.339
526.04	9.701
526.38	10.517
526.72	10.150
527.06	10.616
527.41	10.087
527.75	10.451
528.09	9.740
528.43	10.124
528.78	9.306
529.12	10.493
529.46	9.556
529.80	9.153
530.15	9.797
530.49	9.846
530.83	9.976
531.17	9.379
531.51	10.289
531.86	10.998
532.20	11.159
532.54	10.174
532.88	10.182
533.22	10.312
533.57	11.079
533.91	10.269
534.25	10.910
534.59	9.655
534.93	9.847
535.27	10.761
535.62	11.256
535.96	10.866
536.30	10.047
536.64	10.330
536.98	10.947
537.32	10.926
537.66	10.917
538.01	10.634
538.35	10.292
538.69	10.697
539.03	10.423
539.37	10.718
539.71	10.330
540.05	10.432
540.39	9.535
540.73	10.140
541.07	9.687
541.42	9.923
541.76	10.498
542.10	10.314
542.44	9.440
542.78	10.401
543.12	10.429
543.46	10.073
543.80	10.192
544.14	10.772
544.48	10.343
544.82	10.533
545.16	10.376
545.50	11.084
545.84	10.900
546.18	11.173
546.52	9.554
546.86	10.377
547.20	10.305
547.54	9.551
547.88	11.031
548.22	10.058
548.56	10.415
548.90	9.493
549.24	11.489
549.58	10.347
549.92	10.268
550.26	10.939
550.60	10.338
550.94	9.832
551.28	10.957
551.62	10.445
551.96	10.744
552.30	11.026
552.64	10.828
552.98	11.104
553.32	11.254
553.66	10.611
554.00	11.160
554.34	11.068
554.68	10.652
555.02	10.644
555.36	11.045
555.69	11.019
556.03	10.782
556.37	11.327
556.71	11.351
557.05	10.990
557.39	10.617
557.73	10.568
558.07	11.192
558.41	11.296
558.75	10.345
559.08	10.926
559.42	11.317
559.76	11.601
560.10	10.717
560.44	11.346
560.78	11.688
561.12	11.084
561.45	11.010
561.79	10.745
562.13	12.138
562.47	10.789
562.81	11.266
563.15	11.301
563.48	11.746
563.82	11.125
564.16	10.721
564.50	11.144
564.84	11.740
565.17	11.176
565.51	11.335
565.85	11.520
566.19	10.426
566.52	10.650
566.86	11.262
567.20	10.549
567.54	10.834
567.88	10.958
568.21	10.474
568.55	10.935
568.89	11.757
569.23	10.858
569.56	11.020
569.90	11.511
570.24	11.568
570.57	11.097
570.91	10.747
571.25	11.166
571.59	11.244
571.92	11.274
572.26	11.064
572.60	10.947
572.93	11.300
573.27	10.790
573.61	11.064
573.95	11.119
574.28	11.002
574.62	10.596
574.96	10.873
575.29	10.950
575.63	10.903
575.97	11.281
576.30	10.831
576.64	11.119
576.98	11.048
577.31	10.994
577.65	11.556
577.98	11.276
578.32	10.774
578.66	10.988
578.99	10.915
579.33	10.760
579.67	10.653
580.00	11.059
580.34	11.344
580.67	10.635
581.01	10.775
581.35	11.007
581.68	11.091
582.02	11.531
582.35	11.246
582.69	11.392
583.02	11.512
583.36	11.440
583.70	11.111
584.03	10.799
584.37	11.059
584.70	10.807
585.04	10.835
585.37	11.268
585.71	11.068
586.04	11.030
586.38	11.305
586.72	10.830
587.05	10.872
587.39	11.094
587.72	11.148
588.06	11.460
588.39	11.526
588.73	10.820
589.06	11.456
589.40	11.309
589.73	11.118
590.07	11.141
590.40	11.697
590.73	11.311
591.07	11.504
591.40	11.120
591.74	10.731
592.07	11.449
592.41	10.883
592.74	11.608
593.08	11.497
593.41	12.161
593.75	11.293
594.08	11.663
594.41	11.058
594.75	11.159
595.08	10.363
595.42	10.584
595.75	11.108
596.09	11.250
596.42	11.394
596.75	11.772
597.09	11.394
597.42	10.807
597.75	11.603
598.09	11.071
598.42	11.460
598.76	10.470
599.09	11.036
599.42	10.895
599.76	11.489
600.09	11.211
600.42	10.978
600.76	10.964
601.09	11.118
601.42	10.951
601.76	11.517
602.09	11.615
602.42	11.559
602.76	10.590
603.09	11.123
603.42	11.199
603.76	11.064
604.09	11.675
604.42	11.119
604.76	11.568
605.09	11.647
605.42	11.244
605.75	10.885
606.09	10.788
606.42	10.799
606.75	11.244
607.09	10.714
607.42	11.522
607.75	10.707
608.08	10.892
608.42	11.366
608.75	11.484
609.08	10.908
609.41	10.543
609.75	11.250
610.08	11.741
610.41	10.535
610.74	10.798
611.07	10.835
611.41	12.018
611.74	11.363
612.07	11.688
612.40	11.074
612.73	11.100
613.07	11.149
613.40	11.598
613.73	10.929
614.06	11.138
614.39	11.273
614.72	11.014
615.06	10.635
615.39	11.213
615.72	11.280
616.05	10.345
616.38	11.251
616.71	11.599
617.05	10.011
617.38	12.253
617.71	11.825
618.04	11.225
618.37	11.202
618.70	11.199
619.03	10.753
619.36	10.974
619.69	10.762
620.03	9.981
620.36	10.368
620.69	10.857
621.02	11.089
621.35	11.103
621.68	11.858
622.01	11.388
622.34	10.530
622.67	11.065
623.00	9.919
623.33	10.551
623.66	11.025
623.99	10.599
624.32	11.631
624.65	11.261
624.99	10.533
625.32	12.018
625.65	11.463
625.98	10.373
626.31	10.489
626.64	11.722
626.97	9.602
627.30	9.339
627.63	10.278
627.96	11.486
628.29	10.895
628.62	10.327
628.95	10.079
629.28	10.705
629.61	10.943
629.94	9.874
630.26	10.763
630.59	11.140
630.92	9.524
631.25	11.270
631.58	10.829
631.91	10.403
632.24	10.567
632.57	10.626
632.90	11.033
633.23	9.898
633.56	11.429
633.89	9.711
634.22	10.083
634.55	10.438
634.88	9.199
635.20	10.441
635.53	10.734
635.86	10.834
636.19	10.286
636.52	10.865
636.85	9.704
637.18	9.875
637.51	9.677
637.83	11.296
638.16	10.138
638.49	9.272
638.82	8.794
639.15	8.935
639.48	10.855
639.81	10.624
640.13	12.485
640.46	10.182
640.79	9.069
641.12	9.689
641.45	9.536
641.77	11.168
642.10	9.318
642.43	10.638
642.76	10.840
643.09	8.356
643.41	9.384
643.74	8.966
644.07	10.483
644.40	9.901
644.73	10.450
645.05	7.048
645.38	11.511
645.71	9.824
646.04	11.047
646.36	9.781
646.69	10.429
647.02	10.092
647.35	13.282
647.67	8.535
648.00	9.873
648.33	10.360
648.66	10.556
