SpectraSuite Data File
++++++++++++++++++++++++++++++++++++
Date: Thu May 14 14:53:41 PDT 2015
User: schluterlab
Dark Spectrum Present: Yes
Reference Spectrum Present: Yes
Number of Sampled Component Spectra: 1
Spectrometers: USB2E3373
Integration Time (usec): 3000 (USB2E3373)
Spectra Averaged: 3 (USB2E3373)
Boxcar Smoothing: 0 (USB2E3373)
Correct for Electrical Dark: No (USB2E3373)
Strobe/Lamp Enabled: No (USB2E3373)
Correct for Detector Non-linearity: No (USB2E3373)
Correct for Stray Light: No (USB2E3373)
Number of Pixels in Processed Spectrum: 2048
>>>>>Begin Processed Spectral Data<<<<<
178.53	0.000
178.91	242.857
179.29	-2300.000
179.67	-1000.000
180.04	178.571
180.42	140.000
180.80	200.000
181.18	-200.000
181.56	-600.000
181.94	300.000
182.31	-175.000
182.69	266.667
183.07	-750.000
183.45	550.000
183.83	-200.000
184.20	-233.333
184.58	1000.000
184.96	-375.000
185.34	-11.111
185.72	-200.000
186.09	255.556
186.47	950.000
186.85	440.000
187.23	-166.667
187.61	-2400.000
187.98	240.000
188.36	150.000
188.74	-350.000
189.12	-33.333
189.49	-25.000
189.87	-187.500
190.25	55.556
190.63	-200.000
191.00	-122.222
191.38	0.000
191.76	-475.000
192.14	-350.000
192.51	300.000
192.89	-83.333
193.27	0.000
193.65	-42.857
194.02	-1500.000
194.40	-142.857
194.78	271.429
195.15	0.000
195.53	-154.545
195.91	0.000
196.29	-175.000
196.66	-107.692
197.04	-1800.000
197.42	-214.286
197.79	-350.000
198.17	-112.500
198.55	-228.571
198.92	-55.556
199.30	-275.000
199.68	-90.909
200.05	-35.714
200.43	-400.000
200.81	271.429
201.18	0.000
201.56	244.444
201.94	0.000
202.31	566.667
202.69	-255.556
203.07	800.000
203.44	-88.889
203.82	-500.000
204.19	-41.667
204.57	-400.000
204.95	-225.000
205.32	-1300.000
205.70	275.000
206.08	-100.000
206.45	-133.333
206.83	400.000
207.20	-33.333
207.58	-260.000
207.96	-200.000
208.33	-66.667
208.71	133.333
209.08	-183.333
209.46	0.000
209.84	366.667
210.21	700.000
210.59	550.000
210.96	600.000
211.34	100.000
211.71	-162.500
212.09	-800.000
212.46	0.000
212.84	950.000
213.22	-320.000
213.59	-275.000
213.97	-160.000
214.34	-500.000
214.72	333.333
215.09	-175.000
215.47	0.000
215.84	200.000
216.22	1250.000
216.59	-200.000
216.97	-460.000
217.34	-325.000
217.72	-162.500
218.09	-550.000
218.47	-150.000
218.84	0.000
219.22	240.000
219.59	-82.353
219.97	-65.000
220.34	500.000
220.72	-177.778
221.09	-46.154
221.47	-333.333
221.84	-120.000
222.22	-257.143
222.59	0.000
222.97	-50.000
223.34	-140.000
223.72	-1400.000
224.09	-475.000
224.46	-450.000
224.84	60.000
225.21	-228.571
225.59	-375.000
225.96	-200.000
226.34	-11.538
226.71	350.000
227.08	-850.000
227.46	-93.333
227.83	-450.000
228.21	-10.526
228.58	225.000
228.95	450.000
229.33	-33.333
229.70	-110.000
230.08	26.316
230.45	150.000
230.82	-133.333
231.20	-64.286
231.57	16.667
231.95	-90.909
232.32	-127.273
232.69	-25.000
233.07	-400.000
233.44	-82.353
233.81	-80.000
234.19	-16.667
234.56	-18.182
234.93	-10.345
235.31	-68.421
235.68	-111.111
236.05	-75.000
236.43	0.000
236.80	24.000
237.17	-18.519
237.55	-12.121
237.92	-180.000
238.29	-25.806
238.67	-29.545
239.04	-38.889
239.41	-40.476
239.79	-13.043
240.16	-22.222
240.53	-32.609
240.91	-27.451
241.28	-11.475
241.65	8.955
242.02	0.000
242.40	-26.154
242.77	-4.000
243.14	-18.293
243.51	-27.632
243.89	-15.385
244.26	-1.980
244.63	-0.980
245.00	-2.804
245.38	-4.386
245.75	-18.584
246.12	3.175
246.49	-2.326
246.87	3.571
247.24	0.662
247.61	1.316
247.98	0.671
248.36	3.086
248.73	-3.067
249.10	-1.639
249.47	8.458
249.84	7.853
250.22	2.073
250.59	2.222
250.96	6.818
251.33	0.000
251.70	8.974
252.08	3.333
252.45	7.377
252.82	1.240
253.19	0.391
253.56	7.605
253.94	-3.077
254.31	4.167
254.68	7.692
255.05	5.863
255.42	4.422
255.79	2.913
256.16	4.636
256.54	3.642
256.91	7.213
257.28	3.934
257.65	3.185
258.02	4.425
258.39	4.274
258.76	4.893
259.14	8.908
259.51	5.187
259.88	2.550
260.25	6.111
260.62	3.836
260.99	6.284
261.36	6.971
261.73	3.979
262.10	6.319
262.47	7.239
262.85	7.071
263.22	1.039
263.59	1.053
263.96	7.928
264.33	2.558
264.70	8.395
265.07	8.353
265.44	8.617
265.81	6.250
266.18	7.256
266.55	6.696
266.92	3.417
267.29	7.877
267.66	5.543
268.03	4.367
268.40	7.307
268.77	5.923
269.14	5.286
269.51	7.675
269.88	7.172
270.25	6.237
270.62	7.595
270.99	6.667
271.36	7.723
271.73	5.108
272.10	6.012
272.47	4.008
272.84	5.823
273.21	6.814
273.58	5.444
273.95	5.385
274.32	6.274
274.69	5.416
275.06	6.410
275.43	4.991
275.80	7.937
276.17	4.259
276.54	6.716
276.91	5.188
277.28	5.425
277.65	7.720
278.02	5.699
278.39	4.891
278.76	7.206
279.13	6.206
279.50	5.842
279.87	5.009
280.23	4.401
280.60	6.102
280.97	7.895
281.34	4.754
281.71	8.291
282.08	6.478
282.45	6.383
282.82	6.750
283.19	4.847
283.56	4.590
283.92	8.408
284.29	9.005
284.66	7.882
285.03	3.846
285.40	5.719
285.77	7.430
286.14	7.176
286.51	7.002
286.87	6.635
287.24	6.476
287.61	7.175
287.98	5.589
288.35	5.473
288.72	6.213
289.08	6.442
289.45	7.544
289.82	5.120
290.19	5.603
290.56	7.183
290.93	6.847
291.29	6.336
291.66	5.510
292.03	5.970
292.40	8.027
292.77	7.412
293.13	6.089
293.50	5.125
293.87	6.174
294.24	7.200
294.60	5.310
294.97	5.369
295.34	6.402
295.71	7.945
296.08	6.460
296.44	4.779
296.81	6.334
297.18	5.978
297.55	5.425
297.91	5.813
298.28	5.095
298.65	6.064
299.02	6.021
299.38	5.950
299.75	4.907
300.12	4.977
300.48	6.106
300.85	5.624
301.22	5.145
301.59	5.023
301.95	5.311
302.32	6.000
302.69	6.134
303.05	6.964
303.42	5.654
303.79	5.312
304.15	6.309
304.52	5.497
304.89	6.073
305.25	5.797
305.62	6.374
305.99	7.113
306.35	6.250
306.72	6.412
307.09	4.975
307.45	6.729
307.82	4.642
308.19	5.045
308.55	6.557
308.92	4.869
309.29	7.184
309.65	6.530
310.02	7.525
310.38	6.693
310.75	6.990
311.12	7.383
311.48	6.354
311.85	6.458
312.22	5.503
312.58	6.291
312.95	6.119
313.31	8.220
313.68	7.143
314.05	8.130
314.41	8.470
314.78	7.902
315.14	8.984
315.51	9.234
315.87	8.551
316.24	8.676
316.61	8.970
316.97	9.502
317.34	8.818
317.70	9.694
318.07	10.053
318.43	9.524
318.80	11.288
319.16	9.871
319.53	8.483
319.89	8.764
320.26	10.676
320.62	9.131
320.99	10.249
321.35	9.057
321.72	11.721
322.08	10.099
322.45	11.201
322.81	10.560
323.18	10.619
323.54	10.345
323.91	11.388
324.27	11.102
324.64	11.671
325.00	10.945
325.37	11.384
325.73	12.975
326.10	11.841
326.46	12.622
326.83	11.849
327.19	11.654
327.56	12.332
327.92	12.038
328.29	12.500
328.65	12.479
329.01	13.452
329.38	13.564
329.74	13.784
330.11	12.243
330.47	12.721
330.84	12.317
331.20	13.083
331.56	13.432
331.93	14.310
332.29	13.136
332.66	12.957
333.02	13.735
333.38	13.255
333.75	12.710
334.11	13.678
334.48	12.706
334.84	13.849
335.20	12.007
335.57	12.901
335.93	14.380
336.29	12.230
336.66	13.373
337.02	14.465
337.38	13.946
337.75	13.554
338.11	14.130
338.47	13.896
338.84	13.113
339.20	12.468
339.56	13.262
339.93	13.054
340.29	13.768
340.65	13.625
341.02	13.647
341.38	14.228
341.74	12.833
342.11	12.953
342.47	12.232
342.83	13.446
343.20	13.164
343.56	13.472
343.92	13.131
344.28	13.125
344.65	13.721
345.01	13.729
345.37	12.753
345.73	13.640
346.10	13.261
346.46	11.867
346.82	13.933
347.19	13.063
347.55	13.126
347.91	13.373
348.27	13.581
348.63	13.633
349.00	13.199
349.36	12.937
349.72	13.914
350.08	13.893
350.45	12.700
350.81	12.519
351.17	13.008
351.53	13.495
351.89	14.351
352.26	13.209
352.62	13.582
352.98	14.351
353.34	12.248
353.70	13.251
354.07	13.189
354.43	13.136
354.79	13.164
355.15	12.951
355.51	13.450
355.87	14.286
356.24	13.004
356.60	12.934
356.96	13.195
357.32	13.011
357.68	12.445
358.04	13.323
358.40	13.134
358.77	13.304
359.13	13.294
359.49	12.416
359.85	12.763
360.21	13.917
360.57	13.137
360.93	13.329
361.29	13.754
361.66	13.106
362.02	14.405
362.38	13.282
362.74	14.246
363.10	13.618
363.46	13.850
363.82	13.068
364.18	13.019
364.54	12.656
364.90	14.114
365.26	13.241
365.62	14.733
365.98	13.615
366.35	13.557
366.71	13.946
367.07	13.396
367.43	14.380
367.79	13.935
368.15	14.181
368.51	13.938
368.87	14.108
369.23	13.733
369.59	14.003
369.95	14.131
370.31	14.315
370.67	13.411
371.03	13.989
371.39	12.357
371.75	14.512
372.11	13.550
372.47	13.947
372.83	14.660
373.19	14.410
373.55	14.160
373.91	13.770
374.27	14.618
374.63	13.599
374.99	13.926
375.35	14.221
375.71	13.806
376.07	14.784
376.42	14.861
376.78	14.854
377.14	15.221
377.50	14.231
377.86	15.209
378.22	14.910
378.58	15.101
378.94	14.789
379.30	15.173
379.66	15.461
380.02	14.887
380.38	15.150
380.74	15.155
381.09	14.808
381.45	15.398
381.81	15.340
382.17	15.796
382.53	15.146
382.89	16.196
383.25	15.944
383.61	15.683
383.97	14.959
384.32	16.567
384.68	16.241
385.04	15.963
385.40	16.559
385.76	16.823
386.12	15.919
386.48	15.412
386.83	16.508
387.19	15.643
387.55	16.256
387.91	17.123
388.27	16.455
388.62	17.182
388.98	16.751
389.34	17.384
389.70	16.734
390.06	16.755
390.42	16.867
390.77	17.700
391.13	17.488
391.49	17.029
391.85	16.909
392.20	16.963
392.56	17.956
392.92	17.230
393.28	18.463
393.64	17.318
393.99	17.490
394.35	17.932
394.71	17.365
395.07	16.707
395.42	17.247
395.78	18.038
396.14	18.598
396.50	17.874
396.85	18.664
397.21	17.751
397.57	17.491
397.92	18.099
398.28	17.110
398.64	17.506
399.00	17.853
399.35	18.010
399.71	17.500
400.07	17.799
400.42	18.568
400.78	17.998
401.14	17.871
401.49	18.363
401.85	18.547
402.21	18.134
402.57	18.955
402.92	18.440
403.28	17.564
403.63	18.258
403.99	18.112
404.35	18.022
404.70	18.244
405.06	18.207
405.42	18.326
405.77	18.593
406.13	18.909
406.49	18.863
406.84	19.003
407.20	19.564
407.55	17.868
407.91	19.170
408.27	18.610
408.62	19.372
408.98	19.327
409.34	18.299
409.69	18.850
410.05	19.930
410.40	19.432
410.76	18.901
411.11	19.053
411.47	19.042
411.83	18.930
412.18	19.277
412.54	19.621
412.89	19.383
413.25	18.792
413.60	19.012
413.96	19.289
414.31	19.207
414.67	19.439
415.03	19.138
415.38	19.105
415.74	18.998
416.09	19.432
416.45	18.472
416.80	18.727
417.16	19.221
417.51	20.050
417.87	20.049
418.22	19.042
418.58	20.136
418.93	20.256
419.29	19.420
419.64	19.508
420.00	19.288
420.35	19.933
420.71	19.529
421.06	19.666
421.42	19.725
421.77	19.117
422.12	19.292
422.48	19.457
422.83	20.865
423.19	18.939
423.54	19.856
423.90	19.216
424.25	20.107
424.61	19.001
424.96	19.824
425.31	19.904
425.67	19.216
426.02	19.092
426.38	19.747
426.73	19.587
427.09	20.415
427.44	19.716
427.79	19.790
428.15	19.121
428.50	19.438
428.85	20.608
429.21	20.000
429.56	20.138
429.92	20.197
430.27	19.855
430.62	19.883
430.98	20.069
431.33	19.648
431.68	19.301
432.04	20.264
432.39	19.282
432.74	19.863
433.10	20.011
433.45	19.509
433.80	19.742
434.16	20.816
434.51	19.630
434.86	20.413
435.22	20.457
435.57	20.755
435.92	20.200
436.28	20.080
436.63	20.044
436.98	19.914
437.34	20.237
437.69	19.703
438.04	20.201
438.39	19.931
438.75	20.144
439.10	20.930
439.45	20.235
439.81	20.169
440.16	19.946
440.51	21.126
440.86	19.789
441.22	20.204
441.57	20.755
441.92	20.369
442.27	20.758
442.63	20.417
442.98	20.651
443.33	20.200
443.68	21.358
444.03	21.402
444.39	20.620
444.74	21.184
445.09	20.274
445.44	20.759
445.79	20.785
446.15	20.761
446.50	20.568
446.85	20.720
447.20	20.406
447.55	20.502
447.91	20.052
448.26	20.613
448.61	20.298
448.96	21.781
449.31	19.883
449.66	19.717
450.02	21.150
450.37	20.458
450.72	20.560
451.07	20.330
451.42	20.624
451.77	20.345
452.12	20.485
452.47	19.905
452.83	21.171
453.18	20.607
453.53	20.046
453.88	20.817
454.23	20.791
454.58	20.023
454.93	20.692
455.28	20.289
455.63	20.807
455.98	20.223
456.34	20.141
456.69	20.165
457.04	20.626
457.39	20.011
457.74	20.414
458.09	20.319
458.44	20.205
458.79	20.268
459.14	20.556
459.49	20.374
459.84	20.672
460.19	21.155
460.54	21.238
460.89	21.175
461.24	20.230
461.59	21.527
461.94	20.308
462.29	20.437
462.64	20.338
462.99	20.151
463.34	20.182
463.69	20.281
464.04	21.067
464.39	20.516
464.74	20.182
465.09	20.934
465.44	21.030
465.79	21.259
466.14	20.167
466.49	20.263
466.84	21.598
467.19	21.098
467.54	20.329
467.89	20.230
468.24	20.055
468.59	19.629
468.94	19.755
469.29	20.156
469.64	20.280
469.99	21.542
470.34	20.545
470.68	19.959
471.03	21.284
471.38	20.275
471.73	20.156
472.08	21.129
472.43	20.891
472.78	21.159
473.13	20.354
473.48	21.027
473.83	20.720
474.17	20.809
474.52	21.106
474.87	20.875
475.22	20.620
475.57	20.249
475.92	21.304
476.27	20.554
476.61	20.145
476.96	20.594
477.31	20.495
477.66	21.511
478.01	19.980
478.36	20.489
478.70	20.690
479.05	20.654
479.40	21.224
479.75	20.557
480.10	20.654
480.45	20.875
480.79	20.635
481.14	20.772
481.49	20.491
481.84	21.323
482.19	21.032
482.53	21.294
482.88	20.824
483.23	20.631
483.58	21.790
483.92	19.415
484.27	20.322
484.62	20.256
484.97	20.645
485.31	20.697
485.66	19.552
486.01	19.834
486.36	20.741
486.70	21.757
487.05	22.464
487.40	21.105
487.75	21.120
488.09	20.879
488.44	20.684
488.79	20.540
489.13	20.058
489.48	19.107
489.83	20.241
490.17	20.089
490.52	20.567
490.87	20.347
491.22	20.191
491.56	20.350
491.91	20.454
492.26	21.203
492.60	20.813
492.95	20.579
493.30	20.663
493.64	20.324
493.99	20.877
494.34	20.383
494.68	20.171
495.03	20.485
495.37	20.018
495.72	20.000
496.07	19.982
496.41	19.991
496.76	21.059
497.11	20.637
497.45	20.371
497.80	20.791
498.14	20.952
498.49	20.772
498.84	20.750
499.18	19.973
499.53	20.359
499.87	19.648
500.22	20.436
500.56	20.918
500.91	20.046
501.26	20.636
501.60	20.239
501.95	20.365
502.29	21.281
502.64	20.726
502.98	20.621
503.33	20.173
503.67	20.323
504.02	20.184
504.36	21.180
504.71	20.763
505.06	20.100
505.40	20.704
505.75	20.993
506.09	21.087
506.44	21.356
506.78	21.422
507.13	21.070
507.47	21.412
507.82	20.028
508.16	20.698
508.51	20.910
508.85	20.784
509.19	21.459
509.54	21.614
509.88	21.175
510.23	21.272
510.57	21.363
510.92	21.287
511.26	20.635
511.61	20.763
511.95	20.644
512.30	21.812
512.64	20.790
512.98	21.211
513.33	21.976
513.67	21.673
514.02	21.564
514.36	21.074
514.70	21.302
515.05	20.907
515.39	22.100
515.74	22.004
516.08	21.659
516.42	22.344
516.77	21.188
517.11	21.558
517.46	22.110
517.80	22.448
518.14	23.123
518.49	21.692
518.83	21.501
519.17	21.648
519.52	22.222
519.86	21.014
520.20	21.778
520.55	20.811
520.89	22.072
521.23	21.496
521.58	21.638
521.92	21.643
522.26	22.337
522.61	22.801
522.95	22.261
523.29	21.954
523.64	22.309
523.98	23.274
524.32	22.751
524.66	21.514
525.01	22.480
525.35	21.654
525.69	22.216
526.04	21.584
526.38	22.471
526.72	21.684
527.06	22.463
527.41	21.749
527.75	22.565
528.09	22.963
528.43	22.025
528.78	21.965
529.12	21.904
529.46	21.979
529.80	22.654
530.15	22.377
530.49	20.878
530.83	21.606
531.17	21.027
531.51	22.323
531.86	22.776
532.20	22.317
532.54	22.322
532.88	21.939
533.22	21.803
533.57	22.677
533.91	22.278
534.25	22.499
534.59	22.126
534.93	23.090
535.27	21.746
535.62	22.740
535.96	22.777
536.30	22.973
536.64	22.823
536.98	23.247
537.32	22.346
537.66	22.583
538.01	22.417
538.35	22.351
538.69	21.575
539.03	22.931
539.37	22.556
539.71	22.823
540.05	22.422
540.39	21.333
540.73	22.222
541.07	22.379
541.42	21.500
541.76	21.945
542.10	21.954
542.44	21.924
542.78	22.628
543.12	23.004
543.46	21.795
543.80	22.842
544.14	21.963
544.48	22.695
544.82	22.501
545.16	22.361
545.50	22.948
545.84	21.739
546.18	22.469
546.52	21.720
546.86	22.579
547.20	22.455
547.54	22.285
547.88	21.941
548.22	21.871
548.56	21.884
548.90	22.030
549.24	22.188
549.58	22.082
549.92	22.066
550.26	22.395
550.60	21.889
550.94	21.604
551.28	21.914
551.62	22.372
551.96	21.424
552.30	23.327
552.64	22.464
552.98	22.396
553.32	22.315
553.66	22.444
554.00	22.194
554.34	21.750
554.68	21.562
555.02	21.156
555.36	22.617
555.69	21.268
556.03	22.257
556.37	22.215
556.71	21.497
557.05	21.597
557.39	21.699
557.73	21.929
558.07	21.457
558.41	21.927
558.75	21.569
559.08	21.573
559.42	21.262
559.76	22.931
560.10	22.371
560.44	21.306
560.78	22.188
561.12	22.167
561.45	22.567
561.79	22.222
562.13	22.304
562.47	21.825
562.81	22.722
563.15	22.096
563.48	22.001
563.82	22.551
564.16	21.502
564.50	21.931
564.84	21.770
565.17	21.353
565.51	22.555
565.85	20.843
566.19	21.371
566.52	21.475
566.86	22.298
567.20	20.990
567.54	21.986
567.88	22.171
568.21	22.628
568.55	22.158
568.89	22.787
569.23	22.856
569.56	22.118
569.90	22.630
570.24	22.226
570.57	22.162
570.91	22.811
571.25	22.071
571.59	22.238
571.92	22.281
572.26	22.419
572.60	22.195
572.93	22.043
573.27	22.225
573.61	22.340
573.95	22.190
574.28	21.934
574.62	21.987
574.96	21.637
575.29	21.965
575.63	22.292
575.97	22.299
576.30	21.638
576.64	22.000
576.98	22.437
577.31	22.076
577.65	22.390
577.98	21.630
578.32	21.622
578.66	22.201
578.99	21.933
579.33	22.010
579.67	22.008
580.00	21.645
580.34	22.077
580.67	21.006
581.01	21.549
581.35	21.547
581.68	22.059
582.02	22.264
582.35	22.493
582.69	22.562
583.02	22.332
583.36	22.654
583.70	22.040
584.03	21.910
584.37	21.698
584.70	21.516
585.04	21.693
585.37	21.675
585.71	21.769
586.04	21.929
586.38	22.006
586.72	21.559
587.05	22.205
587.39	21.915
587.72	22.105
588.06	21.809
588.39	21.459
588.73	21.481
589.06	21.783
589.40	22.342
589.73	21.819
590.07	21.718
590.40	22.008
590.73	21.739
591.07	22.264
591.40	20.801
591.74	21.304
592.07	21.153
592.41	21.491
592.74	21.015
593.08	22.038
593.41	22.047
593.75	21.667
594.08	22.296
594.41	21.314
594.75	21.488
595.08	21.501
595.42	21.981
595.75	22.215
596.09	22.162
596.42	21.605
596.75	22.076
597.09	21.980
597.42	21.931
597.75	21.599
598.09	21.349
598.42	21.673
598.76	21.131
599.09	21.467
599.42	21.455
599.76	21.789
600.09	22.256
600.42	21.788
600.76	21.136
601.09	21.208
601.42	21.421
601.76	21.621
602.09	21.801
602.42	21.229
602.76	21.255
603.09	21.806
603.42	21.532
603.76	21.776
604.09	21.895
604.42	22.385
604.76	21.309
605.09	21.580
605.42	21.531
605.75	21.923
606.09	20.530
606.42	21.561
606.75	20.465
607.09	21.275
607.42	21.272
607.75	20.985
608.08	21.113
608.42	21.241
608.75	21.434
609.08	21.138
609.41	21.262
609.75	21.875
610.08	21.196
610.41	21.368
610.74	21.176
611.07	21.492
611.41	21.794
611.74	21.663
612.07	21.646
612.40	20.770
612.73	21.711
613.07	21.027
613.40	21.463
613.73	20.703
614.06	21.590
614.39	21.234
614.72	21.446
615.06	21.174
615.39	20.783
615.72	20.664
616.05	21.418
616.38	22.149
616.71	21.369
617.05	20.554
617.38	21.081
617.71	21.652
618.04	21.155
618.37	22.295
618.70	22.002
619.03	20.490
619.36	21.270
619.69	21.845
620.03	20.653
620.36	21.288
620.69	20.605
621.02	20.801
621.35	21.771
621.68	22.198
622.01	20.783
622.34	21.548
622.67	21.512
623.00	20.715
623.33	20.770
623.66	20.947
623.99	21.132
624.32	21.897
624.65	21.107
624.99	22.042
625.32	21.359
625.65	21.713
625.98	21.356
626.31	21.758
626.64	22.344
626.97	21.155
627.30	20.197
627.63	21.980
627.96	21.622
628.29	21.323
628.62	20.571
628.95	21.034
629.28	20.306
629.61	21.465
629.94	20.669
630.26	20.339
630.59	20.639
630.92	20.433
631.25	22.987
631.58	20.245
631.91	19.963
632.24	21.710
632.57	21.537
632.90	20.361
633.23	21.837
633.56	20.510
633.89	20.041
634.22	20.998
634.55	21.608
634.88	19.481
635.20	21.959
635.53	20.791
635.86	21.885
