SpectraSuite Data File
++++++++++++++++++++++++++++++++++++
Date: Thu May 14 14:31:01 PDT 2015
User: schluterlab
Dark Spectrum Present: Yes
Reference Spectrum Present: Yes
Number of Sampled Component Spectra: 1
Spectrometers: USB2E3373
Integration Time (usec): 3000 (USB2E3373)
Spectra Averaged: 3 (USB2E3373)
Boxcar Smoothing: 0 (USB2E3373)
Correct for Electrical Dark: No (USB2E3373)
Strobe/Lamp Enabled: No (USB2E3373)
Correct for Detector Non-linearity: No (USB2E3373)
Correct for Stray Light: No (USB2E3373)
Number of Pixels in Processed Spectrum: 2048
>>>>>Begin Processed Spectral Data<<<<<
178.53	0.000
178.91	-228.571
179.29	-600.000
179.67	800.000
180.04	-7.143
180.42	-130.000
180.80	-280.000
181.18	1500.000
181.56	1700.000
181.94	-300.000
182.31	225.000
182.69	-400.000
183.07	900.000
183.45	-375.000
183.83	233.333
184.20	633.333
184.58	-2400.000
184.96	425.000
185.34	166.667
185.72	540.000
186.09	-188.889
186.47	-950.000
186.85	-260.000
187.23	66.667
187.61	1200.000
187.98	-240.000
188.36	-225.000
188.74	375.000
189.12	466.667
189.49	93.750
189.87	162.500
190.25	177.778
190.63	180.000
191.00	166.667
191.38	0.000
191.76	500.000
192.14	250.000
192.51	-300.000
192.89	300.000
193.27	0.000
193.65	314.286
194.02	700.000
194.40	228.571
194.78	28.571
195.15	0.000
195.53	154.545
195.91	0.000
196.29	525.000
196.66	123.077
197.04	1000.000
197.42	314.286
197.79	850.000
198.17	62.500
198.55	214.286
198.92	300.000
199.30	175.000
199.68	181.818
200.05	185.714
200.43	950.000
200.81	-128.571
201.18	0.000
201.56	-66.667
201.94	0.000
202.31	-333.333
202.69	77.778
203.07	-1400.000
203.44	200.000
203.82	425.000
204.19	133.333
204.57	216.667
204.95	187.500
205.32	1400.000
205.70	-475.000
206.08	350.000
206.45	283.333
206.83	-140.000
207.20	233.333
207.58	220.000
207.96	83.333
208.33	350.000
208.71	-83.333
209.08	516.667
209.46	0.000
209.84	-16.667
210.21	-550.000
210.59	-600.000
210.96	-133.333
211.34	600.000
211.71	50.000
212.09	1100.000
212.46	0.000
212.84	400.000
213.22	280.000
213.59	275.000
213.97	180.000
214.34	366.667
214.72	-200.000
215.09	350.000
215.47	0.000
215.84	-157.143
216.22	-150.000
216.59	260.000
216.97	240.000
217.34	300.000
217.72	162.500
218.09	125.000
218.47	250.000
218.84	0.000
219.22	-260.000
219.59	117.647
219.97	105.000
220.34	-500.000
220.72	100.000
221.09	176.923
221.47	733.333
221.84	90.000
222.22	100.000
222.59	0.000
222.97	225.000
223.34	120.000
223.72	1400.000
224.09	325.000
224.46	500.000
224.84	500.000
225.21	242.857
225.59	150.000
225.96	425.000
226.34	84.615
226.71	-216.667
227.08	1000.000
227.46	120.000
227.83	425.000
228.21	89.474
228.58	-125.000
228.95	-600.000
229.33	150.000
229.70	180.000
230.08	157.895
230.45	20.000
230.82	933.333
231.20	142.857
231.57	216.667
231.95	154.545
232.32	245.455
232.69	130.000
233.07	275.000
233.44	52.941
233.81	210.000
234.19	127.778
234.56	100.000
234.93	106.897
235.31	115.789
235.68	100.000
236.05	55.000
236.43	100.000
236.80	120.000
237.17	66.667
237.55	81.818
237.92	160.000
238.29	64.516
238.67	54.545
239.04	52.778
239.41	42.857
239.79	56.522
240.16	46.296
240.53	60.870
240.91	37.255
241.28	42.623
241.65	44.776
242.02	40.541
242.40	29.231
242.77	38.667
243.14	19.512
243.51	34.211
243.89	38.462
244.26	44.554
244.63	38.235
245.00	37.383
245.38	19.298
245.75	17.699
246.12	32.540
246.49	23.256
246.87	29.286
247.24	30.464
247.61	32.237
247.98	25.503
248.36	25.926
248.73	25.767
249.10	28.415
249.47	29.353
249.84	30.890
250.22	23.834
250.59	21.111
250.96	25.000
251.33	18.878
251.70	25.214
252.08	24.583
252.45	25.000
252.82	19.008
253.19	23.047
253.56	24.335
253.94	22.692
254.31	27.652
254.68	20.280
255.05	22.476
255.42	23.129
255.79	19.094
256.16	24.172
256.54	20.861
256.91	23.607
257.28	21.311
257.65	20.064
258.02	19.469
258.39	19.373
258.76	22.630
259.14	25.287
259.51	19.885
259.88	19.547
260.25	21.389
260.62	23.014
260.99	19.672
261.36	24.397
261.73	20.159
262.10	21.429
262.47	19.571
262.85	23.485
263.22	19.740
263.59	20.789
263.96	20.972
264.33	18.926
264.70	23.210
265.07	25.298
265.44	21.315
265.81	19.907
266.18	22.222
266.55	21.205
266.92	18.451
267.29	20.569
267.66	20.843
268.03	24.672
268.40	20.459
268.77	19.362
269.14	17.841
269.51	19.956
269.88	22.336
270.25	19.920
270.62	21.519
270.99	19.192
271.36	21.980
271.73	19.843
272.10	22.244
272.47	16.232
272.84	18.876
273.21	22.244
273.58	18.750
273.95	19.231
274.32	19.011
274.69	18.182
275.06	17.582
275.43	16.081
275.80	18.695
276.17	19.074
276.54	18.843
276.91	17.531
277.28	17.722
277.65	21.903
278.02	20.772
278.39	20.471
278.76	17.750
279.13	20.213
279.50	19.588
279.87	18.605
280.23	16.021
280.60	18.814
280.97	19.243
281.34	17.827
281.71	20.474
282.08	17.276
282.45	17.349
282.82	17.425
283.19	17.447
283.56	18.033
283.92	19.520
284.29	19.747
284.66	19.212
285.03	15.705
285.40	18.238
285.77	17.337
286.14	18.626
286.51	16.743
286.87	17.062
287.24	17.470
287.61	16.442
287.98	16.767
288.35	16.124
288.72	16.864
289.08	19.473
289.45	15.680
289.82	17.771
290.19	16.954
290.56	16.761
290.93	17.689
291.29	17.218
291.66	15.427
292.03	15.875
292.40	17.279
292.77	14.286
293.13	16.238
293.50	15.506
293.87	15.705
294.24	15.200
294.60	15.929
294.97	13.423
295.34	18.054
295.71	13.997
296.08	14.987
296.44	15.074
296.81	15.956
297.18	15.068
297.55	15.330
297.91	14.116
298.28	12.796
298.65	15.933
299.02	15.821
299.38	14.416
299.75	14.603
300.12	12.731
300.48	12.673
300.85	14.848
301.22	13.758
301.59	13.014
301.95	13.559
302.32	14.778
302.69	14.020
303.05	13.166
303.42	14.302
303.79	12.500
304.15	13.460
304.52	11.839
304.89	13.613
305.25	13.147
305.62	13.584
305.99	13.093
306.35	12.298
306.72	14.168
307.09	11.878
307.45	12.112
307.82	12.311
308.19	12.412
308.55	12.633
308.92	12.950
309.29	11.590
309.65	11.891
310.02	12.178
310.38	12.894
310.75	12.816
311.12	12.848
311.48	12.023
311.85	13.010
312.22	12.808
312.58	13.146
312.95	11.377
313.31	11.924
313.68	13.828
314.05	12.014
314.41	13.297
314.78	12.171
315.14	12.886
315.51	13.204
315.87	13.591
316.24	13.059
316.61	13.588
316.97	11.584
317.34	12.522
317.70	13.537
318.07	12.522
318.43	12.415
318.80	13.462
319.16	12.532
319.53	12.853
319.89	12.621
320.26	12.900
320.62	11.968
320.99	13.666
321.35	12.107
321.72	13.116
322.08	11.993
322.45	12.195
322.81	13.177
323.18	12.301
323.54	12.241
323.91	12.722
324.27	11.876
324.64	13.518
325.00	11.443
325.37	11.548
325.73	12.810
326.10	12.976
326.46	13.274
326.83	12.730
327.19	12.441
327.56	12.885
327.92	12.274
328.29	12.984
328.65	12.395
329.01	11.929
329.38	13.058
329.74	12.842
330.11	13.699
330.47	12.468
330.84	12.661
331.20	12.083
331.56	12.218
331.93	14.059
332.29	12.542
332.66	13.123
333.02	12.479
333.38	12.248
333.75	11.279
334.11	12.510
334.48	12.789
334.84	14.359
335.20	12.594
335.57	11.973
335.93	13.223
336.29	12.313
336.66	11.859
337.02	12.375
337.38	13.180
337.75	12.066
338.11	13.709
338.47	11.745
338.84	12.014
339.20	11.710
339.56	12.438
339.93	12.972
340.29	12.560
340.65	12.328
341.02	13.727
341.38	13.096
341.74	10.896
342.11	12.631
342.47	11.517
342.83	12.077
343.20	12.265
343.56	11.628
343.92	12.890
344.28	11.953
344.65	12.558
345.01	11.934
345.37	11.509
345.73	11.068
346.10	12.090
346.46	10.601
346.82	12.285
347.19	11.536
347.55	12.671
347.91	11.961
348.27	11.912
348.63	12.186
349.00	11.931
349.36	12.045
349.72	11.235
350.08	11.218
350.45	10.951
350.81	11.840
351.17	12.556
351.53	11.751
351.89	11.921
352.26	11.716
352.62	11.567
352.98	10.992
353.34	11.650
353.70	11.479
354.07	11.773
354.43	12.225
354.79	11.668
355.15	11.185
355.51	13.377
355.87	11.444
356.24	11.787
356.60	11.604
356.96	11.712
357.32	11.747
357.68	11.201
358.04	11.527
358.40	11.866
358.77	10.746
359.13	11.152
359.49	10.335
359.85	11.530
360.21	11.406
360.57	11.127
360.93	11.001
361.29	11.579
361.66	10.065
362.02	12.317
362.38	11.736
362.74	11.383
363.10	11.210
363.46	11.288
363.82	11.009
364.18	11.682
364.54	11.687
364.90	11.706
365.26	11.241
365.62	11.533
365.98	11.913
366.35	12.148
366.71	11.633
367.07	10.555
367.43	11.556
367.79	11.679
368.15	11.706
368.51	11.637
368.87	11.169
369.23	11.067
369.59	11.407
369.95	11.291
370.31	11.276
370.67	10.935
371.03	11.565
371.39	10.813
371.75	11.554
372.11	11.924
372.47	11.307
372.83	11.911
373.19	11.207
373.55	10.772
373.91	9.952
374.27	10.931
374.63	11.705
374.99	11.671
375.35	11.753
375.71	10.387
376.07	10.717
376.42	11.083
376.78	11.933
377.14	11.666
377.50	10.942
377.86	12.315
378.22	12.335
378.58	11.356
378.94	11.209
379.30	10.779
379.66	11.817
380.02	10.791
380.38	11.348
380.74	10.930
381.09	11.092
381.45	11.193
381.81	11.241
382.17	11.580
382.53	10.877
382.89	12.302
383.25	10.903
383.61	10.938
383.97	11.661
384.32	11.244
384.68	11.427
385.04	11.220
385.40	11.844
385.76	11.782
386.12	11.311
386.48	12.529
386.83	11.561
387.19	11.240
387.55	10.622
387.91	10.502
388.27	12.067
388.62	11.569
388.98	10.829
389.34	10.902
389.70	11.214
390.06	12.137
390.42	10.361
390.77	11.499
391.13	11.092
391.49	11.413
391.85	11.455
392.20	11.329
392.56	12.581
392.92	11.668
393.28	11.388
393.64	10.670
393.99	11.331
394.35	12.150
394.71	12.216
395.07	10.719
395.42	11.822
395.78	12.066
396.14	12.656
396.50	11.045
396.85	11.568
397.21	11.302
397.57	11.720
397.92	11.397
398.28	11.298
398.64	10.927
399.00	11.047
399.35	11.152
399.71	12.120
400.07	11.173
400.42	10.536
400.78	11.516
401.14	11.668
401.49	11.256
401.85	11.337
402.21	10.950
402.57	12.324
402.92	11.052
403.28	11.007
403.63	10.621
403.99	11.520
404.35	11.768
404.70	11.728
405.06	11.304
405.42	10.714
405.77	12.432
406.13	11.345
406.49	10.980
406.84	11.413
407.20	11.291
407.55	11.266
407.91	10.937
408.27	12.544
408.62	11.402
408.98	12.246
409.34	11.144
409.69	11.496
410.05	12.251
410.40	11.891
410.76	11.722
411.11	11.981
411.47	11.364
411.83	11.287
412.18	11.325
412.54	12.330
412.89	11.641
413.25	11.230
413.60	11.315
413.96	11.655
414.31	11.615
414.67	11.330
415.03	11.138
415.38	11.538
415.74	11.729
416.09	12.153
416.45	11.209
416.80	11.444
417.16	12.324
417.51	12.142
417.87	11.895
418.22	11.437
418.58	11.400
418.93	12.631
419.29	11.714
419.64	11.465
420.00	11.039
420.35	11.454
420.71	11.545
421.06	11.386
421.42	11.525
421.77	11.739
422.12	11.575
422.48	11.316
422.83	11.720
423.19	11.724
423.54	11.117
423.90	11.982
424.25	12.160
424.61	10.964
424.96	11.258
425.31	12.633
425.67	12.077
426.02	11.289
426.38	11.251
426.73	11.161
427.09	13.091
427.44	11.415
427.79	10.945
428.15	11.416
428.50	11.461
428.85	11.481
429.21	12.074
429.56	10.859
429.92	11.499
430.27	11.904
430.62	11.138
430.98	11.067
431.33	11.095
431.68	11.303
432.04	11.579
432.39	10.819
432.74	11.073
433.10	11.249
433.45	11.483
433.80	11.427
434.16	11.674
434.51	11.614
434.86	11.401
435.22	12.115
435.57	11.792
435.92	11.519
436.28	11.945
436.63	11.688
436.98	12.238
437.34	11.387
437.69	11.117
438.04	11.423
438.39	11.660
438.75	10.404
439.10	11.734
439.45	12.521
439.81	11.469
440.16	11.475
440.51	11.817
440.86	11.895
441.22	11.844
441.57	11.478
441.92	11.445
442.27	11.818
442.63	11.724
442.98	11.366
443.33	11.836
443.68	12.091
444.03	12.700
444.39	11.835
444.74	11.281
445.09	11.607
445.44	11.802
445.79	11.686
446.15	11.973
446.50	11.370
446.85	12.257
447.20	12.089
447.55	12.238
447.91	11.623
448.26	11.628
448.61	11.265
448.96	12.178
449.31	12.248
449.66	11.383
450.02	12.131
450.37	11.827
450.72	11.895
451.07	11.959
451.42	11.727
451.77	11.673
452.12	12.077
452.47	11.230
452.83	12.106
453.18	11.325
453.53	12.062
453.88	11.872
454.23	11.356
454.58	12.710
454.93	11.650
455.28	12.824
455.63	11.768
455.98	12.123
456.34	12.309
456.69	12.111
457.04	11.525
457.39	12.251
457.74	11.353
458.09	11.971
458.44	12.392
458.79	11.449
459.14	11.694
459.49	11.375
459.84	11.700
460.19	11.827
460.54	11.925
460.89	11.805
461.24	11.552
461.59	11.898
461.94	11.637
462.29	12.038
462.64	11.768
462.99	12.555
463.34	12.395
463.69	12.368
464.04	12.507
464.39	12.724
464.74	12.828
465.09	11.303
465.44	11.803
465.79	12.692
466.14	12.090
466.49	12.211
466.84	12.011
467.19	12.254
467.54	11.868
467.89	11.494
468.24	12.244
468.59	11.928
468.94	11.305
469.29	12.178
469.64	11.570
469.99	11.982
470.34	11.386
470.68	12.919
471.03	13.229
471.38	11.118
471.73	11.638
472.08	11.865
472.43	12.222
472.78	13.791
473.13	12.326
473.48	13.112
473.83	12.362
474.17	12.192
474.52	12.568
474.87	13.068
475.22	12.113
475.57	11.838
475.92	11.996
476.27	12.354
476.61	12.046
476.96	12.096
477.31	12.475
477.66	12.382
478.01	11.744
478.36	12.911
478.70	12.167
479.05	12.679
479.40	11.550
479.75	12.632
480.10	11.843
480.45	12.397
480.79	11.882
481.14	11.857
481.49	11.722
481.84	12.272
482.19	11.656
482.53	12.331
482.88	12.184
483.23	12.050
483.58	11.266
483.92	11.835
484.27	12.193
484.62	11.964
484.97	12.053
485.31	11.475
485.66	11.531
486.01	11.247
486.36	10.883
486.70	10.854
487.05	10.737
487.40	11.191
487.75	11.425
488.09	11.355
488.44	11.282
488.79	11.872
489.13	11.875
489.48	11.417
489.83	12.153
490.17	11.786
490.52	12.110
490.87	12.183
491.22	12.175
491.56	12.159
491.91	12.386
492.26	12.376
492.60	12.462
492.95	12.505
493.30	12.281
493.64	12.221
493.99	12.456
494.34	11.629
494.68	11.906
495.03	12.291
495.37	12.295
495.72	11.701
496.07	12.664
496.41	11.969
496.76	12.636
497.11	12.442
497.45	12.128
497.80	12.750
498.14	11.882
498.49	12.270
498.84	12.203
499.18	12.416
499.53	12.601
499.87	12.484
500.22	11.888
500.56	12.236
500.91	12.494
501.26	12.682
501.60	11.931
501.95	12.505
502.29	11.452
502.64	12.855
502.98	12.597
503.33	12.138
503.67	11.513
504.02	12.434
504.36	12.735
504.71	12.219
505.06	12.688
505.40	12.660
505.75	12.614
506.09	13.029
506.44	12.256
506.78	12.661
507.13	12.494
507.47	12.790
507.82	12.831
508.16	12.667
508.51	12.002
508.85	12.565
509.19	12.932
509.54	13.353
509.88	11.899
510.23	12.627
510.57	12.856
510.92	12.675
511.26	12.795
511.61	12.265
511.95	13.226
512.30	12.999
512.64	13.043
512.98	12.756
513.33	12.601
513.67	13.004
514.02	13.183
514.36	12.430
514.70	13.125
515.05	13.034
515.39	13.333
515.74	13.627
516.08	13.259
516.42	13.134
516.77	13.775
517.11	12.120
517.46	13.892
517.80	14.110
518.14	13.765
518.49	13.286
518.83	12.986
519.17	13.301
519.52	13.574
519.86	13.252
520.20	13.312
520.55	13.691
520.89	13.626
521.23	14.238
521.58	12.938
521.92	13.144
522.26	13.173
522.61	13.484
522.95	13.725
523.29	13.276
523.64	13.285
523.98	14.318
524.32	14.384
524.66	13.034
525.01	13.137
525.35	13.383
525.69	13.689
526.04	13.949
526.38	12.816
526.72	14.418
527.06	13.079
527.41	13.878
527.75	13.302
528.09	13.636
528.43	14.091
528.78	13.121
529.12	12.959
529.46	12.872
529.80	12.643
530.15	13.681
530.49	13.879
530.83	13.459
531.17	13.262
531.51	13.538
531.86	13.041
532.20	14.268
532.54	13.824
532.88	14.121
533.22	13.730
533.57	13.907
533.91	13.861
534.25	13.567
534.59	13.563
534.93	13.582
535.27	13.408
535.62	13.758
535.96	14.120
536.30	13.161
536.64	13.273
536.98	14.084
537.32	12.963
537.66	14.660
538.01	13.112
538.35	13.703
538.69	13.161
539.03	14.163
539.37	14.075
539.71	13.874
540.05	14.748
540.39	13.631
540.73	12.933
541.07	13.059
541.42	13.172
541.76	13.405
542.10	13.329
542.44	12.607
542.78	13.747
543.12	13.051
543.46	13.370
543.80	12.590
544.14	12.807
544.48	13.652
544.82	13.884
545.16	13.715
545.50	12.942
545.84	13.350
546.18	13.395
546.52	13.376
546.86	13.899
547.20	13.232
547.54	13.983
547.88	13.201
548.22	13.450
548.56	13.634
548.90	13.313
549.24	13.131
549.58	13.628
549.92	13.138
550.26	14.434
550.60	13.657
550.94	14.036
551.28	14.455
551.62	14.218
551.96	13.851
552.30	13.639
552.64	13.441
552.98	13.849
553.32	13.183
553.66	13.698
554.00	13.934
554.34	13.707
554.68	13.815
555.02	13.863
555.36	14.530
555.69	14.222
556.03	12.736
556.37	14.143
556.71	13.824
557.05	14.121
557.39	13.271
557.73	14.597
558.07	14.106
558.41	13.821
558.75	14.672
559.08	13.987
559.42	14.060
559.76	14.858
560.10	14.334
560.44	13.918
560.78	14.125
561.12	13.855
561.45	12.713
561.79	14.164
562.13	13.863
562.47	13.132
562.81	13.228
563.15	13.763
563.48	13.176
563.82	12.938
564.16	13.386
564.50	13.528
564.84	13.510
565.17	13.529
565.51	12.716
565.85	13.539
566.19	12.961
566.52	12.463
566.86	14.148
567.20	13.486
567.54	13.542
567.88	13.201
568.21	13.389
568.55	12.998
568.89	13.164
569.23	12.674
569.56	13.208
569.90	11.974
570.24	12.040
570.57	12.187
570.91	11.758
571.25	12.120
571.59	12.218
571.92	11.514
572.26	12.149
572.60	12.039
572.93	12.385
573.27	12.082
573.61	12.520
573.95	11.653
574.28	12.077
574.62	11.846
574.96	11.756
575.29	11.500
575.63	11.758
575.97	11.880
576.30	11.818
576.64	12.264
576.98	11.777
577.31	11.410
577.65	12.175
577.98	11.691
578.32	11.307
578.66	11.817
578.99	11.182
579.33	11.739
579.67	11.378
580.00	11.958
580.34	11.518
580.67	11.496
581.01	11.640
581.35	11.650
581.68	11.695
582.02	11.580
582.35	11.690
582.69	11.290
583.02	11.568
583.36	11.625
583.70	11.747
584.03	11.591
584.37	11.849
584.70	11.491
585.04	11.648
585.37	11.776
585.71	11.758
586.04	11.845
586.38	11.792
586.72	11.607
587.05	11.614
587.39	12.216
587.72	11.818
588.06	11.654
588.39	12.148
588.73	11.878
589.06	11.823
589.40	12.262
589.73	12.275
590.07	12.301
590.40	12.272
590.73	12.655
591.07	12.584
591.40	12.714
591.74	11.765
592.07	13.276
592.41	12.263
592.74	12.922
593.08	12.038
593.41	12.861
593.75	12.270
594.08	12.269
594.41	12.628
594.75	12.189
595.08	12.416
595.42	12.143
595.75	12.431
596.09	12.267
596.42	12.182
596.75	12.968
597.09	12.646
597.42	12.793
597.75	12.740
598.09	13.294
598.42	13.028
598.76	12.457
599.09	12.745
599.42	11.968
599.76	12.512
600.09	12.479
600.42	12.312
600.76	12.153
601.09	12.512
601.42	12.393
601.76	12.828
602.09	12.080
602.42	11.668
602.76	12.288
603.09	12.665
603.42	12.464
603.76	11.945
604.09	12.669
604.42	13.028
604.76	12.709
605.09	12.246
605.42	12.998
605.75	12.423
606.09	11.945
606.42	11.930
606.75	11.844
607.09	12.097
607.42	12.948
607.75	12.466
608.08	12.904
608.42	12.535
608.75	13.474
609.08	12.479
609.41	12.572
609.75	12.098
610.08	12.929
610.41	12.489
610.74	13.109
611.07	12.700
611.41	12.915
611.74	12.517
612.07	13.324
612.40	12.643
612.73	12.225
613.07	13.399
613.40	13.138
613.73	12.566
614.06	12.316
614.39	12.682
614.72	12.955
615.06	12.801
615.39	12.615
615.72	13.175
616.05	12.627
616.38	13.724
616.71	13.480
617.05	12.354
617.38	13.911
617.71	13.013
618.04	13.977
618.37	13.005
618.70	13.744
619.03	13.082
619.36	13.317
619.69	12.876
620.03	13.120
620.36	12.883
620.69	12.461
621.02	13.320
621.35	14.006
621.68	13.811
622.01	13.452
622.34	12.831
622.67	14.364
623.00	11.808
623.33	13.736
623.66	13.943
623.99	13.101
624.32	14.685
624.65	13.256
624.99	13.459
625.32	14.500
625.65	13.891
625.98	13.424
626.31	13.182
626.64	14.286
626.97	13.278
627.30	12.756
627.63	12.678
627.96	15.465
628.29	13.619
628.62	13.770
628.95	13.497
629.28	12.829
629.61	14.983
629.94	13.640
630.26	14.322
630.59	13.990
630.92	13.853
631.25	14.848
631.58	14.313
631.91	14.620
632.24	14.217
632.57	15.085
632.90	13.641
