SpectraSuite Data File
++++++++++++++++++++++++++++++++++++
Date: Thu May 14 14:38:11 PDT 2015
User: schluterlab
Dark Spectrum Present: Yes
Reference Spectrum Present: Yes
Number of Sampled Component Spectra: 1
Spectrometers: USB2E3373
Integration Time (usec): 3000 (USB2E3373)
Spectra Averaged: 3 (USB2E3373)
Boxcar Smoothing: 0 (USB2E3373)
Correct for Electrical Dark: No (USB2E3373)
Strobe/Lamp Enabled: No (USB2E3373)
Correct for Detector Non-linearity: No (USB2E3373)
Correct for Stray Light: No (USB2E3373)
Number of Pixels in Processed Spectrum: 2048
>>>>>Begin Processed Spectral Data<<<<<
178.53	0.000
178.91	-157.143
179.29	700.000
179.67	2000.000
180.04	-50.000
180.42	-90.000
180.80	-160.000
181.18	1200.000
181.56	2300.000
181.94	-400.000
182.31	400.000
182.69	-333.333
183.07	650.000
183.45	-200.000
183.83	300.000
184.20	133.333
184.58	-1700.000
184.96	325.000
185.34	144.444
185.72	160.000
186.09	-111.111
186.47	-500.000
186.85	-160.000
187.23	244.444
187.61	300.000
187.98	-60.000
188.36	-75.000
188.74	350.000
189.12	466.667
189.49	106.250
189.87	262.500
190.25	233.333
190.63	480.000
191.00	66.667
191.38	0.000
191.76	250.000
192.14	300.000
192.51	-1200.000
192.89	350.000
193.27	0.000
193.65	71.429
194.02	900.000
194.40	200.000
194.78	-171.429
195.15	0.000
195.53	127.273
195.91	0.000
196.29	275.000
196.66	107.692
197.04	1200.000
197.42	200.000
197.79	600.000
198.17	150.000
198.55	157.143
198.92	77.778
199.30	25.000
199.68	127.273
200.05	107.143
200.43	550.000
200.81	-228.571
201.18	0.000
201.56	-100.000
201.94	0.000
202.31	-466.667
202.69	122.222
203.07	-1500.000
203.44	244.444
203.82	450.000
204.19	41.667
204.57	316.667
204.95	175.000
205.32	1900.000
205.70	-225.000
206.08	333.333
206.45	416.667
206.83	-20.000
207.20	216.667
207.58	260.000
207.96	266.667
208.33	433.333
208.71	-125.000
209.08	300.000
209.46	0.000
209.84	-66.667
210.21	-500.000
210.59	-50.000
210.96	-366.667
211.34	325.000
211.71	225.000
212.09	1700.000
212.46	0.000
212.84	-800.000
213.22	220.000
213.59	325.000
213.97	150.000
214.34	400.000
214.72	-216.667
215.09	325.000
215.47	0.000
215.84	-228.571
216.22	-300.000
216.59	160.000
216.97	300.000
217.34	325.000
217.72	200.000
218.09	425.000
218.47	500.000
218.84	0.000
219.22	-200.000
219.59	64.706
219.97	135.000
220.34	-800.000
220.72	133.333
221.09	215.385
221.47	633.333
221.84	60.000
222.22	142.857
222.59	0.000
222.97	225.000
223.34	280.000
223.72	1100.000
224.09	175.000
224.46	400.000
224.84	500.000
225.21	228.571
225.59	100.000
225.96	400.000
226.34	84.615
226.71	-0.000
227.08	350.000
227.46	126.667
227.83	250.000
228.21	100.000
228.58	-62.500
228.95	-350.000
229.33	116.667
229.70	130.000
230.08	142.105
230.45	-90.000
230.82	500.000
231.20	50.000
231.57	200.000
231.95	172.727
232.32	163.636
232.69	140.000
233.07	500.000
233.44	100.000
233.81	130.000
234.19	77.778
234.56	40.909
234.93	68.966
235.31	78.947
235.68	55.556
236.05	50.000
236.43	76.923
236.80	80.000
237.17	85.185
237.55	63.636
237.92	90.000
238.29	35.484
238.67	27.273
239.04	30.556
239.41	28.571
239.79	39.130
240.16	37.037
240.53	17.391
240.91	25.490
241.28	31.148
241.65	38.806
242.02	31.081
242.40	15.385
242.77	12.000
243.14	6.098
243.51	9.211
243.89	10.256
244.26	12.871
244.63	17.647
245.00	9.346
245.38	14.035
245.75	14.159
246.12	21.429
246.49	7.752
246.87	20.714
247.24	13.245
247.61	8.553
247.98	8.725
248.36	10.494
248.73	8.589
249.10	12.022
249.47	12.935
249.84	12.042
250.22	5.699
250.59	17.222
250.96	8.636
251.33	4.082
251.70	7.692
252.08	8.750
252.45	6.557
252.82	8.264
253.19	5.469
253.56	5.323
253.94	3.077
254.31	7.197
254.68	9.790
255.05	8.143
255.42	4.422
255.79	3.236
256.16	5.629
256.54	3.642
256.91	8.525
257.28	3.934
257.65	3.503
258.02	0.885
258.39	4.558
258.76	8.257
259.14	6.322
259.51	6.916
259.88	4.816
260.25	4.722
260.62	8.493
260.99	5.191
261.36	6.166
261.73	2.387
262.10	3.846
262.47	5.362
262.85	6.566
263.22	4.935
263.59	-0.526
263.96	6.905
264.33	1.535
264.70	3.210
265.07	7.399
265.44	6.803
265.81	4.630
266.18	4.989
266.55	5.804
266.92	4.100
267.29	5.252
267.66	5.765
268.03	2.838
268.40	5.219
268.77	3.417
269.14	2.863
269.51	4.167
269.88	5.123
270.25	5.030
270.62	5.274
270.99	5.455
271.36	5.743
271.73	4.715
272.10	5.210
272.47	3.607
272.84	4.217
273.21	4.409
273.58	3.427
273.95	4.423
274.32	2.281
274.69	4.062
275.06	6.593
275.43	2.403
275.80	4.409
276.17	1.852
276.54	3.358
276.91	4.651
277.28	3.797
277.65	3.591
278.02	3.493
278.39	2.355
278.76	1.933
279.13	2.482
279.50	4.639
279.87	4.651
280.23	-0.352
280.60	4.068
280.97	2.632
281.34	3.565
281.71	4.569
282.08	2.159
282.45	1.309
282.82	4.710
283.19	2.262
283.56	2.295
283.92	5.856
284.29	4.897
284.66	4.105
285.03	1.923
285.40	4.019
285.77	2.786
286.14	4.580
286.51	3.805
286.87	2.528
287.24	2.711
287.61	2.691
287.98	3.474
288.35	2.811
288.72	3.846
289.08	3.807
289.45	2.959
289.82	3.163
290.19	2.443
290.56	3.380
290.93	2.568
291.29	3.857
291.66	2.342
292.03	1.221
292.40	4.218
292.77	3.369
293.13	4.736
293.50	1.577
293.87	2.819
294.24	3.200
294.60	4.551
294.97	1.074
295.34	3.073
295.71	3.026
296.08	0.517
296.44	1.838
296.81	2.680
297.18	2.989
297.55	2.594
297.91	2.135
298.28	1.777
298.65	3.329
299.02	2.715
299.38	4.348
299.75	3.271
300.12	2.546
300.48	1.613
300.85	3.600
301.22	3.244
301.59	2.854
301.95	2.260
302.32	2.000
302.69	2.629
303.05	2.067
303.42	2.661
303.79	1.979
304.15	2.734
304.52	2.220
304.89	2.408
305.25	2.899
305.62	1.463
305.99	2.165
306.35	2.319
306.72	2.482
307.09	2.132
307.45	3.106
307.82	2.422
308.19	2.926
308.55	4.532
308.92	2.532
309.29	2.778
309.65	1.949
310.02	2.079
310.38	2.461
310.75	2.330
311.12	3.547
311.48	2.053
311.85	2.944
312.22	3.131
312.58	3.850
312.95	2.964
313.31	3.704
313.68	3.755
314.05	4.426
314.41	5.191
314.78	2.997
315.14	2.087
315.51	3.416
315.87	3.690
316.24	4.292
316.61	4.618
316.97	3.891
317.34	2.734
317.70	4.279
318.07	4.056
318.43	4.762
318.80	5.518
319.16	3.691
319.53	3.685
319.89	4.294
320.26	5.160
320.62	3.901
320.99	4.709
321.35	4.344
321.72	5.302
322.08	3.787
322.45	5.149
322.81	5.144
323.18	4.602
323.54	5.517
323.91	4.448
324.27	4.991
324.64	5.877
325.00	4.892
325.37	5.569
325.73	6.364
326.10	7.380
326.46	5.456
326.83	6.966
327.19	5.197
327.56	6.166
327.92	6.845
328.29	5.887
328.65	5.444
329.01	6.937
329.38	6.403
329.74	6.849
330.11	6.164
330.47	6.487
330.84	6.632
331.20	6.333
331.56	6.326
331.93	8.033
332.29	6.780
332.66	7.060
333.02	6.700
333.38	6.628
333.75	7.407
334.11	7.006
334.48	6.518
334.84	8.071
335.20	6.381
335.57	7.420
335.93	7.521
336.29	6.572
336.66	6.644
337.02	7.358
337.38	7.398
337.75	6.033
338.11	7.569
338.47	8.602
338.84	7.530
339.20	7.498
339.56	7.908
339.93	7.225
340.29	7.810
340.65	7.867
341.02	8.460
341.38	7.680
341.74	6.618
342.11	8.367
342.47	7.228
342.83	7.166
343.20	7.604
343.56	7.618
343.92	7.446
344.28	7.031
344.65	8.605
345.01	7.254
345.37	8.087
345.73	7.560
346.10	7.956
346.46	8.228
346.82	8.539
347.19	7.105
347.55	8.725
347.91	7.875
348.27	6.980
348.63	7.692
349.00	7.457
349.36	7.732
349.72	7.812
350.08	8.470
350.45	7.300
350.81	8.371
351.17	8.496
351.53	8.188
351.89	7.745
352.26	7.985
352.62	7.910
352.98	7.557
353.34	7.170
353.70	7.627
354.07	6.483
354.43	8.049
354.79	7.853
355.15	7.873
355.51	7.456
355.87	8.601
356.24	8.365
356.60	8.130
356.96	8.451
357.32	7.212
357.68	7.980
358.04	7.036
358.40	7.687
358.77	7.968
359.13	7.016
359.49	6.914
359.85	8.122
360.21	8.537
360.57	7.753
360.93	8.251
361.29	7.930
361.66	8.182
362.02	8.768
362.38	8.433
362.74	7.332
363.10	8.872
363.46	8.310
363.82	7.884
364.18	8.515
364.54	8.645
364.90	9.365
365.26	7.793
365.62	8.333
365.98	8.509
366.35	8.725
366.71	8.503
367.07	8.660
367.43	9.652
367.79	9.821
368.15	9.632
368.51	9.540
368.87	9.079
369.23	8.600
369.59	8.811
369.95	8.993
370.31	9.453
370.67	9.285
371.03	8.657
371.39	7.992
371.75	8.941
372.11	8.740
372.47	9.546
372.83	9.293
373.19	9.406
373.55	9.146
373.91	9.271
374.27	9.897
374.63	9.946
374.99	9.549
375.35	9.610
375.71	9.548
376.07	9.038
376.42	9.698
376.78	9.758
377.14	9.357
377.50	9.804
377.86	10.222
378.22	10.000
378.58	9.572
378.94	9.566
379.30	9.900
379.66	9.406
380.02	9.175
380.38	9.677
380.74	9.859
381.09	9.582
381.45	9.716
381.81	10.597
382.17	9.561
382.53	10.117
382.89	10.384
383.25	10.258
383.61	9.838
383.97	10.188
384.32	10.766
384.68	10.151
385.04	10.989
385.40	10.843
385.76	10.610
386.12	10.353
386.48	11.294
386.83	11.561
387.19	11.008
387.55	10.563
387.91	10.788
388.27	10.335
388.62	11.054
388.98	10.603
389.34	11.078
389.70	10.750
390.06	10.539
390.42	10.964
390.77	11.800
391.13	10.505
391.49	11.715
391.85	11.576
392.20	10.854
392.56	12.168
392.92	11.287
393.28	11.830
393.64	10.838
393.99	12.144
394.35	11.390
394.71	11.317
395.07	10.778
395.42	11.650
395.78	11.883
396.14	11.943
396.50	11.639
396.85	11.151
397.21	12.071
397.57	12.073
397.92	11.455
398.28	11.027
398.64	11.384
399.00	10.995
399.35	11.361
399.71	11.087
400.07	11.791
400.42	11.641
400.78	11.400
401.14	11.952
401.49	11.711
401.85	12.267
402.21	11.587
402.57	11.033
402.92	11.111
403.28	11.241
403.63	11.038
403.99	11.283
404.35	11.939
404.70	11.671
405.06	11.576
405.42	11.534
405.77	11.941
406.13	11.777
406.49	11.712
406.84	11.302
407.20	11.235
407.55	11.387
407.91	11.062
408.27	10.777
408.62	11.344
408.98	11.085
409.34	10.968
409.69	11.619
410.05	11.547
410.40	11.659
410.76	11.217
411.11	11.864
411.47	12.039
411.83	11.758
412.18	11.988
412.54	11.737
412.89	11.700
413.25	11.682
413.60	11.143
413.96	12.005
414.31	11.218
414.67	11.330
415.03	11.815
415.38	12.043
415.74	11.729
416.09	12.461
416.45	11.522
416.80	11.873
417.16	11.877
417.51	11.955
417.87	11.404
418.22	11.856
418.58	11.772
418.93	12.573
419.29	12.454
419.64	11.345
420.00	12.226
420.35	12.072
420.71	12.234
421.06	12.018
421.42	11.755
421.77	12.009
422.12	12.526
422.48	12.033
422.83	13.034
423.19	12.042
423.54	13.219
423.90	12.645
424.25	12.960
424.61	11.883
424.96	12.905
425.31	13.535
425.67	13.097
426.02	13.448
426.38	13.375
426.73	12.556
427.09	14.418
427.44	13.763
427.79	13.322
428.15	12.329
428.50	12.921
428.85	13.433
429.21	13.989
429.56	13.771
429.92	14.103
430.27	13.928
430.62	13.825
430.98	14.609
431.33	14.272
431.68	13.123
432.04	14.119
432.39	14.247
432.74	13.584
433.10	14.224
433.45	14.047
433.80	14.539
434.16	15.031
434.51	15.005
434.86	14.604
435.22	14.612
435.57	14.682
435.92	15.081
436.28	14.334
436.63	14.691
436.98	14.868
437.34	14.994
437.69	14.750
438.04	14.490
438.39	15.164
438.75	14.610
439.10	14.271
439.45	15.484
439.81	15.367
440.16	15.710
440.51	15.106
440.86	15.008
441.22	15.595
441.57	14.675
441.92	15.470
442.27	15.101
442.63	15.052
442.98	16.062
443.33	15.676
443.68	16.006
444.03	15.287
444.39	14.887
444.74	15.824
445.09	15.560
445.44	15.753
445.79	15.517
446.15	15.673
446.50	15.245
446.85	15.418
447.20	15.812
447.55	15.795
447.91	14.921
448.26	14.799
448.61	15.462
448.96	16.255
449.31	15.695
449.66	15.305
450.02	16.086
450.37	15.876
450.72	15.339
451.07	16.287
451.42	14.905
451.77	15.620
452.12	16.084
452.47	15.983
452.83	16.104
453.18	15.995
453.53	15.566
453.88	16.234
454.23	15.819
454.58	16.251
454.93	15.898
455.28	16.677
455.63	16.089
455.98	16.201
456.34	15.548
456.69	16.402
457.04	16.017
457.39	16.519
457.74	17.114
458.09	15.651
458.44	15.841
458.79	15.988
459.14	16.256
459.49	16.242
459.84	15.740
460.19	15.713
460.54	16.241
460.89	16.358
461.24	16.437
461.59	16.381
461.94	16.600
462.29	17.077
462.64	16.717
462.99	16.259
463.34	16.937
463.69	16.178
464.04	16.454
464.39	16.984
464.74	17.218
465.09	16.609
465.44	16.148
465.79	16.711
466.14	16.571
466.49	16.842
466.84	17.025
467.19	16.590
467.54	15.746
467.89	16.609
468.24	16.565
468.59	16.213
468.94	15.618
469.29	16.437
469.64	15.321
469.99	16.826
470.34	16.275
470.68	17.977
471.03	17.289
471.38	17.070
471.73	16.125
472.08	17.766
472.43	16.135
472.78	16.940
473.13	17.004
473.48	16.737
473.83	16.947
474.17	17.351
474.52	17.498
474.87	16.224
475.22	16.901
475.57	17.342
475.92	16.327
476.27	16.880
476.61	16.407
476.96	16.423
477.31	16.881
477.66	17.314
478.01	16.675
478.36	16.849
478.70	16.305
479.05	17.689
479.40	16.683
479.75	17.099
480.10	16.675
480.45	16.864
480.79	17.098
481.14	16.452
481.49	16.356
481.84	16.623
482.19	16.946
482.53	17.097
482.88	16.837
483.23	16.807
483.58	16.550
483.92	16.268
484.27	16.427
484.62	16.584
484.97	16.563
485.31	16.191
485.66	15.906
486.01	15.549
486.36	15.567
486.70	15.768
487.05	16.224
487.40	16.322
487.75	16.590
488.09	16.568
488.44	16.153
488.79	16.594
489.13	16.691
489.48	16.544
489.83	15.936
490.17	16.322
490.52	16.297
490.87	17.005
491.22	16.724
491.56	17.150
491.91	16.790
492.26	16.746
492.60	16.616
492.95	16.849
493.30	16.629
493.64	16.951
493.99	16.360
494.34	16.812
494.68	16.403
495.03	17.357
495.37	16.733
495.72	17.279
496.07	16.915
496.41	17.160
496.76	17.681
497.11	16.730
497.45	16.918
497.80	17.770
498.14	16.780
498.49	17.325
498.84	16.728
499.18	17.274
499.53	17.309
499.87	17.582
500.22	16.518
500.56	16.464
500.91	17.162
501.26	18.182
501.60	16.483
501.95	17.499
502.29	17.376
502.64	17.315
502.98	17.041
503.33	16.674
503.67	16.921
504.02	17.207
504.36	17.471
504.71	17.409
505.06	17.781
505.40	17.367
505.75	17.623
506.09	18.186
506.44	17.920
506.78	17.752
507.13	17.335
507.47	17.764
507.82	18.040
508.16	17.543
508.51	17.534
508.85	17.667
509.19	17.385
509.54	18.156
509.88	17.824
510.23	18.504
510.57	18.366
510.92	18.094
511.26	18.230
511.61	17.528
511.95	18.009
512.30	18.661
512.64	17.641
512.98	19.310
513.33	18.750
513.67	18.562
514.02	18.651
514.36	18.261
514.70	18.594
515.05	18.770
515.39	18.583
515.74	18.929
516.08	18.648
516.42	19.048
516.77	18.454
517.11	18.515
517.46	19.777
517.80	20.043
518.14	18.934
518.49	19.252
518.83	18.893
519.17	18.309
519.52	19.235
519.86	19.694
520.20	19.702
520.55	18.401
520.89	19.764
521.23	19.319
521.58	19.435
521.92	19.433
522.26	19.244
522.61	19.329
522.95	19.204
523.29	19.943
523.64	19.787
523.98	19.909
524.32	20.172
524.66	19.636
525.01	18.800
525.35	19.472
525.69	19.374
526.04	19.805
526.38	19.828
526.72	19.550
527.06	19.589
527.41	20.175
527.75	19.121
528.09	19.658
528.43	20.545
528.78	19.133
529.12	18.865
529.46	19.786
529.80	19.394
530.15	20.058
530.49	19.573
530.83	19.658
531.17	19.833
531.51	20.217
531.86	20.553
532.20	20.488
532.54	19.330
532.88	19.939
533.22	20.389
533.57	19.619
533.91	20.034
534.25	20.124
534.59	19.138
534.93	19.298
535.27	19.944
535.62	21.035
535.96	20.337
536.30	19.389
536.64	20.240
536.98	21.033
537.32	19.444
537.66	20.399
538.01	19.275
538.35	19.549
538.69	19.471
539.03	19.865
539.37	19.965
539.71	19.880
540.05	20.743
540.39	19.377
540.73	19.551
541.07	20.785
541.42	19.256
541.76	19.810
542.10	20.024
542.44	19.428
542.78	19.708
543.12	19.845
543.46	19.658
543.80	19.365
544.14	19.270
544.48	19.622
544.82	20.646
545.16	20.155
545.50	20.012
545.84	19.841
546.18	21.235
546.52	20.191
546.86	19.560
547.20	20.229
547.54	19.600
547.88	19.771
548.22	18.304
548.56	20.538
548.90	20.418
549.24	20.365
549.58	20.000
549.92	20.026
550.26	20.259
550.60	19.655
550.94	19.987
551.28	20.462
551.62	20.957
551.96	20.388
552.30	21.096
552.64	20.722
552.98	20.711
553.32	20.450
553.66	19.871
554.00	20.240
554.34	20.463
554.68	20.013
555.02	20.171
555.36	21.236
555.69	19.731
556.03	19.987
556.37	20.839
556.71	20.609
557.05	20.192
557.39	20.040
557.73	20.211
558.07	19.735
558.41	20.598
558.75	21.163
559.08	20.529
559.42	21.399
559.76	21.167
560.10	20.898
560.44	20.251
560.78	21.312
561.12	19.828
561.45	21.350
561.79	20.574
562.13	21.750
562.47	19.667
562.81	20.696
563.15	20.833
563.48	20.510
563.82	20.314
564.16	20.291
564.50	20.441
564.84	19.882
565.17	20.647
565.51	19.217
565.85	20.428
566.19	19.873
566.52	19.953
566.86	20.204
567.20	19.467
567.54	19.437
567.88	19.929
568.21	19.960
568.55	19.616
568.89	19.428
569.23	19.772
569.56	19.500
569.90	19.494
570.24	19.292
570.57	18.730
570.91	17.881
571.25	18.658
571.59	18.954
571.92	18.150
572.26	18.555
572.60	18.864
572.93	18.453
573.27	18.404
573.61	18.793
573.95	18.742
574.28	18.407
574.62	18.236
574.96	18.196
575.29	18.352
575.63	17.949
575.97	18.563
576.30	18.135
576.64	17.895
576.98	17.904
577.31	18.594
577.65	18.469
577.98	18.261
578.32	18.000
578.66	17.885
578.99	18.083
579.33	18.341
579.67	18.064
580.00	18.341
580.34	18.325
580.67	18.049
581.01	17.914
581.35	18.079
581.68	18.225
582.02	17.915
582.35	18.316
582.69	18.286
583.02	18.613
583.36	18.875
583.70	18.678
584.03	18.982
584.37	19.378
584.70	19.071
585.04	18.298
585.37	18.162
585.71	18.598
586.04	18.472
586.38	18.709
586.72	18.576
587.05	18.521
587.39	19.097
587.72	19.043
588.06	19.028
588.39	19.193
588.73	18.598
589.06	19.328
589.40	19.760
589.73	19.730
590.07	19.397
590.40	19.642
590.73	19.548
591.07	20.253
591.40	18.974
591.74	19.714
592.07	19.935
592.41	19.795
592.74	19.134
593.08	19.682
593.41	19.481
593.75	19.454
594.08	19.418
594.41	19.840
594.75	19.329
595.08	19.011
595.42	19.513
595.75	19.955
596.09	20.163
596.42	19.742
596.75	20.108
597.09	20.202
597.42	19.865
597.75	19.208
598.09	20.476
598.42	19.984
598.76	18.953
599.09	19.295
599.42	19.678
599.76	19.610
600.09	19.686
600.42	19.453
600.76	19.650
601.09	18.885
601.42	19.739
601.76	19.552
602.09	19.871
602.42	19.847
602.76	19.852
603.09	20.264
603.42	19.689
603.76	19.204
604.09	19.908
604.42	20.073
604.76	19.368
605.09	20.183
605.42	19.936
605.75	19.385
606.09	20.194
606.42	19.628
606.75	19.678
607.09	19.163
607.42	20.116
607.75	20.242
608.08	19.811
608.42	19.428
608.75	19.859
609.08	19.482
609.41	20.159
609.75	19.866
610.08	20.229
610.41	20.433
610.74	19.832
611.07	19.849
611.41	20.359
611.74	20.878
612.07	19.776
612.40	19.772
612.73	19.853
613.07	20.000
613.40	20.741
613.73	19.740
614.06	20.167
614.39	20.311
614.72	20.427
615.06	19.875
615.39	19.671
615.72	19.716
616.05	20.544
616.38	20.232
616.71	20.272
617.05	20.394
617.38	20.974
617.71	20.356
618.04	20.993
618.37	20.109
618.70	19.966
619.03	20.251
619.36	21.393
619.69	21.461
620.03	20.590
620.36	20.675
620.69	20.851
621.02	21.457
621.35	22.134
621.68	21.909
622.01	21.922
622.34	20.084
622.67	20.962
623.00	20.175
623.33	21.500
623.66	21.077
623.99	20.540
624.32	22.287
624.65	20.721
624.99	21.261
625.32	21.359
625.65	21.578
625.98	20.678
626.31	20.482
626.64	21.172
626.97	20.855
627.30	20.653
627.63	21.005
627.96	22.147
628.29	21.634
628.62	21.159
628.95	21.472
629.28	21.580
629.61	22.559
629.94	20.837
630.26	20.508
630.59	21.330
630.92	21.472
631.25	22.004
631.58	22.881
631.91	22.306
632.24	22.767
632.57	23.340
632.90	22.467
633.23	23.367
633.56	22.143
633.89	22.314
634.22	23.285
634.55	21.816
634.88	22.186
635.20	23.574
635.53	23.955
635.86	23.944
636.19	23.012
636.52	22.996
636.85	22.472
637.18	20.998
637.51	23.763
637.83	23.367
638.16	23.733
638.49	23.357
638.82	23.224
639.15	21.879
639.48	23.903
639.81	22.286
640.13	23.322
640.46	21.455
640.79	22.917
641.12	22.857
