SpectraSuite Data File
++++++++++++++++++++++++++++++++++++
Date: Thu May 14 15:18:11 PDT 2015
User: schluterlab
Dark Spectrum Present: Yes
Reference Spectrum Present: Yes
Number of Sampled Component Spectra: 1
Spectrometers: USB2E3373
Integration Time (usec): 3000 (USB2E3373)
Spectra Averaged: 3 (USB2E3373)
Boxcar Smoothing: 0 (USB2E3373)
Correct for Electrical Dark: No (USB2E3373)
Strobe/Lamp Enabled: No (USB2E3373)
Correct for Detector Non-linearity: No (USB2E3373)
Correct for Stray Light: No (USB2E3373)
Number of Pixels in Processed Spectrum: 2048
>>>>>Begin Processed Spectral Data<<<<<
178.53	0.000
178.91	642.857
179.29	-5100.000
179.67	-4500.000
180.04	414.286
180.42	430.000
180.80	1020.000
181.18	-4700.000
181.56	-4000.000
181.94	975.000
182.31	-1025.000
182.69	1566.667
183.07	-1800.000
183.45	1150.000
183.83	-750.000
184.20	-1333.333
184.58	4500.000
184.96	-1175.000
185.34	-433.333
185.72	-780.000
186.09	511.111
186.47	2000.000
186.85	1080.000
187.23	-511.111
187.61	-3800.000
187.98	740.000
188.36	1200.000
188.74	-1150.000
189.12	-1233.333
189.49	-200.000
189.87	-512.500
190.25	-355.556
190.63	-780.000
191.00	-500.000
191.38	0.000
191.76	-1050.000
192.14	-633.333
192.51	1950.000
192.89	-450.000
193.27	0.000
193.65	-571.429
194.02	-4900.000
194.40	-514.286
194.78	614.286
195.15	0.000
195.53	-309.091
195.91	0.000
196.29	-775.000
196.66	-246.154
197.04	-4300.000
197.42	-600.000
197.79	-2300.000
198.17	-525.000
198.55	-542.857
198.92	-422.222
199.30	-487.500
199.68	-327.273
200.05	-228.571
200.43	-2500.000
200.81	685.714
201.18	0.000
201.56	555.556
201.94	0.000
202.31	1433.333
202.69	-488.889
203.07	4300.000
203.44	-433.333
203.82	-1200.000
204.19	-325.000
204.57	-716.667
204.95	-462.500
205.32	-3200.000
205.70	1025.000
206.08	-650.000
206.45	-633.333
206.83	1060.000
207.20	-666.667
207.58	-920.000
207.96	-666.667
208.33	-550.000
208.71	391.667
209.08	-633.333
209.46	0.000
209.84	800.000
210.21	2000.000
210.59	2000.000
210.96	1433.333
211.34	-1025.000
211.71	-512.500
212.09	-4600.000
212.46	0.000
212.84	2500.000
213.22	-940.000
213.59	-1175.000
213.97	-390.000
214.34	-1466.667
214.72	716.667
215.09	-1075.000
215.47	0.000
215.84	671.429
216.22	2500.000
216.59	-620.000
216.97	-760.000
217.34	-975.000
217.72	-425.000
218.09	-1075.000
218.47	-1225.000
218.84	0.000
219.22	800.000
219.59	-211.765
219.97	-195.000
220.34	2600.000
220.72	-433.333
221.09	-253.846
221.47	-1500.000
221.84	-440.000
222.22	-557.143
222.59	0.000
222.97	-462.500
223.34	-960.000
223.72	-4700.000
224.09	-975.000
224.46	-1050.000
224.84	-660.000
225.21	-542.857
225.59	-1225.000
225.96	-1150.000
226.34	-134.615
226.71	816.667
227.08	-1800.000
227.46	-220.000
227.83	-1150.000
228.21	-168.421
228.58	462.500
228.95	2700.000
229.33	-333.333
229.70	-380.000
230.08	-121.053
230.45	410.000
230.82	-1233.333
231.20	-285.714
231.57	-275.000
231.95	-409.091
232.32	-263.636
232.69	-165.000
233.07	-1150.000
233.44	-241.176
233.81	-370.000
234.19	-211.111
234.56	-154.545
234.93	-110.345
235.31	-210.526
235.68	-205.556
236.05	-225.000
236.43	-100.000
236.80	-64.000
237.17	-125.926
237.55	-106.061
237.92	-440.000
238.29	-129.032
238.67	-72.727
239.04	-113.889
239.41	-114.286
239.79	-100.000
240.16	-64.815
240.53	-71.739
240.91	-92.157
241.28	-65.574
241.65	-40.299
242.02	-37.838
242.40	-75.385
242.77	-41.333
243.14	-47.561
243.51	-61.842
243.89	-55.128
244.26	-37.624
244.63	-36.275
245.00	-37.383
245.38	-36.842
245.75	-45.133
246.12	-26.190
246.49	-33.333
246.87	-25.714
247.24	-24.503
247.61	-25.000
247.98	-22.148
248.36	-25.309
248.73	-28.834
249.10	-22.951
249.47	-7.960
249.84	-15.183
250.22	-22.280
250.59	-19.444
250.96	-11.364
251.33	-22.449
251.70	-10.684
252.08	-13.333
252.45	-12.295
252.82	-14.463
253.19	-15.234
253.56	-10.266
253.94	-18.077
254.31	-14.773
254.68	-7.692
255.05	-6.840
255.42	-12.925
255.79	-12.298
256.16	-10.927
256.54	-10.596
256.91	-10.820
257.28	-10.820
257.65	-14.331
258.02	-13.274
258.39	-9.117
258.76	-7.951
259.14	-8.621
259.51	-10.375
259.88	-12.465
260.25	-9.444
260.62	-7.397
260.99	-7.650
261.36	-6.702
261.73	-11.406
262.10	-10.714
262.47	-8.311
262.85	-5.556
263.22	-12.208
263.59	-12.105
263.96	-9.974
264.33	-10.486
264.70	-8.395
265.07	-6.205
265.44	-2.041
265.81	-6.019
266.18	-4.989
266.55	-5.580
266.92	-8.200
267.29	-6.346
267.66	-6.430
268.03	-7.205
268.40	-5.428
268.77	-9.339
269.14	-9.692
269.51	-7.018
269.88	-3.893
270.25	-4.829
270.62	-6.540
270.99	-6.465
271.36	-4.554
271.73	-5.305
272.10	-4.810
272.47	-7.214
272.84	-7.430
273.21	-6.413
273.58	-6.048
273.95	-5.769
274.32	-6.654
274.69	-8.317
275.06	-5.495
275.43	-5.730
275.80	-3.527
276.17	-7.593
276.54	-6.903
276.91	-6.261
277.28	-4.702
277.65	-5.566
278.02	-6.985
278.39	-5.435
278.76	-6.151
279.13	-4.965
279.50	-3.952
279.87	-3.220
280.23	-7.394
280.60	-2.712
280.97	-4.112
281.34	-5.433
281.71	-3.215
282.08	-4.983
282.45	-6.056
282.82	-5.024
283.19	-7.108
283.56	-5.410
283.92	-3.153
284.29	-3.002
284.66	-5.911
285.03	-6.090
285.40	-3.864
285.77	-5.263
286.14	-3.969
286.51	-5.936
286.87	-5.055
287.24	-3.313
287.61	-4.335
287.98	-3.323
288.35	-4.290
288.72	-3.402
289.08	-3.221
289.45	-5.030
289.82	-4.518
290.19	-3.879
290.56	-4.930
290.93	-4.993
291.29	-3.306
291.66	-3.719
292.03	-4.206
292.40	-2.313
292.77	-3.774
293.13	-3.248
293.50	-3.811
293.87	-3.087
294.24	-2.667
294.60	-3.034
294.97	-4.295
295.34	-3.073
295.71	-3.657
296.08	-4.651
296.44	-4.534
296.81	-3.410
297.18	-3.113
297.55	-2.712
297.91	-3.321
298.28	-5.095
298.65	-2.973
299.02	-3.660
299.38	-2.403
299.75	-2.804
300.12	-3.935
300.48	-3.687
300.85	-2.137
301.22	-1.790
301.59	-3.082
301.95	-2.712
302.32	-2.667
302.69	-3.067
303.05	-3.156
303.42	-2.661
303.79	-3.125
304.15	-1.472
304.52	-2.643
304.89	-2.199
305.25	-1.656
305.62	-2.090
305.99	-2.268
306.35	-3.327
306.72	-1.448
307.09	-2.944
307.45	-2.692
307.82	-1.413
308.19	-0.908
308.55	-1.350
308.92	-2.532
309.29	-2.011
309.65	-2.534
310.02	-1.584
310.38	-1.575
310.75	-1.650
311.12	-0.959
311.48	-1.564
311.85	-0.760
312.22	-0.854
312.58	-0.845
312.95	-2.294
313.31	-0.090
313.68	0.092
314.05	1.536
314.41	0.273
314.78	0.272
315.14	0.363
315.51	1.293
315.87	1.440
316.24	2.100
316.61	2.220
316.97	0.905
317.34	0.617
317.70	3.144
318.07	2.381
318.43	2.551
318.80	4.097
319.16	2.403
319.53	2.485
319.89	3.506
320.26	4.181
320.62	4.610
320.99	3.878
321.35	3.512
321.72	5.767
322.08	4.148
322.45	4.697
322.81	6.408
323.18	6.726
323.54	7.845
323.91	8.541
324.27	9.725
324.64	10.831
325.00	8.789
325.37	10.319
325.73	11.488
326.10	12.084
326.46	13.436
326.83	12.970
327.19	13.465
327.56	15.573
327.92	14.555
328.29	14.919
328.65	14.322
329.01	16.413
329.38	16.933
329.74	17.808
330.11	18.322
330.47	19.882
330.84	18.002
331.20	20.083
331.56	18.977
331.93	20.669
332.29	20.085
332.66	21.262
333.02	20.603
333.38	19.883
333.75	21.128
334.11	20.767
334.48	23.102
334.84	22.600
335.20	21.830
335.57	21.922
335.93	22.231
336.29	21.714
336.66	22.288
337.02	22.826
337.38	22.704
337.75	22.645
338.11	22.876
338.47	21.588
338.84	22.504
339.20	21.735
339.56	22.982
339.93	23.974
340.29	22.705
340.65	22.628
341.02	23.543
341.38	23.444
341.74	23.083
342.11	23.813
342.47	22.081
342.83	22.464
343.20	24.448
343.56	23.577
343.92	22.978
344.28	22.813
344.65	23.721
345.01	22.777
345.37	24.184
345.73	22.136
346.10	24.259
346.46	23.022
346.82	23.745
347.19	23.682
347.55	23.672
347.91	24.889
348.27	23.065
348.63	23.305
349.00	25.130
349.36	25.056
349.72	24.777
350.08	23.997
350.45	23.878
350.81	24.284
351.17	23.910
351.53	24.867
351.89	25.361
352.26	23.955
352.62	24.776
352.98	25.115
353.34	24.720
353.70	26.348
354.07	24.143
354.43	25.057
354.79	25.580
355.15	24.356
355.51	25.658
355.87	24.907
356.24	25.856
356.60	25.351
356.96	24.981
357.32	26.171
357.68	24.231
358.04	24.925
358.40	24.030
358.77	25.073
359.13	24.963
359.49	25.204
359.85	26.251
360.21	26.040
360.57	25.915
360.93	26.657
361.29	26.105
361.66	26.358
362.02	26.583
362.38	26.353
362.74	27.584
363.10	26.823
363.46	27.424
363.82	26.918
364.18	27.164
364.54	27.386
364.90	27.625
365.26	27.103
365.62	28.733
365.98	28.387
366.35	27.315
366.71	28.503
367.07	28.281
367.43	27.511
367.79	28.401
368.15	28.763
368.51	29.161
368.87	27.564
369.23	29.333
369.59	28.893
369.95	28.938
370.31	29.034
370.67	29.161
371.03	28.670
371.39	28.475
371.75	30.124
372.11	29.404
372.47	29.248
372.83	30.039
373.19	29.153
373.55	29.133
373.91	28.971
374.27	31.113
374.63	30.041
374.99	30.902
375.35	31.169
375.71	31.742
376.07	30.730
376.42	31.108
376.78	31.386
377.14	31.878
377.50	32.701
377.86	32.512
378.22	31.916
378.58	32.461
378.94	31.338
379.30	31.986
379.66	33.510
380.02	33.122
380.38	33.353
380.74	33.521
381.09	34.204
381.45	34.716
381.81	34.660
382.17	33.195
382.53	34.211
382.89	34.255
383.25	35.522
383.61	35.301
383.97	34.217
384.32	35.467
384.68	34.513
385.04	36.495
385.40	36.771
385.76	37.866
386.12	35.248
386.48	36.176
386.83	36.949
387.19	37.312
387.55	36.385
387.91	38.071
388.27	37.471
388.62	36.999
388.98	36.774
389.34	36.889
389.70	38.466
390.06	37.596
390.42	37.831
390.77	38.832
391.13	37.911
391.49	38.345
391.85	38.909
392.20	38.256
392.56	39.457
392.92	39.531
393.28	39.635
393.64	38.492
393.99	40.616
394.35	41.121
394.71	40.599
395.07	39.581
395.42	39.063
395.78	39.854
396.14	39.691
396.50	37.292
396.85	39.475
397.21	39.408
397.57	40.106
397.92	40.092
398.28	40.196
398.64	39.931
399.00	39.058
399.35	40.419
399.71	40.489
400.07	40.371
400.42	40.745
400.78	40.278
401.14	40.524
401.49	41.273
401.85	41.105
402.21	40.788
402.57	40.845
402.92	40.248
403.28	39.286
403.63	40.155
403.99	39.786
404.35	40.478
404.70	41.246
405.06	40.217
405.42	39.696
405.77	39.913
406.13	40.357
406.49	40.428
406.84	40.111
407.20	40.358
407.55	40.218
407.91	39.912
408.27	39.046
408.62	39.791
408.98	39.814
409.34	39.941
409.69	40.915
410.05	40.445
410.40	40.719
410.76	39.596
411.11	40.736
411.47	40.786
411.83	40.329
412.18	41.687
412.54	39.893
412.89	39.697
413.25	40.519
413.60	40.896
413.96	40.734
414.31	40.453
414.67	41.324
415.03	39.877
415.38	40.290
415.74	40.623
416.09	39.975
416.45	39.637
416.80	40.392
417.16	40.868
417.51	40.411
417.87	40.343
418.22	40.419
418.58	40.768
418.93	41.735
419.29	40.752
419.64	42.137
420.00	41.543
420.35	41.550
420.71	41.068
421.06	41.173
421.42	42.087
421.77	41.572
422.12	42.072
422.48	41.526
422.83	42.716
423.19	42.175
423.54	42.091
423.90	42.076
424.25	41.813
424.61	41.504
424.96	42.065
425.31	42.781
425.67	41.814
426.02	43.387
426.38	43.111
426.73	42.857
427.09	43.656
427.44	42.982
427.79	43.449
428.15	43.208
428.50	43.371
428.85	43.858
429.21	44.202
429.56	43.583
429.92	42.457
430.27	43.229
430.62	44.309
430.98	43.827
431.33	43.891
431.68	44.349
432.04	43.779
432.39	44.510
432.74	44.292
433.10	43.699
433.45	44.203
433.80	44.045
434.16	45.248
434.51	45.940
434.86	46.091
435.22	45.749
435.57	45.991
435.92	45.409
436.28	45.222
436.63	46.204
436.98	45.679
437.34	44.983
437.69	45.625
438.04	45.743
438.39	44.744
438.75	45.545
439.10	45.296
439.45	44.271
439.81	45.650
440.16	46.756
440.51	46.878
440.86	45.414
441.22	46.195
441.57	46.541
441.92	45.926
442.27	47.121
442.63	46.448
442.98	46.958
443.33	46.870
443.68	46.630
444.03	47.601
444.39	48.220
444.74	46.656
445.09	46.477
445.44	47.787
445.79	47.797
446.15	47.122
446.50	47.339
446.85	47.519
447.20	47.147
447.55	47.280
447.91	47.958
448.26	47.780
448.61	48.565
448.96	49.356
449.31	47.614
449.66	46.187
450.02	48.418
450.37	48.215
450.72	48.278
451.07	48.064
451.42	48.007
451.77	48.527
452.12	49.041
452.47	46.583
452.83	50.000
453.18	47.869
453.53	48.880
453.88	48.205
454.23	48.418
454.58	48.346
454.93	47.330
455.28	49.187
455.63	48.266
455.98	49.218
456.34	47.055
456.69	48.971
457.04	48.877
457.39	48.947
457.74	49.217
458.09	47.941
458.44	48.922
458.79	48.840
459.14	48.558
459.49	49.123
459.84	48.951
460.19	48.195
460.54	49.233
460.89	49.603
461.24	47.644
461.59	49.142
461.94	47.404
462.29	49.496
462.64	48.159
462.99	49.027
463.34	49.189
463.69	47.538
464.04	48.583
464.39	48.991
464.74	48.860
465.09	48.558
465.44	48.981
465.79	49.656
466.14	48.463
466.49	49.316
466.84	50.138
467.19	48.382
467.54	47.885
467.89	48.621
468.24	48.144
468.59	47.829
468.94	49.009
469.29	48.050
469.64	48.252
469.99	49.076
470.34	49.319
470.68	49.146
471.03	49.640
471.38	49.248
471.73	47.984
472.08	48.921
472.43	48.344
472.78	50.315
473.13	49.494
473.48	49.063
473.83	50.900
474.17	48.242
474.52	50.932
474.87	49.003
475.22	47.718
475.57	48.858
475.92	49.179
476.27	48.083
476.61	47.975
476.96	49.218
477.31	49.158
477.66	50.210
478.01	49.059
478.36	48.056
478.70	49.655
479.05	49.642
479.40	50.691
479.75	49.616
480.10	48.508
480.45	48.541
480.79	48.889
481.14	49.816
481.49	49.750
481.84	49.086
482.19	49.247
482.53	49.104
482.88	49.579
483.23	49.088
483.58	50.087
483.92	49.424
484.27	49.280
484.62	48.309
484.97	49.184
485.31	48.222
485.66	44.585
486.01	45.540
486.36	47.620
486.70	50.514
487.05	53.011
487.40	51.126
487.75	50.229
488.09	49.141
488.44	47.657
488.79	48.702
489.13	47.864
489.48	47.146
489.83	47.606
490.17	48.481
490.52	48.440
490.87	49.112
491.22	49.957
491.56	48.805
491.91	49.455
492.26	49.026
492.60	49.847
492.95	49.320
493.30	49.753
493.64	49.890
493.99	49.167
494.34	49.260
494.68	48.694
495.03	49.471
495.37	50.111
495.72	48.526
496.07	49.255
496.41	48.734
496.76	50.167
497.11	49.597
497.45	48.727
497.80	49.622
498.14	49.342
498.49	49.127
498.84	48.949
499.18	49.483
499.53	49.372
499.87	48.835
500.22	48.664
500.56	49.888
500.91	50.114
501.26	48.682
501.60	48.078
501.95	49.153
502.29	48.662
502.64	50.022
502.98	47.498
503.33	49.071
503.67	48.713
504.02	49.343
504.36	50.447
504.71	49.380
505.06	48.522
505.40	48.309
505.75	48.452
506.09	49.079
506.44	50.139
506.78	49.404
507.13	50.023
507.47	48.934
507.82	48.485
508.16	48.614
508.51	48.570
508.85	49.693
509.19	49.692
509.54	50.288
509.88	49.636
510.23	50.219
510.57	49.831
510.92	49.153
511.26	49.447
511.61	47.851
511.95	49.634
512.30	49.729
512.64	48.776
512.98	49.725
513.33	50.706
513.67	49.516
514.02	50.741
514.36	50.128
514.70	49.635
515.05	49.583
515.39	51.444
515.74	50.424
516.08	49.340
516.42	49.765
516.77	49.527
517.11	49.562
517.46	49.788
517.80	50.828
518.14	50.326
518.49	50.922
518.83	48.590
519.17	49.488
519.52	49.319
519.86	50.422
520.20	49.947
520.55	49.507
520.89	49.831
521.23	49.246
521.58	51.695
521.92	49.802
522.26	49.084
522.61	50.231
522.95	50.923
523.29	50.115
523.64	48.879
523.98	51.512
524.32	51.461
524.66	51.508
525.01	50.623
525.35	49.914
525.69	50.522
526.04	48.680
526.38	49.943
526.72	50.346
527.06	51.085
527.41	49.038
527.75	50.831
528.09	49.941
528.43	50.148
528.78	50.694
529.12	50.631
529.46	49.747
529.80	49.199
530.15	50.203
530.49	50.237
530.83	49.823
531.17	50.000
531.51	49.278
531.86	49.940
532.20	50.915
532.54	50.150
532.88	50.485
533.22	50.383
533.57	49.221
533.91	49.270
534.25	49.237
534.59	51.092
534.93	49.066
535.27	49.859
535.62	50.654
535.96	50.610
536.30	50.823
536.64	50.150
536.98	50.062
537.32	49.691
537.66	49.532
538.01	48.278
538.35	48.538
538.69	49.459
539.03	50.644
539.37	49.176
539.71	50.450
540.05	49.640
540.39	48.778
540.73	49.180
541.07	49.847
541.42	48.907
541.76	48.754
542.10	49.276
542.44	49.086
542.78	49.635
543.12	48.927
543.46	48.596
543.80	48.801
544.14	48.654
544.48	49.350
544.82	49.731
545.16	49.493
545.50	49.251
545.84	48.683
546.18	49.938
546.52	49.172
546.86	49.371
547.20	48.728
547.54	48.377
547.88	49.005
548.22	49.240
548.56	49.854
548.90	50.030
549.24	49.605
549.58	48.707
549.92	48.852
550.26	48.673
550.60	49.394
550.94	49.935
551.28	49.637
551.62	49.596
551.96	48.220
552.30	50.096
552.64	50.031
552.98	49.033
553.32	51.640
553.66	50.482
554.00	49.243
554.34	49.485
554.68	49.903
555.02	48.357
555.36	50.362
555.69	47.470
556.03	48.487
556.37	50.375
556.71	49.778
557.05	50.160
557.39	50.962
557.73	50.661
558.07	49.404
558.41	50.100
558.75	50.169
559.08	50.452
559.42	49.588
559.76	49.389
560.10	49.699
560.44	48.747
560.78	50.500
561.12	49.815
561.45	50.182
561.79	50.122
562.13	48.614
562.47	49.692
562.81	49.241
563.15	50.694
563.48	49.845
563.82	48.791
564.16	49.243
564.50	48.927
564.84	48.968
565.17	49.294
565.51	48.619
565.85	49.228
566.19	49.194
566.52	49.737
566.86	49.236
567.20	48.777
567.54	49.655
567.88	48.522
568.21	49.209
568.55	48.873
568.89	48.979
569.23	48.669
569.56	47.479
569.90	47.220
570.24	47.487
570.57	47.755
570.91	47.306
571.25	46.514
571.59	46.451
571.92	46.162
572.26	46.638
572.60	46.574
572.93	46.090
573.27	45.743
573.61	45.818
573.95	46.031
574.28	46.344
574.62	45.748
574.96	44.839
575.29	44.878
575.63	45.392
575.97	46.587
576.30	46.065
576.64	44.882
576.98	45.558
577.31	46.058
577.65	46.533
577.98	45.463
578.32	45.836
578.66	45.816
578.99	45.853
579.33	45.887
579.67	45.376
580.00	45.381
580.34	45.353
580.67	44.991
581.01	45.500
581.35	44.886
581.68	45.306
582.02	45.130
582.35	46.728
582.69	46.784
583.02	47.113
583.36	46.211
583.70	46.739
584.03	45.068
584.37	45.248
584.70	45.232
585.04	44.594
585.37	45.714
585.71	45.804
586.04	46.103
586.38	45.938
586.72	46.428
587.05	46.559
587.39	46.547
587.72	46.842
588.06	46.543
588.39	46.677
588.73	45.635
589.06	45.993
589.40	47.419
589.73	46.787
590.07	47.016
590.40	47.025
590.73	46.271
591.07	47.506
591.40	47.317
591.74	46.979
592.07	47.747
592.41	46.688
592.74	46.503
593.08	47.420
593.41	47.361
593.75	47.213
594.08	48.076
594.41	47.917
594.75	47.393
595.08	47.847
595.42	48.182
595.75	47.627
596.09	48.119
596.42	47.904
596.75	47.240
597.09	48.000
597.42	47.239
597.75	47.589
598.09	47.540
598.42	48.452
598.76	46.313
599.09	46.031
599.42	46.195
599.76	47.045
600.09	47.314
600.42	46.580
600.76	47.622
601.09	46.664
601.42	47.134
601.76	47.379
602.09	47.284
602.42	46.492
602.76	47.048
603.09	48.568
603.42	48.302
603.76	47.604
604.09	48.155
604.42	47.743
604.76	47.527
605.09	48.584
605.42	47.967
605.75	46.885
606.09	48.003
606.42	46.808
606.75	46.927
607.09	46.774
607.42	46.782
607.75	46.698
608.08	47.316
608.42	46.715
608.75	47.554
609.08	47.496
609.41	47.949
609.75	47.768
610.08	48.681
610.41	48.003
610.74	47.773
611.07	47.025
611.41	47.848
611.74	49.007
612.07	48.013
612.40	48.574
612.73	49.535
613.07	48.215
613.40	48.941
613.73	48.869
614.06	49.019
614.39	48.154
614.72	46.822
615.06	47.257
615.39	47.753
615.72	48.673
616.05	47.790
616.38	49.495
616.71	49.007
617.05	48.988
617.38	48.261
617.71	48.704
618.04	49.865
618.37	48.634
618.70	50.226
619.03	49.582
619.36	49.075
619.69	48.879
620.03	49.906
620.36	50.000
620.69	49.105
621.02	49.803
621.35	52.104
621.68	49.747
622.01	51.744
622.34	50.070
622.67	50.584
623.00	48.988
623.33	50.896
623.66	50.195
623.99	50.165
624.32	50.877
624.65	48.842
624.99	51.170
625.32	50.686
625.65	51.450
625.98	49.763
626.31	50.248
626.64	51.282
626.97	50.938
627.30	50.266
627.63	50.113
627.96	51.877
628.29	49.728
628.62	50.462
628.95	53.725
629.28	51.997
