SpectraSuite Data File
++++++++++++++++++++++++++++++++++++
Date: Thu May 14 15:25:16 PDT 2015
User: schluterlab
Dark Spectrum Present: Yes
Reference Spectrum Present: Yes
Number of Sampled Component Spectra: 1
Spectrometers: USB2E3373
Integration Time (usec): 3000 (USB2E3373)
Spectra Averaged: 3 (USB2E3373)
Boxcar Smoothing: 0 (USB2E3373)
Correct for Electrical Dark: No (USB2E3373)
Strobe/Lamp Enabled: No (USB2E3373)
Correct for Detector Non-linearity: No (USB2E3373)
Correct for Stray Light: No (USB2E3373)
Number of Pixels in Processed Spectrum: 2048
>>>>>Begin Processed Spectral Data<<<<<
178.53	0.000
178.91	628.571
179.29	-5100.000
179.67	-4600.000
180.04	392.857
180.42	480.000
180.80	960.000
181.18	-4400.000
181.56	-4300.000
181.94	1200.000
182.31	-1200.000
182.69	1400.000
183.07	-2350.000
183.45	1175.000
183.83	-750.000
184.20	-1666.667
184.58	5300.000
184.96	-1250.000
185.34	-488.889
185.72	-940.000
186.09	644.444
186.47	2200.000
186.85	1080.000
187.23	-633.333
187.61	-4800.000
187.98	960.000
188.36	1100.000
188.74	-1225.000
189.12	-1600.000
189.49	-287.500
189.87	-662.500
190.25	-522.222
190.63	-840.000
191.00	-577.778
191.38	0.000
191.76	-1400.000
192.14	-883.333
192.51	2150.000
192.89	-700.000
193.27	0.000
193.65	-614.286
194.02	-5300.000
194.40	-671.429
194.78	742.857
195.15	0.000
195.53	-345.455
195.91	0.000
196.29	-1150.000
196.66	-407.692
197.04	-5900.000
197.42	-700.000
197.79	-2550.000
198.17	-675.000
198.55	-771.429
198.92	-488.889
199.30	-637.500
199.68	-409.091
200.05	-342.857
200.43	-2550.000
200.81	671.429
201.18	0.000
201.56	700.000
201.94	0.000
202.31	1833.333
202.69	-544.444
203.07	4700.000
203.44	-544.444
203.82	-1125.000
204.19	-391.667
204.57	-633.333
204.95	-587.500
205.32	-5300.000
205.70	1250.000
206.08	-783.333
206.45	-650.000
206.83	1080.000
207.20	-766.667
207.58	-1140.000
207.96	-883.333
208.33	-683.333
208.71	475.000
209.08	-833.333
209.46	0.000
209.84	916.667
210.21	1900.000
210.59	2500.000
210.96	1833.333
211.34	-1000.000
211.71	-512.500
212.09	-4800.000
212.46	0.000
212.84	2550.000
213.22	-980.000
213.59	-1050.000
213.97	-420.000
214.34	-1666.667
214.72	850.000
215.09	-1025.000
215.47	0.000
215.84	728.571
216.22	2850.000
216.59	-840.000
216.97	-1040.000
217.34	-975.000
217.72	-550.000
218.09	-1275.000
218.47	-1325.000
218.84	0.000
219.22	720.000
219.59	-282.353
219.97	-155.000
220.34	2750.000
220.72	-633.333
221.09	-338.462
221.47	-1433.333
221.84	-410.000
222.22	-785.714
222.59	0.000
222.97	-512.500
223.34	-1160.000
223.72	-4300.000
224.09	-1225.000
224.46	-1400.000
224.84	-940.000
225.21	-657.143
225.59	-1450.000
225.96	-1125.000
226.34	-165.385
226.71	1000.000
227.08	-2250.000
227.46	-326.667
227.83	-1150.000
228.21	-221.053
228.58	675.000
228.95	2500.000
229.33	-308.333
229.70	-530.000
230.08	-168.421
230.45	460.000
230.82	-1300.000
231.20	-271.429
231.57	-350.000
231.95	-472.727
232.32	-336.364
232.69	-215.000
233.07	-1350.000
233.44	-270.588
233.81	-490.000
234.19	-138.889
234.56	-204.545
234.93	-131.034
235.31	-194.737
235.68	-277.778
236.05	-280.000
236.43	-176.923
236.80	-100.000
237.17	-140.741
237.55	-133.333
237.92	-550.000
238.29	-138.710
238.67	-100.000
239.04	-125.000
239.41	-100.000
239.79	-100.000
240.16	-72.222
240.53	-80.435
240.91	-101.961
241.28	-67.213
241.65	-59.701
242.02	-50.000
242.40	-80.000
242.77	-60.000
243.14	-64.634
243.51	-76.316
243.89	-67.949
244.26	-36.634
244.63	-40.196
245.00	-33.645
245.38	-38.596
245.75	-47.788
246.12	-37.302
246.49	-39.535
246.87	-26.429
247.24	-24.503
247.61	-30.921
247.98	-23.490
248.36	-26.543
248.73	-31.902
249.10	-20.219
249.47	-18.408
249.84	-18.325
250.22	-25.389
250.59	-26.111
250.96	-15.000
251.33	-25.000
251.70	-14.103
252.08	-17.917
252.45	-13.934
252.82	-19.008
253.19	-16.406
253.56	-11.787
253.94	-17.692
254.31	-13.258
254.68	-11.538
255.05	-8.469
255.42	-12.245
255.79	-11.003
256.16	-9.603
256.54	-14.570
256.91	-9.180
257.28	-11.803
257.65	-11.783
258.02	-12.094
258.39	-8.262
258.76	-7.034
259.14	-8.908
259.51	-10.086
259.88	-9.915
260.25	-6.667
260.62	-5.205
260.99	-5.464
261.36	-8.043
261.73	-9.284
262.10	-11.538
262.47	-9.383
262.85	-4.040
263.22	-10.390
263.59	-10.526
263.96	-8.440
264.33	-8.951
264.70	-5.679
265.07	-3.341
265.44	-4.762
265.81	-7.176
266.18	-4.082
266.55	-3.348
266.92	-8.200
267.29	-2.407
267.66	-7.761
268.03	-6.550
268.40	-6.263
268.77	-8.428
269.14	-9.471
269.51	-3.947
269.88	-2.869
270.25	-3.622
270.62	-3.797
270.99	-2.222
271.36	-2.376
271.73	-4.322
272.10	-3.607
272.47	-4.810
272.84	-4.016
273.21	-3.607
273.58	-4.435
273.95	-4.231
274.32	-4.373
274.69	-4.836
275.06	-5.311
275.43	-3.882
275.80	-1.940
276.17	-4.815
276.54	-2.985
276.91	-4.651
277.28	-3.074
277.65	-3.950
278.02	-3.860
278.39	-5.978
278.76	-3.515
279.13	-3.191
279.50	-3.265
279.87	-2.683
280.23	-5.810
280.60	-2.542
280.97	-4.605
281.34	-3.226
281.71	-3.046
282.08	-3.322
282.45	-3.601
282.82	-2.826
283.19	-4.523
283.56	-3.279
283.92	-2.102
284.29	-1.896
284.66	-1.478
285.03	-5.288
285.40	-2.473
285.77	-2.941
286.14	-1.221
286.51	-1.522
286.87	-3.476
287.24	-2.861
287.61	-2.392
287.98	-1.360
288.35	-2.515
288.72	-2.515
289.08	-2.928
289.45	-2.663
289.82	-4.518
290.19	-2.299
290.56	-1.549
290.93	-2.710
291.29	-2.755
291.66	-2.479
292.03	-3.664
292.40	-1.497
292.77	-1.752
293.13	-2.436
293.50	-1.445
293.87	-3.221
294.24	-2.133
294.60	-1.643
294.97	-4.161
295.34	-1.793
295.71	-2.648
296.08	-3.488
296.44	-2.083
296.81	-1.705
297.18	-1.743
297.55	-1.297
297.91	-0.830
298.28	-3.199
298.65	-1.427
299.02	-1.771
299.38	-1.030
299.75	-1.636
300.12	-1.505
300.48	-2.419
300.85	-2.137
301.22	-2.237
301.59	-2.968
301.95	-1.695
302.32	-1.667
302.69	-0.876
303.05	-1.632
303.42	-1.774
303.79	-1.042
304.15	-1.472
304.52	-2.008
304.89	-0.628
305.25	-0.621
305.62	-0.418
305.99	-0.825
306.35	-0.504
306.72	-0.827
307.09	-1.624
307.45	-0.725
307.82	-1.615
308.19	-1.312
308.55	0.000
308.92	-0.292
309.29	-0.096
309.65	-1.657
310.02	-1.386
310.38	-1.378
310.75	-0.388
311.12	0.479
311.48	-0.391
311.85	-0.665
312.22	-0.095
312.58	-1.315
312.95	-0.191
313.31	0.452
313.68	0.549
314.05	0.903
314.41	0.638
314.78	-0.182
315.14	0.544
315.51	0.554
315.87	0.810
316.24	0.365
316.61	1.155
316.97	-0.362
317.34	0.794
317.70	1.135
318.07	0.794
318.43	2.296
318.80	2.508
319.16	1.030
319.53	1.457
319.89	0.000
320.26	2.491
320.62	0.443
320.99	1.754
321.35	0.277
321.72	1.860
322.08	1.533
322.45	1.987
322.81	2.708
323.18	2.301
323.54	2.328
323.91	2.847
324.27	3.614
324.64	3.862
325.00	3.648
325.37	3.931
325.73	4.380
326.10	4.866
326.46	4.560
326.83	6.245
327.19	5.433
327.56	5.613
327.92	4.642
328.29	6.129
328.65	5.444
329.01	6.091
329.38	6.740
329.74	7.705
330.11	7.363
330.47	7.077
330.84	7.235
331.20	7.917
331.56	7.886
331.93	7.782
332.29	7.881
332.66	8.389
333.02	7.873
333.38	8.893
333.75	7.407
334.11	8.507
334.48	9.076
334.84	8.071
335.20	8.984
335.57	8.432
335.93	9.752
336.29	8.652
336.66	8.242
337.02	9.365
337.38	10.204
337.75	9.421
338.11	10.513
338.47	9.347
338.84	8.545
339.20	9.183
339.56	8.402
339.93	8.374
340.29	10.467
340.65	9.813
341.02	10.615
341.38	10.348
341.74	9.605
342.11	9.976
342.47	9.134
342.83	10.467
343.20	11.038
343.56	9.703
343.92	9.928
344.28	10.547
344.65	11.163
345.01	9.672
345.37	10.342
345.73	9.119
346.10	10.842
346.46	9.019
346.82	10.262
347.19	9.855
347.55	11.002
347.91	10.030
348.27	10.015
348.63	10.434
349.00	9.993
349.36	9.517
349.72	10.193
350.08	11.144
350.45	10.190
350.81	10.633
351.17	10.000
351.53	10.311
351.89	10.630
352.26	10.746
352.62	10.522
352.98	9.466
353.34	10.007
353.70	10.863
354.07	10.581
354.43	10.023
354.79	10.471
355.15	11.479
355.51	10.526
355.87	8.527
356.24	10.722
356.60	9.978
356.96	10.156
357.32	9.740
357.68	10.688
358.04	10.254
358.40	9.552
358.77	10.015
359.13	10.414
359.49	10.781
359.85	10.950
360.21	11.478
360.57	10.553
360.93	10.367
361.29	10.737
361.66	10.427
362.02	11.830
362.38	11.103
362.74	10.475
363.10	11.279
363.46	10.734
363.82	10.937
364.18	10.345
364.54	11.618
364.90	12.174
365.26	9.793
365.62	11.133
365.98	11.641
366.35	11.074
366.71	11.565
367.07	11.164
367.43	12.081
367.79	11.281
368.15	11.104
368.51	10.825
368.87	11.888
369.23	11.800
369.59	11.544
369.95	11.629
370.31	12.424
370.67	11.554
371.03	13.089
371.39	11.283
371.75	12.311
372.11	11.856
372.47	12.119
372.83	12.893
373.19	13.075
373.55	11.518
373.91	10.498
374.27	11.320
374.63	12.788
374.99	12.135
375.35	12.727
375.71	12.903
376.07	12.460
376.42	12.280
376.78	13.487
377.14	12.477
377.50	12.397
377.86	13.054
378.22	13.653
378.58	13.436
378.94	13.146
379.30	13.298
379.66	13.639
380.02	13.618
380.38	14.171
380.74	13.972
381.09	12.950
381.45	13.864
381.81	14.403
382.17	14.311
382.53	14.035
382.89	14.052
383.25	14.009
383.61	13.831
383.97	14.370
384.32	14.892
384.68	14.037
385.04	15.211
385.40	14.319
385.76	15.299
386.12	14.662
386.48	15.647
386.83	15.614
387.19	14.832
387.55	14.789
387.91	14.669
388.27	15.704
388.62	15.693
388.98	14.664
389.34	14.555
389.70	15.282
390.06	14.861
390.42	15.060
390.77	16.376
391.13	15.258
391.49	16.123
391.85	14.606
392.20	15.362
392.56	16.007
392.92	16.467
393.28	15.865
393.64	15.475
393.99	16.851
394.35	15.829
394.71	16.108
395.07	15.449
395.42	16.562
395.78	15.844
396.14	15.924
396.50	15.499
396.85	16.339
397.21	15.562
397.57	15.489
397.92	15.750
398.28	15.046
398.64	15.217
399.00	15.497
399.35	15.916
399.71	16.087
400.07	16.508
400.42	16.589
400.78	15.451
401.14	15.595
401.49	15.179
401.85	16.163
402.21	16.512
402.57	16.843
402.92	16.135
403.28	15.691
403.63	14.797
403.99	15.736
404.35	15.804
404.70	15.581
405.06	14.783
405.42	15.984
405.77	15.976
406.13	14.803
406.49	15.766
406.84	16.011
407.20	14.701
407.55	14.294
407.91	14.142
408.27	15.312
408.62	15.590
408.98	14.742
409.34	14.018
409.69	15.328
410.05	14.596
410.40	14.849
410.76	15.367
411.11	14.904
411.47	14.681
411.83	14.991
412.18	15.181
412.54	14.938
412.89	14.668
413.25	14.278
413.60	14.589
413.96	15.326
414.31	14.788
414.67	15.086
415.03	14.338
415.38	14.565
415.74	14.905
416.09	15.361
416.45	13.776
416.80	13.892
417.16	14.815
417.51	15.068
417.87	14.776
418.22	14.431
418.58	13.941
418.93	15.658
419.29	14.180
419.64	14.286
420.00	14.303
420.35	15.272
420.71	14.302
421.06	14.204
421.42	15.195
421.77	13.947
422.12	14.482
422.48	14.900
422.83	15.663
423.19	14.748
423.54	14.602
423.90	14.412
424.25	15.040
424.61	13.375
424.96	14.388
425.31	15.552
425.67	14.654
426.02	14.112
426.38	14.294
426.73	14.063
427.09	15.167
427.44	14.855
427.79	14.262
428.15	14.498
428.50	14.551
428.85	14.294
429.21	15.000
429.56	14.857
429.92	14.349
430.27	15.277
430.62	14.851
430.98	14.707
431.33	13.930
431.68	14.607
432.04	15.084
432.39	14.087
432.74	15.068
433.10	14.494
433.45	13.657
433.80	14.592
434.16	14.979
434.51	15.262
434.86	15.255
435.22	15.250
435.57	15.330
435.92	14.802
436.28	14.619
436.63	13.981
436.98	14.868
437.34	14.825
437.69	14.254
438.04	13.802
438.39	14.417
438.75	13.835
439.10	15.381
439.45	14.869
439.81	14.802
440.16	14.370
440.51	14.716
440.86	13.897
441.22	14.255
441.57	14.623
441.92	14.161
442.27	15.404
442.63	15.549
442.98	15.208
443.33	13.940
443.68	16.254
444.03	15.663
444.39	15.534
444.74	15.875
445.09	14.141
445.44	14.489
445.79	15.517
446.15	15.108
446.50	14.315
446.85	14.981
447.20	15.135
447.55	15.272
447.91	14.293
448.26	14.746
448.61	15.250
448.96	15.397
449.31	14.740
449.66	13.780
450.02	14.926
450.37	15.237
450.72	14.370
451.07	14.749
451.42	14.731
451.77	14.564
452.12	15.237
452.47	13.310
452.83	15.146
453.18	14.069
453.53	14.417
453.88	14.633
454.23	14.802
454.58	14.452
454.93	14.017
455.28	14.449
455.63	14.724
455.98	14.358
456.34	14.547
456.69	13.110
457.04	14.362
457.39	14.357
457.74	14.989
458.09	14.662
458.44	14.547
458.79	14.389
459.14	14.053
459.49	14.544
459.84	15.268
460.19	14.659
460.54	14.026
460.89	14.611
461.24	13.506
461.59	15.329
461.94	13.520
462.29	14.446
462.64	14.062
462.99	14.438
463.34	13.628
463.69	13.716
464.04	14.564
464.39	14.350
464.74	13.683
465.09	13.668
465.44	13.573
465.79	14.648
466.14	14.018
466.49	13.211
466.84	14.105
467.19	14.046
467.54	13.337
467.89	13.103
468.24	13.241
468.59	12.623
468.94	12.937
469.29	13.437
469.64	13.350
469.99	13.830
470.34	12.624
470.68	12.577
471.03	13.556
471.38	13.931
471.73	13.004
472.08	12.817
472.43	13.305
472.78	12.846
473.13	13.274
473.48	14.260
473.83	13.581
474.17	13.834
474.52	13.289
474.87	13.455
475.22	13.296
475.57	13.240
475.92	12.992
476.27	14.483
476.61	14.123
476.96	13.034
477.31	13.465
477.66	14.113
478.01	13.116
478.36	13.659
478.70	13.596
479.05	13.139
479.40	13.623
479.75	13.353
480.10	13.122
480.45	13.765
480.79	13.424
481.14	14.108
481.49	14.221
481.84	14.012
482.19	13.591
482.53	14.123
482.88	13.425
483.23	13.517
483.58	13.493
483.92	12.589
484.27	13.463
484.62	12.624
484.97	13.491
485.31	12.777
485.66	12.935
486.01	12.946
486.36	13.623
486.70	14.740
487.05	15.353
487.40	14.743
487.75	14.606
488.09	14.258
488.44	13.625
488.79	13.558
489.13	12.925
489.48	12.738
489.83	12.555
490.17	12.677
490.52	13.218
490.87	13.579
491.22	12.955
491.56	13.652
491.91	13.389
492.26	13.198
492.60	12.812
492.95	13.339
493.30	13.088
493.64	12.703
493.99	13.333
494.34	12.413
494.68	12.805
495.03	13.172
495.37	12.872
495.72	13.016
496.07	13.234
496.41	12.098
496.76	12.719
497.11	13.291
497.45	12.905
497.80	13.861
498.14	12.744
498.49	12.868
498.84	13.346
499.18	12.326
499.53	13.318
499.87	13.319
500.22	12.110
500.56	12.731
500.91	12.815
501.26	12.636
501.60	12.064
501.95	12.419
502.29	12.944
502.64	13.249
502.98	12.813
503.33	12.743
503.67	12.516
504.02	12.259
504.36	13.047
504.71	12.678
505.06	13.142
505.40	13.117
505.75	12.295
506.09	12.339
506.44	12.999
506.78	12.706
507.13	12.863
507.47	12.980
507.82	12.405
508.16	11.902
508.51	11.814
508.85	12.565
509.19	12.743
509.54	13.256
509.88	12.336
510.23	12.579
510.57	13.050
510.92	12.675
511.26	12.169
511.61	12.265
511.95	12.103
512.30	12.605
512.64	12.144
512.98	12.156
513.33	12.752
513.67	12.953
514.02	11.804
514.36	12.583
514.70	12.188
515.05	13.399
515.39	12.441
515.74	12.460
516.08	12.309
516.42	12.611
516.77	11.725
517.11	11.913
517.46	12.248
517.80	12.614
518.14	12.731
518.49	12.798
518.83	12.400
519.17	11.524
519.52	12.579
519.86	13.252
520.20	12.673
520.55	12.651
520.89	11.599
521.23	11.781
521.58	12.599
521.92	12.125
522.26	12.371
522.61	11.690
522.95	11.476
523.29	11.954
523.64	12.108
523.98	12.094
524.32	12.206
524.66	11.668
525.01	11.948
525.35	11.488
525.69	11.601
526.04	12.113
526.38	12.299
526.72	12.226
527.06	11.906
527.41	12.595
527.75	11.758
528.09	11.924
528.43	12.137
528.78	11.850
529.12	11.411
529.46	11.636
529.80	12.243
530.15	11.768
530.49	11.091
530.83	12.692
531.17	12.007
531.51	11.793
531.86	11.659
532.20	12.744
532.54	11.670
532.88	11.576
533.22	12.610
533.57	11.079
533.91	11.953
534.25	12.041
534.59	12.184
534.93	11.658
535.27	11.211
535.62	12.280
535.96	11.679
536.30	12.221
536.64	11.532
536.98	12.239
537.32	11.728
537.66	11.354
538.01	11.239
538.35	10.353
538.69	10.757
539.03	11.711
539.37	11.661
539.71	11.532
540.05	11.271
540.39	10.513
540.73	10.990
541.07	11.465
541.42	11.636
541.76	11.922
542.10	11.158
542.44	10.840
542.78	11.071
543.12	11.383
543.46	10.867
543.80	10.851
544.14	10.892
544.48	11.170
544.82	11.849
545.16	12.105
545.50	10.965
545.84	10.778
546.18	11.667
546.52	11.083
546.86	11.069
547.20	11.069
547.54	11.798
547.88	11.212
548.22	10.760
548.56	10.123
548.90	11.224
549.24	11.003
549.58	10.915
549.92	10.714
550.26	11.262
550.60	11.168
550.94	10.867
551.28	11.485
551.62	11.186
551.96	10.809
552.30	11.472
552.64	11.014
552.98	10.730
553.32	12.347
553.66	10.611
554.00	11.349
554.34	11.197
554.68	10.458
555.02	10.972
555.36	11.769
555.69	10.698
556.03	10.088
556.37	11.264
556.71	11.160
557.05	11.693
557.39	10.086
557.73	11.030
558.07	10.066
558.41	11.761
558.75	10.751
559.08	11.134
559.42	10.905
559.76	11.262
560.10	10.315
560.44	10.950
560.78	10.938
561.12	10.591
561.45	11.436
561.79	11.233
562.13	11.583
562.47	10.419
562.81	11.962
563.15	10.480
563.48	12.057
563.82	11.366
564.16	10.055
564.50	10.667
564.84	10.737
565.17	10.647
565.51	10.759
565.85	10.629
566.19	10.369
566.52	10.532
566.86	11.092
567.20	10.875
567.54	10.940
567.88	11.111
568.21	11.907
568.55	10.791
568.89	11.802
569.23	11.745
569.56	11.801
569.90	11.618
570.24	11.298
570.57	11.033
570.91	11.206
571.25	10.992
571.59	11.495
571.92	11.221
572.26	11.488
572.60	11.220
572.93	11.522
573.27	11.492
573.61	11.143
573.95	10.925
574.28	11.212
574.62	11.369
574.96	11.138
575.29	11.214
575.63	11.273
575.97	11.042
576.30	11.374
576.64	11.119
576.98	11.230
577.31	11.410
577.65	11.391
577.98	11.182
578.32	10.829
578.66	11.270
578.99	11.182
579.33	11.516
579.67	11.333
580.00	11.238
580.34	11.518
580.67	10.989
581.01	10.948
581.35	11.085
581.68	11.127
582.02	11.384
582.35	11.378
582.69	11.700
583.02	11.886
583.36	11.440
583.70	11.406
584.03	11.039
584.37	11.034
584.70	10.587
585.04	10.951
585.37	11.202
585.71	11.003
586.04	10.920
586.38	11.212
586.72	11.106
587.05	10.642
587.39	11.169
587.72	11.316
588.06	10.953
588.39	11.402
588.73	11.058
589.06	11.230
589.40	10.695
589.73	10.765
590.07	11.074
590.40	11.325
590.73	10.781
591.07	11.281
591.40	10.614
591.74	10.493
592.07	11.652
592.41	10.371
592.74	11.111
593.08	10.987
593.41	11.315
593.75	10.891
594.08	11.269
594.41	10.994
594.75	11.093
595.08	10.969
595.42	11.039
595.75	11.204
596.09	10.810
596.42	10.964
596.75	11.077
597.09	10.869
597.42	10.648
597.75	10.545
598.09	11.230
598.42	11.379
598.76	10.929
599.09	10.573
599.42	10.929
599.76	10.499
600.09	10.911
600.42	10.244
600.76	10.502
601.09	10.919
601.42	10.093
601.76	11.034
602.09	10.436
602.42	10.433
602.76	10.627
603.09	10.463
603.42	10.910
603.76	10.641
604.09	11.498
604.42	10.936
604.76	10.426
605.09	10.890
605.42	10.407
605.75	10.192
606.09	10.713
606.42	10.361
606.75	10.345
607.09	10.177
607.42	10.751
607.75	10.512
608.08	11.089
608.42	9.391
608.75	10.614
609.08	10.441
609.41	10.543
609.75	10.312
610.08	10.598
610.41	10.620
610.74	10.756
611.07	10.080
611.41	10.852
611.74	10.485
612.07	10.753
612.40	10.219
612.73	10.709
613.07	10.513
613.40	10.683
613.73	10.063
614.06	10.991
614.39	9.815
614.72	9.850
615.06	10.058
615.39	10.391
615.72	10.427
616.05	10.539
616.38	10.494
616.71	10.136
617.05	9.531
617.38	10.433
617.71	10.853
618.04	11.171
618.37	10.656
618.70	9.898
619.03	10.215
619.36	9.679
619.69	11.019
620.03	10.923
620.36	9.509
620.69	9.500
621.02	10.761
621.35	9.652
621.68	10.340
622.01	10.249
622.34	9.344
622.67	9.003
623.00	8.300
623.33	10.219
623.66	10.182
623.99	9.743
624.32	10.721
624.65	9.717
624.99	10.338
625.32	10.516
625.65	10.249
625.98	10.780
626.31	9.993
626.64	10.842
626.97	9.977
627.30	9.112
627.63	9.827
627.96	10.736
628.29	9.572
628.62	9.572
628.95	9.115
629.28	8.411
629.61	9.512
629.94	8.368
630.26	9.153
630.59	9.672
630.92	9.091
