SpectraSuite Data File
++++++++++++++++++++++++++++++++++++
Date: Thu May 14 15:19:26 PDT 2015
User: schluterlab
Dark Spectrum Present: Yes
Reference Spectrum Present: Yes
Number of Sampled Component Spectra: 1
Spectrometers: USB2E3373
Integration Time (usec): 3000 (USB2E3373)
Spectra Averaged: 3 (USB2E3373)
Boxcar Smoothing: 0 (USB2E3373)
Correct for Electrical Dark: No (USB2E3373)
Strobe/Lamp Enabled: No (USB2E3373)
Correct for Detector Non-linearity: No (USB2E3373)
Correct for Stray Light: No (USB2E3373)
Number of Pixels in Processed Spectrum: 2048
>>>>>Begin Processed Spectral Data<<<<<
178.53	0.000
178.91	614.286
179.29	-4700.000
179.67	-4600.000
180.04	392.857
180.42	430.000
180.80	1000.000
181.18	-4100.000
181.56	-3400.000
181.94	1000.000
182.31	-1100.000
182.69	1300.000
183.07	-1900.000
183.45	1025.000
183.83	-483.333
184.20	-1333.333
184.58	4100.000
184.96	-1250.000
185.34	-500.000
185.72	-740.000
186.09	488.889
186.47	2250.000
186.85	980.000
187.23	-533.333
187.61	-4600.000
187.98	980.000
188.36	1275.000
188.74	-1075.000
189.12	-1100.000
189.49	-143.750
189.87	-550.000
190.25	-444.444
190.63	-900.000
191.00	-522.222
191.38	0.000
191.76	-1125.000
192.14	-633.333
192.51	1500.000
192.89	-550.000
193.27	0.000
193.65	-542.857
194.02	-4800.000
194.40	-542.857
194.78	685.714
195.15	0.000
195.53	-327.273
195.91	0.000
196.29	-875.000
196.66	-253.846
197.04	-3800.000
197.42	-471.429
197.79	-1900.000
198.17	-475.000
198.55	-628.571
198.92	-400.000
199.30	-637.500
199.68	-318.182
200.05	-257.143
200.43	-2250.000
200.81	814.286
201.18	0.000
201.56	466.667
201.94	0.000
202.31	1700.000
202.69	-466.667
203.07	3800.000
203.44	-400.000
203.82	-900.000
204.19	-308.333
204.57	-766.667
204.95	-487.500
205.32	-4500.000
205.70	975.000
206.08	-633.333
206.45	-583.333
206.83	940.000
207.20	-650.000
207.58	-880.000
207.96	-866.667
208.33	-500.000
208.71	358.333
209.08	-516.667
209.46	0.000
209.84	916.667
210.21	2350.000
210.59	1900.000
210.96	1333.333
211.34	-725.000
211.71	-525.000
212.09	-4600.000
212.46	0.000
212.84	1800.000
213.22	-800.000
213.59	-850.000
213.97	-380.000
214.34	-1433.333
214.72	700.000
215.09	-925.000
215.47	0.000
215.84	642.857
216.22	1850.000
216.59	-560.000
216.97	-640.000
217.34	-1200.000
217.72	-475.000
218.09	-1125.000
218.47	-1050.000
218.84	0.000
219.22	840.000
219.59	-194.118
219.97	-190.000
220.34	1900.000
220.72	-522.222
221.09	-269.231
221.47	-1200.000
221.84	-350.000
222.22	-642.857
222.59	0.000
222.97	-462.500
223.34	-900.000
223.72	-3700.000
224.09	-950.000
224.46	-1050.000
224.84	-660.000
225.21	-471.429
225.59	-1150.000
225.96	-975.000
226.34	-126.923
226.71	800.000
227.08	-2250.000
227.46	-260.000
227.83	-1100.000
228.21	-142.105
228.58	625.000
228.95	2200.000
229.33	-258.333
229.70	-470.000
230.08	-142.105
230.45	450.000
230.82	-1333.333
231.20	-285.714
231.57	-283.333
231.95	-454.545
232.32	-354.545
232.69	-160.000
233.07	-875.000
233.44	-270.588
233.81	-390.000
234.19	-200.000
234.56	-159.091
234.93	-86.207
235.31	-168.421
235.68	-205.556
236.05	-225.000
236.43	-107.692
236.80	-92.000
237.17	-118.519
237.55	-78.788
237.92	-380.000
238.29	-100.000
238.67	-68.182
239.04	-63.889
239.41	-66.667
239.79	-52.174
240.16	-40.741
240.53	-60.870
240.91	-45.098
241.28	-42.623
241.65	-5.970
242.02	-9.459
242.40	-23.077
242.77	-18.667
243.14	-14.634
243.51	-27.632
243.89	-20.513
244.26	1.980
244.63	-10.784
245.00	4.673
245.38	4.386
245.75	-5.310
246.12	5.556
246.49	5.426
246.87	13.571
247.24	13.245
247.61	7.895
247.98	10.738
248.36	14.198
248.73	3.681
249.10	12.568
249.47	17.413
249.84	13.613
250.22	13.472
250.59	14.444
250.96	22.273
251.33	14.796
251.70	16.239
252.08	21.667
252.45	24.180
252.82	21.074
253.19	23.047
253.56	22.433
253.94	22.308
254.31	23.106
254.68	26.224
255.05	27.036
255.42	19.728
255.79	20.712
256.16	23.841
256.54	24.172
256.91	23.607
257.28	21.967
257.65	20.064
258.02	26.549
258.39	24.786
258.76	29.969
259.14	29.598
259.51	25.360
259.88	24.079
260.25	21.667
260.62	23.562
260.99	28.689
261.36	24.933
261.73	24.403
262.10	28.846
262.47	25.469
262.85	30.303
263.22	25.455
263.59	25.789
263.96	28.133
264.33	25.320
264.70	29.630
265.07	28.640
265.44	30.385
265.81	28.472
266.18	27.438
266.55	31.250
266.92	29.613
267.29	29.322
267.66	31.707
268.03	29.258
268.40	29.019
268.77	27.563
269.14	28.194
269.51	30.263
269.88	27.664
270.25	27.163
270.62	31.224
270.99	29.293
271.36	29.109
271.73	27.505
272.10	29.058
272.47	30.661
272.84	29.116
273.21	29.659
273.58	31.855
273.95	26.923
274.32	27.567
274.69	29.594
275.06	28.388
275.43	27.172
275.80	29.630
276.17	27.037
276.54	25.560
276.91	29.159
277.28	28.391
277.65	29.982
278.02	28.676
278.39	28.804
278.76	29.877
279.13	30.674
279.50	28.351
279.87	28.801
280.23	26.232
280.60	31.186
280.97	28.947
281.34	28.014
281.71	29.949
282.08	28.239
282.45	29.787
282.82	26.845
283.19	27.787
283.56	28.033
283.92	30.631
284.29	28.278
284.66	29.392
285.03	24.840
285.40	29.985
285.77	29.567
286.14	29.008
286.51	28.158
286.87	27.646
287.24	30.120
287.61	27.952
287.98	28.852
288.35	28.994
288.72	26.183
289.08	28.990
289.45	26.036
289.82	26.657
290.19	27.299
290.56	24.648
290.93	26.676
291.29	26.997
291.66	24.105
292.03	24.423
292.40	25.578
292.77	25.606
293.13	24.493
293.50	24.179
293.87	24.161
294.24	24.800
294.60	23.135
294.97	23.490
295.34	25.352
295.71	21.816
296.08	23.256
296.44	25.000
296.81	22.168
297.18	21.295
297.55	22.288
297.91	24.199
298.28	21.327
298.65	24.257
299.02	22.550
299.38	23.455
299.75	21.729
300.12	22.338
300.48	23.387
300.85	22.610
301.22	21.588
301.59	23.744
301.95	22.825
302.32	23.222
302.69	21.249
303.05	21.872
303.42	22.284
303.79	21.771
304.15	21.556
304.52	20.930
304.89	21.361
305.25	22.774
305.62	20.690
305.99	21.959
306.35	21.472
306.72	21.820
307.09	21.117
307.45	21.222
307.82	20.787
308.19	21.998
308.55	21.119
308.92	21.130
309.29	21.264
309.65	21.735
310.02	20.891
310.38	21.457
310.75	21.262
311.12	21.956
311.48	21.114
311.85	21.747
312.22	21.632
312.58	21.408
312.95	21.893
313.31	21.771
313.68	20.513
314.05	22.132
314.41	21.220
314.78	21.889
315.14	22.686
315.51	20.591
315.87	20.612
316.24	22.192
316.61	23.091
316.97	21.176
317.34	21.781
317.70	23.581
318.07	21.781
318.43	22.279
318.80	23.244
319.16	23.691
319.53	20.651
319.89	22.349
320.26	22.598
320.62	21.631
320.99	22.530
321.35	21.996
321.72	23.535
322.08	22.092
322.45	21.680
322.81	23.014
323.18	23.274
323.54	23.190
323.91	23.577
324.27	22.547
324.64	23.762
325.00	22.471
325.37	22.850
325.73	22.810
326.10	22.628
326.46	24.349
326.83	23.699
327.19	24.016
327.56	23.953
327.92	23.918
328.29	23.548
328.65	22.948
329.01	23.012
329.38	22.831
329.74	23.459
330.11	23.288
330.47	23.673
330.84	23.859
331.20	23.083
331.56	23.830
331.93	24.519
332.29	22.712
332.66	23.505
333.02	22.446
333.38	22.651
333.75	23.485
334.11	23.686
334.48	22.772
334.84	23.534
335.20	23.762
335.57	23.862
335.93	23.058
336.29	22.130
336.66	23.381
337.02	23.411
337.38	23.299
337.75	22.893
338.11	23.549
338.47	24.648
338.84	24.027
339.20	22.409
339.56	24.053
339.93	22.578
340.29	23.913
340.65	23.277
341.02	23.943
341.38	23.363
341.74	22.599
342.11	23.411
342.47	22.081
342.83	24.477
343.20	23.876
343.56	23.978
343.92	24.420
344.28	22.813
344.65	24.264
345.01	23.557
345.37	23.095
345.73	23.539
346.10	23.713
346.46	23.101
346.82	23.970
347.19	22.995
347.55	23.900
347.91	23.997
348.27	23.217
348.63	23.153
349.00	23.639
349.36	22.974
349.72	23.214
350.08	23.477
350.45	23.954
350.81	22.549
351.17	23.684
351.53	24.261
351.89	23.538
352.26	23.433
352.62	23.507
352.98	23.893
353.34	22.928
353.70	23.960
354.07	23.249
354.43	22.931
354.79	22.588
355.15	22.443
355.51	23.684
355.87	22.064
356.24	23.574
356.60	21.729
356.96	23.277
357.32	23.048
357.68	22.328
358.04	22.231
358.40	23.433
358.77	24.488
359.13	23.781
359.49	21.859
359.85	24.003
360.21	23.745
360.57	23.187
360.93	22.003
361.29	23.439
361.66	22.882
362.02	23.939
362.38	23.542
362.74	22.975
363.10	23.865
363.46	23.546
363.82	24.361
364.18	23.505
364.54	23.306
364.90	24.615
365.26	22.966
365.62	23.933
365.98	24.370
366.35	23.826
366.71	24.014
367.07	24.019
367.43	23.835
367.79	23.623
368.15	24.348
368.51	23.951
368.87	23.057
369.23	22.733
369.59	24.522
369.95	24.003
370.31	23.633
370.67	24.209
371.03	24.377
371.39	23.439
371.75	23.796
372.11	25.203
372.47	22.546
372.83	24.018
373.19	24.483
373.55	23.103
373.91	23.313
374.27	24.191
374.63	23.951
374.99	23.873
375.35	23.896
375.71	23.871
376.07	23.564
376.42	24.874
376.78	23.990
377.14	23.706
377.50	23.403
377.86	24.877
378.22	24.850
378.58	23.662
378.94	24.413
379.30	24.663
379.66	24.868
380.02	25.159
380.38	25.518
380.74	24.676
381.09	24.506
381.45	24.659
381.81	25.351
382.17	25.891
382.53	25.439
382.89	24.944
383.25	24.443
383.61	25.058
383.97	24.676
384.32	25.478
384.68	25.232
385.04	26.316
385.40	25.575
385.76	26.260
386.12	24.536
386.48	25.000
386.83	26.639
387.19	23.928
387.55	24.296
387.91	24.600
388.27	24.769
388.62	25.601
388.98	24.817
389.34	25.987
389.70	25.799
390.06	25.044
390.42	25.723
390.77	26.129
391.13	25.646
391.49	25.000
391.85	24.909
392.20	26.335
392.56	25.753
392.92	25.954
393.28	26.202
393.64	26.034
393.99	26.438
394.35	25.935
394.71	25.808
395.07	25.449
395.42	25.528
395.78	25.777
396.14	25.668
396.50	25.594
396.85	25.581
397.21	25.325
397.57	25.795
397.92	25.773
398.28	25.204
398.64	24.828
399.00	25.288
399.35	26.911
399.71	26.304
400.07	25.997
400.42	26.251
400.78	25.579
401.14	25.384
401.49	25.128
401.85	26.570
402.21	26.014
402.57	26.819
402.92	25.946
403.28	25.410
403.63	24.761
403.99	25.059
404.35	24.787
404.70	25.382
405.06	25.380
405.42	26.054
405.77	25.845
406.13	26.526
406.49	25.056
406.84	26.759
407.20	25.880
407.55	26.469
407.91	26.336
408.27	24.853
408.62	26.062
408.98	25.885
409.34	24.223
409.69	25.834
410.05	26.260
410.40	25.986
410.76	25.407
411.11	26.417
411.47	26.229
411.83	25.750
412.18	26.988
412.54	25.667
412.89	26.077
413.25	26.185
413.60	26.192
413.96	26.049
414.31	25.552
414.67	25.939
415.03	26.215
415.38	25.977
415.74	25.596
416.09	26.218
416.45	25.172
416.80	24.847
417.16	25.096
417.51	25.592
417.87	25.751
418.22	26.527
418.58	25.527
418.93	26.601
419.29	25.647
419.64	25.870
420.00	25.579
420.35	26.390
420.71	26.766
421.06	25.704
421.42	26.204
421.77	26.171
422.12	25.740
422.48	26.779
422.83	27.108
423.19	26.525
423.54	27.268
423.90	26.670
424.25	26.720
424.61	26.177
424.96	26.689
425.31	26.805
425.67	26.731
426.02	26.010
426.38	26.693
426.73	27.176
427.09	27.855
427.44	26.434
427.79	26.092
428.15	26.084
428.50	25.955
428.85	26.234
429.21	27.181
429.56	26.555
429.92	26.486
430.27	26.892
430.62	26.820
430.98	27.349
431.33	27.468
431.68	27.107
432.04	27.933
432.39	26.192
432.74	27.740
433.10	27.204
433.45	26.477
433.80	25.912
434.16	27.169
434.51	27.492
434.86	28.013
435.22	27.790
435.57	28.479
435.92	27.657
436.28	28.214
436.63	27.963
436.98	27.697
437.34	27.452
437.69	27.023
438.04	27.499
438.39	27.455
438.75	27.449
439.10	28.541
439.45	27.837
439.81	27.514
440.16	27.453
440.51	27.703
440.86	27.738
441.22	26.313
441.57	28.407
441.92	27.449
442.27	28.535
442.63	27.571
442.98	28.228
443.33	28.143
443.68	29.187
444.03	28.975
444.39	29.589
444.74	28.178
445.09	27.927
445.44	28.767
445.79	28.927
446.15	29.291
446.50	27.959
446.85	28.405
447.20	28.482
447.55	28.609
447.91	29.424
448.26	28.171
448.61	28.587
448.96	29.936
449.31	27.466
449.66	27.887
450.02	28.112
450.37	28.663
450.72	28.633
451.07	28.474
451.42	28.134
451.77	28.738
452.12	29.176
452.47	29.531
452.83	29.279
453.18	28.897
453.53	28.145
453.88	28.382
454.23	29.040
454.58	28.961
454.93	27.852
455.28	28.477
455.63	28.198
455.98	28.715
456.34	28.504
456.69	28.689
457.04	29.669
457.39	28.714
457.74	29.251
458.09	28.281
458.44	28.933
458.79	28.571
459.14	28.998
459.49	29.881
459.84	28.646
460.19	28.207
460.54	29.585
460.89	29.169
461.24	28.276
461.59	28.390
461.94	28.123
462.29	29.507
462.64	29.572
462.99	28.500
463.34	29.072
463.69	28.957
464.04	30.072
464.39	28.195
464.74	28.734
465.09	28.316
465.44	29.077
465.79	29.455
466.14	28.973
466.49	29.421
466.84	29.697
467.19	29.249
467.54	28.320
467.89	28.851
468.24	28.532
468.59	28.083
468.94	27.914
469.29	28.674
469.64	28.290
469.99	29.955
470.34	28.713
470.68	29.802
471.03	29.535
471.38	28.188
471.73	28.869
472.08	29.061
472.43	29.019
472.78	29.786
473.13	28.571
473.48	29.547
473.83	29.600
474.17	29.836
474.52	29.886
474.87	28.959
475.22	29.690
475.57	29.855
475.92	29.418
476.27	29.659
476.61	30.270
476.96	28.989
477.31	30.099
477.66	30.115
478.01	29.792
478.36	29.811
478.70	29.901
479.05	30.317
479.40	30.652
479.75	30.163
480.10	29.275
480.45	30.720
480.79	31.293
481.14	30.515
481.49	29.623
481.84	30.896
482.19	30.538
482.53	31.526
482.88	31.369
483.23	31.258
483.58	30.349
483.92	30.142
484.27	31.245
484.62	29.455
484.97	30.288
485.31	29.989
485.66	27.572
486.01	27.553
486.36	29.818
486.70	31.712
487.05	33.380
487.40	33.364
487.75	32.214
488.09	32.122
488.44	30.795
488.79	30.691
489.13	30.159
489.48	30.058
489.83	30.382
490.17	30.498
490.52	30.378
490.87	29.569
491.22	30.719
491.56	29.949
491.91	30.484
492.26	31.112
492.60	29.646
492.95	32.295
493.30	30.345
493.64	30.442
493.99	29.825
494.34	30.444
494.68	30.321
495.03	31.410
495.37	30.937
495.72	31.293
496.07	31.069
496.41	29.558
496.76	30.192
497.11	31.253
497.45	30.988
497.80	31.275
498.14	31.111
498.49	30.239
498.84	30.347
499.18	30.859
499.53	30.852
499.87	30.418
500.22	30.232
500.56	30.904
500.91	31.716
501.26	31.773
501.60	30.623
501.95	30.569
502.29	31.637
502.64	30.520
502.98	30.544
503.33	30.410
503.67	30.440
504.02	31.086
504.36	31.412
504.71	31.649
505.06	31.105
505.40	31.216
505.75	31.193
506.09	30.939
506.44	32.219
506.78	31.284
507.13	31.351
507.47	31.881
507.82	31.392
508.16	31.405
508.51	31.083
508.85	32.121
509.19	32.023
509.54	31.556
509.88	31.083
510.23	32.006
510.57	31.561
510.92	31.398
511.26	30.832
511.61	31.000
511.95	31.772
512.30	31.856
512.64	31.334
512.98	31.816
513.33	32.208
513.67	31.413
514.02	32.345
514.36	31.458
514.70	32.344
515.05	32.325
515.39	32.546
515.74	33.086
516.08	32.224
516.42	33.647
516.77	32.702
517.11	31.408
517.46	32.609
517.80	32.336
518.14	32.862
518.49	31.725
518.83	32.358
519.17	31.449
519.52	32.128
519.86	33.316
520.20	31.896
520.55	33.352
520.89	33.559
521.23	32.942
521.58	32.316
521.92	32.408
522.26	32.073
522.61	33.160
522.95	32.584
523.29	31.839
523.64	33.184
523.98	33.542
524.32	33.868
524.66	33.125
525.01	32.786
525.35	32.108
525.69	32.251
526.04	32.606
526.38	32.874
526.72	32.987
527.06	32.845
527.41	32.595
527.75	32.720
528.09	32.645
528.43	33.333
528.78	32.543
529.12	33.200
529.46	33.052
529.80	33.410
530.15	32.928
530.49	33.689
530.83	33.648
531.17	32.198
531.51	32.671
531.86	33.173
532.20	33.415
532.54	32.496
532.88	33.455
533.22	32.233
533.57	31.910
533.91	31.930
534.25	31.430
534.59	33.218
534.93	32.937
535.27	33.239
535.62	33.201
535.96	33.527
536.30	33.255
536.64	33.153
536.98	32.964
537.32	33.889
537.66	33.500
538.01	31.964
538.35	32.339
538.69	32.752
539.03	33.354
539.37	32.980
539.71	33.574
540.05	33.693
540.39	32.641
540.73	32.908
541.07	32.434
541.42	32.191
541.76	32.503
542.10	32.750
542.44	31.730
542.78	32.968
543.12	31.943
543.46	33.394
543.80	32.134
544.14	31.179
544.48	33.097
544.82	33.333
545.16	33.631
545.50	33.313
545.84	33.068
546.18	33.580
546.52	33.439
546.86	32.704
547.20	33.015
547.54	33.396
547.88	32.248
548.22	33.099
548.56	32.475
548.90	33.373
549.24	33.131
549.58	33.312
549.92	33.036
550.26	32.751
550.60	33.057
550.94	33.506
551.28	31.485
551.62	33.827
551.96	31.780
552.30	32.696
552.64	32.607
552.98	33.999
553.32	32.990
553.66	33.505
554.00	33.165
554.34	32.690
554.68	33.183
555.02	32.523
555.36	34.517
555.69	31.967
556.03	31.967
556.37	33.041
556.71	33.037
557.05	33.419
557.39	33.378
557.73	33.289
558.07	33.113
558.41	33.023
558.75	32.928
559.08	34.308
559.42	32.990
559.76	32.904
560.10	33.155
560.44	33.311
560.78	33.312
561.12	33.867
561.45	33.151
561.79	32.845
562.13	33.888
562.47	32.922
562.81	32.911
563.15	33.396
563.48	32.691
563.82	33.495
564.16	32.707
564.50	32.122
564.84	33.156
565.17	32.941
565.51	33.774
565.85	32.838
566.19	31.855
566.52	32.709
566.86	33.390
567.20	32.191
567.54	33.139
567.88	33.231
568.21	33.152
568.55	33.525
568.89	33.591
569.23	32.784
569.56	33.216
569.90	32.537
570.24	33.221
570.57	33.258
570.91	32.823
571.25	32.398
571.59	32.313
571.92	32.916
572.26	33.086
572.60	33.716
572.93	33.176
573.27	32.931
573.61	32.583
573.95	32.217
574.28	32.422
574.62	32.765
574.96	31.628
575.29	32.144
575.63	32.779
575.97	33.222
576.30	32.445
576.64	32.570
576.98	32.301
577.31	32.413
577.65	32.872
577.98	32.511
578.32	32.101
578.66	32.737
578.99	33.135
579.33	33.081
579.67	33.137
580.00	32.884
580.34	32.744
580.67	32.193
581.01	32.475
581.35	31.794
581.68	31.837
582.02	31.726
582.35	32.785
582.69	33.390
583.02	33.583
583.36	33.539
583.70	33.288
584.03	33.813
584.37	33.004
584.70	32.225
585.04	32.248
585.37	32.280
585.71	32.535
586.04	32.078
586.38	32.776
586.72	32.439
587.05	32.540
587.39	32.735
587.72	33.230
588.06	33.051
588.39	33.209
588.73	32.593
589.06	33.183
589.40	33.989
589.73	33.162
590.07	33.720
590.40	32.860
590.73	33.157
591.07	33.246
591.40	32.232
591.74	33.068
592.07	33.293
592.41	32.532
592.74	32.694
593.08	32.707
593.41	32.517
593.75	32.845
594.08	33.778
594.41	33.526
594.75	33.344
595.08	33.143
595.42	33.669
595.75	32.580
596.09	34.124
596.42	33.680
596.75	33.732
597.09	34.303
597.42	32.817
597.75	32.575
598.09	32.500
598.42	33.655
598.76	32.136
599.09	32.396
599.42	31.646
599.76	32.354
600.09	33.300
600.42	32.566
600.76	33.719
601.09	33.024
601.42	33.093
601.76	33.310
602.09	32.952
602.42	32.752
602.76	33.026
603.09	33.003
603.42	33.345
603.76	32.946
604.09	33.854
604.42	32.734
604.76	32.725
605.09	33.387
605.42	32.974
605.75	33.231
606.09	32.811
606.42	32.652
606.75	32.009
607.09	32.028
607.42	32.948
607.75	32.474
608.08	32.715
608.42	32.044
608.75	33.458
609.08	32.470
609.41	33.127
609.75	32.723
610.08	33.553
610.41	32.073
610.74	32.689
611.07	33.348
611.41	33.857
611.74	33.672
612.07	33.006
612.40	33.032
612.73	32.958
613.07	32.861
613.40	33.157
613.73	32.451
614.06	32.974
614.39	32.070
614.72	32.994
615.06	32.579
615.39	32.431
615.72	32.512
616.05	32.734
616.38	33.905
616.71	33.333
617.05	32.801
617.38	32.959
617.71	33.477
618.04	32.974
618.37	32.678
618.70	33.710
619.03	32.378
619.36	32.367
619.69	32.287
620.03	33.019
620.36	31.902
620.69	32.943
621.02	32.874
621.35	33.527
621.68	33.116
622.01	33.025
622.34	32.706
622.67	32.921
623.00	31.174
623.33	33.378
623.66	32.231
623.99	33.180
624.32	34.113
624.65	32.625
624.99	33.290
625.32	33.638
625.65	33.581
625.98	32.949
626.31	32.743
626.64	32.747
626.97	33.083
627.30	33.409
627.63	32.333
627.96	33.258
628.29	32.685
628.62	32.242
628.95	36.021
629.28	33.305
629.61	33.502
629.94	31.967
