SpectraSuite Data File
++++++++++++++++++++++++++++++++++++
Date: Thu May 14 15:00:55 PDT 2015
User: schluterlab
Dark Spectrum Present: Yes
Reference Spectrum Present: Yes
Number of Sampled Component Spectra: 1
Spectrometers: USB2E3373
Integration Time (usec): 3000 (USB2E3373)
Spectra Averaged: 3 (USB2E3373)
Boxcar Smoothing: 0 (USB2E3373)
Correct for Electrical Dark: No (USB2E3373)
Strobe/Lamp Enabled: No (USB2E3373)
Correct for Detector Non-linearity: No (USB2E3373)
Correct for Stray Light: No (USB2E3373)
Number of Pixels in Processed Spectrum: 2048
>>>>>Begin Processed Spectral Data<<<<<
178.53	0.000
178.91	328.571
179.29	-3400.000
179.67	-2600.000
180.04	321.429
180.42	170.000
180.80	500.000
181.18	-2100.000
181.56	-1500.000
181.94	425.000
182.31	-600.000
182.69	433.333
183.07	-850.000
183.45	650.000
183.83	-350.000
184.20	-966.667
184.58	2600.000
184.96	-650.000
185.34	-311.111
185.72	-480.000
186.09	311.111
186.47	1200.000
186.85	560.000
187.23	-288.889
187.61	-2400.000
187.98	460.000
188.36	550.000
188.74	-600.000
189.12	-566.667
189.49	-50.000
189.87	-237.500
190.25	-144.444
190.63	-340.000
191.00	-277.778
191.38	0.000
191.76	-775.000
192.14	-350.000
192.51	1250.000
192.89	-133.333
193.27	0.000
193.65	-242.857
194.02	-3300.000
194.40	-157.143
194.78	242.857
195.15	0.000
195.53	-254.545
195.91	0.000
196.29	-250.000
196.66	-146.154
197.04	-2400.000
197.42	-342.857
197.79	-1300.000
198.17	-237.500
198.55	-314.286
198.92	-188.889
199.30	-287.500
199.68	-145.455
200.05	-128.571
200.43	-1500.000
200.81	214.286
201.18	0.000
201.56	333.333
201.94	0.000
202.31	733.333
202.69	-200.000
203.07	2300.000
203.44	-244.444
203.82	-525.000
204.19	-108.333
204.57	-266.667
204.95	-237.500
205.32	-2300.000
205.70	325.000
206.08	-400.000
206.45	-300.000
206.83	620.000
207.20	-383.333
207.58	-600.000
207.96	-300.000
208.33	-133.333
208.71	166.667
209.08	-50.000
209.46	0.000
209.84	433.333
210.21	1200.000
210.59	950.000
210.96	600.000
211.34	-300.000
211.71	-212.500
212.09	-2200.000
212.46	0.000
212.84	1450.000
213.22	-720.000
213.59	-450.000
213.97	-140.000
214.34	-500.000
214.72	433.333
215.09	-875.000
215.47	0.000
215.84	242.857
216.22	1500.000
216.59	-420.000
216.97	-360.000
217.34	-550.000
217.72	-112.500
218.09	-550.000
218.47	-725.000
218.84	0.000
219.22	460.000
219.59	-135.294
219.97	-70.000
220.34	1450.000
220.72	-211.111
221.09	-123.077
221.47	-1066.667
221.84	-220.000
222.22	-314.286
222.59	0.000
222.97	-212.500
223.34	-380.000
223.72	-2700.000
224.09	-675.000
224.46	-450.000
224.84	-180.000
225.21	-342.857
225.59	-675.000
225.96	-500.000
226.34	-50.000
226.71	533.333
227.08	-1400.000
227.46	-120.000
227.83	-625.000
228.21	-84.211
228.58	387.500
228.95	1100.000
229.33	-41.667
229.70	-180.000
230.08	-73.684
230.45	350.000
230.82	-833.333
231.20	-142.857
231.57	-133.333
231.95	-209.091
232.32	-145.455
232.69	-65.000
233.07	-400.000
233.44	-147.059
233.81	-170.000
234.19	-94.444
234.56	-100.000
234.93	-51.724
235.31	-105.263
235.68	-111.111
236.05	-95.000
236.43	-19.231
236.80	-40.000
237.17	-48.148
237.55	-51.515
237.92	-310.000
238.29	-77.419
238.67	-47.727
239.04	-52.778
239.41	-50.000
239.79	-39.130
240.16	-22.222
240.53	-36.957
240.91	-49.020
241.28	-42.623
241.65	-11.940
242.02	-9.459
242.40	-26.154
242.77	-33.333
243.14	-21.951
243.51	-40.789
243.89	-29.487
244.26	-11.881
244.63	-8.824
245.00	-9.346
245.38	-16.667
245.75	-21.239
246.12	-7.143
246.49	-13.953
246.87	-7.143
247.24	-6.623
247.61	-3.947
247.98	-9.396
248.36	-9.877
248.73	-12.883
249.10	-4.372
249.47	0.498
249.84	1.047
250.22	-5.181
250.59	-7.222
250.96	-1.364
251.33	-13.776
251.70	-2.564
252.08	-4.583
252.45	-0.820
252.82	-4.132
253.19	-7.422
253.56	-1.521
253.94	-4.231
254.31	-3.788
254.68	0.350
255.05	0.000
255.42	0.340
255.79	-1.294
256.16	-0.331
256.54	-4.636
256.91	-0.984
257.28	-3.607
257.65	-3.822
258.02	-3.540
258.39	-1.425
258.76	-0.917
259.14	2.586
259.51	-2.305
259.88	-3.399
260.25	-3.333
260.62	1.644
260.99	0.820
261.36	1.609
261.73	-0.265
262.10	-0.549
262.47	-3.217
262.85	2.778
263.22	-3.117
263.59	-2.895
263.96	-0.767
264.33	0.256
264.70	-0.247
265.07	0.716
265.44	1.361
265.81	0.000
266.18	0.454
266.55	1.339
266.92	-2.050
267.29	-0.219
267.66	-1.552
268.03	3.057
268.40	0.418
268.77	-5.239
269.14	-3.744
269.51	-0.877
269.88	1.844
270.25	1.207
270.62	1.477
270.99	2.222
271.36	3.168
271.73	0.393
272.10	1.202
272.47	-0.601
272.84	1.606
273.21	-0.601
273.58	-0.605
273.95	0.192
274.32	0.380
274.69	2.128
275.06	0.916
275.43	-0.739
275.80	1.587
276.17	-0.556
276.54	0.187
276.91	1.610
277.28	0.904
277.65	1.257
278.02	1.103
278.39	-0.906
278.76	-0.879
279.13	1.241
279.50	1.718
279.87	2.147
280.23	-1.408
280.60	2.373
280.97	2.467
281.34	-0.679
281.71	2.030
282.08	0.997
282.45	1.473
282.82	0.314
283.19	-0.808
283.56	-0.656
283.92	1.952
284.29	1.896
284.66	1.314
285.03	1.282
285.40	2.628
285.77	0.000
286.14	1.527
286.51	1.674
286.87	-0.316
287.24	1.054
287.61	0.448
287.98	0.151
288.35	1.331
288.72	0.592
289.08	1.903
289.45	1.331
289.82	-0.301
290.19	2.730
290.56	2.535
290.93	1.284
291.29	1.102
291.66	1.653
292.03	-0.407
292.40	2.585
292.77	1.348
293.13	1.218
293.50	1.051
293.87	1.208
294.24	2.533
294.60	1.770
294.97	0.805
295.34	3.201
295.71	1.513
296.08	0.646
296.44	2.083
296.81	2.680
297.18	2.366
297.55	1.887
297.91	1.661
298.28	2.251
298.65	2.973
299.02	1.299
299.38	2.059
299.75	3.037
300.12	1.389
300.48	1.728
300.85	2.475
301.22	2.796
301.59	1.941
301.95	1.921
302.32	3.556
302.69	2.957
303.05	3.156
303.42	2.217
303.79	2.812
304.15	3.680
304.52	3.383
304.89	2.094
305.25	2.899
305.62	3.135
305.99	2.990
306.35	3.125
306.72	3.102
307.09	2.944
307.45	4.244
307.82	3.633
308.19	3.734
308.55	4.243
308.92	4.090
309.29	4.406
309.65	4.288
310.02	4.950
310.38	4.331
310.75	4.854
311.12	6.040
311.48	3.617
311.85	5.603
312.22	4.934
312.58	5.634
312.95	4.971
313.31	5.601
313.68	7.051
314.05	7.588
314.41	7.195
314.78	7.266
315.14	7.713
315.51	7.756
315.87	8.101
316.24	7.580
316.61	8.526
316.97	8.054
317.34	8.730
317.70	9.345
318.07	11.199
318.43	9.779
318.80	12.542
319.16	11.674
319.53	10.797
319.89	10.605
320.26	12.100
320.62	10.816
320.99	11.727
321.35	12.107
321.72	14.233
322.08	12.263
322.45	15.537
322.81	15.794
323.18	16.283
323.54	15.862
323.91	17.171
324.27	16.954
324.64	18.808
325.00	17.993
325.37	19.410
325.73	20.248
326.10	20.843
326.46	22.231
326.83	22.738
327.19	22.283
327.56	24.585
327.92	25.098
328.29	25.323
328.65	25.712
329.01	26.142
329.38	28.054
329.74	28.168
330.11	28.425
330.47	29.655
330.84	30.319
331.20	30.500
331.56	31.802
331.93	30.377
332.29	31.186
332.66	31.312
333.02	30.570
333.38	31.544
333.75	32.323
334.11	32.861
334.48	33.168
334.84	34.155
335.20	33.165
335.57	34.907
335.93	33.884
336.29	32.446
336.66	32.717
337.02	33.361
337.38	34.269
337.75	32.975
338.11	34.735
338.47	34.409
338.84	33.926
339.20	33.867
339.56	34.843
339.93	34.811
340.29	34.058
340.65	35.766
341.02	35.754
341.38	35.085
341.74	34.463
342.11	34.996
342.47	34.234
342.83	36.151
343.20	36.386
343.56	34.483
343.92	35.789
344.28	35.000
344.65	35.581
345.01	35.101
345.37	35.459
345.73	35.074
346.10	35.959
346.46	35.601
346.82	34.906
347.19	35.523
347.55	36.115
347.91	35.513
348.27	35.357
348.63	35.415
349.00	34.004
349.36	36.059
349.72	35.417
350.08	36.701
350.45	36.578
350.81	36.048
351.17	36.241
351.53	36.922
351.89	35.915
352.26	36.119
352.62	36.343
352.98	36.031
353.34	35.997
353.70	36.826
354.07	37.109
354.43	37.737
354.79	36.874
355.15	37.160
355.51	37.792
355.87	37.173
356.24	37.719
356.60	37.546
356.96	37.361
357.32	37.026
357.68	38.141
358.04	37.350
358.40	36.940
358.77	38.889
359.13	37.666
359.49	37.993
359.85	36.621
360.21	38.235
360.57	38.765
360.93	38.858
361.29	38.596
361.66	37.944
362.02	38.900
362.38	39.283
362.74	38.897
363.10	40.028
363.46	40.235
363.82	39.134
364.18	39.831
364.54	39.696
364.90	40.067
365.26	40.138
365.62	39.667
365.98	40.844
366.35	39.329
366.71	41.156
367.07	39.851
367.43	39.002
367.79	41.009
368.15	42.007
368.51	40.528
368.87	41.150
369.23	41.600
369.59	40.710
369.95	41.312
370.31	42.404
370.67	40.509
371.03	42.175
371.39	41.169
371.75	42.641
372.11	42.412
372.47	42.654
372.83	41.754
373.19	42.095
373.55	41.802
373.91	43.081
374.27	43.014
374.63	42.828
374.99	42.109
375.35	42.727
375.71	42.258
376.07	44.351
376.42	43.577
376.78	43.443
377.14	42.545
377.50	44.466
377.86	43.534
378.22	44.551
378.58	45.244
378.94	44.718
379.30	44.112
379.66	43.739
380.02	45.066
380.38	45.853
380.74	45.352
381.09	45.412
381.45	45.625
381.81	45.960
382.17	45.428
382.53	46.140
382.89	45.372
383.25	46.893
383.61	46.123
383.97	46.172
384.32	46.950
384.68	46.868
385.04	47.311
385.40	46.612
385.76	47.421
386.12	46.619
386.48	47.412
386.83	47.139
387.19	46.813
387.55	47.477
387.91	46.062
388.27	46.998
388.62	46.678
388.98	45.742
389.34	46.258
389.70	47.937
390.06	48.135
390.42	46.687
390.77	46.538
391.13	46.068
391.49	47.343
391.85	47.636
392.20	47.272
392.56	46.486
392.92	46.292
393.28	48.646
393.64	47.542
393.99	48.112
394.35	48.072
394.71	47.665
395.07	45.988
395.42	47.002
395.78	48.263
396.14	48.128
396.50	46.200
396.85	46.512
397.21	46.982
397.57	46.996
397.92	45.876
398.28	46.551
398.64	45.481
399.00	45.497
399.35	47.539
399.71	46.739
400.07	46.771
400.42	46.333
400.78	46.759
401.14	47.524
401.49	47.015
401.85	47.035
402.21	46.234
402.57	48.357
402.92	46.927
403.28	45.726
403.63	46.539
403.99	46.793
404.35	46.674
404.70	46.062
405.06	45.543
405.42	46.487
405.77	46.892
406.13	47.002
406.49	46.059
406.84	45.873
407.20	45.947
407.55	46.517
407.91	45.380
408.27	44.052
408.62	45.550
408.98	44.864
409.34	44.868
409.69	45.921
410.05	45.135
410.40	46.172
410.76	46.214
411.11	46.464
411.47	46.560
411.83	46.796
412.18	45.964
412.54	47.244
412.89	45.576
413.25	46.953
413.60	45.434
413.96	46.154
414.31	46.119
414.67	45.498
415.03	45.415
415.38	46.721
415.74	46.549
416.09	46.761
416.45	45.523
416.80	46.083
417.16	46.041
417.51	46.389
417.87	47.456
418.22	46.587
418.58	46.406
418.93	46.799
419.29	47.596
419.64	46.459
420.00	46.469
420.35	46.940
420.71	47.272
421.06	46.981
421.42	48.222
421.77	47.604
422.12	46.564
422.48	47.773
422.83	49.617
423.19	47.851
423.54	49.668
423.90	49.531
424.25	50.240
424.61	47.646
424.96	49.368
425.31	50.372
425.67	49.758
426.02	50.194
426.38	50.115
426.73	49.219
427.09	51.096
427.44	50.573
427.79	50.304
428.15	50.342
428.50	51.348
428.85	52.641
429.21	51.543
429.56	51.431
429.92	50.713
430.27	52.771
430.62	53.151
430.98	52.828
431.33	51.857
431.68	52.443
432.04	53.276
432.39	52.598
432.74	53.653
433.10	52.082
433.45	53.233
433.80	53.165
434.16	52.893
434.51	53.700
434.86	55.266
435.22	54.942
435.57	55.012
435.92	54.814
436.28	55.006
436.63	55.270
436.98	54.643
437.34	54.735
437.69	54.100
438.04	55.579
438.39	54.968
438.75	54.455
439.10	55.180
439.45	55.226
439.81	54.859
440.16	54.960
440.51	55.351
440.86	54.808
441.22	55.359
441.57	56.394
441.92	55.626
442.27	56.364
442.63	56.831
442.98	57.150
443.33	56.181
443.68	56.194
444.03	57.479
444.39	58.437
444.74	57.734
445.09	56.716
445.44	56.849
445.79	57.423
446.15	56.269
446.50	56.486
446.85	56.858
447.20	55.851
447.55	57.008
447.91	58.272
448.26	57.400
448.61	57.917
448.96	59.120
449.31	57.423
449.66	57.625
450.02	56.118
450.37	56.899
450.72	57.858
451.07	57.460
451.42	58.059
451.77	56.142
452.12	57.111
452.47	57.932
452.83	59.234
453.18	58.260
453.53	57.553
453.88	57.372
454.23	58.023
454.58	59.837
454.93	58.556
455.28	58.399
455.63	57.874
455.98	59.721
456.34	59.246
456.69	58.965
457.04	59.929
457.39	58.925
457.74	59.676
458.09	59.528
458.44	59.752
458.79	58.535
459.14	59.150
459.49	59.932
459.84	59.286
460.19	58.468
460.54	59.852
460.89	59.449
461.24	59.253
461.59	59.712
461.94	58.414
462.29	59.742
462.64	59.867
462.99	59.259
463.34	59.637
463.69	57.855
464.04	59.978
464.39	59.585
464.74	59.122
465.09	59.400
465.44	58.637
465.79	59.228
466.14	58.312
466.49	59.789
466.84	59.945
467.19	59.942
467.54	57.579
467.89	58.736
468.24	58.892
468.59	59.641
468.94	58.974
469.29	60.408
469.64	59.377
469.99	59.783
470.34	59.468
470.68	60.629
471.03	60.183
471.38	60.366
471.73	60.663
472.08	59.708
472.43	59.542
472.78	60.076
473.13	60.303
473.48	60.725
473.83	59.896
474.17	59.437
474.52	61.455
474.87	58.804
475.22	60.282
475.57	59.917
475.92	60.329
476.27	59.904
476.61	60.436
476.96	60.323
477.31	60.050
477.66	60.021
478.01	59.736
478.36	58.923
478.70	60.443
479.05	60.276
479.40	60.267
479.75	60.279
480.10	59.735
480.45	60.073
480.79	59.274
481.14	60.294
481.49	59.337
481.84	59.835
482.19	60.086
482.53	61.041
482.88	60.833
483.23	61.005
483.58	59.869
483.92	59.353
484.27	59.992
484.62	58.870
484.97	59.137
485.31	58.184
485.66	55.388
486.01	55.568
486.36	57.891
486.70	61.513
487.05	62.857
487.40	61.156
487.75	61.043
488.09	60.101
488.44	57.614
488.79	60.034
489.13	58.074
489.48	58.019
489.83	58.753
490.17	59.943
490.52	58.867
490.87	59.898
491.22	60.529
491.56	59.599
491.91	60.183
492.26	60.190
492.60	59.073
492.95	59.851
493.30	59.166
493.64	60.140
493.99	59.474
494.34	59.538
494.68	59.186
495.03	60.749
495.37	59.876
495.72	59.184
496.07	59.597
496.41	59.502
496.76	60.050
497.11	61.316
497.45	60.250
497.80	59.973
498.14	60.000
498.49	60.478
498.84	59.644
499.18	59.874
499.53	59.148
499.87	60.088
500.22	58.682
500.56	60.639
500.91	59.817
501.26	60.045
501.60	60.009
501.95	59.574
502.29	60.333
502.64	60.603
502.98	58.585
503.33	59.266
503.67	59.485
504.02	59.851
504.36	60.277
504.71	60.818
505.06	60.573
505.40	59.689
505.75	58.925
506.09	59.945
506.44	60.539
506.78	59.908
507.13	59.428
507.47	59.735
507.82	60.748
508.16	59.034
508.51	59.212
508.85	60.321
509.19	59.972
509.54	60.134
509.88	60.952
510.23	60.466
510.57	60.222
510.92	60.668
511.26	59.307
511.61	59.150
511.95	60.224
512.30	59.970
512.64	58.571
512.98	60.330
513.33	60.988
513.67	59.204
514.02	60.450
514.36	60.256
514.70	59.635
515.05	60.688
515.39	60.052
515.74	60.923
516.08	60.433
516.42	60.701
516.77	60.410
517.11	60.340
517.46	59.968
517.80	61.518
518.14	60.718
518.49	60.249
518.83	59.127
519.17	59.989
519.52	60.063
519.86	59.451
520.20	60.863
520.55	59.803
520.89	59.459
521.23	59.631
521.58	59.661
521.92	60.850
522.26	59.966
522.61	60.359
522.95	60.611
523.29	60.057
523.64	59.417
523.98	60.582
524.32	62.292
524.66	61.355
525.01	59.513
525.35	59.621
525.69	60.151
526.04	58.668
526.38	60.345
526.72	59.689
527.06	59.824
527.41	59.125
527.75	60.867
528.09	59.622
528.43	58.970
528.78	59.249
529.12	59.289
529.46	59.022
529.80	58.867
530.15	58.957
530.49	57.770
530.83	58.678
531.17	59.498
531.51	60.048
531.86	60.577
532.20	59.085
532.54	58.288
532.88	58.545
533.22	58.692
533.57	59.031
533.91	57.800
534.25	59.073
534.59	58.736
534.93	58.687
535.27	58.704
535.62	58.499
535.96	58.512
536.30	57.814
536.64	57.538
536.98	58.487
537.32	58.642
537.66	60.075
538.01	58.006
538.35	57.917
538.69	58.053
539.03	58.982
539.37	57.008
539.71	57.357
540.05	57.554
540.39	57.885
540.73	57.316
541.07	58.124
541.42	56.586
541.76	55.753
542.10	57.117
542.44	56.638
542.78	56.995
543.12	57.867
543.46	57.082
543.80	57.074
544.14	56.433
544.48	56.265
544.82	57.630
545.16	57.722
545.50	57.819
545.84	57.257
546.18	58.210
546.52	57.580
546.86	57.107
547.20	57.761
547.54	57.553
547.88	56.178
548.22	55.906
548.56	57.051
548.90	57.075
549.24	57.933
549.58	58.612
549.92	57.462
550.26	57.476
550.60	57.690
550.94	57.503
551.28	57.030
551.62	58.356
551.96	56.828
552.30	57.361
552.64	56.627
552.98	58.016
553.32	58.778
553.66	57.621
554.00	57.945
554.34	59.459
554.68	56.746
555.02	57.227
555.36	57.922
555.69	57.399
556.03	57.818
556.37	57.447
556.71	58.022
557.05	57.508
557.39	57.399
557.73	57.596
558.07	55.960
558.41	58.007
558.75	57.809
559.08	58.107
559.42	56.584
559.76	57.870
560.10	57.267
560.44	57.586
560.78	58.125
561.12	57.020
561.45	58.577
561.79	57.753
562.13	57.301
562.47	55.919
562.81	56.582
563.15	56.566
563.48	56.805
563.82	56.651
564.16	55.663
564.50	56.138
564.84	57.050
565.17	56.176
565.51	55.409
565.85	57.007
566.19	55.933
566.52	56.115
566.86	56.593
567.20	56.063
567.54	55.550
567.88	56.983
568.21	56.126
568.55	55.252
568.89	55.969
569.23	55.429
569.56	54.162
569.90	53.956
570.24	54.705
570.57	53.464
570.91	53.154
571.25	52.560
571.59	53.215
571.92	52.958
572.26	53.600
572.60	53.617
572.93	52.352
573.27	52.711
573.61	52.435
573.95	51.736
574.28	51.437
574.62	51.296
574.96	51.456
575.29	51.113
575.63	51.721
575.97	51.713
576.30	50.901
576.64	51.420
576.98	51.162
577.31	51.380
577.65	51.383
577.98	51.355
578.32	50.855
578.66	51.150
578.99	51.628
579.33	52.134
579.67	51.315
580.00	50.258
580.34	50.720
580.67	51.169
581.01	51.233
581.35	50.360
581.68	51.038
582.02	51.254
582.35	52.483
582.69	52.309
583.02	52.084
583.36	52.434
583.70	52.102
584.03	51.332
584.37	51.642
584.70	51.858
585.04	51.360
585.37	51.458
585.71	51.068
586.04	52.774
586.38	52.600
586.72	52.043
587.05	52.366
587.39	52.555
587.72	52.871
588.06	51.934
588.39	52.228
588.73	52.354
589.06	52.483
589.40	53.227
589.73	52.731
590.07	53.316
590.40	52.705
590.73	53.164
591.07	53.090
591.40	52.411
591.74	53.458
592.07	53.471
592.41	53.233
592.74	53.213
593.08	52.962
593.41	53.368
593.75	53.592
594.08	53.226
594.41	54.006
594.75	53.138
595.08	51.985
595.42	53.669
595.75	52.599
596.09	53.473
596.42	53.637
596.75	52.760
597.09	54.020
597.42	52.642
597.75	52.685
598.09	52.976
598.42	53.156
598.76	53.114
599.09	52.759
599.42	52.598
599.76	52.757
600.09	52.786
600.42	52.886
600.76	53.038
601.09	52.373
601.42	52.317
601.76	52.276
602.09	51.930
602.42	52.126
602.76	51.956
603.09	52.937
603.42	53.288
603.76	52.572
604.09	52.910
604.42	53.028
604.76	52.093
605.09	52.972
605.42	53.150
605.75	51.846
606.09	52.258
606.42	51.952
606.75	51.049
607.09	52.343
607.42	52.216
607.75	51.348
608.08	52.052
608.42	51.189
608.75	52.902
609.08	52.844
609.41	53.375
609.75	52.545
610.08	53.166
610.41	52.039
610.74	51.176
611.07	53.286
611.41	53.139
611.74	53.349
612.07	53.576
612.40	53.327
612.73	53.056
613.07	53.007
613.40	52.743
613.73	53.828
614.06	51.914
614.39	52.235
614.72	52.596
615.06	53.272
615.39	52.489
615.72	52.796
616.05	53.035
616.38	54.137
616.71	53.083
617.05	52.556
617.38	52.113
617.71	52.754
618.04	53.319
618.37	54.044
618.70	53.450
619.03	52.748
619.36	53.576
619.69	54.452
620.03	53.484
620.36	52.577
620.69	53.115
621.02	54.790
621.35	56.023
621.68	54.808
622.01	54.733
622.34	53.696
622.67	53.677
623.00	52.362
623.33	55.408
623.66	54.669
623.99	53.588
624.32	53.931
624.65	53.153
624.99	55.007
625.32	53.690
625.65	54.484
625.98	53.220
626.31	54.075
626.64	54.945
626.97	54.014
627.30	53.759
627.63	53.713
627.96	54.805
628.29	54.475
628.62	55.416
628.95	55.390
629.28	55.140
629.61	54.714
629.94	55.063
630.26	53.475
630.59	54.491
630.92	52.987
631.25	57.066
631.58	57.062
631.91	57.451
632.24	56.868
632.57	56.167
632.90	55.667
633.23	57.245
633.56	55.816
