SpectraSuite Data File
++++++++++++++++++++++++++++++++++++
Date: Thu May 14 14:59:30 PDT 2015
User: schluterlab
Dark Spectrum Present: Yes
Reference Spectrum Present: Yes
Number of Sampled Component Spectra: 1
Spectrometers: USB2E3373
Integration Time (usec): 3000 (USB2E3373)
Spectra Averaged: 3 (USB2E3373)
Boxcar Smoothing: 0 (USB2E3373)
Correct for Electrical Dark: No (USB2E3373)
Strobe/Lamp Enabled: No (USB2E3373)
Correct for Detector Non-linearity: No (USB2E3373)
Correct for Stray Light: No (USB2E3373)
Number of Pixels in Processed Spectrum: 2048
>>>>>Begin Processed Spectral Data<<<<<
178.53	0.000
178.91	371.429
179.29	-3000.000
179.67	-2800.000
180.04	242.857
180.42	210.000
180.80	540.000
181.18	-2100.000
181.56	-2000.000
181.94	600.000
182.31	-350.000
182.69	633.333
183.07	-1150.000
183.45	600.000
183.83	-383.333
184.20	-800.000
184.58	2500.000
184.96	-750.000
185.34	-200.000
185.72	-320.000
186.09	377.778
186.47	1350.000
186.85	580.000
187.23	-311.111
187.61	-2500.000
187.98	500.000
188.36	600.000
188.74	-575.000
189.12	-633.333
189.49	-93.750
189.87	-337.500
190.25	-233.333
190.63	-480.000
191.00	-300.000
191.38	0.000
191.76	-575.000
192.14	-300.000
192.51	600.000
192.89	-266.667
193.27	0.000
193.65	-314.286
194.02	-2900.000
194.40	-400.000
194.78	328.571
195.15	0.000
195.53	-63.636
195.91	0.000
196.29	-525.000
196.66	-176.923
197.04	-2600.000
197.42	-357.143
197.79	-1250.000
198.17	-325.000
198.55	-257.143
198.92	-188.889
199.30	-187.500
199.68	-127.273
200.05	-100.000
200.43	-1650.000
200.81	471.429
201.18	0.000
201.56	355.556
201.94	0.000
202.31	733.333
202.69	-277.778
203.07	1500.000
203.44	-255.556
203.82	-650.000
204.19	-166.667
204.57	-350.000
204.95	-287.500
205.32	-2800.000
205.70	675.000
206.08	-400.000
206.45	-283.333
206.83	540.000
207.20	-466.667
207.58	-440.000
207.96	-450.000
208.33	-383.333
208.71	225.000
209.08	-300.000
209.46	0.000
209.84	550.000
210.21	1250.000
210.59	700.000
210.96	900.000
211.34	-475.000
211.71	-300.000
212.09	-2200.000
212.46	0.000
212.84	1600.000
213.22	-360.000
213.59	-450.000
213.97	-190.000
214.34	-666.667
214.72	533.333
215.09	-675.000
215.47	0.000
215.84	342.857
216.22	950.000
216.59	-280.000
216.97	-520.000
217.34	-650.000
217.72	-162.500
218.09	-400.000
218.47	-800.000
218.84	0.000
219.22	360.000
219.59	-105.882
219.97	-110.000
220.34	1650.000
220.72	-277.778
221.09	-115.385
221.47	-733.333
221.84	-200.000
222.22	-414.286
222.59	0.000
222.97	-225.000
223.34	-520.000
223.72	-2500.000
224.09	-425.000
224.46	-450.000
224.84	-200.000
225.21	-371.429
225.59	-450.000
225.96	-650.000
226.34	-61.538
226.71	533.333
227.08	-1350.000
227.46	-120.000
227.83	-475.000
228.21	-94.737
228.58	312.500
228.95	1500.000
229.33	-150.000
229.70	-240.000
230.08	-31.579
230.45	250.000
230.82	-700.000
231.20	-107.143
231.57	-116.667
231.95	-90.909
232.32	-181.818
232.69	-80.000
233.07	-600.000
233.44	-135.294
233.81	-250.000
234.19	-122.222
234.56	-104.545
234.93	-55.172
235.31	-126.316
235.68	-116.667
236.05	-125.000
236.43	-15.385
236.80	-44.000
237.17	-33.333
237.55	-36.364
237.92	-180.000
238.29	-58.065
238.67	-34.091
239.04	-55.556
239.41	-76.190
239.79	-32.609
240.16	-18.519
240.53	-41.304
240.91	-50.980
241.28	-16.393
241.65	-7.463
242.02	-10.811
242.40	-18.462
242.77	-26.667
243.14	-17.073
243.51	-15.789
243.89	-20.513
244.26	4.950
244.63	-7.843
245.00	-4.673
245.38	-12.281
245.75	-14.159
246.12	-8.730
246.49	-13.178
246.87	0.714
247.24	-3.974
247.61	-4.605
247.98	-8.054
248.36	-3.086
248.73	-4.294
249.10	-5.464
249.47	8.955
249.84	7.330
250.22	-4.145
250.59	-3.333
250.96	4.091
251.33	-7.653
251.70	5.556
252.08	5.833
252.45	2.049
252.82	-3.306
253.19	-2.344
253.56	-0.380
253.94	-0.385
254.31	3.788
254.68	5.245
255.05	6.189
255.42	2.381
255.79	2.265
256.16	1.656
256.54	0.000
256.91	3.279
257.28	3.607
257.65	1.274
258.02	1.475
258.39	2.279
258.76	5.810
259.14	3.736
259.51	5.187
259.88	2.550
260.25	2.500
260.62	6.301
260.99	8.197
261.36	4.826
261.73	4.775
262.10	3.297
262.47	2.413
262.85	7.576
263.22	2.078
263.59	1.316
263.96	6.138
264.33	3.069
264.70	6.173
265.07	8.115
265.44	8.163
265.81	7.639
266.18	5.442
266.55	4.911
266.92	2.506
267.29	7.002
267.66	5.987
268.03	4.148
268.40	5.846
268.77	5.011
269.14	4.405
269.51	7.018
269.88	7.377
270.25	7.646
270.62	6.540
270.99	7.475
271.36	5.941
271.73	7.269
272.10	8.016
272.47	7.214
272.84	6.827
273.21	7.615
273.58	8.669
273.95	4.615
274.32	5.133
274.69	5.996
275.06	8.425
275.43	4.251
275.80	8.818
276.17	4.074
276.54	5.784
276.91	4.293
277.28	5.787
277.65	6.463
278.02	6.801
278.39	4.891
278.76	5.272
279.13	5.496
279.50	7.904
279.87	6.977
280.23	3.345
280.60	5.763
280.97	6.579
281.34	5.603
281.71	9.645
282.08	5.814
282.45	5.401
282.82	6.122
283.19	5.816
283.56	4.754
283.92	7.508
284.29	7.899
284.66	5.747
285.03	4.968
285.40	4.946
285.77	6.037
286.14	7.023
286.51	5.327
286.87	6.003
287.24	7.078
287.61	5.082
287.98	3.474
288.35	5.917
288.72	5.473
289.08	7.174
289.45	5.621
289.82	5.120
290.19	5.603
290.56	7.183
290.93	7.275
291.29	6.198
291.66	5.096
292.03	4.478
292.40	7.075
292.77	4.717
293.13	6.360
293.50	4.731
293.87	6.040
294.24	6.667
294.60	6.953
294.97	3.490
295.34	7.042
295.71	4.666
296.08	5.039
296.44	5.515
296.81	4.629
297.18	5.604
297.55	4.599
297.91	5.101
298.28	3.791
298.65	5.589
299.02	5.313
299.38	5.721
299.75	5.724
300.12	5.208
300.48	5.530
300.85	5.399
301.22	5.257
301.59	5.137
301.95	4.859
302.32	4.889
302.69	5.915
303.05	6.202
303.42	4.656
303.79	3.542
304.15	4.101
304.52	4.440
304.89	4.712
305.25	4.555
305.62	5.747
305.99	5.052
306.35	4.839
306.72	5.171
307.09	4.061
307.45	6.108
307.82	5.146
308.19	5.449
308.55	5.882
308.92	4.869
309.29	5.939
309.65	5.458
310.02	4.752
310.38	5.020
310.75	5.728
311.12	6.520
311.48	4.790
311.85	5.793
312.22	5.218
312.58	6.103
312.95	5.354
313.31	6.143
313.68	5.952
314.05	6.775
314.41	6.740
314.78	6.449
315.14	6.171
315.51	6.464
315.87	5.761
316.24	5.297
316.61	6.750
316.97	6.878
317.34	6.349
317.70	6.725
318.07	6.173
318.43	7.228
318.80	8.445
319.16	7.210
319.53	6.855
319.89	6.135
320.26	7.562
320.62	7.713
320.99	7.018
321.35	7.486
321.72	8.558
322.08	7.665
322.45	7.046
322.81	7.220
323.18	7.788
323.54	7.414
323.91	7.651
324.27	8.692
324.64	8.396
325.00	8.126
325.37	9.746
325.73	8.512
326.10	8.921
326.46	9.202
326.83	10.008
327.19	10.000
327.56	10.119
327.92	9.441
328.29	8.790
328.65	8.375
329.01	10.321
329.38	10.025
329.74	10.788
330.11	11.045
330.47	9.773
330.84	9.647
331.20	10.833
331.56	9.705
331.93	10.209
332.29	10.847
332.66	10.963
333.02	10.134
333.38	9.815
333.75	10.606
334.11	9.591
334.48	11.386
334.84	10.535
335.20	9.908
335.57	10.624
335.93	10.579
336.29	10.150
336.66	10.261
337.02	10.786
337.38	11.395
337.75	11.653
338.11	11.354
338.47	10.008
338.84	10.321
339.20	9.941
339.56	10.791
339.93	11.823
340.29	11.272
340.65	11.030
341.02	10.774
341.38	11.318
341.74	11.622
342.11	10.941
342.47	10.882
342.83	11.997
343.20	11.365
343.56	11.468
343.92	10.889
344.28	12.031
344.65	12.636
345.01	11.232
345.37	11.509
345.73	10.834
346.10	10.686
346.46	10.759
346.82	12.734
347.19	11.917
347.55	10.926
347.91	11.218
348.27	11.153
348.63	11.424
349.00	11.409
349.36	12.491
349.72	10.938
350.08	12.333
350.45	10.875
350.81	11.086
351.17	11.805
351.53	11.751
351.89	11.617
352.26	11.493
352.62	11.642
352.98	12.061
353.34	11.800
353.70	12.481
354.07	12.072
354.43	11.617
354.79	12.042
355.15	12.068
355.51	13.085
355.87	12.865
356.24	12.624
356.60	11.899
356.96	11.935
357.32	11.896
357.68	11.933
358.04	12.126
358.40	11.940
358.77	12.573
359.13	11.669
359.49	11.301
359.85	12.473
360.21	12.769
360.57	12.563
360.93	12.482
361.29	12.982
361.66	11.513
362.02	13.361
362.38	12.509
362.74	12.709
363.10	13.549
363.46	13.227
363.82	12.571
364.18	13.019
364.54	12.794
364.90	13.579
365.26	12.414
365.62	13.067
365.98	13.070
366.35	13.423
366.71	13.741
367.07	13.599
367.43	13.592
367.79	13.802
368.15	13.445
368.51	13.329
368.87	13.521
369.23	14.267
369.59	12.978
369.95	13.185
370.31	14.315
370.67	13.480
371.03	13.435
371.39	14.171
371.75	14.099
372.11	14.160
372.47	13.676
372.83	13.547
373.19	14.076
373.55	14.295
373.91	13.770
374.27	13.907
374.63	14.885
374.99	13.594
375.35	14.286
375.71	14.387
376.07	15.236
376.42	14.232
376.78	14.357
377.14	14.223
377.50	14.801
377.86	15.456
378.22	16.108
378.58	15.458
378.94	15.728
379.30	15.407
379.66	15.285
380.02	15.580
380.38	16.187
380.74	15.380
381.09	15.679
381.45	16.023
381.81	16.101
382.17	15.499
382.53	15.556
382.89	16.422
383.25	16.237
383.61	15.799
383.97	15.842
384.32	16.328
384.68	14.907
385.04	16.888
385.40	16.912
385.76	16.295
386.12	16.517
386.48	16.824
386.83	16.627
387.19	16.338
387.55	16.608
387.91	16.895
388.27	16.975
388.62	16.781
388.98	16.469
389.34	17.148
389.70	17.141
390.06	16.992
390.42	17.108
390.77	18.122
391.13	17.312
391.49	16.667
391.85	17.091
392.20	17.082
392.56	16.834
392.92	18.266
393.28	17.468
393.64	17.263
393.99	18.303
394.35	17.582
394.71	18.323
395.07	17.665
395.42	17.818
395.78	18.160
396.14	18.657
396.50	17.755
396.85	16.995
397.21	17.870
397.57	17.550
397.92	17.812
398.28	17.436
398.64	18.021
399.00	17.330
399.35	18.010
399.71	18.043
400.07	18.473
400.42	17.870
400.78	18.403
401.14	18.156
401.49	17.737
401.85	19.709
402.21	19.061
402.57	18.192
402.92	18.322
403.28	17.506
403.63	17.542
403.99	17.577
404.35	18.476
404.70	18.187
405.06	17.826
405.42	17.799
405.77	18.593
406.13	18.098
406.49	18.412
406.84	17.008
407.20	18.055
407.55	17.020
407.91	18.102
408.27	18.905
408.62	18.499
408.98	18.340
409.34	18.240
409.69	19.221
410.05	17.995
410.40	18.039
410.76	18.228
411.11	18.644
411.47	18.550
411.83	18.754
412.18	18.133
412.54	18.672
412.89	18.743
413.25	18.002
413.60	18.438
413.96	18.998
414.31	17.790
414.67	17.710
415.03	18.338
415.38	18.348
415.74	18.082
416.09	18.075
416.45	17.595
416.80	17.625
417.16	18.646
417.51	18.680
417.87	17.964
418.22	18.982
418.58	17.782
418.93	18.743
419.29	17.694
419.64	17.227
420.00	18.694
420.35	18.978
420.71	18.093
421.06	18.631
421.42	18.979
421.77	17.555
422.12	18.129
422.48	19.201
422.83	17.963
423.19	18.886
423.54	18.805
423.90	18.553
424.25	18.453
424.61	17.853
424.96	18.671
425.31	18.684
425.67	18.250
426.02	17.930
426.38	18.542
426.73	18.080
427.09	18.858
427.44	18.351
427.79	17.855
428.15	17.580
428.50	19.157
428.85	18.944
429.21	18.723
429.56	18.263
429.92	17.985
430.27	18.651
430.62	18.710
430.98	18.396
431.33	18.280
431.68	18.582
432.04	18.131
432.39	18.479
432.74	17.979
433.10	17.793
433.45	17.336
433.80	18.455
434.16	18.698
434.51	18.808
434.86	19.490
435.22	18.916
435.57	19.104
435.92	18.364
436.28	18.032
436.63	19.115
436.98	18.089
437.34	18.715
437.69	18.052
438.04	18.403
438.39	18.782
438.75	18.041
439.10	19.080
439.45	18.949
439.81	18.362
440.16	17.909
440.51	18.116
440.86	18.177
441.22	18.167
441.57	19.497
441.92	18.429
442.27	19.141
442.63	18.530
442.98	18.783
443.33	18.885
443.68	18.930
444.03	19.285
444.39	18.585
444.74	18.683
445.09	18.753
445.44	19.178
445.79	19.157
446.15	19.013
446.50	18.088
446.85	18.531
447.20	18.085
447.55	18.776
447.91	18.429
448.26	18.552
448.61	18.863
448.96	19.528
449.31	18.664
449.66	17.865
450.02	18.776
450.37	18.647
450.72	18.407
451.07	18.679
451.42	18.544
451.77	18.899
452.12	18.736
452.47	17.825
452.83	18.412
453.18	17.513
453.53	18.610
453.88	18.553
454.23	18.757
454.58	18.920
454.93	18.265
455.28	18.964
455.63	18.704
455.98	18.883
456.34	18.787
456.69	18.577
457.04	18.853
457.39	18.570
457.74	18.568
458.09	19.660
458.44	18.912
458.79	18.515
459.14	18.563
459.49	18.449
459.84	18.520
460.19	18.323
460.54	18.853
460.89	18.475
461.24	17.816
461.59	18.926
461.94	18.254
462.29	18.925
462.64	19.252
462.99	18.267
463.34	19.208
463.69	19.226
464.04	19.122
464.39	18.386
464.74	18.814
465.09	18.685
465.44	19.260
465.79	19.249
466.14	18.760
466.49	18.842
466.84	19.063
467.19	18.613
467.54	17.744
467.89	17.874
468.24	18.781
468.59	17.776
468.94	18.590
469.29	18.476
469.64	18.245
469.99	18.611
470.34	18.379
470.68	18.387
471.03	18.402
471.38	18.901
471.73	18.270
472.08	18.591
472.43	18.483
472.78	19.144
473.13	17.446
473.48	19.396
473.83	19.443
474.17	18.464
474.52	18.882
474.87	18.826
475.22	19.099
475.57	19.211
475.92	19.313
476.27	18.903
476.61	19.159
476.96	17.727
477.31	19.505
477.66	19.307
478.01	18.963
478.36	18.694
478.70	18.621
479.05	19.479
479.40	19.497
479.75	19.597
480.10	19.280
480.45	18.915
480.79	19.093
481.14	18.566
481.49	18.855
481.84	19.191
482.19	19.570
482.53	18.846
482.88	19.584
483.23	19.564
483.58	19.258
483.92	18.351
484.27	19.348
484.62	18.399
484.97	18.818
485.31	18.972
485.66	17.499
486.01	17.636
486.36	18.016
486.70	19.284
487.05	20.543
487.40	19.480
487.75	19.720
488.09	19.386
488.44	18.866
488.79	19.494
489.13	19.044
489.48	18.408
489.83	18.994
490.17	18.874
490.52	19.253
490.87	20.135
491.22	19.281
491.56	19.582
491.91	19.712
492.26	19.732
492.60	18.889
492.95	18.605
493.30	19.005
493.64	19.492
493.99	19.518
494.34	19.556
494.68	19.572
495.03	19.339
495.37	19.441
495.72	19.048
496.07	20.333
496.41	19.048
496.76	19.641
497.11	19.278
497.45	19.379
497.80	20.613
498.14	19.365
498.49	19.118
498.84	19.653
499.18	20.423
499.53	20.269
499.87	20.044
500.22	19.012
500.56	19.343
500.91	20.320
501.26	20.136
501.60	19.222
501.95	20.408
502.29	19.702
502.64	19.851
502.98	19.327
503.33	19.438
503.67	18.927
504.02	19.571
504.36	20.465
504.71	20.533
505.06	20.055
505.40	20.201
505.75	20.264
506.09	20.994
506.44	20.334
506.78	21.055
507.13	20.101
507.47	20.606
507.82	20.218
508.16	20.363
508.51	20.113
508.85	19.887
509.19	20.275
509.54	20.941
509.88	20.544
510.23	21.127
510.57	21.170
510.92	20.997
511.26	20.202
511.61	19.604
511.95	21.279
512.30	21.172
512.64	20.240
512.98	21.161
513.33	20.766
513.67	21.316
514.02	21.257
514.36	20.921
514.70	21.198
515.05	21.585
515.39	21.050
515.74	21.845
516.08	21.236
516.42	21.664
516.77	21.136
517.11	20.629
517.46	22.269
517.80	21.967
518.14	21.926
518.49	21.095
518.83	20.915
519.17	21.594
519.52	21.279
519.86	21.014
520.20	22.045
520.55	22.015
520.89	22.804
521.23	21.999
521.58	22.260
521.92	21.983
522.26	21.821
522.61	22.164
522.95	22.491
523.29	22.069
523.64	22.085
523.98	22.932
524.32	23.152
524.66	22.026
525.01	22.593
525.35	22.286
525.69	22.158
526.04	22.216
526.38	22.529
526.72	22.607
527.06	22.698
527.41	22.449
527.75	24.050
528.09	22.255
528.43	22.499
528.78	22.832
529.12	22.534
529.46	22.709
529.80	21.968
530.15	22.957
530.49	23.428
530.83	22.196
531.17	23.118
531.51	22.804
531.86	23.257
532.20	23.049
532.54	22.202
532.88	21.939
533.22	22.157
533.57	22.562
533.91	22.840
534.25	23.177
534.59	21.954
534.93	23.090
535.27	22.648
535.62	23.195
535.96	23.010
536.30	21.974
536.64	23.063
536.98	23.862
537.32	24.321
537.66	23.768
538.01	22.477
538.35	22.533
538.69	22.296
539.03	23.666
539.37	23.322
539.71	23.423
540.05	23.141
540.39	23.655
540.73	22.769
541.07	22.869
541.42	22.859
541.76	22.657
542.10	22.316
542.44	22.290
542.78	23.662
543.12	23.242
543.46	22.466
543.80	23.441
544.14	23.160
544.48	22.636
544.82	23.818
545.16	24.389
545.50	23.427
545.84	23.882
546.18	23.642
546.52	22.930
546.86	23.270
547.20	24.046
547.54	24.345
547.88	23.388
548.22	22.807
548.56	22.469
548.90	23.045
549.24	22.979
549.58	23.407
549.92	23.469
550.26	23.948
550.60	23.995
550.94	23.286
551.28	23.234
551.62	24.124
551.96	23.883
552.30	24.156
552.64	23.460
552.98	23.082
553.32	24.309
553.66	23.215
554.00	23.581
554.34	23.745
554.68	23.886
555.02	24.573
555.36	24.918
555.69	23.511
556.03	23.707
556.37	24.969
556.71	24.984
557.05	25.112
557.39	24.088
557.73	24.306
558.07	23.907
558.41	25.116
558.75	23.935
559.08	24.635
559.42	23.663
559.76	24.559
560.10	23.644
560.44	23.945
560.78	24.125
561.12	24.323
561.45	23.601
561.79	24.237
562.13	23.722
562.47	23.921
562.81	25.190
563.15	24.179
563.48	23.493
563.82	24.667
564.16	23.501
564.50	23.719
564.84	24.071
565.17	23.706
565.51	24.051
565.85	23.575
566.19	24.482
566.52	24.517
566.86	24.222
567.20	22.784
567.54	23.208
567.88	23.344
568.21	23.814
568.55	24.125
568.89	23.695
569.23	23.363
569.56	22.821
569.90	23.058
570.24	22.395
570.57	23.220
570.91	22.382
571.25	22.708
571.59	22.989
571.92	22.388
572.26	22.472
572.60	22.468
572.93	22.906
573.27	22.422
573.61	22.763
573.95	22.627
574.28	22.168
574.62	22.624
574.96	22.210
575.29	22.009
575.63	22.037
575.97	22.898
576.30	22.033
576.64	22.381
576.98	22.346
577.31	22.602
577.65	22.596
577.98	21.856
578.32	21.511
578.66	21.900
578.99	22.363
579.33	22.410
579.67	22.325
580.00	22.320
580.34	22.884
580.67	22.176
581.01	21.960
581.35	21.839
581.68	22.076
582.02	22.085
582.35	22.937
582.69	22.648
583.02	22.519
583.36	22.715
583.70	22.813
584.03	22.222
584.37	22.735
584.70	22.249
585.04	22.251
585.37	22.316
585.71	22.869
586.04	22.589
586.38	22.725
586.72	22.437
587.05	22.845
587.39	22.812
587.72	22.656
588.06	23.114
588.39	23.152
588.73	23.095
589.06	23.674
589.40	23.540
589.73	23.040
590.07	23.840
590.40	23.563
590.73	22.800
591.07	23.939
591.40	23.173
591.74	23.490
592.07	23.711
592.41	23.226
592.74	22.861
593.08	23.312
593.41	24.001
593.75	23.621
594.08	23.417
594.41	23.590
594.75	23.016
595.08	23.284
595.42	23.571
595.75	23.410
596.09	24.127
596.42	23.397
596.75	23.582
597.09	23.636
597.42	23.242
597.75	23.599
598.09	24.643
598.42	24.367
598.76	23.347
599.09	23.496
599.42	22.863
599.76	23.506
600.09	23.857
600.42	23.457
600.76	23.943
601.09	23.797
601.42	23.653
601.76	23.931
602.09	23.660
602.42	22.973
602.76	23.579
603.09	23.972
603.42	23.772
603.76	23.714
604.09	24.024
604.42	22.972
604.76	24.049
605.09	24.491
605.42	24.402
605.75	23.962
606.09	23.703
606.42	23.787
606.75	23.163
607.09	23.464
607.42	24.085
607.75	24.189
608.08	24.428
608.42	24.385
608.75	23.715
609.08	24.109
609.41	24.085
609.75	23.973
610.08	24.714
610.41	24.639
610.74	25.000
611.07	24.689
611.41	24.888
611.74	24.850
612.07	24.684
612.40	24.287
612.73	24.108
613.07	25.232
613.40	24.447
613.73	24.458
614.06	24.877
614.39	24.004
614.72	24.745
615.06	23.917
615.39	24.070
615.72	25.071
616.05	24.672
616.38	24.470
616.71	25.601
617.05	24.601
617.38	26.110
617.71	25.378
618.04	24.825
618.37	25.464
618.70	26.188
619.03	25.508
619.36	24.599
619.69	25.176
620.03	26.177
620.36	25.153
620.69	25.355
621.02	24.869
621.35	26.125
621.68	26.898
622.01	25.552
622.34	25.802
622.67	26.117
623.00	24.157
623.33	26.676
623.66	26.459
623.99	24.951
624.32	26.251
624.65	25.418
624.99	26.788
625.32	26.715
625.65	26.096
625.98	25.898
626.31	26.790
626.64	27.033
626.97	26.632
627.30	25.892
627.63	26.332
627.96	26.802
628.29	26.070
628.62	25.777
628.95	27.082
629.28	27.273
629.61	27.525
629.94	26.360
630.26	26.864
630.59	26.079
630.92	27.706
631.25	26.923
631.58	28.814
631.91	27.554
632.24	28.818
632.57	26.945
632.90	26.379
633.23	28.061
633.56	27.551
633.89	27.376
634.22	28.067
634.55	27.557
634.88	26.299
635.20	29.925
