SpectraSuite Data File
++++++++++++++++++++++++++++++++++++
Date: Thu May 14 14:54:39 PDT 2015
User: schluterlab
Dark Spectrum Present: Yes
Reference Spectrum Present: Yes
Number of Sampled Component Spectra: 1
Spectrometers: USB2E3373
Integration Time (usec): 3000 (USB2E3373)
Spectra Averaged: 3 (USB2E3373)
Boxcar Smoothing: 0 (USB2E3373)
Correct for Electrical Dark: No (USB2E3373)
Strobe/Lamp Enabled: No (USB2E3373)
Correct for Detector Non-linearity: No (USB2E3373)
Correct for Stray Light: No (USB2E3373)
Number of Pixels in Processed Spectrum: 2048
>>>>>Begin Processed Spectral Data<<<<<
178.53	0.000
178.91	271.429
179.29	-2200.000
179.67	-1400.000
180.04	214.286
180.42	100.000
180.80	420.000
181.18	-1900.000
181.56	-1000.000
181.94	175.000
182.31	-375.000
182.69	466.667
183.07	-700.000
183.45	425.000
183.83	-216.667
184.20	-600.000
184.58	1000.000
184.96	-350.000
185.34	-44.444
185.72	-200.000
186.09	188.889
186.47	800.000
186.85	500.000
187.23	-100.000
187.61	-1400.000
187.98	380.000
188.36	500.000
188.74	-375.000
189.12	-600.000
189.49	-62.500
189.87	-175.000
190.25	-144.444
190.63	-360.000
191.00	-211.111
191.38	0.000
191.76	-475.000
192.14	-216.667
192.51	250.000
192.89	-116.667
193.27	0.000
193.65	-71.429
194.02	-2300.000
194.40	-257.143
194.78	200.000
195.15	0.000
195.53	-145.455
195.91	0.000
196.29	-300.000
196.66	-107.692
197.04	-1900.000
197.42	-257.143
197.79	-950.000
198.17	-75.000
198.55	-242.857
198.92	-100.000
199.30	-225.000
199.68	-45.455
200.05	-71.429
200.43	-700.000
200.81	285.714
201.18	0.000
201.56	255.556
201.94	0.000
202.31	700.000
202.69	-122.222
203.07	1400.000
203.44	-133.333
203.82	-525.000
204.19	-75.000
204.57	-266.667
204.95	-62.500
205.32	-1800.000
205.70	275.000
206.08	-266.667
206.45	-433.333
206.83	580.000
207.20	-200.000
207.58	-420.000
207.96	-300.000
208.33	-100.000
208.71	75.000
209.08	-50.000
209.46	0.000
209.84	350.000
210.21	600.000
210.59	700.000
210.96	733.333
211.34	-350.000
211.71	-112.500
212.09	-1400.000
212.46	0.000
212.84	1200.000
213.22	-280.000
213.59	-125.000
213.97	-90.000
214.34	-233.333
214.72	166.667
215.09	-250.000
215.47	0.000
215.84	57.143
216.22	850.000
216.59	-240.000
216.97	-280.000
217.34	-375.000
217.72	-187.500
218.09	-425.000
218.47	-350.000
218.84	0.000
219.22	140.000
219.59	-41.176
219.97	-55.000
220.34	1200.000
220.72	-166.667
221.09	-115.385
221.47	-400.000
221.84	-100.000
222.22	-271.429
222.59	0.000
222.97	-125.000
223.34	-380.000
223.72	-1000.000
224.09	-500.000
224.46	-425.000
224.84	-140.000
225.21	-300.000
225.59	-425.000
225.96	-450.000
226.34	3.846
226.71	350.000
227.08	-600.000
227.46	-33.333
227.83	-250.000
228.21	-36.842
228.58	225.000
228.95	550.000
229.33	-125.000
229.70	-120.000
230.08	26.316
230.45	230.000
230.82	-466.667
231.20	-114.286
231.57	-91.667
231.95	-72.727
232.32	-118.182
232.69	-15.000
233.07	-325.000
233.44	-41.176
233.81	-80.000
234.19	-16.667
234.56	-4.545
234.93	-10.345
235.31	-36.842
235.68	-38.889
236.05	-95.000
236.43	3.846
236.80	0.000
237.17	-37.037
237.55	-30.303
237.92	-150.000
238.29	-54.839
238.67	-27.273
239.04	-16.667
239.41	-11.905
239.79	0.000
240.16	-9.259
240.53	-19.565
240.91	-25.490
241.28	-9.836
241.65	28.358
242.02	12.162
242.40	-9.231
242.77	-9.333
243.14	-9.756
243.51	-17.105
243.89	-6.410
244.26	5.941
244.63	5.882
245.00	0.000
245.38	6.140
245.75	-5.310
246.12	7.143
246.49	8.527
246.87	4.286
247.24	7.285
247.61	8.553
247.98	6.040
248.36	6.790
248.73	3.067
249.10	5.464
249.47	13.433
249.84	12.565
250.22	9.845
250.59	8.889
250.96	11.364
251.33	8.163
251.70	10.256
252.08	7.083
252.45	9.016
252.82	8.678
253.19	6.250
253.56	7.224
253.94	10.000
254.31	13.636
254.68	15.385
255.05	16.287
255.42	9.184
255.79	6.472
256.16	11.258
256.54	9.272
256.91	8.852
257.28	8.852
257.65	7.006
258.02	9.145
258.39	10.826
258.76	12.232
259.14	10.057
259.51	10.951
259.88	10.482
260.25	9.444
260.62	10.685
260.99	12.022
261.36	10.992
261.73	10.875
262.10	8.791
262.47	10.456
262.85	13.384
263.22	9.870
263.59	7.895
263.96	12.532
264.33	12.276
264.70	13.333
265.07	13.126
265.44	13.832
265.81	9.722
266.18	11.111
266.55	12.500
266.92	9.567
267.29	11.816
267.66	11.086
268.03	12.445
268.40	13.570
268.77	10.706
269.14	10.793
269.51	12.500
269.88	10.246
270.25	11.268
270.62	10.549
270.99	12.727
271.36	12.673
271.73	9.627
272.10	12.826
272.47	11.022
272.84	10.040
273.21	11.623
273.58	11.290
273.95	7.692
274.32	11.977
274.69	11.025
275.06	10.989
275.43	9.612
275.80	13.580
276.17	10.370
276.54	10.261
276.91	10.912
277.28	10.488
277.65	11.490
278.02	9.007
278.39	11.594
278.76	9.139
279.13	10.993
279.50	12.027
279.87	11.449
280.23	8.451
280.60	12.881
280.97	11.184
281.34	9.508
281.71	11.675
282.08	10.465
282.45	9.820
282.82	11.460
283.19	9.047
283.56	9.180
283.92	12.012
284.29	10.900
284.66	12.644
285.03	9.455
285.40	10.974
285.77	11.300
286.14	10.687
286.51	10.502
286.87	9.479
287.24	12.349
287.61	9.716
287.98	8.761
288.35	11.391
288.72	10.651
289.08	11.274
289.45	9.024
289.82	10.392
290.19	11.782
290.56	10.986
290.93	9.986
291.29	11.433
291.66	9.780
292.03	9.634
292.40	9.796
292.77	10.243
293.13	8.931
293.50	8.936
293.87	8.725
294.24	11.333
294.60	10.367
294.97	7.785
295.34	10.883
295.71	7.818
296.08	8.786
296.44	9.191
296.81	7.674
297.18	8.344
297.55	8.373
297.91	8.660
298.28	8.412
298.65	9.394
299.02	8.146
299.38	8.238
299.75	9.112
300.12	7.755
300.48	7.373
300.85	9.224
301.22	8.501
301.59	8.333
301.95	8.814
302.32	10.222
302.69	8.872
303.05	8.487
303.42	9.424
303.79	8.750
304.15	8.728
304.52	8.140
304.89	9.110
305.25	9.006
305.62	9.300
305.99	9.278
306.35	8.165
306.72	9.204
307.09	9.442
307.45	10.145
307.82	8.174
308.19	9.485
308.55	9.450
308.92	9.737
309.29	9.387
309.65	9.454
310.02	9.901
310.38	8.760
310.75	9.709
311.12	10.930
311.48	9.580
311.85	9.402
312.22	9.677
312.58	10.892
312.95	9.465
313.31	10.930
313.68	10.623
314.05	10.569
314.41	11.566
314.78	10.354
315.14	10.708
315.51	12.465
315.87	11.161
316.24	11.233
316.61	12.966
316.97	10.498
317.34	11.287
317.70	12.140
318.07	12.257
318.43	12.245
318.80	13.963
319.16	11.674
319.53	11.397
319.89	11.569
320.26	12.811
320.62	11.879
320.99	12.835
321.35	12.200
321.72	14.698
322.08	13.436
322.45	12.827
322.81	13.538
323.18	12.389
323.54	13.362
323.91	14.324
324.27	15.232
324.64	14.358
325.00	13.516
325.37	15.070
325.73	14.876
326.10	15.085
326.46	14.658
326.83	15.853
327.19	13.543
327.56	15.731
327.92	14.634
328.29	14.597
328.65	15.243
329.01	14.890
329.38	16.344
329.74	16.096
330.11	16.267
330.47	15.838
330.84	16.279
331.20	16.917
331.56	16.378
331.93	17.573
332.29	17.034
332.66	16.279
333.02	15.913
333.38	15.604
333.75	15.825
334.11	16.597
334.48	16.667
334.84	17.247
335.20	16.121
335.57	17.622
335.93	17.934
336.29	16.722
336.66	17.241
337.02	17.057
337.38	18.282
337.75	16.612
338.11	17.578
338.47	18.197
338.84	16.836
339.20	16.681
339.56	17.381
339.93	17.980
340.29	17.552
340.65	18.329
341.02	17.558
341.38	18.432
341.74	17.918
342.11	17.940
342.47	17.554
342.83	18.035
343.20	18.316
343.56	18.284
343.92	18.815
344.28	17.578
344.65	18.915
345.01	18.955
345.37	18.040
345.73	17.381
346.10	19.111
346.46	18.354
346.82	18.427
347.19	18.411
347.55	18.968
347.91	19.019
348.27	18.437
348.63	18.964
349.00	18.568
349.36	19.257
349.72	18.378
350.08	19.168
350.45	18.707
350.81	19.834
351.17	17.970
351.53	18.954
351.89	20.349
352.26	18.582
352.62	20.373
352.98	18.397
353.34	18.820
353.70	19.260
354.07	18.927
354.43	19.210
354.79	18.848
355.15	20.015
355.51	21.272
355.87	20.194
356.24	20.684
356.60	18.847
356.96	19.867
357.32	19.703
357.68	19.693
358.04	19.686
358.40	20.075
358.77	20.249
359.13	19.276
359.49	19.703
359.85	19.869
360.21	19.656
360.57	20.388
360.93	20.592
361.29	20.351
361.66	20.565
362.02	21.642
362.38	21.223
362.74	20.531
363.10	21.458
363.46	21.191
363.82	21.236
364.18	21.323
364.54	21.231
364.90	22.007
365.26	20.552
365.62	21.200
365.98	22.192
366.35	19.799
366.71	22.177
367.07	22.057
367.43	21.536
367.79	21.168
368.15	21.405
368.51	22.395
368.87	21.489
369.23	21.733
369.59	22.541
369.95	22.312
370.31	22.687
370.67	22.558
371.03	22.368
371.39	22.163
371.75	22.146
372.11	23.713
372.47	24.238
372.83	23.429
373.19	22.748
373.55	22.764
373.91	23.108
374.27	22.962
374.63	23.545
374.99	22.215
375.35	23.701
375.71	24.774
376.07	23.951
376.42	24.370
376.78	24.052
377.14	24.329
377.50	25.364
377.86	24.446
378.22	24.850
378.58	24.673
378.94	24.413
379.30	24.956
379.66	24.985
380.02	25.851
380.38	25.461
380.74	25.634
381.09	25.958
381.45	25.909
381.81	26.639
382.17	25.891
382.53	26.140
382.89	25.734
383.25	26.436
383.61	25.694
383.97	26.502
384.32	27.273
384.68	25.754
385.04	27.530
385.40	26.871
385.76	28.488
386.12	27.648
386.48	27.765
386.83	27.950
387.19	27.462
387.55	27.582
387.91	27.911
388.27	27.425
388.62	27.950
388.98	27.355
389.34	28.049
389.70	28.879
390.06	28.597
390.42	28.193
390.77	29.500
391.13	28.580
391.49	29.650
391.85	28.788
392.20	29.478
392.56	29.711
392.92	30.153
393.28	29.685
393.64	29.665
393.99	30.622
394.35	29.731
394.71	30.479
395.07	30.060
395.42	29.697
395.78	30.043
396.14	30.481
396.50	30.879
396.85	30.352
397.21	29.527
397.57	30.565
397.92	30.470
398.28	30.310
398.64	29.291
399.00	30.052
399.35	30.681
399.71	31.033
400.07	30.769
400.42	30.675
400.78	31.250
401.14	31.076
401.49	31.381
401.85	30.930
402.21	31.750
402.57	31.631
402.92	31.678
403.28	30.972
403.63	30.907
403.99	31.176
404.35	31.381
404.70	31.161
405.06	30.543
405.42	30.972
405.77	32.606
406.13	31.713
406.49	31.757
406.84	31.856
407.20	32.197
407.55	32.405
407.91	31.238
408.27	31.213
408.62	32.344
408.98	32.095
409.34	31.026
409.69	33.066
410.05	31.946
410.40	33.527
410.76	31.296
411.11	33.080
411.47	33.170
411.83	33.216
412.18	32.289
412.54	33.017
412.89	32.945
413.25	33.183
413.60	33.257
413.96	32.751
414.31	32.351
414.67	33.035
415.03	33.415
415.38	34.678
415.74	32.682
416.09	33.189
416.45	33.312
416.80	32.619
417.16	32.822
417.51	33.998
417.87	33.292
418.22	34.251
418.58	34.387
418.93	34.924
419.29	35.142
419.64	33.733
420.00	34.184
420.35	33.745
420.71	34.635
421.06	33.755
421.42	34.805
421.77	33.656
422.12	35.254
422.48	35.330
422.83	35.323
423.19	35.279
423.54	36.173
423.90	36.113
424.25	36.160
424.61	35.075
424.96	35.969
425.31	35.775
425.67	36.500
426.02	36.967
426.38	36.223
426.73	36.328
427.09	36.909
427.44	36.155
427.79	36.318
428.15	36.701
428.50	36.292
428.85	37.600
429.21	36.596
429.56	37.068
429.92	37.346
430.27	36.964
430.62	37.763
430.98	38.269
431.33	36.950
431.68	36.877
432.04	38.751
432.39	38.725
432.74	38.014
433.10	38.670
433.45	38.239
433.80	38.036
434.16	38.378
434.51	38.386
434.86	38.654
435.22	40.276
435.57	40.094
435.92	38.397
436.28	39.932
436.63	40.033
436.98	39.238
437.34	39.628
437.69	40.066
438.04	39.926
438.39	39.632
438.75	40.011
439.10	40.222
439.45	39.463
439.81	39.435
440.16	40.912
440.51	41.249
440.86	39.633
441.22	39.603
441.57	41.038
441.92	40.204
442.27	40.606
442.63	41.232
442.98	41.142
443.33	41.294
443.68	42.121
444.03	42.004
444.39	42.025
444.74	42.471
445.09	41.257
445.44	41.675
445.79	41.906
446.15	42.292
446.50	42.636
446.85	41.877
447.20	41.248
447.55	42.573
447.91	40.681
448.26	42.230
448.61	41.498
448.96	43.455
449.31	41.145
449.66	41.013
450.02	42.036
450.37	42.621
450.72	42.250
451.07	43.394
451.42	42.403
451.77	42.412
452.12	43.341
452.47	41.830
452.83	43.074
453.18	42.382
453.53	41.758
453.88	43.291
454.23	42.881
454.58	42.600
454.93	42.536
455.28	43.588
455.63	42.410
455.98	42.961
456.34	43.581
456.69	43.210
457.04	44.385
457.39	42.960
457.74	42.673
458.09	42.449
458.44	43.373
458.79	43.115
459.14	43.314
459.49	43.463
459.84	43.757
460.19	41.921
460.54	43.555
460.89	44.097
461.24	43.161
461.59	44.051
461.94	43.297
462.29	44.457
462.64	43.090
462.99	44.193
463.34	43.933
463.69	43.904
464.04	43.969
464.39	43.778
464.74	42.987
465.09	44.464
465.44	43.938
465.79	44.157
466.14	42.783
466.49	43.737
466.84	44.408
467.19	44.335
467.54	43.361
467.89	43.736
468.24	44.488
468.59	42.733
468.94	43.357
469.29	43.971
469.64	43.675
469.99	45.570
470.34	44.616
470.68	44.908
471.03	45.645
471.38	44.016
471.73	45.514
472.08	44.353
472.43	44.311
472.78	44.899
473.13	45.512
473.48	45.257
473.83	44.341
474.17	43.787
474.52	46.001
474.87	44.241
475.22	46.592
475.57	44.652
475.92	45.047
476.27	44.569
476.61	45.639
476.96	45.099
477.31	46.931
477.66	46.642
478.01	46.009
478.36	44.068
478.70	45.074
479.05	45.961
479.40	45.755
479.75	46.158
480.10	45.334
480.45	45.169
480.79	45.805
481.14	45.312
481.49	45.388
481.84	45.387
482.19	45.290
482.53	45.999
482.88	46.035
483.23	46.020
483.58	44.847
483.92	44.770
484.27	45.301
484.62	44.843
484.97	44.984
485.31	43.963
485.66	41.534
486.01	40.979
486.36	43.319
486.70	45.055
487.05	47.068
487.40	45.925
487.75	45.700
488.09	45.027
488.44	44.760
488.79	44.351
489.13	44.967
489.48	44.932
489.83	42.736
490.17	44.188
490.52	44.704
490.87	45.389
491.22	45.494
491.56	45.350
491.91	44.919
492.26	45.435
492.60	45.343
492.95	45.985
493.30	45.944
493.64	45.423
493.99	45.614
494.34	45.906
494.68	45.567
495.03	45.330
495.37	46.205
495.72	45.850
496.07	46.450
496.41	45.603
496.76	46.289
497.11	46.242
497.45	46.612
497.80	46.246
498.14	46.122
498.49	45.634
498.84	46.252
499.18	46.019
499.53	46.592
499.87	45.802
500.22	45.948
500.56	46.064
500.91	47.597
501.26	47.000
501.60	45.603
501.95	46.201
502.29	47.082
502.64	46.699
502.98	45.686
503.33	45.745
503.67	46.010
504.02	46.235
504.36	46.336
504.71	46.716
505.06	46.294
505.40	46.344
505.75	46.812
506.09	46.271
506.44	47.029
506.78	47.385
507.13	47.810
507.47	46.850
507.82	47.017
508.16	46.989
508.51	46.367
508.85	46.953
509.19	46.471
509.54	48.175
509.88	47.353
510.23	47.742
510.57	48.478
510.92	47.218
511.26	46.705
511.61	46.692
511.95	46.559
512.30	47.317
512.64	46.777
512.98	47.424
513.33	46.976
513.67	47.476
514.02	48.748
514.36	49.054
514.70	48.281
515.05	48.592
515.39	48.294
515.74	49.205
516.08	47.808
516.42	48.770
516.77	48.370
517.11	47.860
517.46	49.364
517.80	49.011
518.14	50.109
518.49	50.000
518.83	47.738
519.17	47.711
519.52	48.061
519.86	49.419
520.20	48.935
520.55	48.631
520.89	49.606
521.23	49.693
521.58	48.757
521.92	48.782
522.26	47.938
522.61	50.579
522.95	48.443
523.29	49.195
523.64	49.159
523.98	50.143
524.32	51.232
524.66	49.744
525.01	48.641
525.35	50.316
525.69	48.202
526.04	48.909
526.38	49.080
526.72	48.847
527.06	49.267
527.41	49.329
527.75	49.050
528.09	50.000
528.43	49.556
528.78	49.249
529.12	49.885
529.46	48.173
529.80	50.343
530.15	49.739
530.49	48.992
530.83	49.233
531.17	49.940
531.51	50.060
531.86	50.300
532.20	50.427
532.54	48.713
532.88	49.394
533.22	48.674
533.57	49.452
533.91	49.270
534.25	48.728
534.59	48.793
534.93	49.349
535.27	49.915
535.62	50.085
535.96	50.145
536.30	48.884
536.64	49.610
536.98	49.815
537.32	49.938
537.66	50.156
538.01	47.976
538.35	48.660
538.69	48.498
539.03	49.234
539.37	48.999
539.71	50.330
540.05	49.281
540.39	48.472
540.73	47.723
541.07	48.620
541.42	48.080
541.76	48.992
542.10	48.311
542.44	48.051
542.78	49.331
543.12	48.033
543.46	47.314
543.80	47.842
544.14	47.756
544.48	48.936
544.82	49.671
545.16	49.553
545.50	48.951
545.84	48.806
546.18	49.938
546.52	48.408
546.86	47.925
547.20	49.427
547.54	48.315
547.88	47.378
548.22	48.538
548.56	48.625
548.90	49.433
549.24	48.085
549.58	48.707
549.92	49.235
550.26	49.450
550.60	48.117
550.94	49.677
551.28	48.977
551.62	48.046
551.96	47.832
552.30	49.203
552.64	48.724
552.98	49.033
553.32	50.418
553.66	49.518
554.00	49.622
554.34	48.970
554.68	49.645
555.02	49.540
555.36	50.559
555.69	48.687
556.03	48.739
556.37	49.437
556.71	48.763
557.05	48.946
557.39	49.502
557.73	49.339
558.07	50.265
558.41	49.967
558.75	49.358
559.08	50.104
559.42	50.412
559.76	49.525
560.10	48.828
560.44	49.142
560.78	49.000
561.12	48.645
561.45	48.479
561.79	49.695
562.13	50.524
562.47	48.335
562.81	50.316
563.15	48.737
563.48	48.229
563.82	48.005
564.16	47.608
564.50	48.510
564.84	47.611
565.17	49.118
565.51	48.619
565.85	48.990
566.19	48.790
566.52	49.152
566.86	48.896
567.20	47.091
567.54	47.955
567.88	48.522
568.21	47.974
568.55	48.681
568.89	47.254
569.23	46.853
569.56	45.955
569.90	45.973
570.24	46.037
570.57	46.151
570.91	45.652
571.25	45.328
571.59	46.034
571.92	45.256
572.26	45.738
572.60	45.263
572.93	45.004
573.27	45.097
573.61	45.447
573.95	45.059
574.28	44.826
574.62	44.861
574.96	43.405
575.29	44.305
575.63	44.283
575.97	44.575
576.30	43.992
576.64	44.262
576.98	43.736
577.31	44.700
577.65	44.428
577.98	44.164
578.32	43.629
578.66	44.044
578.99	44.768
579.33	45.420
579.67	44.878
580.00	43.785
580.34	44.524
580.67	44.748
581.01	44.007
581.35	43.600
581.68	43.833
582.02	43.648
582.35	44.952
582.69	44.937
583.02	45.094
583.36	45.307
583.70	45.331
584.03	44.492
584.37	45.026
584.70	44.743
585.04	44.246
585.37	43.747
585.71	44.121
586.04	43.901
586.38	44.986
586.72	45.375
587.05	45.101
587.39	44.951
587.72	45.455
588.06	44.560
588.39	45.307
588.73	45.238
589.06	44.695
589.40	46.097
589.73	45.823
590.07	45.590
590.40	46.078
590.73	45.705
591.07	47.096
591.40	44.868
591.74	46.065
592.07	46.691
592.41	45.426
592.74	44.870
593.08	46.242
593.41	45.261
593.75	45.776
594.08	45.501
594.41	46.250
594.75	45.766
595.08	46.332
595.42	46.006
595.75	45.334
596.09	46.459
596.42	46.005
596.75	47.125
597.09	46.303
597.42	45.729
597.75	45.433
598.09	46.706
598.42	47.125
598.76	45.204
599.09	45.283
599.42	45.323
599.76	45.196
600.09	45.712
600.42	45.846
600.76	45.641
601.09	45.835
601.42	46.069
601.76	45.414
602.09	46.605
602.42	46.020
602.76	46.236
603.09	46.035
603.42	46.279
603.76	45.455
604.09	46.238
604.42	45.651
604.76	45.167
605.09	46.909
605.42	46.332
605.75	45.577
606.09	46.025
606.42	45.713
606.75	45.990
607.09	44.777
607.42	45.010
607.75	45.955
608.08	45.620
608.42	45.707
608.75	46.352
609.08	45.798
609.41	45.390
609.75	46.875
610.08	46.790
610.41	46.347
610.74	45.378
611.07	47.114
611.41	46.996
611.74	46.697
612.07	46.798
612.40	46.768
612.73	47.237
613.07	46.993
613.40	47.401
613.73	46.365
614.06	46.909
614.39	46.599
614.72	46.240
615.06	45.958
615.39	45.433
615.72	47.014
616.05	46.333
616.38	48.385
616.71	47.335
617.05	46.805
617.38	47.994
617.71	48.650
618.04	47.167
618.37	47.268
618.70	48.925
619.03	48.746
619.36	47.842
619.69	49.071
620.03	47.207
620.36	48.344
620.69	47.625
621.02	47.572
621.35	50.145
621.68	50.398
622.01	48.683
622.34	48.884
622.67	48.729
623.00	48.313
623.33	49.768
623.66	48.898
623.99	48.716
624.32	50.097
624.65	48.520
624.99	49.155
625.32	49.379
625.65	50.236
625.98	49.017
626.31	49.610
626.64	49.011
626.97	48.462
627.30	48.671
627.63	48.537
627.96	48.799
628.29	49.883
628.62	49.958
628.95	50.482
629.28	49.108
629.61	50.505
629.94	49.540
630.26	48.390
630.59	50.950
630.92	49.264
631.25	50.537
631.58	50.847
631.91	50.609
632.24	50.720
632.57	49.810
632.90	53.059
633.23	51.939
633.56	48.776
633.89	51.550
