SpectraSuite Data File
++++++++++++++++++++++++++++++++++++
Date: Thu May 14 14:42:14 PDT 2015
User: schluterlab
Dark Spectrum Present: Yes
Reference Spectrum Present: Yes
Number of Sampled Component Spectra: 1
Spectrometers: USB2E3373
Integration Time (usec): 3000 (USB2E3373)
Spectra Averaged: 3 (USB2E3373)
Boxcar Smoothing: 0 (USB2E3373)
Correct for Electrical Dark: No (USB2E3373)
Strobe/Lamp Enabled: No (USB2E3373)
Correct for Detector Non-linearity: No (USB2E3373)
Correct for Stray Light: No (USB2E3373)
Number of Pixels in Processed Spectrum: 2048
>>>>>Begin Processed Spectral Data<<<<<
178.53	0.000
178.91	14.286
179.29	-400.000
179.67	200.000
180.04	57.143
180.42	-0.000
180.80	-120.000
181.18	600.000
181.56	1300.000
181.94	-225.000
182.31	125.000
182.69	-333.333
183.07	600.000
183.45	-0.000
183.83	216.667
184.20	133.333
184.58	-100.000
184.96	25.000
185.34	33.333
185.72	80.000
186.09	44.444
186.47	-300.000
186.85	-20.000
187.23	33.333
187.61	100.000
187.98	-60.000
188.36	-50.000
188.74	175.000
189.12	133.333
189.49	43.750
189.87	200.000
190.25	44.444
190.63	240.000
191.00	0.000
191.38	0.000
191.76	-50.000
192.14	33.333
192.51	-250.000
192.89	216.667
193.27	0.000
193.65	71.429
194.02	-300.000
194.40	100.000
194.78	-14.286
195.15	0.000
195.53	145.455
195.91	0.000
196.29	175.000
196.66	46.154
197.04	100.000
197.42	0.000
197.79	50.000
198.17	0.000
198.55	28.571
198.92	44.444
199.30	25.000
199.68	63.636
200.05	14.286
200.43	150.000
200.81	57.143
201.18	0.000
201.56	-22.222
201.94	0.000
202.31	-66.667
202.69	55.556
203.07	-1300.000
203.44	44.444
203.82	75.000
204.19	166.667
204.57	16.667
204.95	75.000
205.32	100.000
205.70	-150.000
206.08	66.667
206.45	166.667
206.83	-0.000
207.20	150.000
207.58	80.000
207.96	83.333
208.33	133.333
208.71	-16.667
209.08	316.667
209.46	0.000
209.84	-66.667
210.21	-650.000
210.59	-500.000
210.96	200.000
211.34	300.000
211.71	-12.500
212.09	800.000
212.46	0.000
212.84	-50.000
213.22	0.000
213.59	50.000
213.97	160.000
214.34	-166.667
214.72	-50.000
215.09	75.000
215.47	0.000
215.84	-157.143
216.22	-100.000
216.59	40.000
216.97	260.000
217.34	175.000
217.72	75.000
218.09	-150.000
218.47	125.000
218.84	0.000
219.22	-220.000
219.59	76.471
219.97	40.000
220.34	-0.000
220.72	-33.333
221.09	115.385
221.47	100.000
221.84	80.000
222.22	57.143
222.59	0.000
222.97	112.500
223.34	160.000
223.72	1200.000
224.09	200.000
224.46	0.000
224.84	40.000
225.21	28.571
225.59	125.000
225.96	300.000
226.34	57.692
226.71	-50.000
227.08	400.000
227.46	53.333
227.83	100.000
228.21	100.000
228.58	-87.500
228.95	-100.000
229.33	91.667
229.70	130.000
230.08	121.053
230.45	-40.000
230.82	166.667
231.20	50.000
231.57	91.667
231.95	109.091
232.32	45.455
232.69	70.000
233.07	175.000
233.44	52.941
233.81	40.000
234.19	127.778
234.56	68.182
234.93	55.172
235.31	31.579
235.68	61.111
236.05	10.000
236.43	84.615
236.80	100.000
237.17	48.148
237.55	33.333
237.92	30.000
238.29	54.839
238.67	25.000
239.04	50.000
239.41	45.238
239.79	50.000
240.16	33.333
240.53	2.174
240.91	45.098
241.28	37.705
241.65	41.791
242.02	40.541
242.40	35.385
242.77	26.667
243.14	18.293
243.51	34.211
243.89	37.179
244.26	35.644
244.63	43.137
245.00	36.449
245.38	29.825
245.75	19.469
246.12	31.746
246.49	29.457
246.87	30.000
247.24	25.828
247.61	32.895
247.98	28.859
248.36	25.309
248.73	22.086
249.10	29.508
249.47	30.846
249.84	32.461
250.22	24.870
250.59	35.000
250.96	32.727
251.33	30.102
251.70	24.786
252.08	25.417
252.45	28.279
252.82	28.512
253.19	27.734
253.56	30.038
253.94	21.538
254.31	31.439
254.68	25.874
255.05	26.710
255.42	24.830
255.79	24.272
256.16	27.483
256.54	24.834
256.91	26.557
257.28	24.590
257.65	27.070
258.02	27.434
258.39	24.501
258.76	28.746
259.14	31.034
259.51	26.513
259.88	23.229
260.25	26.111
260.62	28.493
260.99	28.142
261.36	30.295
261.73	27.851
262.10	29.396
262.47	30.027
262.85	27.525
263.22	27.792
263.59	25.263
263.96	29.412
264.33	24.552
264.70	24.691
265.07	25.537
265.44	26.304
265.81	27.083
266.18	27.664
266.55	26.116
266.92	23.918
267.29	27.133
267.66	28.381
268.03	26.419
268.40	27.140
268.77	23.235
269.14	23.568
269.51	25.658
269.88	27.049
270.25	24.748
270.62	27.637
270.99	28.081
271.36	26.337
271.73	24.558
272.10	26.453
272.47	26.253
272.84	24.900
273.21	24.449
273.58	25.605
273.95	25.577
274.32	25.095
274.69	23.598
275.06	25.824
275.43	24.399
275.80	25.573
276.17	24.630
276.54	24.067
276.91	23.971
277.28	25.678
277.65	24.955
278.02	26.287
278.39	23.370
278.76	24.077
279.13	24.291
279.50	24.742
279.87	26.297
280.23	22.535
280.60	24.407
280.97	25.164
281.34	24.618
281.71	22.335
282.08	23.920
282.45	23.241
282.82	23.077
283.19	22.132
283.56	24.262
283.92	25.826
284.29	24.961
284.66	23.974
285.03	22.436
285.40	22.720
285.77	23.994
286.14	24.122
286.51	22.831
286.87	22.591
287.24	23.042
287.61	21.525
287.98	22.810
288.35	24.260
288.72	22.929
289.08	24.451
289.45	22.633
289.82	22.440
290.19	22.414
290.56	22.958
290.93	21.826
291.29	20.661
291.66	23.967
292.03	21.167
292.40	22.857
292.77	19.811
293.13	19.756
293.50	18.397
293.87	21.611
294.24	22.133
294.60	20.480
294.97	19.060
295.34	19.718
295.71	19.168
296.08	19.767
296.44	19.608
296.81	19.976
297.18	19.054
297.55	19.340
297.91	18.268
298.28	18.246
298.65	19.144
299.02	18.536
299.38	18.993
299.75	18.808
300.12	19.560
300.48	18.433
300.85	19.010
301.22	20.022
301.59	17.580
301.95	18.079
302.32	19.111
302.69	19.168
303.05	17.954
303.42	18.514
303.79	17.708
304.15	18.717
304.52	17.548
304.89	17.906
305.25	17.081
305.62	17.555
305.99	18.041
306.35	18.750
306.72	18.614
307.09	17.157
307.45	17.805
307.82	17.154
308.19	18.063
308.55	18.901
308.92	17.429
309.29	18.487
309.65	18.226
310.02	18.218
310.38	17.618
310.75	18.155
311.12	19.942
311.48	19.062
311.85	18.139
312.22	18.121
312.58	17.559
312.95	18.356
313.31	18.338
313.68	19.505
314.05	19.061
314.41	18.852
314.78	19.528
315.14	19.147
315.51	19.852
315.87	19.352
316.24	19.543
316.61	19.005
316.97	18.190
317.34	19.312
317.70	19.913
318.07	19.400
318.43	19.728
318.80	19.732
319.16	19.142
319.53	18.338
319.89	19.544
320.26	20.374
320.62	18.794
320.99	19.483
321.35	20.333
321.72	21.023
322.08	20.739
322.45	20.958
322.81	22.202
323.18	20.796
323.54	21.466
323.91	21.619
324.27	20.052
324.64	21.579
325.00	21.227
325.37	21.949
325.73	20.661
326.10	21.411
326.46	21.987
326.83	22.338
327.19	21.260
327.56	21.976
327.92	20.220
328.29	20.323
328.65	20.854
329.01	20.897
329.38	22.241
329.74	22.774
330.11	22.432
330.47	22.494
330.84	21.792
331.20	22.583
331.56	21.664
331.93	22.008
332.29	22.203
332.66	22.176
333.02	21.608
333.38	22.315
333.75	20.286
334.11	22.018
334.48	22.195
334.84	22.345
335.20	21.830
335.57	22.934
335.93	21.901
336.29	21.131
336.66	21.362
337.02	21.823
337.38	21.429
337.75	21.322
338.11	21.278
338.47	21.009
338.84	21.066
339.20	21.230
339.56	20.511
339.93	20.690
340.29	21.578
340.65	20.681
341.02	21.309
341.38	21.261
341.74	21.146
342.11	21.883
342.47	20.731
342.83	21.739
343.20	21.341
343.56	21.171
343.92	21.697
344.28	21.641
344.65	22.093
345.01	21.217
345.37	21.851
345.73	21.044
346.10	20.983
346.46	20.886
346.82	21.273
347.19	21.696
347.55	21.927
347.91	20.802
348.27	21.320
348.63	21.478
349.00	20.060
349.36	20.818
349.72	20.908
350.08	21.991
350.45	20.000
350.81	21.569
351.17	21.504
351.53	21.228
351.89	21.109
352.26	21.194
352.62	20.448
352.98	20.076
353.34	19.866
353.70	21.341
354.07	20.566
354.43	21.260
354.79	20.269
355.15	20.456
355.51	20.102
355.87	20.868
356.24	20.684
356.60	20.399
356.96	20.608
357.32	20.669
357.68	20.425
358.04	21.183
358.40	20.597
358.77	20.541
359.13	20.975
359.49	20.446
359.85	21.610
360.21	21.664
360.57	20.747
360.93	19.887
361.29	21.684
361.66	20.492
362.02	20.598
362.38	20.801
362.74	20.950
363.10	20.908
363.46	20.499
363.82	21.023
364.18	20.830
364.54	20.332
364.90	21.070
365.26	21.172
365.62	20.733
365.98	20.354
366.35	19.866
366.71	21.224
367.07	21.042
367.43	20.223
367.79	20.902
368.15	21.739
368.51	20.501
368.87	21.163
369.23	21.133
369.59	20.219
369.95	20.960
370.31	20.594
370.67	21.320
371.03	21.537
371.39	20.081
371.75	20.289
372.11	20.799
372.47	21.192
372.83	21.597
373.19	20.547
373.55	21.070
373.91	20.654
374.27	21.087
374.63	20.636
374.99	21.286
375.35	22.532
375.71	22.000
376.07	21.627
376.42	20.970
376.78	20.945
377.14	21.148
377.50	21.758
377.86	21.552
378.22	21.078
378.58	21.284
378.94	20.599
379.30	20.972
379.66	21.458
380.02	21.177
380.38	21.256
380.74	21.465
381.09	21.777
381.45	21.818
381.81	21.780
382.17	21.496
382.53	21.228
382.89	21.558
383.25	21.923
383.61	20.023
383.97	21.614
384.32	21.711
384.68	21.578
385.04	21.689
385.40	22.510
385.76	21.923
386.12	21.604
386.48	22.118
386.83	22.646
387.19	21.553
387.55	21.362
387.91	21.404
388.27	22.460
388.62	21.478
388.98	21.827
389.34	22.805
389.70	22.080
390.06	21.374
390.42	21.928
390.77	22.336
391.13	21.655
391.49	22.162
391.85	22.121
392.20	22.657
392.56	21.914
392.92	22.574
393.28	22.278
393.64	21.117
393.99	22.952
394.35	23.014
394.71	22.216
395.07	22.096
395.42	21.930
395.78	23.522
396.14	21.985
396.50	22.743
396.85	21.765
397.21	22.367
397.57	22.497
397.92	23.482
398.28	21.945
398.64	21.796
399.00	21.361
399.35	21.623
399.71	21.902
400.07	22.066
400.42	22.177
400.78	22.396
401.14	21.855
401.49	22.456
401.85	23.488
402.21	22.885
402.57	22.300
402.92	22.872
403.28	22.424
403.63	21.957
403.99	22.268
404.35	22.058
404.70	22.436
405.06	21.957
405.42	21.956
405.77	21.919
406.13	22.582
406.49	21.903
406.84	22.825
407.20	22.303
407.55	22.592
407.91	22.690
408.27	22.733
408.62	23.037
408.98	22.577
409.34	22.053
409.69	22.744
410.05	22.685
410.40	23.492
410.76	22.602
411.11	23.320
411.47	22.850
411.83	23.339
412.18	23.072
412.54	23.711
412.89	22.992
413.25	23.533
413.60	22.286
413.96	22.844
414.31	22.946
414.67	23.256
415.03	22.954
415.38	23.455
415.74	23.580
416.09	23.010
416.45	22.981
416.80	21.787
417.16	24.330
417.51	23.537
417.87	24.034
418.22	22.814
418.58	23.234
418.93	23.341
419.29	23.613
419.64	21.909
420.00	23.145
420.35	23.919
420.71	23.205
421.06	22.887
421.42	23.165
421.77	22.886
422.12	22.622
422.48	22.734
422.83	23.768
423.19	22.759
423.54	23.617
423.90	23.468
424.25	24.000
424.61	23.536
424.96	23.284
425.31	23.726
425.67	23.564
426.02	23.686
426.38	23.421
426.73	23.493
427.09	24.164
427.44	23.430
427.79	23.825
428.15	23.231
428.50	23.820
428.85	24.455
429.21	24.734
429.56	24.087
429.92	23.342
430.27	23.614
430.62	23.889
430.98	23.709
431.33	23.900
431.68	23.898
432.04	23.768
432.39	24.424
432.74	24.258
433.10	25.311
433.45	24.025
433.80	24.195
434.16	24.277
434.51	24.666
434.86	25.081
435.22	24.708
435.57	25.059
435.92	24.541
436.28	25.370
436.63	25.778
436.98	25.228
437.34	24.859
437.69	24.986
438.04	25.383
438.39	25.273
438.75	25.789
439.10	26.216
439.45	25.042
439.81	25.989
440.16	25.255
440.51	25.975
440.86	25.014
441.22	25.563
441.57	25.577
441.92	25.121
442.27	26.010
442.63	26.080
442.98	25.133
443.33	25.934
443.68	25.966
444.03	26.905
444.39	26.167
444.74	27.157
445.09	26.356
445.44	26.660
445.79	26.868
446.15	26.208
446.50	26.305
446.85	26.021
447.20	26.064
447.55	26.726
447.91	26.387
448.26	25.951
448.61	27.046
448.96	26.878
449.31	26.670
449.66	27.015
450.02	26.951
450.37	27.491
450.72	26.695
451.07	27.050
451.42	26.632
451.77	26.459
452.12	27.314
452.47	26.322
452.83	26.914
453.18	26.970
453.53	26.479
453.88	26.836
454.23	27.514
454.58	27.336
454.93	27.245
455.28	27.634
455.63	26.094
455.98	27.095
456.34	25.854
456.69	27.454
457.04	27.837
457.39	26.885
457.74	27.461
458.09	26.853
458.44	28.233
458.79	27.282
459.14	27.216
459.49	27.391
459.84	27.807
460.19	27.540
460.54	27.598
460.89	27.898
461.24	27.126
461.59	28.279
461.94	27.382
462.29	28.108
462.64	27.882
462.99	28.751
463.34	27.969
463.69	28.253
464.04	27.738
464.39	28.531
464.74	27.024
465.09	28.028
465.44	27.843
465.79	28.398
466.14	27.254
466.49	28.263
466.84	28.320
467.19	29.306
467.54	27.380
467.89	28.391
468.24	28.199
468.59	27.968
468.94	28.438
469.29	28.734
469.64	28.735
469.99	28.426
470.34	29.022
470.68	29.528
471.03	28.356
471.38	28.188
471.73	29.649
472.08	28.617
472.43	29.320
472.78	28.212
473.13	27.939
473.48	29.003
473.83	29.135
474.17	27.902
474.52	29.284
474.87	28.571
475.22	28.563
475.57	28.609
475.92	28.721
476.27	28.381
476.61	29.180
476.96	27.633
477.31	28.465
477.66	30.115
478.01	28.521
478.36	29.362
478.70	29.409
479.05	29.243
479.40	29.072
479.75	29.731
480.10	29.038
480.45	28.487
480.79	28.844
481.14	28.401
481.49	28.033
481.84	29.373
482.19	28.645
482.53	28.859
482.88	29.021
483.23	29.346
483.58	28.646
483.92	28.679
484.27	28.874
484.62	28.259
484.97	28.694
485.31	28.124
485.66	27.194
486.01	25.946
486.36	26.527
486.70	27.457
487.05	28.863
487.40	28.303
487.75	29.338
488.09	29.332
488.44	29.655
488.79	29.848
489.13	30.051
489.48	28.233
489.83	28.370
490.17	29.000
490.52	28.489
490.87	29.738
491.22	29.506
491.56	29.906
491.91	29.219
492.26	29.251
492.60	29.471
492.95	29.399
493.30	29.762
493.64	29.260
493.99	29.649
494.34	29.225
494.68	29.036
495.03	29.780
495.37	28.540
495.72	29.796
496.07	28.878
496.41	29.000
496.76	29.942
497.11	29.682
497.45	29.391
497.80	30.120
498.14	30.249
498.49	29.779
498.84	30.027
499.18	29.555
499.53	28.700
499.87	30.154
500.22	29.341
500.56	28.880
500.91	29.931
501.26	30.409
501.60	29.872
501.95	30.135
502.29	29.443
502.64	29.952
502.98	29.077
503.33	30.065
503.67	29.525
504.02	29.247
504.36	29.312
504.71	30.271
505.06	30.059
505.40	29.570
505.75	29.326
506.09	29.972
506.44	30.826
506.78	30.275
507.13	30.705
507.47	30.175
507.82	30.919
508.16	30.641
508.51	29.208
508.85	29.901
509.19	30.791
509.54	30.115
509.88	31.180
510.23	30.306
510.57	31.464
510.92	30.672
511.26	30.832
511.61	29.696
511.95	29.868
512.30	30.231
512.64	29.935
512.98	31.016
513.33	32.258
513.67	31.260
514.02	30.864
514.36	31.304
514.70	31.667
515.05	31.960
515.39	31.129
515.74	31.548
516.08	32.013
516.42	31.763
516.77	31.703
517.11	30.376
517.46	31.601
517.80	31.855
518.14	31.665
518.49	32.755
518.83	31.240
519.17	31.179
519.52	30.608
519.86	31.573
520.20	31.629
520.55	32.147
520.89	31.363
521.23	31.267
521.58	31.638
521.92	32.465
522.26	32.188
522.61	32.234
522.95	33.218
523.29	31.954
523.64	31.390
523.98	32.573
524.32	32.378
524.66	32.783
525.01	32.163
525.35	31.763
525.69	30.916
526.04	31.745
526.38	32.529
526.72	31.776
527.06	32.493
527.41	32.012
527.75	32.660
528.09	32.054
528.43	31.794
528.78	32.370
529.12	31.479
529.46	31.197
529.80	32.037
530.15	32.522
530.49	31.791
530.83	33.353
531.17	31.959
531.51	31.889
531.86	32.272
532.20	32.256
532.54	31.957
532.88	31.758
533.22	31.644
533.57	31.391
533.91	31.874
534.25	32.561
534.59	32.759
534.93	31.126
535.27	32.338
535.62	32.291
535.96	32.481
536.30	32.432
536.64	33.273
536.98	33.026
537.32	32.222
537.66	32.751
538.01	31.299
538.35	31.547
538.69	31.070
539.03	32.495
539.37	32.155
539.71	31.351
540.05	32.014
540.39	32.090
540.73	32.058
541.07	32.679
541.42	31.483
541.76	31.791
542.10	31.242
542.44	31.790
542.78	31.934
543.12	31.585
543.46	31.624
543.80	31.175
544.14	31.777
544.48	31.560
544.82	31.658
545.16	30.948
545.50	31.096
545.84	32.456
546.18	33.148
546.52	32.229
546.86	32.013
547.20	31.361
547.54	31.773
547.88	31.646
548.22	31.637
548.56	30.954
548.90	31.522
549.24	31.429
549.58	31.104
549.92	32.143
550.26	32.621
550.60	32.163
550.94	32.212
551.28	32.145
551.62	33.423
551.96	32.104
552.30	32.377
552.64	32.856
552.98	32.564
553.32	32.605
553.66	32.540
554.00	32.913
554.34	32.754
554.68	31.246
555.02	33.377
555.36	32.281
555.69	31.198
556.03	32.409
556.37	33.229
556.71	31.706
557.05	32.524
557.39	32.648
557.73	32.431
558.07	32.185
558.41	33.156
558.75	32.928
559.08	33.612
559.42	32.990
559.76	33.446
560.10	33.021
560.44	32.520
560.78	32.625
561.12	31.897
561.45	32.421
561.79	31.990
562.13	32.594
562.47	31.504
562.81	31.329
563.15	31.818
563.48	32.567
563.82	31.802
564.16	31.617
564.50	32.360
564.84	31.209
565.17	32.353
565.51	31.703
565.85	31.770
566.19	31.279
566.52	32.066
566.86	32.881
567.20	31.648
567.54	31.067
567.88	31.397
568.21	31.028
568.55	31.223
568.89	31.139
569.23	30.756
569.56	29.973
569.90	29.579
570.24	29.949
570.57	29.731
570.91	30.098
571.25	29.245
571.59	29.557
571.92	29.344
572.26	30.016
572.60	29.648
572.93	29.752
573.27	29.756
573.61	29.037
573.95	29.328
574.28	28.498
574.62	28.672
574.96	28.408
575.29	28.597
575.63	28.991
575.97	29.437
576.30	29.410
576.64	29.182
576.98	29.021
577.31	28.625
577.65	28.869
577.98	28.294
578.32	28.535
578.66	28.496
578.99	28.773
579.33	29.613
579.67	29.170
580.00	29.153
580.34	29.188
580.67	29.259
581.01	28.992
581.35	28.249
581.68	28.234
582.02	28.241
582.35	28.658
582.69	29.063
583.02	29.527
583.36	29.862
583.70	29.880
584.03	29.710
584.37	29.869
584.70	29.364
585.04	29.482
585.37	28.767
585.71	28.393
586.04	29.590
586.38	29.573
586.72	29.205
587.05	29.598
587.39	29.344
587.72	28.900
588.06	29.231
588.39	30.097
588.73	29.921
589.06	29.881
589.40	30.270
589.73	30.720
590.07	30.239
590.40	29.851
590.73	29.905
591.07	31.050
591.40	30.793
591.74	30.485
592.07	30.735
592.41	30.244
592.74	30.103
593.08	29.331
593.41	29.688
593.75	29.339
594.08	29.839
594.41	29.936
594.75	29.824
595.08	30.585
595.42	30.747
595.75	30.481
596.09	29.854
596.42	30.634
596.75	30.143
597.09	31.515
597.42	30.155
597.75	30.223
598.09	30.675
598.42	30.438
598.76	29.538
599.09	29.619
599.42	29.132
599.76	29.647
600.09	29.963
600.42	29.897
600.76	29.921
601.09	29.804
601.42	29.900
601.76	30.310
602.09	30.343
602.42	30.134
602.76	29.631
603.09	30.360
603.42	30.455
603.76	30.056
604.09	30.199
604.42	30.606
604.76	30.061
605.09	30.794
605.42	30.343
605.75	30.615
606.09	29.750
606.42	29.661
606.75	29.948
607.09	29.992
607.42	29.904
607.75	30.403
608.08	30.624
608.42	30.310
608.75	30.929
609.08	30.857
609.41	31.804
609.75	31.250
610.08	31.442
610.41	30.374
610.74	30.840
611.07	31.172
611.41	31.525
611.74	31.824
612.07	31.510
612.40	30.846
612.73	32.029
613.07	30.807
613.40	31.569
613.73	31.006
614.06	31.354
614.39	30.369
614.72	30.277
615.06	30.077
615.39	30.643
615.72	30.948
616.05	30.840
616.38	31.332
616.71	31.714
617.05	31.896
617.38	31.407
617.71	31.263
618.04	30.977
618.37	31.913
618.70	32.353
619.03	31.541
619.36	32.861
619.69	32.864
620.03	32.266
620.36	31.718
620.69	31.832
621.02	33.005
621.35	33.890
621.68	33.116
622.01	32.740
622.34	31.869
622.67	32.027
623.00	32.389
623.33	32.250
623.66	33.333
623.99	31.534
624.32	32.943
624.65	31.918
624.99	33.030
625.32	32.462
625.65	33.243
625.98	32.678
626.31	33.310
626.64	33.773
626.97	33.233
627.30	32.878
627.63	32.633
627.96	33.333
628.29	33.696
628.62	33.669
628.95	35.320
629.28	33.220
629.61	34.175
629.94	33.640
630.26	33.220
630.59	34.974
630.92	33.766
631.25	34.615
631.58	35.782
631.91	34.208
632.24	34.198
632.57	34.440
632.90	35.607
633.23	33.571
633.56	36.122
633.89	34.917
634.22	34.927
634.55	35.386
