SpectraSuite Data File
++++++++++++++++++++++++++++++++++++
Date: Thu May 14 14:46:52 PDT 2015
User: schluterlab
Dark Spectrum Present: Yes
Reference Spectrum Present: Yes
Number of Sampled Component Spectra: 1
Spectrometers: USB2E3373
Integration Time (usec): 3000 (USB2E3373)
Spectra Averaged: 3 (USB2E3373)
Boxcar Smoothing: 0 (USB2E3373)
Correct for Electrical Dark: No (USB2E3373)
Strobe/Lamp Enabled: No (USB2E3373)
Correct for Detector Non-linearity: No (USB2E3373)
Correct for Stray Light: No (USB2E3373)
Number of Pixels in Processed Spectrum: 2048
>>>>>Begin Processed Spectral Data<<<<<
178.53	0.000
178.91	28.571
179.29	-800.000
179.67	0.000
180.04	142.857
180.42	-20.000
180.80	200.000
181.18	-400.000
181.56	600.000
181.94	275.000
182.31	250.000
182.69	-0.000
183.07	50.000
183.45	225.000
183.83	-83.333
184.20	66.667
184.58	100.000
184.96	25.000
185.34	-11.111
185.72	260.000
186.09	188.889
186.47	650.000
186.85	360.000
187.23	-22.222
187.61	-700.000
187.98	140.000
188.36	-100.000
188.74	-275.000
189.12	-33.333
189.49	62.500
189.87	0.000
190.25	111.111
190.63	60.000
191.00	-33.333
191.38	0.000
191.76	-225.000
192.14	-66.667
192.51	50.000
192.89	150.000
193.27	0.000
193.65	-14.286
194.02	-600.000
194.40	85.714
194.78	71.429
195.15	0.000
195.53	18.182
195.91	0.000
196.29	-75.000
196.66	-23.077
197.04	-400.000
197.42	-14.286
197.79	250.000
198.17	-87.500
198.55	71.429
198.92	88.889
199.30	-62.500
199.68	0.000
200.05	21.429
200.43	-50.000
200.81	200.000
201.18	0.000
201.56	155.556
201.94	0.000
202.31	333.333
202.69	33.333
203.07	-400.000
203.44	66.667
203.82	-175.000
204.19	-25.000
204.57	33.333
204.95	-87.500
205.32	-500.000
205.70	125.000
206.08	-33.333
206.45	50.000
206.83	400.000
207.20	116.667
207.58	-320.000
207.96	33.333
208.33	33.333
208.71	91.667
209.08	-50.000
209.46	0.000
209.84	183.333
210.21	-350.000
210.59	50.000
210.96	266.667
211.34	-50.000
211.71	-100.000
212.09	-600.000
212.46	0.000
212.84	900.000
213.22	-180.000
213.59	-75.000
213.97	-10.000
214.34	-200.000
214.72	66.667
215.09	0.000
215.47	0.000
215.84	100.000
216.22	650.000
216.59	20.000
216.97	-200.000
217.34	0.000
217.72	75.000
218.09	-25.000
218.47	-250.000
218.84	0.000
219.22	60.000
219.59	-5.882
219.97	30.000
220.34	450.000
220.72	-44.444
221.09	123.077
221.47	133.333
221.84	-50.000
222.22	-171.429
222.59	0.000
222.97	25.000
223.34	-180.000
223.72	-600.000
224.09	-125.000
224.46	-50.000
224.84	60.000
225.21	42.857
225.59	-75.000
225.96	-25.000
226.34	30.769
226.71	50.000
227.08	-250.000
227.46	6.667
227.83	-50.000
228.21	-26.316
228.58	-0.000
228.95	450.000
229.33	41.667
229.70	30.000
230.08	73.684
230.45	170.000
230.82	166.667
231.20	21.429
231.57	16.667
231.95	27.273
232.32	-36.364
232.69	-5.000
233.07	-25.000
233.44	47.059
233.81	0.000
234.19	50.000
234.56	4.545
234.93	34.483
235.31	10.526
235.68	61.111
236.05	-35.000
236.43	46.154
236.80	60.000
237.17	29.630
237.55	3.030
237.92	-60.000
238.29	25.806
238.67	-2.273
239.04	2.778
239.41	45.238
239.79	17.391
240.16	29.630
240.53	26.087
240.91	31.373
241.28	22.951
241.65	41.791
242.02	27.027
242.40	13.846
242.77	36.000
243.14	32.927
243.51	30.263
243.89	24.359
244.26	25.743
244.63	35.294
245.00	32.710
245.38	27.193
245.75	14.159
246.12	30.952
246.49	28.682
246.87	31.429
247.24	31.126
247.61	34.211
247.98	25.503
248.36	30.247
248.73	20.859
249.10	30.601
249.47	35.821
249.84	35.079
250.22	26.943
250.59	27.222
250.96	35.909
251.33	32.143
251.70	27.778
252.08	27.917
252.45	31.148
252.82	27.686
253.19	22.266
253.56	32.319
253.94	26.923
254.31	32.955
254.68	32.867
255.05	29.967
255.42	29.252
255.79	27.184
256.16	27.483
256.54	27.483
256.91	29.180
257.28	26.885
257.65	31.210
258.02	27.434
258.39	29.345
258.76	30.887
259.14	32.184
259.51	27.666
259.88	29.462
260.25	31.111
260.62	29.315
260.99	34.973
261.36	29.223
261.73	32.626
262.10	29.945
262.47	27.614
262.85	33.081
263.22	29.351
263.59	27.632
263.96	28.900
264.33	29.412
264.70	27.654
265.07	32.697
265.44	31.973
265.81	29.167
266.18	29.705
266.55	28.571
266.92	24.601
267.29	30.416
267.66	30.820
268.03	30.568
268.40	28.601
268.77	28.474
269.14	27.753
269.51	29.825
269.88	28.689
270.25	28.169
270.62	30.591
270.99	28.687
271.36	30.099
271.73	27.308
272.10	34.269
272.47	30.661
272.84	31.526
273.21	28.056
273.58	29.839
273.95	27.500
274.32	26.046
274.69	27.273
275.06	28.938
275.43	24.030
275.80	27.513
276.17	27.963
276.54	27.985
276.91	28.444
277.28	27.848
277.65	26.212
278.02	29.412
278.39	27.717
278.76	29.701
279.13	28.014
279.50	28.866
279.87	27.191
280.23	26.232
280.60	29.492
280.97	26.974
281.34	27.674
281.71	29.442
282.08	26.910
282.45	29.133
282.82	25.903
283.19	27.787
283.56	28.361
283.92	25.826
284.29	27.962
284.66	28.571
285.03	26.122
285.40	27.512
285.77	26.935
286.14	27.634
286.51	26.484
286.87	26.224
287.24	25.452
287.61	26.607
287.98	25.982
288.35	27.219
288.72	25.592
289.08	26.647
289.45	24.408
289.82	23.946
290.19	26.580
290.56	25.211
290.93	24.964
291.29	25.482
291.66	24.656
292.03	22.252
292.40	23.129
292.77	22.911
293.13	23.410
293.50	21.945
293.87	23.221
294.24	25.733
294.60	23.641
294.97	22.550
295.34	23.431
295.71	20.933
296.08	21.576
296.44	22.304
296.81	23.386
297.18	19.801
297.55	22.406
297.91	21.352
298.28	20.024
298.65	21.641
299.02	20.425
299.38	20.709
299.75	21.379
300.12	18.519
300.48	21.544
300.85	20.360
301.22	20.470
301.59	19.635
301.95	20.339
302.32	22.556
302.69	20.153
303.05	21.436
303.42	18.736
303.79	20.625
304.15	20.820
304.52	19.239
304.89	20.524
305.25	20.497
305.62	19.854
305.99	18.969
306.35	20.161
306.72	21.406
307.09	18.173
307.45	19.151
307.82	19.374
308.19	20.787
308.55	20.347
308.92	20.253
309.29	18.966
309.65	18.908
310.02	19.307
310.38	19.094
310.75	19.417
311.12	20.326
311.48	20.039
311.85	18.329
312.22	18.786
312.58	18.779
312.95	18.834
313.31	19.603
313.68	19.780
314.05	19.241
314.41	20.036
314.78	20.073
315.14	19.147
315.51	20.406
315.87	20.162
316.24	19.726
316.61	20.071
316.97	17.828
317.34	18.254
317.70	19.913
318.07	19.048
318.43	19.048
318.80	20.234
319.16	18.112
319.53	18.423
319.89	18.230
320.26	19.840
320.62	17.376
320.99	19.298
321.35	20.148
321.72	19.442
322.08	19.206
322.45	19.783
322.81	19.043
323.18	18.673
323.54	18.966
323.91	19.484
324.27	19.105
324.64	18.556
325.00	17.910
325.37	18.591
325.73	19.587
326.10	19.546
326.46	19.788
326.83	20.256
327.19	19.213
327.56	19.209
327.92	18.804
328.29	17.823
328.65	18.593
329.01	19.205
329.38	18.787
329.74	19.606
330.11	19.092
330.47	18.366
330.84	18.174
331.20	19.167
331.56	18.544
331.93	18.326
332.29	18.983
332.66	18.355
333.02	18.090
333.38	19.044
333.75	19.444
334.11	18.766
334.48	20.050
334.84	19.031
335.20	18.808
335.57	17.875
335.93	19.835
336.29	17.720
336.66	18.082
337.02	19.482
337.38	19.218
337.75	18.760
338.11	18.251
338.47	19.272
338.84	18.443
339.20	17.439
339.56	15.980
339.93	18.473
340.29	17.472
340.65	16.707
341.02	17.797
341.38	18.917
341.74	18.644
342.11	17.136
342.47	16.203
342.83	17.794
343.20	18.888
343.56	17.963
343.92	18.415
344.28	18.125
344.65	18.140
345.01	17.707
345.37	18.118
345.73	16.680
346.10	18.331
346.46	16.218
346.82	17.303
347.19	17.036
347.55	18.058
347.91	17.682
348.27	17.147
348.63	18.126
349.00	17.226
349.36	18.067
349.72	17.485
350.08	18.276
350.45	17.490
350.81	17.722
351.17	17.669
351.53	17.817
351.89	18.907
352.26	17.388
352.62	17.910
352.98	16.947
353.34	16.729
353.70	17.488
354.07	16.841
354.43	17.464
354.79	16.081
355.15	16.998
355.51	19.006
355.87	17.352
356.24	17.871
356.60	15.965
356.96	16.976
357.32	17.323
357.68	16.911
358.04	17.066
358.40	17.463
358.77	17.763
359.13	16.248
359.49	16.431
359.85	16.316
360.21	17.073
360.57	16.942
360.93	16.784
361.29	17.825
361.66	16.655
362.02	18.372
362.38	17.990
362.74	17.039
363.10	17.263
363.46	15.443
363.82	17.472
364.18	16.538
364.54	17.289
364.90	17.525
365.26	17.241
365.62	16.867
365.98	17.699
366.35	16.107
366.71	16.667
367.07	17.321
367.43	16.481
367.79	16.987
368.15	17.391
368.51	17.118
368.87	16.460
369.23	16.533
369.59	17.281
369.95	16.768
370.31	16.880
370.67	17.056
371.03	16.620
371.39	15.648
371.75	17.400
372.11	16.463
372.47	17.062
372.83	16.688
373.19	17.011
373.55	17.209
373.91	15.201
374.27	16.235
374.63	16.779
374.99	16.578
375.35	17.143
375.71	16.387
376.07	17.043
376.42	16.814
376.78	17.402
377.14	16.032
377.50	16.698
377.86	16.995
378.22	17.305
378.58	17.182
378.94	17.136
379.30	16.989
379.66	16.402
380.02	16.849
380.38	16.590
380.74	16.732
381.09	16.551
381.45	16.989
381.81	17.389
382.17	17.221
382.53	16.784
382.89	17.777
383.25	17.116
383.61	16.146
383.97	16.431
384.32	17.524
384.68	16.067
385.04	18.161
385.40	17.148
385.76	17.409
386.12	17.115
386.48	18.000
386.83	16.687
387.19	16.454
387.55	15.728
387.91	16.210
388.27	16.628
388.62	16.495
388.98	15.680
389.34	16.794
389.70	17.257
390.06	17.229
390.42	17.229
390.77	17.520
391.13	17.488
391.49	16.486
391.85	17.394
392.20	16.904
392.56	17.602
392.92	16.903
393.28	17.468
393.64	16.480
393.99	16.793
394.35	18.107
394.71	17.186
395.07	16.527
395.42	16.733
395.78	17.794
396.14	17.291
396.50	16.152
396.85	16.100
397.21	17.337
397.57	16.313
397.92	17.354
398.28	15.589
398.64	16.362
399.00	16.230
399.35	17.330
399.71	16.576
400.07	17.125
400.42	17.404
400.78	16.030
401.14	16.562
401.49	16.543
401.85	16.570
402.21	17.207
402.57	17.019
402.92	16.430
403.28	16.686
403.63	16.766
403.99	16.390
404.35	16.373
404.70	16.884
405.06	16.902
405.42	16.686
405.77	17.012
406.13	17.180
406.49	16.948
406.84	16.620
407.20	16.881
407.55	16.475
407.91	16.656
408.27	16.608
408.62	17.452
408.98	16.657
409.34	16.188
409.69	16.440
410.05	17.468
410.40	17.807
410.76	16.545
411.11	17.475
411.47	17.445
411.83	16.696
412.18	17.410
412.54	17.012
412.89	16.764
413.25	16.930
413.60	17.174
413.96	16.958
414.31	17.224
414.67	17.054
415.03	16.677
415.38	16.393
415.74	16.860
416.09	17.212
416.45	16.781
416.80	16.279
417.16	16.028
417.51	16.314
417.87	16.248
418.22	17.246
418.58	17.658
418.93	17.811
419.29	16.523
419.64	16.327
420.00	16.499
420.35	16.957
420.71	15.566
421.06	16.159
421.42	17.202
421.77	15.778
422.12	16.702
422.48	16.436
422.83	15.717
423.19	17.082
423.54	16.538
423.90	16.565
424.25	16.907
424.61	16.705
424.96	17.024
425.31	16.773
425.67	15.674
426.02	16.713
426.38	16.131
426.73	16.685
427.09	17.474
427.44	16.439
427.79	16.694
428.15	15.925
428.50	17.135
428.85	16.992
429.21	16.543
429.56	16.732
429.92	16.314
430.27	16.000
430.62	16.170
430.98	16.675
431.33	16.764
431.68	16.619
432.04	16.963
432.39	16.711
432.74	16.267
433.10	16.604
433.45	15.998
433.80	16.416
434.16	16.890
434.51	16.650
434.86	16.558
435.22	16.259
435.57	17.335
435.92	16.305
436.28	17.349
436.63	16.548
436.98	16.640
437.34	16.685
437.69	15.685
438.04	16.129
438.39	16.427
438.75	16.381
439.10	16.966
439.45	17.608
439.81	16.667
440.16	15.871
440.51	16.444
440.86	15.953
441.22	16.077
441.57	16.719
441.92	16.537
442.27	16.667
442.63	16.393
442.98	16.969
443.33	16.623
443.68	17.146
444.03	16.980
444.39	16.505
444.74	16.743
445.09	16.827
445.44	16.280
445.79	16.140
446.15	16.752
446.50	16.176
446.85	17.218
447.20	17.263
447.55	16.475
447.91	15.812
448.26	16.490
448.61	16.525
448.96	17.382
449.31	16.384
449.66	16.503
450.02	16.667
450.37	16.676
450.72	16.308
451.07	16.686
451.42	16.002
451.77	16.176
452.12	16.479
452.47	16.993
452.83	16.385
453.18	16.637
453.53	16.542
453.88	16.234
454.23	17.288
454.58	17.063
454.93	16.505
455.28	17.038
455.63	16.600
455.98	16.536
456.34	16.549
456.69	15.520
457.04	16.371
457.39	16.574
457.74	16.611
458.09	15.651
458.44	16.703
458.79	16.761
459.14	16.308
459.49	16.695
459.84	17.156
460.19	16.491
460.54	17.036
460.89	16.570
461.24	16.322
461.59	17.045
461.94	16.372
462.29	17.021
462.64	16.777
462.99	16.384
463.34	16.548
463.69	16.237
464.04	16.843
464.39	15.863
464.74	16.420
465.09	16.782
465.44	16.309
465.79	16.975
466.14	16.571
466.49	16.474
466.84	16.804
467.19	16.763
467.54	15.922
467.89	16.782
468.24	16.454
468.59	15.981
468.94	17.075
469.29	15.897
469.64	15.385
469.99	15.934
470.34	16.584
470.68	16.473
471.03	17.223
471.38	16.874
471.73	16.255
472.08	17.386
472.43	16.737
472.78	17.065
473.13	16.941
473.48	16.858
473.83	16.251
474.17	16.764
474.52	16.657
474.87	17.054
475.22	16.901
475.57	16.771
475.92	16.277
476.27	16.986
476.61	16.511
476.96	16.163
477.31	17.327
477.66	16.737
478.01	16.421
478.36	16.451
478.70	16.502
479.05	17.485
479.40	17.423
479.75	16.907
480.10	16.580
480.45	16.727
480.79	17.098
481.14	16.268
481.49	15.993
481.84	16.928
482.19	16.989
482.53	16.659
482.88	17.102
483.23	16.763
483.58	16.070
483.92	16.179
484.27	16.808
484.62	15.883
484.97	16.952
485.31	16.086
485.66	15.555
486.01	16.620
486.36	16.531
486.70	17.213
487.05	16.997
487.40	16.624
487.75	16.641
488.09	16.145
488.44	16.060
488.79	16.054
489.13	15.930
489.48	15.961
489.83	16.378
490.17	16.322
490.52	16.338
490.87	16.540
491.22	16.681
491.56	16.852
491.91	16.398
492.26	17.395
492.60	17.053
492.95	17.025
493.30	17.436
493.64	16.382
493.99	16.053
494.34	16.507
494.68	16.788
495.03	17.269
495.37	17.044
495.72	16.599
496.07	16.871
496.41	16.688
496.76	17.723
497.11	16.221
497.45	16.789
497.80	16.881
498.14	17.234
498.49	16.360
498.84	16.590
499.18	17.049
499.53	16.592
499.87	16.440
500.22	16.474
500.56	16.779
500.91	17.071
501.26	17.045
501.60	16.659
501.95	17.629
502.29	16.937
502.64	17.140
502.98	17.256
503.33	16.415
503.67	16.441
504.02	16.813
504.36	17.426
504.71	17.363
505.06	16.326
505.40	17.550
505.75	16.894
506.09	16.575
506.44	16.806
506.78	17.569
507.13	17.381
507.47	17.006
507.82	17.330
508.16	17.400
508.51	16.690
508.85	17.194
509.19	17.006
509.54	17.387
509.88	16.901
510.23	17.581
510.57	17.931
510.92	16.546
511.26	16.931
511.61	17.190
511.95	16.984
512.30	17.627
512.64	16.692
512.98	17.209
513.33	18.044
513.67	17.491
514.02	17.425
514.36	17.238
514.70	17.396
515.05	17.675
515.39	17.480
515.74	17.656
516.08	18.067
516.42	17.530
516.77	17.613
517.11	16.400
517.46	17.709
517.80	17.317
518.14	17.791
518.49	17.191
518.83	16.179
519.17	17.609
519.52	18.134
519.86	17.001
520.20	17.465
520.55	17.415
520.89	17.455
521.23	17.923
521.58	17.345
521.92	16.997
522.26	17.239
522.61	17.303
522.95	16.494
523.29	17.644
523.64	17.825
523.98	18.654
524.32	18.854
524.66	17.359
525.01	17.837
525.35	17.059
525.69	17.169
526.04	16.590
526.38	17.989
526.72	17.762
527.06	18.358
527.41	18.309
527.75	18.468
528.09	17.946
528.43	17.525
528.78	17.457
529.12	18.291
529.46	18.381
529.80	18.135
530.15	17.507
530.49	17.853
530.83	18.005
531.17	17.025
531.51	17.690
531.86	18.389
532.20	18.537
532.54	18.073
532.88	17.758
533.22	17.443
533.57	17.253
533.91	18.070
534.25	18.202
534.59	17.126
534.93	17.204
535.27	17.972
535.62	18.192
535.96	18.245
536.30	17.450
536.64	18.138
536.98	18.081
537.32	18.025
537.66	18.216
538.01	17.100
538.35	18.392
538.69	17.849
539.03	18.761
539.37	17.786
539.71	18.198
540.05	18.225
540.39	17.848
540.73	16.211
541.07	17.719
541.42	17.661
541.76	17.556
542.10	17.310
542.44	17.296
542.78	17.944
543.12	17.819
543.46	17.582
543.80	16.906
544.14	17.893
544.48	17.908
544.82	18.612
545.16	18.008
545.50	18.574
545.84	17.391
546.18	18.519
546.52	17.707
546.86	17.925
547.20	17.366
547.54	17.416
547.88	17.119
548.22	18.304
548.56	17.320
548.90	17.313
549.24	18.723
549.58	18.107
549.92	17.602
550.26	17.864
550.60	17.996
550.94	17.529
551.28	18.416
551.62	18.396
551.96	17.152
552.30	18.674
552.64	18.482
552.98	17.779
553.32	18.135
553.66	17.556
554.00	18.285
554.34	18.404
554.68	17.495
555.02	18.857
555.36	17.883
555.69	18.706
556.03	17.591
556.37	18.648
556.71	18.263
557.05	17.316
557.39	18.514
557.73	17.569
558.07	17.682
558.41	18.339
558.75	18.391
559.08	18.163
559.42	18.381
559.76	17.978
560.10	17.950
560.44	17.546
560.78	19.375
561.12	17.488
561.45	18.370
561.79	18.193
562.13	18.361
562.47	18.187
562.81	17.848
563.15	18.434
563.48	18.272
563.82	17.956
564.16	17.141
564.50	17.759
564.84	17.581
565.17	18.059
565.51	18.297
565.85	18.409
566.19	18.318
566.52	18.315
566.86	17.940
567.20	16.966
567.54	17.897
567.88	18.145
568.21	18.132
568.55	17.698
568.89	18.157
569.23	17.828
569.56	16.882
569.90	17.819
570.24	17.774
570.57	17.575
570.91	16.626
571.25	17.761
571.59	17.562
571.92	17.617
572.26	17.073
572.60	16.899
572.93	17.144
573.27	16.859
573.61	17.178
573.95	17.261
574.28	17.239
574.62	17.121
574.96	16.961
575.29	17.206
575.63	17.094
575.97	17.126
576.30	16.383
576.64	16.726
576.98	16.788
577.31	17.258
577.65	17.107
577.98	16.924
578.32	16.915
578.66	16.623
578.99	16.424
579.33	16.807
579.67	16.251
580.00	16.138
580.34	16.383
580.67	16.637
581.01	16.724
581.35	17.008
581.68	16.930
582.02	16.971
582.35	17.133
582.69	17.140
583.02	16.632
583.36	17.088
583.70	16.746
584.03	16.223
584.37	16.811
584.70	16.210
585.04	16.252
585.37	16.438
585.71	16.980
586.04	16.733
586.38	16.968
586.72	16.470
587.05	16.449
587.39	17.701
587.72	17.201
588.06	16.852
588.39	16.978
588.73	16.429
589.06	16.648
589.40	17.087
589.73	17.095
590.07	16.578
590.40	16.937
590.73	17.321
591.07	16.828
591.40	17.185
591.74	16.415
592.07	17.255
592.41	17.074
592.74	17.252
593.08	17.102
593.41	17.294
593.75	17.443
594.08	17.237
594.41	16.635
594.75	16.938
595.08	16.420
595.42	16.591
595.75	16.920
596.09	16.876
596.42	17.055
596.75	17.522
597.09	17.455
597.42	17.481
597.75	16.778
598.09	17.063
598.42	17.008
598.76	16.813
599.09	17.373
599.42	16.862
599.76	16.540
600.09	17.217
600.42	17.017
600.76	16.810
601.09	16.827
601.42	17.164
601.76	16.828
602.09	17.012
602.42	16.612
602.76	16.937
603.09	16.703
603.42	16.835
603.76	16.526
604.09	18.240
604.42	17.578
604.76	17.199
605.09	17.671
605.42	17.225
605.75	17.231
606.09	17.208
606.42	16.928
606.75	16.604
607.09	16.551
607.42	17.380
607.75	17.390
608.08	16.496
608.42	16.687
608.75	17.662
609.08	16.044
609.41	16.762
609.75	16.830
610.08	17.678
610.41	16.653
610.74	16.975
611.07	17.362
611.41	17.309
611.74	17.367
612.07	17.719
612.40	16.540
612.73	16.870
613.07	17.164
613.40	17.421
613.73	17.140
614.06	17.026
614.39	16.910
614.72	17.031
615.06	17.469
615.39	17.400
615.72	17.488
616.05	17.824
616.38	18.012
616.71	17.503
617.05	16.826
617.38	17.014
617.71	17.765
618.04	17.107
618.37	17.486
618.70	17.817
619.03	16.846
619.36	17.633
619.69	17.489
620.03	17.702
620.36	17.362
620.69	16.903
621.02	17.651
621.35	18.433
621.68	18.221
622.01	17.580
622.34	16.667
622.67	17.732
623.00	16.937
623.33	18.912
623.66	18.093
623.99	17.577
624.32	18.519
624.65	18.147
624.99	18.140
625.32	18.093
625.65	18.678
625.98	17.763
626.31	17.860
626.64	17.949
626.97	17.479
627.30	16.401
627.63	18.605
627.96	18.844
628.29	18.366
628.62	18.052
628.95	18.317
629.28	17.757
629.61	18.855
629.94	18.410
630.26	17.458
630.59	18.826
630.92	17.576
631.25	19.320
631.58	18.927
631.91	18.369
632.24	18.732
632.57	17.837
632.90	17.854
633.23	18.163
633.56	18.265
633.89	17.459
634.22	17.568
634.55	18.372
