SpectraSuite Data File
++++++++++++++++++++++++++++++++++++
Date: Thu May 14 14:47:10 PDT 2015
User: schluterlab
Dark Spectrum Present: Yes
Reference Spectrum Present: Yes
Number of Sampled Component Spectra: 1
Spectrometers: USB2E3373
Integration Time (usec): 3000 (USB2E3373)
Spectra Averaged: 3 (USB2E3373)
Boxcar Smoothing: 0 (USB2E3373)
Correct for Electrical Dark: No (USB2E3373)
Strobe/Lamp Enabled: No (USB2E3373)
Correct for Detector Non-linearity: No (USB2E3373)
Correct for Stray Light: No (USB2E3373)
Number of Pixels in Processed Spectrum: 2048
>>>>>Begin Processed Spectral Data<<<<<
178.53	0.000
178.91	71.429
179.29	-500.000
179.67	-900.000
180.04	142.857
180.42	-0.000
180.80	220.000
181.18	-200.000
181.56	400.000
181.94	75.000
182.31	-125.000
182.69	166.667
183.07	-300.000
183.45	100.000
183.83	166.667
184.20	-66.667
184.58	-200.000
184.96	-275.000
185.34	0.000
185.72	160.000
186.09	144.444
186.47	400.000
186.85	280.000
187.23	-88.889
187.61	-1800.000
187.98	120.000
188.36	125.000
188.74	75.000
189.12	-233.333
189.49	-6.250
189.87	-37.500
190.25	-22.222
190.63	-20.000
191.00	-22.222
191.38	0.000
191.76	75.000
192.14	-33.333
192.51	300.000
192.89	16.667
193.27	0.000
193.65	71.429
194.02	-1800.000
194.40	28.571
194.78	171.429
195.15	0.000
195.53	45.455
195.91	0.000
196.29	225.000
196.66	-23.077
197.04	-500.000
197.42	-57.143
197.79	-300.000
198.17	12.500
198.55	42.857
198.92	11.111
199.30	-25.000
199.68	63.636
200.05	-21.429
200.43	-500.000
200.81	-42.857
201.18	0.000
201.56	100.000
201.94	0.000
202.31	366.667
202.69	-177.778
203.07	500.000
203.44	33.333
203.82	-250.000
204.19	-100.000
204.57	-66.667
204.95	0.000
205.32	200.000
205.70	100.000
206.08	50.000
206.45	-16.667
206.83	160.000
207.20	16.667
207.58	-180.000
207.96	-83.333
208.33	66.667
208.71	91.667
209.08	133.333
209.46	0.000
209.84	183.333
210.21	-100.000
210.59	250.000
210.96	66.667
211.34	150.000
211.71	0.000
212.09	0.000
212.46	0.000
212.84	200.000
213.22	-200.000
213.59	-150.000
213.97	90.000
214.34	-300.000
214.72	116.667
215.09	-200.000
215.47	0.000
215.84	128.571
216.22	100.000
216.59	160.000
216.97	-100.000
217.34	75.000
217.72	-12.500
218.09	-225.000
218.47	-275.000
218.84	0.000
219.22	-20.000
219.59	47.059
219.97	15.000
220.34	550.000
220.72	-44.444
221.09	100.000
221.47	-166.667
221.84	10.000
222.22	-57.143
222.59	0.000
222.97	62.500
223.34	-240.000
223.72	-700.000
224.09	-75.000
224.46	-125.000
224.84	220.000
225.21	-142.857
225.59	100.000
225.96	-150.000
226.34	50.000
226.71	333.333
227.08	-200.000
227.46	0.000
227.83	50.000
228.21	36.842
228.58	-12.500
228.95	350.000
229.33	91.667
229.70	70.000
230.08	78.947
230.45	110.000
230.82	0.000
231.20	-42.857
231.57	-16.667
231.95	0.000
232.32	9.091
232.69	35.000
233.07	-250.000
233.44	-23.529
233.81	30.000
234.19	22.222
234.56	-4.545
234.93	24.138
235.31	42.105
235.68	22.222
236.05	-70.000
236.43	-11.538
236.80	-8.000
237.17	44.444
237.55	15.152
237.92	-80.000
238.29	3.226
238.67	-6.818
239.04	-16.667
239.41	7.143
239.79	19.565
240.16	-5.556
240.53	6.522
240.91	0.000
241.28	3.279
241.65	31.343
242.02	17.568
242.40	-3.077
242.77	9.333
243.14	-2.439
243.51	-5.263
243.89	0.000
244.26	9.901
244.63	15.686
245.00	21.495
245.38	4.386
245.75	4.425
246.12	10.317
246.49	10.853
246.87	12.143
247.24	14.570
247.61	11.184
247.98	10.738
248.36	8.642
248.73	3.681
249.10	12.022
249.47	16.915
249.84	21.990
250.22	16.580
250.59	11.111
250.96	14.545
251.33	7.143
251.70	11.966
252.08	14.167
252.45	10.246
252.82	11.157
253.19	10.547
253.56	10.266
253.94	12.692
254.31	10.985
254.68	12.238
255.05	12.052
255.42	9.184
255.79	9.061
256.16	10.927
256.54	6.291
256.91	11.148
257.28	11.803
257.65	8.280
258.02	11.209
258.39	9.402
258.76	12.538
259.14	13.218
259.51	11.239
259.88	9.915
260.25	10.556
260.62	12.055
260.99	11.749
261.36	13.405
261.73	10.610
262.10	12.088
262.47	8.043
262.85	14.141
263.22	10.390
263.59	8.947
263.96	12.532
264.33	9.974
264.70	11.358
265.07	13.365
265.44	12.925
265.81	8.565
266.18	11.565
266.55	10.491
266.92	8.656
267.29	11.160
267.66	13.304
268.03	12.227
268.40	11.273
268.77	9.339
269.14	9.912
269.51	11.184
269.88	11.680
270.25	12.475
270.62	12.236
270.99	13.535
271.36	11.881
271.73	11.984
272.10	12.024
272.47	12.024
272.84	12.450
273.21	11.423
273.58	9.677
273.95	13.077
274.32	10.076
274.69	9.478
275.06	12.821
275.43	11.275
275.80	11.993
276.17	10.000
276.54	9.701
276.91	11.270
277.28	11.212
277.65	10.772
278.02	10.662
278.39	12.138
278.76	10.896
279.13	12.411
279.50	15.120
279.87	11.628
280.23	8.451
280.60	11.356
280.97	11.184
281.34	10.866
281.71	12.860
282.08	10.797
282.45	8.674
282.82	10.675
283.19	10.985
283.56	10.820
283.92	9.760
284.29	11.848
284.66	12.479
285.03	10.737
285.40	11.283
285.77	9.598
286.14	12.061
286.51	10.654
286.87	10.585
287.24	11.295
287.61	9.716
287.98	10.725
288.35	10.651
288.72	9.320
289.08	10.395
289.45	11.243
289.82	10.542
290.19	10.776
290.56	11.690
290.93	10.984
291.29	9.366
291.66	8.815
292.03	10.312
292.40	11.156
292.77	9.704
293.13	10.149
293.50	9.067
293.87	9.530
294.24	11.067
294.60	9.735
294.97	8.591
295.34	12.548
295.71	11.223
296.08	9.302
296.44	9.436
296.81	8.526
297.18	9.215
297.55	9.198
297.91	10.676
298.28	9.242
298.65	9.512
299.02	9.091
299.38	9.840
299.75	9.813
300.12	9.144
300.48	10.138
300.85	10.011
301.22	10.403
301.59	9.018
301.95	11.073
302.32	11.000
302.69	9.529
303.05	9.684
303.42	10.089
303.79	10.000
304.15	9.674
304.52	9.091
304.89	9.738
305.25	10.145
305.62	10.240
305.99	9.897
306.35	9.073
306.72	11.065
307.09	10.152
307.45	9.834
307.82	10.797
308.19	11.806
308.55	10.608
308.92	9.056
309.29	10.632
309.65	9.844
310.02	9.208
310.38	10.236
310.75	11.359
311.12	11.409
311.48	9.091
311.85	9.782
312.22	9.867
312.58	10.704
312.95	10.038
313.31	11.201
313.68	11.447
314.05	10.298
314.41	11.931
314.78	10.808
315.14	10.980
315.51	11.080
315.87	12.331
316.24	11.507
316.61	13.499
316.97	11.131
317.34	11.111
317.70	11.878
318.07	11.376
318.43	11.054
318.80	13.043
319.16	10.815
319.53	10.797
319.89	11.043
320.26	11.922
320.62	11.170
320.99	13.481
321.35	10.998
321.72	13.674
322.08	11.903
322.45	12.105
322.81	12.906
323.18	11.327
323.54	12.328
323.91	12.011
324.27	11.790
324.64	12.510
325.00	12.189
325.37	12.940
325.73	14.050
326.10	12.733
326.46	13.111
326.83	13.611
327.19	13.307
327.56	13.755
327.92	13.061
328.29	14.113
328.65	12.479
329.01	13.536
329.38	14.912
329.74	14.298
330.11	13.613
330.47	14.153
330.84	14.212
331.20	14.583
331.56	14.991
331.93	14.310
332.29	15.508
332.66	15.365
333.02	14.992
333.38	14.346
333.75	14.899
334.11	15.263
334.48	15.512
334.84	15.038
335.20	14.777
335.57	15.008
335.93	15.620
336.29	13.894
336.66	14.718
337.02	14.716
337.38	15.391
337.75	15.537
338.11	15.391
338.47	16.046
338.84	15.821
339.20	14.827
339.56	16.227
339.93	14.860
340.29	16.103
340.65	15.166
341.02	15.882
341.38	15.036
341.74	14.366
342.11	15.607
342.47	15.409
342.83	16.103
343.20	15.944
343.56	16.119
343.92	15.052
344.28	16.094
344.65	16.589
345.01	16.771
345.37	16.252
345.73	15.978
346.10	16.225
346.46	15.823
346.82	15.581
347.19	15.661
347.55	15.630
347.91	16.493
348.27	15.099
348.63	15.918
349.00	15.585
349.36	16.506
349.72	15.923
350.08	16.048
350.45	15.970
350.81	16.591
351.17	16.541
351.53	16.528
351.89	17.312
352.26	16.269
352.62	16.119
352.98	15.878
353.34	15.907
353.70	15.794
354.07	17.884
354.43	15.642
354.79	16.305
355.15	16.409
355.51	17.325
355.87	16.305
356.24	16.502
356.60	16.482
356.96	16.976
357.32	16.877
357.68	16.618
358.04	16.467
358.40	16.716
358.77	17.325
359.13	16.248
359.49	15.911
359.85	16.896
360.21	18.077
360.57	17.301
360.93	16.996
361.29	17.193
361.66	16.655
362.02	18.093
362.38	17.147
362.74	16.620
363.10	18.088
363.46	17.244
363.82	17.685
364.18	17.875
364.54	17.842
364.90	18.060
365.26	17.241
365.62	18.467
365.98	18.176
366.35	17.651
366.71	18.844
367.07	18.133
367.43	17.334
367.79	18.514
368.15	18.863
368.51	18.065
368.87	17.113
369.23	18.533
369.59	18.169
369.95	18.323
370.31	19.716
370.67	19.188
371.03	17.936
371.39	18.133
371.75	18.019
372.11	18.767
372.47	18.280
372.83	19.437
373.19	18.479
373.55	18.902
373.91	18.064
374.27	19.082
374.63	19.621
374.99	19.164
375.35	20.000
375.71	18.839
376.07	19.109
376.42	18.640
376.78	19.826
377.14	18.902
377.50	19.165
377.86	19.520
378.22	19.521
378.58	21.284
378.94	19.425
379.30	20.269
379.66	20.047
380.02	19.331
380.38	19.700
380.74	20.507
381.09	20.209
381.45	20.852
381.81	20.375
382.17	20.724
382.53	20.760
382.89	20.260
383.25	19.695
383.61	20.255
383.97	20.848
384.32	21.830
384.68	20.476
385.04	22.152
385.40	20.919
385.76	22.274
386.12	21.305
386.48	20.882
386.83	21.812
387.19	21.437
387.55	21.714
387.91	21.233
388.27	21.824
388.62	21.019
388.98	21.658
389.34	22.098
389.70	21.964
390.06	21.551
390.42	21.747
390.77	22.757
391.13	21.420
391.49	22.162
391.85	21.939
392.20	22.242
392.56	21.855
392.92	22.628
393.28	22.830
393.64	23.017
393.99	23.242
394.35	23.715
394.71	22.754
395.07	22.335
395.42	22.730
395.78	23.705
396.14	23.351
396.50	22.625
396.85	22.421
397.21	23.195
397.57	22.144
397.92	23.310
398.28	22.433
398.64	23.341
399.00	21.990
399.35	22.984
399.71	22.283
400.07	23.021
400.42	23.225
400.78	23.090
401.14	23.335
401.49	22.399
401.85	23.256
402.21	23.233
402.57	23.533
402.92	23.286
403.28	22.951
403.63	22.554
403.99	22.922
404.35	22.797
404.70	23.456
405.06	22.663
405.42	23.419
405.77	23.610
406.13	23.015
406.49	23.311
406.84	22.438
407.20	23.141
407.55	22.714
407.91	23.319
408.27	23.675
408.62	22.746
408.98	23.099
409.34	22.815
409.69	23.362
410.05	22.626
410.40	23.956
410.76	24.004
411.11	22.969
411.47	22.666
411.83	23.516
412.18	23.434
412.54	23.296
412.89	23.108
413.25	23.984
413.60	22.229
413.96	22.727
414.31	23.626
414.67	23.614
415.03	23.631
415.38	24.023
415.74	23.702
416.09	24.183
416.45	23.106
416.80	22.950
417.16	23.755
417.51	23.537
417.87	24.157
418.22	22.754
418.58	24.040
418.93	24.331
419.29	23.983
419.64	24.850
420.00	23.917
420.35	23.582
420.71	24.756
421.06	23.864
421.42	23.624
421.77	23.263
422.12	23.732
422.48	23.810
422.83	23.549
423.19	24.085
423.54	24.889
423.90	24.848
424.25	24.533
424.61	23.249
424.96	23.723
425.31	24.416
425.67	23.994
426.02	24.626
426.38	25.718
426.73	23.382
427.09	25.029
427.44	24.304
427.79	24.212
428.15	25.000
428.50	24.438
428.85	24.225
429.21	25.106
429.56	24.531
429.92	23.980
430.27	24.627
430.62	25.012
430.98	24.939
431.33	24.927
431.68	24.713
432.04	25.648
432.39	25.388
432.74	24.943
433.10	26.068
433.45	24.805
433.80	25.322
434.16	24.948
434.51	25.437
434.86	26.059
435.22	25.505
435.57	25.531
435.92	25.821
436.28	25.995
436.63	25.068
436.98	26.033
437.34	25.592
437.69	25.482
438.04	25.436
438.39	25.962
438.75	25.401
439.10	26.427
439.45	25.545
439.81	26.667
440.16	25.362
440.51	26.087
440.86	25.737
441.22	26.206
441.57	26.101
441.92	25.849
442.27	26.515
442.63	27.173
442.98	26.788
443.33	26.355
443.68	26.412
444.03	26.811
444.39	27.277
444.74	27.157
445.09	26.305
445.44	26.554
445.79	27.155
446.15	26.670
446.50	26.718
446.85	26.216
447.20	26.547
447.55	27.406
447.91	27.696
448.26	26.797
448.61	26.036
448.96	27.629
449.31	26.882
449.66	26.198
450.02	27.321
450.37	27.331
450.72	26.480
451.07	27.506
451.42	26.690
451.77	26.848
452.12	27.483
452.47	27.035
452.83	27.309
453.18	27.204
453.53	27.226
453.88	27.333
454.23	27.797
454.58	27.916
454.93	27.245
455.28	28.236
455.63	27.459
455.98	27.318
456.34	27.208
456.69	28.454
457.04	26.418
457.39	27.217
457.74	27.685
458.09	27.403
458.44	27.586
458.79	26.766
459.14	27.897
459.49	27.957
459.84	27.807
460.19	28.151
460.54	27.371
460.89	26.628
461.24	26.954
461.59	28.445
461.94	26.925
462.29	28.331
462.64	27.942
462.99	28.186
463.34	27.839
463.69	27.433
464.04	29.238
464.39	28.083
464.74	27.765
465.09	27.566
465.44	28.487
465.79	28.398
466.14	27.410
466.49	28.789
466.84	28.320
467.19	28.786
467.54	27.438
467.89	28.218
468.24	28.366
468.59	28.720
468.94	28.613
469.29	29.034
469.64	28.226
469.99	29.700
470.34	28.589
470.68	29.597
471.03	29.862
471.38	28.908
471.73	29.324
472.08	29.569
472.43	28.296
472.78	29.345
473.13	29.456
473.48	29.849
473.83	29.832
474.17	29.719
474.52	29.826
474.87	28.738
475.22	29.465
475.57	30.062
475.92	29.667
476.27	29.712
476.61	30.062
476.96	29.406
477.31	29.505
477.66	31.007
478.01	29.080
478.36	29.761
478.70	29.212
479.05	29.908
479.40	30.010
479.75	30.644
480.10	29.891
480.45	29.581
480.79	29.751
481.14	29.504
481.49	28.896
481.84	30.200
482.19	30.151
482.53	30.083
482.88	30.660
483.23	30.814
483.58	29.651
483.92	29.433
484.27	30.821
484.62	30.198
484.97	29.355
485.31	29.250
485.66	27.788
486.01	26.981
486.36	27.614
486.70	28.998
487.05	29.893
487.40	29.487
487.75	29.822
488.09	29.952
488.44	28.946
488.79	29.916
489.13	29.580
489.48	29.476
489.83	29.859
490.17	29.972
490.52	30.213
490.87	30.668
491.22	30.676
491.56	30.205
491.91	31.007
492.26	31.372
492.60	30.870
492.95	30.847
493.30	30.659
493.64	30.793
493.99	30.570
494.34	30.401
494.68	30.707
495.03	30.793
495.37	30.626
495.72	31.020
496.07	31.201
496.41	30.931
496.76	31.318
497.11	31.720
497.45	31.549
497.80	31.897
498.14	30.930
498.49	31.112
498.84	32.176
499.18	31.534
499.53	32.197
499.87	31.648
500.22	30.766
500.56	31.444
500.91	31.808
501.26	32.364
501.60	31.374
501.95	32.262
502.29	32.646
502.64	32.707
502.98	31.536
503.33	31.663
503.67	32.141
504.02	32.356
504.36	32.618
504.71	32.889
505.06	31.924
505.40	32.587
505.75	32.195
506.09	32.643
506.44	32.869
506.78	33.028
507.13	33.149
507.47	33.349
507.82	33.712
508.16	33.078
508.51	32.865
508.85	34.152
509.19	33.633
509.54	35.062
509.88	33.851
510.23	33.949
510.57	35.379
510.92	34.156
511.26	33.718
511.61	33.655
511.95	34.700
512.30	34.318
512.64	34.633
512.98	34.067
513.33	34.980
513.67	34.727
514.02	34.747
514.36	35.703
514.70	35.833
515.05	36.027
515.39	35.643
515.74	36.320
516.08	35.869
516.42	35.583
516.77	36.803
517.11	35.173
517.46	35.525
517.80	35.970
518.14	36.670
518.49	36.822
518.83	35.977
519.17	35.649
519.52	35.849
519.86	36.325
520.20	35.836
520.55	35.926
520.89	37.218
521.23	35.678
521.58	36.893
521.92	37.110
522.26	35.567
522.61	36.169
522.95	38.062
523.29	36.839
523.64	36.603
523.98	37.365
524.32	38.166
524.66	37.849
525.01	36.806
525.35	36.358
525.69	37.065
526.04	35.821
526.38	38.391
526.72	37.255
527.06	37.361
527.41	37.085
527.75	37.292
528.09	36.954
528.43	37.063
528.78	37.630
529.12	36.984
529.46	37.886
529.80	37.700
530.15	38.377
530.49	37.485
530.83	38.312
531.17	36.858
531.51	37.545
531.86	37.740
532.20	37.927
532.54	37.642
532.88	37.394
533.22	37.537
533.57	38.257
533.91	37.823
534.25	36.405
534.59	38.621
534.93	36.616
535.27	37.183
535.62	36.782
535.96	38.466
536.30	37.779
536.64	37.958
536.98	38.007
537.32	37.716
537.66	38.116
538.01	36.979
538.35	37.393
538.69	37.320
539.03	38.627
539.37	37.279
539.71	39.279
540.05	37.650
540.39	37.225
540.73	37.462
541.07	37.462
541.42	37.271
541.76	37.011
542.10	37.756
542.44	36.906
542.78	36.922
543.12	38.021
543.46	38.400
543.80	37.290
544.14	37.163
544.48	37.825
544.82	38.300
545.16	37.388
545.50	37.208
545.84	37.355
546.18	38.827
546.52	38.662
546.86	37.862
547.20	37.341
547.54	38.140
547.88	36.769
548.22	37.661
548.56	37.683
548.90	37.433
549.24	37.751
549.58	37.729
549.92	37.755
550.26	38.188
550.60	37.269
550.94	39.263
551.28	38.152
551.62	39.420
551.96	38.252
552.30	37.285
552.64	37.897
552.98	37.617
553.32	38.778
553.66	38.585
554.00	38.525
554.34	37.773
554.68	37.056
555.02	37.648
555.36	39.053
555.69	37.092
556.03	37.831
556.37	37.422
556.71	37.096
557.05	37.444
557.39	38.487
557.73	38.177
558.07	37.947
558.41	39.136
558.75	39.419
559.08	38.831
559.42	38.340
559.76	39.077
560.10	37.575
560.44	38.588
560.78	38.250
561.12	38.608
561.45	37.774
561.79	37.729
562.13	38.078
562.47	38.779
562.81	37.722
563.15	38.447
563.48	38.347
563.82	37.606
564.16	37.190
564.50	37.783
564.84	36.342
565.17	37.412
565.51	36.594
565.85	37.767
566.19	36.233
566.52	37.156
566.86	37.974
567.20	35.617
567.54	36.113
567.88	36.188
568.21	37.401
568.55	38.225
568.89	36.360
569.23	35.657
569.56	35.952
569.90	34.319
570.24	35.076
570.57	34.734
570.91	33.833
571.25	33.787
571.59	34.233
571.92	34.355
572.26	33.801
572.60	34.316
572.93	33.621
573.27	33.633
573.61	33.457
573.95	33.261
574.28	32.843
574.62	33.220
574.96	32.841
575.29	32.761
575.63	32.848
575.97	33.796
576.30	33.161
576.64	33.596
576.98	32.870
577.31	32.852
577.65	32.769
577.98	32.549
578.32	32.341
578.66	32.925
578.99	32.746
579.33	32.970
579.67	33.024
580.00	32.704
580.34	32.766
580.67	32.701
581.01	32.562
581.35	32.242
581.68	32.422
582.02	32.622
582.35	32.637
582.69	32.980
583.02	33.059
583.36	33.498
583.70	33.379
584.03	33.069
584.37	33.029
584.70	32.616
585.04	32.132
585.37	32.567
585.71	32.492
586.04	32.695
586.38	33.310
586.72	32.815
587.05	32.975
587.39	33.583
587.72	33.301
588.06	33.511
588.39	32.811
588.73	33.280
589.06	34.537
589.40	34.419
589.73	34.383
590.07	34.814
590.40	34.618
590.73	34.783
591.07	35.369
591.40	34.681
591.74	35.016
592.07	35.242
592.41	34.582
592.74	34.469
593.08	33.726
593.41	34.062
593.75	33.793
594.08	33.959
594.41	33.974
594.75	33.876
595.08	34.017
595.42	34.643
595.75	33.710
596.09	33.887
596.42	34.360
596.75	34.929
597.09	34.990
597.42	34.406
597.75	34.575
598.09	34.206
598.42	35.103
598.76	33.703
599.09	33.855
599.42	33.389
599.76	34.038
600.09	34.201
600.42	34.134
600.76	33.785
601.09	33.820
601.42	34.157
601.76	33.655
602.09	34.346
602.42	33.988
602.76	34.428
603.09	34.141
603.42	34.249
603.76	33.897
604.09	34.776
604.42	34.495
604.76	33.942
605.09	34.703
605.42	34.131
605.75	33.385
606.09	34.192
606.42	33.528
606.75	33.771
607.09	33.871
607.42	33.487
607.75	33.763
608.08	33.820
608.42	33.938
608.75	34.992
609.08	33.913
609.41	35.598
609.75	35.402
610.08	35.444
610.41	34.282
610.74	35.000
611.07	35.169
611.41	35.247
611.74	35.658
612.07	35.624
612.40	34.838
612.73	35.892
613.07	34.914
613.40	36.141
613.73	35.869
614.06	36.261
614.39	34.985
614.72	34.643
615.06	34.793
615.39	34.993
615.72	35.355
616.05	35.260
616.38	35.923
616.71	34.639
617.05	35.463
617.38	35.420
617.71	36.609
618.04	36.158
618.37	36.503
618.70	36.934
619.03	36.380
619.36	37.423
619.69	36.067
620.03	36.723
620.36	35.890
620.69	36.891
621.02	37.927
621.35	40.058
621.68	38.829
622.01	38.078
622.34	38.075
622.67	37.045
623.00	37.922
623.33	37.956
623.66	37.873
623.99	37.722
624.32	38.012
624.65	36.615
624.99	36.931
625.32	38.210
625.65	37.694
625.98	37.356
626.31	38.767
626.64	38.388
626.97	38.785
627.30	37.889
627.63	37.284
627.96	38.664
628.29	39.066
628.62	39.043
628.95	39.527
629.28	39.762
629.61	38.889
629.94	39.331
630.26	39.407
630.59	39.119
630.92	38.182
631.25	40.429
631.58	42.750
631.91	39.925
632.24	39.866
632.57	40.323
632.90	40.221
633.23	41.429
633.56	40.714
633.89	41.012
634.22	42.100
634.55	42.589
634.88	41.126
635.20	42.411
635.53	43.277
