SpectraSuite Data File
++++++++++++++++++++++++++++++++++++
Date: Thu May 14 14:36:27 PDT 2015
User: schluterlab
Dark Spectrum Present: Yes
Reference Spectrum Present: Yes
Number of Sampled Component Spectra: 1
Spectrometers: USB2E3373
Integration Time (usec): 3000 (USB2E3373)
Spectra Averaged: 3 (USB2E3373)
Boxcar Smoothing: 0 (USB2E3373)
Correct for Electrical Dark: No (USB2E3373)
Strobe/Lamp Enabled: No (USB2E3373)
Correct for Detector Non-linearity: No (USB2E3373)
Correct for Stray Light: No (USB2E3373)
Number of Pixels in Processed Spectrum: 2048
>>>>>Begin Processed Spectral Data<<<<<
178.53	0.000
178.91	-128.571
179.29	900.000
179.67	800.000
180.04	21.429
180.42	-110.000
180.80	-200.000
181.18	1900.000
181.56	1500.000
181.94	-450.000
182.31	500.000
182.69	-366.667
183.07	900.000
183.45	-175.000
183.83	466.667
184.20	600.000
184.58	-1500.000
184.96	200.000
185.34	144.444
185.72	520.000
186.09	-100.000
186.47	-500.000
186.85	-60.000
187.23	177.778
187.61	1400.000
187.98	-400.000
188.36	-275.000
188.74	475.000
189.12	800.000
189.49	131.250
189.87	212.500
190.25	333.333
190.63	400.000
191.00	155.556
191.38	0.000
191.76	75.000
192.14	366.667
192.51	-750.000
192.89	416.667
193.27	0.000
193.65	271.429
194.02	1100.000
194.40	342.857
194.78	-185.714
195.15	0.000
195.53	200.000
195.91	0.000
196.29	500.000
196.66	100.000
197.04	1400.000
197.42	385.714
197.79	1000.000
198.17	225.000
198.55	285.714
198.92	255.556
199.30	112.500
199.68	218.182
200.05	157.143
200.43	300.000
200.81	-128.571
201.18	0.000
201.56	-100.000
201.94	0.000
202.31	-333.333
202.69	144.444
203.07	-1700.000
203.44	222.222
203.82	375.000
204.19	116.667
204.57	266.667
204.95	137.500
205.32	900.000
205.70	-175.000
206.08	350.000
206.45	250.000
206.83	-220.000
207.20	250.000
207.58	200.000
207.96	283.333
208.33	433.333
208.71	33.333
209.08	416.667
209.46	0.000
209.84	-133.333
210.21	-1000.000
210.59	-1000.000
210.96	-700.000
211.34	750.000
211.71	187.500
212.09	900.000
212.46	0.000
212.84	-550.000
213.22	300.000
213.59	225.000
213.97	170.000
214.34	333.333
214.72	-216.667
215.09	350.000
215.47	0.000
215.84	-114.286
216.22	-450.000
216.59	260.000
216.97	300.000
217.34	500.000
217.72	237.500
218.09	175.000
218.47	250.000
218.84	0.000
219.22	-240.000
219.59	111.765
219.97	105.000
220.34	-700.000
220.72	233.333
221.09	207.692
221.47	400.000
221.84	140.000
222.22	200.000
222.59	0.000
222.97	325.000
223.34	280.000
223.72	2200.000
224.09	400.000
224.46	425.000
224.84	460.000
225.21	85.714
225.59	275.000
225.96	200.000
226.34	69.231
226.71	-150.000
227.08	450.000
227.46	113.333
227.83	450.000
228.21	147.368
228.58	-100.000
228.95	-400.000
229.33	200.000
229.70	150.000
230.08	152.632
230.45	-130.000
230.82	700.000
231.20	107.143
231.57	216.667
231.95	109.091
232.32	209.091
232.69	110.000
233.07	650.000
233.44	82.353
233.81	210.000
234.19	144.444
234.56	104.545
234.93	103.448
235.31	115.789
235.68	77.778
236.05	45.000
236.43	111.538
236.80	88.000
237.17	88.889
237.55	63.636
237.92	30.000
238.29	64.516
238.67	50.000
239.04	58.333
239.41	50.000
239.79	34.783
240.16	48.148
240.53	23.913
240.91	29.412
241.28	40.984
241.65	38.806
242.02	40.541
242.40	24.615
242.77	16.000
243.14	18.293
243.51	18.421
243.89	6.410
244.26	24.752
244.63	20.588
245.00	17.757
245.38	18.421
245.75	11.504
246.12	16.667
246.49	10.853
246.87	13.571
247.24	11.921
247.61	7.895
247.98	13.423
248.36	9.877
248.73	11.043
249.10	9.836
249.47	14.925
249.84	18.325
250.22	6.736
250.59	12.222
250.96	12.727
251.33	2.551
251.70	11.966
252.08	7.917
252.45	13.934
252.82	9.504
253.19	5.859
253.56	9.125
253.94	5.000
254.31	6.818
254.68	7.343
255.05	10.423
255.42	7.143
255.79	3.560
256.16	3.642
256.54	1.325
256.91	8.525
257.28	4.262
257.65	3.185
258.02	4.425
258.39	6.838
258.76	13.761
259.14	6.897
259.51	5.476
259.88	3.966
260.25	5.000
260.62	8.493
260.99	6.011
261.36	8.043
261.73	3.979
262.10	6.044
262.47	7.239
262.85	8.081
263.22	2.338
263.59	3.947
263.96	5.115
264.33	4.092
264.70	6.173
265.07	7.637
265.44	6.803
265.81	2.546
266.18	4.535
266.55	2.679
266.92	5.011
267.29	6.127
267.66	5.543
268.03	3.712
268.40	5.219
268.77	3.872
269.14	0.661
269.51	4.167
269.88	5.533
270.25	6.841
270.62	5.907
270.99	7.677
271.36	6.931
271.73	6.287
272.10	4.008
272.47	3.808
272.84	5.823
273.21	3.006
273.58	4.435
273.95	4.423
274.32	2.471
274.69	4.642
275.06	5.495
275.43	4.251
275.80	5.996
276.17	3.519
276.54	1.493
276.91	2.326
277.28	4.340
277.65	5.566
278.02	4.779
278.39	3.261
278.76	2.285
279.13	3.369
279.50	5.326
279.87	8.050
280.23	2.289
280.60	4.068
280.97	3.454
281.34	1.698
281.71	4.569
282.08	4.485
282.45	1.964
282.82	2.826
283.19	2.908
283.56	2.787
283.92	5.405
284.29	5.055
284.66	4.762
285.03	1.603
285.40	4.791
285.77	2.941
286.14	3.359
286.51	3.196
286.87	3.318
287.24	4.367
287.61	3.737
287.98	3.625
288.35	4.882
288.72	4.142
289.08	3.807
289.45	3.254
289.82	5.271
290.19	4.310
290.56	3.099
290.93	3.566
291.29	3.581
291.66	3.994
292.03	2.985
292.40	5.306
292.77	4.447
293.13	5.954
293.50	3.417
293.87	3.758
294.24	4.800
294.60	4.551
294.97	3.758
295.34	4.738
295.71	3.531
296.08	3.876
296.44	2.574
296.81	3.776
297.18	3.736
297.55	4.363
297.91	3.796
298.28	4.502
298.65	4.756
299.02	4.486
299.38	4.577
299.75	5.607
300.12	3.125
300.48	4.493
300.85	4.162
301.22	3.579
301.59	3.767
301.95	3.842
302.32	6.333
302.69	4.710
303.05	5.550
303.42	6.319
303.79	3.750
304.15	5.047
304.52	5.497
304.89	5.131
305.25	5.590
305.62	5.434
305.99	4.948
306.35	4.435
306.72	5.584
307.09	5.076
307.45	6.108
307.82	4.945
308.19	5.651
308.55	7.232
308.92	5.355
309.29	6.322
309.65	6.043
310.02	5.149
310.38	6.496
310.75	6.699
311.12	7.287
311.48	7.038
311.85	6.078
312.22	6.736
312.58	7.230
312.95	6.883
313.31	8.130
313.68	7.784
314.05	9.304
314.41	8.743
314.78	8.629
315.14	10.345
315.51	9.418
315.87	10.261
316.24	10.502
316.61	10.924
316.97	9.774
317.34	9.965
317.70	10.742
318.07	10.847
318.43	10.629
318.80	11.957
319.16	12.017
319.53	10.540
319.89	12.182
320.26	12.189
320.62	13.121
320.99	12.558
321.35	14.233
321.72	14.047
322.08	14.157
322.45	14.815
322.81	14.531
323.18	15.133
323.54	15.431
323.91	14.769
324.27	16.179
324.64	16.877
325.00	17.662
325.37	18.755
325.73	19.091
326.10	19.221
326.46	21.091
326.83	20.336
327.19	21.260
327.56	22.451
327.92	21.086
328.29	20.323
328.65	22.362
329.01	22.927
329.38	22.915
329.74	24.144
330.11	24.914
330.47	25.105
330.84	24.720
331.20	25.750
331.56	24.957
331.93	26.025
332.29	26.017
332.66	25.831
333.02	25.544
333.38	26.007
333.75	26.599
334.11	26.439
334.48	27.063
334.84	28.717
335.20	27.288
335.57	27.150
335.93	27.025
336.29	26.206
336.66	27.670
337.02	26.338
337.38	27.721
337.75	27.603
338.11	27.502
338.47	26.882
338.84	27.242
339.20	27.548
339.56	27.100
339.93	26.601
340.29	27.053
340.65	26.440
341.02	28.571
341.38	28.294
341.74	25.585
342.11	27.595
342.47	26.767
342.83	27.617
343.20	27.964
343.56	28.067
343.92	28.022
344.28	27.578
344.65	27.597
345.01	27.613
345.37	28.149
345.73	27.981
346.10	28.237
346.46	28.323
346.82	29.139
347.19	28.953
347.55	28.225
347.91	27.192
348.27	27.921
348.63	27.951
349.00	27.368
349.36	28.773
349.72	27.158
350.08	28.083
350.45	27.376
350.81	27.753
351.17	27.594
351.53	28.582
351.89	29.081
352.26	27.164
352.62	28.209
352.98	28.473
353.34	27.184
353.70	28.737
354.07	28.763
354.43	28.626
354.79	28.048
355.15	28.035
355.51	27.997
355.87	27.674
356.24	27.909
356.60	28.899
356.96	28.762
357.32	28.104
357.68	28.404
358.04	28.967
358.40	28.582
358.77	29.459
359.13	28.287
359.49	28.327
359.85	28.789
360.21	29.125
360.57	28.571
360.93	28.279
361.29	29.614
361.66	29.689
362.02	29.506
362.38	29.515
362.74	29.190
363.10	29.780
363.46	28.878
363.82	29.403
364.18	30.049
364.54	29.668
364.90	30.301
365.26	29.862
365.62	30.200
365.98	30.769
366.35	30.470
366.71	30.612
367.07	29.770
367.43	31.057
367.79	30.989
368.15	30.569
368.51	30.920
368.87	30.046
369.23	29.600
369.59	30.806
369.95	30.629
370.31	31.803
370.67	31.637
371.03	29.986
371.39	30.490
371.75	31.362
372.11	31.572
372.47	31.280
372.83	32.199
373.19	30.821
373.55	31.165
373.91	30.470
374.27	32.147
374.63	31.935
374.99	31.366
375.35	33.247
375.71	32.194
376.07	32.666
376.42	32.620
376.78	32.318
377.14	32.439
377.50	33.839
377.86	33.559
378.22	33.174
378.58	33.413
378.94	33.099
379.30	33.743
379.66	34.274
380.02	34.449
380.38	33.986
380.74	34.197
381.09	34.785
381.45	34.602
381.81	34.836
382.17	34.323
382.53	33.684
382.89	35.497
383.25	35.815
383.61	34.838
383.97	34.747
384.32	35.646
384.68	35.499
385.04	35.743
385.40	36.417
385.76	35.991
386.12	36.206
386.48	35.765
386.83	36.830
387.19	36.501
387.55	36.092
387.91	36.644
388.27	35.912
388.62	36.025
388.98	35.364
389.34	36.712
389.70	37.420
390.06	36.708
390.42	36.928
390.77	37.447
391.13	37.031
391.49	37.379
391.85	37.515
392.20	38.375
392.56	38.039
392.92	38.277
393.28	37.700
393.64	36.927
393.99	37.653
394.35	37.150
394.71	38.263
395.07	36.347
395.42	36.779
395.78	38.513
396.14	38.740
396.50	37.945
396.85	36.673
397.21	36.746
397.57	37.809
397.92	37.858
398.28	36.773
398.64	36.899
399.00	36.335
399.35	37.382
399.71	36.848
400.07	38.574
400.42	38.009
400.78	36.632
401.14	37.564
401.49	38.147
401.85	38.198
402.21	38.586
402.57	38.380
402.92	38.357
403.28	38.232
403.63	37.709
403.99	37.352
404.35	38.260
404.70	38.074
405.06	37.174
405.42	37.412
405.77	37.350
406.13	37.655
406.49	38.401
406.84	37.119
407.20	37.060
407.55	37.614
407.91	37.209
408.27	37.397
408.62	38.802
408.98	37.203
409.34	36.950
409.69	38.381
410.05	37.749
410.40	37.993
410.76	37.521
411.11	38.983
411.47	38.206
411.83	38.801
412.18	38.012
412.54	38.293
412.89	38.417
413.25	37.810
413.60	38.254
413.96	38.462
414.31	37.450
414.67	38.402
415.03	37.846
415.38	39.660
415.74	38.790
416.09	39.543
416.45	37.946
416.80	38.739
417.16	39.527
417.51	39.290
417.87	38.688
418.22	39.880
418.58	38.848
418.93	39.872
419.29	39.088
419.64	39.016
420.00	39.881
420.35	39.641
420.71	39.632
421.06	38.643
421.42	40.482
421.77	39.257
422.12	40.011
422.48	39.887
422.83	40.964
423.19	40.159
423.54	41.704
423.90	40.420
424.25	41.547
424.61	40.586
424.96	42.010
425.31	41.401
425.67	41.546
426.02	42.225
426.38	42.135
426.73	41.908
427.09	42.445
427.44	42.272
427.79	42.123
428.15	43.037
428.50	41.517
428.85	41.734
429.21	42.872
429.56	42.349
429.92	42.506
430.27	43.084
430.62	43.527
430.98	42.597
431.33	42.278
431.68	42.912
432.04	44.185
432.39	44.242
432.74	43.950
433.10	44.997
433.45	45.485
433.80	43.509
434.16	44.576
434.51	44.245
434.86	44.951
435.22	45.165
435.57	45.578
435.92	44.073
436.28	46.246
436.63	46.696
436.98	44.283
437.34	46.054
437.69	45.845
438.04	46.166
438.39	45.032
438.75	45.545
439.10	46.617
439.45	46.506
439.81	44.802
440.16	46.542
440.51	46.098
440.86	45.692
441.22	46.677
441.57	46.122
441.92	46.266
442.27	46.263
442.63	45.604
442.98	47.705
443.33	46.134
443.68	46.234
444.03	47.272
444.39	47.527
444.74	46.299
445.09	45.768
445.44	46.628
445.79	47.701
446.15	47.893
446.50	47.597
446.85	47.033
447.20	47.195
447.55	47.803
447.91	47.382
448.26	48.097
448.61	47.078
448.96	48.444
449.31	48.091
449.66	47.603
450.02	48.154
450.37	47.896
450.72	47.740
451.07	47.779
451.42	48.122
451.77	48.583
452.12	48.533
452.47	48.307
452.83	49.887
453.18	47.986
453.53	49.167
453.88	47.708
454.23	49.492
454.58	49.042
454.93	48.847
455.28	50.572
455.63	49.005
455.98	49.497
456.34	48.174
456.69	49.324
457.04	48.700
457.39	49.557
457.74	49.832
458.09	48.655
458.44	49.030
458.79	48.375
459.14	48.348
459.49	49.236
459.84	49.370
460.19	47.696
460.54	49.744
460.89	49.815
461.24	49.425
461.59	49.585
461.94	48.716
462.29	49.328
462.64	49.366
462.99	49.655
463.34	49.189
463.69	48.945
464.04	49.361
464.39	49.832
464.74	48.917
465.09	48.558
465.44	49.249
465.79	48.704
466.14	48.880
466.49	49.053
466.84	49.917
467.19	49.364
467.54	49.001
467.89	47.816
468.24	48.920
468.59	48.929
468.94	47.960
469.29	49.490
469.64	49.841
469.99	49.777
470.34	49.257
470.68	49.692
471.03	50.950
471.38	50.818
471.73	50.195
472.08	50.190
472.43	49.428
472.78	50.819
473.13	50.190
473.48	50.876
473.83	49.449
474.17	49.297
474.52	49.970
474.87	47.896
475.22	50.366
475.57	49.377
475.92	48.581
476.27	48.722
476.61	49.325
476.96	48.749
477.31	49.257
477.66	50.105
478.01	48.907
478.36	49.003
478.70	48.030
479.05	50.153
479.40	49.112
479.75	48.079
480.10	49.550
480.45	48.222
480.79	49.342
481.14	47.748
481.49	48.978
481.84	48.390
482.19	48.086
482.53	49.279
482.88	49.225
483.23	49.400
483.58	48.734
483.92	48.183
484.27	49.153
484.62	49.010
484.97	47.628
485.31	47.131
485.66	46.233
486.01	44.229
486.36	44.987
486.70	44.910
487.05	45.741
487.40	45.809
487.75	46.768
488.09	47.281
488.44	46.023
488.79	46.914
489.13	48.009
489.48	47.301
489.83	47.525
490.17	47.914
490.52	47.660
490.87	47.800
491.22	49.090
491.56	48.592
491.91	48.277
492.26	49.070
492.60	48.273
492.95	48.398
493.30	48.050
493.64	48.883
493.99	47.588
494.34	47.909
494.68	48.223
495.03	48.414
495.37	48.824
495.72	47.710
496.07	48.247
496.41	47.876
496.76	48.582
497.11	47.728
497.45	47.907
497.80	47.757
498.14	48.481
498.49	48.897
498.84	48.492
499.18	47.233
499.53	47.623
499.87	47.736
500.22	46.750
500.56	47.953
500.91	48.604
501.26	48.318
501.60	47.768
501.95	48.068
502.29	47.960
502.64	48.317
502.98	47.325
503.33	46.695
503.67	46.882
504.02	47.329
504.36	47.900
504.71	48.369
505.06	47.294
505.40	47.441
505.75	47.450
506.09	47.974
506.44	47.539
506.78	47.752
507.13	47.211
507.47	47.987
507.82	47.348
508.16	46.845
508.51	47.304
508.85	47.520
509.19	47.513
509.54	48.607
509.88	47.887
510.23	47.790
510.57	48.139
510.92	47.847
511.26	48.052
511.61	46.210
511.95	46.657
512.30	46.726
512.64	46.277
512.98	47.774
513.33	48.387
513.67	47.017
514.02	48.799
514.36	47.980
514.70	47.344
515.05	47.237
515.39	47.822
515.74	48.887
516.08	48.019
516.42	48.352
516.77	48.212
517.11	46.674
517.46	48.038
517.80	48.851
518.14	49.075
518.49	48.482
518.83	47.632
519.17	47.334
519.52	47.170
519.86	47.730
520.20	47.870
520.55	47.152
520.89	47.917
521.23	47.125
521.58	48.588
521.92	48.102
522.26	47.824
522.61	48.438
522.95	47.347
523.29	48.103
523.64	46.693
523.98	48.602
524.32	47.736
524.66	48.264
525.01	46.489
525.35	46.238
525.69	47.622
526.04	45.809
526.38	48.046
526.72	47.347
527.06	47.507
527.41	47.347
527.75	48.397
528.09	47.403
528.43	46.773
528.78	46.590
529.12	46.273
529.46	45.419
529.80	46.968
530.15	46.551
530.49	48.280
530.83	47.639
531.17	46.117
531.51	46.510
531.86	46.875
532.20	47.317
532.54	45.961
532.88	46.667
533.22	45.374
533.57	47.144
533.91	45.342
534.25	45.619
534.59	45.862
534.93	45.501
535.27	44.901
535.62	45.935
535.96	45.787
536.30	45.241
536.64	45.465
536.98	47.540
537.32	46.790
537.66	46.538
538.01	44.955
538.35	45.067
538.69	46.094
539.03	45.677
539.37	44.111
539.71	45.165
540.05	45.564
540.39	45.721
540.73	45.234
541.07	45.310
541.42	43.887
541.76	44.425
542.10	44.451
542.44	45.006
542.78	46.046
543.12	45.173
543.46	44.872
543.80	44.005
544.14	43.268
544.48	45.095
544.82	45.482
545.16	44.723
545.50	43.020
545.84	44.213
546.18	45.864
546.52	45.605
546.86	44.340
547.20	45.547
547.54	43.446
547.88	44.123
548.22	44.269
548.56	43.768
548.90	44.119
549.24	45.106
549.58	44.984
549.92	44.707
550.26	44.466
550.60	44.352
550.94	45.472
551.28	43.828
551.62	45.957
551.96	43.819
552.30	44.232
552.64	43.746
552.98	44.978
553.32	45.788
553.66	45.466
554.00	44.199
554.34	44.788
554.68	43.770
555.02	44.678
555.36	45.562
555.69	43.626
556.03	44.578
556.37	44.681
556.71	45.339
557.05	45.176
557.39	44.127
557.73	45.509
558.07	45.497
558.41	45.183
558.75	45.639
559.08	45.372
559.42	44.582
559.76	44.301
560.10	45.010
560.44	44.063
560.78	44.875
561.12	44.766
561.45	44.100
561.79	43.529
562.13	43.685
562.47	42.478
562.81	43.544
563.15	43.371
563.48	43.443
563.82	42.745
564.16	43.671
564.50	43.504
564.84	43.009
565.17	42.882
565.51	41.945
565.85	42.815
566.19	41.705
566.52	42.364
566.86	42.275
567.20	41.544
567.54	41.689
567.88	42.100
568.21	40.662
568.55	41.966
568.89	40.399
569.23	40.135
569.56	39.547
569.90	38.774
570.24	39.730
570.57	38.518
570.91	37.814
571.25	37.923
571.59	37.545
571.92	37.367
572.26	36.739
572.60	37.538
572.93	37.044
573.27	37.876
573.61	36.871
573.95	37.096
574.28	36.230
574.62	36.630
574.96	36.061
575.29	35.823
575.63	36.983
575.97	36.455
576.30	36.195
576.64	36.769
576.98	36.241
577.31	36.093
577.65	36.195
577.98	35.956
578.32	35.521
578.66	35.450
578.99	35.941
579.33	35.883
579.67	36.333
580.00	35.424
580.34	35.929
580.67	35.944
581.01	35.785
581.35	35.593
581.68	35.031
582.02	35.016
582.35	35.695
582.69	35.597
583.02	35.975
583.36	35.839
583.70	36.264
584.03	35.469
584.37	35.794
584.70	35.575
585.04	35.503
585.37	35.418
585.71	35.405
586.04	35.447
586.38	35.562
586.72	35.422
587.05	36.301
587.39	35.851
587.72	36.077
588.06	36.194
588.39	35.599
588.73	35.952
589.06	36.456
589.40	36.816
589.73	37.018
590.07	36.704
590.40	37.255
590.73	36.868
591.07	38.310
591.40	37.364
591.74	37.162
592.07	38.165
592.41	38.013
592.74	37.274
593.08	36.529
593.41	36.250
593.75	35.862
594.08	37.231
594.41	36.603
594.75	36.400
595.08	36.474
595.42	36.558
595.75	35.647
596.09	37.004
596.42	36.689
596.75	37.900
597.09	38.222
597.42	37.426
597.75	37.319
598.09	36.944
598.42	36.992
598.76	36.760
599.09	36.597
599.42	35.300
599.76	35.754
600.09	36.470
600.42	35.602
600.76	36.427
601.09	36.077
601.42	36.217
601.76	36.207
602.09	36.991
602.42	35.951
602.76	36.015
603.09	37.151
603.42	36.994
603.76	36.293
604.09	37.296
604.42	37.064
604.76	36.263
605.09	36.937
605.42	36.882
605.75	36.231
606.09	36.357
606.42	35.425
606.75	36.057
607.09	36.406
607.42	36.339
607.75	36.577
608.08	35.951
608.42	36.074
608.75	36.401
609.08	37.309
609.41	37.539
609.75	37.321
610.08	37.687
610.41	35.981
610.74	37.017
611.07	37.034
611.41	36.906
611.74	36.905
612.07	37.120
612.40	37.405
612.73	37.213
613.07	37.359
613.40	38.354
613.73	37.073
614.06	36.948
614.39	38.095
614.72	37.215
615.06	37.055
615.39	36.733
615.72	37.725
616.05	38.077
616.38	37.639
616.71	38.245
617.05	37.700
617.38	39.058
617.71	39.525
618.04	38.910
618.37	38.798
618.70	38.631
619.03	38.112
619.36	38.101
619.69	39.334
620.03	37.853
620.36	37.485
620.69	38.865
621.02	39.304
621.35	41.001
621.68	40.998
622.01	38.648
622.34	39.191
622.67	39.381
623.00	37.449
623.33	38.952
623.66	39.559
623.99	39.631
624.32	40.611
624.65	38.353
624.99	40.052
625.32	39.517
625.65	39.649
625.98	38.373
626.31	39.263
626.64	41.245
626.97	39.760
627.30	39.560
627.63	39.010
627.96	40.916
628.29	40.545
628.62	41.646
628.95	40.666
629.28	41.461
629.61	40.657
629.94	41.506
630.26	41.780
630.59	41.969
630.92	41.558
631.25	43.292
631.58	42.938
631.91	41.893
632.24	43.420
632.57	40.892
632.90	41.023
633.23	43.061
633.56	43.265
633.89	43.492
634.22	43.347
634.55	43.424
634.88	41.667
635.20	44.241
635.53	44.746
635.86	43.012
636.19	43.266
636.52	41.561
636.85	41.267
