SpectraSuite Data File
++++++++++++++++++++++++++++++++++++
Date: Thu May 14 14:35:23 PDT 2015
User: schluterlab
Dark Spectrum Present: Yes
Reference Spectrum Present: Yes
Number of Sampled Component Spectra: 1
Spectrometers: USB2E3373
Integration Time (usec): 3000 (USB2E3373)
Spectra Averaged: 3 (USB2E3373)
Boxcar Smoothing: 0 (USB2E3373)
Correct for Electrical Dark: No (USB2E3373)
Strobe/Lamp Enabled: No (USB2E3373)
Correct for Detector Non-linearity: No (USB2E3373)
Correct for Stray Light: No (USB2E3373)
Number of Pixels in Processed Spectrum: 2048
>>>>>Begin Processed Spectral Data<<<<<
178.53	0.000
178.91	-214.286
179.29	700.000
179.67	1700.000
180.04	-14.286
180.42	-180.000
180.80	-400.000
181.18	2400.000
181.56	2100.000
181.94	-300.000
182.31	325.000
182.69	-666.667
183.07	1050.000
183.45	-75.000
183.83	350.000
184.20	433.333
184.58	-1000.000
184.96	425.000
185.34	188.889
185.72	420.000
186.09	-144.444
186.47	-700.000
186.85	-340.000
187.23	211.111
187.61	2300.000
187.98	-340.000
188.36	-275.000
188.74	250.000
189.12	700.000
189.49	187.500
189.87	137.500
190.25	122.222
190.63	340.000
191.00	133.333
191.38	0.000
191.76	500.000
192.14	250.000
192.51	-1100.000
192.89	500.000
193.27	0.000
193.65	214.286
194.02	0.000
194.40	357.143
194.78	-85.714
195.15	0.000
195.53	218.182
195.91	0.000
196.29	700.000
196.66	176.923
197.04	800.000
197.42	214.286
197.79	700.000
198.17	375.000
198.55	242.857
198.92	188.889
199.30	275.000
199.68	181.818
200.05	128.571
200.43	350.000
200.81	-157.143
201.18	0.000
201.56	-77.778
201.94	0.000
202.31	-533.333
202.69	133.333
203.07	-2300.000
203.44	277.778
203.82	550.000
204.19	200.000
204.57	350.000
204.95	262.500
205.32	1100.000
205.70	-400.000
206.08	366.667
206.45	466.667
206.83	-280.000
207.20	400.000
207.58	320.000
207.96	283.333
208.33	366.667
208.71	-125.000
209.08	450.000
209.46	0.000
209.84	16.667
210.21	-750.000
210.59	-750.000
210.96	-266.667
211.34	725.000
211.71	100.000
212.09	1500.000
212.46	0.000
212.84	-200.000
213.22	320.000
213.59	550.000
213.97	290.000
214.34	333.333
214.72	-183.333
215.09	400.000
215.47	0.000
215.84	-185.714
216.22	-500.000
216.59	400.000
216.97	220.000
217.34	225.000
217.72	225.000
218.09	400.000
218.47	450.000
218.84	0.000
219.22	-360.000
219.59	117.647
219.97	145.000
220.34	-750.000
220.72	255.556
221.09	276.923
221.47	400.000
221.84	190.000
222.22	142.857
222.59	0.000
222.97	237.500
223.34	300.000
223.72	900.000
224.09	375.000
224.46	225.000
224.84	500.000
225.21	114.286
225.59	450.000
225.96	350.000
226.34	96.154
226.71	-116.667
227.08	900.000
227.46	80.000
227.83	275.000
228.21	105.263
228.58	-187.500
228.95	-350.000
229.33	125.000
229.70	160.000
230.08	194.737
230.45	-110.000
230.82	733.333
231.20	135.714
231.57	183.333
231.95	154.545
232.32	236.364
232.69	120.000
233.07	475.000
233.44	135.294
233.81	240.000
234.19	183.333
234.56	109.091
234.93	100.000
235.31	115.789
235.68	161.111
236.05	55.000
236.43	123.077
236.80	132.000
237.17	92.593
237.55	93.939
237.92	110.000
238.29	67.742
238.67	63.636
239.04	91.667
239.41	64.286
239.79	84.783
240.16	50.000
240.53	80.435
240.91	66.667
241.28	63.934
241.65	73.134
242.02	60.811
242.40	55.385
242.77	60.000
243.14	51.220
243.51	57.895
243.89	48.718
244.26	56.436
244.63	59.804
245.00	52.336
245.38	47.368
245.75	39.823
246.12	52.381
246.49	42.636
246.87	42.143
247.24	39.735
247.61	46.711
247.98	49.664
248.36	48.765
248.73	42.945
249.10	41.530
249.47	48.259
249.84	52.880
250.22	40.933
250.59	42.222
250.96	38.636
251.33	42.347
251.70	43.162
252.08	38.750
252.45	39.754
252.82	42.975
253.19	41.016
253.56	42.966
253.94	37.692
254.31	42.803
254.68	42.657
255.05	41.368
255.42	39.116
255.79	37.217
256.16	41.060
256.54	40.397
256.91	41.967
257.28	40.656
257.65	37.898
258.02	35.988
258.39	38.177
258.76	38.226
259.14	41.667
259.51	38.040
259.88	41.360
260.25	38.611
260.62	39.726
260.99	39.891
261.36	39.142
261.73	37.401
262.10	41.209
262.47	39.946
262.85	38.384
263.22	38.182
263.59	34.474
263.96	39.386
264.33	38.619
264.70	37.531
265.07	38.663
265.44	38.776
265.81	35.648
266.18	39.909
266.55	38.839
266.92	37.358
267.29	35.886
267.66	36.364
268.03	39.520
268.40	34.864
268.77	37.813
269.14	35.242
269.51	34.868
269.88	39.754
270.25	36.419
270.62	37.764
270.99	38.788
271.36	36.238
271.73	33.792
272.10	37.074
272.47	38.277
272.84	34.940
273.21	34.068
273.58	36.492
273.95	36.154
274.32	35.551
274.69	35.203
275.06	36.081
275.43	34.750
275.80	35.626
276.17	33.519
276.54	34.701
276.91	34.884
277.28	34.901
277.65	34.291
278.02	35.662
278.39	33.877
278.76	35.677
279.13	34.929
279.50	34.364
279.87	34.347
280.23	33.099
280.60	34.237
280.97	33.388
281.34	33.956
281.71	36.210
282.08	33.389
282.45	32.733
282.82	33.124
283.19	31.987
283.56	33.279
283.92	33.033
284.29	34.755
284.66	35.140
285.03	32.212
285.40	33.076
285.77	33.437
286.14	33.893
286.51	31.963
286.87	32.385
287.24	34.940
287.61	32.138
287.98	32.477
288.35	32.396
288.72	33.580
289.08	31.918
289.45	30.325
289.82	31.024
290.19	32.615
290.56	30.282
290.93	30.813
291.29	31.818
291.66	29.890
292.03	30.529
292.40	31.837
292.77	29.650
293.13	29.905
293.50	30.618
293.87	28.456
294.24	30.133
294.60	30.468
294.97	27.383
295.34	29.193
295.71	27.995
296.08	28.165
296.44	28.554
296.81	28.015
297.18	28.269
297.55	28.066
297.91	27.758
298.28	26.066
298.65	26.635
299.02	26.800
299.38	27.460
299.75	27.804
300.12	25.347
300.48	26.498
300.85	26.547
301.22	27.069
301.59	25.913
301.95	26.893
302.32	27.889
302.69	25.630
303.05	26.333
303.42	26.718
303.79	25.625
304.15	26.814
304.52	28.224
304.89	26.073
305.25	26.501
305.62	25.601
305.99	26.186
306.35	25.806
306.72	27.198
307.09	25.685
307.45	27.743
307.82	26.337
308.19	25.933
308.55	27.194
308.92	27.459
309.29	27.874
309.65	26.218
310.02	26.040
310.38	26.181
310.75	27.379
311.12	27.517
311.48	27.957
311.85	27.066
312.22	27.040
312.58	26.948
312.95	27.151
313.31	28.365
313.68	28.663
314.05	29.630
314.41	28.871
314.78	29.791
315.14	29.310
315.51	29.363
315.87	29.613
316.24	30.502
316.61	30.728
316.97	29.140
317.34	30.159
317.70	31.703
318.07	30.776
318.43	30.697
318.80	31.605
319.16	31.674
319.53	30.506
319.89	32.165
320.26	32.028
320.62	31.649
320.99	33.426
321.35	31.978
321.72	33.953
322.08	32.281
322.45	32.701
322.81	33.484
323.18	32.212
323.54	33.966
323.91	33.719
324.27	34.251
324.64	34.089
325.00	33.085
325.37	33.006
325.73	34.545
326.10	34.388
326.46	34.528
326.83	36.910
327.19	35.512
327.56	36.206
327.92	35.012
328.29	34.758
328.65	35.511
329.01	36.125
329.38	36.057
329.74	36.644
330.11	35.360
330.47	35.805
330.84	35.831
331.20	36.917
331.56	36.395
331.93	36.485
332.29	36.186
332.66	34.967
333.02	35.678
333.38	35.570
333.75	37.121
334.11	35.613
334.48	37.046
334.84	36.873
335.20	35.097
335.57	36.931
335.93	36.860
336.29	36.772
336.66	36.249
337.02	36.538
337.38	36.395
337.75	35.620
338.11	35.744
338.47	36.725
338.84	36.210
339.20	33.951
339.56	35.091
339.93	36.371
340.29	35.024
340.65	35.604
341.02	35.036
341.38	35.812
341.74	35.916
342.11	36.525
342.47	34.710
342.83	35.749
343.20	35.487
343.56	35.365
343.92	34.428
344.28	35.078
344.65	35.969
345.01	35.023
345.37	34.992
345.73	35.074
346.10	35.257
346.46	35.601
346.82	34.906
347.19	34.377
347.55	36.267
347.91	34.770
348.27	35.281
348.63	35.491
349.00	34.750
349.36	33.903
349.72	34.301
350.08	35.215
350.45	34.525
350.81	34.389
351.17	34.211
351.53	35.254
351.89	35.763
352.26	34.478
352.62	33.955
352.98	35.267
353.34	33.010
353.70	35.516
354.07	34.501
354.43	34.017
354.79	34.331
355.15	34.879
355.51	35.234
355.87	33.433
356.24	34.753
356.60	33.333
356.96	34.915
357.32	32.862
357.68	35.505
358.04	34.057
358.40	32.388
358.77	34.284
359.13	33.456
359.49	34.126
359.85	33.067
360.21	33.572
360.57	34.386
360.93	33.145
361.29	34.526
361.66	33.888
362.02	35.143
362.38	34.083
362.74	33.939
363.10	33.906
363.46	33.587
363.82	33.594
364.18	33.990
364.54	33.541
364.90	34.582
365.26	33.862
365.62	34.000
365.98	34.105
366.35	33.221
366.71	33.469
367.07	34.641
367.43	33.355
367.79	33.908
368.15	35.385
368.51	34.641
368.87	33.573
369.23	32.667
369.59	34.016
369.95	34.145
370.31	34.571
370.67	34.801
371.03	33.864
371.39	33.311
371.75	34.113
372.11	34.350
372.47	34.259
372.83	34.162
373.19	34.757
373.55	34.417
373.91	34.288
374.27	33.894
374.63	35.047
374.99	34.085
375.35	34.805
375.71	34.065
376.07	34.474
376.42	33.375
376.78	35.799
377.14	33.749
377.50	35.294
377.86	34.791
378.22	34.431
378.58	35.493
378.94	34.800
379.30	35.970
379.66	34.979
380.02	35.257
380.38	34.965
380.74	34.423
381.09	35.308
381.45	34.943
381.81	34.836
382.17	35.867
382.53	35.965
382.89	35.553
383.25	35.229
383.61	35.532
383.97	35.218
384.32	36.065
384.68	35.325
385.04	35.628
385.40	36.712
385.76	37.046
386.12	36.146
386.48	36.941
386.83	36.651
387.19	37.022
387.55	36.854
387.91	36.301
388.27	36.663
388.62	36.942
388.98	35.815
389.34	36.653
389.70	37.130
390.06	36.708
390.42	36.205
390.77	36.785
391.13	36.150
391.49	36.836
391.85	37.030
392.20	37.782
392.56	37.862
392.92	37.623
393.28	37.369
393.64	36.983
393.99	37.536
394.35	37.091
394.71	38.263
395.07	37.066
395.42	36.779
395.78	38.391
396.14	37.433
396.50	36.639
396.85	37.329
397.21	37.633
397.57	36.926
397.92	38.202
398.28	37.588
398.64	37.357
399.00	37.644
399.35	37.016
399.71	37.500
400.07	38.069
400.42	37.718
400.78	37.558
401.14	37.849
401.49	38.488
401.85	35.988
402.21	38.702
402.57	38.615
402.92	37.884
403.28	37.237
403.63	36.993
403.99	37.055
404.35	37.635
404.70	36.941
405.06	37.228
405.42	38.349
405.77	38.004
406.13	38.412
406.49	38.176
406.84	37.285
407.20	37.060
407.55	37.614
407.91	38.404
408.27	37.338
408.62	37.464
408.98	37.028
409.34	37.302
409.69	37.577
410.05	39.097
410.40	38.109
410.76	37.745
411.11	36.937
411.47	37.408
411.83	37.449
412.18	38.916
412.54	37.582
412.89	38.533
413.25	37.133
413.60	37.450
413.96	37.354
414.31	38.074
414.67	37.627
415.03	38.031
415.38	38.525
415.74	37.019
416.09	37.323
416.45	36.944
416.80	37.515
417.16	38.825
417.51	37.796
417.87	36.603
418.22	37.725
418.58	37.485
418.93	37.020
419.29	37.978
419.64	36.795
420.00	37.329
420.35	37.619
420.71	37.048
421.06	37.148
421.42	36.812
421.77	36.887
422.12	37.315
422.48	36.918
422.83	37.788
423.19	36.870
423.54	39.049
423.90	37.714
424.25	37.173
424.61	37.084
424.96	37.891
425.31	37.792
425.67	36.554
426.02	37.576
426.38	36.108
426.73	37.165
427.09	37.832
427.44	36.865
427.79	37.313
428.15	36.358
428.50	37.416
428.85	37.256
429.21	37.926
429.56	38.055
429.92	37.641
430.27	37.205
430.62	37.518
430.98	37.432
431.33	37.341
431.68	36.925
432.04	36.922
432.39	37.172
432.74	36.872
433.10	38.129
433.45	37.737
433.80	38.305
434.16	37.965
434.51	37.924
434.86	38.599
435.22	38.417
435.57	38.384
435.92	37.618
436.28	37.258
436.63	38.067
436.98	36.393
437.34	38.162
437.69	37.644
438.04	37.017
438.39	38.943
438.75	38.406
439.10	37.579
439.45	37.395
439.81	37.571
440.16	35.871
440.51	37.402
440.86	36.576
441.22	37.513
441.57	39.099
441.92	37.876
442.27	38.232
442.63	36.463
442.98	37.353
443.33	37.349
443.68	37.463
444.03	38.335
444.39	38.003
444.74	37.111
445.09	37.050
445.44	37.250
445.79	37.356
446.15	38.643
446.50	36.796
446.85	37.597
447.20	37.427
447.55	37.918
447.91	38.429
448.26	37.315
448.61	37.407
448.96	38.948
449.31	36.214
449.66	37.364
450.02	37.869
450.37	38.679
450.72	36.814
451.07	37.756
451.42	37.608
451.77	36.965
452.12	38.262
452.47	37.671
452.83	38.514
453.18	37.770
453.53	37.507
453.88	37.438
454.23	37.006
454.58	36.854
454.93	37.136
455.28	37.869
455.63	36.839
455.98	37.374
456.34	37.633
456.69	36.802
457.04	37.411
457.39	37.639
457.74	38.367
458.09	37.727
458.44	37.123
458.79	36.565
459.14	36.340
459.49	37.748
459.84	37.723
460.19	37.479
460.54	37.252
460.89	37.639
461.24	37.874
461.59	37.853
461.94	36.737
462.29	37.122
462.64	36.512
462.99	37.163
463.34	38.027
463.69	35.229
464.04	37.799
464.39	38.173
464.74	37.400
465.09	37.947
465.44	37.124
465.79	37.388
466.14	37.936
466.49	37.842
466.84	37.906
467.19	36.474
467.54	37.133
467.89	36.782
468.24	36.787
468.59	35.900
468.94	36.422
469.29	36.293
469.64	37.762
469.99	36.265
470.34	37.624
470.68	37.867
471.03	36.542
471.38	37.279
471.73	37.191
472.08	38.325
472.43	36.123
472.78	37.091
473.13	36.726
473.48	37.523
473.83	36.564
474.17	36.577
474.52	37.102
474.87	36.379
475.22	36.394
475.57	38.110
475.92	36.237
476.27	37.114
476.61	36.604
476.96	36.601
477.31	36.733
477.66	36.988
478.01	36.248
478.36	36.191
478.70	36.207
479.05	37.014
479.40	37.068
479.75	36.359
480.10	36.807
480.45	36.418
480.79	36.871
481.14	36.075
481.49	36.483
481.84	37.554
482.19	37.290
482.53	36.554
482.88	36.952
483.23	36.327
483.58	36.070
483.92	35.816
484.27	37.045
484.62	36.469
484.97	36.664
485.31	36.396
485.66	36.187
486.01	36.584
486.36	37.272
486.70	37.540
487.05	37.223
487.40	36.777
487.75	36.667
488.09	36.461
488.44	35.820
488.79	36.290
489.13	36.169
489.48	36.117
489.83	35.533
490.17	35.682
490.52	35.509
490.87	36.210
491.22	35.789
491.56	36.561
491.91	35.892
492.26	35.526
492.60	36.248
492.95	36.200
493.30	36.262
493.64	34.866
493.99	35.219
494.34	35.148
494.68	35.632
495.03	36.388
495.37	35.375
495.72	35.646
496.07	36.503
496.41	36.594
496.76	35.696
497.11	35.584
497.45	36.470
497.80	35.184
498.14	35.283
498.49	36.121
498.84	35.649
499.18	34.773
499.53	35.247
499.87	36.000
500.22	35.752
500.56	35.448
500.91	35.973
501.26	35.727
501.60	35.440
501.95	36.127
502.29	35.674
502.64	35.855
502.98	34.513
503.33	35.335
503.67	34.714
504.02	34.982
504.36	35.746
504.71	35.278
505.06	35.925
505.40	35.055
505.75	35.291
506.09	35.543
506.44	35.933
506.78	35.092
507.13	35.039
507.47	35.623
507.82	35.369
508.16	35.325
508.51	35.443
508.85	36.325
509.19	35.007
509.54	35.399
509.88	35.697
510.23	36.377
510.57	36.346
510.92	36.188
511.26	34.584
511.61	34.862
511.95	35.286
512.30	35.647
512.64	34.583
512.98	35.418
513.33	35.232
513.67	36.155
514.02	35.105
514.36	35.345
514.70	35.156
515.05	35.297
515.39	35.171
515.74	35.631
516.08	34.918
516.42	35.217
516.77	35.436
517.11	34.193
517.46	34.942
517.80	35.382
518.14	35.745
518.49	35.412
518.83	34.380
519.17	35.595
519.52	36.006
519.86	34.794
520.20	35.676
520.55	35.597
520.89	34.741
521.23	35.567
521.58	35.593
521.92	35.184
522.26	33.906
522.61	35.185
522.95	34.948
523.29	33.851
523.64	34.753
523.98	35.311
524.32	36.562
524.66	34.889
525.01	35.164
525.35	35.210
525.69	33.875
526.04	34.788
526.38	34.943
526.72	34.198
527.06	34.839
527.41	35.335
527.75	35.214
528.09	35.360
528.43	34.517
528.78	35.029
529.12	33.830
529.46	33.165
529.80	34.668
530.15	34.377
530.49	34.282
530.83	34.534
531.17	34.528
531.51	34.597
531.86	35.577
532.20	34.268
532.54	33.692
532.88	35.030
533.22	34.532
533.57	35.141
533.91	35.466
534.25	35.105
534.59	35.517
534.93	34.918
535.27	35.099
535.62	36.271
535.96	35.328
536.30	35.311
536.64	35.015
536.98	35.055
537.32	35.185
537.66	35.558
538.01	34.622
538.35	35.688
538.69	34.315
539.03	35.622
539.37	35.159
539.71	35.435
540.05	35.791
540.39	35.024
540.73	34.791
541.07	35.009
541.42	34.613
541.76	34.282
542.10	35.344
542.44	35.201
542.78	35.645
543.12	35.221
543.46	34.493
543.80	34.173
544.14	34.949
544.48	35.106
544.82	37.104
545.16	35.242
545.50	35.830
545.84	35.334
546.18	36.296
546.52	35.287
546.86	34.843
547.20	34.542
547.54	34.145
547.88	35.322
548.22	34.854
548.56	34.816
548.90	34.567
549.24	34.407
549.58	34.826
549.92	34.247
550.26	35.275
550.60	34.205
550.94	35.188
551.28	34.389
551.62	35.108
551.96	34.110
552.30	35.309
552.64	35.159
552.98	35.434
553.32	34.920
553.66	36.013
554.00	35.435
554.34	35.006
554.68	34.087
555.02	35.085
555.36	35.240
555.69	34.145
556.03	34.868
556.37	34.919
556.71	35.384
557.05	34.249
557.39	35.036
557.73	34.412
558.07	35.298
558.41	34.751
558.75	35.632
559.08	34.656
559.42	35.734
559.76	35.075
560.10	34.829
560.44	34.894
560.78	34.750
561.12	35.714
561.45	35.584
561.79	35.165
562.13	34.258
562.47	33.970
562.81	35.190
563.15	34.975
563.48	35.301
563.82	35.308
564.16	34.888
564.50	35.101
564.84	34.808
565.17	35.824
565.51	34.983
565.85	34.679
566.19	34.965
566.52	33.704
566.86	35.144
567.20	34.312
567.54	34.732
567.88	36.188
568.21	36.314
568.55	36.163
568.89	36.360
569.23	36.502
569.56	36.694
569.90	36.386
570.24	36.155
570.57	36.498
570.91	35.946
571.25	36.650
571.59	36.682
571.92	36.834
572.26	36.580
572.60	36.336
572.93	36.265
573.27	36.415
573.61	36.289
573.95	37.024
574.28	36.136
574.62	36.357
574.96	36.259
575.29	35.977
575.63	36.013
575.97	36.287
576.30	36.566
576.64	36.149
576.98	36.241
577.31	36.706
577.65	36.814
577.98	36.860
578.32	36.753
578.66	36.562
578.99	36.269
579.33	36.861
579.67	36.469
580.00	36.592
580.34	36.736
580.67	36.143
581.01	36.802
581.35	37.015
581.68	36.522
582.02	36.840
582.35	37.603
582.69	37.376
583.02	37.526
583.36	36.537
583.70	37.014
584.03	35.901
584.37	36.658
584.70	36.381
585.04	36.108
585.37	36.522
585.71	36.850
586.04	36.680
586.38	36.769
586.72	35.598
587.05	35.968
587.39	36.973
587.72	36.364
588.06	37.041
588.39	36.769
588.73	36.429
589.06	36.456
589.40	37.093
589.73	36.440
590.07	36.538
590.40	36.139
590.73	36.656
591.07	36.374
591.40	35.692
591.74	36.645
592.07	35.810
592.41	35.726
592.74	36.067
593.08	36.115
593.41	36.920
593.75	37.040
594.08	36.958
594.41	36.154
594.75	36.035
595.08	35.935
595.42	36.201
595.75	35.841
596.09	36.733
596.42	36.403
596.75	36.434
597.09	36.323
597.42	34.803
597.75	36.221
598.09	36.032
598.42	36.510
598.76	35.804
599.09	36.419
599.42	36.105
599.76	35.688
600.09	37.037
600.42	35.469
600.76	36.394
601.09	36.110
601.42	36.560
601.76	35.690
602.09	35.847
602.42	35.296
602.76	36.347
603.09	36.087
603.42	36.199
603.76	36.646
604.09	36.870
604.42	36.330
604.76	35.236
605.09	36.219
605.42	36.404
605.75	35.115
606.09	36.581
606.42	35.972
606.75	35.645
607.09	36.214
607.42	35.992
607.75	37.124
608.08	36.148
608.42	34.744
608.75	35.531
609.08	35.314
609.41	36.171
609.75	35.848
610.08	36.588
610.41	35.556
610.74	35.798
611.07	36.101
611.41	36.368
611.74	36.212
612.07	35.484
612.40	35.551
612.73	35.648
613.07	36.137
613.40	35.852
613.73	36.158
614.06	36.555
614.39	35.180
614.72	35.856
615.06	35.178
615.39	35.524
615.72	36.540
616.05	35.308
616.38	35.772
616.71	35.893
617.05	35.357
617.38	36.383
617.71	35.691
618.04	35.618
618.37	36.284
618.70	35.747
619.03	35.125
619.36	35.820
619.69	35.042
620.03	34.777
620.36	34.724
620.69	35.904
621.02	35.236
621.35	36.430
621.68	35.213
622.01	35.516
622.34	33.821
622.67	34.983
623.00	32.524
623.33	35.103
623.66	35.863
623.99	35.023
624.32	36.387
624.65	35.328
624.99	35.696
625.32	35.663
625.65	36.413
625.98	34.712
626.31	35.294
626.64	34.432
626.97	34.584
627.30	33.485
627.63	33.983
627.96	35.736
628.29	35.409
628.62	33.333
628.95	34.882
629.28	33.900
629.61	35.269
629.94	34.728
630.26	33.814
630.59	35.060
630.92	33.333
631.25	34.794
631.58	35.687
631.91	35.520
632.24	36.695
632.57	34.061
632.90	32.999
