SpectraSuite Data File
++++++++++++++++++++++++++++++++++++
Date: Thu May 14 15:05:36 PDT 2015
User: schluterlab
Dark Spectrum Present: Yes
Reference Spectrum Present: Yes
Number of Sampled Component Spectra: 1
Spectrometers: USB2E3373
Integration Time (usec): 3000 (USB2E3373)
Spectra Averaged: 3 (USB2E3373)
Boxcar Smoothing: 0 (USB2E3373)
Correct for Electrical Dark: No (USB2E3373)
Strobe/Lamp Enabled: No (USB2E3373)
Correct for Detector Non-linearity: No (USB2E3373)
Correct for Stray Light: No (USB2E3373)
Number of Pixels in Processed Spectrum: 2048
>>>>>Begin Processed Spectral Data<<<<<
178.53	0.000
178.91	328.571
179.29	-3500.000
179.67	-2700.000
180.04	271.429
180.42	270.000
180.80	700.000
181.18	-3300.000
181.56	-2200.000
181.94	825.000
182.31	-525.000
182.69	866.667
183.07	-1300.000
183.45	525.000
183.83	-433.333
184.20	-866.667
184.58	2700.000
184.96	-575.000
185.34	-255.556
185.72	-420.000
186.09	344.444
186.47	1450.000
186.85	500.000
187.23	-355.556
187.61	-3300.000
187.98	520.000
188.36	800.000
188.74	-900.000
189.12	-800.000
189.49	-31.250
189.87	-250.000
190.25	-311.111
190.63	-360.000
191.00	-266.667
191.38	0.000
191.76	-825.000
192.14	-416.667
192.51	1050.000
192.89	-383.333
193.27	0.000
193.65	-271.429
194.02	-2200.000
194.40	-257.143
194.78	385.714
195.15	0.000
195.53	-136.364
195.91	0.000
196.29	-775.000
196.66	-176.923
197.04	-3300.000
197.42	-414.286
197.79	-1800.000
198.17	-375.000
198.55	-485.714
198.92	-200.000
199.30	-325.000
199.68	-172.727
200.05	-107.143
200.43	-1950.000
200.81	457.143
201.18	0.000
201.56	388.889
201.94	0.000
202.31	1266.667
202.69	-422.222
203.07	2500.000
203.44	-244.444
203.82	-775.000
204.19	-175.000
204.57	-500.000
204.95	-300.000
205.32	-2200.000
205.70	600.000
206.08	-266.667
206.45	-316.667
206.83	880.000
207.20	-350.000
207.58	-600.000
207.96	-600.000
208.33	-200.000
208.71	291.667
209.08	-283.333
209.46	0.000
209.84	566.667
210.21	1600.000
210.59	1700.000
210.96	1200.000
211.34	-550.000
211.71	-237.500
212.09	-3100.000
212.46	0.000
212.84	2000.000
213.22	-620.000
213.59	-650.000
213.97	-180.000
214.34	-1033.333
214.72	433.333
215.09	-700.000
215.47	0.000
215.84	342.857
216.22	1550.000
216.59	-300.000
216.97	-440.000
217.34	-700.000
217.72	-312.500
218.09	-775.000
218.47	-825.000
218.84	0.000
219.22	400.000
219.59	-141.176
219.97	-155.000
220.34	1450.000
220.72	-277.778
221.09	-138.462
221.47	-566.667
221.84	-280.000
222.22	-428.571
222.59	0.000
222.97	-300.000
223.34	-600.000
223.72	-3400.000
224.09	-625.000
224.46	-900.000
224.84	-400.000
225.21	-300.000
225.59	-775.000
225.96	-850.000
226.34	-92.308
226.71	500.000
227.08	-1350.000
227.46	-120.000
227.83	-725.000
228.21	-126.316
228.58	400.000
228.95	1700.000
229.33	-225.000
229.70	-290.000
230.08	-52.632
230.45	320.000
230.82	-833.333
231.20	-114.286
231.57	-266.667
231.95	-263.636
232.32	-245.455
232.69	-105.000
233.07	-800.000
233.44	-129.412
233.81	-260.000
234.19	-127.778
234.56	-95.455
234.93	-31.034
235.31	-110.526
235.68	-150.000
236.05	-155.000
236.43	-42.308
236.80	-64.000
237.17	-66.667
237.55	-57.576
237.92	-250.000
238.29	-70.968
238.67	-61.364
239.04	-66.667
239.41	-92.857
239.79	-73.913
240.16	-59.259
240.53	-50.000
240.91	-50.980
241.28	-34.426
241.65	-17.910
242.02	-17.568
242.40	-41.538
242.77	-26.667
243.14	-32.927
243.51	-52.632
243.89	-48.718
244.26	-21.782
244.63	-14.706
245.00	-22.430
245.38	-21.053
245.75	-35.398
246.12	-17.460
246.49	-18.605
246.87	-15.714
247.24	-11.921
247.61	-13.158
247.98	-21.477
248.36	-12.346
248.73	-15.337
249.10	-13.661
249.47	-8.458
249.84	-8.901
250.22	-13.472
250.59	-13.889
250.96	-4.545
251.33	-16.837
251.70	-6.410
252.08	-11.250
252.45	-9.426
252.82	-11.157
253.19	-9.766
253.56	-4.563
253.94	-8.846
254.31	-5.682
254.68	-4.545
255.05	-3.909
255.42	-6.803
255.79	-7.120
256.16	-6.954
256.54	-11.589
256.91	-5.574
257.28	-7.541
257.65	-13.376
258.02	-8.850
258.39	-7.692
258.76	-4.281
259.14	-4.885
259.51	-4.323
259.88	-9.065
260.25	-6.389
260.62	-5.205
260.99	-5.191
261.36	-4.290
261.73	-6.366
262.10	-9.341
262.47	-8.847
262.85	-2.778
263.22	-6.753
263.59	-7.368
263.96	-5.115
264.33	-7.417
264.70	-5.185
265.07	-3.819
265.44	-2.041
265.81	-5.324
266.18	-6.803
266.55	-3.795
266.92	-6.150
267.29	-3.501
267.66	-6.874
268.03	-5.022
268.40	-4.593
268.77	-5.923
269.14	-7.269
269.51	-4.167
269.88	-4.098
270.25	-3.018
270.62	-2.954
270.99	-1.212
271.36	-3.366
271.73	-4.519
272.10	-2.806
272.47	-5.210
272.84	-5.020
273.21	-5.010
273.58	-4.839
273.95	-4.231
274.32	-4.943
274.69	-3.288
275.06	-1.832
275.43	-5.545
275.80	-3.880
276.17	-4.074
276.54	-2.425
276.91	-3.220
277.28	-3.797
277.65	-3.411
278.02	-1.471
278.39	-5.254
278.76	-4.745
279.13	-4.965
279.50	-3.608
279.87	-4.651
280.23	-6.866
280.60	-3.898
280.97	-2.632
281.34	-3.226
281.71	-2.538
282.08	-4.153
282.45	-3.601
282.82	-3.768
283.19	-3.877
283.56	-3.770
283.92	-2.402
284.29	-1.896
284.66	-2.956
285.03	-4.327
285.40	-1.700
285.77	-3.870
286.14	-3.206
286.51	-3.957
286.87	-3.791
287.24	-3.012
287.61	-3.139
287.98	-3.776
288.35	-3.550
288.72	-3.402
289.08	-3.221
289.45	-3.698
289.82	-4.518
290.19	-3.448
290.56	-1.831
290.93	-3.424
291.29	-3.857
291.66	-1.377
292.03	-4.478
292.40	-2.993
292.77	-1.348
293.13	-2.977
293.50	-4.336
293.87	-1.342
294.24	-2.133
294.60	-2.023
294.97	-3.758
295.34	-1.280
295.71	-3.657
296.08	-3.747
296.44	-2.819
296.81	-3.898
297.18	-3.611
297.55	-4.127
297.91	-2.610
298.28	-2.962
298.65	-2.735
299.02	-2.952
299.38	-1.716
299.75	-2.220
300.12	-4.514
300.48	-1.959
300.85	-1.687
301.22	-1.454
301.59	-2.511
301.95	-2.260
302.32	-0.889
302.69	-2.410
303.05	-2.829
303.42	-1.996
303.79	-2.083
304.15	-2.103
304.52	-2.431
304.89	-2.199
305.25	-2.381
305.62	-2.090
305.99	-1.443
306.35	-1.210
306.72	-1.551
307.09	-2.944
307.45	-1.967
307.82	-1.009
308.19	-0.908
308.55	-0.579
308.92	-0.876
309.29	-1.724
309.65	-2.144
310.02	-2.376
310.38	-1.280
310.75	-0.971
311.12	-1.246
311.48	-2.444
311.85	-1.709
312.22	-0.949
312.58	-1.408
312.95	-2.294
313.31	-0.632
313.68	-0.916
314.05	-0.361
314.41	-0.546
314.78	-0.545
315.14	-0.544
315.51	-0.092
315.87	-0.270
316.24	-0.913
316.61	0.266
316.97	-1.176
317.34	-0.353
317.70	-0.262
318.07	0.353
318.43	1.276
318.80	1.756
319.16	0.086
319.53	-0.600
319.89	-0.438
320.26	0.267
320.62	-0.177
320.99	-0.185
321.35	0.277
321.72	0.372
322.08	0.180
322.45	-0.090
322.81	0.632
323.18	1.062
323.54	0.690
323.91	0.534
324.27	1.119
324.64	1.343
325.00	0.995
325.37	2.129
325.73	1.901
326.10	1.460
326.46	2.362
326.83	1.761
327.19	2.047
327.56	3.004
327.92	2.518
328.29	2.097
328.65	1.926
329.01	2.200
329.38	1.853
329.74	2.055
330.11	3.596
330.47	2.443
330.84	3.101
331.20	3.000
331.56	2.080
331.93	2.678
332.29	2.373
332.66	2.907
333.02	3.266
333.38	2.265
333.75	2.357
334.11	2.752
334.48	3.300
334.84	3.908
335.20	2.519
335.57	3.879
335.93	3.636
336.29	2.579
336.66	2.607
337.02	3.512
337.38	3.656
337.75	2.810
338.11	3.364
338.47	4.053
338.84	2.284
339.20	3.033
339.56	3.295
339.93	3.777
340.29	3.865
340.65	3.244
341.02	3.591
341.38	4.365
341.74	4.197
342.11	4.103
342.47	3.813
342.83	4.187
343.20	3.761
343.56	3.769
343.92	3.363
344.28	4.141
344.65	4.496
345.01	4.134
345.37	3.577
345.73	3.585
346.10	3.510
346.46	3.006
346.82	4.270
347.19	4.125
347.55	3.869
347.91	3.046
348.27	3.338
348.63	4.189
349.00	3.878
349.36	4.461
349.72	3.795
350.08	4.383
350.45	3.650
350.81	4.525
351.17	4.586
351.53	3.336
351.89	4.024
352.26	3.881
352.62	3.731
352.98	3.740
353.34	2.539
353.70	3.159
354.07	4.024
354.43	3.189
354.79	4.562
355.15	4.415
355.51	5.044
355.87	4.263
356.24	4.183
356.60	4.139
356.96	3.929
357.32	4.015
357.68	4.026
358.04	3.817
358.40	4.328
358.77	4.678
359.13	4.210
359.49	3.494
359.85	4.061
360.21	5.452
360.57	4.307
360.93	5.289
361.29	4.491
361.66	5.069
362.02	5.637
362.38	4.498
362.74	4.399
363.10	6.534
363.46	4.432
363.82	4.972
364.18	4.645
364.54	5.602
364.90	5.084
365.26	5.448
365.62	5.800
365.98	5.378
366.35	5.906
366.71	6.190
367.07	5.277
367.43	6.369
367.79	6.105
368.15	5.217
368.51	5.886
368.87	5.944
369.23	6.000
369.59	6.148
369.95	6.018
370.31	6.144
370.67	5.708
371.03	6.717
371.39	6.179
371.75	6.190
372.11	6.233
372.47	6.635
372.83	6.479
373.19	7.205
373.55	6.775
373.91	7.021
374.27	6.274
374.63	7.307
374.99	7.560
375.35	8.182
375.71	6.774
376.07	7.424
376.42	7.116
376.78	7.582
377.14	7.486
377.50	8.286
377.86	7.882
378.22	8.024
378.58	8.145
378.94	8.509
379.30	7.674
379.66	7.643
380.02	8.886
380.38	9.101
380.74	8.000
381.09	9.175
381.45	7.670
381.81	8.958
382.17	8.670
382.53	9.064
382.89	9.142
383.25	8.910
383.61	9.144
383.97	8.363
384.32	9.091
384.68	8.527
385.04	9.832
385.40	9.369
385.76	10.668
386.12	9.216
386.48	10.412
386.83	10.310
387.19	9.386
387.55	9.624
387.91	10.046
388.27	10.508
388.62	10.023
388.98	10.265
389.34	11.255
389.70	10.691
390.06	10.539
390.42	9.819
390.77	10.777
391.13	10.446
391.49	11.111
391.85	9.939
392.20	10.854
392.56	11.164
392.92	10.796
393.28	10.669
393.64	10.950
393.99	11.795
394.35	11.507
394.71	11.257
395.07	10.299
395.42	10.737
395.78	12.188
396.14	10.992
396.50	10.926
396.85	11.210
397.21	11.065
397.57	11.131
397.92	11.054
398.28	10.864
398.64	11.270
399.00	11.047
399.35	11.571
399.71	10.652
400.07	11.117
400.42	11.350
400.78	11.053
401.14	11.098
401.49	11.313
401.85	11.105
402.21	10.892
402.57	11.561
402.92	10.343
403.28	10.363
403.63	10.442
403.99	9.917
404.35	10.574
404.70	11.048
405.06	10.707
405.42	10.948
405.77	11.396
406.13	11.129
406.49	10.586
406.84	10.693
407.20	10.453
407.55	10.478
407.91	10.245
408.27	11.190
408.62	10.297
408.98	11.317
409.34	9.501
409.69	10.630
410.05	11.606
410.40	10.905
410.76	10.600
411.11	11.222
411.47	10.504
411.83	11.405
412.18	11.867
412.54	10.729
412.89	10.827
413.25	11.061
413.60	10.396
413.96	10.490
414.31	11.501
414.67	11.032
415.03	10.892
415.38	10.656
415.74	10.507
416.09	10.796
416.45	11.271
416.80	11.016
417.16	10.792
417.51	10.336
417.87	10.607
418.22	10.539
418.58	10.347
418.93	11.059
419.29	10.789
419.64	10.924
420.00	10.979
420.35	10.444
420.71	10.798
421.06	10.581
421.42	11.124
421.77	10.985
422.12	11.734
422.48	11.111
422.83	11.720
423.19	11.671
423.54	11.892
423.90	10.547
424.25	11.893
424.61	9.931
424.96	11.312
425.31	11.730
425.67	10.843
426.02	10.957
426.38	11.194
426.73	10.937
427.09	11.995
427.44	11.087
427.79	11.166
428.15	10.559
428.50	10.955
428.85	11.194
429.21	11.809
429.56	11.698
429.92	11.597
430.27	11.663
430.62	11.871
430.98	11.854
431.33	11.926
431.68	10.776
432.04	12.544
432.39	11.944
432.74	11.758
433.10	12.655
433.45	10.981
433.80	11.588
434.16	12.345
434.51	11.871
434.86	11.238
435.22	12.646
435.57	12.382
435.92	12.465
436.28	11.490
436.63	12.561
436.98	11.648
437.34	12.627
437.69	11.447
438.04	12.586
438.39	11.603
438.75	11.954
439.10	11.892
439.45	12.018
439.81	11.638
440.16	12.064
440.51	12.430
440.86	12.173
441.22	11.951
441.57	12.579
441.92	11.688
442.27	12.374
442.63	12.320
442.98	12.380
443.33	12.151
443.68	13.082
444.03	12.747
444.39	12.344
444.74	12.762
445.09	12.215
445.44	12.329
445.79	12.596
446.15	12.230
446.50	12.661
446.85	12.403
447.20	11.992
447.55	12.238
447.91	11.728
448.26	12.209
448.61	12.593
448.96	13.197
449.31	13.521
449.66	12.146
450.02	12.605
450.37	12.893
450.72	12.056
451.07	12.585
451.42	12.132
451.77	12.451
452.12	12.754
452.47	11.824
452.83	12.218
453.18	12.843
453.53	12.234
453.88	12.700
454.23	12.542
454.58	12.478
454.93	11.226
455.28	13.125
455.63	12.678
455.98	12.514
456.34	12.367
456.69	12.111
457.04	12.530
457.39	12.361
457.74	12.975
458.09	13.015
458.44	12.985
458.79	12.635
459.14	12.585
459.49	12.337
459.84	12.907
460.19	12.160
460.54	12.436
460.89	12.546
461.24	12.241
461.59	13.503
461.94	11.466
462.29	13.046
462.64	12.372
462.99	12.304
463.34	12.914
463.69	12.309
464.04	12.674
464.39	12.388
464.74	12.315
465.09	12.630
465.44	12.178
465.79	12.639
466.14	12.194
466.49	12.789
466.84	12.397
467.19	12.543
467.54	11.810
467.89	11.494
468.24	12.133
468.59	11.060
468.94	12.179
469.29	11.638
469.64	11.443
469.99	11.281
470.34	12.067
470.68	12.098
471.03	12.246
471.38	11.707
471.73	12.029
472.08	12.310
472.43	11.800
472.78	12.406
473.13	12.010
473.48	12.568
473.83	12.943
474.17	11.899
474.52	12.207
474.87	12.791
475.22	12.225
475.57	12.876
475.92	12.743
476.27	12.993
476.61	12.150
476.96	11.940
477.31	13.366
477.66	13.169
478.01	13.167
478.36	12.812
478.70	12.562
479.05	12.986
479.40	12.981
479.75	12.632
480.10	12.411
480.45	13.218
480.79	12.245
481.14	12.822
481.49	13.312
481.84	13.011
482.19	12.473
482.53	12.418
482.88	12.583
483.23	12.317
483.58	12.358
483.92	12.500
484.27	11.939
484.62	12.087
484.97	12.869
485.31	12.496
485.66	11.774
486.01	12.207
486.36	12.644
486.70	14.082
487.05	14.124
487.40	13.815
487.75	13.359
488.09	13.384
488.44	13.194
488.79	13.052
489.13	12.925
489.48	11.845
489.83	11.791
490.17	11.786
490.52	12.192
490.87	12.690
491.22	12.565
491.56	12.372
491.91	12.778
492.26	12.722
492.60	12.462
492.95	11.803
493.30	12.281
493.64	12.571
493.99	11.974
494.34	12.239
494.68	12.463
495.03	11.938
495.37	13.005
495.72	12.063
496.07	12.621
496.41	11.883
496.76	12.093
497.11	12.442
497.45	12.300
497.80	12.705
498.14	11.565
498.49	11.949
498.84	12.294
499.18	12.146
499.53	12.242
499.87	12.879
500.22	11.665
500.56	12.056
500.91	11.716
501.26	12.591
501.60	11.887
501.95	12.940
502.29	12.637
502.64	13.293
502.98	11.864
503.33	12.052
503.67	12.473
504.02	12.347
504.36	12.824
504.71	13.091
505.06	12.733
505.40	12.294
505.75	12.386
506.09	13.122
506.44	12.581
506.78	12.890
507.13	12.817
507.47	13.027
507.82	13.684
508.16	12.141
508.51	12.752
508.85	12.801
509.19	12.743
509.54	12.968
509.88	12.822
510.23	13.065
510.57	13.630
510.92	12.869
511.26	13.083
511.61	12.313
511.95	13.421
512.30	13.737
512.64	12.644
512.98	13.557
513.33	13.306
513.67	12.596
514.02	13.337
514.36	12.788
514.70	13.229
515.05	13.243
515.39	13.753
515.74	14.634
516.08	13.946
516.42	14.076
516.77	13.775
517.11	13.461
517.46	13.362
517.80	14.110
518.14	13.384
518.49	12.961
518.83	13.305
519.17	13.678
519.52	13.889
519.86	12.988
520.20	14.058
520.55	12.979
520.89	14.020
521.23	14.070
521.58	13.785
521.92	13.144
522.26	12.829
522.61	13.426
522.95	14.014
523.29	13.793
523.64	13.845
523.98	14.147
524.32	14.957
524.66	13.773
525.01	13.930
525.35	13.498
525.69	13.399
526.04	14.064
526.38	14.138
526.72	13.264
527.06	13.314
527.41	13.878
527.75	13.777
528.09	14.522
528.43	13.440
528.78	13.468
529.12	13.131
529.46	13.097
529.80	14.245
530.15	14.667
530.49	13.108
530.83	14.050
531.17	14.277
531.51	14.741
531.86	14.423
532.20	14.268
532.54	13.525
532.88	14.182
533.22	14.496
533.57	14.137
533.91	14.422
534.25	14.415
534.59	13.678
534.93	14.488
535.27	13.859
535.62	14.383
535.96	13.016
536.30	13.984
536.64	13.874
536.98	13.838
537.32	13.765
537.66	13.974
538.01	13.535
538.35	13.276
538.69	13.882
539.03	13.734
539.37	14.016
539.71	13.874
540.05	14.388
540.39	13.692
540.73	14.329
541.07	12.876
541.42	13.231
541.76	12.574
542.10	13.812
542.44	13.886
542.78	13.990
543.12	13.886
543.46	13.797
543.80	13.489
544.14	13.884
544.48	14.007
544.82	13.405
545.16	14.013
545.50	13.301
545.84	13.105
546.18	13.951
546.52	13.376
546.86	13.522
547.20	13.422
547.54	12.984
547.88	12.719
548.22	13.158
548.56	13.517
548.90	13.672
549.24	14.347
549.58	12.744
549.92	13.776
550.26	14.304
550.60	14.295
550.94	13.195
551.28	14.455
551.62	13.410
551.96	13.851
552.30	13.958
552.64	13.255
552.98	13.537
553.32	14.148
553.66	13.826
554.00	14.250
554.34	13.127
554.68	13.557
555.02	12.943
555.36	14.070
555.69	13.325
556.03	12.926
556.37	13.830
556.71	14.077
557.05	14.441
557.39	13.404
557.73	13.606
558.07	12.384
558.41	14.086
558.75	12.914
559.08	12.665
559.42	12.346
559.76	12.890
560.10	13.329
560.44	13.852
560.78	14.500
561.12	13.054
561.45	14.294
561.79	14.408
562.13	14.356
562.47	13.194
562.81	13.354
563.15	13.321
563.48	13.300
563.82	13.724
564.16	13.507
564.50	13.468
564.84	13.687
565.17	14.235
565.51	13.234
565.85	12.648
566.19	13.191
566.52	12.639
566.86	13.639
567.20	12.398
567.54	12.958
567.88	13.914
568.21	13.241
568.55	13.237
568.89	13.255
569.23	13.815
569.56	13.716
569.90	13.863
570.24	14.233
570.57	13.534
570.91	13.166
571.25	13.682
571.59	14.139
571.92	13.913
572.26	13.896
572.60	14.469
572.93	13.832
573.27	14.049
573.61	13.976
573.95	13.814
574.28	13.548
574.62	13.438
574.96	13.388
575.29	13.615
575.63	13.490
575.97	13.964
576.30	13.570
576.64	13.577
576.98	13.531
577.31	13.929
577.65	13.516
577.98	13.968
578.32	13.274
578.66	13.796
578.99	13.701
579.33	13.673
579.67	13.509
580.00	13.981
580.34	13.896
580.67	13.416
581.01	13.587
581.35	13.696
581.68	13.558
582.02	14.055
582.35	13.926
582.69	13.941
583.02	13.624
583.36	13.966
583.70	13.747
584.03	13.751
584.37	13.676
584.70	13.130
585.04	13.346
585.37	13.301
585.71	13.743
586.04	14.135
586.38	13.556
586.72	13.362
587.05	13.482
587.39	13.987
587.72	14.019
588.06	13.733
588.39	13.991
588.73	13.624
589.06	14.108
589.40	13.583
589.73	13.689
590.07	13.561
590.40	14.131
590.73	13.291
591.07	13.515
591.40	13.569
591.74	13.275
592.07	13.926
592.41	13.249
592.74	13.064
593.08	13.408
593.41	13.940
593.75	13.908
594.08	14.268
594.41	14.263
594.75	13.882
595.08	13.459
595.42	14.058
595.75	13.820
596.09	13.623
596.42	13.938
596.75	13.354
597.09	13.657
597.42	13.230
597.75	13.367
598.09	13.175
598.42	13.309
598.76	12.648
599.09	13.457
599.42	13.443
599.76	13.404
600.09	13.514
600.42	13.780
600.76	13.804
601.09	13.442
601.42	12.942
601.76	13.448
602.09	13.438
602.42	13.195
602.76	13.100
603.09	13.363
603.42	13.403
603.76	13.495
604.09	13.875
604.42	13.982
604.76	13.090
605.09	13.123
605.42	13.836
605.75	13.077
606.09	13.065
606.42	13.207
606.75	12.744
607.09	13.095
607.42	13.449
607.75	14.224
608.08	12.865
608.42	13.100
608.75	13.060
609.08	12.818
609.41	13.454
609.75	12.902
610.08	13.412
610.41	13.084
610.74	13.403
611.07	13.144
611.41	13.857
611.74	13.580
612.07	12.763
612.40	12.643
612.73	12.812
613.07	13.154
613.40	12.945
613.73	13.240
614.06	13.297
614.39	12.439
614.72	12.276
615.06	12.993
615.39	12.421
615.72	13.081
616.05	12.385
616.38	13.421
616.71	13.114
617.05	12.034
617.38	12.734
617.71	13.391
618.04	12.844
618.37	13.060
618.70	12.557
619.03	12.067
619.36	12.330
619.69	13.133
620.03	12.304
620.36	11.963
620.69	11.474
621.02	12.336
621.35	12.264
621.68	12.654
622.01	11.601
622.34	11.855
622.67	12.509
623.00	10.661
623.33	12.409
623.66	12.646
623.99	12.640
624.32	13.320
624.65	11.840
624.99	12.874
625.32	13.194
625.65	12.947
625.98	12.610
626.31	11.269
626.64	12.234
626.97	11.553
627.30	11.693
627.63	12.078
627.96	12.988
628.29	12.296
628.62	12.510
628.95	11.832
629.28	11.810
629.61	11.785
629.94	11.548
630.26	12.458
630.59	11.399
630.92	10.909
631.25	12.791
631.58	11.959
631.91	11.434
632.24	12.488
632.57	11.670
632.90	9.829
633.23	13.367
633.56	10.816
633.89	10.124
634.22	13.202
