SpectraSuite Data File
++++++++++++++++++++++++++++++++++++
Date: Thu May 14 14:53:38 PDT 2015
User: schluterlab
Dark Spectrum Present: Yes
Reference Spectrum Present: Yes
Number of Sampled Component Spectra: 1
Spectrometers: USB2E3373
Integration Time (usec): 3000 (USB2E3373)
Spectra Averaged: 3 (USB2E3373)
Boxcar Smoothing: 0 (USB2E3373)
Correct for Electrical Dark: No (USB2E3373)
Strobe/Lamp Enabled: No (USB2E3373)
Correct for Detector Non-linearity: No (USB2E3373)
Correct for Stray Light: No (USB2E3373)
Number of Pixels in Processed Spectrum: 2048
>>>>>Begin Processed Spectral Data<<<<<
178.53	0.000
178.91	242.857
179.29	-1300.000
179.67	-1500.000
180.04	200.000
180.42	170.000
180.80	400.000
181.18	-1300.000
181.56	-600.000
181.94	350.000
182.31	-250.000
182.69	533.333
183.07	-750.000
183.45	500.000
183.83	-166.667
184.20	-466.667
184.58	1700.000
184.96	-500.000
185.34	-33.333
185.72	-200.000
186.09	288.889
186.47	800.000
186.85	380.000
187.23	-311.111
187.61	-2200.000
187.98	280.000
188.36	575.000
188.74	-250.000
189.12	-500.000
189.49	-50.000
189.87	-87.500
190.25	-111.111
190.63	-500.000
191.00	-188.889
191.38	0.000
191.76	-425.000
192.14	-66.667
192.51	600.000
192.89	-266.667
193.27	0.000
193.65	-42.857
194.02	-1800.000
194.40	-242.857
194.78	257.143
195.15	0.000
195.53	-127.273
195.91	0.000
196.29	-175.000
196.66	-76.923
197.04	-2000.000
197.42	-228.571
197.79	-850.000
198.17	-212.500
198.55	-242.857
198.92	-155.556
199.30	-137.500
199.68	-36.364
200.05	-50.000
200.43	-650.000
200.81	185.714
201.18	0.000
201.56	277.778
201.94	0.000
202.31	566.667
202.69	-144.444
203.07	300.000
203.44	-155.556
203.82	-475.000
204.19	-133.333
204.57	-250.000
204.95	-125.000
205.32	-1900.000
205.70	250.000
206.08	-166.667
206.45	-133.333
206.83	400.000
207.20	-250.000
207.58	-320.000
207.96	33.333
208.33	-116.667
208.71	100.000
209.08	-200.000
209.46	0.000
209.84	366.667
210.21	1000.000
210.59	750.000
210.96	700.000
211.34	-425.000
211.71	-200.000
212.09	-2500.000
212.46	0.000
212.84	1500.000
213.22	-280.000
213.59	-300.000
213.97	-70.000
214.34	-566.667
214.72	433.333
215.09	-300.000
215.47	0.000
215.84	285.714
216.22	1100.000
216.59	-140.000
216.97	-220.000
217.34	-300.000
217.72	-12.500
218.09	-150.000
218.47	-400.000
218.84	0.000
219.22	280.000
219.59	-111.765
219.97	-40.000
220.34	850.000
220.72	-222.222
221.09	-53.846
221.47	-366.667
221.84	-160.000
222.22	-200.000
222.59	0.000
222.97	-50.000
223.34	-240.000
223.72	-1200.000
224.09	-375.000
224.46	-400.000
224.84	-200.000
225.21	-171.429
225.59	-350.000
225.96	-200.000
226.34	-11.538
226.71	266.667
227.08	-700.000
227.46	-73.333
227.83	-225.000
228.21	-63.158
228.58	262.500
228.95	750.000
229.33	-58.333
229.70	-130.000
230.08	0.000
230.45	160.000
230.82	-300.000
231.20	-92.857
231.57	-58.333
231.95	-81.818
232.32	-54.545
232.69	-50.000
233.07	-325.000
233.44	-64.706
233.81	-50.000
234.19	-22.222
234.56	-22.727
234.93	6.897
235.31	-21.053
235.68	-61.111
236.05	-55.000
236.43	-26.923
236.80	20.000
237.17	18.519
237.55	12.121
237.92	-140.000
238.29	-25.806
238.67	-22.727
239.04	5.556
239.41	-7.143
239.79	6.522
240.16	-5.556
240.53	4.348
240.91	11.765
241.28	0.000
241.65	13.433
242.02	16.216
242.40	-12.308
242.77	5.333
243.14	-2.439
243.51	-10.526
243.89	-1.282
244.26	8.911
244.63	21.569
245.00	9.346
245.38	7.018
245.75	4.425
246.12	12.698
246.49	10.853
246.87	11.429
247.24	15.894
247.61	9.868
247.98	12.752
248.36	9.877
248.73	8.589
249.10	5.464
249.47	10.945
249.84	18.848
250.22	7.772
250.59	18.333
250.96	18.636
251.33	7.653
251.70	15.812
252.08	17.083
252.45	12.295
252.82	14.050
253.19	14.062
253.56	14.829
253.94	15.000
254.31	18.182
254.68	17.483
255.05	18.241
255.42	13.946
255.79	14.887
256.16	15.563
256.54	13.907
256.91	16.066
257.28	14.754
257.65	13.057
258.02	10.619
258.39	11.111
258.76	13.761
259.14	18.391
259.51	14.409
259.88	12.748
260.25	14.444
260.62	14.795
260.99	17.213
261.36	17.694
261.73	15.119
262.10	15.934
262.47	13.673
262.85	19.192
263.22	13.247
263.59	12.632
263.96	17.136
264.33	14.066
264.70	16.790
265.07	17.184
265.44	20.181
265.81	18.287
266.18	16.780
266.55	14.286
266.92	19.362
267.29	18.600
267.66	19.290
268.03	14.847
268.40	15.866
268.77	15.262
269.14	17.181
269.51	17.105
269.88	17.213
270.25	18.310
270.62	17.300
270.99	17.778
271.36	15.446
271.73	17.682
272.10	19.238
272.47	15.431
272.84	16.667
273.21	17.034
273.58	16.331
273.95	14.423
274.32	14.068
274.69	14.313
275.06	15.751
275.43	14.603
275.80	17.284
276.17	15.926
276.54	13.993
276.91	15.564
277.28	15.009
277.65	16.697
278.02	16.176
278.39	16.304
278.76	15.290
279.13	15.603
279.50	16.323
279.87	16.995
280.23	13.204
280.60	15.424
280.97	16.612
281.34	15.789
281.71	18.613
282.08	15.615
282.45	14.894
282.82	15.071
283.19	15.670
283.56	17.213
283.92	16.366
284.29	16.430
284.66	16.420
285.03	13.462
285.40	15.765
285.77	13.777
286.14	16.947
286.51	16.134
286.87	15.008
287.24	15.813
287.61	15.695
287.98	14.350
288.35	14.793
288.72	13.757
289.08	15.813
289.45	15.680
289.82	14.458
290.19	16.236
290.56	15.775
290.93	15.835
291.29	13.636
291.66	12.948
292.03	14.790
292.40	14.286
292.77	14.420
293.13	12.991
293.50	13.929
293.87	13.691
294.24	15.733
294.60	15.044
294.97	13.020
295.34	15.365
295.71	12.358
296.08	13.566
296.44	12.990
296.81	14.129
297.18	12.827
297.55	11.439
297.91	12.456
298.28	12.441
298.65	13.199
299.02	13.813
299.38	13.043
299.75	13.785
300.12	12.500
300.48	13.479
300.85	13.048
301.22	12.752
301.59	12.329
301.95	12.768
302.32	12.778
302.69	12.486
303.05	12.949
303.42	13.415
303.79	12.188
304.15	13.670
304.52	13.214
304.89	12.461
305.25	13.768
305.62	14.107
305.99	13.918
306.35	13.004
306.72	12.513
307.09	13.401
307.45	12.836
307.82	13.118
308.19	11.403
308.55	13.211
308.92	13.340
309.29	11.494
309.65	12.963
310.02	12.475
310.38	13.878
310.75	13.689
311.12	14.190
311.48	12.121
311.85	13.770
312.22	13.472
312.58	13.897
312.95	13.576
313.31	13.550
313.68	14.469
314.05	14.544
314.41	14.390
314.78	14.169
315.14	13.430
315.51	14.589
315.87	15.392
316.24	14.612
316.61	14.565
316.97	13.756
317.34	14.638
317.70	14.934
318.07	14.815
318.43	15.646
318.80	15.719
319.16	14.678
319.53	13.882
319.89	14.461
320.26	15.125
320.62	15.337
320.99	15.605
321.35	14.418
321.72	16.651
322.08	15.059
322.45	14.905
322.81	15.343
323.18	14.159
323.54	14.483
323.91	14.947
324.27	15.749
324.64	15.533
325.00	15.755
325.37	15.725
325.73	17.438
326.10	17.356
326.46	16.857
326.83	17.134
327.19	17.559
327.56	16.601
327.92	16.758
328.29	15.806
328.65	15.913
329.01	17.513
329.38	16.428
329.74	17.551
330.11	17.979
330.47	17.439
330.84	17.140
331.20	18.083
331.56	17.071
331.93	17.406
332.29	16.864
332.66	17.525
333.02	17.337
333.38	18.205
333.75	17.761
334.11	16.931
334.48	17.162
334.84	18.352
335.20	17.128
335.57	17.032
335.93	18.926
336.29	16.556
336.66	17.494
337.02	17.809
337.38	18.282
337.75	16.116
338.11	17.410
338.47	16.625
338.84	17.005
339.20	17.607
339.56	18.863
339.93	16.667
340.29	18.599
340.65	18.248
341.02	17.478
341.38	18.674
341.74	18.805
342.11	18.101
342.47	17.156
342.83	17.472
343.20	17.416
343.56	17.963
343.92	16.573
344.28	17.578
344.65	18.527
345.01	18.331
345.37	17.963
345.73	16.602
346.10	17.785
346.46	17.405
346.82	17.603
347.19	17.341
347.55	17.754
347.91	17.088
348.27	17.223
348.63	17.136
349.00	16.555
349.36	17.993
349.72	17.857
350.08	18.053
350.45	16.958
350.81	16.440
351.17	17.744
351.53	17.286
351.89	19.134
352.26	17.239
352.62	17.388
352.98	16.489
353.34	17.401
353.70	17.257
354.07	17.735
354.43	16.856
354.79	17.128
355.15	17.366
355.51	19.664
355.87	15.632
356.24	17.262
356.60	16.260
356.96	18.013
357.32	16.877
357.68	17.350
358.04	16.467
358.40	17.687
358.77	17.471
359.13	16.396
359.49	16.803
359.85	17.766
360.21	17.862
360.57	17.373
360.93	17.066
361.29	17.965
361.66	17.161
362.02	17.954
362.38	17.498
362.74	18.506
363.10	17.882
363.46	17.798
363.82	17.401
364.18	17.523
364.54	18.188
364.90	18.462
365.26	17.103
365.62	18.133
365.98	18.176
366.35	17.651
366.71	18.367
367.07	17.118
367.43	17.663
367.79	18.049
368.15	17.726
368.51	18.133
368.87	17.178
369.23	17.800
369.59	18.306
369.95	17.309
370.31	18.433
370.67	17.882
371.03	18.075
371.39	16.924
371.75	17.813
372.11	17.141
372.47	18.416
372.83	18.194
373.19	18.946
373.55	18.157
373.91	17.178
374.27	17.464
374.63	18.674
374.99	17.440
375.35	18.831
375.71	18.516
376.07	18.399
376.42	18.829
376.78	17.961
377.14	18.902
377.50	17.900
377.86	19.212
378.22	18.323
378.58	18.728
378.94	19.484
379.30	18.688
379.66	19.400
380.02	18.638
380.38	19.297
380.74	19.380
381.09	18.641
381.45	18.864
381.81	19.672
382.17	18.705
382.53	19.708
382.89	18.905
383.25	19.226
383.61	18.519
383.97	19.199
384.32	19.976
384.68	18.910
385.04	20.821
385.40	20.094
385.76	19.637
386.12	19.808
386.48	19.176
386.83	20.560
387.19	19.409
387.55	19.660
387.91	19.920
388.27	19.804
388.62	20.103
388.98	20.925
389.34	20.684
389.70	19.698
390.06	19.597
390.42	19.880
390.77	19.988
391.13	19.249
391.49	19.988
391.85	20.848
392.20	19.929
392.56	20.555
392.92	20.502
393.28	20.785
393.64	20.391
393.99	21.732
394.35	21.554
394.71	21.437
395.07	20.299
395.42	20.274
395.78	21.085
396.14	21.450
396.50	20.606
396.85	21.705
397.21	20.118
397.57	21.673
397.92	20.848
398.28	20.152
398.64	20.938
399.00	19.791
399.35	20.942
399.71	20.652
400.07	21.392
400.42	20.838
400.78	20.428
401.14	21.229
401.49	22.399
401.85	21.395
402.21	21.263
402.57	21.596
402.92	20.981
403.28	20.902
403.63	20.823
403.99	20.903
404.35	20.978
404.70	21.303
405.06	20.870
405.42	21.019
405.77	21.756
406.13	21.016
406.49	20.833
406.84	21.607
407.20	21.576
407.55	20.594
407.91	21.370
408.27	21.143
408.62	21.350
408.98	21.880
409.34	21.290
409.69	21.323
410.05	21.512
410.40	22.216
410.76	21.425
411.11	21.683
411.47	22.912
411.83	21.634
412.18	22.048
412.54	22.110
412.89	20.722
413.25	21.614
413.60	20.793
413.96	21.620
414.31	20.907
414.67	21.705
415.03	21.969
415.38	21.942
415.74	21.930
416.09	22.517
416.45	21.979
416.80	20.747
417.16	20.754
417.51	21.171
417.87	21.459
418.22	22.395
418.58	21.623
418.93	21.711
419.29	21.702
419.64	22.089
420.00	20.653
420.35	21.112
420.71	21.080
421.06	21.737
421.42	22.305
421.77	20.840
422.12	21.723
422.48	22.069
422.83	22.946
423.19	21.061
423.54	21.460
423.90	22.087
424.25	22.293
424.61	21.584
424.96	22.076
425.31	22.134
425.67	20.773
426.02	22.579
426.38	21.642
426.73	21.484
427.09	22.780
427.44	21.573
427.79	21.946
428.15	21.632
428.50	22.303
428.85	21.757
429.21	22.340
429.56	21.816
429.92	21.671
430.27	22.217
430.62	22.130
430.98	21.741
431.33	21.945
431.68	21.600
432.04	21.889
432.39	22.175
432.74	21.804
433.10	22.607
433.45	20.959
433.80	22.103
434.16	22.004
434.51	22.456
434.86	22.801
435.22	22.317
435.57	22.170
435.92	22.482
436.28	23.436
436.63	22.884
436.98	22.330
437.34	22.604
437.69	22.069
438.04	21.682
438.39	21.999
438.75	22.690
439.10	22.410
439.45	21.912
439.81	21.921
440.16	21.984
440.51	21.906
440.86	22.068
441.22	22.508
441.57	22.117
441.92	22.017
442.27	23.434
442.63	22.454
442.98	22.038
443.33	23.041
443.68	22.993
444.03	23.001
444.39	23.070
444.74	23.022
445.09	22.250
445.44	22.445
445.79	22.270
446.15	22.508
446.50	22.326
446.85	23.492
447.20	23.114
447.55	22.437
447.91	22.984
448.26	21.670
448.61	22.582
448.96	23.122
449.31	22.587
449.66	22.059
450.02	22.257
450.37	23.015
450.72	22.174
451.07	23.121
451.42	22.646
451.77	22.735
452.12	22.573
452.47	22.163
452.83	22.691
453.18	22.067
453.53	22.229
453.88	22.695
454.23	22.034
454.58	22.171
454.93	22.148
455.28	21.433
455.63	22.740
455.98	22.961
456.34	22.733
456.69	22.340
457.04	22.695
457.39	22.506
457.74	22.595
458.09	22.735
458.44	22.953
458.79	22.950
459.14	21.814
459.49	22.524
459.84	22.193
460.19	21.655
460.54	22.487
460.89	22.181
461.24	21.264
461.59	23.022
461.94	22.133
462.29	22.508
462.64	22.571
462.99	22.850
463.34	23.556
463.69	22.743
464.04	22.846
464.39	23.094
464.74	21.836
465.09	22.722
465.44	22.961
465.79	22.316
466.14	21.261
466.49	22.368
466.84	21.928
467.19	22.370
467.54	22.033
467.89	21.839
468.24	22.936
468.59	21.135
468.94	21.562
469.29	22.436
469.64	21.424
469.99	21.415
470.34	22.772
470.68	22.488
471.03	23.183
471.38	22.760
471.73	21.977
472.08	21.637
472.43	21.674
472.78	22.796
473.13	22.440
473.48	22.900
473.83	22.983
474.17	22.098
474.52	22.850
474.87	22.425
475.22	22.817
475.57	22.274
475.92	22.748
476.27	22.630
476.61	21.495
476.96	21.846
477.31	22.327
477.66	23.137
478.01	21.607
478.36	22.034
478.70	22.759
479.05	22.546
479.40	22.853
479.75	22.815
480.10	22.406
480.45	23.017
480.79	22.585
481.14	21.967
481.49	21.717
481.84	22.628
482.19	23.226
482.53	23.437
482.88	22.419
483.23	22.588
483.58	22.445
483.92	21.941
484.27	22.523
484.62	21.906
484.97	22.784
485.31	21.929
485.66	21.091
486.01	21.884
486.36	22.639
486.70	23.715
487.05	24.049
487.40	23.404
487.75	22.850
488.09	22.880
488.44	21.702
488.79	22.260
489.13	21.977
489.48	21.398
489.83	21.891
490.17	21.264
490.52	21.716
490.87	22.124
491.22	22.227
491.56	22.227
491.91	21.893
492.26	21.895
492.60	21.950
492.95	21.939
493.30	22.367
493.64	21.945
493.99	21.447
494.34	21.690
494.68	22.013
495.03	21.938
495.37	22.281
495.72	22.358
496.07	22.130
496.41	21.665
496.76	22.269
497.11	22.972
497.45	22.270
497.80	21.724
498.14	22.086
498.49	21.829
498.84	22.166
499.18	22.177
499.53	22.735
499.87	22.681
500.22	21.638
500.56	21.368
500.91	21.968
501.26	22.545
501.60	22.050
501.95	21.841
502.29	22.685
502.64	22.956
502.98	22.433
503.33	22.117
503.67	21.980
504.02	22.548
504.36	22.520
504.71	22.003
505.06	23.329
505.40	22.303
505.75	22.222
506.09	22.007
506.44	22.934
506.78	22.706
507.13	22.453
507.47	22.596
507.82	22.964
508.16	22.658
508.51	21.941
508.85	22.437
509.19	22.738
509.54	22.863
509.88	22.390
510.23	22.729
510.57	22.765
510.92	22.642
511.26	22.463
511.61	21.873
511.95	22.255
512.30	23.289
512.64	22.089
512.98	22.361
513.33	22.782
513.67	22.489
514.02	22.075
514.36	23.325
514.70	22.865
515.05	22.732
515.39	22.520
515.74	23.065
516.08	22.927
516.42	22.920
516.77	22.766
517.11	22.692
517.46	23.012
517.80	23.463
518.14	24.102
518.49	23.373
518.83	22.565
519.17	22.509
519.52	23.270
519.86	23.706
520.20	22.897
520.55	23.384
520.89	23.255
521.23	22.446
521.58	23.107
521.92	22.436
522.26	23.310
522.61	22.975
522.95	22.376
523.29	23.448
523.64	22.085
523.98	23.845
524.32	23.954
524.66	22.652
525.01	22.820
525.35	22.286
525.69	22.912
526.04	22.905
526.38	23.908
526.72	23.702
527.06	23.109
527.41	23.090
527.75	23.753
528.09	23.672
528.43	22.913
528.78	22.601
529.12	23.394
529.46	24.002
529.80	22.826
530.15	23.130
530.49	22.301
530.83	22.668
531.17	23.059
531.51	22.684
531.86	23.798
532.20	23.537
532.54	22.621
532.88	23.030
533.22	22.334
533.57	23.312
533.91	23.962
534.25	23.120
534.59	23.103
534.93	23.713
535.27	23.606
535.62	23.252
535.96	24.404
536.30	23.502
536.64	23.724
536.98	23.616
537.32	22.778
537.66	23.082
538.01	22.175
538.35	22.899
538.69	23.678
539.03	24.893
539.37	23.027
539.71	23.363
540.05	22.542
540.39	22.311
540.73	22.344
541.07	23.605
541.42	23.095
541.76	22.894
542.10	23.100
542.44	22.777
542.78	22.993
543.12	22.288
543.46	22.039
543.80	22.722
544.14	23.279
544.48	23.582
544.82	23.220
545.16	23.256
545.50	22.409
545.84	22.780
546.18	23.272
546.52	23.312
546.86	22.579
547.20	23.155
547.54	22.222
547.88	22.423
548.22	22.690
548.56	22.703
548.90	23.403
549.24	23.222
549.58	22.776
549.92	22.959
550.26	23.172
550.60	21.953
550.94	23.480
551.28	22.574
551.62	23.922
551.96	22.848
552.30	23.072
552.64	22.775
552.98	23.019
553.32	23.537
553.66	22.122
554.00	22.573
554.34	22.201
554.68	22.595
555.02	21.616
555.36	23.866
555.69	22.550
556.03	21.816
556.37	23.279
556.71	23.018
557.05	22.492
557.39	21.898
557.73	22.985
558.07	21.788
558.41	22.791
558.75	23.327
559.08	22.269
559.42	22.840
559.76	23.066
560.10	22.438
560.44	22.098
560.78	22.625
561.12	22.414
561.45	23.175
561.79	23.382
562.13	22.551
562.47	22.072
562.81	21.899
563.15	21.970
563.48	21.877
563.82	22.128
564.16	21.866
564.50	22.288
564.84	22.124
565.17	22.765
565.51	21.634
565.85	21.971
566.19	21.889
566.52	22.469
566.86	22.807
567.20	22.458
567.54	23.420
567.88	22.579
568.21	23.073
568.55	23.165
568.89	23.604
569.23	23.152
569.56	23.134
569.90	23.093
570.24	23.069
570.57	23.252
570.91	22.658
571.25	24.241
571.59	23.629
571.92	22.788
572.26	23.160
572.60	23.232
572.93	23.295
573.27	22.506
573.61	23.240
573.95	22.773
574.28	22.868
574.62	23.124
574.96	22.298
575.29	22.516
575.63	23.354
575.97	23.377
576.30	22.675
576.64	22.906
576.98	23.075
577.31	22.996
577.65	23.421
577.98	23.249
578.32	23.148
578.66	22.955
578.99	23.469
579.33	23.299
579.67	23.073
580.00	22.612
580.34	22.928
580.67	22.705
581.01	22.739
581.35	22.852
581.68	22.839
582.02	23.062
582.35	23.298
582.69	23.777
583.02	23.958
583.36	23.537
583.70	23.222
584.03	22.702
584.37	22.957
584.70	22.445
585.04	22.204
585.37	23.067
585.71	22.675
586.04	23.272
586.38	22.957
586.72	22.637
587.05	22.410
587.39	22.962
587.72	23.134
588.06	22.703
588.39	22.952
588.73	22.566
589.06	22.686
589.40	23.079
589.73	23.393
590.07	22.314
590.40	23.191
590.73	22.623
591.07	23.455
591.40	22.395
591.74	22.496
592.07	23.427
592.41	22.121
592.74	22.719
593.08	22.866
593.41	23.039
593.75	22.902
594.08	23.054
594.41	23.269
594.75	21.986
595.08	23.082
595.42	22.760
595.75	23.087
596.09	22.975
596.42	22.680
596.75	22.192
597.09	23.273
597.42	22.527
597.75	21.991
598.09	22.540
598.42	22.477
598.76	22.507
599.09	21.823
599.42	21.388
599.76	22.318
600.09	22.856
600.42	22.489
600.76	22.655
601.09	22.735
601.42	21.970
601.76	22.379
602.09	22.016
602.42	22.137
602.76	21.845
603.09	22.063
603.42	22.182
603.76	21.882
604.09	23.101
604.42	22.789
604.76	22.451
605.09	22.457
605.42	22.089
605.75	22.000
606.09	21.911
606.42	22.109
606.75	21.927
607.09	21.889
607.42	21.696
607.75	22.313
608.08	21.981
608.42	22.168
608.75	22.305
609.08	21.986
609.41	22.188
609.75	21.071
610.08	22.603
610.41	22.345
610.74	21.597
611.07	22.291
611.41	21.704
611.74	21.801
612.07	22.627
612.40	21.578
612.73	21.858
613.07	22.738
613.40	22.089
613.73	21.762
614.06	22.424
614.39	21.963
614.72	21.931
615.06	21.174
615.39	21.411
615.72	21.943
616.05	22.827
616.38	21.847
616.71	21.944
617.05	21.246
617.38	21.562
617.71	21.652
618.04	21.641
618.37	22.295
618.70	21.324
619.03	21.685
619.36	21.147
619.69	22.165
620.03	21.846
620.36	21.350
620.69	21.592
621.02	21.194
621.35	21.626
621.68	22.126
622.01	21.423
622.34	21.688
622.67	21.443
623.00	20.445
623.33	22.031
623.66	22.049
623.99	21.396
624.32	22.027
624.65	20.528
624.99	21.196
625.32	22.534
625.65	21.578
625.98	21.492
626.31	21.687
626.64	21.612
626.97	20.705
627.30	19.590
627.63	20.255
627.96	21.997
628.29	21.167
628.62	20.739
628.95	20.508
629.28	20.646
629.61	20.623
629.94	20.921
630.26	21.186
630.59	19.344
630.92	19.827
631.25	21.020
631.58	19.868
631.91	22.962
