SpectraSuite Data File
++++++++++++++++++++++++++++++++++++
Date: Thu May 14 14:54:56 PDT 2015
User: schluterlab
Dark Spectrum Present: Yes
Reference Spectrum Present: Yes
Number of Sampled Component Spectra: 1
Spectrometers: USB2E3373
Integration Time (usec): 3000 (USB2E3373)
Spectra Averaged: 3 (USB2E3373)
Boxcar Smoothing: 0 (USB2E3373)
Correct for Electrical Dark: No (USB2E3373)
Strobe/Lamp Enabled: No (USB2E3373)
Correct for Detector Non-linearity: No (USB2E3373)
Correct for Stray Light: No (USB2E3373)
Number of Pixels in Processed Spectrum: 2048
>>>>>Begin Processed Spectral Data<<<<<
178.53	0.000
178.91	157.143
179.29	-2800.000
179.67	-1500.000
180.04	178.571
180.42	160.000
180.80	360.000
181.18	-2300.000
181.56	-1200.000
181.94	425.000
182.31	-100.000
182.69	700.000
183.07	150.000
183.45	475.000
183.83	-216.667
184.20	-300.000
184.58	1100.000
184.96	-500.000
185.34	-111.111
185.72	-60.000
186.09	211.111
186.47	1000.000
186.85	400.000
187.23	-222.222
187.61	-2200.000
187.98	120.000
188.36	375.000
188.74	-400.000
189.12	-166.667
189.49	6.250
189.87	-237.500
190.25	-155.556
190.63	-320.000
191.00	-122.222
191.38	0.000
191.76	-575.000
192.14	-150.000
192.51	650.000
192.89	-150.000
193.27	0.000
193.65	-214.286
194.02	-2600.000
194.40	-271.429
194.78	228.571
195.15	0.000
195.53	-36.364
195.91	0.000
196.29	-375.000
196.66	-100.000
197.04	-2400.000
197.42	-214.286
197.79	-1350.000
198.17	-250.000
198.55	-228.571
198.92	-144.444
199.30	-225.000
199.68	-72.727
200.05	-78.571
200.43	-1250.000
200.81	314.286
201.18	0.000
201.56	233.333
201.94	0.000
202.31	700.000
202.69	-200.000
203.07	1300.000
203.44	-133.333
203.82	-200.000
204.19	-125.000
204.57	-183.333
204.95	-212.500
205.32	-2000.000
205.70	425.000
206.08	-200.000
206.45	-266.667
206.83	480.000
207.20	-216.667
207.58	-440.000
207.96	-316.667
208.33	-216.667
208.71	250.000
209.08	-233.333
209.46	0.000
209.84	383.333
210.21	900.000
210.59	300.000
210.96	700.000
211.34	-100.000
211.71	-237.500
212.09	-1700.000
212.46	0.000
212.84	1350.000
213.22	-460.000
213.59	-500.000
213.97	-180.000
214.34	-400.000
214.72	250.000
215.09	-375.000
215.47	0.000
215.84	185.714
216.22	850.000
216.59	-260.000
216.97	-460.000
217.34	-300.000
217.72	-175.000
218.09	-325.000
218.47	-475.000
218.84	0.000
219.22	300.000
219.59	-58.824
219.97	-45.000
220.34	1250.000
220.72	-222.222
221.09	-69.231
221.47	-600.000
221.84	-190.000
222.22	-257.143
222.59	0.000
222.97	-37.500
223.34	-480.000
223.72	-1800.000
224.09	-475.000
224.46	-450.000
224.84	-240.000
225.21	-271.429
225.59	-475.000
225.96	-200.000
226.34	-11.538
226.71	283.333
227.08	-700.000
227.46	-86.667
227.83	-325.000
228.21	-52.632
228.58	237.500
228.95	1350.000
229.33	-116.667
229.70	-60.000
230.08	-31.579
230.45	180.000
230.82	-433.333
231.20	-150.000
231.57	-91.667
231.95	-209.091
232.32	-181.818
232.69	-65.000
233.07	-400.000
233.44	-70.588
233.81	-110.000
234.19	-33.333
234.56	-72.727
234.93	-17.241
235.31	-31.579
235.68	-122.222
236.05	-115.000
236.43	0.000
236.80	12.000
237.17	-29.630
237.55	-30.303
237.92	-270.000
238.29	-22.581
238.67	-25.000
239.04	-33.333
239.41	-38.095
239.79	-26.087
240.16	-16.667
240.53	-41.304
240.91	-27.451
241.28	-24.590
241.65	-13.433
242.02	-6.757
242.40	-32.308
242.77	-25.333
243.14	-21.951
243.51	-34.211
243.89	-28.205
244.26	-4.950
244.63	-1.961
245.00	-3.738
245.38	-8.772
245.75	-16.814
246.12	-4.762
246.49	-12.403
246.87	-4.286
247.24	-6.623
247.61	-7.237
247.98	-6.711
248.36	-9.259
248.73	-9.816
249.10	-3.279
249.47	2.488
249.84	-1.047
250.22	-6.218
250.59	-7.778
250.96	0.909
251.33	-7.653
251.70	2.137
252.08	-0.417
252.45	-2.459
252.82	-4.132
253.19	-4.687
253.56	-3.422
253.94	-6.923
254.31	-1.515
254.68	-2.797
255.05	-1.629
255.42	-2.381
255.79	-5.502
256.16	-3.642
256.54	-5.629
256.91	-0.984
257.28	-1.311
257.65	-5.096
258.02	-5.310
258.39	-3.989
258.76	0.306
259.14	0.000
259.51	-3.170
259.88	-2.833
260.25	-0.556
260.62	-1.644
260.99	0.000
261.36	-0.268
261.73	-2.387
262.10	-4.396
262.47	-3.485
262.85	0.758
263.22	-2.597
263.59	-6.053
263.96	-2.813
264.33	-3.581
264.70	-2.469
265.07	-0.477
265.44	0.227
265.81	-3.009
266.18	-0.454
266.55	-1.116
266.92	-1.822
267.29	-0.438
267.66	-1.774
268.03	-0.655
268.40	-0.209
268.77	-3.417
269.14	-3.965
269.51	0.219
269.88	2.049
270.25	0.805
270.62	-0.422
270.99	1.010
271.36	1.584
271.73	-0.196
272.10	0.601
272.47	-1.002
272.84	0.000
273.21	-0.802
273.58	0.000
273.95	-3.077
274.32	-1.901
274.69	-1.354
275.06	0.549
275.43	-1.109
275.80	0.705
276.17	-1.111
276.54	-0.933
276.91	-0.537
277.28	-1.085
277.65	0.000
278.02	-0.735
278.39	-2.536
278.76	-2.285
279.13	-1.418
279.50	1.375
279.87	0.716
280.23	-3.521
280.60	-0.169
280.97	-1.480
281.34	-1.358
281.71	0.677
282.08	0.166
282.45	-1.146
282.82	-1.256
283.19	-2.100
283.56	0.492
283.92	1.502
284.29	-0.158
284.66	0.985
285.03	-2.244
285.40	0.773
285.77	-0.464
286.14	-0.153
286.51	-1.218
286.87	0.000
287.24	-0.151
287.61	-1.345
287.98	-1.813
288.35	-0.296
288.72	-0.888
289.08	1.318
289.45	-0.740
289.82	-1.205
290.19	-0.862
290.56	0.000
290.93	-0.285
291.29	0.964
291.66	-0.138
292.03	-0.136
292.40	0.680
292.77	-0.539
293.13	0.271
293.50	-0.920
293.87	0.805
294.24	0.267
294.60	0.126
294.97	-1.074
295.34	0.768
295.71	0.000
296.08	0.000
296.44	0.490
296.81	0.000
297.18	0.623
297.55	0.943
297.91	0.474
298.28	-1.540
298.65	-0.951
299.02	-0.945
299.38	-0.801
299.75	-0.584
300.12	-0.579
300.48	-0.346
300.85	0.787
301.22	0.671
301.59	0.114
301.95	-0.678
302.32	0.778
302.69	-0.329
303.05	0.979
303.42	0.222
303.79	-0.312
304.15	0.210
304.52	-0.634
304.89	0.314
305.25	0.725
305.62	0.418
305.99	0.928
306.35	0.000
306.72	0.414
307.09	-0.406
307.45	0.518
307.82	1.211
308.19	0.605
308.55	1.061
308.92	0.974
309.29	0.958
309.65	-0.292
310.02	0.198
310.38	-0.098
310.75	0.777
311.12	1.438
311.48	-0.391
311.85	0.475
312.22	1.328
312.58	1.127
312.95	0.382
313.31	1.174
313.68	0.916
314.05	1.987
314.41	1.913
314.78	0.817
315.14	1.724
315.51	2.216
315.87	1.530
316.24	3.105
316.61	2.131
316.97	1.086
317.34	1.235
317.70	2.620
318.07	1.499
318.43	2.721
318.80	3.177
319.16	3.777
319.53	1.371
319.89	2.629
320.26	1.335
320.62	2.128
320.99	3.047
321.35	2.033
321.72	3.907
322.08	2.976
322.45	2.981
322.81	3.069
323.18	2.566
323.54	3.276
323.91	3.826
324.27	3.356
324.64	4.450
325.00	3.483
325.37	4.505
325.73	3.388
326.10	4.947
326.46	4.642
326.83	5.524
327.19	4.724
327.56	4.743
327.92	3.934
328.29	4.758
328.65	5.444
329.01	4.569
329.38	4.802
329.74	5.651
330.11	5.651
330.47	6.066
330.84	5.685
331.20	6.667
331.56	5.979
331.93	5.188
332.29	7.119
332.66	6.312
333.02	6.114
333.38	5.872
333.75	4.966
334.11	6.505
334.48	6.353
334.84	6.202
335.20	5.709
335.57	6.745
335.93	6.033
336.29	5.657
336.66	5.467
337.02	5.769
337.38	6.548
337.75	5.372
338.11	6.224
338.47	6.534
338.84	6.345
339.20	7.498
339.56	5.848
339.93	6.158
340.29	6.763
340.65	6.245
341.02	7.901
341.38	6.791
341.74	5.569
342.11	6.919
342.47	5.878
342.83	6.763
343.20	6.296
343.56	5.694
343.92	5.604
344.28	6.328
344.65	6.667
345.01	6.708
345.37	6.843
345.73	5.846
346.10	7.332
346.46	6.013
346.82	6.517
347.19	7.181
347.55	7.967
347.91	5.795
348.27	6.449
348.63	7.159
349.00	6.339
349.36	6.468
349.72	6.473
350.08	6.389
350.45	6.008
350.81	6.410
351.17	6.391
351.53	6.293
351.89	6.986
352.26	6.866
352.62	6.940
352.98	5.725
353.34	6.049
353.70	6.934
354.07	7.675
354.43	6.074
354.79	6.881
355.15	6.328
355.51	7.456
355.87	6.133
356.24	6.996
356.60	7.095
356.96	6.449
357.32	6.617
357.68	6.589
358.04	5.913
358.40	7.090
358.77	7.237
359.13	6.278
359.49	6.394
359.85	6.526
360.21	7.174
360.57	7.179
360.93	6.629
361.29	7.158
361.66	6.083
362.02	7.376
362.38	6.817
362.74	6.564
363.10	7.634
363.46	6.925
363.82	7.244
364.18	7.037
364.54	7.054
364.90	7.157
365.26	6.345
365.62	7.533
365.98	6.875
366.35	7.651
366.71	6.803
367.07	7.781
367.43	7.485
367.79	7.498
368.15	8.161
368.51	6.631
368.87	8.165
369.23	8.467
369.59	7.855
369.95	7.370
370.31	8.440
370.67	7.428
371.03	8.241
371.39	7.119
371.75	8.597
372.11	7.724
372.47	7.583
372.83	8.377
373.19	8.072
373.55	8.062
373.91	7.089
374.27	8.085
374.63	7.916
374.99	7.361
375.35	8.636
375.71	8.839
376.07	8.263
376.42	9.887
376.78	8.452
377.14	8.235
377.50	8.855
377.86	9.113
378.22	8.922
378.58	8.323
378.94	8.451
379.30	8.319
379.66	8.583
380.02	8.367
380.38	8.756
380.74	9.070
381.09	8.304
381.45	9.261
381.81	9.543
382.17	9.264
382.53	9.532
382.89	9.142
383.25	9.320
383.61	8.854
383.97	9.305
384.32	8.672
384.68	9.339
385.04	9.601
385.40	10.253
385.76	10.610
386.12	8.917
386.48	10.176
386.83	9.833
387.19	9.676
387.55	9.272
387.91	9.760
388.27	10.162
388.62	9.851
388.98	9.757
389.34	9.841
389.70	10.459
390.06	10.243
390.42	9.759
390.77	11.138
391.13	10.505
391.49	10.386
391.85	9.636
392.20	10.024
392.56	10.514
392.92	10.742
393.28	10.171
393.64	10.223
393.99	11.098
394.35	10.864
394.71	11.138
395.07	9.521
395.42	10.680
395.78	11.213
396.14	10.576
396.50	10.808
396.85	10.435
397.21	10.473
397.57	10.542
397.92	11.741
398.28	9.886
398.64	10.297
399.00	10.628
399.35	10.314
399.71	10.761
400.07	10.893
400.42	10.012
400.78	10.185
401.14	10.302
401.49	10.915
401.85	10.233
402.21	10.776
402.57	10.857
402.92	10.993
403.28	10.070
403.63	9.785
403.99	10.333
404.35	11.200
404.70	10.822
405.06	10.543
405.42	11.124
405.77	10.796
406.13	10.859
406.49	10.811
406.84	11.191
407.20	11.124
407.55	10.115
407.91	10.497
408.27	11.013
408.62	10.995
408.98	10.969
409.34	9.971
409.69	10.260
410.05	10.727
410.40	10.615
410.76	10.768
411.11	10.053
411.47	10.872
411.83	10.641
412.18	10.663
412.54	10.729
412.89	11.292
413.25	11.512
413.60	11.028
413.96	11.072
414.31	11.048
414.67	10.674
415.03	10.585
415.38	10.025
415.74	10.202
416.09	11.536
416.45	10.958
416.80	10.832
417.16	10.728
417.51	11.083
417.87	11.404
418.22	10.898
418.58	11.029
418.93	11.176
419.29	11.159
419.64	10.264
420.00	10.504
420.35	11.735
420.71	10.396
421.06	10.811
421.42	10.780
421.77	10.824
422.12	11.152
422.48	10.753
422.83	11.227
423.19	10.610
423.54	11.726
423.90	10.768
424.25	11.147
424.61	10.161
424.96	11.697
425.31	11.412
425.67	10.896
426.02	10.902
426.38	11.309
426.73	11.496
427.09	12.226
427.44	10.923
427.79	10.614
428.15	10.731
428.50	11.124
428.85	10.735
429.21	11.968
429.56	11.599
429.92	10.762
430.27	11.084
430.62	11.383
430.98	10.821
431.33	11.095
431.68	11.207
432.04	11.630
432.39	11.141
432.74	11.301
433.10	12.169
433.45	10.981
433.80	11.964
434.16	11.725
434.51	11.665
434.86	11.455
435.22	11.583
435.57	11.439
435.92	11.241
436.28	11.377
436.63	11.305
436.98	11.379
437.34	11.387
437.69	11.117
438.04	11.370
438.39	10.569
438.75	10.515
439.10	12.209
439.45	11.627
439.81	11.243
440.16	11.689
440.51	11.817
440.86	11.117
441.22	11.308
441.57	11.059
441.92	11.542
442.27	11.717
442.63	11.724
442.98	11.419
443.33	11.888
443.68	11.992
444.03	12.418
444.39	11.743
444.74	11.945
445.09	11.455
445.44	11.064
445.79	12.117
446.15	11.716
446.50	11.835
446.85	12.062
447.20	12.089
447.55	12.552
447.91	11.518
448.26	11.681
448.61	11.265
448.96	12.017
449.31	11.188
449.66	11.057
450.02	12.289
450.37	12.467
450.72	11.410
451.07	11.959
451.42	11.092
451.77	11.506
452.12	11.682
452.47	10.814
452.83	11.881
453.18	11.325
453.53	11.200
453.88	12.424
454.23	12.090
454.58	11.898
454.93	12.379
455.28	11.318
455.63	11.484
455.98	12.011
456.34	11.543
456.69	11.640
457.04	11.466
457.39	11.031
457.74	12.192
458.09	11.422
458.44	12.231
458.79	11.759
459.14	12.113
459.49	11.488
459.84	11.805
460.19	11.105
460.54	12.209
460.89	11.858
461.24	11.667
461.59	12.562
461.94	11.409
462.29	11.926
462.64	11.346
462.99	11.551
463.34	12.395
463.69	12.368
464.04	12.507
464.39	11.659
464.74	12.429
465.09	12.168
465.44	11.588
465.79	12.374
466.14	11.933
466.49	12.263
466.84	12.066
467.19	12.370
467.54	10.987
467.89	11.609
468.24	11.690
468.59	10.944
468.94	10.664
469.29	11.398
469.64	11.888
469.99	11.663
470.34	11.819
470.68	11.620
471.03	11.460
471.38	11.772
471.73	10.988
472.08	10.533
472.43	11.379
472.78	12.217
473.13	11.504
473.48	11.480
473.83	12.246
474.17	11.899
474.52	11.425
474.87	12.846
475.22	12.113
475.57	11.838
475.92	12.245
476.27	12.034
476.61	11.734
476.96	11.783
477.31	12.921
477.66	13.012
478.01	12.252
478.36	12.114
478.70	12.020
479.05	12.372
479.40	11.797
479.75	11.479
480.10	12.174
480.45	12.215
480.79	13.379
481.14	11.719
481.49	12.085
481.84	12.315
482.19	12.086
482.53	12.068
482.88	12.406
483.23	11.605
483.58	11.048
483.92	11.835
484.27	12.066
484.62	12.211
484.97	12.325
485.31	11.510
485.66	11.153
486.01	11.320
486.36	11.893
486.70	12.556
487.05	13.134
487.40	13.025
487.75	13.104
488.09	12.849
488.44	12.423
488.79	11.939
489.13	11.658
489.48	11.456
489.83	12.274
490.17	11.867
490.52	11.248
490.87	12.014
491.22	11.872
491.56	12.799
491.91	12.080
492.26	11.900
492.60	12.243
492.95	11.628
493.30	11.744
493.64	11.783
493.99	11.491
494.34	11.324
494.68	11.178
495.03	12.070
495.37	12.250
495.72	11.519
496.07	11.788
496.41	12.098
496.76	11.885
497.11	11.507
497.45	11.912
497.80	12.661
498.14	12.336
498.49	11.949
498.84	11.563
499.18	12.011
499.53	11.839
499.87	12.088
500.22	11.799
500.56	11.651
500.91	11.945
501.26	11.909
501.60	11.578
501.95	12.158
502.29	11.452
502.64	12.112
502.98	12.338
503.33	11.965
503.67	11.775
504.02	12.128
504.36	12.735
504.71	11.989
505.06	12.005
505.40	12.294
505.75	12.386
506.09	11.924
506.44	12.071
506.78	12.523
507.13	12.863
507.47	11.937
507.82	12.311
508.16	12.285
508.51	11.064
508.85	11.904
509.19	12.601
509.54	12.536
509.88	11.656
510.23	12.190
510.57	12.470
510.92	12.482
511.26	12.073
511.61	11.830
511.95	12.152
512.30	13.245
512.64	11.594
512.98	12.556
513.33	11.946
513.67	12.341
514.02	12.213
514.36	12.788
514.70	12.604
515.05	11.992
515.39	12.441
515.74	13.043
516.08	12.309
516.42	13.082
516.77	12.408
517.11	12.223
517.46	13.043
517.80	12.293
518.14	12.078
518.49	13.395
518.83	12.879
519.17	12.332
519.52	12.421
519.86	13.147
520.20	12.247
520.55	13.746
520.89	12.444
521.23	12.395
521.58	13.107
521.92	12.975
522.26	11.970
522.61	12.847
522.95	12.803
523.29	12.816
523.64	12.332
523.98	12.379
524.32	13.754
524.66	12.180
525.01	13.080
525.35	12.292
525.69	13.341
526.04	12.227
526.38	13.103
526.72	13.264
527.06	12.845
527.41	12.828
527.75	12.945
528.09	12.633
528.43	13.262
528.78	12.601
529.12	13.131
529.46	12.816
529.80	13.043
530.15	12.580
530.49	12.574
530.83	12.692
531.17	12.246
531.51	12.395
531.86	12.740
532.20	13.110
532.54	12.687
532.88	13.333
533.22	13.553
533.57	13.156
533.91	12.851
534.25	12.663
534.59	12.874
534.93	12.281
535.27	13.127
535.62	12.735
535.96	12.609
536.30	12.221
536.64	13.093
536.98	13.776
537.32	13.827
537.66	13.350
538.01	12.024
538.35	12.607
538.69	12.440
539.03	12.753
539.37	13.486
539.71	12.492
540.05	12.470
540.39	12.286
540.73	12.872
541.07	12.446
541.42	12.345
541.76	12.515
542.10	11.821
542.44	12.119
542.78	13.078
543.12	12.336
543.46	12.271
543.80	12.410
544.14	12.448
544.48	12.352
544.82	12.807
545.16	13.059
545.50	12.942
545.84	13.350
546.18	14.506
546.52	12.229
546.86	13.270
547.20	12.850
547.54	12.172
547.88	12.899
548.22	12.573
548.56	12.346
548.90	12.716
549.24	12.948
549.58	12.618
549.92	12.436
550.26	13.398
550.60	12.955
550.94	13.454
551.28	12.541
551.62	13.410
551.96	12.104
552.30	13.384
552.64	12.197
552.98	13.537
553.32	12.990
553.66	12.476
554.00	13.745
554.34	13.320
554.68	12.331
555.02	12.615
555.36	13.346
555.69	12.876
556.03	13.052
556.37	12.641
556.71	13.190
557.05	12.843
557.39	12.210
557.73	12.748
558.07	13.179
558.41	12.757
558.75	12.441
559.08	12.874
559.42	13.237
559.76	13.229
560.10	13.597
560.44	12.401
560.78	13.188
561.12	11.392
561.45	13.686
561.79	13.980
562.13	13.185
562.47	12.639
562.81	12.468
563.15	12.689
563.48	12.927
563.82	12.455
564.16	12.659
564.50	12.694
564.84	12.861
565.17	12.941
565.51	12.888
565.85	12.648
566.19	13.134
566.52	12.756
566.86	13.186
567.20	12.452
567.54	12.746
567.88	12.538
568.21	13.241
568.55	12.662
568.89	12.120
569.23	12.717
569.56	12.896
569.90	12.580
570.24	12.749
570.57	12.733
570.91	12.615
571.25	13.335
571.59	12.942
571.92	13.246
572.26	12.837
572.60	12.831
572.93	12.803
573.27	12.869
573.61	12.970
573.95	12.867
574.28	12.871
574.62	12.847
574.96	13.035
575.29	13.329
575.63	12.867
575.97	13.030
576.30	13.101
576.64	12.670
576.98	12.346
577.31	12.703
577.65	13.104
577.98	12.764
578.32	12.852
578.66	12.872
578.99	13.189
579.33	13.184
579.67	13.033
580.00	12.992
580.34	13.067
580.67	13.041
581.01	12.678
581.35	12.566
581.68	12.972
582.02	12.948
582.35	13.285
582.69	13.394
583.02	13.175
583.36	13.268
583.70	13.156
584.03	13.079
584.37	13.182
584.70	13.056
585.04	12.602
585.37	12.881
585.71	12.967
586.04	12.770
586.38	13.045
586.72	12.760
587.05	12.689
587.39	12.665
587.72	12.895
588.06	12.959
588.39	13.294
588.73	13.148
589.06	12.867
589.40	13.399
589.73	13.303
590.07	12.997
590.40	13.658
590.73	12.478
591.07	13.626
591.40	12.325
591.74	12.639
592.07	13.155
592.41	12.815
592.74	13.241
593.08	13.089
593.41	12.803
593.75	13.333
594.08	13.329
594.41	13.750
594.75	12.953
595.08	13.493
595.42	12.890
595.75	13.109
596.09	13.656
596.42	12.791
596.75	13.393
597.09	13.414
597.42	12.833
597.75	12.936
598.09	13.492
598.42	14.113
598.76	12.763
599.09	12.958
599.42	12.873
599.76	12.677
600.09	13.547
600.42	13.080
600.76	13.111
601.09	13.143
601.42	12.839
601.76	13.483
602.09	12.759
602.42	12.904
602.76	13.321
603.09	12.775
603.42	12.934
603.76	13.037
604.09	13.662
604.42	13.505
604.76	12.861
605.09	13.562
605.42	13.078
605.75	12.923
606.09	13.326
606.42	12.951
606.75	12.519
607.09	13.134
607.42	13.102
607.75	13.365
608.08	13.260
608.42	12.817
608.75	14.055
609.08	12.776
609.41	13.366
609.75	12.723
610.08	14.204
610.41	12.702
610.74	12.773
611.07	12.922
611.41	13.722
611.74	13.256
612.07	12.623
612.40	13.023
612.73	13.105
613.07	13.105
613.40	13.041
613.73	13.192
614.06	12.758
614.39	12.828
614.72	13.100
615.06	13.041
615.39	12.905
615.72	13.886
616.05	13.890
616.38	13.875
616.71	12.957
617.05	12.141
617.38	13.109
617.71	13.067
618.04	13.546
618.37	13.388
618.70	13.971
619.03	12.843
619.36	13.255
619.69	13.261
620.03	13.183
620.36	13.067
620.69	12.400
621.02	13.320
621.35	13.425
621.68	13.666
622.01	13.523
622.34	12.622
622.67	12.852
623.00	11.538
623.33	13.670
623.66	13.619
623.99	13.101
624.32	14.100
624.65	12.741
624.99	12.809
625.32	13.194
625.65	13.823
625.98	13.153
626.31	13.324
626.64	12.308
626.97	12.303
627.30	11.845
627.63	13.278
627.96	12.613
628.29	13.696
628.62	12.175
628.95	11.481
629.28	12.914
629.61	12.795
629.94	11.883
630.26	12.119
630.59	12.953
630.92	12.900
631.25	13.685
631.58	12.900
631.91	13.308
632.24	13.064
632.57	13.093
632.90	11.434
633.23	11.735
633.56	12.755
633.89	12.293
634.22	12.474
634.55	12.317
634.88	13.745
635.20	13.563
635.53	13.220
635.86	13.109
636.19	12.937
636.52	12.658
636.85	11.542
637.18	13.721
