SpectraSuite Data File
++++++++++++++++++++++++++++++++++++
Date: Thu May 14 14:36:05 PDT 2015
User: schluterlab
Dark Spectrum Present: Yes
Reference Spectrum Present: Yes
Number of Sampled Component Spectra: 1
Spectrometers: USB2E3373
Integration Time (usec): 3000 (USB2E3373)
Spectra Averaged: 3 (USB2E3373)
Boxcar Smoothing: 0 (USB2E3373)
Correct for Electrical Dark: No (USB2E3373)
Strobe/Lamp Enabled: No (USB2E3373)
Correct for Detector Non-linearity: No (USB2E3373)
Correct for Stray Light: No (USB2E3373)
Number of Pixels in Processed Spectrum: 2048
>>>>>Begin Processed Spectral Data<<<<<
178.53	0.000
178.91	-342.857
179.29	1000.000
179.67	1600.000
180.04	-42.857
180.42	-110.000
180.80	-260.000
181.18	1100.000
181.56	3200.000
181.94	-375.000
182.31	400.000
182.69	-633.333
183.07	800.000
183.45	-50.000
183.83	333.333
184.20	466.667
184.58	-2100.000
184.96	350.000
185.34	200.000
185.72	460.000
186.09	-111.111
186.47	-700.000
186.85	-300.000
187.23	133.333
187.61	100.000
187.98	-380.000
188.36	-350.000
188.74	250.000
189.12	433.333
189.49	106.250
189.87	325.000
190.25	200.000
190.63	300.000
191.00	88.889
191.38	0.000
191.76	275.000
192.14	266.667
192.51	-450.000
192.89	516.667
193.27	0.000
193.65	257.143
194.02	500.000
194.40	271.429
194.78	-128.571
195.15	0.000
195.53	200.000
195.91	0.000
196.29	400.000
196.66	153.846
197.04	1500.000
197.42	142.857
197.79	850.000
198.17	262.500
198.55	171.429
198.92	222.222
199.30	125.000
199.68	209.091
200.05	200.000
200.43	600.000
200.81	-42.857
201.18	0.000
201.56	-155.556
201.94	0.000
202.31	-566.667
202.69	122.222
203.07	-2000.000
203.44	366.667
203.82	275.000
204.19	108.333
204.57	266.667
204.95	212.500
205.32	1300.000
205.70	-500.000
206.08	266.667
206.45	250.000
206.83	-160.000
207.20	350.000
207.58	280.000
207.96	216.667
208.33	350.000
208.71	-133.333
209.08	383.333
209.46	0.000
209.84	-100.000
210.21	-1050.000
210.59	-700.000
210.96	166.667
211.34	475.000
211.71	150.000
212.09	1800.000
212.46	0.000
212.84	-350.000
213.22	240.000
213.59	425.000
213.97	260.000
214.34	366.667
214.72	-150.000
215.09	300.000
215.47	0.000
215.84	-185.714
216.22	-400.000
216.59	380.000
216.97	260.000
217.34	375.000
217.72	312.500
218.09	575.000
218.47	325.000
218.84	0.000
219.22	-400.000
219.59	129.412
219.97	115.000
220.34	-100.000
220.72	133.333
221.09	184.615
221.47	766.667
221.84	190.000
222.22	300.000
222.59	0.000
222.97	250.000
223.34	180.000
223.72	1900.000
224.09	500.000
224.46	375.000
224.84	320.000
225.21	185.714
225.59	500.000
225.96	525.000
226.34	92.308
226.71	-183.333
227.08	850.000
227.46	133.333
227.83	500.000
228.21	84.211
228.58	-287.500
228.95	-250.000
229.33	250.000
229.70	190.000
230.08	142.105
230.45	-80.000
230.82	866.667
231.20	121.429
231.57	233.333
231.95	163.636
232.32	236.364
232.69	120.000
233.07	500.000
233.44	129.412
233.81	110.000
234.19	116.667
234.56	100.000
234.93	106.897
235.31	110.526
235.68	127.778
236.05	70.000
236.43	123.077
236.80	136.000
237.17	77.778
237.55	69.697
237.92	110.000
238.29	70.968
238.67	36.364
239.04	94.444
239.41	38.095
239.79	69.565
240.16	57.407
240.53	50.000
240.91	39.216
241.28	27.869
241.65	49.254
242.02	41.892
242.40	43.077
242.77	45.333
243.14	32.927
243.51	35.526
243.89	17.949
244.26	33.663
244.63	37.255
245.00	36.449
245.38	24.561
245.75	23.009
246.12	24.603
246.49	24.031
246.87	26.429
247.24	28.477
247.61	28.289
247.98	29.530
248.36	28.395
248.73	25.153
249.10	20.765
249.47	29.851
249.84	27.749
250.22	25.389
250.59	27.222
250.96	19.091
251.33	18.367
251.70	24.786
252.08	22.917
252.45	22.541
252.82	21.901
253.19	20.313
253.56	22.053
253.94	20.385
254.31	23.864
254.68	23.427
255.05	23.453
255.42	22.109
255.79	19.741
256.16	18.874
256.54	20.199
256.91	22.295
257.28	19.672
257.65	20.701
258.02	19.174
258.39	20.798
258.76	24.159
259.14	22.414
259.51	19.885
259.88	18.130
260.25	19.444
260.62	18.630
260.99	19.945
261.36	21.448
261.73	17.772
262.10	17.582
262.47	20.643
262.85	22.222
263.22	16.623
263.59	15.789
263.96	17.391
264.33	19.693
264.70	20.988
265.07	21.957
265.44	23.129
265.81	17.130
266.18	20.408
266.55	20.536
266.92	19.590
267.29	17.724
267.66	19.956
268.03	19.869
268.40	19.207
268.77	16.856
269.14	15.419
269.51	18.860
269.88	18.852
270.25	16.700
270.62	20.675
270.99	21.414
271.36	18.416
271.73	18.271
272.10	23.046
272.47	18.637
272.84	19.076
273.21	19.439
273.58	19.355
273.95	17.885
274.32	16.540
274.69	17.795
275.06	19.231
275.43	16.081
275.80	19.753
276.17	16.296
276.54	19.403
276.91	16.816
277.28	19.530
277.65	18.133
278.02	19.853
278.39	18.116
278.76	16.520
279.13	16.489
279.50	17.869
279.87	16.637
280.23	14.965
280.60	17.288
280.97	17.928
281.34	16.299
281.71	17.936
282.08	16.944
282.45	17.840
282.82	17.582
283.19	16.640
283.56	17.869
283.92	19.369
284.29	19.431
284.66	16.420
285.03	14.583
285.40	17.620
285.77	15.944
286.14	19.084
286.51	15.677
286.87	16.746
287.24	17.319
287.61	17.788
287.98	16.163
288.35	13.757
288.72	16.716
289.08	16.252
289.45	15.089
289.82	17.771
290.19	14.943
290.56	15.634
290.93	16.262
291.29	15.702
291.66	15.565
292.03	15.197
292.40	16.735
292.77	16.307
293.13	15.156
293.50	13.666
293.87	14.497
294.24	15.467
294.60	14.665
294.97	12.617
295.34	15.877
295.71	14.502
296.08	13.049
296.44	15.564
296.81	14.007
297.18	13.325
297.55	13.797
297.91	13.998
298.28	13.270
298.65	13.674
299.02	13.105
299.38	13.387
299.75	13.201
300.12	13.079
300.48	12.673
300.85	12.936
301.22	14.653
301.59	12.100
301.95	12.542
302.32	14.778
302.69	12.596
303.05	13.275
303.42	13.082
303.79	14.167
304.15	12.723
304.52	11.945
304.89	12.775
305.25	12.629
305.62	13.480
305.99	13.299
306.35	13.004
306.72	12.099
307.09	12.893
307.45	12.733
307.82	11.907
308.19	11.705
308.55	13.308
308.92	13.924
309.29	12.356
309.65	11.793
310.02	12.970
310.38	12.106
310.75	12.330
311.12	12.464
311.48	13.392
311.85	11.966
312.22	11.195
312.58	12.676
312.95	11.950
313.31	13.369
313.68	13.187
314.05	12.918
314.41	13.024
314.78	12.534
315.14	11.797
315.51	12.465
315.87	13.411
316.24	12.694
316.61	12.877
316.97	11.403
317.34	11.111
317.70	12.751
318.07	12.610
318.43	12.925
318.80	12.793
319.16	12.189
319.53	11.054
319.89	12.270
320.26	12.633
320.62	12.145
320.99	12.281
321.35	11.460
321.72	13.395
322.08	11.271
322.45	11.834
322.81	11.372
323.18	12.566
323.54	12.155
323.91	12.367
324.27	11.188
324.64	12.007
325.00	12.687
325.37	12.776
325.73	12.397
326.10	13.058
326.46	12.948
326.83	12.650
327.19	11.969
327.56	12.411
327.92	11.487
328.29	11.290
328.65	12.144
329.01	12.098
329.38	12.974
329.74	13.356
330.11	12.500
330.47	12.131
330.84	11.628
331.20	12.250
331.56	12.825
331.93	12.218
332.29	11.356
332.66	12.043
333.02	11.977
333.38	11.745
333.75	11.279
334.11	11.176
334.48	12.294
334.84	13.169
335.20	11.167
335.57	12.563
335.93	12.231
336.29	11.897
336.66	11.775
337.02	11.873
337.38	12.500
337.75	12.149
338.11	12.868
338.47	12.407
338.84	12.098
339.20	10.952
339.56	10.791
339.93	11.412
340.29	11.192
340.65	10.868
341.02	11.572
341.38	11.803
341.74	10.573
342.11	10.941
342.47	11.755
342.83	12.238
343.20	12.183
343.56	12.269
343.92	11.849
344.28	11.719
344.65	11.628
345.01	11.700
345.37	12.908
345.73	10.522
346.10	11.466
346.46	11.788
346.82	12.434
347.19	12.147
347.55	12.747
347.91	12.110
348.27	11.153
348.63	11.957
349.00	10.365
349.36	11.524
349.72	11.830
350.08	12.110
350.45	10.722
350.81	11.689
351.17	12.481
351.53	11.676
351.89	11.997
352.26	11.343
352.62	10.821
352.98	11.298
353.34	11.277
353.70	10.092
354.07	11.177
354.43	11.010
354.79	11.369
355.15	10.890
355.51	12.208
355.87	10.546
356.24	11.255
356.60	10.495
356.96	11.119
357.32	11.524
357.68	10.908
358.04	10.180
358.40	9.851
358.77	10.965
359.13	10.635
359.49	9.442
359.85	10.660
360.21	11.191
360.57	10.840
360.93	10.649
361.29	10.807
361.66	10.500
362.02	11.552
362.38	10.541
362.74	9.637
363.10	11.279
363.46	10.873
363.82	9.446
364.18	9.782
364.54	11.203
364.90	11.304
365.26	11.034
365.62	11.133
365.98	10.551
366.35	10.470
366.71	10.612
367.07	11.164
367.43	10.177
367.79	10.949
368.15	11.171
368.51	10.690
368.87	10.908
369.23	10.533
369.59	10.997
369.95	10.615
370.31	11.141
370.67	9.835
371.03	11.011
371.39	11.014
371.75	11.761
372.11	10.637
372.47	11.171
372.83	11.060
373.19	11.007
373.55	10.840
373.91	10.157
374.27	10.543
374.63	10.893
374.99	10.544
375.35	10.519
375.71	10.387
376.07	10.329
376.42	10.768
376.78	10.938
377.14	9.669
377.50	11.259
377.86	11.884
378.22	10.299
378.58	10.523
378.94	10.857
379.30	10.838
379.66	10.700
380.02	10.329
380.38	10.599
380.74	10.648
381.09	10.627
381.45	11.193
381.81	11.417
382.17	11.164
382.53	9.825
382.89	10.892
383.25	10.199
383.61	9.896
383.97	10.777
384.32	11.423
384.68	10.557
385.04	10.700
385.40	11.137
385.76	11.372
386.12	10.952
386.48	10.471
386.83	11.502
387.19	10.139
387.55	9.742
387.91	10.731
388.27	10.797
388.62	10.424
388.98	9.927
389.34	10.548
389.70	10.285
390.06	11.190
390.42	10.904
390.77	11.800
391.13	10.739
391.49	11.232
391.85	10.424
392.20	10.735
392.56	10.927
392.92	11.341
393.28	10.282
393.64	10.168
393.99	10.808
394.35	10.923
394.71	11.437
395.07	9.461
395.42	10.337
395.78	10.786
396.14	10.636
396.50	10.808
396.85	10.674
397.21	10.769
397.57	11.013
397.92	10.195
398.28	10.158
398.64	10.011
399.00	10.209
399.35	10.576
399.71	9.891
400.07	10.331
400.42	11.409
400.78	10.706
401.14	10.359
401.49	10.802
401.85	10.116
402.21	10.603
402.57	10.622
402.92	10.579
403.28	10.246
403.63	10.501
403.99	10.036
404.35	10.404
404.70	11.048
405.06	10.652
405.42	10.831
405.77	10.578
406.13	10.589
406.49	10.248
406.84	10.693
407.20	10.844
407.55	9.691
407.91	10.622
408.27	10.483
408.62	10.180
408.98	10.389
409.34	9.384
409.69	10.630
410.05	11.079
410.40	10.731
410.76	10.432
411.11	10.695
411.47	10.995
411.83	10.406
412.18	10.843
412.54	11.322
412.89	10.477
413.25	10.666
413.60	10.798
413.96	10.256
414.31	10.255
414.67	10.495
415.03	10.154
415.38	10.845
415.74	10.202
416.09	11.228
416.45	9.956
416.80	10.710
417.16	10.281
417.51	11.270
417.87	10.975
418.22	10.838
418.58	11.029
418.93	10.244
419.29	10.481
419.64	10.204
420.00	9.436
420.35	10.556
420.71	9.937
421.06	10.063
421.42	10.206
421.77	10.178
422.12	10.359
422.48	10.036
422.83	10.624
423.19	10.875
423.54	10.288
423.90	10.436
424.25	10.080
424.61	9.989
424.96	10.434
425.31	10.510
425.67	10.789
426.02	9.795
426.38	9.874
426.73	9.542
427.09	10.900
427.44	9.721
427.79	9.895
428.15	9.817
428.50	9.944
428.85	9.587
429.21	10.745
429.56	9.822
429.92	10.025
430.27	9.735
430.62	9.966
430.98	9.838
431.33	9.824
431.68	9.148
432.04	10.056
432.39	9.855
432.74	9.989
433.10	9.897
433.45	9.588
433.80	10.461
434.16	10.692
434.51	9.866
434.86	9.935
435.22	10.096
435.57	10.083
435.92	10.239
436.28	10.580
436.63	10.268
436.98	10.467
437.34	10.316
437.69	9.466
438.04	9.783
438.39	10.167
438.75	9.297
439.10	10.729
439.45	10.285
439.81	10.339
440.16	10.670
440.51	10.312
440.86	10.061
441.22	10.611
441.57	10.010
441.92	10.039
442.27	10.051
442.63	9.637
442.98	10.245
443.33	10.416
443.68	10.753
444.03	11.101
444.39	10.032
444.74	10.209
445.09	9.731
445.44	10.959
445.79	10.489
446.15	10.072
446.50	10.284
446.85	10.360
447.20	10.832
447.55	10.513
447.91	10.157
448.26	9.937
448.61	10.202
448.96	10.676
449.31	9.597
449.66	9.967
450.02	10.179
450.37	10.815
450.72	9.688
451.07	9.738
451.42	10.341
451.77	9.894
452.12	9.650
452.47	10.101
452.83	9.797
453.18	10.158
453.53	9.879
453.88	9.718
454.23	10.734
454.58	10.273
454.93	10.801
455.28	10.235
455.63	10.290
455.98	10.391
456.34	10.954
456.69	9.406
457.04	10.225
457.39	11.086
457.74	10.179
458.09	10.104
458.44	10.399
458.79	10.624
459.14	9.963
459.49	9.791
459.84	10.073
460.19	9.439
460.54	10.449
460.89	10.852
461.24	10.172
461.59	10.238
461.94	9.241
462.29	10.638
462.64	10.501
462.99	10.672
463.34	10.642
463.69	10.727
464.04	10.895
464.39	9.978
464.74	10.433
465.09	10.323
465.44	10.408
465.79	10.418
466.14	9.901
466.49	10.526
466.84	10.413
467.19	10.694
467.54	10.282
467.89	9.598
468.24	10.194
468.59	9.380
468.94	9.732
469.29	10.618
469.64	10.108
469.99	9.815
470.34	10.458
470.68	10.390
471.03	10.609
471.38	10.988
471.73	9.948
472.08	9.645
472.43	10.476
472.78	11.020
473.13	10.051
473.48	10.091
473.83	10.795
474.17	10.610
474.52	9.621
474.87	10.299
475.22	11.099
475.57	10.696
475.92	9.507
476.27	9.798
476.61	10.125
476.96	10.167
477.31	10.347
477.66	9.864
478.01	10.219
478.36	9.322
478.70	9.458
479.05	9.816
479.40	9.378
479.75	10.471
480.10	10.137
480.45	9.799
480.79	10.295
481.14	9.559
481.49	9.587
481.84	9.748
482.19	9.677
482.53	10.538
482.88	9.703
483.23	9.649
483.58	9.214
483.92	9.929
484.27	9.780
484.62	9.736
484.97	9.953
485.31	9.187
485.66	9.209
486.01	9.400
486.36	9.934
486.70	9.859
487.05	9.469
487.40	9.543
487.75	9.771
488.09	9.749
488.44	9.464
488.79	10.051
489.13	9.413
489.48	9.126
489.83	9.618
490.17	9.518
490.52	9.770
490.87	9.983
491.22	9.662
491.56	9.770
491.91	9.900
492.26	10.342
492.60	9.969
492.95	10.180
493.30	9.771
493.64	9.724
493.99	9.561
494.34	9.843
494.68	9.379
495.03	9.912
495.37	9.543
495.72	9.932
496.07	9.772
496.41	10.039
496.76	9.550
497.11	10.276
497.45	9.754
497.80	10.395
498.14	9.705
498.49	9.329
498.84	9.781
499.18	10.301
499.53	9.686
499.87	9.758
500.22	9.127
500.56	9.672
500.91	9.886
501.26	10.455
501.60	9.589
501.95	10.334
502.29	9.697
502.64	9.838
502.98	9.965
503.33	9.330
503.67	9.071
504.02	9.851
504.36	9.562
504.71	9.279
505.06	9.868
505.40	9.644
505.75	9.745
506.09	9.669
506.44	9.656
506.78	10.321
507.13	9.912
507.47	9.853
507.82	9.564
508.16	9.130
508.51	10.173
508.85	10.250
509.19	9.853
509.54	9.798
509.88	9.665
510.23	10.345
510.57	10.246
510.92	10.256
511.26	9.861
511.61	9.464
511.95	9.273
512.30	9.995
512.64	9.645
512.98	9.555
513.33	10.383
513.67	10.250
514.02	9.709
514.36	9.923
514.70	10.208
515.05	10.167
515.39	9.816
515.74	10.021
516.08	10.407
516.42	10.413
516.77	9.832
517.11	10.315
517.46	9.332
517.80	10.529
518.14	9.739
518.49	10.033
518.83	10.005
519.17	10.070
519.52	10.482
519.86	9.873
520.20	9.904
520.55	9.803
520.89	9.403
521.23	10.329
521.58	9.944
521.92	10.708
522.26	9.851
522.61	9.896
522.95	10.496
523.29	10.287
523.64	9.529
523.98	10.496
524.32	10.372
524.66	10.017
525.01	9.173
525.35	10.109
525.69	9.977
526.04	9.529
526.38	9.598
526.72	10.150
527.06	10.147
527.41	10.204
527.75	9.917
528.09	9.917
528.43	10.776
528.78	10.058
529.12	10.149
529.46	9.837
529.80	10.240
530.15	10.435
530.49	10.083
530.83	9.563
531.17	9.618
531.51	10.289
531.86	10.337
532.20	10.549
532.54	9.994
532.88	10.242
533.22	10.843
533.57	10.387
533.91	10.157
534.25	9.497
534.59	9.540
534.93	10.470
535.27	9.746
535.62	11.029
535.96	10.169
536.30	9.871
536.64	10.210
536.98	10.086
537.32	10.432
537.66	10.168
538.01	10.332
538.35	9.927
538.69	9.375
539.03	10.239
539.37	9.953
539.71	10.330
540.05	10.432
540.39	9.963
540.73	9.836
541.07	9.810
541.42	10.159
541.76	9.905
542.10	10.676
542.44	9.866
542.78	10.523
543.12	10.250
543.46	9.829
543.80	9.652
544.14	9.695
544.48	10.520
544.82	11.191
545.16	10.078
545.50	9.766
545.84	10.288
546.18	11.173
546.52	10.318
546.86	9.623
547.20	10.115
547.54	10.424
547.88	9.705
548.22	10.351
548.56	9.772
548.90	10.388
549.24	9.970
549.58	9.274
549.92	10.013
550.26	10.809
550.60	10.657
550.94	10.543
551.28	10.495
551.62	11.051
551.96	10.356
552.30	11.090
552.64	10.952
552.98	10.792
553.32	10.547
553.66	9.775
554.00	10.025
554.34	10.553
554.68	10.006
555.02	9.987
555.36	11.440
555.69	9.353
556.03	10.719
556.37	11.139
556.71	11.224
557.05	9.968
557.39	10.418
557.73	11.096
558.07	9.868
558.41	10.432
558.75	11.224
559.08	10.438
559.42	9.739
559.76	11.058
560.10	9.846
560.44	10.686
560.78	10.813
561.12	11.145
561.45	10.158
561.79	10.073
562.13	11.029
562.47	9.741
562.81	10.000
563.15	10.038
563.48	10.255
563.82	10.580
564.16	10.176
564.50	10.310
564.84	10.265
565.17	10.412
565.51	9.839
565.85	10.214
566.19	10.023
566.52	9.421
566.86	10.413
567.20	10.549
567.54	9.772
567.88	9.837
568.21	10.474
568.55	10.647
568.89	10.576
569.23	10.858
569.56	10.395
569.90	10.264
570.24	10.287
570.57	9.589
570.91	9.584
571.25	10.269
571.59	10.326
571.92	10.128
572.26	9.661
572.60	9.773
572.93	9.741
573.27	9.834
573.61	9.979
573.95	10.002
574.28	9.951
574.62	9.618
574.96	9.660
575.29	9.407
575.63	9.679
575.97	9.749
576.30	9.771
576.64	10.045
576.98	9.749
577.31	9.834
577.65	9.967
577.98	9.563
578.32	9.616
578.66	9.649
578.99	9.728
579.33	9.960
579.67	9.565
580.00	9.710
580.34	9.904
580.67	9.598
581.01	9.758
581.35	9.858
581.68	9.867
582.02	9.853
582.35	10.079
582.69	9.631
583.02	9.699
583.36	10.043
583.70	9.498
584.03	10.055
584.37	10.121
584.70	9.267
585.04	9.905
585.37	9.722
585.71	9.881
586.04	9.555
586.38	10.121
586.72	9.626
587.05	9.926
587.39	9.723
587.72	9.833
588.06	10.034
588.39	9.759
588.73	9.577
589.06	9.960
589.40	9.650
589.73	9.672
590.07	10.212
590.40	10.210
590.73	9.897
591.07	10.685
591.40	10.226
591.74	9.976
592.07	10.597
592.41	10.489
592.74	9.904
593.08	10.159
593.41	10.819
593.75	10.460
594.08	9.633
594.41	10.513
594.75	10.196
595.08	9.690
595.42	9.968
595.75	10.139
596.09	10.403
596.42	10.462
596.75	10.652
597.09	10.586
597.42	10.608
597.75	10.427
598.09	10.278
598.42	10.575
598.76	9.629
599.09	10.110
599.42	10.158
599.76	10.300
600.09	10.344
600.42	10.410
600.76	10.304
601.09	9.691
601.42	10.264
601.76	10.103
602.09	10.150
602.42	9.487
602.76	10.554
603.09	9.912
603.42	10.694
603.76	9.725
604.09	10.504
604.42	10.459
604.76	10.350
605.09	10.331
605.42	10.885
605.75	10.154
606.09	9.966
606.42	10.325
606.75	10.082
607.09	10.100
607.42	10.520
607.75	10.317
608.08	9.747
608.42	10.318
608.75	10.531
609.08	9.847
609.41	10.807
609.75	9.911
610.08	10.466
610.41	10.280
610.74	9.958
611.07	10.435
611.41	10.000
611.74	10.346
612.07	10.379
612.40	9.838
612.73	9.780
613.07	9.731
613.40	10.010
613.73	10.977
614.06	10.500
614.39	10.301
614.72	10.529
615.06	10.539
615.39	10.391
615.72	9.953
616.05	10.733
616.38	10.646
616.71	11.285
617.05	10.596
617.38	10.861
617.71	9.881
618.04	10.685
618.37	10.546
618.70	10.860
619.03	10.096
619.36	10.296
619.69	9.865
620.03	10.797
620.36	10.613
620.69	10.302
621.02	11.286
621.35	10.813
621.68	12.075
622.01	11.032
622.34	10.181
622.67	11.684
623.00	9.244
623.33	11.281
623.66	10.765
623.99	10.467
624.32	11.176
624.65	10.425
624.99	10.338
625.32	10.777
625.65	10.924
625.98	11.051
626.31	10.843
626.64	11.648
626.97	9.827
627.30	9.719
627.63	10.353
627.96	11.787
628.29	11.595
628.62	10.160
628.95	10.167
629.28	9.516
629.61	11.027
629.94	9.791
630.26	9.831
630.59	10.104
630.92	10.649
631.25	11.181
631.58	11.205
631.91	11.153
632.24	11.239
632.57	10.152
632.90	9.529
633.23	11.531
633.56	12.755
633.89	10.744
634.22	11.331
634.55	10.543
634.88	9.632
635.20	12.702
635.53	11.751
635.86	11.809
636.19	12.301
636.52	11.076
636.85	10.521
637.18	10.603
637.51	11.398
637.83	12.514
638.16	11.406
638.49	11.150
638.82	9.696
639.15	10.080
