SpectraSuite Data File
++++++++++++++++++++++++++++++++++++
Date: Thu May 14 14:29:36 PDT 2015
User: schluterlab
Dark Spectrum Present: Yes
Reference Spectrum Present: Yes
Number of Sampled Component Spectra: 1
Spectrometers: USB2E3373
Integration Time (usec): 3000 (USB2E3373)
Spectra Averaged: 3 (USB2E3373)
Boxcar Smoothing: 0 (USB2E3373)
Correct for Electrical Dark: No (USB2E3373)
Strobe/Lamp Enabled: No (USB2E3373)
Correct for Detector Non-linearity: No (USB2E3373)
Correct for Stray Light: No (USB2E3373)
Number of Pixels in Processed Spectrum: 2048
>>>>>Begin Processed Spectral Data<<<<<
178.53	0.000
178.91	-100.000
179.29	0.000
179.67	1100.000
180.04	-14.286
180.42	-160.000
180.80	-60.000
181.18	1200.000
181.56	3100.000
181.94	-350.000
182.31	350.000
182.69	-400.000
183.07	700.000
183.45	-300.000
183.83	150.000
184.20	500.000
184.58	-1900.000
184.96	275.000
185.34	222.222
185.72	340.000
186.09	-55.556
186.47	-250.000
186.85	-220.000
187.23	111.111
187.61	100.000
187.98	-240.000
188.36	-375.000
188.74	225.000
189.12	700.000
189.49	62.500
189.87	150.000
190.25	155.556
190.63	320.000
191.00	100.000
191.38	0.000
191.76	175.000
192.14	216.667
192.51	-200.000
192.89	216.667
193.27	0.000
193.65	185.714
194.02	400.000
194.40	100.000
194.78	-57.143
195.15	0.000
195.53	127.273
195.91	0.000
196.29	475.000
196.66	-15.385
197.04	-400.000
197.42	200.000
197.79	0.000
198.17	200.000
198.55	57.143
198.92	166.667
199.30	75.000
199.68	163.636
200.05	121.429
200.43	-150.000
200.81	-28.571
201.18	0.000
201.56	-66.667
201.94	0.000
202.31	-633.333
202.69	11.111
203.07	-1200.000
203.44	122.222
203.82	425.000
204.19	83.333
204.57	200.000
204.95	125.000
205.32	1000.000
205.70	-325.000
206.08	216.667
206.45	200.000
206.83	-160.000
207.20	266.667
207.58	60.000
207.96	50.000
208.33	283.333
208.71	-41.667
209.08	300.000
209.46	0.000
209.84	-16.667
210.21	-1150.000
210.59	-400.000
210.96	-166.667
211.34	500.000
211.71	225.000
212.09	1400.000
212.46	0.000
212.84	100.000
213.22	-20.000
213.59	475.000
213.97	200.000
214.34	433.333
214.72	-183.333
215.09	275.000
215.47	0.000
215.84	-142.857
216.22	-50.000
216.59	440.000
216.97	380.000
217.34	200.000
217.72	150.000
218.09	250.000
218.47	25.000
218.84	0.000
219.22	-180.000
219.59	88.235
219.97	95.000
220.34	-700.000
220.72	166.667
221.09	176.923
221.47	500.000
221.84	110.000
222.22	142.857
222.59	0.000
222.97	100.000
223.34	180.000
223.72	500.000
224.09	250.000
224.46	150.000
224.84	180.000
225.21	85.714
225.59	225.000
225.96	75.000
226.34	88.462
226.71	-0.000
227.08	450.000
227.46	106.667
227.83	325.000
228.21	89.474
228.58	-125.000
228.95	-400.000
229.33	200.000
229.70	90.000
230.08	115.789
230.45	-40.000
230.82	500.000
231.20	78.571
231.57	141.667
231.95	154.545
232.32	72.727
232.69	110.000
233.07	400.000
233.44	147.059
233.81	120.000
234.19	88.889
234.56	86.364
234.93	48.276
235.31	105.263
235.68	61.111
236.05	55.000
236.43	73.077
236.80	112.000
237.17	92.593
237.55	24.242
237.92	60.000
238.29	41.935
238.67	31.818
239.04	25.000
239.41	11.905
239.79	30.435
240.16	27.778
240.53	19.565
240.91	11.765
241.28	22.951
241.65	23.881
242.02	28.378
242.40	23.077
242.77	25.333
243.14	9.756
243.51	2.632
243.89	21.795
244.26	21.782
244.63	16.667
245.00	12.150
245.38	11.404
245.75	0.885
246.12	8.730
246.49	8.527
246.87	10.714
247.24	12.583
247.61	5.263
247.98	8.054
248.36	3.086
248.73	-0.613
249.10	10.383
249.47	16.418
249.84	13.089
250.22	5.181
250.59	7.778
250.96	11.364
251.33	-1.020
251.70	7.692
252.08	5.833
252.45	3.689
252.82	2.893
253.19	5.859
253.56	9.506
253.94	4.231
254.31	4.167
254.68	8.392
255.05	6.840
255.42	4.762
255.79	3.560
256.16	5.629
256.54	1.656
256.91	3.607
257.28	2.951
257.65	1.911
258.02	1.180
258.39	3.704
258.76	6.422
259.14	6.322
259.51	4.899
259.88	3.399
260.25	4.722
260.62	4.110
260.99	6.284
261.36	4.290
261.73	3.448
262.10	1.374
262.47	2.681
262.85	4.798
263.22	0.779
263.59	0.789
263.96	2.046
264.33	1.535
264.70	3.210
265.07	5.967
265.44	5.669
265.81	3.935
266.18	3.855
266.55	3.571
266.92	1.595
267.29	2.845
267.66	2.217
268.03	2.183
268.40	2.505
268.77	2.050
269.14	0.661
269.51	2.412
269.88	1.434
270.25	3.018
270.62	1.899
270.99	4.646
271.36	4.554
271.73	2.161
272.10	5.411
272.47	2.204
272.84	3.414
273.21	4.008
273.58	2.016
273.95	1.346
274.32	-0.570
274.69	2.708
275.06	3.480
275.43	1.479
275.80	4.409
276.17	0.926
276.54	2.425
276.91	0.716
277.28	3.255
277.65	2.693
278.02	4.412
278.39	1.993
278.76	2.285
279.13	1.773
279.50	4.811
279.87	3.220
280.23	-0.704
280.60	2.881
280.97	3.289
281.34	1.698
281.71	2.369
282.08	2.326
282.45	2.291
282.82	2.041
283.19	0.162
283.56	1.148
283.92	3.754
284.29	3.476
284.66	3.941
285.03	0.801
285.40	2.628
285.77	0.619
286.14	2.290
286.51	2.892
286.87	2.054
287.24	1.657
287.61	1.794
287.98	2.115
288.35	0.888
288.72	2.367
289.08	2.489
289.45	1.923
289.82	0.904
290.19	2.155
290.56	2.254
290.93	1.569
291.29	1.240
291.66	2.066
292.03	1.357
292.40	3.401
292.77	2.022
293.13	3.248
293.50	2.365
293.87	1.745
294.24	3.200
294.60	4.298
294.97	1.611
295.34	2.817
295.71	1.765
296.08	1.163
296.44	2.083
296.81	2.558
297.18	1.370
297.55	1.061
297.91	1.305
298.28	0.829
298.65	2.616
299.02	1.889
299.38	1.831
299.75	2.804
300.12	0.926
300.48	1.382
300.85	2.475
301.22	2.796
301.59	1.142
301.95	1.356
302.32	2.222
302.69	1.862
303.05	2.067
303.42	1.330
303.79	1.354
304.15	1.052
304.52	1.374
304.89	1.990
305.25	0.932
305.62	1.985
305.99	2.371
306.35	2.016
306.72	1.551
307.09	2.030
307.45	1.863
307.82	2.119
308.19	1.615
308.55	2.797
308.92	1.850
309.29	2.107
309.65	1.559
310.02	1.782
310.38	1.870
310.75	1.650
311.12	1.918
311.48	1.369
311.85	1.425
312.22	1.139
312.58	1.502
312.95	0.574
313.31	1.445
313.68	1.465
314.05	2.168
314.41	2.368
314.78	2.089
315.14	2.722
315.51	1.754
315.87	2.070
316.24	1.918
316.61	2.220
316.97	1.086
317.34	0.970
317.70	2.183
318.07	1.852
318.43	2.891
318.80	2.843
319.16	1.202
319.53	1.542
319.89	1.578
320.26	2.402
320.62	1.418
320.99	2.031
321.35	2.680
321.72	3.070
322.08	2.344
322.45	1.265
322.81	2.076
323.18	1.681
323.54	2.414
323.91	2.936
324.27	1.721
324.64	2.099
325.00	2.239
325.37	2.785
325.73	2.645
326.10	2.514
326.46	2.443
326.83	2.802
327.19	1.811
327.56	2.609
327.92	1.652
328.29	1.935
328.65	1.926
329.01	1.946
329.38	2.612
329.74	2.997
330.11	2.397
330.47	2.696
330.84	2.498
331.20	3.750
331.56	0.953
331.93	2.176
332.29	2.712
332.66	2.076
333.02	3.183
333.38	2.601
333.75	2.104
334.11	2.752
334.48	2.475
334.84	2.124
335.20	1.092
335.57	2.277
335.93	2.479
336.29	1.664
336.66	2.691
337.02	2.676
337.38	3.231
337.75	2.231
338.11	2.019
338.47	2.647
338.84	1.861
339.20	1.432
339.56	2.059
339.93	2.791
340.29	2.576
340.65	2.433
341.02	2.953
341.38	3.234
341.74	2.179
342.11	2.816
342.47	1.668
342.83	2.254
343.20	2.289
343.56	1.925
343.92	1.601
344.28	2.187
344.65	3.178
345.01	2.808
345.37	2.566
345.73	1.169
346.10	2.730
346.46	2.136
346.82	3.071
347.19	2.597
347.55	3.263
347.91	2.080
348.27	1.821
348.63	2.818
349.00	2.163
349.36	2.528
349.72	2.604
350.08	3.492
350.45	2.053
350.81	1.433
351.17	2.782
351.53	2.350
351.89	3.037
352.26	2.388
352.62	1.940
352.98	1.832
353.34	2.166
353.70	2.465
354.07	2.832
354.43	1.974
354.79	2.319
355.15	2.355
355.51	2.851
355.87	2.019
356.24	3.042
356.60	2.143
356.96	2.372
357.32	1.561
357.68	2.416
358.04	1.722
358.40	2.090
358.77	2.632
359.13	2.068
359.49	0.967
359.85	2.611
360.21	2.009
360.57	1.579
360.93	2.680
361.29	1.965
361.66	1.665
362.02	2.992
362.38	2.530
362.74	1.746
363.10	2.338
363.46	2.562
363.82	1.420
364.18	1.900
364.54	1.936
364.90	2.207
365.26	1.793
365.62	2.800
365.98	2.655
366.35	2.617
366.71	2.109
367.07	1.962
367.43	2.101
367.79	2.588
368.15	2.676
368.51	2.368
368.87	2.678
369.23	2.533
369.59	1.708
369.95	2.434
370.31	2.836
370.67	2.545
371.03	1.801
371.39	1.813
371.75	2.063
372.11	2.236
372.47	2.505
372.83	2.683
373.19	2.268
373.55	1.829
373.91	2.045
374.27	2.717
374.63	2.300
374.99	2.255
375.35	3.117
375.71	2.710
376.07	1.872
376.42	1.889
376.78	2.921
377.14	2.994
377.50	1.834
377.86	2.709
378.22	2.635
378.58	2.973
378.94	1.937
379.30	2.050
379.66	1.999
380.02	1.962
380.38	2.477
380.74	2.366
381.09	1.510
381.45	1.989
381.81	2.518
382.17	2.672
382.53	2.047
382.89	2.427
383.25	1.934
383.61	0.810
383.97	2.120
384.32	2.632
384.68	1.914
385.04	3.008
385.40	2.946
385.76	2.872
386.12	2.633
386.48	2.588
386.83	2.324
387.19	2.028
387.55	1.995
387.91	2.340
388.27	2.656
388.62	3.207
388.98	2.200
389.34	2.711
389.70	1.976
390.06	2.368
390.42	2.771
390.77	2.769
391.13	2.347
391.49	2.657
391.85	1.758
392.20	3.144
392.56	3.131
392.92	3.108
393.28	2.875
393.64	2.458
393.99	2.963
394.35	2.044
394.71	2.994
395.07	1.078
395.42	2.399
395.78	3.717
396.14	2.555
396.50	2.316
396.85	2.564
397.21	2.249
397.57	3.062
397.92	3.093
398.28	2.173
398.64	2.346
399.00	2.199
399.35	2.618
399.71	1.848
400.07	2.527
400.42	1.863
400.78	2.083
401.14	2.049
401.49	2.899
401.85	2.093
402.21	2.723
402.57	2.406
402.92	2.482
403.28	2.049
403.63	2.625
403.99	2.257
404.35	3.070
404.70	2.436
405.06	2.663
405.42	1.288
405.77	2.345
406.13	2.647
406.49	2.365
406.84	1.994
407.20	2.236
407.55	2.241
407.91	2.137
408.27	2.591
408.62	2.211
408.98	2.554
409.34	1.349
409.69	1.916
410.05	2.931
410.40	2.958
410.76	2.299
411.11	2.396
411.47	2.457
411.83	2.469
412.18	1.928
412.54	1.956
412.89	2.386
413.25	2.088
413.60	1.666
413.96	2.797
414.31	2.153
414.67	2.504
415.03	1.846
415.38	2.018
415.74	2.138
416.09	2.899
416.45	2.066
416.80	2.203
417.16	2.810
417.51	1.993
417.87	2.207
418.22	2.515
418.58	2.107
418.93	2.503
419.29	2.404
419.64	2.341
420.00	2.136
420.35	2.527
420.71	1.723
421.06	1.898
421.42	1.892
421.77	1.669
422.12	2.537
422.48	1.997
422.83	2.355
423.19	1.804
423.54	2.434
423.90	1.822
424.25	2.507
424.61	1.607
424.96	2.416
425.31	2.442
425.67	1.503
426.02	1.328
426.38	2.296
426.73	2.623
427.09	3.172
427.44	1.584
427.79	2.266
428.15	2.169
428.50	1.966
428.85	2.411
429.21	2.713
429.56	2.221
429.92	1.916
430.27	2.120
430.62	2.003
430.98	1.672
431.33	1.955
431.68	1.628
432.04	2.387
432.39	2.999
432.74	1.769
433.10	1.947
433.45	2.397
433.80	2.629
434.16	2.944
434.51	2.364
434.86	2.714
435.22	2.497
435.57	2.948
435.92	2.393
436.28	2.560
436.63	1.912
436.98	2.523
437.34	2.311
437.69	1.761
438.04	1.851
438.39	2.585
438.75	2.214
439.10	2.960
439.45	3.074
439.81	2.655
440.16	2.091
440.51	2.731
440.86	2.001
441.22	2.090
441.57	2.254
441.92	2.134
442.27	1.970
442.63	2.732
442.98	3.308
443.33	2.630
443.68	3.023
444.03	3.104
444.39	2.543
444.74	2.705
445.09	3.244
445.44	2.107
445.79	3.065
446.15	3.186
446.50	2.636
446.85	2.724
447.20	3.046
447.55	3.033
447.91	2.775
448.26	2.326
448.61	2.657
448.96	3.058
449.31	3.128
449.66	2.288
450.02	2.690
450.37	2.930
450.72	1.991
451.07	3.132
451.42	2.426
451.77	2.446
452.12	3.217
452.47	2.793
452.83	2.590
453.18	2.160
453.53	2.470
453.88	2.706
454.23	2.260
454.58	3.134
454.93	2.549
455.28	3.070
455.63	3.184
455.98	3.017
456.34	2.532
456.69	2.587
457.04	2.482
457.39	2.328
457.74	2.964
458.09	2.032
458.44	3.610
458.79	2.372
459.14	2.989
459.49	2.773
459.84	2.728
460.19	1.721
460.54	2.953
460.89	2.806
461.24	2.471
461.59	3.320
461.94	1.882
462.29	3.191
462.64	2.595
462.99	2.385
463.34	2.726
463.69	2.989
464.04	3.057
464.39	2.803
464.74	3.364
465.09	3.230
465.44	2.897
465.79	2.221
466.14	2.501
466.49	3.211
466.84	2.810
467.19	3.410
467.54	2.174
467.89	2.241
468.24	2.825
468.59	2.895
468.94	2.855
469.29	3.179
469.64	2.225
469.99	2.358
470.34	2.599
470.68	2.939
471.03	2.881
471.38	2.551
471.73	2.601
472.08	3.046
472.43	3.251
472.78	2.582
473.13	2.339
473.48	2.840
473.83	2.960
474.17	3.048
474.52	2.646
474.87	3.267
475.22	3.042
475.57	2.492
475.92	2.638
476.27	2.556
476.61	3.011
476.96	2.086
477.31	2.921
477.66	3.305
478.01	2.949
478.36	2.891
478.70	2.611
479.05	3.170
479.40	2.122
479.75	3.314
480.10	2.700
480.45	3.099
480.79	2.676
481.14	2.987
481.49	2.090
481.84	3.177
482.19	2.925
482.53	2.930
482.88	2.880
483.23	2.401
483.58	2.620
483.92	2.305
484.27	2.371
484.62	2.599
484.97	2.799
485.31	2.464
485.66	2.295
486.01	2.345
486.36	2.158
486.70	2.360
487.05	2.417
487.40	2.391
487.75	2.723
488.09	2.536
488.44	2.651
488.79	2.732
489.13	2.390
489.48	2.136
489.83	2.696
490.17	2.430
490.52	3.284
490.87	2.242
491.22	2.600
491.56	3.413
491.91	3.402
492.26	2.856
492.60	2.492
492.95	2.852
493.30	2.600
493.64	2.628
493.99	2.763
494.34	2.091
494.68	2.056
495.03	2.863
495.37	2.619
495.72	2.358
496.07	3.024
496.41	2.703
496.76	2.669
497.11	2.378
497.45	2.028
497.80	3.110
498.14	2.857
498.49	2.574
498.84	2.697
499.18	2.924
499.53	2.780
499.87	2.418
500.22	2.093
500.56	2.474
500.91	2.838
501.26	2.955
501.60	2.033
501.95	2.866
502.29	2.150
502.64	3.105
502.98	2.977
503.33	2.203
503.67	2.399
504.02	2.496
504.36	2.547
504.71	2.572
505.06	2.865
505.40	2.834
505.75	3.370
506.09	2.808
506.44	2.832
506.78	3.165
507.13	2.951
507.47	2.984
507.82	3.362
508.16	3.203
508.51	2.532
508.85	2.881
509.19	2.653
509.54	3.506
509.88	2.574
510.23	2.914
510.57	3.480
510.92	2.903
511.26	2.886
511.61	2.511
511.95	3.123
512.30	3.299
512.64	2.449
512.98	2.601
513.33	3.075
513.67	2.907
514.02	2.913
514.36	3.223
514.70	3.073
515.05	3.441
515.39	3.517
515.74	3.659
516.08	3.328
516.42	3.192
516.77	2.681
517.11	3.198
517.46	2.651
517.80	4.009
518.14	3.428
518.49	3.037
518.83	3.353
519.17	3.016
519.52	3.669
519.86	4.013
520.20	3.514
520.55	3.231
520.89	2.646
521.23	3.573
521.58	3.446
521.92	3.116
522.26	3.379
522.61	2.778
522.95	2.999
523.29	3.391
523.64	3.027
523.98	3.993
524.32	3.954
524.66	3.643
525.01	2.888
525.35	2.757
525.69	2.842
526.04	3.042
526.38	3.506
526.72	3.172
527.06	3.167
527.41	3.499
527.75	3.800
528.09	3.483
528.43	2.901
528.78	2.832
529.12	2.982
529.46	2.642
529.80	3.146
530.15	3.478
530.49	2.669
530.83	3.188
531.17	4.002
531.51	2.647
531.86	3.365
532.20	3.659
532.54	3.291
532.88	3.091
533.22	3.654
533.57	3.347
533.91	3.143
534.25	2.940
534.59	3.161
534.93	2.037
535.27	3.493
535.62	3.582
535.96	2.963
536.30	2.761
536.64	4.084
536.98	3.752
537.32	3.519
537.66	3.119
538.01	3.565
538.35	3.471
538.69	2.644
539.03	3.372
539.37	3.710
539.71	4.084
540.05	3.357
540.39	2.995
540.73	3.218
541.07	2.882
541.42	2.953
541.76	4.033
542.10	3.317
542.44	2.010
542.78	3.893
543.12	3.516
543.46	2.808
543.80	3.297
544.14	2.992
544.48	3.369
544.82	3.052
545.16	3.459
545.50	2.936
545.84	3.062
546.18	4.012
546.52	3.185
546.86	3.396
547.20	3.181
547.54	2.996
547.88	3.556
548.22	2.749
548.56	3.277
548.90	3.104
549.24	3.222
549.58	3.722
549.92	2.551
550.26	3.754
550.60	3.382
550.94	3.428
551.28	3.696
551.62	3.369
551.96	3.883
552.30	4.716
552.64	3.423
552.98	3.306
553.32	3.280
553.66	2.637
554.00	3.846
554.34	3.218
554.68	3.680
555.02	3.417
555.36	3.222
555.69	2.947
556.03	3.153
556.37	3.630
556.71	3.614
557.05	3.195
557.39	2.986
557.73	3.633
558.07	3.377
558.41	3.389
558.75	3.110
559.08	2.505
559.42	3.155
559.76	3.867
560.10	3.952
560.44	3.034
560.78	3.875
561.12	2.833
561.45	4.136
561.79	3.053
562.13	3.204
562.47	2.528
562.81	3.101
563.15	3.598
563.48	3.543
563.82	4.232
564.16	2.968
564.50	3.039
564.84	3.009
565.17	3.294
565.51	3.280
565.85	3.207
566.19	3.456
566.52	3.160
566.86	3.792
567.20	3.208
567.54	2.815
567.88	3.466
568.21	3.607
568.55	3.118
568.89	3.087
569.23	3.126
569.56	2.775
569.90	3.136
570.24	2.934
570.57	2.854
570.91	2.388
571.25	2.748
571.59	3.089
571.92	2.719
572.26	2.700
572.60	2.812
572.93	2.867
573.27	2.613
573.61	2.912
573.95	2.938
574.28	3.013
574.62	2.706
574.96	2.669
575.29	2.754
575.63	2.726
575.97	2.707
576.30	2.689
576.64	2.672
576.98	2.756
577.31	2.781
577.65	2.724
577.98	2.673
578.32	2.648
578.66	2.752
578.99	2.601
579.33	2.846
579.67	2.448
580.00	2.675
580.34	2.836
580.67	2.604
581.01	2.748
581.35	2.786
581.68	2.680
582.02	3.013
582.35	2.713
582.69	2.703
583.02	2.579
583.36	2.711
583.70	2.522
584.03	2.736
584.37	2.913
584.70	2.836
585.04	2.837
585.37	2.850
585.71	3.020
586.04	2.708
586.38	2.809
586.72	2.582
587.05	2.635
587.39	2.568
587.72	2.751
588.06	3.022
588.39	3.261
588.73	2.963
589.06	2.991
589.40	3.319
589.73	3.021
590.07	2.951
590.40	3.381
590.73	3.005
591.07	3.313
591.40	3.072
591.74	2.941
592.07	3.410
592.41	2.800
592.74	3.301
593.08	3.121
593.41	3.120
593.75	3.333
594.08	3.029
594.41	3.301
594.75	3.055
595.08	2.894
595.42	2.987
595.75	3.164
596.09	3.118
596.42	3.296
596.75	3.358
597.09	3.636
597.42	2.702
597.75	3.175
598.09	3.690
598.42	3.619
598.76	2.789
599.09	2.884
599.42	3.587
599.76	2.872
600.09	3.170
600.42	3.136
600.76	3.071
601.09	3.319
601.42	2.987
601.76	3.310
602.09	3.038
602.42	2.944
602.76	3.063
603.09	2.790
603.42	3.324
603.76	3.101
604.09	3.336
604.42	3.046
604.76	3.272
605.09	3.311
605.42	3.230
605.75	3.885
606.09	2.874
606.42	3.283
606.75	3.148
607.09	3.034
607.42	3.237
607.75	3.400
608.08	3.118
608.42	3.587
608.75	3.524
609.08	3.226
609.41	3.000
609.75	3.214
610.08	3.870
610.41	3.398
610.74	3.571
611.07	3.197
611.41	3.408
611.74	3.326
612.07	3.413
612.40	3.279
612.73	2.983
613.07	3.570
613.40	3.994
613.73	3.033
614.06	3.631
614.39	2.964
614.72	3.348
615.06	3.465
615.39	3.287
615.72	3.223
616.05	3.448
616.38	3.784
616.71	3.344
617.05	3.461
617.38	3.959
617.71	3.672
618.04	3.022
618.37	3.661
618.70	3.394
619.03	2.867
619.36	3.268
619.69	2.947
620.03	3.515
620.36	3.006
620.69	3.825
621.02	4.659
621.35	3.120
621.68	3.109
622.01	4.128
622.34	3.138
622.67	3.368
623.00	3.036
623.33	3.517
623.66	3.567
623.99	3.423
624.32	3.834
624.65	3.411
624.99	3.641
625.32	4.311
625.65	3.844
625.98	3.525
626.31	3.827
626.64	3.736
626.97	3.601
627.30	2.430
627.63	3.676
627.96	4.429
628.29	4.280
628.62	3.023
628.95	3.944
629.28	3.653
629.61	3.451
629.94	3.598
630.26	3.475
630.59	3.195
630.92	3.636
631.25	4.562
631.58	3.955
631.91	4.124
632.24	3.842
632.57	3.131
632.90	3.310
633.23	3.571
633.56	3.265
633.89	3.512
634.22	4.054
634.55	4.071
634.88	2.489
635.20	4.952
635.53	3.051
635.86	4.875
636.19	4.772
636.52	5.063
636.85	4.699
637.18	3.222
637.51	4.194
637.83	5.426
638.16	4.608
638.49	3.521
638.82	4.171
639.15	3.666
639.48	4.734
639.81	4.619
640.13	3.887
640.46	2.424
640.79	3.799
641.12	3.975
641.45	4.893
641.77	5.777
642.10	3.281
642.43	4.920
642.76	3.659
643.09	3.151
643.41	4.202
643.74	4.690
644.07	4.828
644.40	2.970
644.73	4.354
645.05	3.377
645.38	6.043
645.71	6.012
646.04	5.165
646.36	5.547
646.69	4.141
647.02	5.810
647.35	6.107
647.67	4.831
648.00	3.981
648.33	5.556
648.66	4.137
648.98	5.306
649.31	5.277
649.64	4.648
649.96	5.836
650.29	3.338
650.62	5.375
650.94	3.604
651.27	2.994
651.60	5.556
651.92	2.584
652.25	5.933
652.58	5.227
652.90	4.651
653.23	4.366
653.56	3.424
653.88	7.444
654.21	4.366
654.54	5.202
654.86	3.966
655.19	2.760
655.52	3.831
655.84	2.695
656.17	3.240
656.49	4.482
656.82	4.955
657.15	3.921
657.47	3.002
657.80	2.188
658.13	1.790
658.45	2.440
658.78	2.637
659.10	2.834
