SpectraSuite Data File
++++++++++++++++++++++++++++++++++++
Date: Thu May 14 14:45:37 PDT 2015
User: schluterlab
Dark Spectrum Present: Yes
Reference Spectrum Present: Yes
Number of Sampled Component Spectra: 1
Spectrometers: USB2E3373
Integration Time (usec): 3000 (USB2E3373)
Spectra Averaged: 3 (USB2E3373)
Boxcar Smoothing: 0 (USB2E3373)
Correct for Electrical Dark: No (USB2E3373)
Strobe/Lamp Enabled: No (USB2E3373)
Correct for Detector Non-linearity: No (USB2E3373)
Correct for Stray Light: No (USB2E3373)
Number of Pixels in Processed Spectrum: 2048
>>>>>Begin Processed Spectral Data<<<<<
178.53	0.000
178.91	-100.000
179.29	-800.000
179.67	-1300.000
180.04	142.857
180.42	80.000
180.80	380.000
181.18	-900.000
181.56	100.000
181.94	175.000
182.31	75.000
182.69	-166.667
183.07	-200.000
183.45	50.000
183.83	116.667
184.20	366.667
184.58	-500.000
184.96	-100.000
185.34	55.556
185.72	40.000
186.09	133.333
186.47	150.000
186.85	200.000
187.23	11.111
187.61	-1200.000
187.98	-180.000
188.36	-25.000
188.74	-25.000
189.12	66.667
189.49	-50.000
189.87	37.500
190.25	22.222
190.63	80.000
191.00	-55.556
191.38	0.000
191.76	-250.000
192.14	16.667
192.51	150.000
192.89	100.000
193.27	0.000
193.65	-114.286
194.02	-1100.000
194.40	-28.571
194.78	42.857
195.15	0.000
195.53	0.000
195.91	0.000
196.29	175.000
196.66	23.077
197.04	-600.000
197.42	0.000
197.79	-100.000
198.17	-87.500
198.55	-57.143
198.92	55.556
199.30	-25.000
199.68	9.091
200.05	85.714
200.43	-300.000
200.81	114.286
201.18	0.000
201.56	111.111
201.94	0.000
202.31	333.333
202.69	-88.889
203.07	1200.000
203.44	-11.111
203.82	-225.000
204.19	-16.667
204.57	-66.667
204.95	-25.000
205.32	-300.000
205.70	75.000
206.08	50.000
206.45	-66.667
206.83	120.000
207.20	116.667
207.58	-240.000
207.96	-50.000
208.33	283.333
208.71	-25.000
209.08	166.667
209.46	0.000
209.84	183.333
210.21	-300.000
210.59	-200.000
210.96	266.667
211.34	50.000
211.71	-75.000
212.09	-400.000
212.46	0.000
212.84	700.000
213.22	60.000
213.59	0.000
213.97	20.000
214.34	-100.000
214.72	233.333
215.09	75.000
215.47	0.000
215.84	28.571
216.22	-50.000
216.59	60.000
216.97	-60.000
217.34	-125.000
217.72	87.500
218.09	0.000
218.47	-100.000
218.84	0.000
219.22	-40.000
219.59	-5.882
219.97	35.000
220.34	50.000
220.72	33.333
221.09	107.692
221.47	33.333
221.84	30.000
222.22	-57.143
222.59	0.000
222.97	12.500
223.34	-80.000
223.72	-800.000
224.09	-125.000
224.46	-225.000
224.84	260.000
225.21	-71.429
225.59	-225.000
225.96	-175.000
226.34	-23.077
226.71	33.333
227.08	300.000
227.46	33.333
227.83	-225.000
228.21	52.632
228.58	25.000
228.95	350.000
229.33	33.333
229.70	70.000
230.08	89.474
230.45	50.000
230.82	-200.000
231.20	35.714
231.57	25.000
231.95	45.455
232.32	81.818
232.69	35.000
233.07	25.000
233.44	11.765
233.81	0.000
234.19	38.889
234.56	-45.455
234.93	41.379
235.31	57.895
235.68	50.000
236.05	-30.000
236.43	73.077
236.80	92.000
237.17	29.630
237.55	9.091
237.92	-20.000
238.29	6.452
238.67	31.818
239.04	16.667
239.41	19.048
239.79	26.087
240.16	27.778
240.53	0.000
240.91	19.608
241.28	13.115
241.65	26.866
242.02	22.973
242.40	3.077
242.77	32.000
243.14	14.634
243.51	10.526
243.89	10.256
244.26	32.673
244.63	20.588
245.00	14.019
245.38	23.684
245.75	11.504
246.12	14.286
246.49	18.605
246.87	22.143
247.24	21.854
247.61	21.053
247.98	14.765
248.36	17.901
248.73	23.313
249.10	21.858
249.47	26.866
249.84	21.466
250.22	18.653
250.59	22.778
250.96	20.909
251.33	16.837
251.70	19.658
252.08	20.000
252.45	20.492
252.82	19.008
253.19	15.625
253.56	19.392
253.94	20.000
254.31	21.970
254.68	19.580
255.05	20.195
255.42	19.048
255.79	15.210
256.16	18.212
256.54	17.219
256.91	21.639
257.28	20.000
257.65	18.153
258.02	18.879
258.39	17.664
258.76	23.242
259.14	20.402
259.51	21.326
259.88	21.813
260.25	20.000
260.62	20.000
260.99	22.678
261.36	23.592
261.73	19.363
262.10	18.681
262.47	21.448
262.85	19.192
263.22	17.662
263.59	16.579
263.96	19.182
264.33	17.136
264.70	22.222
265.07	22.912
265.44	22.449
265.81	19.907
266.18	21.769
266.55	18.750
266.92	17.084
267.29	20.788
267.66	20.177
268.03	21.616
268.40	19.415
268.77	19.590
269.14	18.282
269.51	19.518
269.88	22.131
270.25	20.926
270.62	22.996
270.99	20.808
271.36	20.198
271.73	17.878
272.10	22.044
272.47	18.637
272.84	19.076
273.21	20.040
273.58	22.581
273.95	16.731
274.32	17.681
274.69	20.309
275.06	18.315
275.43	18.669
275.80	19.224
276.17	16.852
276.54	19.403
276.91	20.215
277.28	19.892
277.65	20.646
278.02	19.118
278.39	19.022
278.76	18.629
279.13	17.199
279.50	20.790
279.87	19.320
280.23	16.197
280.60	18.644
280.97	19.243
281.34	18.846
281.71	19.966
282.08	18.937
282.45	18.167
282.82	16.641
283.19	18.901
283.56	18.033
283.92	17.718
284.29	19.115
284.66	18.883
285.03	16.506
285.40	17.311
285.77	17.492
286.14	17.099
286.51	17.352
286.87	17.062
287.24	19.428
287.61	18.236
287.98	17.372
288.35	17.751
288.72	18.195
289.08	17.862
289.45	17.160
289.82	16.717
290.19	16.523
290.56	16.761
290.93	16.262
291.29	15.427
291.66	17.906
292.03	14.925
292.40	17.551
292.77	15.633
293.13	15.291
293.50	16.163
293.87	15.973
294.24	17.200
294.60	16.941
294.97	14.362
295.34	16.261
295.71	14.502
296.08	14.212
296.44	16.176
296.81	14.373
297.18	14.446
297.55	14.269
297.91	14.591
298.28	14.336
298.65	14.031
299.02	14.168
299.38	14.874
299.75	13.785
300.12	13.310
300.48	14.516
300.85	14.286
301.22	14.430
301.59	13.584
301.95	14.915
302.32	14.556
302.69	13.582
303.05	14.472
303.42	14.302
303.79	13.438
304.15	14.721
304.52	14.588
304.89	14.869
305.25	15.424
305.62	13.062
305.99	14.330
306.35	13.911
306.72	13.961
307.09	13.299
307.45	14.493
307.82	15.742
308.19	14.934
308.55	14.465
308.92	13.340
309.29	13.985
309.65	13.938
310.02	13.960
310.38	14.173
310.75	15.534
311.12	14.957
311.48	14.663
311.85	15.670
312.22	14.231
312.58	15.211
312.95	14.914
313.31	15.447
313.68	15.018
314.05	16.441
314.41	16.667
314.78	16.621
315.14	17.151
315.51	16.528
315.87	16.382
316.24	17.260
316.61	16.963
316.97	16.380
317.34	17.901
317.70	18.603
318.07	17.196
318.43	18.027
318.80	19.314
319.16	17.854
319.53	16.624
319.89	17.616
320.26	18.327
320.62	17.819
320.99	18.560
321.35	18.946
321.72	20.000
322.08	18.936
322.45	19.512
322.81	20.487
323.18	18.850
323.54	19.483
323.91	21.174
324.27	20.568
324.64	21.579
325.00	19.900
325.37	21.540
325.73	21.405
326.10	22.466
326.46	21.906
326.83	23.299
327.19	21.575
327.56	20.949
327.92	21.873
328.29	22.984
328.65	21.859
329.01	23.773
329.38	21.567
329.74	23.716
330.11	24.058
330.47	23.926
330.84	24.376
331.20	23.750
331.56	23.917
331.93	24.351
332.29	23.220
332.66	24.751
333.02	23.367
333.38	23.742
333.75	24.074
334.11	24.270
334.48	24.422
334.84	24.554
335.20	23.762
335.57	24.368
335.93	25.041
336.29	23.211
336.66	24.222
337.02	25.167
337.38	25.850
337.75	24.380
338.11	26.156
338.47	24.897
338.84	24.281
339.20	23.168
339.56	24.712
339.93	24.548
340.29	23.349
340.65	24.574
341.02	25.140
341.38	24.980
341.74	24.536
342.11	25.503
342.47	24.464
342.83	24.074
343.20	25.020
343.56	22.935
343.92	24.900
344.28	26.172
344.65	25.581
345.01	25.273
345.37	24.106
345.73	23.539
346.10	25.195
346.46	24.288
346.82	25.393
347.19	24.141
347.55	25.417
347.91	23.997
348.27	25.114
348.63	24.829
349.00	24.758
349.36	23.643
349.72	24.702
350.08	24.740
350.45	24.183
350.81	25.415
351.17	24.211
351.53	25.171
351.89	25.513
352.26	25.299
352.62	25.224
352.98	24.351
353.34	24.869
353.70	24.422
354.07	24.218
354.43	25.513
354.79	24.383
355.15	24.356
355.51	26.462
355.87	23.859
356.24	26.160
356.60	25.055
356.96	25.426
357.32	25.204
357.68	23.792
358.04	24.326
358.40	24.328
358.77	25.146
359.13	24.742
359.49	24.610
359.85	25.236
360.21	25.251
360.57	24.695
360.93	25.176
361.29	25.825
361.66	24.692
362.02	25.818
362.38	25.861
362.74	24.651
363.10	26.135
363.46	25.485
363.82	25.852
364.18	24.982
364.54	25.588
364.90	25.351
365.26	26.069
365.62	25.467
365.98	26.685
366.35	25.839
366.71	26.667
367.07	26.455
367.43	26.461
367.79	25.813
368.15	26.622
368.51	26.455
368.87	25.800
369.23	26.133
369.59	25.683
369.95	26.640
370.31	27.346
370.67	25.791
371.03	27.424
371.39	26.058
371.75	26.754
372.11	27.236
372.47	26.879
372.83	27.487
373.19	27.352
373.55	26.558
373.91	27.198
374.27	26.843
374.63	28.281
374.99	27.586
375.35	27.273
375.71	27.935
376.07	27.954
376.42	27.582
376.78	28.216
377.14	27.760
377.50	28.969
377.86	27.956
378.22	29.641
378.58	29.489
378.94	29.167
379.30	29.115
379.66	28.748
380.02	29.313
380.38	29.493
380.74	29.070
381.09	28.804
381.45	29.318
381.81	31.148
382.17	30.048
382.53	29.649
382.89	30.248
383.25	30.891
383.61	29.745
383.97	30.153
384.32	31.758
384.68	31.265
385.04	31.463
385.40	31.585
385.76	32.591
386.12	32.376
386.48	32.118
386.83	32.479
387.19	31.112
387.55	32.453
387.91	33.390
388.27	31.640
388.62	32.875
388.98	31.416
389.34	32.940
389.70	32.423
390.06	32.090
390.42	32.470
390.77	34.377
391.13	33.216
391.49	33.454
391.85	33.212
392.20	33.393
392.56	32.959
392.92	33.479
393.28	34.660
393.64	33.352
393.99	35.851
394.35	35.280
394.71	34.072
395.07	34.012
395.42	34.380
395.78	36.258
396.14	34.225
396.50	34.976
396.85	34.287
397.21	35.325
397.57	34.158
397.92	35.052
398.28	33.406
398.64	33.581
399.00	34.241
399.35	34.503
399.71	33.424
400.07	34.531
400.42	34.808
400.78	35.185
401.14	34.946
401.49	35.873
401.85	34.651
402.21	35.921
402.57	36.092
402.92	35.993
403.28	34.426
403.63	35.561
403.99	35.095
404.35	35.645
404.70	34.788
405.06	35.272
405.42	35.539
405.77	35.060
406.13	34.090
406.49	35.191
406.84	35.457
407.20	35.606
407.55	34.222
407.91	35.198
408.27	34.570
408.62	35.428
408.98	35.461
409.34	34.135
409.69	35.414
410.05	35.287
410.40	36.311
410.76	35.222
411.11	36.470
411.47	35.565
411.83	35.802
412.18	36.506
412.54	35.388
412.89	34.750
413.25	35.271
413.60	34.980
413.96	35.198
414.31	35.354
414.67	35.897
415.03	35.015
415.38	35.435
415.74	34.820
416.09	35.163
416.45	35.692
416.80	34.884
417.16	35.313
417.51	36.364
417.87	35.929
418.22	35.928
418.58	35.626
418.93	35.274
419.29	35.450
419.64	35.774
420.00	35.312
420.35	36.889
420.71	35.956
421.06	35.653
421.42	36.124
421.77	35.864
422.12	35.941
422.48	35.381
422.83	36.418
423.19	35.915
423.54	36.615
423.90	36.389
424.25	37.387
424.61	36.567
424.96	36.573
425.31	37.208
425.67	37.091
426.02	37.908
426.38	36.682
426.73	36.049
427.09	37.140
427.44	35.991
427.79	36.982
428.15	37.386
428.50	36.685
428.85	36.452
429.21	36.596
429.56	38.006
429.92	36.511
430.27	36.771
430.62	37.909
430.98	36.695
431.33	37.195
431.68	36.590
432.04	38.344
432.39	37.975
432.74	37.728
433.10	38.615
433.45	37.347
433.80	38.251
434.16	38.636
434.51	39.517
434.86	40.011
435.22	38.523
435.57	38.974
435.92	38.286
436.28	39.761
436.63	38.667
436.98	38.218
437.34	38.895
437.69	38.580
438.04	38.181
438.39	38.541
438.75	38.572
439.10	39.482
439.45	38.569
439.81	38.588
440.16	38.713
440.51	39.242
440.86	37.966
441.22	39.389
441.57	39.203
441.92	39.428
442.27	40.101
442.63	39.394
442.98	39.221
443.33	40.558
443.68	40.684
444.03	40.357
444.39	39.945
444.74	40.123
445.09	39.027
445.44	40.411
445.79	40.230
446.15	40.134
446.50	40.207
446.85	39.348
447.20	39.507
447.55	39.854
447.91	39.686
448.26	38.848
448.61	39.745
448.96	41.577
449.31	39.343
449.66	39.706
450.02	40.137
450.37	40.863
450.72	39.989
451.07	40.888
451.42	40.208
451.77	40.245
452.12	40.237
452.47	40.285
452.83	41.723
453.18	41.506
453.53	39.862
453.88	39.923
454.23	41.073
454.58	41.091
454.93	40.959
455.28	40.819
455.63	39.568
455.98	41.006
456.34	41.166
456.69	39.506
457.04	41.608
457.39	41.297
457.74	40.772
458.09	41.296
458.44	41.541
458.79	41.362
459.14	41.112
459.49	41.879
459.84	41.186
460.19	40.977
460.54	42.476
460.89	41.451
461.24	41.437
461.59	41.727
461.94	40.730
462.29	41.041
462.64	40.978
462.99	41.996
463.34	41.012
463.69	40.621
464.04	41.968
464.39	41.536
464.74	41.505
465.09	41.176
465.44	40.933
465.79	41.565
466.14	40.750
466.49	41.842
466.84	41.433
467.19	41.618
467.54	40.717
467.89	41.609
468.24	40.499
468.59	40.706
468.94	40.851
469.29	40.492
469.64	40.814
469.99	40.918
470.34	41.337
470.68	42.584
471.03	42.436
471.38	41.727
471.73	41.027
472.08	41.624
472.43	41.722
472.78	41.877
473.13	41.846
473.48	42.477
473.83	43.122
474.17	42.204
474.52	42.273
474.87	41.030
475.22	41.915
475.57	42.160
475.92	42.111
476.27	42.119
476.61	41.693
476.96	41.658
477.31	42.327
477.66	42.760
478.01	42.145
478.36	40.877
478.70	42.020
479.05	42.382
479.40	43.337
479.75	42.075
480.10	42.018
480.45	41.477
480.79	42.086
481.14	41.039
481.49	41.617
481.84	41.775
482.19	42.452
482.53	42.589
482.88	43.199
483.23	42.508
483.58	42.183
483.92	41.223
484.27	41.575
484.62	41.790
484.97	41.680
485.31	41.711
485.66	39.914
486.01	40.406
486.36	41.757
486.70	42.983
487.05	43.978
487.40	42.768
487.75	42.595
488.09	41.561
488.44	42.324
488.79	42.260
489.13	41.347
489.48	41.398
489.83	40.684
490.17	41.960
490.52	42.529
490.87	42.174
491.22	42.808
491.56	42.022
491.91	41.518
492.26	41.930
492.60	41.889
492.95	42.299
493.30	42.492
493.64	43.539
493.99	41.754
494.34	42.117
494.68	42.313
495.03	43.524
495.37	42.876
495.72	41.995
496.07	41.323
496.41	42.214
496.76	42.452
497.11	42.972
497.45	42.900
497.80	42.914
498.14	40.862
498.49	42.739
498.84	42.962
499.18	43.230
499.53	42.915
499.87	42.593
500.22	42.565
500.56	42.645
500.91	42.334
501.26	42.364
501.60	42.466
501.95	42.553
502.29	42.343
502.64	43.463
502.98	42.321
503.33	42.246
503.67	42.390
504.02	42.995
504.36	44.013
504.71	43.225
505.06	42.974
505.40	42.550
505.75	42.350
506.09	43.048
506.44	43.547
506.78	43.807
507.13	42.739
507.47	43.250
507.82	42.803
508.16	43.642
508.51	42.382
508.85	43.033
509.19	43.250
509.54	43.660
509.88	43.225
510.23	44.293
510.57	43.741
510.92	43.348
511.26	43.001
511.61	43.023
511.95	42.801
512.30	43.131
512.64	43.028
512.98	45.073
513.33	43.851
513.67	44.365
514.02	43.332
514.36	44.143
514.70	44.271
515.05	44.421
515.39	44.934
515.74	44.274
516.08	44.374
516.42	44.375
516.77	44.479
517.11	43.373
517.46	43.478
517.80	45.270
518.14	44.450
518.49	44.360
518.83	44.119
519.17	43.188
519.52	43.868
519.86	43.295
520.20	44.249
520.55	44.469
520.89	44.313
521.23	44.054
521.58	45.367
521.92	45.382
522.26	43.700
522.61	44.850
522.95	45.156
523.29	45.402
523.64	45.123
523.98	44.153
524.32	45.559
524.66	44.849
525.01	44.337
525.35	44.342
525.69	44.548
526.04	44.432
526.38	44.655
526.72	44.867
527.06	45.630
527.41	45.015
527.75	46.378
528.09	45.750
528.43	44.701
528.78	45.318
529.12	44.897
529.46	45.812
529.80	45.366
530.15	44.580
530.49	45.552
530.83	45.573
531.17	44.743
531.51	45.788
531.86	45.673
532.20	45.244
532.54	44.584
532.88	44.848
533.22	44.726
533.57	44.662
533.91	45.006
534.25	45.336
534.59	44.943
534.93	44.199
535.27	43.944
535.62	45.424
535.96	45.090
536.30	45.417
536.64	45.946
536.98	46.679
537.32	45.741
537.66	46.226
538.01	44.713
538.35	44.702
538.69	45.132
539.03	46.352
539.37	44.052
539.71	44.444
540.05	45.624
540.39	45.171
540.73	44.323
541.07	45.310
541.42	44.595
541.76	43.832
542.10	45.537
542.44	44.641
542.78	45.742
543.12	44.994
543.46	44.750
543.80	44.664
544.14	45.003
544.48	45.390
544.82	45.242
545.16	45.200
545.50	44.697
545.84	44.825
546.18	45.864
546.52	45.223
546.86	45.031
547.20	43.448
547.54	45.630
547.88	44.424
548.22	44.620
548.56	46.343
548.90	45.970
549.24	44.924
549.58	45.868
549.92	45.536
550.26	45.243
550.60	44.863
550.94	45.666
551.28	45.413
551.62	45.553
551.96	44.401
552.30	45.953
552.64	44.680
552.98	45.976
553.32	46.174
553.66	46.045
554.00	46.028
554.34	45.367
554.68	44.932
555.02	45.204
555.36	46.285
555.69	45.227
556.03	45.271
556.37	45.494
556.71	45.783
557.05	45.304
557.39	46.118
557.73	46.103
558.07	45.497
558.41	46.179
558.75	45.368
559.08	45.999
559.42	45.130
559.76	45.115
560.10	44.675
560.44	45.251
560.78	46.938
561.12	46.182
561.45	46.472
561.79	45.849
562.13	47.258
562.47	44.636
562.81	44.873
563.15	45.644
563.48	45.556
563.82	45.889
564.16	45.912
564.50	45.113
564.84	44.779
565.17	45.235
565.51	44.304
565.85	46.021
566.19	45.392
566.52	44.646
566.86	45.161
567.20	44.154
567.54	46.097
567.88	46.585
568.21	45.899
568.55	45.084
568.89	45.120
569.23	45.543
569.56	45.838
569.90	45.652
570.24	46.442
570.57	45.734
570.91	45.254
571.25	44.518
571.59	45.004
571.92	45.123
572.26	44.627
572.60	45.209
572.93	44.865
573.27	45.069
573.61	44.097
573.95	45.011
574.28	44.008
574.62	44.998
574.96	44.442
575.29	43.754
575.63	44.976
575.97	43.976
576.30	44.115
576.64	43.904
576.98	43.804
577.31	44.196
577.65	44.965
577.98	44.315
578.32	44.530
578.66	44.629
578.99	44.378
579.33	45.042
579.67	43.948
580.00	44.032
580.34	43.914
580.67	44.064
581.01	44.245
581.35	44.418
581.68	44.241
582.02	44.788
582.35	45.183
582.69	45.091
583.02	45.150
583.36	45.307
583.70	45.376
584.03	44.540
584.37	44.359
584.70	44.181
585.04	44.199
585.37	44.830
585.71	44.660
586.04	45.046
586.38	45.334
586.72	44.598
587.05	45.075
587.39	44.777
587.72	45.837
588.06	45.164
588.39	45.531
588.73	44.577
589.06	45.570
589.40	45.237
589.73	45.051
590.07	45.060
590.40	44.456
590.73	44.998
591.07	45.830
591.40	45.295
591.74	45.827
592.07	45.108
592.41	44.164
592.74	44.160
593.08	45.064
593.41	45.348
593.75	45.747
594.08	45.956
594.41	45.449
594.75	45.500
595.08	45.121
595.42	46.039
595.75	45.237
596.09	45.442
596.42	45.575
596.75	44.963
597.09	45.778
597.42	43.981
597.75	45.002
598.09	45.119
598.42	45.396
598.76	45.204
599.09	44.927
599.42	43.916
599.76	44.602
600.09	45.212
600.42	45.012
600.76	44.221
601.09	44.109
601.42	44.765
601.76	44.310
602.09	44.639
602.42	45.075
602.76	44.760
603.09	45.154
603.42	46.171
603.76	45.384
604.09	45.422
604.42	46.275
604.76	44.939
605.09	44.755
605.42	45.973
605.75	44.500
606.09	45.427
606.42	44.692
606.75	45.090
607.09	43.625
607.42	44.547
607.75	44.549
608.08	44.475
608.42	43.732
608.75	44.776
609.08	45.501
609.41	44.552
609.75	45.045
610.08	45.031
610.41	44.775
610.74	44.244
611.07	45.604
611.41	45.830
611.74	45.543
612.07	45.816
612.40	46.293
612.73	45.868
613.07	44.303
613.40	44.995
613.73	46.028
614.06	45.731
614.39	45.675
614.72	44.639
615.06	43.263
615.39	43.596
615.72	45.261
616.05	45.168
616.38	45.812
616.71	45.141
617.05	44.888
617.38	44.944
617.71	45.140
618.04	45.926
618.37	45.956
618.70	45.532
619.03	45.520
619.36	44.636
619.69	44.843
620.03	46.202
620.36	43.742
620.69	45.404
621.02	46.391
621.35	47.388
621.68	44.975
622.01	44.840
622.34	44.979
622.67	45.567
623.00	44.602
623.33	46.052
623.66	44.358
623.99	46.478
624.32	45.289
624.65	44.723
624.99	46.229
625.32	46.963
625.65	44.437
625.98	45.288
626.31	46.067
626.64	45.934
626.97	45.686
627.30	45.254
627.63	45.086
627.96	46.922
628.29	44.903
628.62	45.256
628.95	47.415
629.28	45.964
629.61	45.791
629.94	45.607
630.26	44.915
630.59	44.473
630.92	44.416
631.25	46.691
631.58	46.893
631.91	45.923
632.24	45.821
632.57	44.592
632.90	46.841
633.23	45.408
633.56	46.224
633.89	45.248
634.22	45.426
