SpectraSuite Data File
++++++++++++++++++++++++++++++++++++
Date: Thu May 14 14:48:23 PDT 2015
User: schluterlab
Dark Spectrum Present: Yes
Reference Spectrum Present: Yes
Number of Sampled Component Spectra: 1
Spectrometers: USB2E3373
Integration Time (usec): 3000 (USB2E3373)
Spectra Averaged: 3 (USB2E3373)
Boxcar Smoothing: 0 (USB2E3373)
Correct for Electrical Dark: No (USB2E3373)
Strobe/Lamp Enabled: No (USB2E3373)
Correct for Detector Non-linearity: No (USB2E3373)
Correct for Stray Light: No (USB2E3373)
Number of Pixels in Processed Spectrum: 2048
>>>>>Begin Processed Spectral Data<<<<<
178.53	0.000
178.91	185.714
179.29	-1700.000
179.67	-900.000
180.04	157.143
180.42	-10.000
180.80	280.000
181.18	600.000
181.56	1000.000
181.94	-25.000
182.31	0.000
182.69	66.667
183.07	-300.000
183.45	225.000
183.83	-50.000
184.20	-233.333
184.58	200.000
184.96	-125.000
185.34	-55.556
185.72	-40.000
186.09	66.667
186.47	450.000
186.85	320.000
187.23	-44.444
187.61	-1100.000
187.98	20.000
188.36	450.000
188.74	-200.000
189.12	-66.667
189.49	-43.750
189.87	-175.000
190.25	-22.222
190.63	-40.000
191.00	-77.778
191.38	0.000
191.76	-175.000
192.14	-116.667
192.51	450.000
192.89	50.000
193.27	0.000
193.65	14.286
194.02	-1300.000
194.40	-142.857
194.78	114.286
195.15	0.000
195.53	81.818
195.91	0.000
196.29	25.000
196.66	-30.769
197.04	-500.000
197.42	-128.571
197.79	0.000
198.17	-62.500
198.55	-142.857
198.92	-11.111
199.30	-37.500
199.68	-27.273
200.05	-7.143
200.43	-150.000
200.81	142.857
201.18	0.000
201.56	133.333
201.94	0.000
202.31	400.000
202.69	-44.444
203.07	700.000
203.44	-100.000
203.82	-375.000
204.19	-66.667
204.57	-83.333
204.95	-62.500
205.32	-1400.000
205.70	225.000
206.08	33.333
206.45	-83.333
206.83	240.000
207.20	-50.000
207.58	-180.000
207.96	-83.333
208.33	66.667
208.71	83.333
209.08	200.000
209.46	0.000
209.84	216.667
210.21	500.000
210.59	250.000
210.96	466.667
211.34	100.000
211.71	-37.500
212.09	200.000
212.46	0.000
212.84	750.000
213.22	-200.000
213.59	-125.000
213.97	20.000
214.34	-133.333
214.72	83.333
215.09	0.000
215.47	0.000
215.84	200.000
216.22	450.000
216.59	-80.000
216.97	-20.000
217.34	-100.000
217.72	-12.500
218.09	-100.000
218.47	-225.000
218.84	0.000
219.22	-40.000
219.59	5.882
219.97	35.000
220.34	50.000
220.72	-88.889
221.09	15.385
221.47	-233.333
221.84	-20.000
222.22	-157.143
222.59	0.000
222.97	-50.000
223.34	-240.000
223.72	-800.000
224.09	-225.000
224.46	-100.000
224.84	160.000
225.21	-100.000
225.59	-275.000
225.96	-100.000
226.34	15.385
226.71	100.000
227.08	-150.000
227.46	13.333
227.83	-25.000
228.21	-15.789
228.58	175.000
228.95	850.000
229.33	41.667
229.70	-30.000
230.08	15.789
230.45	90.000
230.82	0.000
231.20	-35.714
231.57	-41.667
231.95	-63.636
232.32	-145.455
232.69	10.000
233.07	0.000
233.44	-5.882
233.81	-100.000
234.19	-5.556
234.56	0.000
234.93	20.690
235.31	5.263
235.68	27.778
236.05	-30.000
236.43	46.154
236.80	68.000
237.17	0.000
237.55	15.152
237.92	-20.000
238.29	9.677
238.67	2.273
239.04	13.889
239.41	0.000
239.79	13.043
240.16	0.000
240.53	17.391
240.91	17.647
241.28	13.115
241.65	23.881
242.02	22.973
242.40	3.077
242.77	22.667
243.14	10.976
243.51	10.526
243.89	7.692
244.26	16.832
244.63	22.549
245.00	14.953
245.38	16.667
245.75	7.965
246.12	17.460
246.49	12.403
246.87	17.857
247.24	13.907
247.61	19.737
247.98	16.107
248.36	14.815
248.73	17.178
249.10	15.847
249.47	22.886
249.84	26.702
250.22	16.580
250.59	24.444
250.96	19.091
251.33	17.857
251.70	22.222
252.08	18.333
252.45	17.623
252.82	16.116
253.19	14.453
253.56	17.110
253.94	16.923
254.31	18.939
254.68	21.329
255.05	22.801
255.42	17.347
255.79	18.447
256.16	17.881
256.54	18.543
256.91	17.049
257.28	16.393
257.65	18.790
258.02	16.814
258.39	21.368
258.76	20.795
259.14	21.264
259.51	18.444
259.88	18.697
260.25	20.000
260.62	19.726
260.99	24.044
261.36	20.912
261.73	20.955
262.10	19.780
262.47	20.643
262.85	25.253
263.22	18.701
263.59	16.053
263.96	20.205
264.33	20.205
264.70	19.506
265.07	22.434
265.44	23.583
265.81	18.287
266.18	21.088
266.55	22.545
266.92	16.629
267.29	21.882
267.66	19.290
268.03	22.489
268.40	17.328
268.77	17.312
269.14	17.841
269.51	17.325
269.88	20.697
270.25	20.523
270.62	21.097
270.99	19.192
271.36	20.000
271.73	21.022
272.10	20.441
272.47	17.234
272.84	18.072
273.21	19.639
273.58	20.363
273.95	18.269
274.32	19.772
274.69	18.956
275.06	19.780
275.43	18.299
275.80	19.577
276.17	17.778
276.54	18.470
276.91	19.857
277.28	19.711
277.65	19.928
278.02	20.221
278.39	19.565
278.76	17.926
279.13	20.745
279.50	20.103
279.87	18.962
280.23	16.197
280.60	18.136
280.97	20.559
281.34	17.657
281.71	18.951
282.08	19.269
282.45	17.512
282.82	18.524
283.19	17.932
283.56	20.164
283.92	20.721
284.29	21.485
284.66	17.077
285.03	16.506
285.40	18.393
285.77	17.183
286.14	20.611
286.51	18.265
286.87	15.482
287.24	19.127
287.61	17.339
287.98	17.069
288.35	18.935
288.72	17.604
289.08	17.277
289.45	15.533
289.82	16.717
290.19	17.385
290.56	17.746
290.93	17.404
291.29	15.840
291.66	16.116
292.03	16.147
292.40	18.503
292.77	16.038
293.13	15.562
293.50	15.112
293.87	16.510
294.24	17.333
294.60	16.688
294.97	13.557
295.34	15.621
295.71	14.754
296.08	14.341
296.44	15.441
296.81	15.469
297.18	14.695
297.55	14.033
297.91	13.760
298.28	13.744
298.65	14.150
299.02	14.640
299.38	15.332
299.75	14.019
300.12	14.468
300.48	14.055
300.85	14.848
301.22	13.982
301.59	14.041
301.95	15.028
302.32	14.333
302.69	14.677
303.05	13.711
303.42	14.080
303.79	13.958
304.15	12.723
304.52	13.848
304.89	13.508
305.25	12.526
305.62	14.734
305.99	13.196
306.35	13.710
306.72	13.340
307.09	12.081
307.45	13.975
307.82	13.522
308.19	13.421
308.55	13.886
308.92	13.048
309.29	13.218
309.65	13.353
310.02	13.168
310.38	12.992
310.75	14.175
311.12	12.943
311.48	11.535
311.85	12.536
312.22	12.524
312.58	13.709
312.95	13.193
313.31	13.911
313.68	13.278
314.05	14.544
314.41	12.842
314.78	14.714
315.14	14.247
315.51	13.389
315.87	13.591
316.24	14.338
316.61	14.654
316.97	12.941
317.34	12.963
317.70	13.712
318.07	14.550
318.43	13.265
318.80	13.796
319.16	13.305
319.53	12.339
319.89	13.059
320.26	12.633
320.62	13.032
320.99	13.573
321.35	12.847
321.72	14.326
322.08	13.526
322.45	13.279
322.81	13.267
323.18	12.212
323.54	14.310
323.91	14.235
324.27	12.478
324.64	13.686
325.00	13.516
325.37	13.268
325.73	12.975
326.10	13.463
326.46	14.007
326.83	13.531
327.19	13.701
327.56	13.281
327.92	12.903
328.29	12.984
328.65	12.479
329.01	13.452
329.38	13.564
329.74	14.384
330.11	13.870
330.47	13.395
330.84	12.661
331.20	14.083
331.56	11.872
331.93	13.305
332.29	12.119
332.66	13.621
333.02	12.228
333.38	14.010
333.75	13.300
334.11	14.345
334.48	13.449
334.84	14.019
335.20	13.602
335.57	14.418
335.93	14.628
336.29	13.062
336.66	12.700
337.02	12.960
337.38	12.925
337.75	13.058
338.11	12.868
338.47	13.648
338.84	12.944
339.20	12.047
339.56	13.180
339.93	13.465
340.29	13.285
340.65	12.490
341.02	13.567
341.38	13.177
341.74	12.107
342.11	12.792
342.47	12.629
342.83	12.882
343.20	13.573
343.56	12.510
343.92	13.131
344.28	12.109
344.65	13.101
345.01	13.495
345.37	12.908
345.73	12.003
346.10	12.715
346.46	12.737
346.82	12.509
347.19	12.681
347.55	12.671
347.91	11.738
348.27	12.747
348.63	13.404
349.00	12.975
349.36	13.086
349.72	13.170
350.08	13.076
350.45	12.091
350.81	12.217
351.17	12.406
351.53	12.130
351.89	12.832
352.26	12.612
352.62	13.134
352.98	11.527
353.34	12.621
353.70	12.481
354.07	13.338
354.43	11.997
354.79	13.014
355.15	12.656
355.51	12.354
355.87	12.117
356.24	11.863
356.60	12.417
356.96	12.750
357.32	12.565
357.68	12.445
358.04	12.425
358.40	11.493
358.77	13.158
359.13	12.186
359.49	10.929
359.85	11.893
360.21	11.908
360.57	11.127
360.93	12.271
361.29	11.509
361.66	12.093
362.02	13.570
362.38	12.228
362.74	12.081
363.10	12.724
363.46	12.050
363.82	11.790
364.18	11.400
364.54	12.379
364.90	12.843
365.26	11.103
365.62	12.800
365.98	11.981
366.35	12.081
366.71	12.313
367.07	12.246
367.43	12.344
367.79	12.409
368.15	12.977
368.51	12.314
368.87	12.476
369.23	12.200
369.59	12.705
369.95	11.562
370.31	12.019
370.67	12.792
371.03	11.981
371.39	10.947
371.75	11.692
372.11	11.653
372.47	11.307
372.83	14.005
373.19	12.008
373.55	11.789
373.91	11.520
374.27	11.966
374.63	12.314
374.99	11.737
375.35	12.143
375.71	12.452
376.07	11.685
376.42	12.217
376.78	13.114
377.14	12.040
377.50	11.701
377.86	12.623
378.22	12.515
378.58	11.712
378.94	12.559
379.30	11.716
379.66	12.228
380.02	11.829
380.38	12.097
380.74	12.338
381.09	12.137
381.45	12.955
381.81	11.183
382.17	12.708
382.53	12.690
382.89	12.641
383.25	12.251
383.61	12.095
383.97	12.544
384.32	12.739
384.68	11.949
385.04	12.261
385.40	12.787
385.76	12.603
386.12	12.208
386.48	12.824
386.83	12.455
387.19	12.630
387.55	12.559
387.91	11.929
388.27	12.760
388.62	12.199
388.98	12.690
389.34	12.905
389.70	12.435
390.06	12.789
390.42	11.928
390.77	13.064
391.13	12.500
391.49	12.923
391.85	12.242
392.20	11.981
392.56	12.581
392.92	13.468
393.28	12.438
393.64	13.296
393.99	13.364
394.35	12.675
394.71	12.695
395.07	11.796
395.42	12.964
395.78	13.589
396.14	13.310
396.50	11.936
396.85	12.582
397.21	13.077
397.57	13.310
397.92	12.600
398.28	12.656
398.64	12.586
399.00	12.094
399.35	12.565
399.71	13.043
400.07	12.409
400.42	12.049
400.78	12.153
401.14	12.863
401.49	12.848
401.85	12.267
402.21	13.094
402.57	13.850
402.92	12.589
403.28	12.412
403.63	12.709
403.99	13.005
404.35	12.905
404.70	13.371
405.06	12.446
405.42	12.939
405.77	12.541
406.13	13.020
406.49	13.119
406.84	12.853
407.20	13.248
407.55	11.750
407.91	12.445
408.27	12.780
408.62	13.031
408.98	12.188
409.34	12.199
409.69	12.979
410.05	12.837
410.40	13.283
410.76	12.900
411.11	13.501
411.47	12.961
411.83	14.109
412.18	13.494
412.54	12.745
412.89	12.573
413.25	12.867
413.60	12.579
413.96	13.112
414.31	13.314
414.67	13.298
415.03	12.738
415.38	12.989
415.74	12.889
416.09	13.510
416.45	13.400
416.80	12.791
417.16	12.963
417.51	14.010
417.87	13.489
418.22	12.994
418.58	12.887
418.93	13.912
419.29	12.824
419.64	12.305
420.00	13.412
420.35	13.083
420.71	13.153
421.06	13.514
421.42	13.016
421.77	12.332
422.12	13.478
422.48	13.364
422.83	13.363
423.19	13.210
423.54	13.053
423.90	12.535
424.25	12.960
424.61	12.572
424.96	12.960
425.31	13.482
425.67	12.560
426.02	14.001
426.38	13.318
426.73	12.444
427.09	13.437
427.44	13.162
427.79	13.212
428.15	12.842
428.50	13.427
428.85	12.801
429.21	13.511
429.56	13.425
429.92	13.612
430.27	13.253
430.62	14.167
430.98	13.281
431.33	13.050
431.68	13.170
432.04	14.119
432.39	12.319
432.74	13.527
433.10	13.575
433.45	12.598
433.80	13.197
434.16	13.688
434.51	13.566
434.86	14.007
435.22	13.656
435.57	13.856
435.92	13.578
436.28	13.766
436.63	13.381
436.98	12.829
437.34	13.698
437.69	13.429
438.04	13.644
438.39	13.728
438.75	13.448
439.10	13.848
439.45	13.807
439.81	12.938
440.16	13.298
440.51	13.824
440.86	13.341
441.22	13.880
441.57	13.889
441.92	13.143
442.27	13.586
442.63	13.462
442.98	13.981
443.33	13.309
443.68	13.677
444.03	13.688
444.39	13.685
444.74	13.425
445.09	14.344
445.44	14.015
445.79	13.410
446.15	14.029
446.50	14.160
446.85	14.008
447.20	14.120
447.55	13.389
447.91	14.031
448.26	13.372
448.61	13.496
448.96	13.841
449.31	13.786
449.66	13.399
450.02	14.030
450.37	14.012
450.72	13.294
451.07	13.838
451.42	13.634
451.77	13.285
452.12	14.278
452.47	13.428
452.83	13.401
453.18	12.960
453.53	13.498
453.88	13.860
454.23	13.672
454.58	13.755
454.93	12.925
455.28	13.787
455.63	14.213
455.98	14.022
456.34	13.369
456.69	12.816
457.04	13.712
457.39	13.858
457.74	13.870
458.09	13.125
458.44	14.062
458.79	12.893
459.14	13.424
459.49	13.922
459.84	13.903
460.19	12.937
460.54	14.083
460.89	13.764
461.24	13.563
461.59	14.721
461.94	13.120
462.29	14.222
462.64	13.639
462.99	13.183
463.34	14.147
463.69	13.892
464.04	14.008
464.39	13.677
464.74	13.968
465.09	14.302
465.44	13.627
465.79	13.802
466.14	13.497
466.49	13.789
466.84	14.160
467.19	13.642
467.54	13.102
467.89	13.276
468.24	13.573
468.59	12.855
468.94	13.170
469.29	13.677
469.64	14.177
469.99	13.576
470.34	13.800
470.68	13.397
471.03	14.276
471.38	13.538
471.73	13.329
472.08	13.769
472.43	13.847
472.78	13.791
473.13	13.085
473.48	14.139
473.83	14.568
474.17	13.716
474.52	14.432
474.87	13.953
475.22	14.535
475.57	13.448
475.92	13.589
476.27	14.164
476.61	14.123
476.96	13.452
477.31	14.307
477.66	14.376
478.01	13.523
478.36	13.360
478.70	13.547
479.05	14.622
479.40	13.574
479.75	14.361
480.10	14.117
480.45	13.582
480.79	14.104
481.14	13.971
481.49	13.312
481.84	14.578
482.19	13.591
482.53	14.254
482.88	14.222
483.23	13.828
483.58	13.755
483.92	13.431
484.27	14.183
484.62	13.490
484.97	14.230
485.31	13.516
485.66	12.854
486.01	13.315
486.36	13.547
486.70	14.322
487.05	14.323
487.40	14.186
487.75	14.453
488.09	13.300
488.44	13.564
488.79	14.030
489.13	13.686
489.48	13.515
489.83	13.602
490.17	13.892
490.52	13.998
490.87	13.748
491.22	13.345
491.56	13.865
491.91	14.130
492.26	14.236
492.60	13.817
492.95	13.734
493.30	14.567
493.64	14.017
493.99	14.167
494.34	12.892
494.68	13.490
495.03	13.436
495.37	13.937
495.72	13.696
496.07	14.067
496.41	14.157
496.76	14.345
497.11	13.928
497.45	13.552
497.80	14.260
498.14	13.560
498.49	13.787
498.84	14.260
499.18	13.990
499.53	14.126
499.87	14.374
500.22	13.045
500.56	13.765
500.91	13.638
501.26	14.045
501.60	13.964
501.95	13.851
502.29	13.778
502.64	13.730
502.98	14.193
503.33	13.391
503.67	13.650
504.02	13.835
504.36	14.164
504.71	13.964
505.06	13.552
505.40	13.665
505.75	13.479
506.09	13.904
506.44	13.649
506.78	14.541
507.13	13.923
507.47	13.264
507.82	13.731
508.16	14.101
508.51	13.502
508.85	13.085
509.19	13.548
509.54	14.169
509.88	14.133
510.23	14.473
510.57	14.113
510.92	14.756
511.26	14.141
511.61	13.423
511.95	14.300
512.30	14.870
512.64	13.893
512.98	13.757
513.33	13.810
513.67	13.666
514.02	13.848
514.36	14.527
514.70	13.906
515.05	13.191
515.39	13.648
515.74	14.687
516.08	14.369
516.42	14.495
516.77	14.669
517.11	13.254
517.46	13.945
517.80	14.110
518.14	14.146
518.49	13.829
518.83	14.369
519.17	14.216
519.52	14.465
519.86	14.414
520.20	14.324
520.55	14.184
520.89	13.908
521.23	13.791
521.58	14.633
521.92	13.541
522.26	14.318
522.61	14.641
522.95	13.437
523.29	13.851
523.64	14.182
523.98	14.832
524.32	15.014
524.66	14.058
525.01	13.760
525.35	14.015
525.69	14.443
526.04	13.433
526.38	14.368
526.72	14.994
527.06	14.721
527.41	14.752
527.75	14.311
528.09	14.640
528.43	14.802
528.78	13.353
529.12	14.564
529.46	13.828
529.80	14.016
530.15	14.435
530.49	13.938
530.83	14.227
531.17	14.875
531.51	14.801
531.86	13.702
532.20	14.756
532.54	14.303
532.88	14.182
533.22	14.319
533.57	14.195
533.91	14.366
534.25	13.906
534.59	14.310
534.93	13.922
535.27	14.873
535.62	13.985
535.96	15.340
536.30	14.512
536.64	14.234
536.98	14.330
537.32	14.383
537.66	14.722
538.01	14.199
538.35	14.982
538.69	14.062
539.03	14.899
539.37	14.605
539.71	14.294
540.05	13.849
540.39	14.548
540.73	14.147
541.07	13.611
541.42	13.585
541.76	14.591
542.10	13.872
542.44	13.520
542.78	14.659
543.12	13.528
543.46	15.140
543.80	14.029
544.14	13.944
544.48	15.426
544.82	13.944
545.16	14.371
545.50	13.661
545.84	14.881
546.18	15.556
546.52	13.885
546.86	14.088
547.20	14.758
547.54	14.045
547.88	14.045
548.22	13.918
548.56	15.214
548.90	13.731
549.24	14.650
549.58	13.565
549.92	14.923
550.26	15.275
550.60	14.359
550.94	15.201
551.28	14.389
551.62	14.690
551.96	13.916
552.30	15.360
552.64	14.250
552.98	14.660
553.32	14.727
553.66	15.048
554.00	13.871
554.34	13.964
554.68	14.655
555.02	14.192
555.36	15.122
555.69	13.645
556.03	13.997
556.37	15.019
556.71	14.014
557.05	14.760
557.39	15.129
557.73	14.597
558.07	14.570
558.41	14.485
558.75	14.334
559.08	14.753
559.42	14.129
559.76	15.536
560.10	14.468
560.44	14.776
560.78	15.500
561.12	14.224
561.45	14.964
561.79	14.286
562.13	14.356
562.47	14.488
562.81	14.367
563.15	15.152
563.48	13.984
563.82	14.933
564.16	14.476
564.50	15.077
564.84	13.746
565.17	14.706
565.51	14.327
565.85	14.311
566.19	14.343
566.52	14.277
566.86	15.054
567.20	14.247
567.54	14.180
567.88	15.240
568.21	14.279
568.55	15.252
568.89	14.753
569.23	15.082
569.56	14.537
569.90	14.683
570.24	14.570
570.57	15.170
570.91	14.574
571.25	14.319
571.59	14.361
571.92	14.392
572.26	14.770
572.60	14.196
572.93	14.306
573.27	14.358
573.61	14.479
573.95	14.882
574.28	14.693
574.62	14.347
574.96	14.270
575.29	14.475
575.63	14.391
575.97	14.228
576.30	13.817
576.64	14.269
576.98	14.601
577.31	14.630
577.65	14.424
577.98	14.288
578.32	14.801
578.66	14.625
578.99	14.397
579.33	14.340
579.67	14.189
580.00	14.071
580.34	14.529
580.67	14.144
581.01	14.063
581.35	14.378
581.68	14.641
582.02	14.723
582.35	14.814
582.69	14.523
583.02	14.465
583.36	14.767
583.70	14.633
584.03	14.087
584.37	14.392
584.70	14.034
585.04	14.229
585.37	14.163
585.71	15.146
586.04	14.663
586.38	14.949
586.72	14.064
587.05	13.968
587.39	14.361
587.72	14.593
588.06	15.039
588.39	14.937
588.73	14.444
589.06	14.814
589.40	14.874
589.73	14.428
590.07	14.489
590.40	14.841
590.73	14.705
591.07	14.929
591.40	14.813
591.74	14.189
592.07	14.860
592.41	13.998
592.74	14.483
593.08	14.904
593.41	15.311
593.75	14.454
594.08	15.298
594.41	15.000
594.75	14.779
595.08	14.838
595.42	14.513
595.75	14.433
596.09	14.537
596.42	15.192
596.75	15.206
597.09	14.949
597.42	14.700
597.75	14.543
598.09	14.524
598.42	15.078
598.76	14.177
599.09	14.810
599.42	15.085
599.76	14.823
600.09	14.715
600.42	15.015
600.76	14.597
601.09	14.437
601.42	14.487
601.76	14.483
602.09	14.796
602.42	14.286
602.76	14.613
603.09	15.051
603.42	14.559
603.76	14.764
604.09	15.295
604.42	15.450
604.76	14.878
605.09	15.078
605.42	15.072
605.75	14.577
606.09	14.558
606.42	14.885
606.75	14.130
607.09	14.862
607.42	14.566
607.75	14.889
608.08	14.878
608.42	14.672
608.75	14.677
609.08	14.686
609.41	15.307
609.75	14.152
610.08	14.688
610.41	15.378
610.74	14.496
611.07	14.698
611.41	15.247
611.74	14.965
612.07	15.007
612.40	14.354
612.73	14.914
613.07	14.866
613.40	14.581
613.73	14.251
614.06	14.966
614.39	14.140
614.72	14.750
615.06	14.437
615.39	14.016
615.72	14.265
616.05	14.910
616.38	14.834
616.71	14.368
617.05	13.845
617.38	15.142
617.71	14.741
618.04	14.949
618.37	15.191
618.70	15.045
619.03	13.859
619.36	14.365
619.69	14.350
620.03	14.313
620.36	14.172
620.69	14.744
621.02	15.092
621.35	14.877
621.68	14.461
622.01	15.231
622.34	14.505
622.67	14.708
623.00	13.833
623.33	14.798
623.66	15.305
623.99	14.286
624.32	15.724
624.65	14.157
624.99	15.085
625.32	15.807
625.65	14.565
625.98	14.983
626.31	15.237
626.64	15.604
626.97	13.953
627.30	14.503
627.63	14.779
627.96	15.390
628.29	15.486
628.62	13.518
628.95	14.023
629.28	13.679
629.61	14.226
629.94	14.226
630.26	14.576
630.59	14.076
630.92	14.113
631.25	14.669
631.58	15.913
631.91	14.339
632.24	13.929
632.57	14.326
632.90	13.541
633.23	14.592
633.56	14.694
633.89	14.669
