SpectraSuite Data File
++++++++++++++++++++++++++++++++++++
Date: Thu May 14 14:34:48 PDT 2015
User: schluterlab
Dark Spectrum Present: Yes
Reference Spectrum Present: Yes
Number of Sampled Component Spectra: 1
Spectrometers: USB2E3373
Integration Time (usec): 3000 (USB2E3373)
Spectra Averaged: 3 (USB2E3373)
Boxcar Smoothing: 0 (USB2E3373)
Correct for Electrical Dark: No (USB2E3373)
Strobe/Lamp Enabled: No (USB2E3373)
Correct for Detector Non-linearity: No (USB2E3373)
Correct for Stray Light: No (USB2E3373)
Number of Pixels in Processed Spectrum: 2048
>>>>>Begin Processed Spectral Data<<<<<
178.53	0.000
178.91	-157.143
179.29	1300.000
179.67	900.000
180.04	-0.000
180.42	-270.000
180.80	-340.000
181.18	1300.000
181.56	2000.000
181.94	-375.000
182.31	700.000
182.69	-600.000
183.07	1250.000
183.45	-450.000
183.83	350.000
184.20	733.333
184.58	-2100.000
184.96	425.000
185.34	166.667
185.72	460.000
186.09	-133.333
186.47	-400.000
186.85	-420.000
187.23	200.000
187.61	1400.000
187.98	-340.000
188.36	-400.000
188.74	275.000
189.12	433.333
189.49	100.000
189.87	200.000
190.25	288.889
190.63	300.000
191.00	177.778
191.38	0.000
191.76	375.000
192.14	183.333
192.51	-500.000
192.89	450.000
193.27	0.000
193.65	228.571
194.02	1100.000
194.40	285.714
194.78	-228.571
195.15	0.000
195.53	163.636
195.91	0.000
196.29	575.000
196.66	146.154
197.04	800.000
197.42	342.857
197.79	500.000
198.17	137.500
198.55	385.714
198.92	233.333
199.30	225.000
199.68	218.182
200.05	214.286
200.43	900.000
200.81	-171.429
201.18	0.000
201.56	-111.111
201.94	0.000
202.31	-500.000
202.69	122.222
203.07	-3000.000
203.44	288.889
203.82	350.000
204.19	200.000
204.57	466.667
204.95	237.500
205.32	1900.000
205.70	-425.000
206.08	416.667
206.45	366.667
206.83	-200.000
207.20	316.667
207.58	300.000
207.96	183.333
208.33	283.333
208.71	-83.333
209.08	350.000
209.46	0.000
209.84	-166.667
210.21	-1400.000
210.59	-1050.000
210.96	-600.000
211.34	450.000
211.71	212.500
212.09	2000.000
212.46	0.000
212.84	-500.000
213.22	100.000
213.59	675.000
213.97	180.000
214.34	833.333
214.72	-133.333
215.09	250.000
215.47	0.000
215.84	-228.571
216.22	-1150.000
216.59	480.000
216.97	360.000
217.34	700.000
217.72	287.500
218.09	500.000
218.47	375.000
218.84	0.000
219.22	-440.000
219.59	129.412
219.97	105.000
220.34	-600.000
220.72	188.889
221.09	215.385
221.47	566.667
221.84	120.000
222.22	285.714
222.59	0.000
222.97	337.500
223.34	220.000
223.72	1400.000
224.09	350.000
224.46	425.000
224.84	660.000
225.21	271.429
225.59	475.000
225.96	575.000
226.34	96.154
226.71	-66.667
227.08	1200.000
227.46	140.000
227.83	475.000
228.21	110.526
228.58	-325.000
228.95	-850.000
229.33	283.333
229.70	180.000
230.08	157.895
230.45	-200.000
230.82	966.667
231.20	171.429
231.57	258.333
231.95	181.818
232.32	163.636
232.69	155.000
233.07	450.000
233.44	100.000
233.81	150.000
234.19	127.778
234.56	109.091
234.93	100.000
235.31	73.684
235.68	122.222
236.05	90.000
236.43	119.231
236.80	128.000
237.17	81.481
237.55	78.788
237.92	190.000
238.29	109.677
238.67	52.273
239.04	66.667
239.41	40.476
239.79	67.391
240.16	40.741
240.53	43.478
240.91	41.176
241.28	52.459
241.65	61.194
242.02	62.162
242.40	35.385
242.77	49.333
243.14	52.439
243.51	48.684
243.89	41.026
244.26	39.604
244.63	36.275
245.00	34.579
245.38	33.333
245.75	31.858
246.12	36.508
246.49	28.682
246.87	35.000
247.24	33.113
247.61	34.868
247.98	34.899
248.36	25.926
248.73	29.448
249.10	28.962
249.47	35.323
249.84	30.890
250.22	27.979
250.59	27.222
250.96	27.273
251.33	25.510
251.70	28.205
252.08	31.667
252.45	24.590
252.82	27.686
253.19	24.609
253.56	26.616
253.94	25.385
254.31	26.136
254.68	29.371
255.05	28.339
255.42	25.510
255.79	23.625
256.16	24.172
256.54	22.185
256.91	26.885
257.28	26.885
257.65	25.796
258.02	22.124
258.39	23.077
258.76	26.606
259.14	25.287
259.51	27.089
259.88	22.663
260.25	24.722
260.62	24.110
260.99	27.049
261.36	24.397
261.73	23.342
262.10	22.802
262.47	20.912
262.85	25.253
263.22	22.338
263.59	16.842
263.96	24.297
264.33	18.926
264.70	26.914
265.07	26.492
265.44	26.531
265.81	21.528
266.18	23.356
266.55	20.759
266.92	19.818
267.29	23.851
267.66	23.282
268.03	23.144
268.40	22.129
268.77	23.007
269.14	20.925
269.51	25.219
269.88	23.770
270.25	22.736
270.62	25.738
270.99	24.444
271.36	21.782
271.73	22.397
272.10	22.846
272.47	20.040
272.84	23.695
273.21	21.844
273.58	22.177
273.95	20.962
274.32	20.913
274.69	21.083
275.06	23.993
275.43	20.702
275.80	22.046
276.17	20.000
276.54	21.455
276.91	21.646
277.28	22.966
277.65	22.262
278.02	22.610
278.39	20.833
278.76	22.320
279.13	19.681
279.50	23.711
279.87	21.109
280.23	18.838
280.60	22.034
280.97	21.711
281.34	19.015
281.71	21.151
282.08	19.934
282.45	20.786
282.82	20.565
283.19	19.225
283.56	21.311
283.92	20.571
284.29	24.171
284.66	19.869
285.03	18.590
285.40	20.093
285.77	20.433
286.14	18.931
286.51	19.026
286.87	19.273
287.24	19.729
287.61	20.777
287.98	18.429
288.35	20.710
288.72	19.675
289.08	20.791
289.45	17.160
289.82	17.922
290.19	18.822
290.56	19.296
290.93	17.546
291.29	18.457
291.66	17.355
292.03	18.182
292.40	19.456
292.77	17.116
293.13	18.674
293.50	16.163
293.87	19.060
294.24	19.333
294.60	16.814
294.97	17.047
295.34	18.950
295.71	16.520
296.08	17.959
296.44	18.260
296.81	17.783
297.18	19.178
297.55	16.863
297.91	15.896
298.28	15.995
298.65	17.717
299.02	16.057
299.38	17.391
299.75	16.706
300.12	14.931
300.48	17.166
300.85	16.648
301.22	16.779
301.59	16.438
301.95	16.836
302.32	17.444
302.69	15.444
303.05	15.996
303.42	16.408
303.79	17.083
304.15	14.511
304.52	16.596
304.89	15.916
305.25	16.563
305.62	15.778
305.99	16.392
306.35	15.927
306.72	17.270
307.09	17.056
307.45	16.667
307.82	16.448
308.19	15.843
308.55	17.068
308.92	16.553
309.29	17.433
309.65	16.764
310.02	17.822
310.38	16.732
310.75	17.573
311.12	19.175
311.48	17.595
311.85	17.379
312.22	16.888
312.58	17.277
312.95	17.973
313.31	17.254
313.68	18.681
314.05	19.874
314.41	19.035
314.78	18.801
315.14	19.510
315.51	19.945
315.87	19.892
316.24	19.817
316.61	21.847
316.97	18.824
317.34	20.194
317.70	21.135
318.07	20.988
318.43	20.918
318.80	21.990
319.16	20.429
319.53	20.994
319.89	20.771
320.26	21.886
320.62	21.099
320.99	22.530
321.35	23.198
321.72	24.651
322.08	23.264
322.45	24.661
322.81	23.375
323.18	23.982
323.54	23.879
323.91	24.466
324.27	25.215
324.64	24.517
325.00	23.881
325.37	24.079
325.73	25.620
326.10	25.547
326.46	25.081
326.83	26.021
327.19	25.512
327.56	25.929
327.92	26.121
328.29	26.452
328.65	26.549
329.01	27.242
329.38	27.548
329.74	28.596
330.11	28.082
330.47	27.127
330.84	27.046
331.20	28.250
331.56	27.643
331.93	27.364
332.29	27.203
332.66	28.405
333.02	27.806
333.38	28.020
333.75	29.125
334.11	27.857
334.48	28.218
334.84	29.227
335.20	28.044
335.57	28.752
335.93	28.678
336.29	27.953
336.66	28.007
337.02	28.679
337.38	29.507
337.75	29.339
338.11	28.427
338.47	29.032
338.84	28.003
339.20	28.054
339.56	28.583
339.93	29.228
340.29	28.422
340.65	28.710
341.02	29.609
341.38	30.073
341.74	28.329
342.11	29.847
342.47	28.435
342.83	28.744
343.20	29.354
343.56	29.270
343.92	28.983
344.28	29.141
344.65	29.690
345.01	29.017
345.37	29.160
345.73	28.059
346.10	28.705
346.46	29.351
346.82	29.139
347.19	28.571
347.55	29.363
347.91	28.380
348.27	29.439
348.63	28.941
349.00	28.561
349.36	29.442
349.72	28.646
350.08	29.643
350.45	28.593
350.81	29.412
351.17	29.624
351.53	29.265
351.89	30.144
352.26	29.552
352.62	28.881
352.98	29.160
353.34	28.529
353.70	30.586
354.07	29.136
354.43	28.702
354.79	29.993
355.15	28.845
355.51	30.117
355.87	29.469
356.24	30.038
356.60	29.416
356.96	30.541
357.32	28.699
357.68	29.429
358.04	28.967
358.40	30.149
358.77	28.947
359.13	28.804
359.49	28.550
359.85	28.934
360.21	29.770
360.57	28.212
360.93	29.972
361.29	29.965
361.66	29.399
362.02	29.367
362.38	29.796
362.74	30.377
363.10	30.193
363.46	29.986
363.82	29.688
364.18	30.190
364.54	31.259
364.90	30.769
365.26	30.345
365.62	30.667
365.98	30.769
366.35	29.799
366.71	31.701
367.07	30.447
367.43	30.860
367.79	31.453
368.15	30.702
368.51	31.394
368.87	30.568
369.23	32.333
369.59	31.899
369.95	32.590
370.31	31.128
370.67	31.843
371.03	31.510
371.39	31.498
371.75	33.012
372.11	31.911
372.47	32.431
372.83	32.461
373.19	31.288
373.55	31.978
373.91	31.970
374.27	32.406
374.63	32.815
374.99	32.560
375.35	33.312
375.71	33.097
376.07	33.957
376.42	33.123
376.78	33.996
377.14	33.500
377.50	34.788
377.86	34.298
378.22	34.192
378.58	34.364
378.94	34.331
379.30	33.802
379.66	34.568
380.02	34.334
380.38	35.772
380.74	35.493
381.09	35.540
381.45	34.602
381.81	36.007
382.17	36.639
382.53	35.614
382.89	34.932
383.25	36.284
383.61	36.343
383.97	37.044
384.32	37.799
384.68	35.847
385.04	37.536
385.40	37.714
385.76	38.218
386.12	37.822
386.48	38.294
386.83	39.333
387.19	37.659
387.55	38.380
387.91	38.242
388.27	39.203
388.62	39.633
388.98	38.579
389.34	39.776
389.70	39.396
390.06	39.313
390.42	39.458
390.77	39.554
391.13	39.437
391.49	41.244
391.85	40.303
392.20	40.154
392.56	41.110
392.92	40.785
393.28	41.736
393.64	41.341
393.99	41.313
394.35	41.121
394.71	42.156
395.07	41.976
395.42	40.662
395.78	43.388
396.14	42.068
396.50	41.983
396.85	42.815
397.21	42.249
397.57	42.580
397.92	41.695
398.28	41.988
398.64	42.620
399.00	41.466
399.35	42.827
399.71	42.337
400.07	43.122
400.42	43.946
400.78	44.271
401.14	44.565
401.49	45.082
401.85	44.244
402.21	44.148
402.57	45.070
402.92	43.735
403.28	45.258
403.63	44.630
403.99	45.012
404.35	43.263
404.70	43.683
405.06	43.750
405.42	44.555
405.77	44.384
406.13	44.787
406.49	44.932
406.84	45.208
407.20	45.277
407.55	46.517
407.91	44.940
408.27	44.994
408.62	46.539
408.98	46.198
409.34	45.572
409.69	45.921
410.05	46.424
410.40	46.868
410.76	46.551
411.11	45.996
411.47	45.885
411.83	46.561
412.18	47.048
412.54	46.414
412.89	47.031
413.25	46.501
413.60	46.640
413.96	47.261
414.31	47.819
414.67	46.750
415.03	47.446
415.38	47.919
415.74	47.098
416.09	48.550
416.45	47.276
416.80	47.919
417.16	49.298
417.51	47.323
417.87	48.191
418.22	48.383
418.58	50.186
418.93	48.545
419.29	48.644
419.64	48.559
420.00	49.199
420.35	48.961
420.71	48.995
421.06	48.361
421.42	49.541
421.77	48.250
422.12	48.784
422.48	49.514
422.83	50.055
423.19	49.602
423.54	50.387
423.90	49.917
424.25	50.773
424.61	50.172
424.96	50.247
425.31	51.699
425.67	49.705
426.02	51.134
426.38	50.057
426.73	49.888
427.09	51.384
427.44	50.300
427.79	51.189
428.15	50.571
428.50	51.742
428.85	51.378
429.21	51.436
429.56	51.579
429.92	50.909
430.27	51.855
430.62	51.539
430.98	51.697
431.33	51.026
431.68	50.335
432.04	52.565
432.39	53.669
432.74	52.112
433.10	53.542
433.45	52.731
433.80	53.648
434.16	53.461
434.51	54.265
434.86	53.312
435.22	54.038
435.57	54.363
435.92	53.311
436.28	54.096
436.63	55.052
436.98	54.106
437.34	54.735
437.69	53.880
438.04	54.363
438.39	53.647
438.75	54.953
439.10	55.708
439.45	54.947
439.81	54.068
440.16	54.424
440.51	54.404
440.86	54.753
441.22	54.555
441.57	55.870
441.92	55.092
442.27	56.111
442.63	54.694
442.98	55.710
443.33	54.655
443.68	55.699
444.03	55.738
444.39	55.710
444.74	56.151
445.09	54.232
445.44	56.006
445.79	55.939
446.15	56.732
446.50	57.158
446.85	56.858
447.20	55.609
447.55	56.433
447.91	56.911
448.26	56.237
448.61	57.226
448.96	57.994
449.31	55.779
449.66	57.353
450.02	57.331
450.37	56.633
450.72	57.643
451.07	57.859
451.42	57.943
451.77	56.198
452.12	58.409
452.47	57.160
452.83	60.304
453.18	57.560
453.53	58.530
453.88	57.151
454.23	57.853
454.58	58.909
454.93	57.464
455.28	59.904
455.63	58.613
455.98	57.821
456.34	58.775
456.69	57.848
457.04	58.924
457.39	59.257
457.74	59.172
458.09	58.869
458.44	60.022
458.79	56.782
459.14	57.682
459.49	60.215
459.84	59.549
460.19	57.190
460.54	60.136
460.89	59.714
461.24	59.540
461.59	59.380
461.94	57.958
462.29	60.078
462.64	60.350
462.99	60.326
463.34	62.687
463.69	59.203
464.04	59.811
464.39	59.922
464.74	59.920
465.09	59.919
465.44	59.710
465.79	59.387
466.14	60.240
466.49	61.368
466.84	61.047
467.19	61.445
467.54	59.929
467.89	60.287
468.24	61.108
468.59	61.610
468.94	60.315
469.29	60.528
469.64	61.920
469.99	62.014
470.34	61.510
470.68	63.090
471.03	62.737
471.38	62.132
471.73	63.524
472.08	62.056
472.43	62.312
472.78	62.280
473.13	63.274
473.48	62.961
473.83	63.320
474.17	62.192
474.52	63.379
474.87	62.126
475.22	62.873
475.57	61.630
475.92	62.320
476.27	61.661
476.61	62.098
476.96	61.679
477.31	61.782
477.66	63.221
478.01	63.294
478.36	62.014
478.70	62.857
479.05	61.912
479.40	63.722
479.75	62.728
480.10	62.293
480.45	62.580
480.79	62.494
481.14	61.949
481.49	62.472
481.84	63.011
482.19	63.054
482.53	62.877
482.88	64.289
483.23	63.495
483.58	63.057
483.92	61.835
484.27	62.786
484.62	62.252
484.97	62.208
485.31	62.091
485.66	59.870
486.01	57.729
486.36	57.998
486.70	58.687
487.05	59.489
487.40	60.065
487.75	61.603
488.09	61.792
488.44	61.005
488.79	61.686
489.13	63.034
489.48	63.068
489.83	62.616
490.17	62.535
490.52	62.521
490.87	64.213
491.22	64.428
491.56	63.055
491.91	63.367
492.26	63.219
492.60	64.145
492.95	64.107
493.30	62.752
493.64	63.732
493.99	63.377
494.34	63.197
494.68	62.955
495.03	63.568
495.37	64.137
495.72	62.449
496.07	64.505
496.41	63.192
496.76	64.929
497.11	65.435
497.45	64.437
497.80	63.616
498.14	64.308
498.49	64.844
498.84	65.539
499.18	64.417
499.53	64.888
499.87	65.143
500.22	64.826
500.56	64.687
500.91	65.217
501.26	65.364
501.60	64.074
501.95	63.526
502.29	64.765
502.64	65.501
502.98	64.452
503.33	64.622
503.67	65.373
504.02	64.842
504.36	65.192
504.71	65.044
505.06	65.211
505.40	65.494
505.75	64.481
506.09	65.884
506.44	65.785
506.78	66.330
507.13	64.776
507.47	66.414
507.82	65.720
508.16	65.822
508.51	64.557
508.85	66.415
509.19	65.656
509.54	66.811
509.88	65.372
510.23	67.460
510.57	68.004
510.92	67.973
511.26	65.897
511.61	65.862
511.95	66.130
512.30	66.617
512.64	66.417
512.98	66.783
513.33	67.994
513.67	66.803
514.02	68.012
514.36	68.286
514.70	67.969
515.05	68.196
515.39	66.929
515.74	68.346
516.08	68.568
516.42	67.399
516.77	69.664
517.11	67.354
517.46	68.346
517.80	69.375
518.14	68.607
518.49	68.872
518.83	68.654
519.17	67.959
519.52	68.239
519.86	68.110
520.20	68.264
520.55	68.237
520.89	69.876
521.23	68.788
521.58	70.452
521.92	69.008
522.26	68.729
522.61	70.255
522.95	69.493
523.29	69.540
523.64	69.395
523.98	69.481
524.32	71.576
524.66	69.266
525.01	68.233
525.35	68.696
525.69	68.735
526.04	69.346
526.38	70.575
526.72	68.570
527.06	70.088
527.41	70.554
527.75	69.774
528.09	68.654
528.43	69.805
528.78	68.786
529.12	68.406
529.46	68.915
529.80	68.593
530.15	68.406
530.49	69.632
530.83	69.067
531.17	69.952
531.51	70.337
531.86	69.712
532.20	70.244
532.54	68.462
532.88	69.333
533.22	68.356
533.57	68.956
533.91	68.126
534.25	68.231
534.59	69.885
534.93	68.081
535.27	70.366
535.62	68.732
535.96	70.017
536.30	69.389
536.64	70.450
536.98	68.389
537.32	69.506
537.66	70.368
538.01	68.520
538.35	69.001
538.69	68.750
539.03	69.528
539.37	68.728
539.71	67.628
540.05	67.926
540.39	67.971
540.73	67.517
541.07	68.608
541.42	67.750
541.76	68.090
542.10	69.180
542.44	69.062
542.78	69.039
543.12	68.474
543.46	68.132
543.80	67.926
544.14	68.282
544.48	68.853
544.82	68.522
545.16	67.919
545.50	67.406
545.84	67.912
546.18	68.827
546.52	69.172
546.86	68.679
547.20	69.466
547.54	67.790
547.88	67.993
548.22	67.310
548.56	68.695
548.90	68.060
549.24	68.511
549.58	69.085
549.92	69.260
550.26	68.673
550.60	67.645
550.94	69.405
551.28	68.449
551.62	70.889
551.96	67.055
552.30	67.368
552.64	68.699
552.98	68.996
553.32	69.518
553.66	68.682
554.00	68.789
554.34	67.246
554.68	68.044
555.02	68.791
555.36	69.034
555.69	66.816
556.03	67.654
556.37	69.587
556.71	68.484
557.05	68.498
557.39	69.808
557.73	69.089
558.07	69.073
558.41	68.571
558.75	68.357
559.08	68.824
559.42	68.999
559.76	68.725
560.10	68.855
560.44	68.668
560.78	68.688
561.12	67.426
561.45	67.032
561.79	67.460
562.13	68.022
562.47	65.906
562.81	67.658
563.15	67.109
563.48	67.806
563.82	67.715
564.16	67.111
564.50	67.223
564.84	67.139
565.17	66.353
565.51	66.283
565.85	67.221
566.19	65.495
566.52	67.525
566.86	66.384
567.20	65.035
567.54	65.428
567.88	65.800
568.21	65.958
568.55	63.885
568.89	65.320
569.23	63.498
569.56	63.111
569.90	61.832
570.24	62.327
570.57	62.059
570.91	60.747
571.25	59.763
571.59	60.534
571.92	60.341
572.26	59.688
572.60	59.623
572.93	60.423
573.27	60.607
573.61	60.376
573.95	58.898
574.28	58.935
574.62	59.368
574.96	58.094
575.29	57.876
575.63	59.067
575.97	59.401
576.30	58.574
576.64	59.270
576.98	58.815
577.31	58.563
577.65	58.976
577.98	57.605
578.32	57.253
578.66	57.482
578.99	57.710
579.33	58.737
579.67	58.205
580.00	59.204
580.34	58.595
580.67	58.120
581.01	58.157
581.35	57.686
581.68	58.190
582.02	57.036
582.35	57.876
582.69	57.971
583.02	58.400
583.36	58.903
583.70	58.964
584.03	58.699
584.37	58.924
584.70	58.509
585.04	58.452
585.37	58.308
585.71	57.497
586.04	58.278
586.38	58.124
586.72	58.461
587.05	59.683
587.39	58.514
587.72	58.780
588.06	58.801
588.39	59.223
588.73	58.757
589.06	59.735
589.40	60.910
589.73	60.347
590.07	60.312
590.40	60.446
590.73	61.152
591.07	60.797
591.40	60.459
591.74	61.884
592.07	60.861
592.41	60.726
592.74	58.928
593.08	59.459
593.41	59.988
593.75	59.684
594.08	59.800
594.41	59.776
594.75	58.652
595.08	59.320
595.42	60.065
595.75	58.896
596.09	60.251
596.42	61.233
596.75	61.714
597.09	61.899
597.42	60.707
597.75	60.760
598.09	61.071
598.42	61.359
598.76	59.457
599.09	60.128
599.42	59.001
599.76	58.765
600.09	59.193
600.42	58.692
600.76	58.950
601.09	58.712
601.42	59.183
601.76	59.448
602.09	59.828
602.42	59.251
602.76	59.742
603.09	59.692
603.42	60.802
603.76	59.796
604.09	61.888
604.42	59.486
604.76	59.132
605.09	61.388
605.42	60.407
605.75	59.769
606.09	58.865
606.42	59.066
606.75	58.583
607.09	59.985
607.42	59.422
607.75	59.594
608.08	59.747
608.42	59.492
608.75	59.743
609.08	59.890
609.41	60.256
609.75	60.580
610.08	61.785
610.41	61.172
610.74	59.748
611.07	60.568
611.41	60.942
611.74	60.970
612.07	61.618
612.40	61.502
612.73	61.271
613.07	62.054
613.40	61.405
613.73	62.638
614.06	61.874
614.39	60.884
614.72	59.971
615.06	60.491
615.39	61.141
615.72	60.332
616.05	61.195
616.38	62.159
616.71	62.330
617.05	62.087
617.38	62.761
617.71	61.879
618.04	63.303
618.37	62.131
618.70	62.500
619.03	62.664
619.36	63.995
619.69	64.702
620.03	64.470
620.36	63.497
620.69	63.726
621.02	65.551
621.35	68.795
621.68	66.305
622.01	65.338
622.34	63.110
622.67	66.186
623.00	63.360
623.33	64.035
623.66	64.527
623.99	64.055
624.32	64.847
624.65	63.578
624.99	64.304
625.32	65.186
625.65	65.408
625.98	64.949
626.31	65.556
626.64	65.348
626.97	66.092
627.30	64.692
627.63	65.041
627.96	66.441
628.29	66.615
628.62	68.094
628.95	68.186
629.28	67.969
629.61	68.434
629.94	67.950
630.26	66.864
630.59	68.566
630.92	67.359
631.25	70.394
631.58	69.868
631.91	69.541
632.24	70.221
632.57	69.165
