SpectraSuite Data File
++++++++++++++++++++++++++++++++++++
Date: Thu May 14 15:04:17 PDT 2015
User: schluterlab
Dark Spectrum Present: Yes
Reference Spectrum Present: Yes
Number of Sampled Component Spectra: 1
Spectrometers: USB2E3373
Integration Time (usec): 3000 (USB2E3373)
Spectra Averaged: 3 (USB2E3373)
Boxcar Smoothing: 0 (USB2E3373)
Correct for Electrical Dark: No (USB2E3373)
Strobe/Lamp Enabled: No (USB2E3373)
Correct for Detector Non-linearity: No (USB2E3373)
Correct for Stray Light: No (USB2E3373)
Number of Pixels in Processed Spectrum: 2048
>>>>>Begin Processed Spectral Data<<<<<
178.53	0.000
178.91	342.857
179.29	-3600.000
179.67	-2600.000
180.04	278.571
180.42	160.000
180.80	620.000
181.18	-2500.000
181.56	-1800.000
181.94	775.000
182.31	-575.000
182.69	1066.667
183.07	-1150.000
183.45	675.000
183.83	-416.667
184.20	-466.667
184.58	2600.000
184.96	-675.000
185.34	-266.667
185.72	-340.000
186.09	366.667
186.47	1700.000
186.85	740.000
187.23	-311.111
187.61	-3400.000
187.98	660.000
188.36	525.000
188.74	-675.000
189.12	-433.333
189.49	-106.250
189.87	-337.500
190.25	-311.111
190.63	-420.000
191.00	-244.444
191.38	0.000
191.76	-950.000
192.14	-316.667
192.51	1400.000
192.89	-266.667
193.27	0.000
193.65	-314.286
194.02	-3500.000
194.40	-328.571
194.78	414.286
195.15	0.000
195.53	-181.818
195.91	0.000
196.29	-600.000
196.66	-153.846
197.04	-2300.000
197.42	-328.571
197.79	-1400.000
198.17	-300.000
198.55	-357.143
198.92	-277.778
199.30	-350.000
199.68	-145.455
200.05	-135.714
200.43	-1300.000
200.81	371.429
201.18	0.000
201.56	411.111
201.94	0.000
202.31	1000.000
202.69	-333.333
203.07	2800.000
203.44	-244.444
203.82	-650.000
204.19	-200.000
204.57	-416.667
204.95	-225.000
205.32	-2100.000
205.70	725.000
206.08	-483.333
206.45	-283.333
206.83	600.000
207.20	-466.667
207.58	-560.000
207.96	-616.667
208.33	-166.667
208.71	308.333
209.08	-400.000
209.46	0.000
209.84	550.000
210.21	1050.000
210.59	1400.000
210.96	1033.333
211.34	-350.000
211.71	-287.500
212.09	-2200.000
212.46	0.000
212.84	1650.000
213.22	-640.000
213.59	-600.000
213.97	-200.000
214.34	-1033.333
214.72	416.667
215.09	-600.000
215.47	0.000
215.84	357.143
216.22	1550.000
216.59	-260.000
216.97	-460.000
217.34	-625.000
217.72	-225.000
218.09	-750.000
218.47	-900.000
218.84	0.000
219.22	400.000
219.59	-111.765
219.97	-100.000
220.34	1650.000
220.72	-288.889
221.09	-146.154
221.47	-766.667
221.84	-190.000
222.22	-328.571
222.59	0.000
222.97	-325.000
223.34	-640.000
223.72	-2300.000
224.09	-500.000
224.46	-675.000
224.84	-460.000
225.21	-300.000
225.59	-575.000
225.96	-600.000
226.34	-65.385
226.71	600.000
227.08	-1550.000
227.46	-113.333
227.83	-575.000
228.21	-105.263
228.58	425.000
228.95	1650.000
229.33	-116.667
229.70	-200.000
230.08	-21.053
230.45	290.000
230.82	-533.333
231.20	-178.571
231.57	-150.000
231.95	-272.727
232.32	-245.455
232.69	-70.000
233.07	-650.000
233.44	-152.941
233.81	-340.000
234.19	-100.000
234.56	-113.636
234.93	-48.276
235.31	-115.789
235.68	-138.889
236.05	-125.000
236.43	-61.538
236.80	-56.000
237.17	-66.667
237.55	-51.515
237.92	-290.000
238.29	-51.613
238.67	-40.909
239.04	-72.222
239.41	-66.667
239.79	-54.348
240.16	-48.148
240.53	-36.957
240.91	-58.824
241.28	-45.902
241.65	-26.866
242.02	-21.622
242.40	-32.308
242.77	-42.667
243.14	-18.293
243.51	-42.105
243.89	-30.769
244.26	-15.842
244.63	-14.706
245.00	-23.364
245.38	-23.684
245.75	-26.549
246.12	-10.317
246.49	-20.155
246.87	-8.571
247.24	-10.596
247.61	-8.553
247.98	-12.752
248.36	-14.815
248.73	-17.791
249.10	-7.650
249.47	-9.950
249.84	-3.665
250.22	-5.699
250.59	-3.333
250.96	-3.636
251.33	-14.796
251.70	-3.419
252.08	-4.583
252.45	-4.098
252.82	-6.612
253.19	-6.250
253.56	-5.323
253.94	-8.077
254.31	-7.197
254.68	-4.196
255.05	-2.280
255.42	-5.442
255.79	-8.414
256.16	-7.616
256.54	-4.967
256.91	-4.590
257.28	-3.934
257.65	-7.325
258.02	-3.540
258.39	-5.983
258.76	-1.835
259.14	-0.862
259.51	-6.340
259.88	-4.533
260.25	-1.389
260.62	-4.110
260.99	-3.005
261.36	0.804
261.73	-2.653
262.10	-5.495
262.47	-2.413
262.85	0.505
263.22	-1.818
263.59	-6.316
263.96	-1.279
264.33	-5.371
264.70	-2.963
265.07	0.000
265.44	0.907
265.81	-1.852
266.18	-0.227
266.55	-2.902
266.92	-4.100
267.29	-0.438
267.66	-1.774
268.03	-1.528
268.40	-1.044
268.77	-3.189
269.14	-4.185
269.51	-2.193
269.88	-2.869
270.25	1.006
270.62	-0.211
270.99	-0.202
271.36	-0.792
271.73	-0.393
272.10	-0.601
272.47	-3.006
272.84	-0.602
273.21	-0.200
273.58	-0.806
273.95	-0.769
274.32	-0.380
274.69	-1.161
275.06	0.183
275.43	-2.773
275.80	1.235
276.17	-2.407
276.54	-1.306
276.91	-2.504
277.28	-0.723
277.65	-0.359
278.02	-1.838
278.39	-1.993
278.76	-3.339
279.13	-0.709
279.50	0.172
279.87	-0.179
280.23	-2.993
280.60	-0.678
280.97	0.329
281.34	-3.056
281.71	-0.169
282.08	-1.661
282.45	-2.455
282.82	-1.884
283.19	-1.292
283.56	-2.623
283.92	1.952
284.29	1.422
284.66	-0.328
285.03	-1.603
285.40	0.155
285.77	-1.393
286.14	1.069
286.51	-0.152
286.87	-1.106
287.24	-0.452
287.61	-1.495
287.98	-0.151
288.35	-0.592
288.72	-0.444
289.08	0.293
289.45	-1.775
289.82	-0.452
290.19	-1.868
290.56	0.986
290.93	-0.571
291.29	0.413
291.66	-0.275
292.03	-1.628
292.40	1.088
292.77	-0.809
293.13	0.135
293.50	-1.577
293.87	-1.074
294.24	0.667
294.60	1.770
294.97	-1.074
295.34	0.256
295.71	1.387
296.08	0.000
296.44	0.980
296.81	0.244
297.18	-0.747
297.55	0.472
297.91	0.712
298.28	-0.592
298.65	-0.595
299.02	-0.236
299.38	0.114
299.75	0.467
300.12	0.000
300.48	0.000
300.85	1.800
301.22	1.119
301.59	0.457
301.95	0.339
302.32	1.000
302.69	0.548
303.05	0.653
303.42	1.220
303.79	0.625
304.15	0.946
304.52	0.211
304.89	1.361
305.25	1.553
305.62	0.940
305.99	1.546
306.35	0.302
306.72	0.931
307.09	0.305
307.45	1.656
307.82	1.211
308.19	0.908
308.55	1.254
308.92	1.168
309.29	1.916
309.65	1.267
310.02	1.386
310.38	2.559
310.75	1.553
311.12	1.726
311.48	0.880
311.85	1.994
312.22	1.708
312.58	2.066
312.95	1.912
313.31	2.891
313.68	3.663
314.05	4.065
314.41	4.098
314.78	3.088
315.14	4.537
315.51	3.878
315.87	4.950
316.24	4.566
316.61	6.128
316.97	3.982
317.34	3.792
317.70	5.502
318.07	4.321
318.43	5.612
318.80	5.769
319.16	4.979
319.53	4.884
319.89	5.259
320.26	6.495
320.62	5.230
320.99	6.094
321.35	6.839
321.72	7.907
322.08	5.861
322.45	6.865
322.81	6.047
323.18	6.195
323.54	6.897
323.91	7.473
324.27	6.627
324.64	8.312
325.00	7.380
325.37	8.190
325.73	7.851
326.10	9.165
326.46	9.039
326.83	9.207
327.19	9.370
327.56	9.960
327.92	10.228
328.29	9.677
328.65	9.129
329.01	9.560
329.38	10.278
329.74	12.072
330.11	11.045
330.47	10.615
330.84	10.853
331.20	11.667
331.56	10.832
331.93	10.209
332.29	10.678
332.66	11.130
333.02	11.139
333.38	11.074
333.75	11.448
334.11	12.594
334.48	10.809
334.84	13.084
335.20	10.999
335.57	11.720
335.93	11.818
336.29	10.982
336.66	10.093
337.02	12.375
337.38	12.160
337.75	11.570
338.11	13.288
338.47	12.903
338.84	10.914
339.20	11.120
339.56	12.521
339.93	12.726
340.29	12.963
340.65	10.949
341.02	11.572
341.38	12.611
341.74	12.349
342.11	11.746
342.47	11.120
342.83	12.641
343.20	12.756
343.56	12.911
343.92	12.250
344.28	12.266
344.65	12.326
345.01	12.480
345.37	12.986
345.73	11.691
346.10	13.495
346.46	12.737
346.82	12.734
347.19	13.445
347.55	12.671
347.91	12.779
348.27	12.974
348.63	12.262
349.00	13.796
349.36	11.822
349.72	13.542
350.08	13.001
350.45	11.559
350.81	13.047
351.17	12.857
351.53	13.495
351.89	12.984
352.26	13.060
352.62	12.537
352.98	11.374
353.34	12.845
353.70	12.866
354.07	13.562
354.43	11.997
354.79	13.313
355.15	11.921
355.51	13.158
355.87	12.117
356.24	13.460
356.60	13.378
356.96	12.750
357.32	13.309
357.68	13.250
358.04	13.323
358.40	12.687
358.77	13.816
359.13	12.777
359.49	12.788
359.85	13.125
360.21	13.845
360.57	13.281
360.93	12.694
361.29	14.456
361.66	13.903
362.02	13.709
362.38	13.914
362.74	14.246
363.10	14.305
363.46	14.751
363.82	14.489
364.18	13.793
364.54	14.177
364.90	14.983
365.26	13.586
365.62	15.400
365.98	14.908
366.35	14.295
366.71	15.170
367.07	15.291
367.43	14.314
367.79	14.134
368.15	15.117
368.51	15.426
368.87	15.872
369.23	14.467
369.59	15.096
369.95	14.943
370.31	15.868
370.67	14.512
371.03	15.374
371.39	15.111
371.75	16.025
372.11	14.770
372.47	15.369
372.83	16.558
373.19	15.944
373.55	15.515
373.91	14.860
374.27	15.977
374.63	16.779
374.99	15.915
375.35	16.818
375.71	16.387
376.07	15.946
376.42	16.058
376.78	17.216
377.14	16.656
377.50	17.774
377.86	16.195
378.22	17.305
378.58	17.895
378.94	17.195
379.30	17.223
379.66	17.108
380.02	17.426
380.38	18.433
380.74	18.141
381.09	17.480
381.45	17.841
381.81	18.384
382.17	18.112
382.53	18.129
382.89	18.059
383.25	18.816
383.61	18.113
383.97	18.021
384.32	18.720
384.68	18.213
385.04	18.855
385.40	19.093
385.76	19.109
386.12	18.791
386.48	19.294
386.83	19.309
387.19	18.830
387.55	19.190
387.91	18.664
388.27	20.150
388.62	18.614
388.98	18.895
389.34	20.094
389.70	19.872
390.06	19.597
390.42	19.578
390.77	20.650
391.13	19.777
391.49	19.565
391.85	19.394
392.20	19.751
392.56	20.437
392.92	20.229
393.28	19.790
393.64	20.447
393.99	20.337
394.35	20.561
394.71	20.240
395.07	18.922
395.42	19.989
395.78	21.085
396.14	19.905
396.50	20.368
396.85	20.215
397.21	20.178
397.57	20.671
397.92	20.275
398.28	19.880
398.64	20.366
399.00	20.157
399.35	19.319
399.71	19.402
400.07	20.775
400.42	19.732
400.78	19.618
401.14	19.920
401.49	20.637
401.85	19.709
402.21	20.626
402.57	20.716
402.92	20.272
403.28	19.672
403.63	18.974
403.99	19.596
404.35	20.182
404.70	19.887
405.06	19.946
405.42	19.789
405.77	19.520
406.13	19.719
406.49	19.932
406.84	20.055
407.20	19.452
407.55	19.443
407.91	19.045
408.27	19.670
408.62	19.663
408.98	20.023
409.34	18.768
409.69	20.581
410.05	19.050
410.40	20.012
410.76	19.518
411.11	20.105
411.47	19.963
411.83	20.223
412.18	20.843
412.54	20.806
412.89	19.674
413.25	19.244
413.60	19.586
413.96	19.347
414.31	19.603
414.67	18.962
415.03	19.138
415.38	18.979
415.74	19.426
416.09	20.296
416.45	19.224
416.80	19.155
417.16	18.710
417.51	19.054
417.87	19.742
418.22	20.060
418.58	20.074
418.93	20.722
419.29	19.297
419.64	19.028
420.00	19.288
420.35	20.101
420.71	19.472
421.06	19.494
421.42	20.241
421.77	19.871
422.12	19.715
422.48	19.867
422.83	20.044
423.19	19.947
423.54	20.520
423.90	18.940
424.25	20.640
424.61	19.346
424.96	20.099
425.31	19.851
425.67	20.021
426.02	19.978
426.38	20.207
426.73	20.089
427.09	21.165
427.44	20.317
427.79	19.790
428.15	19.064
428.50	20.112
428.85	19.346
429.21	20.745
429.56	20.336
429.92	20.246
430.27	20.482
430.62	20.616
430.98	20.167
431.33	20.088
431.68	20.450
432.04	20.264
432.39	20.193
432.74	20.091
433.10	19.903
433.45	20.234
433.80	20.923
434.16	20.610
434.51	20.606
434.86	20.847
435.22	21.201
435.57	20.991
435.92	21.313
436.28	20.193
436.63	21.191
436.98	20.827
437.34	21.984
437.69	20.418
438.04	20.307
438.39	20.505
438.75	20.531
439.10	20.560
439.45	20.794
439.81	20.734
440.16	20.643
440.51	21.237
440.86	20.901
441.22	21.329
441.57	20.807
441.92	20.466
442.27	20.606
442.63	21.361
442.98	21.612
443.33	21.305
443.68	21.160
444.03	21.966
444.39	22.006
444.74	21.848
445.09	21.744
445.44	22.234
445.79	21.456
446.15	20.915
446.50	21.189
446.85	21.498
447.20	21.373
447.55	21.653
447.91	21.885
448.26	21.089
448.61	21.413
448.96	22.854
449.31	21.421
449.66	20.697
450.02	21.308
450.37	21.524
450.72	21.098
451.07	21.754
451.42	20.451
451.77	21.012
452.12	22.630
452.47	21.212
452.83	21.284
453.18	21.541
453.53	21.310
453.88	21.480
454.23	22.316
454.58	21.706
454.93	20.813
455.28	21.373
455.63	21.717
455.98	21.955
456.34	21.555
456.69	22.457
457.04	20.863
457.39	21.951
457.74	22.371
458.09	21.527
458.44	21.767
458.79	22.125
459.14	22.129
459.49	20.939
459.84	21.773
460.19	21.988
460.54	22.203
460.89	21.969
461.24	21.379
461.59	21.638
461.94	20.650
462.29	21.109
462.64	21.605
462.99	21.532
463.34	21.220
463.69	21.630
464.04	22.068
464.39	21.357
464.74	21.722
465.09	22.088
465.44	21.084
465.79	22.052
466.14	21.782
466.49	22.211
466.84	22.094
467.19	22.081
467.54	21.269
467.89	21.264
468.24	21.496
468.59	21.077
468.94	21.270
469.29	21.536
469.64	21.551
469.99	21.479
470.34	20.668
470.68	22.146
471.03	22.659
471.38	21.060
471.73	21.847
472.08	22.335
472.43	21.674
472.78	21.348
473.13	21.618
473.48	22.417
473.83	21.474
474.17	22.157
474.52	21.708
474.87	21.761
475.22	22.535
475.57	22.274
475.92	21.702
476.27	22.258
476.61	21.963
476.96	21.324
477.31	21.832
477.66	22.246
478.01	21.200
478.36	21.037
478.70	22.069
479.05	22.955
479.40	22.655
479.75	22.094
480.10	22.075
480.45	21.696
480.79	22.540
481.14	21.829
481.49	22.581
481.84	23.064
482.19	22.194
482.53	23.000
482.88	22.685
483.23	22.232
483.58	21.834
483.92	21.498
484.27	22.312
484.62	22.195
484.97	22.201
485.31	22.316
485.66	20.848
486.01	21.625
486.36	22.700
486.70	23.908
487.05	24.247
487.40	23.566
487.75	23.079
488.09	22.682
488.44	21.763
488.79	22.395
489.13	21.796
489.48	21.476
489.83	21.891
490.17	21.871
490.52	21.716
490.87	21.954
491.22	21.967
491.56	22.014
491.91	21.457
492.26	21.722
492.60	21.863
492.95	22.729
493.30	21.874
493.64	22.470
493.99	21.842
494.34	21.864
494.68	21.585
495.03	22.687
495.37	21.749
495.72	21.905
496.07	21.823
496.41	21.236
496.76	22.102
497.11	22.675
497.45	21.925
497.80	22.257
498.14	21.814
498.49	22.059
498.84	21.618
499.18	22.627
499.53	21.973
499.87	22.374
500.22	21.238
500.56	21.862
500.91	22.151
501.26	21.955
501.60	21.918
501.95	22.927
502.29	22.115
502.64	22.213
502.98	22.174
503.33	22.419
503.67	21.195
504.02	21.497
504.36	23.056
504.71	22.416
505.06	21.919
505.40	21.618
505.75	22.450
506.09	22.192
506.44	23.027
506.78	22.431
507.13	23.006
507.47	22.596
507.82	22.017
508.16	22.180
508.51	21.660
508.85	22.910
509.19	22.501
509.54	22.622
509.88	22.827
510.23	23.167
510.57	23.200
510.92	22.980
511.26	22.511
511.61	22.115
511.95	23.182
512.30	22.403
512.64	22.289
512.98	22.261
513.33	22.631
513.67	23.508
514.02	22.688
514.36	23.581
514.70	23.594
515.05	23.306
515.39	23.202
515.74	23.807
516.08	22.979
516.42	23.234
516.77	23.870
517.11	23.466
517.46	23.860
517.80	24.265
518.14	24.483
518.49	23.210
518.83	22.193
519.17	23.371
519.52	23.690
519.86	23.970
520.20	24.068
520.55	23.658
520.89	23.198
521.23	23.786
521.58	24.294
521.92	23.173
522.26	22.394
522.61	23.900
522.95	23.933
523.29	23.793
523.64	23.318
523.98	24.301
524.32	24.413
524.66	23.449
525.01	23.160
525.35	23.033
525.69	23.840
526.04	23.536
526.38	23.851
526.72	24.913
527.06	24.516
527.41	24.490
527.75	24.644
528.09	24.203
528.43	23.919
528.78	24.162
529.12	23.050
529.46	25.070
529.80	24.371
530.15	24.812
530.49	24.081
530.83	24.026
531.17	23.895
531.51	24.248
531.86	24.519
532.20	24.939
532.54	24.417
532.88	24.364
533.22	23.984
533.57	24.409
533.91	25.084
534.25	24.364
534.59	25.000
534.93	24.392
535.27	24.563
535.62	24.218
535.96	25.218
536.30	24.853
536.64	25.105
536.98	24.108
537.32	24.630
537.66	24.392
538.01	24.169
538.35	24.056
538.69	24.880
539.03	25.506
539.37	24.323
539.71	24.384
540.05	24.520
540.39	24.878
540.73	23.497
541.07	24.831
541.42	23.154
541.76	24.021
542.10	24.367
542.44	23.812
542.78	24.453
543.12	24.136
543.46	23.993
543.80	24.041
544.14	25.314
544.48	25.177
544.82	24.057
545.16	24.747
545.50	24.446
545.84	23.944
546.18	25.062
546.52	24.968
546.86	24.780
547.20	24.682
547.54	24.032
547.88	24.292
548.22	24.211
548.56	25.395
548.90	24.239
549.24	24.498
549.58	24.038
549.92	25.255
550.26	24.660
550.60	24.952
550.94	24.644
551.28	24.356
551.62	24.528
551.96	23.754
552.30	25.303
552.64	24.642
552.98	23.955
553.32	25.595
553.66	24.695
554.00	25.221
554.34	24.775
554.68	24.145
555.02	23.719
555.36	25.444
555.69	23.639
556.03	24.212
556.37	25.469
556.71	25.682
557.05	24.601
557.39	23.822
557.73	24.901
558.07	24.570
558.41	24.983
558.75	24.679
559.08	24.704
559.42	24.005
559.76	24.491
560.10	25.184
560.44	24.406
560.78	25.375
561.12	25.308
561.45	25.365
561.79	24.664
562.13	26.309
562.47	24.353
562.81	24.494
563.15	25.505
563.48	25.668
563.82	25.816
564.16	25.136
564.50	25.447
564.84	24.543
565.17	25.294
565.51	24.741
565.85	24.644
566.19	25.230
566.52	25.395
566.86	25.071
567.20	25.557
567.54	25.013
567.88	25.433
568.21	25.296
568.55	25.659
568.89	25.828
569.23	25.306
569.56	26.338
569.90	25.909
570.24	26.239
570.57	25.561
570.91	26.332
571.25	25.485
571.59	26.134
571.92	26.119
572.26	25.834
572.60	25.662
572.93	26.051
573.27	25.569
573.61	25.860
573.95	25.589
574.28	25.765
574.62	25.762
574.96	25.320
575.29	25.688
575.63	25.549
575.97	25.701
576.30	25.413
576.64	25.531
576.98	25.467
577.31	25.887
577.65	26.166
577.98	25.809
578.32	25.575
578.66	25.669
578.99	25.927
579.33	26.123
579.67	25.861
580.00	25.466
580.34	25.698
580.67	25.397
581.01	25.465
581.35	24.742
581.68	26.034
582.02	26.270
582.35	26.554
582.69	26.394
583.02	26.163
583.36	26.083
583.70	26.040
584.03	25.486
584.37	25.549
584.70	25.232
585.04	25.203
585.37	25.586
585.71	26.063
586.04	26.112
586.38	26.277
586.72	25.445
587.05	25.940
587.39	26.652
587.72	25.766
588.06	26.233
588.39	26.288
588.73	25.291
589.06	25.677
589.40	26.460
589.73	25.225
590.07	26.094
590.40	26.166
590.73	25.451
591.07	26.433
591.40	25.739
591.74	25.159
592.07	25.985
592.41	25.158
592.74	25.417
593.08	26.433
593.41	26.830
593.75	26.897
594.08	26.719
594.41	26.635
594.75	25.938
595.08	26.447
595.42	26.136
595.75	25.928
596.09	26.025
596.42	25.905
596.75	26.283
597.09	26.182
597.42	26.023
597.75	25.284
598.09	26.032
598.42	26.337
598.76	25.640
599.09	25.917
599.42	26.550
599.76	26.213
600.09	25.993
600.42	27.160
600.76	26.420
601.09	26.253
601.42	26.433
601.76	26.345
602.09	26.412
602.42	25.845
602.76	26.310
603.09	26.468
603.42	26.012
603.76	25.969
604.09	27.182
604.42	26.532
604.76	25.609
605.09	25.688
605.42	26.356
605.75	25.769
606.09	26.726
606.42	25.356
606.75	26.462
607.09	25.538
607.42	26.435
607.75	25.752
608.08	25.848
608.42	25.917
608.75	25.663
609.08	25.594
609.41	26.599
609.75	25.402
610.08	26.253
610.41	25.361
610.74	25.630
611.07	26.332
611.41	26.233
611.74	26.559
612.07	27.209
612.40	26.141
612.73	25.868
613.07	25.281
613.40	25.457
613.73	26.481
614.06	26.153
614.39	25.948
614.72	25.376
615.06	25.650
615.39	25.375
615.72	25.498
616.05	26.178
616.38	26.589
616.71	25.549
617.05	25.719
617.38	26.057
617.71	26.674
618.04	26.228
618.37	25.246
618.70	26.923
619.03	24.851
619.36	25.401
619.69	25.112
620.03	25.989
620.36	25.890
620.69	26.033
621.02	25.919
621.35	26.488
621.68	26.753
622.01	25.409
622.34	25.244
622.67	25.911
623.00	25.101
623.33	26.742
623.66	27.108
623.99	25.675
624.32	26.121
624.65	25.740
624.99	25.358
625.32	26.388
625.65	26.433
625.98	25.356
626.31	25.372
626.64	25.641
626.97	25.131
627.30	25.209
627.63	24.831
627.96	26.201
628.29	24.903
628.62	24.013
628.95	25.679
629.28	24.214
629.61	24.411
629.94	24.435
630.26	25.339
630.59	25.302
630.92	24.242
631.25	26.118
631.58	25.330
631.91	24.836
632.24	24.496
