SpectraSuite Data File
++++++++++++++++++++++++++++++++++++
Date: Thu May 14 14:35:09 PDT 2015
User: schluterlab
Dark Spectrum Present: Yes
Reference Spectrum Present: Yes
Number of Sampled Component Spectra: 1
Spectrometers: USB2E3373
Integration Time (usec): 3000 (USB2E3373)
Spectra Averaged: 3 (USB2E3373)
Boxcar Smoothing: 0 (USB2E3373)
Correct for Electrical Dark: No (USB2E3373)
Strobe/Lamp Enabled: No (USB2E3373)
Correct for Detector Non-linearity: No (USB2E3373)
Correct for Stray Light: No (USB2E3373)
Number of Pixels in Processed Spectrum: 2048
>>>>>Begin Processed Spectral Data<<<<<
178.53	0.000
178.91	-242.857
179.29	1100.000
179.67	1300.000
180.04	-85.714
180.42	-260.000
180.80	-440.000
181.18	1400.000
181.56	2400.000
181.94	-475.000
182.31	475.000
182.69	-833.333
183.07	850.000
183.45	-300.000
183.83	283.333
184.20	766.667
184.58	-1400.000
184.96	475.000
185.34	166.667
185.72	380.000
186.09	-188.889
186.47	-1100.000
186.85	-480.000
187.23	155.556
187.61	1800.000
187.98	-280.000
188.36	-300.000
188.74	400.000
189.12	600.000
189.49	93.750
189.87	262.500
190.25	277.778
190.63	380.000
191.00	-11.111
191.38	0.000
191.76	250.000
192.14	366.667
192.51	-550.000
192.89	350.000
193.27	0.000
193.65	157.143
194.02	2300.000
194.40	300.000
194.78	-114.286
195.15	0.000
195.53	245.455
195.91	0.000
196.29	550.000
196.66	161.538
197.04	1400.000
197.42	171.429
197.79	600.000
198.17	237.500
198.55	314.286
198.92	344.444
199.30	150.000
199.68	100.000
200.05	164.286
200.43	600.000
200.81	-42.857
201.18	0.000
201.56	-77.778
201.94	0.000
202.31	-266.667
202.69	188.889
203.07	-2200.000
203.44	233.333
203.82	75.000
204.19	141.667
204.57	200.000
204.95	137.500
205.32	2100.000
205.70	-350.000
206.08	200.000
206.45	283.333
206.83	-320.000
207.20	383.333
207.58	200.000
207.96	183.333
208.33	416.667
208.71	-141.667
209.08	516.667
209.46	0.000
209.84	-266.667
210.21	-550.000
210.59	-450.000
210.96	-233.333
211.34	425.000
211.71	300.000
212.09	1400.000
212.46	0.000
212.84	50.000
213.22	200.000
213.59	550.000
213.97	280.000
214.34	566.667
214.72	-183.333
215.09	350.000
215.47	0.000
215.84	-200.000
216.22	-650.000
216.59	360.000
216.97	100.000
217.34	425.000
217.72	362.500
218.09	550.000
218.47	450.000
218.84	0.000
219.22	-320.000
219.59	100.000
219.97	135.000
220.34	-800.000
220.72	155.556
221.09	269.231
221.47	633.333
221.84	230.000
222.22	171.429
222.59	0.000
222.97	275.000
223.34	460.000
223.72	1400.000
224.09	175.000
224.46	350.000
224.84	480.000
225.21	300.000
225.59	175.000
225.96	325.000
226.34	119.231
226.71	-266.667
227.08	400.000
227.46	120.000
227.83	250.000
228.21	157.895
228.58	-187.500
228.95	-600.000
229.33	158.333
229.70	220.000
230.08	163.158
230.45	-150.000
230.82	566.667
231.20	164.286
231.57	175.000
231.95	209.091
232.32	263.636
232.69	85.000
233.07	375.000
233.44	94.118
233.81	170.000
234.19	88.889
234.56	100.000
234.93	110.345
235.31	131.579
235.68	127.778
236.05	70.000
236.43	138.462
236.80	108.000
237.17	59.259
237.55	84.848
237.92	50.000
238.29	64.516
238.67	25.000
239.04	58.333
239.41	71.429
239.79	34.783
240.16	25.926
240.53	23.913
240.91	29.412
241.28	34.426
241.65	41.791
242.02	39.189
242.40	29.231
242.77	29.333
243.14	20.732
243.51	10.526
243.89	21.795
244.26	30.693
244.63	23.529
245.00	19.626
245.38	15.789
245.75	9.735
246.12	18.254
246.49	15.504
246.87	21.429
247.24	18.543
247.61	11.184
247.98	12.752
248.36	11.728
248.73	8.589
249.10	12.022
249.47	16.915
249.84	13.089
250.22	7.772
250.59	7.222
250.96	13.636
251.33	3.061
251.70	8.547
252.08	11.667
252.45	11.066
252.82	9.091
253.19	7.422
253.56	9.886
253.94	7.308
254.31	5.682
254.68	10.490
255.05	9.446
255.42	6.463
255.79	11.974
256.16	8.940
256.54	7.616
256.91	6.557
257.28	6.885
257.65	6.051
258.02	4.720
258.39	8.547
258.76	11.927
259.14	7.184
259.51	6.916
259.88	7.082
260.25	7.500
260.62	6.849
260.99	5.191
261.36	6.971
261.73	5.836
262.10	3.846
262.47	4.290
262.85	6.061
263.22	4.935
263.59	3.947
263.96	4.604
264.33	4.859
264.70	5.926
265.07	8.115
265.44	6.803
265.81	5.556
266.18	5.896
266.55	6.920
266.92	4.784
267.29	7.221
267.66	6.208
268.03	5.895
268.40	5.846
268.77	4.784
269.14	4.185
269.51	6.360
269.88	7.377
270.25	5.835
270.62	6.540
270.99	6.465
271.36	7.129
271.73	3.536
272.10	5.611
272.47	5.010
272.84	5.422
273.21	2.806
273.58	5.242
273.95	5.577
274.32	4.563
274.69	2.128
275.06	5.678
275.43	3.142
275.80	6.526
276.17	3.519
276.54	5.224
276.91	2.862
277.28	3.255
277.65	5.027
278.02	5.882
278.39	4.167
278.76	3.691
279.13	3.901
279.50	4.983
279.87	6.082
280.23	2.993
280.60	4.068
280.97	4.934
281.34	1.528
281.71	5.076
282.08	6.645
282.45	2.946
282.82	5.181
283.19	3.554
283.56	2.459
283.92	4.204
284.29	5.529
284.66	4.762
285.03	2.724
285.40	5.564
285.77	3.870
286.14	5.191
286.51	4.110
286.87	3.160
287.24	4.367
287.61	5.232
287.98	1.662
288.35	2.515
288.72	3.698
289.08	4.832
289.45	4.290
289.82	2.560
290.19	3.592
290.56	5.352
290.93	3.709
291.29	4.270
291.66	3.306
292.03	4.613
292.40	5.170
292.77	3.504
293.13	2.842
293.50	3.022
293.87	4.161
294.24	4.933
294.60	3.919
294.97	3.087
295.34	5.506
295.71	2.648
296.08	3.101
296.44	3.799
296.81	4.629
297.18	3.736
297.55	2.830
297.91	2.610
298.28	2.370
298.65	3.924
299.02	3.188
299.38	4.348
299.75	3.505
300.12	2.778
300.48	3.341
300.85	4.274
301.22	4.139
301.59	3.082
301.95	3.842
302.32	4.889
302.69	4.162
303.05	3.591
303.42	4.213
303.79	4.062
304.15	4.627
304.52	2.326
304.89	3.665
305.25	4.037
305.62	3.971
305.99	5.052
306.35	3.831
306.72	4.654
307.09	3.553
307.45	4.658
307.82	4.541
308.19	4.339
308.55	5.111
308.92	3.992
309.29	4.693
309.65	4.873
310.02	4.653
310.38	5.020
310.75	6.019
311.12	6.424
311.48	4.497
311.85	5.508
312.22	5.503
312.58	5.540
312.95	4.971
313.31	5.420
313.68	7.143
314.05	6.956
314.41	7.468
314.78	8.447
315.14	7.441
315.51	7.018
315.87	7.381
316.24	8.493
316.61	8.970
316.97	9.321
317.34	8.554
317.70	9.607
318.07	8.818
318.43	10.034
318.80	11.204
319.16	10.300
319.53	10.111
319.89	10.868
320.26	11.210
320.62	11.791
320.99	11.911
321.35	12.384
321.72	13.953
322.08	13.165
322.45	13.279
322.81	13.809
323.18	14.336
323.54	13.966
323.91	16.370
324.27	16.179
324.64	16.541
325.00	16.584
325.37	17.772
325.73	17.934
326.10	18.735
326.46	19.625
326.83	20.576
327.19	20.551
327.56	21.581
327.92	20.692
328.29	21.935
328.65	22.697
329.01	22.504
329.38	22.578
329.74	24.229
330.11	25.257
330.47	23.673
330.84	23.945
331.20	25.917
331.56	24.523
331.93	26.527
332.29	26.525
332.66	25.498
333.02	24.707
333.38	26.091
333.75	26.515
334.11	27.023
334.48	26.155
334.84	26.338
335.20	26.113
335.57	26.981
335.93	27.107
336.29	25.458
336.66	26.829
337.02	27.676
337.38	26.190
337.75	26.364
338.11	27.334
338.47	25.889
338.84	25.296
339.20	25.695
339.56	25.700
339.93	26.683
340.29	25.201
340.65	25.223
341.02	26.097
341.38	26.839
341.74	25.504
342.11	26.307
342.47	24.464
342.83	27.134
343.20	25.266
343.56	25.662
343.92	25.620
344.28	25.547
344.65	25.504
345.01	25.429
345.37	26.050
345.73	24.240
346.10	25.273
346.46	24.446
346.82	25.993
347.19	25.363
347.55	24.355
347.91	24.889
348.27	23.596
348.63	25.133
349.00	24.981
349.36	24.461
349.72	25.074
350.08	24.591
350.45	25.095
350.81	25.867
351.17	23.759
351.53	25.322
351.89	24.450
352.26	23.507
352.62	23.284
352.98	25.191
353.34	24.421
353.70	24.422
354.07	24.218
354.43	24.070
354.79	24.308
355.15	23.032
355.51	24.561
355.87	22.737
356.24	24.563
356.60	23.577
356.96	23.795
357.32	24.015
357.68	23.939
358.04	22.530
358.40	23.582
358.77	23.684
359.13	23.117
359.49	22.305
359.85	23.350
360.21	22.525
360.57	23.475
360.93	22.920
361.29	23.018
361.66	23.678
362.02	23.800
362.38	23.612
362.74	23.254
363.10	23.177
363.46	22.784
363.82	23.722
364.18	22.871
364.54	23.859
364.90	23.077
365.26	23.034
365.62	23.333
365.98	22.737
366.35	22.886
366.71	23.061
367.07	22.192
367.43	22.390
367.79	23.623
368.15	23.010
368.51	23.072
368.87	22.992
369.23	22.733
369.59	23.292
369.95	23.597
370.31	23.970
370.67	23.315
371.03	23.130
371.39	22.364
371.75	23.521
372.11	22.967
372.47	23.087
372.83	23.102
373.19	22.348
373.55	23.713
373.91	22.086
374.27	22.962
374.63	22.598
374.99	22.878
375.35	23.247
375.71	23.226
376.07	22.983
376.42	22.418
376.78	23.990
377.14	22.271
377.50	22.707
377.86	23.953
378.22	23.713
378.58	23.722
378.94	23.122
379.30	23.316
379.66	23.398
380.02	22.562
380.38	23.041
380.74	23.606
381.09	22.822
381.45	23.068
381.81	24.649
382.17	23.337
382.53	23.216
382.89	22.686
383.25	23.271
383.61	21.933
383.97	23.852
384.32	23.206
384.68	22.970
385.04	23.366
385.40	23.689
385.76	24.033
386.12	23.399
386.48	23.235
386.83	23.361
387.19	22.943
387.55	23.709
387.91	22.546
388.27	22.748
388.62	23.196
388.98	23.858
389.34	23.512
389.70	23.300
390.06	22.439
390.42	23.133
390.77	23.420
391.13	23.650
391.49	23.490
391.85	23.455
392.20	23.665
392.56	24.217
392.92	23.555
393.28	23.715
393.64	22.793
393.99	24.463
394.35	23.949
394.71	24.012
395.07	23.593
395.42	23.301
395.78	24.010
396.14	23.589
396.50	23.812
396.85	22.898
397.21	24.142
397.57	23.969
397.92	23.540
398.28	22.542
398.64	23.913
399.00	22.513
399.35	23.403
399.71	23.043
400.07	23.751
400.42	23.574
400.78	23.148
401.14	23.904
401.49	23.081
401.85	24.186
402.21	24.855
402.57	24.296
402.92	22.931
403.28	23.244
403.63	22.792
403.99	23.159
404.35	23.252
404.70	23.853
405.06	23.859
405.42	23.946
405.77	23.937
406.13	23.447
406.49	23.930
406.84	24.044
407.20	23.197
407.55	23.259
407.91	23.821
408.27	23.027
408.62	23.735
408.98	23.912
409.34	22.463
409.69	24.289
410.05	23.798
410.40	24.130
410.76	23.780
411.11	22.385
411.47	23.464
411.83	23.810
412.18	24.157
412.54	23.118
412.89	23.574
413.25	23.081
413.60	22.746
413.96	23.893
414.31	23.343
414.67	23.792
415.03	23.569
415.38	23.960
415.74	23.946
416.09	24.614
416.45	23.419
416.80	22.766
417.16	23.755
417.51	24.284
417.87	24.218
418.22	24.371
418.58	24.226
418.93	24.854
419.29	24.106
419.64	24.010
420.00	23.680
420.35	23.863
420.71	22.975
421.06	23.807
421.42	24.541
421.77	23.209
422.12	23.679
422.48	24.168
422.83	24.151
423.19	24.297
423.54	24.115
423.90	24.075
424.25	24.533
424.61	24.053
424.96	24.547
425.31	24.469
425.67	24.799
426.02	25.235
426.38	23.766
426.73	23.493
427.09	24.798
427.44	25.123
427.79	24.710
428.15	24.201
428.50	23.820
428.85	24.569
429.21	24.947
429.56	25.025
429.92	23.931
430.27	25.108
430.62	24.084
430.98	24.299
431.33	23.803
431.68	24.138
432.04	24.632
432.39	24.638
432.74	25.114
433.10	25.257
433.45	24.693
433.80	25.268
434.16	24.742
434.51	24.820
434.86	24.864
435.22	25.292
435.57	26.769
435.92	25.264
436.28	25.085
436.63	25.505
436.98	24.799
437.34	25.366
437.69	24.216
438.04	25.066
438.39	25.215
438.75	25.069
439.10	26.057
439.45	25.936
439.81	25.650
440.16	24.933
440.51	26.031
440.86	26.459
441.22	25.938
441.57	25.943
441.92	25.218
442.27	26.515
442.63	25.633
442.98	25.880
443.33	26.302
443.68	26.016
444.03	25.588
444.39	26.075
444.74	26.442
445.09	25.443
445.44	26.660
445.79	26.580
446.15	27.030
446.50	26.305
446.85	26.702
447.20	26.015
447.55	26.935
447.91	26.126
448.26	26.004
448.61	25.930
448.96	27.253
449.31	26.246
449.66	26.362
450.02	26.530
450.37	26.478
450.72	27.072
451.07	27.506
451.42	26.979
451.77	27.071
452.12	28.104
452.47	27.510
452.83	26.689
453.18	26.270
453.53	27.111
453.88	26.781
454.23	27.458
454.58	28.033
454.93	27.488
455.28	28.356
455.63	27.800
455.98	27.151
456.34	28.092
456.69	27.102
457.04	28.191
457.39	27.716
457.74	28.356
458.09	28.062
458.44	28.718
458.79	27.282
459.14	27.530
459.49	28.183
459.84	28.174
460.19	27.929
460.54	28.620
460.89	27.581
461.24	27.644
461.59	28.500
461.94	27.952
462.29	28.219
462.64	29.028
462.99	30.132
463.34	29.202
463.69	27.550
464.04	28.627
464.39	28.083
464.74	28.905
465.09	28.662
465.44	28.273
465.79	29.350
466.14	29.338
466.49	29.263
466.84	28.871
467.19	28.902
467.54	29.083
467.89	28.276
468.24	28.643
468.59	28.662
468.94	29.779
469.29	29.334
469.64	28.353
469.99	30.210
470.34	30.012
470.68	30.075
471.03	30.648
471.38	29.039
471.73	29.259
472.08	29.188
472.43	29.681
472.78	30.605
473.13	29.709
473.48	29.849
473.83	30.238
474.17	30.012
474.52	30.006
474.87	29.457
475.22	30.592
475.57	29.128
475.92	29.915
476.27	30.245
476.61	29.855
476.96	29.979
477.31	30.594
477.66	30.850
478.01	30.300
478.36	29.462
478.70	30.493
479.05	31.339
479.40	31.194
479.75	31.268
480.10	29.986
480.45	30.720
480.79	30.930
481.14	30.515
481.49	30.895
481.84	31.288
482.19	30.538
482.53	30.608
482.88	32.078
483.23	30.903
483.58	30.349
483.92	30.629
484.27	30.906
484.62	30.858
484.97	30.715
485.31	31.221
485.66	30.246
486.01	29.344
486.36	29.374
486.70	29.399
487.05	29.933
487.40	30.392
487.75	31.069
488.09	31.079
488.44	31.073
488.79	31.096
489.13	31.535
489.48	31.340
489.83	31.348
490.17	30.903
490.52	30.911
490.87	31.557
491.22	31.542
491.56	32.039
491.91	32.490
492.26	31.848
492.60	32.532
492.95	32.646
493.30	31.735
493.64	32.501
493.99	31.667
494.34	32.186
494.68	32.163
495.03	32.555
495.37	32.623
495.72	32.472
496.07	32.515
496.41	33.033
496.76	33.069
497.11	32.611
497.45	32.326
497.80	33.008
498.14	32.880
498.49	32.858
498.84	33.090
499.18	33.333
499.53	33.543
499.87	34.110
500.22	32.814
500.56	33.333
500.91	34.096
501.26	34.364
501.60	33.451
501.95	33.956
502.29	34.928
502.64	34.368
502.98	33.348
503.33	33.909
503.67	33.580
504.02	34.238
504.36	35.165
504.71	34.589
505.06	34.516
505.40	35.101
505.75	34.426
506.09	35.221
506.44	35.794
506.78	35.642
507.13	34.486
507.47	35.765
507.82	35.890
508.16	35.325
508.51	35.865
508.85	35.427
509.19	35.860
509.54	36.359
509.88	35.308
510.23	36.183
510.57	36.104
510.92	36.333
511.26	34.921
511.61	35.297
511.95	35.774
512.30	36.731
512.64	35.482
512.98	35.868
513.33	37.046
513.67	37.379
514.02	36.944
514.36	37.033
514.70	37.500
515.05	37.435
515.39	37.323
515.74	38.759
516.08	37.824
516.42	37.781
516.77	37.592
517.11	36.256
517.46	37.699
517.80	38.108
518.14	38.466
518.49	38.449
518.83	37.467
519.17	38.611
519.52	38.470
519.86	38.332
520.20	39.404
520.55	39.102
520.89	38.232
521.23	38.079
521.58	38.475
521.92	38.357
522.26	38.259
522.61	39.757
522.95	40.369
523.29	39.828
523.64	38.565
523.98	39.418
524.32	40.573
524.66	39.385
525.01	39.524
525.35	39.632
525.69	40.429
526.04	39.265
526.38	40.115
526.72	40.542
527.06	40.176
527.41	39.883
527.75	40.974
528.09	40.791
528.43	39.728
528.78	39.653
529.12	39.908
529.46	41.203
529.80	41.190
530.15	40.870
530.49	41.934
530.83	40.083
531.17	42.354
531.51	41.215
531.86	40.865
532.20	41.524
532.54	41.113
532.88	42.424
533.22	41.897
533.57	40.796
533.91	42.368
534.25	40.927
534.59	41.437
534.93	41.200
535.27	41.070
535.62	41.899
535.96	41.604
536.30	41.598
536.64	43.303
536.98	42.497
537.32	42.531
537.66	42.296
538.01	42.417
538.35	42.266
538.69	41.947
539.03	43.225
539.37	41.343
539.71	42.583
540.05	42.266
540.39	41.809
540.73	40.862
541.07	42.796
541.42	41.701
541.76	41.696
542.10	42.642
542.44	42.753
542.78	42.518
543.12	42.491
543.46	42.674
543.80	42.146
544.14	41.652
544.48	42.435
544.82	43.986
545.16	42.636
545.50	43.559
545.84	41.764
546.18	44.074
546.52	42.611
546.86	42.830
547.20	44.211
547.54	43.196
547.88	43.460
548.22	42.398
548.56	43.651
548.90	42.746
549.24	44.924
549.58	43.975
549.92	42.411
550.26	44.660
550.60	43.523
550.94	43.726
551.28	43.696
551.62	43.531
551.96	43.107
552.30	43.913
552.64	42.937
552.98	42.732
553.32	44.437
553.66	44.566
554.00	44.325
554.34	43.436
554.68	42.931
555.02	44.218
555.36	45.299
555.69	42.345
556.03	44.073
556.37	44.243
556.71	43.817
557.05	44.281
557.39	44.194
557.73	45.046
558.07	43.709
558.41	45.781
558.75	43.272
559.08	44.885
559.42	43.484
559.76	42.877
560.10	44.139
560.44	44.723
560.78	43.812
561.12	43.473
561.45	43.370
561.79	44.567
562.13	44.670
562.47	42.910
562.81	44.241
563.15	44.066
563.48	43.940
563.82	43.712
564.16	43.973
564.50	43.623
564.84	42.950
565.17	43.706
565.51	42.865
565.85	43.468
566.19	43.203
566.52	43.300
566.86	43.463
567.20	43.665
567.54	42.220
567.88	42.762
568.21	43.182
568.55	43.213
568.89	42.124
569.23	42.417
569.56	41.852
569.90	40.948
570.24	41.349
570.57	40.827
570.91	40.600
571.25	40.035
571.59	40.774
571.92	40.352
572.26	40.365
572.60	40.076
572.93	40.106
573.27	39.702
573.61	39.915
573.95	39.476
574.28	39.594
574.62	39.609
574.96	39.259
575.29	38.841
575.63	39.155
575.97	39.473
576.30	39.107
576.64	38.988
576.98	39.089
577.31	39.115
577.65	39.311
577.98	38.272
578.32	38.720
578.66	38.673
578.99	38.644
579.33	38.773
579.67	38.622
580.00	38.908
580.34	39.071
580.67	37.930
581.01	38.533
581.35	38.535
581.68	38.403
582.02	38.094
582.35	38.819
582.69	38.522
583.02	39.039
583.36	38.550
583.70	39.082
584.03	38.709
584.37	38.904
584.70	38.509
585.04	37.875
585.37	37.936
585.71	37.907
586.04	37.891
586.38	37.674
586.72	38.030
587.05	38.373
587.39	38.544
587.72	38.278
588.06	38.008
588.39	38.262
588.73	38.122
589.06	38.177
589.40	38.814
589.73	38.400
590.07	38.793
590.40	38.472
590.73	38.530
591.07	39.278
591.40	38.608
591.74	38.434
592.07	38.530
592.41	38.446
592.74	37.806
593.08	38.599
593.41	37.999
593.75	37.270
594.08	38.019
594.41	37.372
594.75	37.496
595.08	37.550
595.42	37.370
595.75	37.649
596.09	37.953
596.42	37.442
596.75	38.788
597.09	38.828
597.42	37.783
597.75	37.279
598.09	37.500
598.42	37.998
598.76	36.607
599.09	36.988
599.42	36.272
599.76	35.787
600.09	36.537
600.42	36.270
600.76	36.229
601.09	36.575
601.42	36.080
601.76	36.345
602.09	36.204
602.42	36.605
602.76	36.421
603.09	35.830
603.42	36.850
603.76	35.518
604.09	36.586
604.42	36.587
604.76	35.997
605.09	36.737
605.42	36.085
605.75	35.808
606.09	35.312
606.42	35.389
606.75	34.933
607.09	35.292
607.42	35.723
607.75	35.248
608.08	35.478
608.42	35.671
608.75	36.153
609.08	35.187
609.41	35.730
609.75	35.223
610.08	35.796
610.41	35.599
610.74	35.042
611.07	35.435
611.41	34.798
611.74	35.427
612.07	35.764
612.40	35.076
612.73	35.599
613.07	35.403
613.40	35.371
613.73	34.665
614.06	35.427
614.39	34.840
614.72	35.274
615.06	34.360
615.39	33.978
615.72	33.791
616.05	34.531
616.38	35.570
616.71	35.162
617.05	34.026
617.38	34.617
617.71	35.367
618.04	34.862
618.37	35.027
618.70	36.143
619.03	35.484
619.36	34.649
619.69	34.465
620.03	34.903
620.36	35.337
620.69	35.225
621.02	35.630
621.35	35.486
621.68	36.226
622.01	35.374
622.34	34.310
622.67	34.296
623.00	32.861
623.33	35.435
623.66	35.019
623.99	34.431
624.32	34.828
624.65	33.848
624.99	34.460
625.32	35.206
625.65	34.255
625.98	33.966
626.31	34.018
626.64	34.872
626.97	34.584
627.30	34.624
627.63	33.008
627.96	33.859
628.29	34.475
628.62	35.013
628.95	35.320
629.28	34.155
629.61	34.596
629.94	32.720
630.26	33.220
630.59	33.765
630.92	33.593
631.25	35.063
631.58	35.311
631.91	33.552
632.24	35.831
632.57	34.156
632.90	33.701
633.23	35.000
633.56	34.490
633.89	33.781
634.22	34.719
634.55	35.073
634.88	35.498
635.20	36.168
635.53	34.915
635.86	35.103
636.19	34.040
636.52	34.072
636.85	32.380
