SpectraSuite Data File
++++++++++++++++++++++++++++++++++++
Date: Thu May 14 14:43:47 PDT 2015
User: schluterlab
Dark Spectrum Present: Yes
Reference Spectrum Present: Yes
Number of Sampled Component Spectra: 1
Spectrometers: USB2E3373
Integration Time (usec): 3000 (USB2E3373)
Spectra Averaged: 3 (USB2E3373)
Boxcar Smoothing: 0 (USB2E3373)
Correct for Electrical Dark: No (USB2E3373)
Strobe/Lamp Enabled: No (USB2E3373)
Correct for Detector Non-linearity: No (USB2E3373)
Correct for Stray Light: No (USB2E3373)
Number of Pixels in Processed Spectrum: 2048
>>>>>Begin Processed Spectral Data<<<<<
178.53	0.000
178.91	-100.000
179.29	-400.000
179.67	900.000
180.04	78.571
180.42	-10.000
180.80	100.000
181.18	-200.000
181.56	900.000
181.94	-25.000
182.31	200.000
182.69	-333.333
183.07	600.000
183.45	25.000
183.83	233.333
184.20	-166.667
184.58	200.000
184.96	-175.000
185.34	55.556
185.72	140.000
186.09	44.444
186.47	500.000
186.85	320.000
187.23	66.667
187.61	-100.000
187.98	80.000
188.36	-75.000
188.74	75.000
189.12	233.333
189.49	81.250
189.87	100.000
190.25	0.000
190.63	100.000
191.00	-122.222
191.38	0.000
191.76	75.000
192.14	83.333
192.51	-0.000
192.89	183.333
193.27	0.000
193.65	214.286
194.02	300.000
194.40	71.429
194.78	85.714
195.15	0.000
195.53	18.182
195.91	0.000
196.29	150.000
196.66	7.692
197.04	-500.000
197.42	-14.286
197.79	-200.000
198.17	-75.000
198.55	28.571
198.92	200.000
199.30	50.000
199.68	109.091
200.05	14.286
200.43	100.000
200.81	-0.000
201.18	0.000
201.56	-33.333
201.94	0.000
202.31	133.333
202.69	-44.444
203.07	100.000
203.44	-11.111
203.82	125.000
204.19	50.000
204.57	-16.667
204.95	125.000
205.32	-800.000
205.70	-150.000
206.08	50.000
206.45	133.333
206.83	240.000
207.20	150.000
207.58	20.000
207.96	-50.000
208.33	150.000
208.71	58.333
209.08	66.667
209.46	0.000
209.84	100.000
210.21	-50.000
210.59	-300.000
210.96	200.000
211.34	100.000
211.71	62.500
212.09	700.000
212.46	0.000
212.84	400.000
213.22	-140.000
213.59	75.000
213.97	40.000
214.34	233.333
214.72	133.333
215.09	-25.000
215.47	0.000
215.84	42.857
216.22	400.000
216.59	40.000
216.97	120.000
217.34	-25.000
217.72	200.000
218.09	-25.000
218.47	125.000
218.84	0.000
219.22	-140.000
219.59	76.471
219.97	100.000
220.34	600.000
220.72	-22.222
221.09	153.846
221.47	0.000
221.84	100.000
222.22	-14.286
222.59	0.000
222.97	75.000
223.34	-160.000
223.72	0.000
224.09	75.000
224.46	-25.000
224.84	200.000
225.21	-28.571
225.59	-150.000
225.96	-25.000
226.34	46.154
226.71	133.333
227.08	250.000
227.46	66.667
227.83	-75.000
228.21	31.579
228.58	75.000
228.95	-200.000
229.33	0.000
229.70	80.000
230.08	110.526
230.45	-0.000
230.82	-133.333
231.20	64.286
231.57	141.667
231.95	0.000
232.32	136.364
232.69	95.000
233.07	100.000
233.44	0.000
233.81	110.000
234.19	66.667
234.56	77.273
234.93	51.724
235.31	36.842
235.68	38.889
236.05	10.000
236.43	92.308
236.80	88.000
237.17	33.333
237.55	0.000
237.92	-10.000
238.29	6.452
238.67	34.091
239.04	63.889
239.41	33.333
239.79	23.913
240.16	22.222
240.53	34.783
240.91	17.647
241.28	21.311
241.65	53.731
242.02	27.027
242.40	13.846
242.77	36.000
243.14	36.585
243.51	34.211
243.89	33.333
244.26	40.594
244.63	34.314
245.00	33.645
245.38	26.316
245.75	25.664
246.12	40.476
246.49	24.806
246.87	26.429
247.24	30.464
247.61	26.316
247.98	29.530
248.36	25.926
248.73	20.245
249.10	30.601
249.47	26.368
249.84	30.366
250.22	29.016
250.59	35.556
250.96	25.455
251.33	28.571
251.70	30.342
252.08	29.583
252.45	28.279
252.82	21.074
253.19	23.828
253.56	28.517
253.94	24.231
254.31	30.682
254.68	27.273
255.05	29.967
255.42	30.952
255.79	23.948
256.16	28.146
256.54	24.503
256.91	26.885
257.28	23.607
257.65	26.752
258.02	24.779
258.39	29.345
258.76	25.994
259.14	27.299
259.51	24.207
259.88	29.178
260.25	29.167
260.62	27.671
260.99	29.508
261.36	30.563
261.73	29.973
262.10	29.670
262.47	26.542
262.85	29.798
263.22	25.714
263.59	20.263
263.96	27.621
264.33	26.598
264.70	28.148
265.07	27.208
265.44	28.345
265.81	25.463
266.18	28.571
266.55	28.348
266.92	25.968
267.29	29.759
267.66	27.494
268.03	27.948
268.40	29.019
268.77	28.246
269.14	26.211
269.51	26.754
269.88	29.098
270.25	26.761
270.62	29.325
270.99	30.505
271.36	26.931
271.73	25.344
272.10	26.253
272.47	27.054
272.84	24.900
273.21	27.255
273.58	25.806
273.95	25.385
274.32	26.426
274.69	23.404
275.06	24.725
275.43	24.954
275.80	26.631
276.17	23.519
276.54	23.881
276.91	23.435
277.28	29.295
277.65	25.494
278.02	25.735
278.39	26.268
278.76	26.889
279.13	27.305
279.50	26.804
279.87	24.866
280.23	23.768
280.60	25.593
280.97	27.467
281.34	25.637
281.71	25.888
282.08	22.924
282.45	24.059
282.82	23.391
283.19	23.748
283.56	23.934
283.92	28.679
284.29	25.434
284.66	26.437
285.03	22.756
285.40	24.884
285.77	23.684
286.14	27.328
286.51	24.201
286.87	23.223
287.24	26.657
287.61	23.019
287.98	23.112
288.35	23.817
288.72	23.669
289.08	24.744
289.45	23.077
289.82	24.096
290.19	23.994
290.56	23.662
290.93	24.108
291.29	22.727
291.66	23.278
292.03	21.981
292.40	22.857
292.77	22.102
293.13	23.004
293.50	20.631
293.87	20.805
294.24	22.800
294.60	20.733
294.97	18.658
295.34	21.767
295.71	20.681
296.08	20.026
296.44	20.466
296.81	21.072
297.18	20.672
297.55	20.047
297.91	19.098
298.28	18.483
298.65	20.571
299.02	20.543
299.38	20.481
299.75	19.743
300.12	20.139
300.48	20.622
300.85	20.022
301.22	19.239
301.59	18.493
301.95	17.853
302.32	20.889
302.69	17.963
303.05	19.369
303.42	20.732
303.79	18.750
304.15	18.086
304.52	19.556
304.89	18.743
305.25	19.358
305.62	19.436
305.99	18.660
306.35	20.262
306.72	19.235
307.09	19.188
307.45	18.323
307.82	18.971
308.19	18.365
308.55	20.347
308.92	18.111
309.29	19.540
309.65	20.370
310.02	19.802
310.38	20.177
310.75	20.291
311.12	20.614
311.48	19.453
311.85	20.418
312.22	20.968
312.58	19.624
312.95	21.224
313.31	21.771
313.68	22.802
314.05	22.945
314.41	22.313
314.78	22.797
315.14	23.049
315.51	23.361
315.87	24.482
316.24	23.379
316.61	24.600
316.97	22.805
317.34	23.633
317.70	26.463
318.07	24.780
318.43	25.510
318.80	26.505
319.16	26.352
319.53	26.478
319.89	26.906
320.26	27.758
320.62	27.748
320.99	29.178
321.35	28.928
321.72	30.977
322.08	29.576
322.45	31.888
322.81	31.949
323.18	32.212
323.54	34.052
323.91	34.342
324.27	34.337
324.64	37.112
325.00	36.070
325.37	36.691
325.73	38.926
326.10	39.822
326.46	39.169
326.83	43.155
327.19	42.913
327.56	43.636
327.92	43.509
328.29	44.274
328.65	45.729
329.01	47.208
329.38	49.115
329.74	49.829
330.11	50.685
330.47	49.705
330.84	52.024
331.20	53.167
331.56	53.986
331.93	55.816
332.29	55.339
332.66	56.561
333.02	55.025
333.38	57.299
333.75	57.071
334.11	56.631
334.48	57.838
334.84	58.114
335.20	57.347
335.57	58.853
335.93	59.421
336.29	59.068
336.66	60.639
337.02	61.037
337.38	59.609
337.75	60.165
338.11	62.489
338.47	59.967
338.84	60.745
339.20	59.141
339.56	60.956
339.93	60.591
340.29	58.696
340.65	59.205
341.02	60.814
341.38	61.601
341.74	59.726
342.11	61.545
342.47	60.763
342.83	61.031
343.20	63.778
343.56	63.512
343.92	62.210
344.28	62.266
344.65	62.248
345.01	61.232
345.37	63.453
345.73	61.652
346.10	62.793
346.46	61.867
346.82	61.723
347.19	61.650
347.55	62.974
347.91	63.150
348.27	62.367
348.63	61.919
349.00	61.298
349.36	62.156
349.72	62.500
350.08	62.704
350.45	64.487
350.81	62.745
351.17	63.759
351.53	64.973
351.89	63.933
352.26	63.955
352.62	64.776
352.98	65.191
353.34	62.808
353.70	66.102
354.07	63.934
354.43	65.604
354.79	64.847
355.15	65.121
355.51	66.228
355.87	63.201
356.24	65.703
356.60	62.158
356.96	65.901
357.32	64.312
357.68	65.813
358.04	67.590
358.40	65.821
358.77	65.058
359.13	66.174
359.49	65.725
359.85	65.917
360.21	66.571
360.57	65.398
360.93	65.515
361.29	65.193
361.66	66.618
362.02	67.850
362.38	67.323
362.74	66.969
363.10	67.675
363.46	67.313
363.82	67.756
364.18	68.754
364.54	67.082
364.90	69.164
365.26	68.552
365.62	68.533
365.98	68.278
366.35	68.121
366.71	68.707
367.07	69.486
367.43	68.746
367.79	69.808
368.15	69.565
368.51	69.689
368.87	68.060
369.23	69.600
369.59	72.609
369.95	70.791
370.31	71.708
370.67	71.114
371.03	71.260
371.39	70.248
371.75	72.215
372.11	72.087
372.47	71.429
372.83	72.317
373.19	71.114
373.55	72.561
373.91	72.802
374.27	73.286
374.63	74.087
374.99	73.740
375.35	75.714
375.71	73.548
376.07	73.596
376.42	74.181
376.78	75.575
377.14	74.298
377.50	75.712
377.86	74.076
378.22	76.407
378.58	76.516
378.94	75.880
379.30	76.567
379.66	77.778
380.02	76.515
380.38	77.650
380.74	78.310
381.09	79.094
381.45	78.295
381.81	79.625
382.17	79.276
382.53	79.357
382.89	77.088
383.25	80.422
383.61	81.655
383.97	81.154
384.32	83.493
384.68	79.466
385.04	83.112
385.40	82.616
385.76	83.529
386.12	80.969
386.48	82.412
386.83	83.969
387.19	82.445
387.55	83.568
387.91	83.505
388.27	82.852
388.62	84.135
388.98	83.080
389.34	85.032
389.70	86.810
390.06	83.481
390.42	83.855
390.77	85.912
391.13	86.209
391.49	87.077
391.85	87.333
392.20	86.240
392.56	85.824
392.92	84.951
393.28	86.788
393.64	87.151
393.99	87.798
394.35	89.428
394.71	88.982
395.07	87.904
395.42	87.950
395.78	89.336
396.14	88.829
396.50	87.767
396.85	88.014
397.21	87.278
397.57	88.339
397.92	88.030
398.28	88.104
398.64	88.616
399.00	87.487
399.35	87.801
399.71	89.728
400.07	89.388
400.42	89.814
400.78	89.931
401.14	89.243
401.49	90.449
401.85	92.384
402.21	90.672
402.57	91.138
402.92	90.780
403.28	90.047
403.63	90.692
403.99	90.736
404.35	89.937
404.70	89.462
405.06	88.913
405.42	91.920
405.77	90.567
406.13	90.384
406.49	91.723
406.84	90.693
407.20	89.547
407.55	91.641
407.91	91.452
408.27	90.459
408.62	92.205
408.98	92.861
409.34	91.496
409.69	92.522
410.05	90.445
410.40	92.401
410.76	89.905
411.11	92.694
411.47	92.383
411.83	93.416
412.18	93.012
412.54	91.286
412.89	93.306
413.25	91.479
413.60	91.901
413.96	93.240
414.31	92.238
414.67	92.010
415.03	90.892
415.38	95.019
415.74	92.181
416.09	93.769
416.45	92.110
416.80	91.371
417.16	92.401
417.51	92.715
417.87	92.765
418.22	93.054
418.58	93.185
418.93	95.169
419.29	95.129
419.64	93.037
420.00	93.116
420.35	93.206
420.71	94.084
421.06	92.639
421.42	95.528
421.77	92.461
422.12	93.763
422.48	93.651
422.83	95.509
423.19	94.642
423.54	97.013
423.90	93.595
424.25	96.267
424.61	96.096
424.96	94.234
425.31	94.480
425.67	94.257
426.02	96.514
426.38	95.637
426.73	95.926
427.09	95.848
427.44	95.904
427.79	97.070
428.15	95.833
428.50	96.348
428.85	94.546
429.21	95.904
429.56	95.656
429.92	95.381
430.27	96.337
430.62	95.848
430.98	96.065
431.33	96.530
431.68	95.594
432.04	97.918
432.39	96.197
432.74	96.005
433.10	98.702
433.45	97.715
433.80	96.620
434.16	96.539
434.51	97.790
434.86	98.697
435.22	99.787
435.57	101.474
435.92	98.776
436.28	98.805
436.63	100.273
436.98	97.101
437.34	98.253
437.69	99.064
438.04	98.572
438.39	97.530
438.75	97.454
439.10	98.573
439.45	97.429
439.81	98.192
440.16	97.748
440.51	101.059
440.86	97.443
441.22	97.964
441.57	99.057
441.92	98.303
442.27	100.657
442.63	98.410
442.98	98.453
443.33	98.948
443.68	98.811
444.03	99.577
444.39	98.798
444.74	99.643
445.09	98.074
445.44	99.947
445.79	100.239
446.15	99.794
446.50	99.328
446.85	100.049
447.20	98.162
447.55	99.582
447.91	100.105
448.26	100.317
448.61	99.150
448.96	101.770
449.31	100.477
449.66	99.183
450.02	99.895
450.37	99.947
450.72	100.323
451.07	100.399
451.42	100.404
451.77	99.944
452.12	101.129
452.47	99.346
452.83	103.547
453.18	99.358
453.53	101.781
453.88	99.393
454.23	100.000
454.58	100.929
454.93	101.456
455.28	102.709
455.63	99.375
455.98	100.670
456.34	101.708
456.69	101.293
457.04	102.364
457.39	101.441
457.74	102.461
458.09	100.549
458.44	100.054
458.79	98.659
459.14	99.895
459.49	101.754
459.84	101.731
460.19	100.944
460.54	101.533
460.89	101.853
461.24	101.034
461.59	100.996
461.94	99.087
462.29	102.968
462.64	100.724
462.99	101.883
463.34	104.088
463.69	99.648
464.04	100.889
464.39	100.392
464.74	98.689
465.09	101.269
465.44	101.073
465.79	99.841
466.14	99.427
466.49	101.421
466.84	101.928
467.19	100.867
467.54	99.706
467.89	100.345
468.24	101.163
468.59	99.942
468.94	101.107
469.29	100.240
469.64	101.653
469.99	102.231
470.34	100.495
470.68	103.828
471.03	103.864
471.38	104.447
471.73	103.316
472.08	102.855
472.43	102.529
472.78	101.008
473.13	104.678
473.48	102.598
473.83	103.076
474.17	102.110
474.52	105.652
474.87	100.720
475.22	102.254
475.57	102.077
475.92	100.597
476.27	101.491
476.61	100.312
476.96	102.294
477.31	102.624
477.66	105.719
478.01	102.084
478.36	100.798
478.70	100.493
479.05	101.789
479.40	103.060
479.75	101.825
480.10	100.947
480.45	102.735
480.79	101.361
481.14	102.344
481.49	103.726
481.84	101.349
482.19	101.290
482.53	102.667
482.88	102.614
483.23	102.579
483.58	102.009
483.92	100.355
484.27	101.736
484.62	100.908
484.97	100.855
485.31	99.894
485.66	94.113
486.01	93.093
486.36	95.913
486.70	98.603
487.05	101.030
487.40	99.629
487.75	99.186
488.09	101.268
488.44	99.229
488.79	100.067
489.13	100.507
489.48	100.777
489.83	99.678
490.17	101.823
490.52	100.739
490.87	101.819
491.22	102.946
491.56	102.261
491.91	101.744
492.26	102.293
492.60	102.886
492.95	102.808
493.30	102.196
493.64	102.102
493.99	101.623
494.34	102.221
494.68	101.713
495.03	101.586
495.37	103.329
495.72	102.268
496.07	101.315
496.41	101.030
496.76	103.044
497.11	102.760
497.45	103.064
497.80	102.132
498.14	102.585
498.49	102.803
498.84	102.605
499.18	101.754
499.53	102.018
499.87	102.198
500.22	102.404
500.56	102.654
500.91	103.295
501.26	103.364
501.60	101.768
501.95	101.259
502.29	102.501
502.64	102.755
502.98	100.302
503.33	101.469
503.67	101.962
504.02	101.095
504.36	105.228
504.71	103.629
505.06	102.183
505.40	101.965
505.75	102.550
506.09	103.821
506.44	103.993
506.78	102.661
507.13	103.320
507.47	103.742
507.82	103.741
508.16	102.199
508.51	102.297
508.85	104.960
509.19	103.837
509.54	103.314
509.88	104.225
510.23	104.760
510.57	104.157
510.92	105.467
511.26	103.896
511.61	102.173
511.95	102.782
512.30	103.250
512.64	103.748
512.98	103.052
513.33	105.544
513.67	102.958
514.02	104.446
514.36	104.706
514.70	105.521
515.05	105.162
515.39	106.037
515.74	104.136
516.08	104.913
516.42	106.384
516.77	105.731
517.11	103.352
517.46	105.249
517.80	107.376
518.14	107.454
518.49	105.694
518.83	105.216
519.17	103.770
519.52	103.616
519.86	105.174
520.20	106.070
520.55	105.531
520.89	106.532
521.23	105.918
521.58	107.853
521.92	107.422
522.26	105.212
522.61	106.771
522.95	106.228
523.29	107.989
523.64	105.549
523.98	106.845
524.32	107.851
524.66	106.887
525.01	104.473
525.35	106.605
525.69	106.148
526.04	104.765
526.38	107.126
526.72	105.882
527.06	107.977
527.41	106.764
527.75	108.789
528.09	107.025
528.43	106.039
528.78	105.549
529.12	105.734
529.46	104.384
529.80	105.664
530.15	107.420
530.49	107.770
530.83	106.316
531.17	106.691
531.51	107.401
531.86	107.993
532.20	107.561
532.54	103.950
532.88	106.121
533.22	105.775
533.57	104.155
533.91	104.545
534.25	105.879
534.59	106.494
534.93	104.697
535.27	105.183
535.62	105.571
535.96	105.404
536.30	105.347
536.64	106.306
536.98	106.704
537.32	107.778
537.66	106.301
538.01	104.048
538.35	105.055
538.69	105.048
539.03	106.131
539.37	104.653
539.71	104.985
540.05	104.317
540.39	104.034
540.73	104.736
541.07	105.947
541.42	103.957
541.76	104.508
542.10	105.308
542.44	105.786
542.78	105.900
543.12	105.006
543.46	104.029
543.80	104.317
544.14	104.548
544.48	104.728
544.82	105.266
545.16	106.142
545.50	103.715
545.84	104.593
546.18	105.926
546.52	105.860
546.86	104.654
547.20	106.107
547.54	104.182
547.88	102.411
548.22	103.392
548.56	104.447
548.90	104.776
549.24	106.140
549.58	105.615
549.92	106.569
550.26	104.984
550.60	105.105
550.94	106.145
551.28	102.640
551.62	105.660
551.96	102.330
552.30	105.035
552.64	105.165
552.98	106.114
553.32	105.852
553.66	105.402
554.00	106.305
554.34	106.306
554.68	103.680
555.02	106.242
555.36	106.509
555.69	103.844
556.03	104.855
556.37	104.443
556.71	105.200
557.05	105.559
557.39	106.503
557.73	104.822
558.07	107.086
558.41	107.043
558.75	105.071
559.08	107.794
559.42	107.545
559.76	104.071
560.10	104.622
560.44	107.256
560.78	103.438
561.12	105.542
561.45	104.988
561.79	104.457
562.13	105.915
562.47	103.083
562.81	106.203
563.15	105.429
563.48	104.351
563.82	105.200
564.16	102.847
564.50	103.695
564.84	103.068
565.17	103.529
565.51	102.532
565.85	104.157
566.19	102.419
566.52	104.330
566.86	106.055
567.20	101.305
567.54	103.133
567.88	102.650
568.21	102.174
568.55	101.918
568.89	101.498
569.23	98.817
569.56	97.851
569.90	97.505
570.24	97.032
570.57	96.472
570.91	95.713
571.25	95.111
571.59	94.406
571.92	94.403
572.26	94.177
572.60	94.349
572.93	93.376
573.27	94.830
573.61	93.833
573.95	92.207
574.28	92.058
574.62	92.883
574.96	91.045
575.29	90.967
575.63	92.192
575.97	92.479
576.30	91.883
576.64	92.842
576.98	92.574
577.31	92.444
577.65	92.158
577.98	91.303
578.32	90.715
578.66	90.859
578.99	91.829
579.33	93.130
579.67	91.954
580.00	91.728
580.34	91.056
580.67	91.681
581.01	90.956
581.35	90.064
581.68	90.027
582.02	89.186
582.35	91.056
582.69	91.550
583.02	91.702
583.36	91.929
583.70	92.524
584.03	90.761
584.37	92.249
584.70	90.880
585.04	91.025
585.37	91.251
585.71	90.162
586.04	91.347
586.38	91.156
586.72	92.354
587.05	93.042
587.39	93.219
587.72	92.751
588.06	91.828
588.39	91.860
588.73	91.693
589.06	93.284
589.40	95.636
589.73	93.927
590.07	93.767
590.40	94.929
590.73	94.309
591.07	95.160
591.40	95.257
591.74	96.145
592.07	95.209
592.41	94.401
592.74	93.149
593.08	93.567
593.41	93.467
593.75	93.161
594.08	94.456
594.41	94.712
594.75	93.424
595.08	94.650
595.42	94.416
595.75	92.703
596.09	96.442
596.42	95.127
596.75	95.677
597.09	96.404
597.42	94.279
597.75	94.590
598.09	94.246
598.42	95.497
598.76	94.727
599.09	93.236
599.42	91.753
599.76	93.958
600.09	93.794
600.42	93.260
600.76	93.098
601.09	92.200
601.42	92.688
601.76	93.207
602.09	92.888
602.42	93.639
602.76	93.727
603.09	95.007
603.42	94.870
603.76	92.283
604.09	94.500
604.42	93.578
604.76	93.874
605.09	95.253
605.42	94.657
605.75	94.269
606.09	94.588
606.42	93.725
606.75	92.954
607.09	92.742
607.42	93.565
607.75	94.607
608.08	93.765
608.42	94.236
608.75	94.942
609.08	94.907
609.41	96.559
609.75	96.429
610.08	97.098
610.41	94.605
610.74	94.412
611.07	96.359
611.41	95.830
611.74	96.952
612.07	96.026
612.40	95.960
612.73	96.626
613.07	97.017
613.40	96.246
613.73	96.052
614.06	96.909
614.39	95.384
614.72	95.827
615.06	95.573
615.39	95.070
615.72	94.692
616.05	95.969
616.38	97.326
616.71	96.970
617.05	96.166
617.38	97.111
617.71	97.354
618.04	99.137
618.37	98.470
618.70	99.095
619.03	99.283
619.36	97.349
619.69	99.039
620.03	99.435
620.36	98.957
620.69	99.321
621.02	101.444
621.35	104.644
621.68	102.820
622.01	101.922
622.34	101.813
622.67	100.619
623.00	99.933
623.33	100.730
623.66	102.594
623.99	100.987
624.32	101.040
624.65	99.936
624.99	103.576
625.32	102.090
625.65	100.944
625.98	101.627
626.31	103.260
626.64	102.198
626.97	103.151
