SpectraSuite Data File
++++++++++++++++++++++++++++++++++++
Date: Thu May 14 14:41:55 PDT 2015
User: schluterlab
Dark Spectrum Present: Yes
Reference Spectrum Present: Yes
Number of Sampled Component Spectra: 1
Spectrometers: USB2E3373
Integration Time (usec): 3000 (USB2E3373)
Spectra Averaged: 3 (USB2E3373)
Boxcar Smoothing: 0 (USB2E3373)
Correct for Electrical Dark: No (USB2E3373)
Strobe/Lamp Enabled: No (USB2E3373)
Correct for Detector Non-linearity: No (USB2E3373)
Correct for Stray Light: No (USB2E3373)
Number of Pixels in Processed Spectrum: 2048
>>>>>Begin Processed Spectral Data<<<<<
178.53	0.000
178.91	-157.143
179.29	-700.000
179.67	200.000
180.04	57.143
180.42	-70.000
180.80	-0.000
181.18	800.000
181.56	1200.000
181.94	-275.000
182.31	100.000
182.69	-100.000
183.07	600.000
183.45	175.000
183.83	150.000
184.20	300.000
184.58	100.000
184.96	275.000
185.34	111.111
185.72	300.000
186.09	11.111
186.47	-100.000
186.85	20.000
187.23	77.778
187.61	-600.000
187.98	-20.000
188.36	-200.000
188.74	0.000
189.12	433.333
189.49	56.250
189.87	112.500
190.25	211.111
190.63	160.000
191.00	-33.333
191.38	0.000
191.76	100.000
192.14	183.333
192.51	-0.000
192.89	316.667
193.27	0.000
193.65	85.714
194.02	100.000
194.40	-28.571
194.78	114.286
195.15	0.000
195.53	27.273
195.91	0.000
196.29	475.000
196.66	100.000
197.04	-300.000
197.42	57.143
197.79	200.000
198.17	50.000
198.55	57.143
198.92	155.556
199.30	37.500
199.68	100.000
200.05	35.714
200.43	-200.000
200.81	42.857
201.18	0.000
201.56	11.111
201.94	0.000
202.31	33.333
202.69	44.444
203.07	-600.000
203.44	0.000
203.82	200.000
204.19	66.667
204.57	166.667
204.95	12.500
205.32	200.000
205.70	-275.000
206.08	0.000
206.45	150.000
206.83	-40.000
207.20	116.667
207.58	0.000
207.96	133.333
208.33	266.667
208.71	-50.000
209.08	200.000
209.46	0.000
209.84	16.667
210.21	-0.000
210.59	-250.000
210.96	-233.333
211.34	200.000
211.71	50.000
212.09	0.000
212.46	0.000
212.84	-100.000
213.22	-80.000
213.59	200.000
213.97	80.000
214.34	133.333
214.72	166.667
215.09	325.000
215.47	0.000
215.84	-28.571
216.22	-400.000
216.59	60.000
216.97	100.000
217.34	25.000
217.72	87.500
218.09	-25.000
218.47	0.000
218.84	0.000
219.22	-200.000
219.59	29.412
219.97	80.000
220.34	-300.000
220.72	-11.111
221.09	84.615
221.47	100.000
221.84	150.000
222.22	-57.143
222.59	0.000
222.97	162.500
223.34	40.000
223.72	800.000
224.09	175.000
224.46	-125.000
224.84	200.000
225.21	28.571
225.59	-75.000
225.96	0.000
226.34	26.923
226.71	-16.667
227.08	50.000
227.46	66.667
227.83	25.000
228.21	73.684
228.58	-25.000
228.95	-0.000
229.33	83.333
229.70	30.000
230.08	105.263
230.45	50.000
230.82	433.333
231.20	114.286
231.57	41.667
231.95	-36.364
232.32	-18.182
232.69	45.000
233.07	125.000
233.44	64.706
233.81	40.000
234.19	83.333
234.56	50.000
234.93	51.724
235.31	52.632
235.68	55.556
236.05	-5.000
236.43	26.923
236.80	96.000
237.17	0.000
237.55	18.182
237.92	90.000
238.29	25.806
238.67	38.636
239.04	41.667
239.41	14.286
239.79	13.043
240.16	25.926
240.53	26.087
240.91	3.922
241.28	8.197
241.65	20.896
242.02	17.568
242.40	12.308
242.77	20.000
243.14	6.098
243.51	2.632
243.89	5.128
244.26	13.861
244.63	15.686
245.00	15.888
245.38	7.895
245.75	1.770
246.12	17.460
246.49	13.953
246.87	10.000
247.24	12.583
247.61	5.263
247.98	12.752
248.36	8.025
248.73	4.908
249.10	9.836
249.47	12.438
249.84	16.230
250.22	11.917
250.59	13.333
250.96	14.091
251.33	5.102
251.70	11.111
252.08	12.917
252.45	12.705
252.82	8.264
253.19	10.547
253.56	9.506
253.94	8.077
254.31	11.742
254.68	13.636
255.05	12.378
255.42	10.204
255.79	7.767
256.16	9.934
256.54	5.629
256.91	12.787
257.28	12.787
257.65	8.599
258.02	8.850
258.39	11.111
258.76	13.456
259.14	10.920
259.51	9.222
259.88	8.215
260.25	10.556
260.62	10.685
260.99	13.661
261.36	10.724
261.73	7.162
262.10	9.066
262.47	7.775
262.85	13.636
263.22	6.494
263.59	7.105
263.96	7.161
264.33	6.138
264.70	11.111
265.07	11.695
265.44	10.204
265.81	9.491
266.18	9.524
266.55	10.268
266.92	8.884
267.29	10.503
267.66	9.313
268.03	8.297
268.40	8.351
268.77	6.834
269.14	7.489
269.51	9.649
269.88	10.041
270.25	11.066
270.62	11.603
270.99	12.525
271.36	9.109
271.73	11.591
272.10	10.421
272.47	8.417
272.84	7.028
273.21	7.014
273.58	9.879
273.95	8.462
274.32	8.555
274.69	7.544
275.06	10.073
275.43	6.470
275.80	10.406
276.17	8.333
276.54	8.396
276.91	8.408
277.28	9.584
277.65	8.259
278.02	11.029
278.39	7.790
278.76	7.557
279.13	7.447
279.50	9.107
279.87	10.197
280.23	7.042
280.60	8.983
280.97	6.743
281.34	7.131
281.71	10.829
282.08	8.306
282.45	10.475
282.82	7.692
283.19	7.593
283.56	6.885
283.92	9.309
284.29	9.163
284.66	8.867
285.03	6.090
285.40	8.964
285.77	8.514
286.14	8.550
286.51	9.437
286.87	8.689
287.24	9.488
287.61	7.773
287.98	6.193
288.35	9.911
288.72	7.692
289.08	8.638
289.45	7.692
289.82	8.133
290.19	7.902
290.56	7.606
290.93	8.559
291.29	7.989
291.66	6.061
292.03	5.834
292.40	8.980
292.77	7.143
293.13	7.172
293.50	4.599
293.87	7.651
294.24	7.333
294.60	7.965
294.97	7.383
295.34	7.298
295.71	6.557
296.08	6.072
296.44	6.495
296.81	7.186
297.18	5.853
297.55	6.486
297.91	6.406
298.28	6.280
298.65	6.064
299.02	5.431
299.38	6.636
299.75	6.192
300.12	5.671
300.48	5.991
300.85	7.424
301.22	7.047
301.59	5.708
301.95	7.345
302.32	7.111
302.69	6.681
303.05	5.441
303.42	6.098
303.79	6.250
304.15	6.414
304.52	5.074
304.89	6.283
305.25	6.211
305.62	5.538
305.99	5.464
306.35	5.645
306.72	5.688
307.09	5.888
307.45	6.108
307.82	6.256
308.19	5.449
308.55	5.979
308.92	5.355
309.29	5.651
309.65	5.848
310.02	4.356
310.38	6.102
310.75	5.922
311.12	5.465
311.48	4.985
311.85	5.983
312.22	4.649
312.58	6.197
312.95	5.163
313.31	6.052
313.68	5.952
314.05	8.311
314.41	6.466
314.78	6.540
315.14	5.717
315.51	6.002
315.87	6.211
316.24	6.301
316.61	6.217
316.97	5.339
317.34	4.586
317.70	6.114
318.07	5.026
318.43	5.782
318.80	6.522
319.16	6.180
319.53	4.370
319.89	5.697
320.26	5.961
320.62	5.230
320.99	5.171
321.35	5.823
321.72	6.698
322.08	5.771
322.45	5.420
322.81	7.581
323.18	5.664
323.54	6.897
323.91	5.872
324.27	5.594
324.64	6.465
325.00	5.141
325.37	6.388
325.73	5.785
326.10	6.894
326.46	6.352
326.83	6.245
327.19	6.220
327.56	6.166
327.92	5.350
328.29	5.161
328.65	6.365
329.01	5.922
329.38	5.307
329.74	6.336
330.11	5.736
330.47	5.897
330.84	5.168
331.20	6.417
331.56	5.719
331.93	6.778
332.29	6.186
332.66	5.731
333.02	6.281
333.38	4.866
333.75	5.976
334.11	6.088
334.48	5.858
334.84	7.732
335.20	5.961
335.57	6.071
335.93	6.281
336.29	6.489
336.66	6.308
337.02	5.435
337.38	7.313
337.75	6.198
338.11	6.224
338.47	6.369
338.84	6.514
339.20	4.971
339.56	5.766
339.93	5.747
340.29	6.361
340.65	5.839
341.02	6.464
341.38	6.629
341.74	5.973
342.11	5.792
342.47	5.481
342.83	5.395
343.20	6.051
343.56	4.731
343.92	6.085
344.28	6.641
344.65	5.736
345.01	6.396
345.37	6.765
345.73	5.456
346.10	5.694
346.46	6.250
346.82	7.041
347.19	5.959
347.55	5.994
347.91	5.498
348.27	5.766
348.63	6.474
349.00	5.518
349.36	6.691
349.72	5.208
350.08	6.241
350.45	5.551
350.81	5.505
351.17	5.940
351.53	6.596
351.89	6.606
352.26	5.299
352.62	6.493
352.98	5.954
353.34	5.078
353.70	4.931
354.07	5.887
354.43	5.543
354.79	5.610
355.15	5.666
355.51	5.994
355.87	4.936
356.24	5.779
356.60	5.395
356.96	5.486
357.32	5.799
357.68	4.758
358.04	5.240
358.40	5.448
358.77	5.263
359.13	5.244
359.49	4.758
359.85	5.149
360.21	5.380
360.57	5.384
360.93	4.937
361.29	5.754
361.66	5.793
362.02	5.915
362.38	5.200
362.74	5.936
363.10	5.227
363.46	5.609
363.82	5.682
364.18	6.193
364.54	5.463
364.90	6.221
365.26	4.621
365.62	6.667
365.98	5.310
366.35	5.436
366.71	5.782
367.07	6.157
367.43	5.975
367.79	6.304
368.15	6.288
368.51	5.751
368.87	5.095
369.23	5.267
369.59	6.148
369.95	5.341
370.31	5.807
370.67	5.296
371.03	5.886
371.39	5.507
371.75	5.983
372.11	5.691
372.47	5.552
372.83	6.021
373.19	5.871
373.55	6.098
373.91	5.044
374.27	5.563
374.63	5.277
374.99	5.438
375.35	5.455
375.71	5.355
376.07	6.068
376.42	5.290
376.78	5.594
377.14	5.240
377.50	5.060
377.86	5.973
378.22	5.569
378.58	6.124
378.94	5.282
379.30	5.800
379.66	5.173
380.02	5.424
380.38	6.164
380.74	5.070
381.09	5.633
381.45	6.136
381.81	6.089
382.17	6.591
382.53	5.088
382.89	6.151
383.25	5.217
383.61	5.324
383.97	5.359
384.32	6.400
384.68	5.278
385.04	6.478
385.40	6.070
385.76	6.155
386.12	5.745
386.48	5.235
386.83	6.496
387.19	5.330
387.55	5.106
387.91	5.651
388.27	5.543
388.62	5.670
388.98	4.851
389.34	5.834
389.70	5.288
390.06	5.743
390.42	5.783
390.77	7.044
391.13	6.162
391.49	6.099
391.85	5.333
392.20	5.219
392.56	6.025
392.92	6.052
393.28	5.804
393.64	5.419
393.99	6.217
394.35	6.484
394.71	6.108
395.07	5.569
395.42	5.197
395.78	6.886
396.14	6.239
396.50	5.938
396.85	6.142
397.21	5.917
397.57	5.830
397.92	5.899
398.28	4.726
398.64	6.064
399.00	5.707
399.35	5.602
399.71	5.489
400.07	5.896
400.42	5.763
400.78	5.440
401.14	5.692
401.49	5.856
401.85	5.116
402.21	6.373
402.57	6.338
402.92	6.147
403.28	5.796
403.63	4.952
403.99	6.176
404.35	6.595
404.70	5.269
405.06	5.707
405.42	5.972
405.77	5.834
406.13	5.727
406.49	5.518
406.84	6.427
407.20	5.757
407.55	5.754
407.91	5.028
408.27	5.654
408.62	6.283
408.98	6.036
409.34	5.044
409.69	6.304
410.05	6.096
410.40	6.090
410.76	6.057
411.11	6.546
411.47	6.265
411.83	5.820
412.18	5.904
412.54	5.750
412.89	6.694
413.25	5.813
413.60	5.801
413.96	6.410
414.31	6.459
414.67	5.605
415.03	5.354
415.38	6.053
415.74	5.192
416.09	6.477
416.45	5.197
416.80	5.814
417.16	5.364
417.51	5.791
417.87	6.070
418.22	5.928
418.58	5.328
418.93	6.112
419.29	5.117
419.64	5.522
420.00	5.519
420.35	6.289
420.71	5.859
421.06	5.233
421.42	5.619
421.77	5.277
422.12	5.920
422.48	5.991
422.83	5.805
423.19	5.836
423.54	5.918
423.90	5.743
424.25	6.133
424.61	5.224
424.96	5.986
425.31	5.998
425.67	5.636
426.02	5.091
426.38	5.855
426.73	5.301
427.09	6.113
427.44	5.680
427.79	5.804
428.15	6.221
428.50	4.888
428.85	6.200
429.21	6.649
429.56	5.479
429.92	5.307
430.27	5.494
430.62	5.423
430.98	5.460
431.33	5.621
431.68	4.981
432.04	5.587
432.39	5.945
432.74	6.336
433.10	5.679
433.45	5.518
433.80	5.794
434.16	5.940
434.51	5.858
434.86	5.863
435.22	5.845
435.57	5.778
435.92	5.732
436.28	6.086
436.63	5.407
436.98	5.958
437.34	5.637
437.69	5.724
438.04	5.130
438.39	5.457
438.75	5.423
439.10	6.131
439.45	6.037
439.81	5.198
440.16	5.469
440.51	5.909
440.86	5.837
441.22	5.573
441.57	5.922
441.92	5.674
442.27	5.556
442.63	5.564
442.98	5.710
443.33	6.155
443.68	6.343
444.03	5.786
444.39	6.288
444.74	6.687
445.09	6.133
445.44	5.638
445.79	5.795
446.15	6.269
446.50	5.375
446.85	6.372
447.20	6.190
447.55	6.119
447.91	5.759
448.26	4.915
448.61	6.323
448.96	6.599
449.31	5.832
449.66	5.338
450.02	5.907
450.37	6.020
450.72	5.920
451.07	5.695
451.42	6.239
451.77	5.559
452.12	6.716
452.47	5.585
452.83	6.363
453.18	6.655
453.53	5.342
453.88	5.798
454.23	6.328
454.58	5.862
454.93	5.522
455.28	6.562
455.63	5.856
455.98	6.425
456.34	6.066
456.69	5.467
457.04	6.442
457.39	5.432
457.74	6.600
458.09	5.546
458.44	6.681
458.79	5.621
459.14	6.345
459.49	6.282
459.84	5.561
460.19	5.664
460.54	6.019
460.89	5.823
461.24	5.690
461.59	6.364
461.94	6.047
462.29	5.935
462.64	5.250
462.99	6.215
463.34	6.035
463.69	6.682
464.04	6.392
464.39	5.774
464.74	6.385
465.09	5.190
465.44	6.116
465.79	5.711
466.14	5.732
466.49	6.000
466.84	5.785
467.19	6.243
467.54	5.170
467.89	5.805
468.24	6.371
468.59	5.211
468.94	6.410
469.29	5.579
469.64	5.213
469.99	5.354
470.34	5.569
470.68	6.562
471.03	5.501
471.38	6.606
471.73	5.202
472.08	6.218
472.43	6.321
472.78	6.234
473.13	4.994
473.48	6.344
473.83	6.094
474.17	5.569
474.52	5.773
474.87	6.645
475.22	6.648
475.57	6.075
475.92	5.923
476.27	5.431
476.61	5.971
476.96	5.892
477.31	5.743
477.66	6.348
478.01	6.253
478.36	5.733
478.70	5.369
479.05	6.135
479.40	5.429
479.75	6.388
480.10	5.732
480.45	6.427
480.79	6.395
481.14	5.699
481.49	5.952
481.84	6.310
482.19	5.892
482.53	6.384
482.88	5.893
483.23	5.691
483.58	5.546
483.92	5.053
484.27	5.843
484.62	5.858
484.97	6.026
485.31	5.878
485.66	5.347
486.01	4.728
486.36	5.067
486.70	5.427
487.05	5.824
487.40	5.828
487.75	6.081
488.09	6.086
488.44	5.826
488.79	5.936
489.13	6.155
489.48	5.670
489.83	5.473
490.17	5.508
490.52	6.322
490.87	6.176
491.22	5.719
491.56	6.015
491.91	5.669
492.26	6.058
492.60	6.034
492.95	5.968
493.30	5.917
493.64	6.045
493.99	6.053
494.34	6.054
494.68	5.610
495.03	5.507
495.37	6.036
495.72	6.485
496.07	6.135
496.41	5.663
496.76	5.963
497.11	5.902
497.45	5.913
497.80	6.042
498.14	5.669
498.49	5.790
498.84	5.713
499.18	6.028
499.53	6.188
499.87	6.066
500.22	5.254
500.56	5.803
500.91	6.178
501.26	6.500
501.60	5.656
501.95	5.949
502.29	6.362
502.64	6.340
502.98	6.471
503.33	6.048
503.67	6.062
504.02	6.042
504.36	6.166
504.71	6.247
505.06	6.457
505.40	6.124
505.75	6.648
506.09	6.123
506.44	6.314
506.78	5.872
507.13	6.270
507.47	6.206
507.82	6.250
508.16	6.358
508.51	5.907
508.85	6.188
509.19	5.779
509.54	6.340
509.88	6.314
510.23	6.508
510.57	6.718
510.92	6.870
511.26	6.013
511.61	5.649
511.95	6.393
512.30	6.647
512.64	5.747
512.98	6.253
513.33	6.401
513.67	5.507
514.02	6.234
514.36	5.575
514.70	6.458
515.05	5.370
515.39	6.457
515.74	6.628
516.08	6.445
516.42	6.803
516.77	7.045
517.11	6.447
517.46	6.098
517.80	7.269
518.14	7.345
518.49	6.562
518.83	6.812
519.17	6.354
519.52	7.180
519.86	6.019
520.20	6.976
520.55	6.298
520.89	6.757
521.23	7.035
521.58	6.723
521.92	6.062
522.26	6.071
522.61	5.961
522.95	6.517
523.29	6.494
523.64	6.390
523.98	7.017
524.32	7.163
524.66	6.204
525.01	6.116
525.35	6.548
525.69	6.845
526.04	6.602
526.38	7.011
526.72	8.074
527.06	6.979
527.41	6.122
527.75	6.710
528.09	7.320
528.43	6.513
528.78	6.532
529.12	5.562
529.46	7.195
529.80	6.693
530.15	6.957
530.49	6.050
530.83	7.025
531.17	6.691
531.51	6.378
531.86	7.332
532.20	7.256
532.54	6.882
532.88	5.879
533.22	6.777
533.57	6.809
533.91	7.127
534.25	6.614
534.59	6.609
534.93	6.452
535.27	7.155
535.62	6.993
535.96	7.089
536.30	7.344
536.64	7.928
536.98	7.073
537.32	7.407
537.66	6.550
538.01	6.344
538.35	6.151
538.69	6.370
539.03	7.112
539.37	7.656
539.71	6.727
540.05	7.194
540.39	6.540
540.73	6.982
541.07	6.806
541.42	7.088
541.76	6.524
542.10	6.454
542.44	5.725
542.78	6.569
543.12	6.794
543.46	7.143
543.80	5.935
544.14	6.164
544.48	7.151
544.82	7.301
545.16	6.738
545.50	6.171
545.84	7.226
546.18	7.778
546.52	6.433
546.86	7.736
547.20	7.379
547.54	6.617
547.88	6.209
548.22	6.550
548.56	6.905
548.90	6.149
549.24	7.112
549.58	6.877
549.92	6.633
550.26	6.990
550.60	7.403
550.94	6.274
551.28	7.657
551.62	7.278
551.96	7.120
552.30	7.330
552.64	7.281
552.98	6.488
553.32	7.717
553.66	7.138
554.00	6.873
554.34	6.628
554.68	7.424
555.02	7.030
555.36	7.298
555.69	6.855
556.03	6.747
556.37	7.259
556.71	6.405
557.05	6.965
557.39	6.238
557.73	6.275
558.07	6.556
558.41	7.043
558.75	7.235
559.08	6.750
559.42	6.653
559.76	7.598
560.10	7.033
560.44	6.728
560.78	8.000
561.12	6.897
561.45	7.238
561.79	7.937
562.13	7.455
562.47	6.843
562.81	7.025
563.15	7.386
563.48	6.464
563.82	6.651
564.16	6.420
564.50	7.211
564.84	6.608
565.17	7.118
565.51	6.502
565.85	6.829
566.19	6.221
566.52	7.080
566.86	6.508
567.20	6.906
567.54	6.001
567.88	7.390
568.21	6.571
568.55	6.187
568.89	6.400
569.23	6.591
569.56	6.135
569.90	6.023
570.24	6.476
570.57	5.581
570.91	5.879
571.25	5.988
571.59	6.290
571.92	6.077
572.26	5.956
572.60	5.651
572.93	6.652
573.27	6.238
573.61	6.379
573.95	6.021
574.28	6.073
574.62	5.571
574.96	5.734
575.29	6.037
575.63	6.006
575.97	6.156
576.30	6.415
576.64	5.870
576.98	5.740
577.31	5.869
577.65	5.964
577.98	5.685
578.32	6.031
578.66	6.031
578.99	6.103
579.33	6.181
579.67	5.984
580.00	6.159
580.34	6.414
580.67	5.980
581.01	5.712
581.35	5.961
581.68	5.856
582.02	5.782
582.35	5.623
582.69	5.884
583.02	6.279
583.36	6.326
583.70	6.317
584.03	5.976
584.37	6.295
584.70	6.088
585.04	5.906
585.37	5.921
585.71	6.041
586.04	6.055
586.38	6.035
586.72	5.666
587.05	5.858
587.39	6.133
587.72	5.933
588.06	6.359
588.39	6.099
588.73	6.058
589.06	6.603
589.40	6.269
589.73	6.523
590.07	6.432
590.40	6.829
590.73	6.575
591.07	6.329
591.40	6.493
591.74	6.280
592.07	6.821
592.41	6.822
592.74	6.106
593.08	6.433
593.41	6.066
593.75	6.092
594.08	6.665
594.41	6.474
594.75	6.609
595.08	6.258
595.42	5.909
595.75	6.813
596.09	6.506
596.42	6.593
596.75	6.561
597.09	7.273
597.42	6.754
597.75	6.899
598.09	6.746
598.42	6.996
598.76	6.305
599.09	6.515
599.42	6.403
599.76	6.174
600.09	6.640
600.42	6.607
600.76	6.110
601.09	6.107
601.42	6.248
601.76	6.552
602.09	6.183
602.42	6.616
602.76	6.679
603.09	6.314
603.42	6.286
603.76	5.955
604.09	6.849
604.42	6.459
604.76	6.126
605.09	5.943
605.42	6.579
605.75	6.308
606.09	6.346
606.42	6.312
606.75	5.922
607.09	5.799
607.42	6.012
607.75	5.979
608.08	6.590
608.42	6.167
608.75	6.468
609.08	6.112
609.41	6.881
609.75	6.339
610.08	6.640
610.41	6.457
610.74	7.185
611.07	6.439
611.41	6.771
611.74	6.882
612.07	6.732
612.40	6.511
612.73	6.161
613.07	6.650
613.40	6.978
613.73	6.307
614.06	6.379
614.39	6.365
614.72	6.599
615.06	6.930
615.39	6.622
615.72	5.972
616.05	7.237
616.38	7.366
616.71	7.471
617.05	6.283
617.38	7.544
617.71	6.803
618.04	7.016
618.37	7.268
618.70	7.127
619.03	6.033
619.36	7.152
619.69	6.726
620.03	7.345
620.36	6.503
620.69	6.601
621.02	6.365
621.35	7.402
621.68	8.026
622.01	7.331
622.34	6.555
622.67	6.323
623.00	5.466
623.33	6.702
623.66	7.263
623.99	6.254
624.32	8.122
624.65	6.885
624.99	6.632
625.32	7.250
625.65	7.350
625.98	6.237
626.31	7.654
626.64	7.985
626.97	7.202
627.30	6.074
627.63	7.202
627.96	7.958
628.29	6.693
628.62	7.641
628.95	6.924
629.28	7.477
629.61	7.744
629.94	6.192
630.26	6.780
630.59	7.427
630.92	6.407
631.25	7.513
631.58	8.098
631.91	6.748
632.24	7.109
632.57	7.021
632.90	6.219
633.23	7.755
633.56	7.245
633.89	6.198
634.22	7.692
634.55	7.098
634.88	7.684
635.20	9.365
635.53	7.119
635.86	6.392
636.19	8.059
636.52	6.329
636.85	7.763
637.18	7.796
637.51	7.957
637.83	7.973
638.16	7.604
638.49	5.869
638.82	6.764
639.15	6.987
639.48	8.199
639.81	8.083
640.13	7.656
640.46	5.455
640.79	6.127
641.12	7.950
641.45	7.152
641.77	9.243
642.10	6.955
642.43	8.644
642.76	7.453
643.09	7.534
643.41	6.863
643.74	7.448
644.07	8.000
644.40	8.345
644.73	7.257
645.05	8.223
645.38	8.921
645.71	8.944
646.04	10.187
646.36	8.029
646.69	7.669
647.02	9.480
647.35	7.786
647.67	7.890
648.00	7.643
648.33	10.210
648.66	9.272
648.98	7.211
649.31	8.660
649.64	8.898
649.96	7.958
650.29	8.206
650.62	8.062
650.94	7.508
651.27	6.287
651.60	9.064
651.92	7.599
652.25	8.104
652.58	8.116
652.90	6.250
653.23	9.155
653.56	7.703
653.88	8.848
654.21	7.746
654.54	7.803
654.86	9.490
655.19	7.026
655.52	7.023
655.84	5.357
656.17	6.006
656.49	8.734
656.82	10.104
657.15	8.437
657.47	6.564
657.80	5.098
658.13	4.181
658.45	5.357
658.78	6.622
659.10	6.745
659.43	6.792
