SpectraSuite Data File
++++++++++++++++++++++++++++++++++++
Date: Thu May 14 14:28:37 PDT 2015
User: schluterlab
Dark Spectrum Present: Yes
Reference Spectrum Present: Yes
Number of Sampled Component Spectra: 1
Spectrometers: USB2E3373
Integration Time (usec): 3000 (USB2E3373)
Spectra Averaged: 3 (USB2E3373)
Boxcar Smoothing: 0 (USB2E3373)
Correct for Electrical Dark: No (USB2E3373)
Strobe/Lamp Enabled: No (USB2E3373)
Correct for Detector Non-linearity: No (USB2E3373)
Correct for Stray Light: No (USB2E3373)
Number of Pixels in Processed Spectrum: 2048
>>>>>Begin Processed Spectral Data<<<<<
178.53	0.000
178.91	-185.714
179.29	400.000
179.67	1600.000
180.04	85.714
180.42	-100.000
180.80	-200.000
181.18	1900.000
181.56	2500.000
181.94	-525.000
182.31	225.000
182.69	-400.000
183.07	850.000
183.45	-400.000
183.83	66.667
184.20	600.000
184.58	-1500.000
184.96	250.000
185.34	111.111
185.72	480.000
186.09	-100.000
186.47	-650.000
186.85	80.000
187.23	88.889
187.61	-200.000
187.98	-200.000
188.36	-400.000
188.74	550.000
189.12	266.667
189.49	87.500
189.87	175.000
190.25	55.556
190.63	420.000
191.00	88.889
191.38	0.000
191.76	450.000
192.14	316.667
192.51	-700.000
192.89	350.000
193.27	0.000
193.65	142.857
194.02	400.000
194.40	100.000
194.78	-200.000
195.15	0.000
195.53	118.182
195.91	0.000
196.29	250.000
196.66	61.538
197.04	-100.000
197.42	171.429
197.79	400.000
198.17	212.500
198.55	214.286
198.92	166.667
199.30	162.500
199.68	109.091
200.05	157.143
200.43	450.000
200.81	-185.714
201.18	0.000
201.56	-11.111
201.94	0.000
202.31	-433.333
202.69	111.111
203.07	-1100.000
203.44	155.556
203.82	325.000
204.19	133.333
204.57	83.333
204.95	162.500
205.32	1000.000
205.70	-425.000
206.08	200.000
206.45	133.333
206.83	-60.000
207.20	183.333
207.58	80.000
207.96	66.667
208.33	416.667
208.71	-83.333
209.08	250.000
209.46	0.000
209.84	-200.000
210.21	-50.000
210.59	-800.000
210.96	-166.667
211.34	475.000
211.71	212.500
212.09	800.000
212.46	0.000
212.84	-200.000
213.22	100.000
213.59	375.000
213.97	140.000
214.34	466.667
214.72	-50.000
215.09	150.000
215.47	0.000
215.84	-100.000
216.22	-450.000
216.59	460.000
216.97	120.000
217.34	175.000
217.72	212.500
218.09	150.000
218.47	300.000
218.84	0.000
219.22	-20.000
219.59	70.588
219.97	80.000
220.34	-150.000
220.72	33.333
221.09	192.308
221.47	400.000
221.84	70.000
222.22	157.143
222.59	0.000
222.97	237.500
223.34	240.000
223.72	1100.000
224.09	50.000
224.46	125.000
224.84	320.000
225.21	171.429
225.59	350.000
225.96	450.000
226.34	84.615
226.71	16.667
227.08	50.000
227.46	93.333
227.83	125.000
228.21	84.211
228.58	-50.000
228.95	300.000
229.33	141.667
229.70	210.000
230.08	131.579
230.45	-80.000
230.82	0.000
231.20	128.571
231.57	91.667
231.95	145.455
232.32	136.364
232.69	115.000
233.07	450.000
233.44	111.765
233.81	90.000
234.19	122.222
234.56	77.273
234.93	82.759
235.31	63.158
235.68	127.778
236.05	5.000
236.43	73.077
236.80	112.000
237.17	22.222
237.55	54.545
237.92	10.000
238.29	45.161
238.67	40.909
239.04	27.778
239.41	26.190
239.79	50.000
240.16	27.778
240.53	39.130
240.91	23.529
241.28	9.836
241.65	41.791
242.02	27.027
242.40	9.231
242.77	22.667
243.14	23.171
243.51	23.684
243.89	12.821
244.26	31.683
244.63	19.608
245.00	19.626
245.38	13.158
245.75	11.504
246.12	20.635
246.49	11.628
246.87	29.286
247.24	19.205
247.61	20.395
247.98	19.463
248.36	11.111
248.73	14.110
249.10	15.847
249.47	22.388
249.84	19.895
250.22	11.917
250.59	18.333
250.96	21.818
251.33	13.776
251.70	19.658
252.08	17.500
252.45	15.574
252.82	15.289
253.19	12.500
253.56	16.730
253.94	10.385
254.31	17.045
254.68	17.483
255.05	14.007
255.42	11.905
255.79	13.269
256.16	12.914
256.54	11.589
256.91	15.082
257.28	14.426
257.65	13.376
258.02	10.914
258.39	13.960
258.76	16.514
259.14	14.368
259.51	9.510
259.88	9.915
260.25	13.333
260.62	14.247
260.99	17.486
261.36	14.209
261.73	12.202
262.10	13.462
262.47	11.796
262.85	17.172
263.22	11.429
263.59	6.842
263.96	11.253
264.33	10.997
264.70	14.568
265.07	14.558
265.44	15.873
265.81	9.259
266.18	12.018
266.55	12.946
266.92	10.706
267.29	15.317
267.66	12.417
268.03	13.537
268.40	11.691
268.77	10.478
269.14	9.251
269.51	10.088
269.88	12.910
270.25	13.481
270.62	12.869
270.99	14.343
271.36	12.079
271.73	10.216
272.10	12.224
272.47	12.826
272.84	12.851
273.21	12.425
273.58	10.282
273.95	10.769
274.32	9.886
274.69	9.284
275.06	12.637
275.43	10.906
275.80	12.522
276.17	10.185
276.54	12.313
276.91	9.839
277.28	9.584
277.65	10.772
278.02	10.662
278.39	7.790
278.76	8.436
279.13	10.106
279.50	12.715
279.87	13.775
280.23	7.746
280.60	10.339
280.97	10.855
281.34	10.017
281.71	12.521
282.08	12.957
282.45	8.183
282.82	11.303
283.19	10.339
283.56	9.508
283.92	11.111
284.29	12.006
284.66	11.987
285.03	9.455
285.40	9.737
285.77	10.526
286.14	10.840
286.51	10.654
286.87	11.374
287.24	10.843
287.61	10.762
287.98	8.157
288.35	10.651
288.72	12.426
289.08	10.835
289.45	9.172
289.82	9.639
290.19	10.920
290.56	11.831
290.93	9.272
291.29	11.846
291.66	12.259
292.03	10.041
292.40	10.612
292.77	9.838
293.13	10.961
293.50	10.512
293.87	10.738
294.24	12.400
294.60	12.137
294.97	9.396
295.34	11.396
295.71	9.836
296.08	11.240
296.44	10.907
296.81	11.449
297.18	11.208
297.55	10.259
297.91	10.795
298.28	9.716
298.65	10.464
299.02	10.272
299.38	12.014
299.75	11.565
300.12	9.954
300.48	10.599
300.85	11.811
301.22	11.521
301.59	10.731
301.95	10.847
302.32	9.556
302.69	9.529
303.05	11.099
303.42	9.756
303.79	10.833
304.15	11.251
304.52	10.042
304.89	12.356
305.25	11.077
305.62	10.658
305.99	10.309
306.35	11.190
306.72	11.272
307.09	11.371
307.45	11.077
307.82	11.100
308.19	12.210
308.55	11.475
308.92	10.711
309.29	11.207
309.65	11.014
310.02	11.089
310.38	11.811
310.75	11.262
311.12	11.122
311.48	11.926
311.85	10.826
312.22	11.480
312.58	11.737
312.95	11.281
313.31	11.924
313.68	11.264
314.05	13.731
314.41	12.750
314.78	12.262
315.14	11.706
315.51	12.927
315.87	12.511
316.24	13.607
316.61	12.877
316.97	13.756
317.34	11.287
317.70	13.275
318.07	13.051
318.43	13.180
318.80	14.883
319.16	11.931
319.53	11.825
319.89	12.971
320.26	14.146
320.62	12.855
320.99	12.004
321.35	13.216
321.72	14.791
322.08	13.345
322.45	13.640
322.81	14.260
323.18	14.159
323.54	13.276
323.91	14.502
324.27	13.769
324.64	14.106
325.00	13.433
325.37	14.742
325.73	14.628
326.10	15.166
326.46	14.821
326.83	15.532
327.19	14.646
327.56	15.573
327.92	14.713
328.29	15.726
328.65	14.657
329.01	15.567
329.38	16.344
329.74	17.038
330.11	16.267
330.47	16.681
330.84	15.504
331.20	16.667
331.56	17.591
331.93	16.987
332.29	17.458
332.66	17.442
333.02	16.834
333.38	17.450
333.75	16.835
334.11	17.014
334.48	18.317
334.84	18.012
335.20	16.709
335.57	17.454
335.93	17.190
336.29	16.972
336.66	17.662
337.02	17.642
337.38	17.262
337.75	17.438
338.11	17.830
338.47	18.280
338.84	16.751
339.20	17.439
339.56	18.204
339.93	18.637
340.29	17.874
340.65	17.518
341.02	18.117
341.38	18.998
341.74	17.272
342.11	17.538
342.47	16.362
342.83	18.438
343.20	17.907
343.56	18.364
343.92	18.255
344.28	17.969
344.65	17.984
345.01	18.721
345.37	18.196
345.73	17.771
346.10	17.551
346.46	17.642
346.82	17.753
347.19	17.800
347.55	18.741
347.91	18.574
348.27	16.768
348.63	17.822
349.00	17.897
349.36	17.918
349.72	17.113
350.08	18.053
350.45	17.034
350.81	17.270
351.17	17.669
351.53	18.575
351.89	18.299
352.26	18.731
352.62	17.388
352.98	17.939
353.34	17.625
353.70	17.951
354.07	17.809
354.43	17.464
354.79	18.325
355.15	17.660
355.51	19.444
355.87	18.025
356.24	18.403
356.60	17.812
356.96	17.939
357.32	17.323
357.68	17.643
358.04	18.787
358.40	16.866
358.77	19.006
359.13	17.651
359.49	17.249
359.85	18.347
360.21	17.575
360.57	18.378
360.93	17.278
361.29	18.737
361.66	18.103
362.02	19.068
362.38	18.693
362.74	18.925
363.10	18.982
363.46	18.906
363.82	17.898
364.18	19.353
364.54	19.433
364.90	18.997
365.26	18.621
365.62	19.400
365.98	18.584
366.35	18.725
366.71	19.184
367.07	19.350
367.43	20.289
367.79	19.443
368.15	20.268
368.51	19.283
368.87	20.052
369.23	19.467
369.59	19.536
369.95	18.932
370.31	19.379
370.67	19.326
371.03	20.083
371.39	19.946
371.75	19.120
372.11	20.190
372.47	20.785
372.83	20.353
373.19	20.080
373.55	19.580
373.91	18.814
374.27	20.181
374.63	21.042
374.99	21.353
375.35	21.623
375.71	20.516
376.07	20.594
376.42	21.977
376.78	20.945
377.14	21.273
377.50	22.011
377.86	22.106
378.22	22.156
378.58	22.295
378.94	22.359
379.30	22.671
379.66	22.516
380.02	22.620
380.38	22.120
380.74	22.423
381.09	23.113
381.45	23.409
381.81	23.244
382.17	23.100
382.53	23.626
382.89	22.573
383.25	23.740
383.61	22.801
383.97	23.380
384.32	24.282
384.68	23.028
385.04	24.176
385.40	25.280
385.76	24.502
386.12	25.015
386.48	25.353
386.83	25.507
387.19	24.392
387.55	24.413
387.91	25.400
388.27	26.905
388.62	25.716
388.98	25.550
389.34	26.400
389.70	25.973
390.06	26.110
390.42	25.843
390.77	27.092
391.13	26.350
391.49	26.932
391.85	27.152
392.20	26.335
392.56	27.171
392.92	25.900
393.28	25.981
393.64	26.704
393.99	26.787
394.35	27.395
394.71	25.988
395.07	26.886
395.42	27.127
395.78	28.397
396.14	27.867
396.50	26.603
396.85	26.476
397.21	27.633
397.57	26.678
397.92	27.090
398.28	26.399
398.64	26.545
399.00	25.550
399.35	27.120
399.71	27.391
400.07	26.558
400.42	26.834
400.78	27.546
401.14	27.547
401.49	27.004
401.85	26.977
402.21	27.810
402.57	27.523
402.92	27.246
403.28	27.049
403.63	27.267
403.99	28.266
404.35	27.459
404.70	27.535
405.06	26.087
405.42	28.044
405.77	28.408
406.13	27.661
406.49	27.083
406.84	27.091
407.20	27.949
407.55	27.559
407.91	27.593
408.27	28.327
408.62	27.691
408.98	26.988
409.34	27.331
409.69	27.379
410.05	27.608
410.40	27.842
410.76	27.201
411.11	27.878
411.47	27.027
411.83	27.337
412.18	27.651
412.54	28.275
412.89	27.532
413.25	28.217
413.60	26.422
413.96	28.322
414.31	26.686
414.67	27.609
415.03	27.877
415.38	27.680
415.74	27.428
416.09	27.329
416.45	26.863
416.80	28.091
417.16	27.650
417.51	27.958
417.87	27.652
418.22	27.904
418.58	27.881
418.93	28.172
419.29	28.853
419.64	28.211
420.00	27.774
420.35	27.906
420.71	28.145
421.06	27.085
421.42	28.899
421.77	28.325
422.12	28.488
422.48	28.520
422.83	28.861
423.19	29.019
423.54	28.540
423.90	28.437
424.25	28.747
424.61	28.932
424.96	29.544
425.31	29.034
425.67	29.147
426.02	29.164
426.38	29.047
426.73	29.241
427.09	30.392
427.44	29.001
427.79	29.298
428.15	29.509
428.50	29.607
428.85	29.449
429.21	30.532
429.56	29.368
429.92	29.926
430.27	30.217
430.62	29.604
430.98	29.120
431.33	29.130
431.68	29.837
432.04	30.574
432.39	30.155
432.74	30.708
433.10	31.098
433.45	30.379
433.80	30.526
434.16	29.959
434.51	30.267
434.86	29.967
435.22	30.818
435.57	31.014
435.92	30.217
436.28	31.286
436.63	30.584
436.98	30.059
437.34	30.327
437.69	30.600
438.04	29.614
438.39	30.787
438.75	30.216
439.10	32.030
439.45	30.743
439.81	31.299
440.16	30.509
440.51	30.769
440.86	31.351
441.22	30.439
441.57	30.922
441.92	30.310
442.27	31.768
442.63	31.197
442.98	31.163
443.33	30.826
443.68	31.021
444.03	32.126
444.39	31.160
444.74	32.466
445.09	30.613
445.44	32.192
445.79	31.897
446.15	31.912
446.50	31.886
446.85	31.323
447.20	32.350
447.55	32.322
447.91	31.466
448.26	30.867
448.61	31.881
448.96	31.813
449.31	32.025
449.66	31.917
450.02	32.437
450.37	31.913
450.72	31.324
451.07	32.005
451.42	31.254
451.77	31.518
452.12	32.731
452.47	32.383
452.83	32.545
453.18	31.232
453.53	32.051
453.88	31.695
454.23	31.638
454.58	33.952
454.93	32.524
455.28	32.932
455.63	32.575
455.98	32.291
456.34	32.214
456.69	32.099
457.04	33.156
457.39	31.430
457.74	33.501
458.09	32.235
458.44	33.297
458.79	31.614
459.14	32.197
459.49	32.824
459.84	33.054
460.19	31.649
460.54	32.993
460.89	33.033
461.24	32.874
461.59	33.315
461.94	33.143
462.29	32.979
462.64	33.132
462.99	33.396
463.34	33.615
463.69	32.005
464.04	33.519
464.39	33.072
464.74	33.010
465.09	32.641
465.44	33.315
465.79	32.628
466.14	32.361
466.49	33.474
466.84	32.672
467.19	32.948
467.54	32.021
467.89	32.931
468.24	33.241
468.59	32.716
468.94	32.692
469.29	33.653
469.64	33.503
469.99	33.078
470.34	34.097
470.68	33.630
471.03	34.250
471.38	34.336
471.73	33.875
472.08	34.454
472.43	33.654
472.78	34.383
473.13	34.387
473.48	33.474
473.83	34.591
474.17	33.236
474.52	34.095
474.87	33.444
475.22	33.521
475.57	33.593
475.92	33.350
476.27	33.866
476.61	33.437
476.96	33.785
477.31	33.416
477.66	34.627
478.01	33.554
478.36	34.347
478.70	34.680
479.05	34.254
479.40	34.205
479.75	34.534
480.10	34.912
480.45	34.275
480.79	33.832
481.14	34.007
481.49	33.530
481.84	34.247
482.19	34.065
482.53	34.281
482.88	34.914
483.23	34.415
483.58	33.493
483.92	34.176
484.27	34.632
484.62	33.540
484.97	33.942
485.31	34.706
485.66	33.135
486.01	31.911
486.36	31.593
486.70	31.936
487.05	32.330
487.40	33.016
487.75	32.926
488.09	33.249
488.44	33.416
488.79	34.132
489.13	34.902
489.48	34.175
489.83	34.809
490.17	33.252
490.52	33.908
490.87	34.518
491.22	34.359
491.56	34.983
491.91	34.932
492.26	35.223
492.60	34.499
492.95	34.445
493.30	34.469
493.64	34.647
493.99	34.868
494.34	34.190
494.68	33.405
495.03	34.405
495.37	34.399
495.72	34.240
496.07	34.750
496.41	33.891
496.76	34.153
497.11	34.013
497.45	34.657
497.80	34.918
498.14	34.739
498.49	34.651
498.84	35.649
499.18	33.963
499.53	35.381
499.87	35.297
500.22	34.595
500.56	35.133
500.91	35.561
501.26	35.818
501.60	34.688
501.95	34.520
502.29	34.620
502.64	35.243
502.98	34.771
503.33	33.909
503.67	33.624
504.02	34.982
504.36	35.344
504.71	34.635
505.06	35.607
505.40	35.649
505.75	34.745
506.09	35.866
506.44	35.562
506.78	36.330
507.13	35.592
507.47	36.570
507.82	34.848
508.16	35.994
508.51	35.490
508.85	36.136
509.19	35.670
509.54	35.735
509.88	36.280
510.23	35.600
510.57	36.926
510.92	36.333
511.26	36.604
511.61	35.394
511.95	35.969
512.30	36.829
512.64	36.682
512.98	36.618
513.33	37.046
513.67	36.665
514.02	36.944
514.36	36.624
514.70	36.094
515.05	37.174
515.39	37.113
515.74	38.017
516.08	36.820
516.42	37.572
516.77	38.170
517.11	37.494
517.46	37.222
517.80	37.680
518.14	37.867
518.49	37.527
518.83	36.722
519.17	37.372
519.52	37.317
519.86	37.856
520.20	37.274
520.55	37.952
520.89	37.387
521.23	37.744
521.58	38.927
521.92	37.790
522.26	37.858
522.61	38.137
522.95	38.581
523.29	39.023
523.64	37.612
523.98	39.760
524.32	40.000
524.66	38.076
525.01	38.505
525.35	38.771
525.69	38.631
526.04	38.117
526.38	38.851
526.72	38.812
527.06	38.944
527.41	38.017
527.75	38.302
528.09	39.079
528.43	38.840
528.78	39.422
529.12	37.787
529.46	38.673
529.80	38.043
530.15	38.377
530.49	39.917
530.83	39.079
531.17	38.351
531.51	38.748
531.86	38.401
532.20	39.451
532.54	38.600
532.88	39.636
533.22	39.540
533.57	38.719
533.91	39.618
534.25	39.288
534.59	39.080
534.93	39.162
535.27	39.324
535.62	39.056
535.96	39.454
536.30	39.365
536.64	39.760
536.98	39.483
537.32	40.000
537.66	39.988
538.01	38.731
538.35	38.551
538.69	39.243
539.03	39.362
539.37	37.868
539.71	39.459
540.05	39.329
540.39	39.120
540.73	38.859
541.07	40.098
541.42	38.452
541.76	37.722
542.10	39.023
542.44	39.890
542.78	39.051
543.12	38.498
543.46	39.194
543.80	38.429
544.14	39.318
544.48	39.539
544.82	40.036
545.16	38.819
545.50	38.226
545.84	39.192
546.18	39.691
546.52	39.873
546.86	39.371
547.20	40.076
547.54	38.140
547.88	39.120
548.22	38.947
548.56	38.327
548.90	39.104
549.24	39.088
549.58	39.748
549.92	38.839
550.26	39.935
550.60	40.013
550.94	39.133
551.28	38.680
551.62	40.094
551.96	39.741
552.30	40.727
552.64	39.888
552.98	39.613
553.32	40.193
553.66	39.807
554.00	39.155
554.34	38.932
554.68	38.735
555.02	39.356
555.36	40.697
555.69	39.142
556.03	40.542
556.37	39.925
556.71	39.505
557.05	39.042
557.39	39.881
557.73	39.828
558.07	39.139
558.41	40.399
558.75	39.892
559.08	40.153
559.42	40.878
559.76	40.434
560.10	39.920
560.44	39.512
560.78	39.250
561.12	39.840
561.45	39.781
561.79	40.415
562.13	39.988
562.47	39.026
562.81	39.494
563.15	40.846
563.48	40.336
563.82	39.238
564.16	38.764
564.50	39.333
564.84	38.997
565.17	38.588
565.51	38.665
565.85	39.252
566.19	39.286
566.52	38.561
566.86	38.766
567.20	38.010
567.54	38.502
567.88	39.093
568.21	38.686
568.55	38.177
568.89	38.675
569.23	37.347
569.56	37.241
569.90	36.386
570.24	36.459
570.57	36.337
570.91	35.762
571.25	35.580
571.59	36.237
571.92	35.554
572.26	35.627
572.60	35.599
572.93	35.736
573.27	36.021
573.61	36.210
573.95	35.421
574.28	35.319
574.62	35.334
574.96	34.936
575.29	34.589
575.63	35.690
575.97	35.665
576.30	35.134
576.64	34.837
576.98	35.467
577.31	35.195
577.65	35.080
577.98	34.469
578.32	34.473
578.66	34.772
578.99	34.999
579.33	34.927
579.67	35.154
580.00	35.671
580.34	35.079
580.67	35.525
581.01	35.050
581.35	35.184
581.68	34.516
582.02	34.544
582.35	35.071
582.69	34.673
583.02	34.853
583.36	34.792
583.70	35.310
584.03	35.517
584.37	35.818
584.70	35.452
585.04	35.155
585.37	35.506
585.71	35.189
586.04	35.073
586.38	35.631
586.72	35.172
587.05	35.405
587.39	35.502
587.72	35.072
588.06	35.131
588.39	35.848
588.73	35.556
589.06	35.609
589.40	36.847
589.73	36.375
590.07	36.837
590.40	36.241
590.73	36.621
591.07	37.193
591.40	36.936
591.74	36.288
592.07	37.272
592.41	36.356
592.74	35.747
593.08	36.115
593.41	36.425
593.75	36.006
594.08	35.535
594.41	36.635
594.75	36.234
595.08	36.238
595.42	35.909
595.75	36.261
596.09	36.225
596.42	36.869
596.75	37.669
597.09	37.333
597.42	37.187
597.75	37.475
598.09	37.143
598.42	37.073
598.76	35.575
599.09	35.778
599.42	35.334
599.76	35.622
600.09	35.769
600.42	35.836
600.76	35.997
601.09	35.646
601.42	36.045
601.76	36.414
602.09	36.097
602.42	35.987
602.76	35.092
603.09	36.233
603.42	36.958
603.76	35.765
604.09	36.622
604.42	36.587
604.76	35.845
605.09	36.657
605.42	36.762
605.75	36.038
606.09	36.021
606.42	35.425
606.75	36.094
607.09	35.983
607.42	36.301
607.75	37.358
608.08	36.188
608.42	36.880
608.75	36.484
609.08	36.290
609.41	37.274
609.75	36.741
610.08	36.939
610.41	36.364
610.74	35.966
611.07	37.478
611.41	37.130
611.74	36.813
612.07	38.008
612.40	36.502
612.73	37.653
613.07	37.408
613.40	37.488
613.73	37.458
614.06	37.439
614.39	36.540
614.72	36.293
615.06	36.526
615.39	36.539
615.72	36.919
616.05	36.280
616.38	37.437
616.71	37.618
617.05	36.635
617.38	36.437
617.71	38.283
618.04	37.615
618.37	38.525
618.70	38.348
619.03	38.232
619.36	38.286
619.69	38.629
620.03	38.669
620.36	37.853
620.69	37.693
621.02	38.911
621.35	40.203
621.68	39.986
622.01	38.648
622.34	37.866
622.67	38.763
623.00	37.449
623.33	39.748
623.66	39.689
623.99	38.710
624.32	39.246
624.65	37.838
624.99	39.077
625.32	38.994
625.65	37.896
625.98	37.356
626.31	39.476
626.64	39.341
626.97	38.560
627.30	39.711
627.63	39.085
627.96	39.565
628.29	39.300
628.62	38.623
628.95	40.666
629.28	39.847
629.61	40.572
629.94	38.996
630.26	39.746
630.59	39.810
630.92	38.874
631.25	41.413
631.58	41.055
631.91	39.738
632.24	40.250
632.57	40.323
632.90	41.224
633.23	41.939
633.56	39.898
633.89	39.979
634.22	40.852
