SpectraSuite Data File
++++++++++++++++++++++++++++++++++++
Date: Thu May 14 14:55:55 PDT 2015
User: schluterlab
Dark Spectrum Present: Yes
Reference Spectrum Present: Yes
Number of Sampled Component Spectra: 1
Spectrometers: USB2E3373
Integration Time (usec): 3000 (USB2E3373)
Spectra Averaged: 3 (USB2E3373)
Boxcar Smoothing: 0 (USB2E3373)
Correct for Electrical Dark: No (USB2E3373)
Strobe/Lamp Enabled: No (USB2E3373)
Correct for Detector Non-linearity: No (USB2E3373)
Correct for Stray Light: No (USB2E3373)
Number of Pixels in Processed Spectrum: 2048
>>>>>Begin Processed Spectral Data<<<<<
178.53	0.000
178.91	285.714
179.29	-2900.000
179.67	-1700.000
180.04	271.429
180.42	170.000
180.80	360.000
181.18	-1300.000
181.56	-1200.000
181.94	425.000
182.31	-400.000
182.69	700.000
183.07	-650.000
183.45	400.000
183.83	-316.667
184.20	-466.667
184.58	1600.000
184.96	-600.000
185.34	-211.111
185.72	-160.000
186.09	166.667
186.47	1150.000
186.85	380.000
187.23	-266.667
187.61	-2800.000
187.98	300.000
188.36	475.000
188.74	-675.000
189.12	-533.333
189.49	-81.250
189.87	-237.500
190.25	-155.556
190.63	-400.000
191.00	-277.778
191.38	0.000
191.76	-575.000
192.14	-200.000
192.51	1250.000
192.89	-316.667
193.27	0.000
193.65	-257.143
194.02	-1800.000
194.40	-342.857
194.78	200.000
195.15	0.000
195.53	-100.000
195.91	0.000
196.29	-325.000
196.66	-130.769
197.04	-2600.000
197.42	-285.714
197.79	-950.000
198.17	-225.000
198.55	-271.429
198.92	-155.556
199.30	-200.000
199.68	-118.182
200.05	-71.429
200.43	-850.000
200.81	214.286
201.18	0.000
201.56	288.889
201.94	0.000
202.31	600.000
202.69	-200.000
203.07	1400.000
203.44	-144.444
203.82	-525.000
204.19	-116.667
204.57	-266.667
204.95	-162.500
205.32	-900.000
205.70	375.000
206.08	-333.333
206.45	-100.000
206.83	300.000
207.20	-83.333
207.58	-460.000
207.96	-300.000
208.33	-66.667
208.71	225.000
209.08	-183.333
209.46	0.000
209.84	383.333
210.21	800.000
210.59	550.000
210.96	866.667
211.34	-350.000
211.71	-200.000
212.09	-700.000
212.46	0.000
212.84	1200.000
213.22	-460.000
213.59	-575.000
213.97	-190.000
214.34	-800.000
214.72	316.667
215.09	-275.000
215.47	0.000
215.84	214.286
216.22	800.000
216.59	-240.000
216.97	-600.000
217.34	-475.000
217.72	-200.000
218.09	-550.000
218.47	-450.000
218.84	0.000
219.22	360.000
219.59	-17.647
219.97	-10.000
220.34	750.000
220.72	-200.000
221.09	-30.769
221.47	-666.667
221.84	-190.000
222.22	-228.571
222.59	0.000
222.97	-162.500
223.34	-340.000
223.72	-1400.000
224.09	-350.000
224.46	-200.000
224.84	-140.000
225.21	-285.714
225.59	-675.000
225.96	-500.000
226.34	-26.923
226.71	283.333
227.08	-750.000
227.46	-86.667
227.83	-425.000
228.21	-42.105
228.58	225.000
228.95	1350.000
229.33	-225.000
229.70	-130.000
230.08	-5.263
230.45	290.000
230.82	-833.333
231.20	-92.857
231.57	-141.667
231.95	-218.182
232.32	-118.182
232.69	-65.000
233.07	-275.000
233.44	-123.529
233.81	-170.000
234.19	-50.000
234.56	-40.909
234.93	-24.138
235.31	-89.474
235.68	-77.778
236.05	-55.000
236.43	-7.692
236.80	-24.000
237.17	-29.630
237.55	-27.273
237.92	-150.000
238.29	-32.258
238.67	-11.364
239.04	-41.667
239.41	-33.333
239.79	-21.739
240.16	-12.963
240.53	-17.391
240.91	-37.255
241.28	-14.754
241.65	16.418
242.02	8.108
242.40	-18.462
242.77	1.333
243.14	-14.634
243.51	-7.895
243.89	-12.821
244.26	7.921
244.63	1.961
245.00	1.869
245.38	4.386
245.75	-15.929
246.12	3.968
246.49	4.651
246.87	7.143
247.24	9.272
247.61	7.237
247.98	3.356
248.36	3.086
248.73	6.748
249.10	4.372
249.47	10.448
249.84	14.660
250.22	6.218
250.59	6.667
250.96	10.000
251.33	1.020
251.70	10.256
252.08	10.417
252.45	8.197
252.82	8.678
253.19	9.766
253.56	8.745
253.94	10.769
254.31	13.258
254.68	10.490
255.05	9.772
255.42	9.524
255.79	11.003
256.16	13.576
256.54	8.940
256.91	12.131
257.28	11.148
257.65	7.325
258.02	7.670
258.39	7.977
258.76	12.538
259.14	11.207
259.51	9.798
259.88	10.198
260.25	10.556
260.62	14.795
260.99	12.295
261.36	12.332
261.73	7.958
262.10	11.813
262.47	10.992
262.85	15.657
263.22	9.351
263.59	10.789
263.96	12.788
264.33	10.486
264.70	13.086
265.07	11.933
265.44	14.286
265.81	11.806
266.18	14.286
266.55	13.839
266.92	13.212
267.29	12.691
267.66	12.195
268.03	13.319
268.40	11.691
268.77	8.656
269.14	9.031
269.51	11.842
269.88	14.549
270.25	11.066
270.62	13.713
270.99	13.939
271.36	13.663
271.73	11.198
272.10	13.226
272.47	13.226
272.84	12.048
273.21	12.224
273.58	13.710
273.95	11.731
274.32	10.646
274.69	12.379
275.06	11.905
275.43	10.536
275.80	13.580
276.17	9.815
276.54	11.381
276.91	10.733
277.28	11.392
277.65	11.311
278.02	12.132
278.39	13.225
278.76	11.072
279.13	13.475
279.50	12.715
279.87	11.449
280.23	11.268
280.60	13.051
280.97	13.322
281.34	11.545
281.71	15.736
282.08	11.462
282.45	11.620
282.82	12.402
283.19	9.855
283.56	11.967
283.92	13.964
284.29	14.692
284.66	12.479
285.03	11.859
285.40	11.128
285.77	12.848
286.14	12.214
286.51	12.024
286.87	11.690
287.24	11.446
287.61	11.211
287.98	9.215
288.35	10.651
288.72	11.982
289.08	11.859
289.45	9.615
289.82	11.596
290.19	10.920
290.56	11.549
290.93	10.842
291.29	9.917
291.66	11.846
292.03	10.583
292.40	11.429
292.77	11.725
293.13	10.284
293.50	8.147
293.87	9.664
294.24	10.667
294.60	10.746
294.97	9.128
295.34	11.396
295.71	8.827
296.08	8.786
296.44	10.662
296.81	9.501
297.18	10.336
297.55	10.259
297.91	9.609
298.28	9.242
298.65	11.177
299.02	9.327
299.38	10.755
299.75	9.579
300.12	9.144
300.48	8.986
300.85	9.224
301.22	9.732
301.59	8.790
301.95	9.379
302.32	10.889
302.69	8.872
303.05	8.923
303.42	9.978
303.79	9.375
304.15	10.410
304.52	9.197
304.89	8.901
305.25	9.731
305.62	8.882
305.99	9.175
306.35	9.073
306.72	8.376
307.09	8.731
307.45	10.352
307.82	8.577
308.19	9.889
308.55	8.390
308.92	9.153
309.29	9.100
309.65	8.577
310.02	9.208
310.38	8.957
310.75	9.126
311.12	8.917
311.48	7.722
311.85	8.357
312.22	9.677
312.58	8.638
312.95	8.891
313.31	9.575
313.68	9.249
314.05	9.214
314.41	10.109
314.78	8.538
315.14	9.347
315.51	8.864
315.87	9.991
316.24	9.589
316.61	10.657
316.97	8.688
317.34	8.113
317.70	9.520
318.07	9.524
318.43	8.333
318.80	10.201
319.16	9.099
319.53	7.626
319.89	8.151
320.26	9.964
320.62	8.865
320.99	8.864
321.35	7.486
321.72	10.605
322.08	8.476
322.45	8.311
322.81	9.116
323.18	7.788
323.54	9.138
323.91	9.609
324.27	9.466
324.64	9.152
325.00	8.872
325.37	9.746
325.73	8.843
326.10	8.678
326.46	9.691
326.83	9.367
327.19	9.528
327.56	10.119
327.92	9.284
328.29	8.790
328.65	8.040
329.01	8.629
329.38	10.110
329.74	9.589
330.11	8.305
330.47	8.509
330.84	8.613
331.20	9.250
331.56	9.359
331.93	9.707
332.29	9.068
332.66	9.219
333.02	8.878
333.38	8.473
333.75	8.754
334.11	9.091
334.48	10.149
334.84	10.620
335.20	9.152
335.57	10.202
335.93	9.835
336.29	8.486
336.66	7.906
337.02	9.448
337.38	8.759
337.75	9.174
338.11	9.504
338.47	9.098
338.84	8.968
339.20	8.425
339.56	8.072
339.93	9.031
340.29	9.179
340.65	8.678
341.02	9.737
341.38	9.620
341.74	9.040
342.11	9.252
342.47	9.531
342.83	9.742
343.20	8.749
343.56	9.302
343.92	8.967
344.28	9.453
344.65	10.000
345.01	8.658
345.37	9.876
345.73	8.418
346.10	9.828
346.46	8.386
346.82	9.288
347.19	8.633
347.55	8.725
347.91	8.841
348.27	7.587
348.63	9.596
349.00	9.471
349.36	8.996
349.72	9.449
350.08	10.847
350.45	8.669
350.81	8.974
351.17	7.895
351.53	8.795
351.89	9.491
352.26	9.179
352.62	8.284
352.98	8.397
353.34	8.364
353.70	9.399
354.07	8.718
354.43	8.580
354.79	8.452
355.15	9.051
355.51	9.430
355.87	8.601
356.24	9.049
356.60	8.500
356.96	8.895
357.32	7.509
357.68	8.858
358.04	8.832
358.40	8.134
358.77	8.333
359.13	8.050
359.49	7.732
359.85	8.412
360.21	8.393
360.57	7.968
360.93	8.745
361.29	8.281
361.66	8.400
362.02	9.325
362.38	9.417
362.74	8.450
363.10	9.147
363.46	9.003
363.82	8.097
364.18	8.445
364.54	9.751
364.90	9.298
365.26	7.862
365.62	9.400
365.98	8.441
366.35	8.926
366.71	9.048
367.07	7.848
367.43	8.601
367.79	9.091
368.15	8.896
368.51	8.863
368.87	8.818
369.23	8.867
369.59	9.016
369.95	8.519
370.31	8.643
370.67	8.391
371.03	8.864
371.39	8.999
371.75	8.803
372.11	8.672
372.47	8.463
372.83	8.508
373.19	8.005
373.55	8.672
373.91	8.725
374.27	8.538
374.63	8.187
374.99	9.019
375.35	9.416
375.71	8.000
376.07	8.328
376.42	8.564
376.78	8.452
377.14	8.796
377.50	8.223
377.86	9.729
378.22	9.222
378.58	9.572
378.94	8.392
379.30	8.084
379.66	8.466
380.02	8.194
380.38	8.986
380.74	7.944
381.09	8.885
381.45	8.920
381.81	9.836
382.17	9.204
382.53	8.480
382.89	9.594
383.25	9.320
383.61	8.044
383.97	8.598
384.32	9.450
384.68	8.759
385.04	8.618
385.40	8.957
385.76	9.789
386.12	8.139
386.48	8.882
386.83	8.522
387.19	8.806
387.55	8.744
387.91	9.075
388.27	8.430
388.62	8.534
388.98	8.460
389.34	8.780
389.70	8.483
390.06	8.763
390.42	8.133
390.77	9.573
391.13	8.568
391.49	8.333
391.85	8.485
392.20	8.660
392.56	9.037
392.92	9.433
393.28	8.734
393.64	8.883
393.99	9.239
394.35	8.820
394.71	9.102
395.07	8.443
395.42	8.224
395.78	9.567
396.14	9.507
396.50	8.551
396.85	8.766
397.21	8.284
397.57	8.716
397.92	9.393
398.28	8.093
398.64	9.039
399.00	8.586
399.35	8.848
399.71	8.098
400.07	8.703
400.42	8.556
400.78	8.681
401.14	9.220
401.49	8.528
401.85	8.721
402.21	9.154
402.57	9.155
402.92	9.102
403.28	8.782
403.63	8.115
403.99	8.729
404.35	9.039
404.70	8.782
405.06	8.533
405.42	8.431
405.77	9.160
406.13	9.238
406.49	8.953
406.84	8.864
407.20	7.881
407.55	8.359
407.91	8.045
408.27	8.893
408.62	9.017
408.98	9.054
409.34	8.094
409.69	7.911
410.05	8.206
410.40	8.527
410.76	8.357
411.11	8.942
411.47	9.337
411.83	9.289
412.18	8.735
412.54	9.721
412.89	8.906
413.25	8.747
413.60	8.845
413.96	8.858
414.31	8.782
414.67	9.123
415.03	8.985
415.38	8.827
415.74	7.636
416.09	8.513
416.45	8.265
416.80	8.996
417.16	8.685
417.51	8.157
417.87	8.400
418.22	8.503
418.58	8.550
418.93	9.139
419.29	8.570
419.64	8.643
420.00	9.080
420.35	9.321
420.71	8.788
421.06	8.798
421.42	8.658
421.77	8.831
422.12	9.144
422.48	8.346
422.83	8.817
423.19	8.912
423.54	8.684
423.90	9.608
424.25	8.640
424.61	8.726
424.96	8.677
425.31	9.236
425.67	8.535
426.02	8.301
426.38	9.070
426.73	8.650
427.09	10.265
427.44	8.192
427.79	7.518
428.15	8.505
428.50	8.989
428.85	9.357
429.21	8.617
429.56	8.539
429.92	8.747
430.27	9.157
430.62	8.696
430.98	8.903
431.33	8.700
431.68	8.764
432.04	9.040
432.39	9.159
432.74	9.304
433.10	8.870
433.45	8.138
433.80	8.745
434.16	8.833
434.51	8.428
434.86	8.958
435.22	8.820
435.57	8.903
435.92	9.460
436.28	9.044
436.63	8.520
436.98	8.642
437.34	8.399
437.69	8.310
438.04	7.879
438.39	9.592
438.75	8.301
439.10	9.672
439.45	8.944
439.81	8.362
440.16	8.472
440.51	9.476
440.86	8.949
441.22	8.682
441.57	8.910
441.92	8.778
442.27	8.434
442.63	8.843
442.98	9.605
443.33	8.680
443.68	9.514
444.03	9.548
444.39	9.200
444.74	9.188
445.09	8.920
445.44	8.957
445.79	9.052
446.15	9.507
446.50	8.424
446.85	9.144
447.20	9.333
447.55	8.734
447.91	9.476
448.26	8.879
448.61	9.033
448.96	9.120
449.31	8.855
449.66	7.407
450.02	8.703
450.37	9.483
450.72	8.934
451.07	9.112
451.42	8.203
451.77	8.282
452.12	9.255
452.47	8.616
452.83	9.516
453.18	8.523
453.53	8.558
453.88	9.111
454.23	8.870
454.58	8.590
454.93	8.252
455.28	8.669
455.63	9.210
455.98	9.162
456.34	8.481
456.69	9.700
457.04	9.338
457.39	8.426
457.74	9.732
458.09	8.237
458.44	8.675
458.79	9.386
459.14	8.862
459.49	8.998
459.84	8.762
460.19	8.440
460.54	8.915
460.89	9.529
461.24	8.276
461.59	9.076
461.94	8.671
462.29	9.462
462.64	8.449
462.99	8.977
463.34	7.982
463.69	9.027
464.04	9.394
464.39	8.913
464.74	9.236
465.09	8.708
465.44	8.852
465.79	8.990
466.14	8.338
466.49	9.368
466.84	9.146
467.19	8.960
467.54	7.932
467.89	8.161
468.24	8.809
468.59	7.875
468.94	8.450
469.29	8.578
469.64	7.947
469.99	8.286
470.34	8.787
470.68	8.681
471.03	8.841
471.38	7.914
471.73	8.322
472.08	9.327
472.43	8.308
472.78	8.375
473.13	8.534
473.48	9.486
473.83	8.996
474.17	8.968
474.52	8.539
474.87	8.915
475.22	8.732
475.57	8.775
475.92	9.358
476.27	9.105
476.61	8.515
476.96	8.133
477.31	9.059
477.66	9.549
478.01	9.151
478.36	9.123
478.70	9.409
479.05	8.742
479.40	8.440
479.75	9.702
480.10	8.811
480.45	9.070
480.79	9.433
481.14	8.915
481.49	9.041
481.84	9.356
482.19	8.430
482.53	9.270
482.88	8.994
483.23	9.071
483.58	8.515
483.92	8.777
484.27	9.314
484.62	8.828
484.97	8.942
485.31	8.870
485.66	8.372
486.01	8.717
486.36	9.245
486.70	9.489
487.05	9.786
487.40	9.310
487.75	9.338
488.09	8.735
488.44	8.785
488.79	8.904
489.13	8.979
489.48	7.961
489.83	9.296
490.17	9.437
490.52	8.498
490.87	8.503
491.22	9.489
491.56	9.130
491.91	8.417
492.26	8.914
492.60	8.833
492.95	9.127
493.30	8.920
493.64	9.198
493.99	8.816
494.34	8.667
494.68	8.737
495.03	9.736
495.37	9.232
495.72	8.934
496.07	8.852
496.41	8.795
496.76	9.383
497.11	9.342
497.45	8.632
497.80	8.929
498.14	9.252
498.49	8.824
498.84	9.049
499.18	9.312
499.53	9.193
499.87	9.451
500.22	8.682
500.56	8.772
500.91	9.153
501.26	9.318
501.60	8.573
501.95	9.032
502.29	9.522
502.64	9.226
502.98	9.189
503.33	8.467
503.67	9.027
504.02	8.538
504.36	9.339
504.71	9.003
505.06	9.141
505.40	9.324
505.75	8.743
506.09	8.564
506.44	9.192
506.78	9.312
507.13	9.267
507.47	9.664
507.82	9.186
508.16	9.417
508.51	8.908
508.85	9.306
509.19	9.095
509.54	9.846
509.88	9.179
510.23	9.131
510.57	9.570
510.92	9.676
511.26	9.668
511.61	8.064
511.95	8.443
512.30	9.453
512.64	8.396
512.98	8.704
513.33	8.921
513.67	8.771
514.02	9.351
514.36	8.389
514.70	8.802
515.05	8.551
515.39	9.606
515.74	9.067
516.08	8.980
516.42	9.628
516.77	8.938
517.11	8.974
517.46	8.961
517.80	9.460
518.14	9.848
518.49	9.544
518.83	9.686
519.17	8.778
519.52	9.644
519.86	9.979
520.20	9.159
520.55	9.091
520.89	9.178
521.23	9.436
521.58	9.379
521.92	9.065
522.26	8.477
522.61	8.391
522.95	9.573
523.29	9.540
523.64	9.361
523.98	9.527
524.32	10.258
524.66	8.936
525.01	8.664
525.35	8.903
525.69	8.701
526.04	8.783
526.38	9.828
526.72	8.304
527.06	9.326
527.41	9.388
527.75	8.967
528.09	9.740
528.43	8.171
528.78	8.382
529.12	9.174
529.46	9.668
529.80	9.382
530.15	8.812
530.49	8.897
530.83	10.213
531.17	8.961
531.51	9.206
531.86	9.135
532.20	9.268
532.54	8.857
532.88	9.030
533.22	9.369
533.57	9.636
533.91	9.652
534.25	9.214
534.59	9.080
534.93	8.659
535.27	8.676
535.62	9.551
535.96	9.064
536.30	8.519
536.64	8.829
536.98	9.840
537.32	9.630
537.66	10.106
538.01	9.003
538.35	8.952
538.69	8.894
539.03	9.626
539.37	8.657
539.71	8.829
540.05	10.012
540.39	9.597
540.73	9.290
541.07	9.135
541.42	9.273
541.76	8.541
542.10	8.685
542.44	8.465
542.78	9.246
543.12	9.416
543.46	9.463
543.80	9.053
544.14	8.318
544.48	9.929
544.82	9.874
545.16	9.064
545.50	9.107
545.84	8.389
546.18	10.802
546.52	8.790
546.86	8.302
547.20	9.288
547.54	9.301
547.88	8.861
548.22	9.123
548.56	9.947
548.90	9.075
549.24	9.605
549.58	8.833
549.92	9.056
550.26	9.515
550.60	8.168
550.94	8.279
551.28	10.231
551.62	9.097
551.96	9.838
552.30	9.305
552.64	9.708
552.98	9.545
553.32	8.489
553.66	9.453
554.00	9.647
554.34	9.073
554.68	8.844
555.02	9.067
555.36	10.256
555.69	8.392
556.03	8.953
556.37	9.262
556.71	9.448
557.05	9.968
557.39	8.560
557.73	9.313
558.07	8.344
558.41	9.369
558.75	9.195
559.08	10.021
559.42	8.025
559.76	9.769
560.10	9.377
560.44	9.697
560.78	9.188
561.12	9.175
561.45	10.036
561.79	8.974
562.13	9.735
562.47	8.755
562.81	8.734
563.15	9.659
563.48	8.950
563.82	9.129
564.16	8.964
564.50	9.893
564.84	8.732
565.17	9.471
565.51	9.436
565.85	8.670
566.19	8.756
566.52	8.309
566.86	9.451
567.20	9.516
567.54	9.241
567.88	9.123
568.21	9.239
568.55	9.305
568.89	8.806
569.23	9.590
569.56	9.379
569.90	9.587
570.24	9.949
570.57	9.044
570.91	9.247
571.25	9.372
571.59	9.797
571.92	9.408
572.26	9.238
572.60	9.227
572.93	9.129
573.27	9.019
573.61	9.079
573.95	9.444
574.28	9.320
574.62	9.300
574.96	9.109
575.29	9.385
575.63	9.517
575.97	9.916
576.30	9.055
576.64	9.425
576.98	9.226
577.31	9.527
577.65	9.430
577.98	9.657
578.32	9.413
578.66	9.518
578.99	9.482
579.33	9.382
579.67	9.202
580.00	9.598
580.34	9.599
580.67	9.157
581.01	9.174
581.35	9.254
581.68	9.406
582.02	9.593
582.35	9.915
582.69	9.613
583.02	9.568
583.36	9.304
583.70	9.407
584.03	9.311
584.37	9.059
584.70	9.022
585.04	9.370
585.37	9.412
585.71	9.622
586.04	9.357
586.38	9.494
586.72	9.075
587.05	9.286
587.39	9.274
587.72	9.378
588.06	9.478
588.39	9.236
588.73	9.444
589.06	9.199
589.40	9.250
589.73	9.094
590.07	9.549
590.40	9.567
590.73	9.332
591.07	9.270
591.40	8.865
591.74	8.824
592.07	9.419
592.41	9.227
592.74	9.265
593.08	9.554
593.41	9.828
593.75	9.454
594.08	9.543
594.41	9.551
594.75	8.768
595.08	9.017
595.42	9.318
595.75	9.493
596.09	9.319
596.42	9.244
596.75	9.765
597.09	9.818
597.42	8.939
597.75	9.643
598.09	9.683
598.42	9.610
598.76	9.094
599.09	9.185
599.42	9.219
599.76	9.475
600.09	9.510
600.42	9.309
600.76	9.214
601.09	9.625
601.42	9.543
601.76	9.586
602.09	9.149
602.42	8.760
602.76	9.483
603.09	8.774
603.42	9.212
603.76	9.302
604.09	10.220
604.42	9.211
604.76	9.209
605.09	8.935
605.42	9.649
605.75	9.346
606.09	8.996
606.42	8.865
606.75	8.883
607.09	8.564
607.42	9.326
607.75	9.691
608.08	9.234
608.42	9.270
608.75	9.826
609.08	9.126
609.41	9.307
609.75	8.705
610.08	9.015
610.41	9.091
610.74	9.118
611.07	8.615
611.41	9.372
611.74	9.007
612.07	9.958
612.40	9.078
612.73	8.949
613.07	9.340
613.40	9.095
613.73	9.485
614.06	8.832
614.39	8.698
614.72	9.073
615.06	8.807
615.39	8.507
615.72	9.384
616.05	8.354
616.38	9.637
616.71	9.561
617.05	8.733
617.38	9.203
617.71	9.935
618.04	9.174
618.37	8.852
618.70	8.880
619.03	8.483
619.36	8.446
619.69	9.289
620.03	8.475
620.36	9.448
620.69	8.822
621.02	9.121
621.35	9.797
621.68	9.038
622.01	9.893
622.34	8.229
622.67	8.729
623.00	7.422
623.33	9.157
623.66	9.339
623.99	8.624
624.32	10.331
624.65	8.044
624.99	9.883
625.32	9.275
625.65	9.508
625.98	8.610
626.31	9.709
626.64	8.718
626.97	8.852
627.30	7.821
627.63	9.227
627.96	9.685
628.29	8.794
628.62	7.641
628.95	7.888
629.28	8.241
629.61	9.175
629.94	7.615
630.26	8.390
630.59	8.377
630.92	8.658
631.25	8.408
631.58	9.134
631.91	7.591
632.24	8.069
632.57	8.444
632.90	8.124
633.23	8.776
633.56	8.776
633.89	8.058
634.22	9.771
634.55	7.724
634.88	6.926
635.20	9.150
635.53	8.136
635.86	8.884
636.19	10.286
636.52	8.122
636.85	8.274
637.18	8.732
637.51	7.957
637.83	10.188
638.16	7.719
638.49	7.394
638.82	8.005
639.15	6.415
639.48	8.083
639.81	8.314
640.13	8.127
640.46	6.303
640.79	8.701
641.12	8.075
641.45	8.281
641.77	10.270
642.10	7.612
642.43	9.574
642.76	7.995
643.09	7.260
643.41	7.563
643.74	7.310
644.07	7.862
644.40	7.496
644.73	7.547
645.05	7.048
645.38	8.921
645.71	8.651
646.04	10.187
646.36	7.299
646.69	6.595
647.02	8.563
647.35	8.244
647.67	8.535
648.00	7.006
648.33	8.258
648.66	7.418
648.98	8.163
649.31	7.848
649.64	8.765
649.96	7.825
650.29	6.120
650.62	8.204
650.94	6.607
651.27	7.784
651.60	6.725
651.92	6.687
652.25	9.841
652.58	7.703
652.90	6.541
653.23	10.845
653.56	8.417
