SpectraSuite Data File
++++++++++++++++++++++++++++++++++++
Date: Thu May 14 15:19:51 PDT 2015
User: schluterlab
Dark Spectrum Present: Yes
Reference Spectrum Present: Yes
Number of Sampled Component Spectra: 1
Spectrometers: USB2E3373
Integration Time (usec): 3000 (USB2E3373)
Spectra Averaged: 3 (USB2E3373)
Boxcar Smoothing: 0 (USB2E3373)
Correct for Electrical Dark: No (USB2E3373)
Strobe/Lamp Enabled: No (USB2E3373)
Correct for Detector Non-linearity: No (USB2E3373)
Correct for Stray Light: No (USB2E3373)
Number of Pixels in Processed Spectrum: 2048
>>>>>Begin Processed Spectral Data<<<<<
178.53	0.000
178.91	614.286
179.29	-4500.000
179.67	-4500.000
180.04	435.714
180.42	480.000
180.80	960.000
181.18	-4300.000
181.56	-3100.000
181.94	1100.000
182.31	-1025.000
182.69	1466.667
183.07	-2150.000
183.45	1050.000
183.83	-683.333
184.20	-1166.667
184.58	4200.000
184.96	-1000.000
185.34	-444.444
185.72	-660.000
186.09	600.000
186.47	2650.000
186.85	820.000
187.23	-588.889
187.61	-5100.000
187.98	820.000
188.36	950.000
188.74	-1075.000
189.12	-1533.333
189.49	-231.250
189.87	-487.500
190.25	-400.000
190.63	-720.000
191.00	-455.556
191.38	0.000
191.76	-1200.000
192.14	-583.333
192.51	2550.000
192.89	-583.333
193.27	0.000
193.65	-542.857
194.02	-4600.000
194.40	-514.286
194.78	614.286
195.15	0.000
195.53	-227.273
195.91	0.000
196.29	-975.000
196.66	-300.000
197.04	-4900.000
197.42	-485.714
197.79	-1850.000
198.17	-487.500
198.55	-685.714
198.92	-388.889
199.30	-512.500
199.68	-263.636
200.05	-235.714
200.43	-2300.000
200.81	600.000
201.18	0.000
201.56	600.000
201.94	0.000
202.31	1700.000
202.69	-544.444
203.07	3900.000
203.44	-388.889
203.82	-1175.000
204.19	-325.000
204.57	-583.333
204.95	-512.500
205.32	-4200.000
205.70	1150.000
206.08	-666.667
206.45	-550.000
206.83	940.000
207.20	-616.667
207.58	-980.000
207.96	-750.000
208.33	-533.333
208.71	400.000
209.08	-550.000
209.46	0.000
209.84	850.000
210.21	2250.000
210.59	1900.000
210.96	1766.667
211.34	-1000.000
211.71	-500.000
212.09	-4000.000
212.46	0.000
212.84	2650.000
213.22	-1060.000
213.59	-900.000
213.97	-320.000
214.34	-1333.333
214.72	650.000
215.09	-1025.000
215.47	0.000
215.84	671.429
216.22	2300.000
216.59	-880.000
216.97	-980.000
217.34	-950.000
217.72	-425.000
218.09	-775.000
218.47	-1175.000
218.84	0.000
219.22	680.000
219.59	-205.882
219.97	-200.000
220.34	2100.000
220.72	-422.222
221.09	-200.000
221.47	-1400.000
221.84	-390.000
222.22	-628.571
222.59	0.000
222.97	-437.500
223.34	-860.000
223.72	-3400.000
224.09	-975.000
224.46	-1300.000
224.84	-780.000
225.21	-685.714
225.59	-1050.000
225.96	-1000.000
226.34	-123.077
226.71	800.000
227.08	-2400.000
227.46	-220.000
227.83	-950.000
228.21	-173.684
228.58	512.500
228.95	1550.000
229.33	-316.667
229.70	-380.000
230.08	-152.632
230.45	470.000
230.82	-1500.000
231.20	-257.143
231.57	-341.667
231.95	-390.909
232.32	-327.273
232.69	-150.000
233.07	-1025.000
233.44	-223.529
233.81	-320.000
234.19	-211.111
234.56	-136.364
234.93	-100.000
235.31	-189.474
235.68	-205.556
236.05	-215.000
236.43	-138.462
236.80	-104.000
237.17	-118.519
237.55	-133.333
237.92	-440.000
238.29	-103.226
238.67	-88.636
239.04	-72.222
239.41	-76.190
239.79	-78.261
240.16	-59.259
240.53	-71.739
240.91	-72.549
241.28	-55.738
241.65	-26.866
242.02	-20.270
242.40	-49.231
242.77	-34.667
243.14	-41.463
243.51	-61.842
243.89	-53.846
244.26	-22.772
244.63	-28.431
245.00	-23.364
245.38	-20.175
245.75	-30.973
246.12	-14.286
246.49	-20.155
246.87	-10.000
247.24	-15.232
247.61	-6.579
247.98	-14.765
248.36	-11.728
248.73	-16.564
249.10	-9.836
249.47	-3.980
249.84	-4.188
250.22	-9.845
250.59	-11.667
250.96	-1.818
251.33	-3.061
251.70	-1.709
252.08	0.000
252.45	0.410
252.82	-4.132
253.19	-7.031
253.56	-2.281
253.94	-4.231
254.31	0.758
254.68	4.196
255.05	2.606
255.42	-1.361
255.79	0.971
256.16	-0.331
256.54	-3.311
256.91	4.590
257.28	0.328
257.65	-1.592
258.02	1.770
258.39	5.983
258.76	4.281
259.14	8.621
259.51	3.170
259.88	1.983
260.25	3.056
260.62	3.014
260.99	4.918
261.36	4.021
261.73	2.653
262.10	2.198
262.47	2.949
262.85	7.071
263.22	2.078
263.59	-1.053
263.96	3.581
264.33	1.535
264.70	5.679
265.07	4.296
265.44	7.937
265.81	4.630
266.18	5.669
266.55	4.688
266.92	2.050
267.29	5.470
267.66	4.656
268.03	6.114
268.40	7.516
268.77	3.872
269.14	3.524
269.51	5.044
269.88	7.172
270.25	6.439
270.62	4.008
270.99	8.485
271.36	7.921
271.73	5.894
272.10	7.415
272.47	5.210
272.84	3.614
273.21	3.206
273.58	5.645
273.95	4.808
274.32	5.323
274.69	5.996
275.06	7.692
275.43	5.176
275.80	6.173
276.17	4.259
276.54	4.291
276.91	5.188
277.28	6.329
277.65	7.899
278.02	7.537
278.39	4.529
278.76	5.800
279.13	6.028
279.50	7.732
279.87	7.156
280.23	2.641
280.60	6.441
280.97	7.566
281.34	5.093
281.71	7.276
282.08	5.814
282.45	7.038
282.82	6.436
283.19	6.624
283.56	5.082
283.92	8.559
284.29	8.215
284.66	8.374
285.03	5.929
285.40	7.883
285.77	6.656
286.14	7.786
286.51	7.306
286.87	5.371
287.24	6.777
287.61	4.185
287.98	6.193
288.35	6.213
288.72	5.917
289.08	6.589
289.45	5.769
289.82	6.325
290.19	6.034
290.56	7.324
290.93	6.562
291.29	5.647
291.66	7.025
292.03	5.563
292.40	7.211
292.77	4.987
293.13	6.360
293.50	5.388
293.87	6.309
294.24	7.333
294.60	7.459
294.97	4.966
295.34	6.786
295.71	4.414
296.08	7.494
296.44	5.270
296.81	5.603
297.18	6.600
297.55	6.368
297.91	6.406
298.28	5.569
298.65	5.589
299.02	5.431
299.38	6.979
299.75	5.841
300.12	6.019
300.48	6.106
300.85	6.862
301.22	7.494
301.59	6.621
301.95	7.119
302.32	6.444
302.69	7.777
303.05	6.311
303.42	5.876
303.79	7.187
304.15	6.940
304.52	7.717
304.89	7.958
305.25	6.625
305.62	7.419
305.99	7.320
306.35	7.460
306.72	8.170
307.09	7.817
307.45	7.764
307.82	7.164
308.19	6.559
308.55	7.715
308.92	8.374
309.29	7.950
309.65	7.700
310.02	8.614
310.38	8.268
310.75	8.835
311.12	10.355
311.48	8.895
311.85	9.877
312.22	9.677
312.58	10.235
312.95	9.751
313.31	11.292
313.68	11.538
314.05	11.563
314.41	12.204
314.78	11.535
315.14	13.249
315.51	12.835
315.87	13.051
316.24	12.968
316.61	14.121
316.97	13.575
317.34	14.374
317.70	15.197
318.07	14.815
318.43	15.051
318.80	15.635
319.16	15.451
319.53	15.253
319.89	16.477
320.26	16.281
320.62	15.957
320.99	16.990
321.35	17.098
321.72	17.674
322.08	16.501
322.45	17.525
322.81	20.217
323.18	18.938
323.54	19.655
323.91	18.950
324.27	19.621
324.64	20.151
325.00	20.978
325.37	21.130
325.73	21.240
326.10	21.168
326.46	21.987
326.83	23.379
327.19	22.047
327.56	23.794
327.92	22.738
328.29	23.387
328.65	23.367
329.01	23.181
329.38	26.622
329.74	24.144
330.11	24.829
330.47	24.684
330.84	24.548
331.20	26.500
331.56	25.390
331.93	25.774
332.29	26.271
332.66	27.492
333.02	26.549
333.38	26.091
333.75	25.926
334.11	26.606
334.48	27.063
334.84	28.462
335.20	27.708
335.57	27.572
335.93	27.769
336.29	26.955
336.66	27.670
337.02	27.341
337.38	27.551
337.75	27.769
338.11	27.923
338.47	28.288
338.84	27.750
339.20	28.054
339.56	28.418
339.93	28.900
340.29	25.604
340.65	27.494
341.02	28.651
341.38	28.779
341.74	27.603
342.11	28.882
342.47	27.244
342.83	29.147
343.20	28.618
343.56	27.586
343.92	28.423
344.28	29.453
344.65	29.070
345.01	27.613
345.37	29.005
345.73	27.592
346.10	29.329
346.46	28.402
346.82	28.165
347.19	29.106
347.55	28.528
347.91	28.380
348.27	29.211
348.63	29.246
349.00	28.859
349.36	28.625
349.72	29.390
350.08	29.421
350.45	28.441
350.81	28.959
351.17	30.226
351.53	30.478
351.89	30.828
352.26	30.000
352.62	30.075
352.98	30.611
353.34	29.350
353.70	29.122
354.07	29.359
354.43	29.916
354.79	29.693
355.15	30.316
355.51	30.775
355.87	30.666
356.24	31.103
356.60	29.933
356.96	31.208
357.32	30.706
357.68	30.088
358.04	30.165
358.40	31.418
358.77	32.968
359.13	31.019
359.49	31.227
359.85	31.109
360.21	30.775
360.57	31.299
360.93	32.299
361.29	33.053
361.66	32.151
362.02	31.733
362.38	31.483
362.74	31.355
363.10	33.287
363.46	32.341
363.82	32.812
364.18	33.005
364.54	33.126
364.90	33.378
365.26	33.172
365.62	33.667
365.98	33.764
366.35	32.953
366.71	33.469
367.07	33.627
367.43	34.012
367.79	34.904
368.15	35.251
368.51	34.100
368.87	34.291
369.23	33.467
369.59	35.451
369.95	34.618
370.31	35.517
370.67	34.457
371.03	36.357
371.39	34.990
371.75	36.520
372.11	36.450
372.47	35.003
372.83	35.929
373.19	37.158
373.55	35.434
373.91	35.106
374.27	36.546
374.63	36.942
374.99	36.737
375.35	37.208
375.71	36.903
376.07	36.669
376.42	37.909
376.78	38.471
377.14	37.118
377.50	39.532
377.86	38.978
378.22	38.563
378.58	39.061
378.94	40.200
379.30	40.187
379.66	40.094
380.02	39.181
380.38	41.417
380.74	41.014
381.09	40.418
381.45	40.966
381.81	42.564
382.17	41.983
382.53	41.228
382.89	42.099
383.25	41.911
383.61	43.171
383.97	42.403
384.32	43.481
384.68	41.879
385.04	43.551
385.40	44.431
385.76	44.783
386.12	44.165
386.48	44.882
386.83	44.636
387.19	44.554
387.55	44.484
387.91	44.578
388.27	44.804
388.62	45.017
388.98	44.670
389.34	45.963
389.70	46.949
390.06	45.648
390.42	45.301
390.77	45.695
391.13	46.538
391.49	46.256
391.85	46.061
392.20	46.619
392.56	46.958
392.92	46.510
393.28	47.595
393.64	47.542
393.99	47.763
394.35	47.079
394.71	48.024
395.07	45.269
395.42	47.801
395.78	49.055
396.14	48.010
396.50	47.743
396.85	47.466
397.21	47.574
397.57	47.939
397.92	49.313
398.28	47.529
398.64	48.513
399.00	47.906
399.35	48.429
399.71	48.750
400.07	49.130
400.42	49.709
400.78	48.958
401.14	47.923
401.49	48.835
401.85	48.837
402.21	49.884
402.57	49.413
402.92	49.409
403.28	47.951
403.63	48.866
403.99	49.109
404.35	48.152
404.70	49.292
405.06	47.935
405.42	49.590
405.77	49.455
406.13	49.595
406.49	48.930
406.84	49.751
407.20	49.413
407.55	48.092
407.91	49.654
408.27	49.764
408.62	49.622
408.98	48.926
409.34	47.801
409.69	50.185
410.05	50.469
410.40	50.870
410.76	49.635
411.11	50.029
411.47	49.324
411.83	49.618
412.18	49.699
412.54	49.437
412.89	50.873
413.25	49.266
413.60	50.029
413.96	50.699
414.31	50.198
414.67	49.493
415.03	50.338
415.38	50.126
415.74	50.336
416.09	50.216
416.45	48.591
416.80	49.878
417.16	49.617
417.51	49.066
417.87	50.705
418.22	50.539
418.58	50.991
418.93	50.990
419.29	50.925
419.64	51.080
420.00	49.674
420.35	50.814
420.71	49.454
421.06	50.489
421.42	50.631
421.77	50.781
422.12	50.634
422.48	51.562
422.83	52.793
423.19	51.777
423.54	52.931
423.90	50.525
424.25	52.373
424.61	51.091
424.96	51.949
425.31	52.282
425.67	50.617
426.02	52.684
426.38	51.607
426.73	51.004
427.09	51.442
427.44	51.010
427.79	51.907
428.15	51.199
428.50	52.303
428.85	51.894
429.21	51.702
429.56	52.419
429.92	51.253
430.27	52.964
430.62	52.858
430.98	53.025
431.33	51.857
431.68	51.964
432.04	53.022
432.39	53.455
432.74	53.025
433.10	52.569
433.45	51.282
433.80	51.985
434.16	53.099
434.51	53.803
434.86	53.963
435.22	54.676
435.57	53.479
435.92	53.255
436.28	53.925
436.63	55.871
436.98	53.462
437.34	54.228
437.69	54.375
438.04	53.622
438.39	54.854
438.75	54.123
439.10	55.180
439.45	54.444
439.81	53.503
440.16	53.190
440.51	53.790
440.86	53.641
441.22	54.502
441.57	54.403
441.92	55.286
442.27	55.404
442.63	55.390
442.98	54.803
443.33	55.339
443.68	55.401
444.03	57.056
444.39	56.172
444.74	56.866
445.09	55.753
445.44	56.164
445.79	56.849
446.15	55.807
446.50	56.796
446.85	56.907
447.20	56.576
447.55	56.119
447.91	56.545
448.26	56.871
448.61	56.908
448.96	58.262
449.31	57.158
449.66	55.556
450.02	56.698
450.37	56.633
450.72	56.889
451.07	57.232
451.42	59.330
451.77	55.920
452.12	57.506
452.47	55.853
452.83	59.178
453.18	56.918
453.53	56.979
453.88	56.599
454.23	57.288
454.58	58.619
454.93	56.553
455.28	58.158
455.63	57.703
455.98	56.872
456.34	57.597
456.69	57.613
457.04	59.634
457.39	57.594
457.74	58.501
458.09	57.496
458.44	58.190
458.79	57.916
459.14	57.053
459.49	58.291
459.84	58.080
460.19	57.079
460.54	57.694
460.89	59.820
461.24	56.437
461.59	58.052
461.94	56.703
462.29	58.791
462.64	57.996
462.99	57.627
463.34	58.079
463.69	57.034
464.04	58.366
464.39	58.128
464.74	56.727
465.09	58.593
465.44	58.369
465.79	58.223
466.14	57.113
466.49	57.842
466.84	58.567
467.19	58.671
467.54	57.051
467.89	56.552
468.24	57.507
468.59	56.167
468.94	56.352
469.29	57.948
469.64	56.643
469.99	57.680
470.34	57.673
470.68	59.193
471.03	57.564
471.38	58.077
471.73	58.518
472.08	57.868
472.43	58.278
472.78	58.627
473.13	58.913
473.48	58.127
473.83	59.373
474.17	58.558
474.52	60.493
474.87	58.361
475.22	58.873
475.57	58.307
475.92	58.537
476.27	58.892
476.61	57.892
476.96	58.029
477.31	58.762
477.66	59.182
478.01	58.719
478.36	58.275
478.70	59.507
479.05	59.765
479.40	59.576
479.75	59.510
480.10	60.019
480.45	59.435
480.79	59.637
481.14	58.364
481.49	59.564
481.84	59.704
482.19	59.484
482.53	60.122
482.88	60.035
483.23	59.982
483.58	59.301
483.92	58.466
484.27	58.256
484.62	58.003
484.97	58.204
485.31	57.480
485.66	53.848
486.01	55.605
486.36	58.549
486.70	61.962
487.05	63.411
487.40	61.203
487.75	59.059
488.09	57.706
488.44	56.350
488.79	55.987
489.13	56.662
489.48	56.816
489.83	57.103
490.17	57.797
490.52	57.964
490.87	58.799
491.22	60.052
491.56	58.831
491.91	58.744
492.26	59.541
492.60	59.860
492.95	59.675
493.30	59.839
493.64	59.615
493.99	58.904
494.34	58.972
494.68	59.143
495.03	59.559
495.37	60.142
495.72	59.546
496.07	58.370
496.41	59.674
496.76	59.800
497.11	60.807
497.45	59.776
497.80	59.884
498.14	60.862
498.49	59.789
498.84	59.963
499.18	60.279
499.53	59.731
499.87	60.044
500.22	61.131
500.56	58.480
500.91	61.053
501.26	60.318
501.60	59.744
501.95	60.226
502.29	60.728
502.64	60.778
502.98	59.275
503.33	60.302
503.67	59.573
504.02	59.151
504.36	61.260
504.71	61.553
505.06	60.346
505.40	60.192
505.75	60.656
506.09	60.313
506.44	61.699
506.78	61.284
507.13	60.535
507.47	61.819
507.82	61.269
508.16	61.185
508.51	61.275
508.85	60.935
509.19	61.298
509.54	61.864
509.88	61.389
510.23	61.292
510.57	62.349
510.92	62.264
511.26	61.905
511.61	60.695
511.95	62.225
512.30	61.645
512.64	61.319
512.98	61.181
513.33	61.240
513.67	62.213
514.02	62.391
514.36	62.864
514.70	61.615
515.05	62.617
515.39	62.047
515.74	63.998
516.08	62.493
516.42	64.260
516.77	62.566
517.11	62.094
517.46	63.097
517.80	63.549
518.14	63.547
518.49	64.154
518.83	62.480
519.17	63.974
519.52	63.417
519.86	62.566
520.20	63.206
520.55	62.377
520.89	62.950
521.23	63.540
521.58	64.576
521.92	63.456
522.26	63.574
522.61	64.873
522.95	64.591
523.29	64.195
523.64	62.500
523.98	64.746
524.32	65.559
524.66	63.973
525.01	63.817
525.35	63.125
525.69	64.443
526.04	63.088
526.38	64.943
526.72	64.937
527.06	64.399
527.41	63.965
527.75	65.083
528.09	63.636
528.43	63.706
528.78	64.220
529.12	64.220
529.46	63.969
529.80	64.645
530.15	65.101
530.49	65.065
530.83	64.522
531.17	63.978
531.51	64.079
531.86	64.303
532.20	65.000
532.54	64.034
532.88	64.121
533.22	64.290
533.57	63.474
533.91	63.692
534.25	63.765
534.59	65.115
534.93	64.799
535.27	64.676
535.62	64.639
535.96	63.858
536.30	64.689
536.64	65.165
536.98	65.560
537.32	64.506
537.66	65.066
538.01	63.444
538.35	64.007
538.69	64.243
539.03	65.849
539.37	63.369
539.71	64.144
540.05	63.729
540.39	63.509
540.73	62.781
541.07	63.948
541.42	63.497
541.76	63.108
542.10	65.078
542.44	64.616
542.78	63.990
543.12	63.170
543.46	64.713
543.80	62.830
544.14	63.615
544.48	64.480
544.82	64.093
545.16	65.236
545.50	64.410
545.84	63.686
546.18	65.062
546.52	64.204
546.86	64.465
547.20	64.440
547.54	63.296
547.88	63.773
548.22	63.977
548.56	64.892
548.90	64.478
549.24	64.438
549.58	62.397
549.92	65.561
550.26	64.854
550.60	62.412
550.94	64.877
551.28	63.498
551.62	64.623
551.96	64.725
552.30	66.348
552.64	65.339
552.98	64.754
553.32	66.945
553.66	66.495
554.00	64.943
554.34	64.929
554.68	64.622
555.02	65.046
555.36	64.826
555.69	64.190
556.03	64.124
556.37	64.956
556.71	63.348
557.05	66.198
557.39	66.291
557.73	64.861
558.07	65.828
558.41	65.249
558.75	64.706
559.08	66.736
559.42	64.403
559.76	64.383
560.10	64.568
560.44	65.963
560.78	65.000
561.12	65.209
561.45	65.876
561.79	66.484
562.13	67.344
562.47	65.351
562.81	65.190
563.15	65.215
563.48	66.004
563.82	65.357
564.16	64.385
564.50	63.588
564.84	64.307
565.17	65.000
565.51	63.464
565.85	65.618
566.19	64.919
566.52	65.126
566.86	66.271
567.20	63.730
567.54	64.631
567.88	65.189
568.21	65.267
568.55	64.940
568.89	63.867
569.23	63.963
569.56	64.322
569.90	64.576
570.24	63.744
570.57	64.529
570.91	63.043
571.25	63.003
571.59	62.705
571.92	63.300
572.26	63.182
572.60	62.462
572.93	62.288
573.27	62.096
573.61	61.938
573.95	61.641
574.28	61.084
574.62	61.892
574.96	61.050
575.29	60.939
575.63	62.116
575.97	62.012
576.30	60.622
576.64	60.678
576.98	61.663
577.31	61.651
577.65	62.216
577.98	61.747
578.32	61.905
578.66	61.591
578.99	61.356
579.33	61.249
579.67	61.333
580.00	60.935
580.34	60.951
580.67	60.680
581.01	60.385
581.35	60.783
581.68	61.757
582.02	61.873
582.35	62.825
582.69	63.291
583.02	62.829
583.36	62.354
583.70	61.600
584.03	60.043
584.37	60.454
584.70	60.587
585.04	59.986
585.37	60.429
585.71	60.906
586.04	62.131
586.38	61.815
586.72	62.271
587.05	62.190
587.39	63.201
587.72	62.679
588.06	62.766
588.39	61.937
588.73	61.825
589.06	62.359
589.40	63.122
589.73	62.757
590.07	62.898
590.40	62.745
590.73	61.965
591.07	63.366
591.40	62.442
591.74	63.235
592.07	62.850
592.41	63.170
592.74	62.904
593.08	64.427
593.41	63.984
593.75	64.023
594.08	64.950
594.41	63.846
594.75	62.637
595.08	63.594
595.42	63.669
595.75	62.351
596.09	64.046
596.42	63.203
596.75	61.829
597.09	63.636
597.42	62.495
597.75	62.681
598.09	62.659
598.42	63.530
598.76	62.400
599.09	63.368
599.42	62.085
599.76	62.925
600.09	63.263
600.42	63.096
600.76	63.276
601.09	62.297
601.42	62.856
601.76	62.345
602.09	62.294
602.42	62.704
602.76	62.915
603.09	63.399
603.42	63.981
603.76	63.636
604.09	64.585
604.42	63.633
604.76	62.709
605.09	63.821
605.42	63.477
605.75	62.500
606.09	64.128
606.42	62.058
606.75	62.819
607.09	62.327
607.42	62.582
607.75	63.189
608.08	62.549
608.42	62.838
608.75	63.060
609.08	61.800
609.41	63.167
609.75	63.616
610.08	63.896
610.41	63.934
610.74	61.975
611.07	64.076
611.41	64.215
611.74	63.557
612.07	63.441
612.40	63.213
612.73	64.303
613.07	63.961
613.40	64.533
613.73	63.746
614.06	63.935
614.39	63.508
614.72	62.882
615.06	63.234
615.39	63.896
615.72	63.886
616.05	64.497
616.38	64.279
616.71	63.950
617.05	63.791
617.38	63.563
617.71	64.147
618.04	63.627
618.37	64.809
618.70	64.649
619.03	64.098
619.36	64.057
619.69	64.061
620.03	64.721
620.36	63.436
620.69	65.762
621.02	64.042
621.35	66.183
621.68	65.871
622.01	64.626
622.34	63.459
622.67	64.467
623.00	64.170
623.33	65.295
623.66	65.694
623.99	66.096
624.32	65.952
624.65	64.221
624.99	66.580
625.32	65.056
625.65	66.352
625.98	65.559
626.31	65.273
626.64	64.469
626.97	64.516
627.30	64.313
627.63	65.866
627.96	66.216
628.29	64.125
628.62	66.331
628.95	67.046
629.28	66.185
629.61	65.909
629.94	65.356
630.26	67.373
630.59	66.321
630.92	66.667
631.25	65.921
631.58	66.384
631.91	68.135
632.24	67.051
632.57	65.085
632.90	67.904
