SpectraSuite Data File
++++++++++++++++++++++++++++++++++++
Date: Thu May 14 14:33:08 PDT 2015
User: schluterlab
Dark Spectrum Present: Yes
Reference Spectrum Present: Yes
Number of Sampled Component Spectra: 1
Spectrometers: USB2E3373
Integration Time (usec): 3000 (USB2E3373)
Spectra Averaged: 3 (USB2E3373)
Boxcar Smoothing: 0 (USB2E3373)
Correct for Electrical Dark: No (USB2E3373)
Strobe/Lamp Enabled: No (USB2E3373)
Correct for Detector Non-linearity: No (USB2E3373)
Correct for Stray Light: No (USB2E3373)
Number of Pixels in Processed Spectrum: 2048
>>>>>Begin Processed Spectral Data<<<<<
178.53	0.000
178.91	-214.286
179.29	900.000
179.67	1900.000
180.04	-42.857
180.42	-90.000
180.80	-300.000
181.18	1500.000
181.56	1400.000
181.94	-475.000
182.31	475.000
182.69	-666.667
183.07	1300.000
183.45	-275.000
183.83	183.333
184.20	800.000
184.58	-1500.000
184.96	525.000
185.34	233.333
185.72	520.000
186.09	-33.333
186.47	-300.000
186.85	-140.000
187.23	111.111
187.61	1700.000
187.98	-460.000
188.36	-350.000
188.74	425.000
189.12	666.667
189.49	175.000
189.87	200.000
190.25	333.333
190.63	420.000
191.00	200.000
191.38	0.000
191.76	325.000
192.14	283.333
192.51	-550.000
192.89	250.000
193.27	0.000
193.65	228.571
194.02	900.000
194.40	257.143
194.78	-214.286
195.15	0.000
195.53	218.182
195.91	0.000
196.29	500.000
196.66	115.385
197.04	2600.000
197.42	242.857
197.79	500.000
198.17	225.000
198.55	242.857
198.92	233.333
199.30	225.000
199.68	236.364
200.05	150.000
200.43	900.000
200.81	-114.286
201.18	0.000
201.56	-100.000
201.94	0.000
202.31	-233.333
202.69	77.778
203.07	-2800.000
203.44	255.556
203.82	475.000
204.19	108.333
204.57	283.333
204.95	225.000
205.32	2000.000
205.70	-325.000
206.08	283.333
206.45	400.000
206.83	-320.000
207.20	466.667
207.58	240.000
207.96	166.667
208.33	416.667
208.71	-108.333
209.08	416.667
209.46	0.000
209.84	-333.333
210.21	-1250.000
210.59	-950.000
210.96	-666.667
211.34	550.000
211.71	137.500
212.09	2000.000
212.46	0.000
212.84	-300.000
213.22	220.000
213.59	425.000
213.97	160.000
214.34	833.333
214.72	-183.333
215.09	350.000
215.47	0.000
215.84	-228.571
216.22	-650.000
216.59	260.000
216.97	320.000
217.34	250.000
217.72	200.000
218.09	450.000
218.47	25.000
218.84	0.000
219.22	-20.000
219.59	94.118
219.97	95.000
220.34	-800.000
220.72	255.556
221.09	123.077
221.47	600.000
221.84	160.000
222.22	228.571
222.59	0.000
222.97	337.500
223.34	220.000
223.72	1700.000
224.09	325.000
224.46	375.000
224.84	520.000
225.21	142.857
225.59	175.000
225.96	500.000
226.34	130.769
226.71	-166.667
227.08	950.000
227.46	106.667
227.83	600.000
228.21	121.053
228.58	-137.500
228.95	-550.000
229.33	225.000
229.70	220.000
230.08	178.947
230.45	-100.000
230.82	566.667
231.20	107.143
231.57	125.000
231.95	145.455
232.32	163.636
232.69	70.000
233.07	450.000
233.44	88.235
233.81	140.000
234.19	133.333
234.56	145.455
234.93	117.241
235.31	115.789
235.68	172.222
236.05	100.000
236.43	130.769
236.80	120.000
237.17	85.185
237.55	78.788
237.92	70.000
238.29	70.968
238.67	40.909
239.04	69.444
239.41	61.905
239.79	45.652
240.16	46.296
240.53	41.304
240.91	29.412
241.28	40.984
241.65	55.224
242.02	62.162
242.40	44.615
242.77	36.000
243.14	36.585
243.51	27.632
243.89	35.897
244.26	33.663
244.63	37.255
245.00	39.252
245.38	29.825
245.75	20.354
246.12	38.095
246.49	24.031
246.87	27.143
247.24	25.828
247.61	30.263
247.98	26.174
248.36	27.160
248.73	24.540
249.10	25.137
249.47	28.358
249.84	25.131
250.22	25.389
250.59	30.556
250.96	30.909
251.33	20.408
251.70	21.368
252.08	21.250
252.45	26.639
252.82	23.967
253.19	20.313
253.56	21.673
253.94	20.769
254.31	23.864
254.68	21.678
255.05	23.779
255.42	22.109
255.79	17.152
256.16	18.212
256.54	17.219
256.91	19.344
257.28	19.344
257.65	21.975
258.02	18.584
258.39	20.513
258.76	24.771
259.14	21.839
259.51	22.478
259.88	18.697
260.25	20.278
260.62	22.192
260.99	22.678
261.36	22.252
261.73	17.772
262.10	21.429
262.47	18.499
262.85	22.222
263.22	19.481
263.59	21.316
263.96	20.460
264.33	17.903
264.70	19.753
265.07	22.434
265.44	19.274
265.81	21.065
266.18	20.635
266.55	19.866
266.92	17.312
267.29	21.007
267.66	19.069
268.03	22.271
268.40	20.042
268.77	20.046
269.14	16.520
269.51	19.079
269.88	21.516
270.25	19.316
270.62	21.097
270.99	18.990
271.36	18.020
271.73	19.646
272.10	21.242
272.47	18.838
272.84	18.474
273.21	18.838
273.58	18.750
273.95	19.231
274.32	17.300
274.69	18.762
275.06	17.949
275.43	18.669
275.80	19.224
276.17	18.704
276.54	19.030
276.91	16.637
277.28	17.722
277.65	18.492
278.02	19.853
278.39	16.123
278.76	18.981
279.13	18.262
279.50	17.869
279.87	18.426
280.23	16.373
280.60	17.627
280.97	18.750
281.34	18.676
281.71	18.443
282.08	17.442
282.45	16.694
282.82	16.013
283.19	16.478
283.56	16.721
283.92	19.970
284.29	17.694
284.66	18.227
285.03	17.147
285.40	15.611
285.77	16.718
286.14	17.252
286.51	18.569
286.87	17.378
287.24	19.729
287.61	15.695
287.98	15.559
288.35	17.160
288.72	16.864
289.08	17.130
289.45	16.716
289.82	15.964
290.19	16.667
290.56	15.493
290.93	17.118
291.29	15.289
291.66	14.876
292.03	14.790
292.40	17.415
292.77	15.364
293.13	14.073
293.50	15.112
293.87	15.302
294.24	16.400
294.60	13.906
294.97	14.765
295.34	15.749
295.71	14.754
296.08	13.566
296.44	15.931
296.81	15.104
297.18	14.321
297.55	15.212
297.91	13.286
298.28	13.152
298.65	14.031
299.02	13.695
299.38	13.501
299.75	14.603
300.12	13.426
300.48	13.018
300.85	13.048
301.22	13.423
301.59	13.699
301.95	13.333
302.32	14.000
302.69	12.924
303.05	13.384
303.42	13.415
303.79	13.333
304.15	12.723
304.52	13.531
304.89	13.194
305.25	12.836
305.62	12.957
305.99	13.196
306.35	12.903
306.72	14.478
307.09	11.980
307.45	14.182
307.82	13.219
308.19	12.412
308.55	13.308
308.92	12.950
309.29	14.847
309.65	13.548
310.02	12.772
310.38	12.894
310.75	14.078
311.12	14.286
311.48	14.370
311.85	14.340
312.22	13.662
312.58	14.272
312.95	14.054
313.31	14.724
313.68	15.568
314.05	14.724
314.41	16.393
314.78	14.896
315.14	15.245
315.51	16.805
315.87	16.652
316.24	15.982
316.61	17.140
316.97	16.471
317.34	16.755
317.70	17.991
318.07	17.637
318.43	16.837
318.80	18.813
319.16	18.970
319.53	16.881
319.89	17.441
320.26	17.794
320.62	19.238
320.99	18.652
321.35	19.316
321.72	20.093
322.08	19.567
322.45	20.867
322.81	21.029
323.18	19.381
323.54	20.603
323.91	20.996
324.27	20.912
324.64	22.250
325.00	21.227
325.37	22.441
325.73	21.653
326.10	22.628
326.46	22.557
326.83	22.418
327.19	22.205
327.56	23.241
327.92	22.502
328.29	22.984
328.65	22.781
329.01	24.027
329.38	24.347
329.74	24.058
330.11	24.572
330.47	24.431
330.84	23.342
331.20	25.333
331.56	24.610
331.93	25.607
332.29	25.847
332.66	24.917
333.02	25.879
333.38	25.503
333.75	26.347
334.11	26.439
334.48	26.238
334.84	26.423
335.20	24.601
335.57	26.644
335.93	27.025
336.29	26.123
336.66	25.652
337.02	27.174
337.38	27.126
337.75	26.198
338.11	27.334
338.47	27.213
338.84	26.650
339.20	25.611
339.56	25.783
339.93	26.847
340.29	26.490
340.65	25.872
341.02	26.895
341.38	26.273
341.74	26.554
342.11	26.951
342.47	25.973
342.83	27.214
343.20	26.083
343.56	26.223
343.92	26.741
344.28	26.953
344.65	27.209
345.01	27.223
345.37	26.672
345.73	25.409
346.10	26.989
346.46	26.899
346.82	26.966
347.19	27.196
347.55	27.314
347.91	27.340
348.27	26.707
348.63	27.494
349.00	27.368
349.36	27.212
349.72	26.488
350.08	26.895
350.45	26.692
350.81	26.546
351.17	27.519
351.53	27.445
351.89	27.790
352.26	26.866
352.62	27.388
352.98	26.260
353.34	25.691
353.70	26.271
354.07	27.347
354.43	26.803
354.79	27.375
355.15	27.152
355.51	28.655
355.87	25.580
356.24	27.529
356.60	27.864
356.96	27.947
357.32	27.286
357.68	27.452
358.04	27.545
358.40	26.716
358.77	27.412
359.13	28.065
359.49	27.435
359.85	27.774
360.21	27.403
360.57	28.500
360.93	27.574
361.29	28.351
361.66	27.516
362.02	28.323
362.38	28.250
362.74	27.723
363.10	28.473
363.46	29.224
363.82	27.202
364.18	27.868
364.54	28.354
364.90	28.963
365.26	29.103
365.62	29.200
365.98	29.272
366.35	28.792
366.71	28.231
367.07	28.755
367.43	29.547
367.79	30.192
368.15	29.431
368.51	29.499
368.87	28.739
369.23	29.600
369.59	29.645
369.95	29.547
370.31	30.385
370.67	29.436
371.03	28.878
371.39	29.080
371.75	30.674
372.11	30.014
372.47	30.873
372.83	30.563
373.19	30.020
373.55	30.081
373.91	30.266
374.27	31.307
374.63	31.123
374.99	30.637
375.35	31.429
375.71	30.710
376.07	30.794
376.42	30.416
376.78	31.635
377.14	30.443
377.50	31.436
377.86	31.466
378.22	32.575
378.58	32.342
378.94	31.631
379.30	31.810
379.66	31.687
380.02	32.083
380.38	32.316
380.74	32.394
381.09	32.695
381.45	32.670
381.81	34.368
382.17	33.076
382.53	34.386
382.89	34.537
383.25	34.056
383.61	33.565
383.97	34.393
384.32	34.868
384.68	33.759
385.04	34.644
385.40	35.887
385.76	34.994
386.12	34.829
386.48	34.824
386.83	35.638
387.19	34.357
387.55	35.974
387.91	35.959
388.27	36.028
388.62	35.911
388.98	35.082
389.34	36.594
389.70	36.374
390.06	35.524
390.42	36.084
390.77	36.845
391.13	35.915
391.49	37.500
391.85	36.848
392.20	37.307
392.56	37.744
392.92	37.077
393.28	37.092
393.64	36.480
393.99	37.071
394.35	37.734
394.71	37.006
395.07	36.766
395.42	38.093
395.78	38.696
396.14	37.671
396.50	36.639
396.85	38.223
397.21	37.456
397.57	38.163
397.92	38.488
398.28	36.936
398.64	37.357
399.00	35.812
399.35	37.382
399.71	36.793
400.07	38.742
400.42	37.951
400.78	38.137
401.14	37.564
401.49	38.090
401.85	38.198
402.21	38.644
402.57	38.028
402.92	38.712
403.28	37.061
403.63	37.411
403.99	38.005
404.35	37.862
404.70	37.620
405.06	37.446
405.42	37.822
405.77	36.805
406.13	36.791
406.49	38.176
406.84	37.562
407.20	37.507
407.55	37.795
407.91	37.901
408.27	37.220
408.62	38.394
408.98	37.377
409.34	38.065
409.69	39.431
410.05	38.159
410.40	37.993
410.76	38.755
411.11	39.158
411.47	38.575
411.83	38.154
412.18	37.952
412.54	38.411
412.89	38.475
413.25	38.375
413.60	38.024
413.96	38.636
414.31	37.564
414.67	37.507
415.03	38.646
415.38	38.335
415.74	38.180
416.09	37.138
416.45	38.635
416.80	37.944
417.16	39.400
417.51	38.730
417.87	38.443
418.22	38.024
418.58	39.405
418.93	38.882
419.29	38.841
419.64	38.175
420.00	38.754
420.35	38.574
420.71	37.679
421.06	38.298
421.42	38.647
421.77	37.534
422.12	38.055
422.48	37.532
422.83	39.266
423.19	38.515
423.54	38.772
423.90	38.211
424.25	40.053
424.61	39.150
424.96	38.880
425.31	39.225
425.67	39.560
426.02	38.738
426.38	39.323
426.73	38.839
427.09	40.196
427.44	38.722
427.79	40.077
428.15	39.269
428.50	39.101
428.85	39.265
429.21	39.787
429.56	39.931
429.92	39.115
430.27	39.711
430.62	39.521
430.98	39.203
431.33	38.221
431.68	38.841
432.04	39.817
432.39	39.636
432.74	38.756
433.10	40.995
433.45	38.907
433.80	39.056
434.16	39.824
434.51	40.082
434.86	39.468
435.22	39.745
435.57	41.097
435.92	39.510
436.28	39.875
436.63	41.398
436.98	39.399
437.34	40.135
437.69	40.561
438.04	39.609
438.39	41.298
438.75	41.284
439.10	40.169
439.45	39.575
439.81	39.774
440.16	39.946
440.51	41.026
440.86	40.523
441.22	40.890
441.57	40.514
441.92	40.301
442.27	40.657
442.63	40.238
442.98	40.982
443.33	40.032
443.68	40.733
444.03	42.004
444.39	41.239
444.74	41.909
445.09	40.497
445.44	41.992
445.79	40.469
446.15	39.979
446.50	40.724
446.85	41.099
447.20	40.812
447.55	41.266
447.91	40.105
448.26	40.328
448.61	40.595
448.96	41.899
449.31	41.357
449.66	41.449
450.02	41.297
450.37	40.863
450.72	41.496
451.07	41.116
451.42	40.439
451.77	40.689
452.12	41.817
452.47	41.771
452.83	42.624
453.18	41.097
453.53	40.494
453.88	40.364
454.23	41.808
454.58	41.265
454.93	40.898
455.28	42.806
455.63	42.126
455.98	41.620
456.34	41.166
456.69	40.564
457.04	42.790
457.39	41.131
457.74	41.667
458.09	41.790
458.44	41.218
458.79	40.485
459.14	41.426
459.49	40.577
459.84	40.714
460.19	40.644
460.54	40.772
460.89	41.609
461.24	41.322
461.59	42.169
461.94	38.905
462.29	41.881
462.64	41.340
462.99	42.122
463.34	41.791
463.69	40.739
464.04	41.968
464.39	41.368
464.74	41.106
465.09	41.003
465.44	41.202
465.79	40.772
466.14	41.011
466.49	40.211
466.84	41.433
467.19	41.387
467.54	40.423
467.89	41.494
468.24	41.551
468.59	41.459
468.94	40.210
469.29	40.192
469.64	41.195
469.99	41.938
470.34	42.389
470.68	42.242
471.03	42.960
471.38	41.073
471.73	42.328
472.08	42.069
472.43	40.759
472.78	42.380
473.13	41.719
473.48	42.356
473.83	42.078
474.17	41.676
474.52	42.093
474.87	41.362
475.22	41.859
475.57	41.952
475.92	40.816
476.27	41.427
476.61	41.641
476.96	41.189
477.31	41.287
477.66	42.025
478.01	41.942
478.36	41.226
478.70	41.970
479.05	42.894
479.40	41.264
479.75	42.075
480.10	41.355
480.45	41.522
480.79	41.497
481.14	41.912
481.49	41.754
481.84	41.732
482.19	41.935
482.53	41.189
482.88	41.648
483.23	41.841
483.58	40.786
483.92	41.179
484.27	40.898
484.62	40.553
484.97	41.330
485.31	41.464
485.66	40.319
486.01	39.501
486.36	39.079
486.70	39.997
487.05	40.115
487.40	40.446
487.75	41.399
488.09	41.392
488.44	41.091
488.79	41.619
489.13	41.745
489.48	41.670
489.83	40.724
490.17	40.907
490.52	40.764
490.87	40.694
491.22	40.728
491.56	41.425
491.91	41.256
492.26	41.497
492.60	41.321
492.95	41.729
493.30	41.685
493.64	41.437
493.99	41.009
494.34	41.115
494.68	40.428
495.03	41.850
495.37	40.746
495.72	41.043
496.07	41.674
496.41	40.455
496.76	41.576
497.11	42.675
497.45	41.692
497.80	41.804
498.14	41.270
498.49	42.096
498.84	41.545
499.18	41.026
499.53	41.794
499.87	41.319
500.22	41.318
500.56	41.565
500.91	41.785
501.26	41.864
501.60	41.449
501.95	41.772
502.29	42.343
502.64	41.452
502.98	41.501
503.33	41.253
503.67	41.823
504.02	41.944
504.36	41.823
504.71	42.536
505.06	42.156
505.40	42.459
505.75	42.441
506.09	42.587
506.44	42.293
506.78	43.303
507.13	41.309
507.47	42.302
507.82	42.140
508.16	42.830
508.51	41.866
508.85	42.560
509.19	43.155
509.54	43.228
509.88	43.322
510.23	42.933
510.57	44.031
510.92	42.622
511.26	43.242
511.61	42.636
511.95	42.313
512.30	42.639
512.64	43.078
512.98	44.122
513.33	43.599
513.67	43.651
514.02	44.660
514.36	43.120
514.70	43.854
515.05	45.308
515.39	43.780
515.74	44.751
516.08	44.849
516.42	43.799
516.77	44.848
517.11	43.785
517.46	45.493
517.80	45.003
518.14	45.811
518.49	45.607
518.83	44.439
519.17	45.557
519.52	44.497
519.86	44.931
520.20	44.196
520.55	44.414
520.89	45.608
521.23	44.947
521.58	46.102
521.92	45.042
522.26	44.616
522.61	47.454
522.95	46.482
523.29	46.609
523.64	45.460
523.98	46.149
524.32	46.304
524.66	45.931
525.01	45.640
525.35	44.687
525.69	45.824
526.04	45.637
526.38	46.034
526.72	46.424
527.06	46.100
527.41	46.880
527.75	46.912
528.09	46.576
528.43	46.477
528.78	45.202
529.12	45.528
529.46	45.981
529.80	46.682
530.15	47.420
530.49	46.856
530.83	46.812
531.17	46.774
531.51	46.871
531.86	47.416
532.20	47.988
532.54	45.901
532.88	48.424
533.22	47.260
533.57	46.394
533.91	46.521
534.25	46.637
534.59	46.667
534.93	46.972
535.27	46.197
535.62	46.390
535.96	47.937
536.30	46.298
536.64	47.868
536.98	47.601
537.32	46.914
537.66	48.846
538.01	45.498
538.35	46.590
538.69	46.394
539.03	47.394
539.37	46.172
539.71	47.447
540.05	47.842
540.39	47.188
540.73	47.298
541.07	47.456
541.42	46.899
541.76	45.848
542.10	47.467
542.44	47.077
542.78	46.411
543.12	46.484
543.46	46.032
543.80	46.643
544.14	46.738
544.48	47.281
544.82	47.876
545.16	47.287
545.50	46.375
545.84	47.030
546.18	47.222
546.52	47.643
546.86	47.547
547.20	47.201
547.54	47.503
547.88	47.257
548.22	47.076
548.56	48.157
548.90	46.687
549.24	47.477
549.58	47.886
549.92	46.620
550.26	48.738
550.60	47.352
550.94	46.054
551.28	47.855
551.62	48.854
551.96	47.573
552.30	47.610
552.64	47.666
552.98	48.097
553.32	48.617
553.66	47.717
554.00	47.163
554.34	49.356
554.68	46.869
555.02	47.569
555.36	48.784
555.69	46.445
556.03	47.163
556.37	47.935
556.71	47.812
557.05	48.818
557.39	48.706
557.73	48.547
558.07	47.815
558.41	49.037
558.75	48.411
559.08	47.878
559.42	47.051
559.76	47.693
560.10	47.689
560.44	48.087
560.78	47.812
561.12	47.783
561.45	47.993
561.79	49.145
562.13	46.827
562.47	46.363
562.81	48.481
563.15	47.980
563.48	47.607
563.82	47.461
564.16	47.910
564.50	47.199
564.84	47.316
565.17	47.294
565.51	45.742
565.85	47.803
566.19	45.622
566.52	46.928
566.86	47.029
567.20	46.873
567.54	46.946
567.88	46.177
568.21	47.727
568.55	47.098
568.89	47.118
569.23	47.191
569.56	46.581
569.90	45.866
570.24	45.902
570.57	45.959
570.91	44.979
571.25	45.126
571.59	45.422
571.92	44.776
572.26	44.971
572.60	44.690
572.93	44.893
573.27	45.350
573.61	45.659
573.95	45.205
574.28	45.106
574.62	44.497
574.96	44.486
575.29	43.446
575.63	44.190
575.97	45.006
576.30	43.721
576.64	45.311
576.98	44.738
577.31	44.809
577.65	44.903
577.98	44.691
578.32	44.880
578.66	44.101
578.99	44.522
579.33	45.087
579.67	44.878
580.00	44.774
580.34	44.786
580.67	45.344
581.01	45.413
581.35	44.886
581.68	44.614
582.02	44.707
582.35	44.443
582.69	45.210
583.02	44.683
583.36	45.677
583.70	45.535
584.03	45.428
584.37	46.408
584.70	45.721
585.04	46.013
585.37	46.376
585.71	44.919
586.04	44.980
586.38	44.731
586.72	45.124
587.05	45.280
587.39	46.397
587.72	45.981
588.06	45.721
588.39	46.054
588.73	45.794
589.06	45.767
589.40	46.804
589.73	46.497
590.07	46.386
590.40	46.586
590.73	47.367
591.07	46.649
591.40	46.656
591.74	46.542
592.07	46.894
592.41	46.372
592.74	46.006
593.08	46.688
593.41	46.632
593.75	45.948
594.08	46.107
594.41	46.314
594.75	45.898
595.08	45.996
595.42	47.630
595.75	46.852
596.09	46.967
596.42	46.901
596.75	47.125
597.09	46.788
597.42	46.683
597.75	46.570
598.09	46.865
598.42	47.608
598.76	46.045
599.09	45.853
599.42	45.927
599.76	46.187
600.09	46.647
600.42	46.346
600.76	45.641
601.09	45.436
601.42	45.863
601.76	47.069
602.09	46.355
602.42	46.819
602.76	46.162
603.09	47.467
603.42	47.507
603.76	46.758
604.09	47.339
604.42	47.009
604.76	46.461
605.09	46.709
605.42	46.571
605.75	47.000
606.09	46.249
606.42	46.552
606.75	45.802
607.09	45.929
607.42	46.744
607.75	47.519
608.08	46.882
608.42	47.320
608.75	47.471
609.08	46.944
609.41	46.934
609.75	48.259
610.08	47.581
610.41	47.026
610.74	46.555
611.07	47.735
611.41	48.117
611.74	47.945
612.07	47.966
612.40	47.196
612.73	47.531
613.07	47.775
613.40	48.171
613.73	48.146
614.06	47.939
614.39	47.959
614.72	47.986
615.06	46.824
615.39	46.593
615.72	48.152
616.05	47.596
616.38	47.225
616.71	48.798
617.05	49.361
617.38	47.566
617.71	47.948
618.04	49.973
618.37	48.907
618.70	48.869
619.03	49.642
619.36	49.137
619.69	48.943
620.03	49.278
620.36	48.466
620.69	51.080
621.02	50.722
621.35	50.000
621.68	50.108
622.01	49.893
622.34	50.070
622.67	48.797
623.00	47.571
623.33	49.768
623.66	49.546
623.99	48.321
624.32	48.473
624.65	48.134
624.99	50.520
625.32	50.098
625.65	50.034
625.98	48.339
626.31	48.831
626.64	50.256
626.97	49.812
627.30	49.051
627.63	49.587
627.96	50.225
628.29	49.883
628.62	50.882
628.95	51.534
629.28	49.788
629.61	50.421
629.94	48.870
630.26	49.831
630.59	51.382
630.92	49.351
631.25	51.521
631.58	51.977
631.91	51.640
632.24	51.297
632.57	50.949
632.90	51.354
