SpectraSuite Data File
++++++++++++++++++++++++++++++++++++
Date: Thu May 14 15:01:01 PDT 2015
User: schluterlab
Dark Spectrum Present: Yes
Reference Spectrum Present: Yes
Number of Sampled Component Spectra: 1
Spectrometers: USB2E3373
Integration Time (usec): 3000 (USB2E3373)
Spectra Averaged: 3 (USB2E3373)
Boxcar Smoothing: 0 (USB2E3373)
Correct for Electrical Dark: No (USB2E3373)
Strobe/Lamp Enabled: No (USB2E3373)
Correct for Detector Non-linearity: No (USB2E3373)
Correct for Stray Light: No (USB2E3373)
Number of Pixels in Processed Spectrum: 2048
>>>>>Begin Processed Spectral Data<<<<<
178.53	0.000
178.91	342.857
179.29	-4200.000
179.67	-2600.000
180.04	307.143
180.42	200.000
180.80	520.000
181.18	-2100.000
181.56	-1300.000
181.94	575.000
182.31	-425.000
182.69	766.667
183.07	-700.000
183.45	900.000
183.83	-383.333
184.20	-866.667
184.58	2300.000
184.96	-525.000
185.34	-155.556
185.72	-200.000
186.09	311.111
186.47	1450.000
186.85	600.000
187.23	-277.778
187.61	-2700.000
187.98	400.000
188.36	600.000
188.74	-675.000
189.12	-533.333
189.49	-62.500
189.87	-325.000
190.25	-233.333
190.63	-460.000
191.00	-333.333
191.38	0.000
191.76	-725.000
192.14	-316.667
192.51	1250.000
192.89	-233.333
193.27	0.000
193.65	-242.857
194.02	-3000.000
194.40	-257.143
194.78	342.857
195.15	0.000
195.53	-181.818
195.91	0.000
196.29	-625.000
196.66	-161.538
197.04	-3200.000
197.42	-400.000
197.79	-1400.000
198.17	-387.500
198.55	-371.429
198.92	-200.000
199.30	-287.500
199.68	-218.182
200.05	-100.000
200.43	-1150.000
200.81	485.714
201.18	0.000
201.56	377.778
201.94	0.000
202.31	900.000
202.69	-300.000
203.07	2800.000
203.44	-233.333
203.82	-625.000
204.19	-141.667
204.57	-383.333
204.95	-325.000
205.32	-1500.000
205.70	500.000
206.08	-383.333
206.45	-366.667
206.83	760.000
207.20	-450.000
207.58	-540.000
207.96	-266.667
208.33	-283.333
208.71	200.000
209.08	-216.667
209.46	0.000
209.84	516.667
210.21	1050.000
210.59	1450.000
210.96	766.667
211.34	-325.000
211.71	-275.000
212.09	-2100.000
212.46	0.000
212.84	1550.000
213.22	-600.000
213.59	-550.000
213.97	-250.000
214.34	-766.667
214.72	333.333
215.09	-675.000
215.47	0.000
215.84	371.429
216.22	1300.000
216.59	-340.000
216.97	-560.000
217.34	-500.000
217.72	-250.000
218.09	-625.000
218.47	-625.000
218.84	0.000
219.22	560.000
219.59	-94.118
219.97	-85.000
220.34	1250.000
220.72	-244.444
221.09	-69.231
221.47	-600.000
221.84	-130.000
222.22	-385.714
222.59	0.000
222.97	-287.500
223.34	-600.000
223.72	-1400.000
224.09	-625.000
224.46	-550.000
224.84	-100.000
225.21	-342.857
225.59	-675.000
225.96	-625.000
226.34	-42.308
226.71	483.333
227.08	-1400.000
227.46	-126.667
227.83	-575.000
228.21	-36.842
228.58	212.500
228.95	1100.000
229.33	-116.667
229.70	-200.000
230.08	15.789
230.45	230.000
230.82	-533.333
231.20	-121.429
231.57	-116.667
231.95	-145.455
232.32	-136.364
232.69	-90.000
233.07	-625.000
233.44	-123.529
233.81	-260.000
234.19	-50.000
234.56	-63.636
234.93	-37.931
235.31	-57.895
235.68	-77.778
236.05	-100.000
236.43	-34.615
236.80	-16.000
237.17	-85.185
237.55	-39.394
237.92	-260.000
238.29	-54.839
238.67	-31.818
239.04	-22.222
239.41	-30.952
239.79	-15.217
240.16	-31.481
240.53	-28.261
240.91	-45.098
241.28	-18.033
241.65	-2.985
242.02	-9.459
242.40	-32.308
242.77	-1.333
243.14	-12.195
243.51	-2.632
243.89	-8.974
244.26	11.881
244.63	6.863
245.00	4.673
245.38	13.158
245.75	-6.195
246.12	7.143
246.49	-6.202
246.87	8.571
247.24	13.245
247.61	8.553
247.98	8.725
248.36	12.346
248.73	10.429
249.10	9.290
249.47	15.920
249.84	18.325
250.22	8.808
250.59	12.778
250.96	15.000
251.33	8.163
251.70	17.094
252.08	18.750
252.45	19.262
252.82	13.636
253.19	11.328
253.56	18.631
253.94	13.077
254.31	15.530
254.68	19.231
255.05	16.287
255.42	11.224
255.79	11.974
256.16	13.245
256.54	17.881
256.91	16.393
257.28	18.689
257.65	16.879
258.02	14.749
258.39	14.245
258.76	19.266
259.14	18.678
259.51	16.715
259.88	18.130
260.25	16.667
260.62	17.808
260.99	17.760
261.36	19.571
261.73	15.915
262.10	14.286
262.47	20.107
262.85	20.455
263.22	20.260
263.59	18.158
263.96	16.113
264.33	14.066
264.70	17.284
265.07	18.854
265.44	20.862
265.81	14.583
266.18	19.728
266.55	17.857
266.92	16.173
267.29	22.319
267.66	18.625
268.03	20.742
268.40	19.624
268.77	15.718
269.14	15.859
269.51	17.763
269.88	20.697
270.25	16.901
270.62	19.831
270.99	19.394
271.36	19.208
271.73	20.039
272.10	19.639
272.47	20.040
272.84	21.285
273.21	18.838
273.58	19.355
273.95	16.346
274.32	19.582
274.69	18.569
275.06	19.597
275.43	17.190
275.80	18.519
276.17	17.407
276.54	18.470
276.91	18.068
277.28	18.987
277.65	18.312
278.02	18.015
278.39	20.290
278.76	18.278
279.13	18.085
279.50	17.526
279.87	18.784
280.23	16.197
280.60	19.492
280.97	18.750
281.34	18.336
281.71	20.135
282.08	16.944
282.45	18.494
282.82	17.425
283.19	17.286
283.56	17.377
283.92	19.369
284.29	20.695
284.66	17.734
285.03	17.468
285.40	17.620
285.77	18.421
286.14	17.252
286.51	16.286
286.87	16.430
287.24	18.373
287.61	17.339
287.98	18.882
288.35	17.012
288.72	16.568
289.08	17.423
289.45	17.308
289.82	16.416
290.19	16.810
290.56	17.324
290.93	18.260
291.29	15.702
291.66	17.080
292.03	16.282
292.40	19.320
292.77	15.903
293.13	14.614
293.50	15.112
293.87	15.436
294.24	17.333
294.60	16.561
294.97	15.302
295.34	16.517
295.71	15.637
296.08	14.858
296.44	16.299
296.81	15.225
297.18	14.321
297.55	14.505
297.91	14.235
298.28	14.100
298.65	15.339
299.02	13.341
299.38	15.675
299.75	13.902
300.12	14.236
300.48	15.323
300.85	14.173
301.22	14.318
301.59	11.986
301.95	14.463
302.32	16.111
302.69	13.582
303.05	15.669
303.42	14.745
303.79	14.896
304.15	14.826
304.52	14.482
304.89	14.555
305.25	14.389
305.62	14.525
305.99	15.670
306.35	14.315
306.72	15.305
307.09	12.995
307.45	14.286
307.82	15.439
308.19	14.026
308.55	14.947
308.92	15.482
309.29	15.134
309.65	12.573
310.02	14.059
310.38	15.059
310.75	13.981
311.12	15.628
311.48	13.881
311.85	15.575
312.22	14.421
312.58	15.681
312.95	15.392
313.31	15.447
313.68	15.751
314.05	16.621
314.41	16.393
314.78	17.711
315.14	16.606
315.51	17.082
315.87	17.372
316.24	16.986
316.61	18.917
316.97	17.557
317.34	17.725
317.70	19.825
318.07	18.959
318.43	18.878
318.80	19.482
319.16	18.712
319.53	19.366
319.89	19.544
320.26	20.285
320.62	19.238
320.99	21.330
321.35	19.501
321.72	21.302
322.08	21.190
322.45	21.500
322.81	21.209
323.18	20.265
323.54	21.207
323.91	21.797
324.27	22.289
324.64	24.097
325.00	22.886
325.37	23.751
325.73	23.884
326.10	24.899
326.46	25.244
326.83	24.580
327.19	25.827
327.56	25.217
327.92	25.177
328.29	24.677
328.65	26.298
329.01	26.142
329.38	26.285
329.74	27.226
330.11	26.884
330.47	27.043
330.84	27.304
331.20	27.583
331.56	27.816
331.93	29.372
332.29	28.390
332.66	28.405
333.02	29.146
333.38	28.272
333.75	28.535
334.11	29.191
334.48	28.795
334.84	29.992
335.20	28.883
335.57	31.029
335.93	30.165
336.29	29.035
336.66	30.109
337.02	30.435
337.38	30.867
337.75	30.661
338.11	30.614
338.47	30.521
338.84	30.541
339.20	29.570
339.56	29.489
339.93	30.788
340.29	29.791
340.65	29.765
341.02	31.365
341.38	31.851
341.74	31.316
342.11	31.376
342.47	28.197
342.83	31.159
343.20	31.807
343.56	31.195
343.92	30.584
344.28	30.234
344.65	31.705
345.01	32.371
345.37	30.093
345.73	31.177
346.10	32.293
346.46	31.804
346.82	31.910
347.19	31.551
347.55	31.942
347.91	31.129
348.27	31.715
348.63	31.226
349.00	31.171
349.36	32.268
349.72	32.143
350.08	32.021
350.45	31.939
350.81	31.523
351.17	32.030
351.53	33.131
351.89	33.409
352.26	32.015
352.62	32.537
352.98	32.824
353.34	32.636
353.70	33.821
354.07	34.128
354.43	33.561
354.79	32.984
355.15	32.009
355.51	33.041
355.87	33.508
356.24	33.612
356.60	32.446
356.96	33.655
357.32	33.680
357.68	33.309
358.04	33.458
358.40	34.104
358.77	34.503
359.13	33.826
359.49	34.349
359.85	35.533
360.21	35.007
360.57	33.955
360.93	34.274
361.29	34.877
361.66	35.119
362.02	36.326
362.38	34.926
362.74	36.173
363.10	35.901
363.46	36.427
363.82	35.511
364.18	36.875
364.54	36.307
364.90	37.124
365.26	36.690
365.62	36.533
365.98	36.419
366.35	37.450
366.71	38.027
367.07	37.145
367.43	37.032
367.79	38.023
368.15	38.796
368.51	39.513
368.87	39.255
369.23	38.067
369.59	38.661
369.95	37.863
370.31	39.230
370.67	39.752
371.03	39.127
371.39	39.221
371.75	39.821
372.11	40.650
372.47	39.472
372.83	40.249
373.19	39.226
373.55	41.396
373.91	38.787
374.27	40.556
374.63	41.813
374.99	40.981
375.35	41.429
375.71	42.065
376.07	41.769
376.42	41.940
376.78	42.076
377.14	42.670
377.50	43.074
377.86	43.781
378.22	42.874
378.58	43.936
378.94	43.310
379.30	43.585
379.66	44.856
380.02	45.009
380.38	46.083
380.74	45.014
381.09	45.645
381.45	44.943
381.81	46.838
382.17	46.378
382.53	46.491
382.89	46.106
383.25	47.362
383.61	46.296
383.97	46.820
384.32	47.787
384.68	47.564
385.04	47.773
385.40	48.733
385.76	49.941
386.12	47.636
386.48	48.706
386.83	48.629
387.19	48.610
387.55	50.000
387.91	49.715
388.27	49.827
388.62	49.198
388.98	49.690
389.34	50.972
389.70	50.145
390.06	50.622
390.42	49.819
390.77	51.595
391.13	50.293
391.49	51.932
391.85	51.515
392.20	50.712
392.56	52.333
392.92	51.418
393.28	51.520
393.64	51.732
393.99	52.586
394.35	53.505
394.71	53.713
395.07	53.713
395.42	51.856
395.78	54.235
396.14	53.714
396.50	51.425
396.85	51.759
397.21	53.314
397.57	52.532
397.92	52.806
398.28	52.580
398.64	52.860
399.00	52.513
399.35	52.723
399.71	53.370
400.07	53.622
400.42	54.191
400.78	53.472
401.14	53.159
401.49	54.576
401.85	54.128
402.21	54.983
402.57	54.401
402.92	53.901
403.28	53.454
403.63	54.475
403.99	53.504
404.35	54.292
404.70	53.201
405.06	52.717
405.42	52.810
405.77	54.035
406.13	55.051
406.49	54.561
406.84	54.903
407.20	53.549
407.55	53.301
407.91	52.420
408.27	53.828
408.62	54.916
408.98	52.989
409.34	52.903
409.69	54.326
410.05	54.689
410.40	55.684
410.76	53.674
411.11	54.822
411.47	54.361
411.83	54.262
412.18	54.578
412.54	53.586
412.89	55.995
413.25	54.797
413.60	54.566
413.96	54.196
414.31	52.748
414.67	53.429
415.03	53.785
415.38	54.792
415.74	54.490
416.09	55.213
416.45	54.665
416.80	54.223
417.16	55.428
417.51	55.106
417.87	55.242
418.22	54.970
418.58	54.647
418.93	55.937
419.29	55.549
419.64	55.402
420.00	54.659
420.35	55.755
420.71	54.796
421.06	55.147
421.42	56.193
421.77	55.789
422.12	54.915
422.48	53.456
422.83	56.079
423.19	55.491
423.54	56.361
423.90	55.439
424.25	56.693
424.61	56.142
424.96	56.288
425.31	55.945
425.67	55.233
426.02	57.388
426.38	56.257
426.73	56.027
427.09	56.690
427.44	54.779
427.79	56.661
428.15	56.279
428.50	55.562
428.85	55.683
429.21	56.809
429.56	55.923
429.92	54.939
430.27	57.494
430.62	57.450
430.98	56.960
431.33	56.012
431.68	55.125
432.04	57.390
432.39	56.347
432.74	57.021
433.10	57.220
433.45	55.630
433.80	56.170
434.16	56.353
434.51	58.171
434.86	58.849
435.22	58.502
435.57	57.960
435.92	57.373
436.28	57.395
436.63	58.329
436.98	56.897
437.34	58.005
437.69	56.632
438.04	56.372
438.39	56.175
438.75	57.001
439.10	56.818
439.45	57.295
439.81	56.780
440.16	56.783
440.51	56.522
440.86	56.365
441.22	55.949
441.57	57.809
441.92	55.868
442.27	57.273
442.63	58.023
442.98	57.311
443.33	57.443
443.68	57.730
444.03	58.420
444.39	57.698
444.74	58.601
445.09	56.969
445.44	57.692
445.79	57.854
446.15	58.273
446.50	57.313
446.85	57.879
447.20	57.447
447.55	57.584
447.91	56.859
448.26	57.452
448.61	56.482
448.96	57.135
449.31	56.946
449.66	56.264
450.02	57.015
450.37	56.100
450.72	57.374
451.07	57.745
451.42	56.846
451.77	57.198
452.12	56.998
452.47	56.506
452.83	57.601
453.18	56.334
453.53	56.002
453.88	56.212
454.23	57.458
454.58	56.878
454.93	55.704
455.28	57.134
455.63	55.770
455.98	57.039
456.34	57.479
456.69	55.320
457.04	57.506
457.39	56.153
457.74	56.711
458.09	55.684
458.44	57.112
458.79	55.544
459.14	56.319
459.49	57.216
459.84	57.450
460.19	56.469
460.54	56.956
460.89	56.167
461.24	55.690
461.59	56.392
461.94	55.676
462.29	57.167
462.64	55.220
462.99	55.179
463.34	56.457
463.69	54.572
464.04	56.587
464.39	56.054
464.74	54.732
465.09	56.113
465.44	55.526
465.79	55.103
466.14	55.915
466.49	56.632
466.84	55.868
467.19	55.954
467.54	54.230
467.89	54.885
468.24	55.734
468.59	54.951
468.94	54.196
469.29	52.789
469.64	54.800
469.99	55.258
470.34	53.960
470.68	54.477
471.03	54.617
471.38	54.088
471.73	55.332
472.08	55.457
472.43	55.689
472.78	53.841
473.13	54.741
473.48	53.656
473.83	54.382
474.17	53.224
474.52	55.201
474.87	54.153
475.22	54.028
475.57	53.375
475.92	54.654
476.27	54.047
476.61	54.154
476.96	53.962
477.31	54.257
477.66	54.879
478.01	52.872
478.36	52.891
478.70	53.399
479.05	55.879
479.40	54.492
479.75	54.659
480.10	53.671
480.45	53.646
480.79	54.240
481.14	53.355
481.49	53.567
481.84	54.047
482.19	54.452
482.53	54.482
482.88	54.453
483.23	54.202
483.58	53.755
483.92	52.305
484.27	53.048
484.62	52.970
484.97	53.344
485.31	52.869
485.66	50.554
486.01	52.151
486.36	55.442
486.70	57.739
487.05	58.003
487.40	55.398
487.75	53.868
488.09	53.649
488.44	51.850
488.79	51.872
489.13	51.195
489.48	50.951
489.83	50.382
490.17	51.114
490.52	51.970
490.87	51.481
491.22	52.080
491.56	51.877
491.91	51.897
492.26	52.748
492.60	51.815
492.95	52.260
493.30	52.039
493.64	52.738
493.99	52.412
494.34	51.132
494.68	51.435
495.03	51.454
495.37	52.064
495.72	52.426
496.07	51.840
496.41	51.695
496.76	52.002
497.11	52.102
497.45	51.230
497.80	51.133
498.14	50.431
498.49	50.230
498.84	51.280
499.18	51.282
499.53	51.839
499.87	50.813
500.22	50.623
500.56	51.417
500.91	51.533
501.26	52.318
501.60	50.641
501.95	50.934
502.29	51.470
502.64	51.377
502.98	51.553
503.33	51.015
503.67	50.632
504.02	50.350
504.36	51.653
504.71	51.171
505.06	51.478
505.40	50.914
505.75	50.729
506.09	50.921
506.44	51.114
506.78	51.147
507.13	51.729
507.47	51.350
507.82	50.758
508.16	50.574
508.51	49.789
508.85	51.346
509.19	50.545
509.54	51.441
509.88	51.093
510.23	51.627
510.57	52.199
510.92	50.847
511.26	49.976
511.61	50.121
511.95	51.000
512.30	51.305
512.64	49.425
512.98	49.925
513.33	51.512
513.67	50.790
514.02	52.478
514.36	51.509
514.70	51.094
515.05	50.938
515.39	50.131
515.74	50.954
516.08	49.709
516.42	50.392
516.77	50.105
517.11	50.748
517.46	50.477
517.80	50.615
518.14	51.469
518.49	51.030
518.83	50.239
519.17	50.027
519.52	50.000
519.86	51.056
520.20	49.947
520.55	50.602
520.89	50.450
521.23	50.363
521.58	51.638
521.92	50.765
522.26	50.515
522.61	51.042
522.95	50.519
523.29	51.322
523.64	49.496
523.98	51.455
524.32	51.347
524.66	50.655
525.01	50.170
525.35	48.995
525.69	49.652
526.04	49.139
526.38	49.425
526.72	50.115
527.06	50.909
527.41	50.845
527.75	51.069
528.09	48.642
528.43	49.852
528.78	49.480
529.12	50.000
529.46	49.522
529.80	50.000
530.15	51.362
530.49	50.652
530.83	50.649
531.17	49.223
531.51	49.880
531.86	50.601
532.20	49.878
532.54	49.013
532.88	50.061
533.22	49.322
533.57	49.625
533.91	49.383
534.25	49.746
534.59	49.828
534.93	49.915
535.27	49.859
535.62	50.938
535.96	50.029
536.30	49.530
536.64	49.730
536.98	48.155
537.32	49.012
537.66	50.967
538.01	48.580
538.35	47.929
538.69	50.120
539.03	49.418
539.37	48.822
539.71	48.769
540.05	49.580
540.39	48.716
540.73	48.755
541.07	48.804
541.42	48.671
541.76	47.272
542.10	48.492
542.44	48.295
542.78	49.392
543.12	48.808
543.46	48.046
543.80	48.141
544.14	48.833
544.48	48.641
544.82	49.072
545.16	48.599
545.50	48.832
545.84	49.357
546.18	48.704
546.52	48.535
546.86	47.358
547.20	48.155
547.54	48.377
547.88	48.162
548.22	47.719
548.56	48.625
548.90	47.463
549.24	47.660
549.58	47.382
549.92	47.385
550.26	47.896
550.60	47.224
550.94	48.189
551.28	47.921
551.62	47.709
551.96	46.149
552.30	48.885
552.64	48.849
552.98	48.160
553.32	48.617
553.66	48.746
554.00	47.100
554.34	48.777
554.68	47.256
555.02	48.423
555.36	48.784
555.69	47.085
556.03	47.982
556.37	46.871
556.71	47.939
557.05	47.668
557.39	47.445
557.73	46.962
558.07	47.086
558.41	47.841
558.75	46.924
559.08	47.878
559.42	46.845
559.76	46.811
560.10	47.220
560.44	47.691
560.78	49.500
561.12	47.906
561.45	47.689
561.79	48.779
562.13	48.306
562.47	47.287
562.81	46.646
563.15	47.159
563.48	47.545
563.82	48.186
564.16	47.244
564.50	48.093
564.84	47.788
565.17	46.529
565.51	46.030
565.85	48.219
566.19	46.832
566.52	46.635
566.86	48.444
567.20	46.166
567.54	47.690
567.88	49.185
568.21	48.221
568.55	47.290
568.89	48.661
569.23	47.993
569.56	48.535
569.90	49.109
570.24	49.680
570.57	49.551
570.91	48.102
571.25	48.771
571.59	48.372
571.92	48.801
572.26	48.624
572.60	48.758
572.93	48.455
573.27	47.822
573.61	48.041
573.95	47.681
574.28	48.026
574.62	48.568
574.96	48.169
575.29	47.698
575.63	47.702
575.97	47.832
576.30	47.002
576.64	47.292
576.98	47.540
577.31	47.985
577.65	48.824
577.98	48.362
578.32	48.833
578.66	48.379
578.99	47.635
579.33	47.577
579.67	47.348
580.00	47.741
580.34	47.644
580.67	47.198
581.01	47.317
581.35	47.497
581.68	47.915
582.02	48.257
582.35	49.803
582.69	49.128
583.02	48.701
583.36	48.265
583.70	47.626
584.03	45.884
584.37	46.581
584.70	46.308
585.04	46.385
585.37	47.393
585.71	47.357
586.04	48.063
586.38	47.656
586.72	46.954
587.05	47.838
587.39	48.068
587.72	48.206
588.06	48.622
588.39	47.722
588.73	46.905
589.06	47.235
589.40	46.835
589.73	47.012
590.07	46.353
590.40	47.025
590.73	46.129
591.07	46.910
591.40	46.229
591.74	47.178
592.07	46.041
592.41	45.426
592.74	46.539
593.08	47.229
593.41	48.819
593.75	48.333
594.08	48.288
594.41	47.340
594.75	45.998
595.08	46.265
595.42	46.364
595.75	47.756
596.09	47.170
596.42	46.722
596.75	47.279
597.09	46.101
597.42	45.967
597.75	46.531
598.09	45.952
598.42	46.964
598.76	45.930
599.09	46.956
599.42	46.162
599.76	47.078
600.09	47.114
600.42	46.079
600.76	46.631
601.09	46.499
601.42	46.207
601.76	46.345
602.09	45.354
602.42	45.547
602.76	45.166
603.09	46.145
603.42	46.929
603.76	46.512
604.09	46.558
604.42	46.826
604.76	45.358
605.09	46.510
605.42	45.813
605.75	46.115
606.09	45.838
606.42	45.786
606.75	46.177
607.09	45.507
607.42	45.588
607.75	45.916
608.08	46.172
608.42	44.982
608.75	45.274
609.08	44.992
609.41	45.434
609.75	45.848
610.08	46.086
610.41	45.200
610.74	45.714
611.07	46.270
611.41	45.291
611.74	45.820
612.07	45.489
612.40	45.722
612.73	46.259
613.07	45.868
613.40	45.813
613.73	44.872
614.06	45.682
614.39	45.190
614.72	45.754
615.06	44.321
615.39	43.983
615.72	46.114
616.05	45.168
616.38	46.418
616.71	45.559
617.05	44.302
617.38	43.981
617.71	44.600
618.04	44.684
618.37	45.738
618.70	45.419
619.03	43.728
619.36	44.266
619.69	43.754
620.03	45.135
620.36	43.804
620.69	44.417
621.02	43.045
621.35	45.138
621.68	44.902
622.01	45.409
622.34	44.491
622.67	44.124
623.00	42.713
623.33	44.260
623.66	44.228
623.99	44.635
624.32	45.159
624.65	43.887
624.99	45.189
625.32	45.395
625.65	44.032
625.98	43.729
626.31	43.940
626.64	43.443
626.97	42.986
627.30	43.584
627.63	43.436
627.96	44.219
628.29	43.113
628.62	42.485
628.95	42.682
629.28	43.246
629.61	42.761
629.94	43.013
630.26	42.542
630.59	43.437
630.92	43.117
