SpectraSuite Data File
++++++++++++++++++++++++++++++++++++
Date: Thu May 14 15:17:26 PDT 2015
User: schluterlab
Dark Spectrum Present: Yes
Reference Spectrum Present: Yes
Number of Sampled Component Spectra: 1
Spectrometers: USB2E3373
Integration Time (usec): 3000 (USB2E3373)
Spectra Averaged: 3 (USB2E3373)
Boxcar Smoothing: 0 (USB2E3373)
Correct for Electrical Dark: No (USB2E3373)
Strobe/Lamp Enabled: No (USB2E3373)
Correct for Detector Non-linearity: No (USB2E3373)
Correct for Stray Light: No (USB2E3373)
Number of Pixels in Processed Spectrum: 2048
>>>>>Begin Processed Spectral Data<<<<<
178.53	0.000
178.91	442.857
179.29	-4600.000
179.67	-4100.000
180.04	421.429
180.42	470.000
180.80	900.000
181.18	-4400.000
181.56	-3200.000
181.94	975.000
182.31	-875.000
182.69	1500.000
183.07	-2050.000
183.45	1100.000
183.83	-600.000
184.20	-1200.000
184.58	4200.000
184.96	-1100.000
185.34	-422.222
185.72	-720.000
186.09	544.444
186.47	2000.000
186.85	960.000
187.23	-511.111
187.61	-4900.000
187.98	820.000
188.36	1150.000
188.74	-1075.000
189.12	-1200.000
189.49	-218.750
189.87	-550.000
190.25	-344.444
190.63	-840.000
191.00	-522.222
191.38	0.000
191.76	-1025.000
192.14	-616.667
192.51	2400.000
192.89	-616.667
193.27	0.000
193.65	-700.000
194.02	-4200.000
194.40	-514.286
194.78	557.143
195.15	0.000
195.53	-400.000
195.91	0.000
196.29	-1000.000
196.66	-323.077
197.04	-4500.000
197.42	-557.143
197.79	-2400.000
198.17	-500.000
198.55	-642.857
198.92	-377.778
199.30	-475.000
199.68	-263.636
200.05	-285.714
200.43	-2100.000
200.81	600.000
201.18	0.000
201.56	566.667
201.94	0.000
202.31	1733.333
202.69	-555.556
203.07	4000.000
203.44	-422.222
203.82	-1125.000
204.19	-325.000
204.57	-766.667
204.95	-500.000
205.32	-4500.000
205.70	975.000
206.08	-450.000
206.45	-666.667
206.83	1060.000
207.20	-566.667
207.58	-860.000
207.96	-816.667
208.33	-516.667
208.71	425.000
209.08	-600.000
209.46	0.000
209.84	716.667
210.21	1900.000
210.59	2250.000
210.96	1733.333
211.34	-1050.000
211.71	-562.500
212.09	-4000.000
212.46	0.000
212.84	2800.000
213.22	-800.000
213.59	-875.000
213.97	-380.000
214.34	-1233.333
214.72	666.667
215.09	-1050.000
215.47	0.000
215.84	500.000
216.22	2050.000
216.59	-800.000
216.97	-880.000
217.34	-1100.000
217.72	-550.000
218.09	-1275.000
218.47	-1100.000
218.84	0.000
219.22	880.000
219.59	-194.118
219.97	-130.000
220.34	2150.000
220.72	-533.333
221.09	-223.077
221.47	-1266.667
221.84	-390.000
222.22	-600.000
222.59	0.000
222.97	-525.000
223.34	-780.000
223.72	-4000.000
224.09	-1175.000
224.46	-1125.000
224.84	-660.000
225.21	-600.000
225.59	-1100.000
225.96	-1150.000
226.34	-142.308
226.71	866.667
227.08	-2000.000
227.46	-193.333
227.83	-825.000
228.21	-168.421
228.58	537.500
228.95	2000.000
229.33	-341.667
229.70	-390.000
230.08	-136.842
230.45	320.000
230.82	-1366.667
231.20	-321.429
231.57	-225.000
231.95	-300.000
232.32	-281.818
232.69	-205.000
233.07	-1150.000
233.44	-294.118
233.81	-440.000
234.19	-172.222
234.56	-181.818
234.93	-134.483
235.31	-226.316
235.68	-205.556
236.05	-245.000
236.43	-103.846
236.80	-136.000
237.17	-155.556
237.55	-90.909
237.92	-510.000
238.29	-129.032
238.67	-97.727
239.04	-102.778
239.41	-107.143
239.79	-97.826
240.16	-74.074
240.53	-89.130
240.91	-96.078
241.28	-73.770
241.65	-40.299
242.02	-41.892
242.40	-58.462
242.77	-57.333
243.14	-48.780
243.51	-61.842
243.89	-58.974
244.26	-30.693
244.63	-31.373
245.00	-29.907
245.38	-33.333
245.75	-38.938
246.12	-26.190
246.49	-31.008
246.87	-20.714
247.24	-17.219
247.61	-15.789
247.98	-18.792
248.36	-20.370
248.73	-25.767
249.10	-19.126
249.47	-15.423
249.84	-14.660
250.22	-19.689
250.59	-16.667
250.96	-10.000
251.33	-19.388
251.70	-12.821
252.08	-13.333
252.45	-13.934
252.82	-15.702
253.19	-13.281
253.56	-11.027
253.94	-13.077
254.31	-10.606
254.68	-5.594
255.05	-6.189
255.42	-15.306
255.79	-11.650
256.16	-9.272
256.54	-14.901
256.91	-10.164
257.28	-8.197
257.65	-12.739
258.02	-8.850
258.39	-6.838
258.76	-5.199
259.14	-4.598
259.51	-7.493
259.88	-9.348
260.25	-7.222
260.62	-7.123
260.99	-3.279
261.36	-6.434
261.73	-8.223
262.10	-9.341
262.47	-10.188
262.85	-4.293
263.22	-10.130
263.59	-8.684
263.96	-7.928
264.33	-8.184
264.70	-6.173
265.07	-3.341
265.44	-2.948
265.81	-6.250
266.18	-4.308
266.55	-4.911
266.92	-9.567
267.29	-4.814
267.66	-6.652
268.03	-5.459
268.40	-3.967
268.77	-9.112
269.14	-10.132
269.51	-5.702
269.88	-4.508
270.25	-5.030
270.62	-3.586
270.99	-3.636
271.36	-1.980
271.73	-5.108
272.10	-3.808
272.47	-4.609
272.84	-4.418
273.21	-4.609
273.58	-4.435
273.95	-4.038
274.32	-5.133
274.69	-3.868
275.06	-2.747
275.43	-4.251
275.80	-1.764
276.17	-5.000
276.54	-3.358
276.91	-4.293
277.28	-6.148
277.65	-3.411
278.02	-2.390
278.39	-4.891
278.76	-3.866
279.13	-3.901
279.50	-2.234
279.87	-4.830
280.23	-5.810
280.60	-3.898
280.97	-3.618
281.34	-4.075
281.71	-2.200
282.08	-2.824
282.45	-4.910
282.82	-4.239
283.19	-4.362
283.56	-4.426
283.92	-1.201
284.29	-0.158
284.66	-2.791
285.03	-4.487
285.40	-2.318
285.77	-4.954
286.14	-1.985
286.51	-3.501
286.87	-4.739
287.24	-3.916
287.61	-2.691
287.98	-3.474
288.35	-3.994
288.72	-2.219
289.08	-1.903
289.45	-3.994
289.82	-3.464
290.19	-2.730
290.56	0.000
290.93	-4.280
291.29	-2.066
291.66	-2.893
292.03	-1.900
292.40	-0.544
292.77	-2.830
293.13	-2.571
293.50	-3.679
293.87	-3.624
294.24	-0.933
294.60	-1.138
294.97	-5.772
295.34	-1.665
295.71	-2.522
296.08	-1.421
296.44	-2.819
296.81	-2.314
297.18	-2.740
297.55	-1.297
297.91	-1.661
298.28	-2.962
298.65	-2.378
299.02	-2.479
299.38	-1.487
299.75	-1.051
300.12	-2.083
300.48	-1.959
300.85	-1.012
301.22	-0.447
301.59	-2.854
301.95	-1.582
302.32	-1.000
302.69	-1.643
303.05	-1.523
303.42	-2.439
303.79	-2.292
304.15	-1.157
304.52	-2.960
304.89	-1.152
305.25	-1.035
305.62	-1.254
305.99	-1.031
306.35	-1.008
306.72	-1.034
307.09	-1.929
307.45	-1.553
307.82	-1.413
308.19	-1.211
308.55	-0.964
308.92	-1.461
309.29	-1.341
309.65	-1.657
310.02	-1.386
310.38	-1.378
310.75	-0.874
311.12	-0.479
311.48	-2.542
311.85	-1.425
312.22	-1.423
312.58	-1.690
312.95	-2.008
313.31	-0.994
313.68	-0.733
314.05	-0.271
314.41	-1.184
314.78	-1.272
315.14	-0.998
315.51	-1.293
315.87	-0.360
316.24	-0.274
316.61	0.266
316.97	-0.995
317.34	-1.146
317.70	-0.262
318.07	-0.970
318.43	-0.340
318.80	0.836
319.16	-1.288
319.53	-1.285
319.89	-0.789
320.26	-0.445
320.62	-2.128
320.99	-1.200
321.35	-1.756
321.72	-0.837
322.08	-1.984
322.45	-0.271
322.81	-0.542
323.18	-1.062
323.54	-0.172
323.91	0.267
324.27	0.086
324.64	0.336
325.00	-1.161
325.37	-0.164
325.73	0.331
326.10	0.406
326.46	0.977
326.83	0.480
327.19	0.157
327.56	0.870
327.92	-0.865
328.29	-0.565
328.65	0.586
329.01	0.000
329.38	0.421
329.74	0.942
330.11	0.428
330.47	-0.505
330.84	-0.603
331.20	0.000
331.56	-0.607
331.93	1.004
332.29	-0.508
332.66	0.498
333.02	-0.084
333.38	-0.168
333.75	-0.589
334.11	-0.250
334.48	0.165
334.84	0.680
335.20	-0.756
335.57	0.169
335.93	1.322
336.29	0.250
336.66	-0.589
337.02	0.502
337.38	-0.085
337.75	-0.083
338.11	-0.084
338.47	-0.331
338.84	-1.100
339.20	-0.253
339.56	0.247
339.93	0.246
340.29	0.564
340.65	-0.081
341.02	0.958
341.38	0.243
341.74	0.242
342.11	0.483
342.47	-1.191
342.83	0.322
343.20	0.082
343.56	-0.241
343.92	-0.560
344.28	0.078
344.65	1.240
345.01	-0.156
345.37	1.089
345.73	0.468
346.10	1.326
346.46	0.475
346.82	0.824
347.19	0.229
347.55	0.986
347.91	0.520
348.27	-0.379
348.63	0.305
349.00	0.671
349.36	0.818
349.72	0.521
350.08	1.114
350.45	-0.532
350.81	0.377
351.17	-0.075
351.53	-0.076
351.89	1.215
352.26	0.597
352.62	0.448
352.98	0.305
353.34	0.597
353.70	-0.616
354.07	0.745
354.43	-0.152
354.79	-0.449
355.15	0.294
355.51	1.389
355.87	-0.075
356.24	0.076
356.60	0.370
356.96	-0.371
357.32	-0.149
357.68	-0.439
358.04	-0.299
358.40	-0.149
358.77	0.658
359.13	-0.295
359.49	-0.743
359.85	-0.073
360.21	-0.072
360.57	-0.431
360.93	0.353
361.29	1.123
361.66	-0.072
362.02	1.461
362.38	0.422
362.74	0.768
363.10	0.757
363.46	0.069
363.82	0.000
364.18	-0.422
364.54	0.346
364.90	0.535
365.26	0.069
365.62	0.933
365.98	-0.204
366.35	0.470
366.71	0.408
367.07	0.000
367.43	0.197
367.79	1.062
368.15	0.803
368.51	0.338
368.87	0.392
369.23	1.000
369.59	0.342
369.95	0.406
370.31	1.621
370.67	0.619
371.03	0.623
371.39	0.201
371.75	0.757
372.11	0.474
372.47	-0.406
372.83	1.113
373.19	1.268
373.55	0.068
373.91	-0.273
374.27	1.035
374.63	0.744
374.99	0.199
375.35	0.649
375.71	0.452
376.07	0.323
376.42	0.693
376.78	1.367
377.14	0.811
377.50	1.139
377.86	1.478
378.22	1.198
378.58	0.951
378.94	0.939
379.30	1.113
379.66	1.235
380.02	1.096
380.38	1.037
380.74	1.239
381.09	0.813
381.45	0.739
381.81	1.347
382.17	1.722
382.53	1.053
382.89	1.524
383.25	0.996
383.61	0.405
383.97	0.824
384.32	1.376
384.68	0.870
385.04	1.851
385.40	1.296
385.76	1.231
386.12	1.376
386.48	0.765
386.83	1.073
387.19	0.463
387.55	1.115
387.91	0.742
388.27	1.674
388.62	1.661
388.98	1.184
389.34	1.532
389.70	0.988
390.06	1.717
390.42	1.566
390.77	2.107
391.13	1.585
391.49	1.449
391.85	1.212
392.20	1.779
392.56	2.126
392.92	1.799
393.28	1.493
393.64	1.508
393.99	1.685
394.35	1.986
394.71	1.377
395.07	1.078
395.42	1.485
395.78	1.645
396.14	1.783
396.50	0.534
396.85	1.312
397.21	1.657
397.57	1.472
397.92	1.947
398.28	0.815
398.64	1.259
399.00	1.047
399.35	1.780
399.71	1.576
400.07	1.516
400.42	1.746
400.78	1.562
401.14	1.423
401.49	1.649
401.85	0.581
402.21	1.333
402.57	1.467
402.92	1.418
403.28	0.527
403.63	0.477
403.99	1.841
404.35	1.592
404.70	1.700
405.06	1.467
405.42	1.405
405.77	1.527
406.13	1.567
406.49	1.126
406.84	1.828
407.20	1.621
407.55	0.545
407.91	1.131
408.27	1.531
408.62	1.105
408.98	0.987
409.34	0.176
409.69	0.742
410.05	1.290
410.40	1.624
410.76	1.290
411.11	1.578
411.47	1.351
411.83	1.470
412.18	1.325
412.54	1.067
412.89	1.746
413.25	1.129
413.60	0.919
413.96	1.107
414.31	1.190
414.67	1.193
415.03	1.108
415.38	0.946
415.74	1.222
416.09	0.987
416.45	1.190
416.80	1.163
417.16	1.022
417.51	1.806
417.87	0.920
418.22	1.078
418.58	0.867
418.93	1.979
419.29	0.555
419.64	0.480
420.00	1.484
420.35	1.123
420.71	1.091
421.06	0.518
421.42	1.778
421.77	1.562
422.12	1.533
422.48	1.331
422.83	1.643
423.19	1.804
423.54	2.102
423.90	1.160
424.25	1.653
424.61	0.976
424.96	1.757
425.31	1.858
425.67	1.235
426.02	1.384
426.38	1.206
426.73	1.897
427.09	2.999
427.44	1.256
427.79	1.493
428.15	1.313
428.50	1.685
428.85	1.550
429.21	2.340
429.56	1.629
429.92	1.425
430.27	2.265
430.62	2.149
430.98	1.574
431.33	2.102
431.68	1.772
432.04	2.133
432.39	1.232
432.74	1.769
433.10	2.704
433.45	0.725
433.80	1.878
434.16	2.479
434.51	1.953
434.86	1.629
435.22	1.860
435.57	1.533
435.92	1.781
436.28	1.877
436.63	1.256
436.98	1.771
437.34	1.635
437.69	2.091
438.04	1.798
438.39	1.895
438.75	1.605
439.10	2.643
439.45	1.956
439.81	1.977
440.16	1.662
440.51	2.007
440.86	1.334
441.22	2.358
441.57	2.044
441.92	1.843
442.27	2.172
442.63	2.732
442.98	2.561
443.33	2.052
443.68	2.924
444.03	2.681
444.39	2.635
444.74	2.552
445.09	2.027
445.44	2.371
445.79	2.586
446.15	2.467
446.50	1.912
446.85	3.210
447.20	2.805
447.55	2.354
447.91	2.199
448.26	1.850
448.61	2.391
448.96	2.629
449.31	2.492
449.66	1.253
450.02	2.004
450.37	3.410
450.72	2.207
451.07	2.677
451.42	2.600
451.77	2.001
452.12	2.540
452.47	2.139
452.83	2.815
453.18	1.810
453.53	2.355
453.88	2.209
454.23	2.090
454.58	2.089
454.93	1.699
455.28	2.348
455.63	2.558
455.98	2.179
456.34	2.827
456.69	1.764
457.04	2.009
457.39	2.439
457.74	2.461
458.09	2.361
458.44	1.886
458.79	2.476
459.14	2.465
459.49	2.943
459.84	2.623
460.19	2.110
460.54	2.442
460.89	2.435
461.24	1.724
461.59	2.988
461.94	2.111
462.29	2.968
462.64	2.173
462.99	2.072
463.34	1.882
463.69	2.403
464.04	2.501
464.39	2.410
464.74	2.965
465.09	2.826
465.44	3.004
465.79	2.856
466.14	2.293
466.49	3.053
466.84	2.700
467.19	2.254
467.54	1.763
467.89	2.069
468.24	1.994
468.59	2.432
468.94	1.923
469.29	2.160
469.64	2.098
469.99	1.466
470.34	2.475
470.68	1.367
471.03	2.750
471.38	1.635
471.73	1.170
472.08	1.904
472.43	2.468
472.78	2.393
473.13	1.960
473.48	3.082
473.83	2.380
474.17	2.696
474.52	1.563
474.87	2.658
475.22	2.704
475.57	2.285
475.92	3.036
476.27	2.982
476.61	2.752
476.96	2.242
477.31	2.921
477.66	2.833
478.01	3.050
478.36	2.891
478.70	3.596
479.05	2.914
479.40	2.616
479.75	3.650
480.10	2.748
480.45	3.646
480.79	2.948
481.14	3.217
481.49	2.272
481.84	3.438
482.19	3.097
482.53	3.061
482.88	2.880
483.23	2.846
483.58	2.664
483.92	2.615
484.27	3.599
484.62	3.259
484.97	3.460
485.31	3.344
485.66	3.430
486.01	3.989
486.36	3.735
486.70	4.351
487.05	4.457
487.40	4.110
487.75	3.715
488.09	3.635
488.44	3.453
488.79	3.170
489.13	3.367
489.48	3.379
489.83	3.863
490.17	2.673
490.52	2.915
490.87	3.046
491.22	3.076
491.56	2.858
491.91	2.966
492.26	2.726
492.60	2.842
492.95	3.072
493.30	3.362
493.64	3.198
493.99	2.982
494.34	2.570
494.68	3.169
495.03	3.436
495.37	3.506
495.72	3.084
496.07	3.199
496.41	2.960
496.76	3.461
497.11	2.845
497.45	3.496
497.80	3.821
498.14	3.039
498.49	3.493
498.84	3.382
499.18	2.969
499.53	3.677
499.87	3.209
500.22	2.582
500.56	2.879
500.91	2.975
501.26	4.045
501.60	3.049
501.95	4.168
502.29	3.115
502.64	3.673
502.98	3.279
503.33	3.024
503.67	3.140
504.02	3.327
504.36	3.530
504.71	2.986
505.06	3.593
505.40	2.514
505.75	3.780
506.09	2.808
506.44	3.343
506.78	3.119
507.13	2.951
507.47	3.032
507.82	3.030
508.16	3.250
508.51	2.860
508.85	3.023
509.19	3.079
509.54	3.602
509.88	3.254
510.23	3.157
510.57	3.963
510.92	3.483
511.26	3.175
511.61	3.042
511.95	3.270
512.30	3.840
512.64	2.599
512.98	2.801
513.33	2.873
513.67	3.315
514.02	2.759
514.36	3.274
514.70	2.708
515.05	3.545
515.39	3.622
515.74	3.340
516.08	3.011
516.42	3.925
516.77	2.734
517.11	3.404
517.46	3.287
517.80	3.581
518.14	3.264
518.49	3.308
518.83	3.619
519.17	3.069
519.52	3.354
519.86	3.168
520.20	3.568
520.55	3.231
520.89	2.759
521.23	3.350
521.58	3.220
521.92	3.173
522.26	2.921
522.61	3.067
522.95	3.806
523.29	3.793
523.64	3.419
523.98	3.195
524.32	3.840
524.66	3.301
525.01	3.567
525.35	2.585
525.69	3.190
526.04	3.042
526.38	3.218
526.72	3.114
527.06	2.405
527.41	3.499
527.75	3.385
528.09	3.601
528.43	2.783
528.78	3.121
529.12	2.810
529.46	2.642
529.80	2.632
530.15	3.246
530.49	2.372
530.83	3.424
531.17	2.688
531.51	2.768
531.86	3.065
532.20	3.354
532.54	3.052
532.88	3.091
533.22	3.830
533.57	3.808
533.91	4.209
534.25	3.731
534.59	2.816
534.93	3.169
535.27	2.817
535.62	3.809
535.96	3.080
536.30	3.231
536.64	3.724
536.98	3.936
537.32	3.580
537.66	3.805
538.01	3.384
538.35	3.350
538.69	2.945
539.03	2.698
539.37	4.064
539.71	3.423
540.05	3.237
540.39	2.445
540.73	3.279
541.07	2.882
541.42	2.717
541.76	2.728
542.10	3.076
542.44	2.680
542.78	3.102
543.12	4.172
543.46	3.846
543.80	2.818
544.14	2.394
544.48	3.310
544.82	3.710
545.16	3.280
545.50	3.116
545.84	3.062
546.18	4.383
546.52	2.994
546.86	3.585
547.20	2.926
547.54	2.996
547.88	3.436
548.22	3.158
548.56	3.979
548.90	3.403
549.24	3.891
549.58	3.218
549.92	3.253
550.26	3.560
550.60	3.382
550.94	3.816
551.28	2.772
551.62	3.167
551.96	3.625
552.30	3.633
552.64	3.734
552.98	3.119
553.32	3.537
553.66	2.958
554.00	3.657
554.34	3.861
554.68	3.228
555.02	3.219
555.36	4.011
555.69	3.267
556.03	3.216
556.37	3.880
556.71	3.741
557.05	3.770
557.39	3.583
557.73	4.095
558.07	3.311
558.41	3.389
558.75	3.178
559.08	3.549
559.42	3.635
559.76	4.206
560.10	3.014
560.44	3.496
560.78	3.875
561.12	4.064
561.45	4.684
561.79	4.396
562.13	3.758
562.47	3.946
562.81	3.924
563.15	3.662
563.48	3.605
563.82	4.172
564.16	3.331
564.50	4.172
564.84	3.776
565.17	4.529
565.51	3.452
565.85	3.682
566.19	3.859
566.52	3.979
566.86	4.301
567.20	3.045
567.54	3.611
567.88	4.128
568.21	4.298
568.55	3.741
568.89	3.813
569.23	4.816
569.56	4.416
569.90	4.740
570.24	4.519
570.57	4.298
570.91	4.042
571.25	4.686
571.59	4.926
571.92	4.931
572.26	4.817
572.60	4.914
572.93	4.871
573.27	4.664
573.61	4.764
573.95	4.564
574.28	4.999
574.62	4.684
574.96	4.786
575.29	5.001
575.63	4.666
575.97	4.719
576.30	4.787
576.64	4.796
576.98	4.328
577.31	5.059
577.65	4.767
577.98	4.819
578.32	4.891
578.66	4.806
578.99	4.731
579.33	4.669
579.67	4.918
580.00	4.518
580.34	4.777
580.67	4.612
581.01	4.673
581.35	4.773
581.68	5.040
582.02	5.212
582.35	5.360
582.69	4.892
583.02	5.251
583.36	5.093
583.70	4.908
584.03	4.608
584.37	4.789
584.70	4.572
585.04	5.185
585.37	5.192
585.71	5.458
586.04	5.020
586.38	4.968
586.72	4.563
587.05	4.630
587.39	4.687
587.72	5.359
588.06	5.271
588.39	5.477
588.73	4.921
589.06	5.248
589.40	4.794
589.73	5.238
590.07	5.040
590.40	5.341
590.73	4.984
591.07	5.101
591.40	5.016
591.74	5.048
592.07	5.075
592.41	4.968
592.74	5.005
593.08	5.796
593.41	5.424
593.75	5.402
594.08	5.423
594.41	5.000
594.75	5.580
595.08	4.946
595.42	5.195
595.75	5.102
596.09	5.286
596.42	5.195
596.75	4.979
597.09	4.848
597.42	5.205
597.75	4.978
598.09	5.516
598.42	5.710
598.76	4.815
599.09	4.877
599.42	5.598
599.76	5.282
600.09	5.672
600.42	5.572
600.76	5.218
601.09	5.211
601.42	5.390
601.76	5.724
602.09	5.004
602.42	4.726
602.76	5.203
603.09	5.250
603.42	5.383
603.76	5.215
604.09	5.713
604.42	5.394
604.76	5.023
605.09	5.385
605.42	5.423
605.75	5.346
606.09	4.741
606.42	5.399
606.75	4.685
607.09	4.954
607.42	5.819
607.75	5.315
608.08	5.406
608.42	4.474
608.75	4.892
609.08	5.136
609.41	4.808
609.75	4.911
610.08	5.145
610.41	5.098
610.74	4.958
611.07	5.195
611.41	5.605
611.74	5.589
612.07	5.049
612.40	5.086
612.73	4.841
613.07	4.597
613.40	5.294
613.73	4.863
614.06	5.594
614.39	4.616
614.72	4.561
615.06	4.668
615.39	4.785
615.72	5.261
616.05	4.808
616.38	4.390
616.71	4.963
617.05	4.739
617.38	5.029
617.71	5.022
618.04	4.695
618.37	4.918
618.70	4.808
619.03	4.480
619.36	4.501
619.69	4.420
620.03	4.896
620.36	4.172
620.69	4.750
621.02	4.921
621.35	4.427
621.68	4.772
622.01	4.057
622.34	3.905
622.67	4.399
623.00	2.901
623.33	4.380
623.66	4.604
623.99	5.201
624.32	4.548
624.65	4.183
624.99	4.616
625.32	5.029
625.65	4.518
625.98	4.136
626.31	4.890
626.64	4.103
626.97	4.051
627.30	3.797
627.63	3.676
627.96	4.955
628.29	4.125
628.62	2.939
628.95	3.243
629.28	3.568
629.61	3.535
629.94	2.762
630.26	3.814
630.59	3.109
630.92	2.424
631.25	3.578
631.58	3.861
631.91	3.093
632.24	3.554
632.57	2.941
632.90	1.705
633.23	3.367
633.56	3.163
633.89	2.789
634.22	3.742
634.55	2.505
634.88	2.922
635.20	4.198
635.53	3.390
635.86	2.925
636.19	3.712
636.52	3.270
636.85	3.166
637.18	2.599
637.51	2.903
637.83	4.097
638.16	1.959
638.49	2.934
638.82	2.142
639.15	2.405
639.48	3.811
639.81	3.233
640.13	2.827
640.46	0.970
640.79	3.309
641.12	2.360
641.45	2.258
641.77	3.594
642.10	2.100
642.43	2.261
642.76	3.252
643.09	1.507
643.41	0.700
643.74	0.966
644.07	2.897
644.40	1.414
644.73	1.161
645.05	0.587
645.38	3.741
645.71	2.199
646.04	4.161
646.36	0.438
646.69	1.227
647.02	1.529
647.35	3.817
647.67	-0.161
648.00	0.478
648.33	2.252
