SpectraSuite Data File
++++++++++++++++++++++++++++++++++++
Date: Thu May 14 14:38:32 PDT 2015
User: schluterlab
Dark Spectrum Present: Yes
Reference Spectrum Present: Yes
Number of Sampled Component Spectra: 1
Spectrometers: USB2E3373
Integration Time (usec): 3000 (USB2E3373)
Spectra Averaged: 3 (USB2E3373)
Boxcar Smoothing: 0 (USB2E3373)
Correct for Electrical Dark: No (USB2E3373)
Strobe/Lamp Enabled: No (USB2E3373)
Correct for Detector Non-linearity: No (USB2E3373)
Correct for Stray Light: No (USB2E3373)
Number of Pixels in Processed Spectrum: 2048
>>>>>Begin Processed Spectral Data<<<<<
178.53	0.000
178.91	-200.000
179.29	200.000
179.67	1000.000
180.04	78.571
180.42	-140.000
180.80	-240.000
181.18	1600.000
181.56	1900.000
181.94	-425.000
182.31	425.000
182.69	-500.000
183.07	1100.000
183.45	-175.000
183.83	250.000
184.20	400.000
184.58	-500.000
184.96	400.000
185.34	100.000
185.72	360.000
186.09	-166.667
186.47	-800.000
186.85	-100.000
187.23	77.778
187.61	1700.000
187.98	-260.000
188.36	-300.000
188.74	350.000
189.12	600.000
189.49	143.750
189.87	175.000
190.25	222.222
190.63	420.000
191.00	55.556
191.38	0.000
191.76	225.000
192.14	250.000
192.51	-450.000
192.89	316.667
193.27	0.000
193.65	71.429
194.02	700.000
194.40	185.714
194.78	-171.429
195.15	0.000
195.53	127.273
195.91	0.000
196.29	250.000
196.66	100.000
197.04	200.000
197.42	142.857
197.79	750.000
198.17	112.500
198.55	114.286
198.92	277.778
199.30	150.000
199.68	127.273
200.05	150.000
200.43	700.000
200.81	-85.714
201.18	0.000
201.56	-33.333
201.94	0.000
202.31	-233.333
202.69	166.667
203.07	-1200.000
203.44	200.000
203.82	350.000
204.19	125.000
204.57	416.667
204.95	87.500
205.32	1400.000
205.70	-450.000
206.08	266.667
206.45	250.000
206.83	-60.000
207.20	333.333
207.58	280.000
207.96	300.000
208.33	316.667
208.71	-100.000
209.08	566.667
209.46	0.000
209.84	-66.667
210.21	-650.000
210.59	-550.000
210.96	-433.333
211.34	425.000
211.71	200.000
212.09	900.000
212.46	0.000
212.84	-300.000
213.22	360.000
213.59	425.000
213.97	250.000
214.34	433.333
214.72	-200.000
215.09	475.000
215.47	0.000
215.84	-314.286
216.22	-600.000
216.59	100.000
216.97	260.000
217.34	425.000
217.72	300.000
218.09	125.000
218.47	500.000
218.84	0.000
219.22	-400.000
219.59	94.118
219.97	70.000
220.34	-900.000
220.72	166.667
221.09	123.077
221.47	433.333
221.84	130.000
222.22	200.000
222.59	0.000
222.97	200.000
223.34	380.000
223.72	500.000
224.09	325.000
224.46	225.000
224.84	480.000
225.21	200.000
225.59	450.000
225.96	225.000
226.34	69.231
226.71	-16.667
227.08	400.000
227.46	146.667
227.83	350.000
228.21	105.263
228.58	-50.000
228.95	-700.000
229.33	175.000
229.70	190.000
230.08	126.316
230.45	50.000
230.82	400.000
231.20	114.286
231.57	158.333
231.95	100.000
232.32	200.000
232.69	130.000
233.07	350.000
233.44	70.588
233.81	100.000
234.19	83.333
234.56	104.545
234.93	103.448
235.31	136.842
235.68	88.889
236.05	30.000
236.43	100.000
236.80	108.000
237.17	59.259
237.55	63.636
237.92	100.000
238.29	25.806
238.67	47.727
239.04	38.889
239.41	64.286
239.79	19.565
240.16	40.741
240.53	45.652
240.91	29.412
241.28	36.066
241.65	49.254
242.02	40.541
242.40	15.385
242.77	34.667
243.14	12.195
243.51	6.579
243.89	8.974
244.26	36.634
244.63	22.549
245.00	23.364
245.38	21.053
245.75	1.770
246.12	21.429
246.49	16.279
246.87	17.143
247.24	18.543
247.61	21.053
247.98	14.765
248.36	17.901
248.73	12.270
249.10	15.847
249.47	21.891
249.84	20.942
250.22	15.544
250.59	18.333
250.96	17.273
251.33	11.224
251.70	19.231
252.08	18.333
252.45	16.803
252.82	16.116
253.19	10.938
253.56	14.068
253.94	12.692
254.31	13.258
254.68	14.685
255.05	12.704
255.42	12.925
255.79	8.414
256.16	11.921
256.54	7.616
256.91	13.443
257.28	12.459
257.65	8.917
258.02	10.619
258.39	11.681
258.76	13.150
259.14	11.782
259.51	9.222
259.88	8.499
260.25	14.167
260.62	10.959
260.99	15.301
261.36	11.796
261.73	11.406
262.10	12.088
262.47	10.724
262.85	14.646
263.22	9.610
263.59	9.474
263.96	9.974
264.33	8.440
264.70	12.099
265.07	12.411
265.44	14.286
265.81	9.722
266.18	13.605
266.55	11.161
266.92	7.745
267.29	9.847
267.66	9.978
268.03	10.262
268.40	12.109
268.77	8.884
269.14	6.167
269.51	8.333
269.88	11.475
270.25	9.859
270.62	12.869
270.99	12.929
271.36	14.455
271.73	10.216
272.10	10.220
272.47	8.818
272.84	10.241
273.21	11.824
273.58	11.089
273.95	10.192
274.32	8.935
274.69	10.251
275.06	12.088
275.43	9.612
275.80	11.111
276.17	11.481
276.54	10.075
276.91	7.871
277.28	10.307
277.65	9.695
278.02	11.765
278.39	10.688
278.76	9.842
279.13	9.397
279.50	11.856
279.87	11.091
280.23	8.979
280.60	9.153
280.97	11.349
281.34	8.998
281.71	12.860
282.08	10.797
282.45	9.329
282.82	8.634
283.19	8.724
283.56	7.049
283.92	12.012
284.29	12.638
284.66	10.016
285.03	7.532
285.40	10.201
285.77	9.443
286.14	9.771
286.51	9.285
286.87	9.005
287.24	8.735
287.61	9.268
287.98	9.517
288.35	9.172
288.72	9.172
289.08	10.688
289.45	10.355
289.82	9.036
290.19	10.201
290.56	10.986
290.93	8.274
291.29	10.193
291.66	8.264
292.03	8.955
292.40	10.068
292.77	8.625
293.13	10.149
293.50	7.096
293.87	8.188
294.24	11.467
294.60	8.344
294.97	5.772
295.34	10.883
295.71	9.206
296.08	7.623
296.44	8.578
296.81	7.917
297.18	7.721
297.55	8.373
297.91	7.592
298.28	7.583
298.65	8.799
299.02	8.146
299.38	9.039
299.75	7.593
300.12	9.028
300.48	8.295
300.85	8.324
301.22	8.725
301.59	7.648
301.95	8.588
302.32	9.556
302.69	9.639
303.05	9.249
303.42	8.426
303.79	8.333
304.15	9.464
304.52	8.668
304.89	8.482
305.25	9.006
305.62	8.464
305.99	7.732
306.35	8.266
306.72	8.170
307.09	8.629
307.45	8.696
307.82	8.375
308.19	8.174
308.55	9.547
308.92	8.277
309.29	9.195
309.65	8.285
310.02	9.505
310.38	8.661
310.75	10.000
311.12	10.067
311.48	8.602
311.85	8.547
312.22	9.393
312.58	8.451
312.95	8.987
313.31	9.214
313.68	10.256
314.05	11.563
314.41	10.656
314.78	10.627
315.14	10.436
315.51	10.526
315.87	11.611
316.24	11.872
316.61	11.989
316.97	11.041
317.34	11.817
317.70	12.926
318.07	11.993
318.43	12.160
318.80	12.876
319.16	12.876
319.53	12.254
319.89	12.358
320.26	12.989
320.62	13.475
320.99	13.573
321.35	12.384
321.72	15.070
322.08	14.157
322.45	14.363
322.81	14.711
323.18	13.717
323.54	14.310
323.91	15.480
324.27	14.888
324.64	15.029
325.00	14.594
325.37	16.216
325.73	16.116
326.10	16.221
326.46	15.391
326.83	17.294
327.19	15.827
327.56	17.075
327.92	17.152
328.29	16.694
328.65	17.002
329.01	17.005
329.38	18.450
329.74	19.007
330.11	18.493
330.47	18.534
330.84	19.294
331.20	18.583
331.56	18.718
331.93	19.247
332.29	20.085
332.66	19.934
333.02	19.849
333.38	20.302
333.75	19.024
334.11	20.350
334.48	19.884
334.84	20.731
335.20	20.067
335.57	21.669
335.93	21.570
336.29	20.466
336.66	19.680
337.02	19.732
337.38	21.088
337.75	20.413
338.11	21.026
338.47	20.678
338.84	20.051
339.20	20.135
339.56	21.005
339.93	20.033
340.29	20.451
340.65	20.032
341.02	20.910
341.38	20.695
341.74	20.339
342.11	20.515
342.47	18.745
342.83	21.176
343.20	20.442
343.56	21.251
343.92	20.977
344.28	21.797
344.65	20.698
345.01	20.047
345.37	21.540
345.73	21.122
346.10	20.905
346.46	20.965
346.82	20.524
347.19	20.703
347.55	21.927
347.91	20.728
348.27	20.334
348.63	21.325
349.00	19.538
349.36	20.074
349.72	20.610
350.08	21.322
350.45	20.837
350.81	20.437
351.17	20.827
351.53	20.622
351.89	20.197
352.26	20.373
352.62	20.970
352.98	20.687
353.34	20.986
353.70	20.647
354.07	21.162
354.43	20.121
354.79	20.494
355.15	20.383
355.51	21.564
355.87	20.419
356.24	21.293
356.60	20.547
356.96	21.127
357.32	20.967
357.68	20.717
358.04	20.958
358.40	20.597
358.77	21.564
359.13	21.566
359.49	20.000
359.85	21.392
360.21	21.162
360.57	20.962
360.93	20.522
361.29	22.175
361.66	20.854
362.02	21.364
362.38	21.293
362.74	21.020
363.10	22.146
363.46	21.676
363.82	21.307
364.18	21.534
364.54	21.646
364.90	21.538
365.26	21.586
365.62	22.400
365.98	21.375
366.35	23.087
366.71	22.857
367.07	21.989
367.43	22.587
367.79	22.561
368.15	22.809
368.51	22.869
368.87	22.926
369.23	21.933
369.59	23.019
369.95	22.650
370.31	23.093
370.67	22.902
371.03	23.061
371.39	23.036
371.75	22.077
372.11	23.645
372.47	23.155
372.83	23.233
373.19	23.816
373.55	23.442
373.91	23.313
374.27	23.609
374.63	23.207
374.99	24.469
375.35	23.961
375.71	23.097
376.07	22.853
376.42	24.622
376.78	23.741
377.14	24.329
377.50	24.605
377.86	25.616
378.22	24.611
378.58	24.911
378.94	25.646
379.30	25.015
379.66	24.985
380.02	25.851
380.38	26.325
380.74	25.521
381.09	25.900
381.45	25.057
381.81	26.698
382.17	26.128
382.53	26.491
382.89	25.847
383.25	26.436
383.61	25.984
383.97	27.150
384.32	26.256
384.68	26.566
385.04	26.605
385.40	27.755
385.76	27.667
386.12	26.631
386.48	27.059
386.83	28.248
387.19	27.057
387.55	27.523
387.91	27.283
388.27	28.176
388.62	28.007
388.98	27.919
389.34	28.639
389.70	29.053
390.06	28.893
390.42	28.675
390.77	28.838
391.13	29.284
391.49	29.891
391.85	27.939
392.20	28.826
392.56	29.356
392.92	29.335
393.28	29.464
393.64	29.888
393.99	29.866
394.35	30.666
394.71	30.359
395.07	29.222
395.42	29.983
395.78	29.799
396.14	30.125
396.50	31.116
396.85	30.829
397.21	29.467
397.57	30.801
397.92	30.756
398.28	29.332
398.64	30.149
399.00	30.052
399.35	30.314
399.71	29.783
400.07	31.162
400.42	30.675
400.78	29.688
401.14	30.905
401.49	30.301
401.85	30.407
402.21	29.954
402.57	30.986
402.92	30.437
403.28	30.445
403.63	31.026
403.99	30.819
404.35	30.358
404.70	30.085
405.06	29.891
405.42	30.562
405.77	31.080
406.13	29.822
406.49	31.250
406.84	29.474
407.20	30.184
407.55	30.709
407.91	31.113
408.27	30.389
408.62	30.425
408.98	30.992
409.34	29.853
409.69	31.150
410.05	30.657
410.40	31.381
410.76	29.445
411.11	31.327
411.47	30.344
411.83	31.158
412.18	31.145
412.54	30.646
412.89	31.490
413.25	30.643
413.60	30.213
413.96	30.012
414.31	30.482
414.67	30.650
415.03	30.031
415.38	30.958
415.74	30.422
416.09	31.462
416.45	29.869
416.80	29.927
417.16	30.907
417.51	30.822
417.87	30.963
418.22	31.138
418.58	30.483
418.93	30.966
419.29	31.196
419.64	30.732
420.00	31.098
420.35	30.657
420.71	31.189
421.06	31.570
421.42	30.963
421.77	29.725
422.12	31.025
422.48	30.824
422.83	31.380
423.19	31.512
423.54	31.527
423.90	30.922
424.25	31.360
424.61	30.712
424.96	30.917
425.31	31.529
425.67	31.025
426.02	31.212
426.38	31.401
426.73	31.864
427.09	32.065
427.44	31.567
427.79	32.062
428.15	31.336
428.50	31.067
428.85	31.458
429.21	32.181
429.56	32.922
429.92	31.794
430.27	31.711
430.62	31.021
430.98	31.972
431.33	31.134
431.68	31.370
432.04	31.488
432.39	31.441
432.74	33.048
433.10	32.288
433.45	31.773
433.80	32.082
434.16	32.903
434.51	32.631
434.86	33.008
435.22	32.944
435.57	33.314
435.92	32.332
436.28	33.504
436.63	33.424
436.98	32.099
437.34	32.582
437.69	32.471
438.04	31.042
438.39	32.338
438.75	31.821
439.10	32.981
439.45	32.812
439.81	32.373
440.16	32.440
440.51	32.107
440.86	33.018
441.22	32.047
441.57	33.491
441.92	33.172
442.27	32.374
442.63	32.787
442.98	33.671
443.33	33.035
443.68	33.746
444.03	33.631
444.39	34.350
444.74	33.640
445.09	32.894
445.44	33.720
445.79	33.285
446.15	34.121
446.50	33.540
446.85	33.755
447.20	33.317
447.55	33.159
447.91	33.613
448.26	32.981
448.61	33.741
448.96	34.871
449.31	33.245
449.66	34.041
450.02	33.755
450.37	33.351
450.72	34.338
451.07	33.998
451.42	33.218
451.77	33.685
452.12	34.199
452.47	33.155
452.83	34.854
453.18	33.800
453.53	33.429
453.88	33.628
454.23	34.802
454.58	34.243
454.93	33.131
455.28	34.256
455.63	33.940
455.98	33.687
456.34	33.628
456.69	34.333
457.04	34.397
457.39	34.978
457.74	35.626
458.09	34.377
458.44	33.998
458.79	33.883
459.14	33.613
459.49	34.635
459.84	34.732
460.19	34.203
460.54	34.526
460.89	33.774
461.24	34.368
461.59	36.027
461.94	34.284
462.29	34.490
462.64	33.917
462.99	35.217
463.34	36.275
463.69	33.353
464.04	34.408
464.39	34.417
464.74	33.637
465.09	34.833
465.44	35.354
465.79	34.373
466.14	33.351
466.49	34.526
466.84	34.601
467.19	35.029
467.54	34.313
467.89	34.368
468.24	34.072
468.59	34.395
468.94	33.800
469.29	33.773
469.64	34.139
469.99	34.799
470.34	34.777
470.68	34.518
471.03	34.512
471.38	35.186
471.73	35.111
472.08	34.772
472.43	34.859
472.78	35.579
473.13	34.576
473.48	35.347
473.83	35.577
474.17	35.170
474.52	34.877
474.87	34.884
475.22	34.817
475.57	34.735
475.92	33.449
476.27	34.558
476.61	34.839
476.96	34.828
477.31	35.000
477.66	35.257
478.01	35.384
478.36	33.898
478.70	35.172
479.05	35.276
479.40	34.798
479.75	35.303
480.10	34.628
480.45	35.278
480.79	34.739
481.14	34.513
481.49	34.802
481.84	35.161
482.19	35.140
482.53	33.931
482.88	35.312
483.23	35.394
483.58	35.328
483.92	34.840
484.27	35.267
484.62	35.314
484.97	34.798
485.31	34.108
485.66	33.675
486.01	32.539
486.36	33.231
486.70	34.457
487.05	33.855
487.40	34.014
487.75	34.504
488.09	34.179
488.44	34.309
488.79	34.840
489.13	34.540
489.48	35.184
489.83	34.286
490.17	34.913
490.52	34.195
490.87	34.941
491.22	35.312
491.56	34.727
491.91	35.630
492.26	35.526
492.60	35.243
492.95	34.664
493.30	35.500
493.64	34.866
493.99	34.825
494.34	34.756
494.68	34.347
495.03	35.903
495.37	35.331
495.72	35.329
496.07	36.196
496.41	35.607
496.76	35.279
497.11	34.777
497.45	35.520
497.80	34.296
498.14	35.102
498.49	35.754
498.84	35.923
499.18	34.998
499.53	35.650
499.87	36.044
500.22	34.684
500.56	35.628
500.91	36.476
501.26	35.727
501.60	35.484
501.95	35.736
502.29	35.410
502.64	35.811
502.98	34.987
503.33	35.292
503.67	34.060
504.02	35.902
504.36	36.506
504.71	36.472
505.06	34.925
505.40	35.192
505.75	35.291
506.09	35.866
506.44	36.258
506.78	36.514
507.13	35.915
507.47	35.481
507.82	35.748
508.16	36.663
508.51	36.568
508.85	36.939
509.19	36.286
509.54	36.311
509.88	35.260
510.23	36.571
510.57	37.458
510.92	36.768
511.26	35.979
511.61	35.587
511.95	36.164
512.30	36.632
512.64	35.282
512.98	36.318
513.33	37.097
513.67	37.124
514.02	36.893
514.36	37.340
514.70	37.760
515.05	36.913
515.39	36.850
515.74	37.328
516.08	36.714
516.42	38.305
516.77	38.170
517.11	36.565
517.46	37.169
517.80	37.680
518.14	37.922
518.49	37.419
518.83	36.935
519.17	36.564
519.52	36.740
519.86	36.800
520.20	37.646
520.55	37.021
520.89	37.444
521.23	36.683
521.58	37.571
521.92	37.847
522.26	36.712
522.61	37.963
522.95	38.062
523.29	37.816
523.64	36.603
523.98	38.962
524.32	37.994
524.66	39.556
525.01	37.712
525.35	37.909
525.69	37.935
526.04	38.462
526.38	38.276
526.72	37.832
527.06	38.182
527.41	38.076
527.75	38.005
528.09	37.780
528.43	37.241
528.78	37.457
529.12	38.647
529.46	37.774
529.80	37.414
530.15	38.377
530.49	37.129
530.83	39.079
531.17	37.754
531.51	39.350
531.86	39.543
532.20	38.049
532.54	37.941
532.88	39.758
533.22	37.360
533.57	38.430
533.91	37.542
534.25	37.705
534.59	39.023
534.93	38.031
535.27	38.197
535.62	38.886
535.96	38.350
536.30	38.895
536.64	39.339
536.98	38.930
537.32	38.210
537.66	39.239
538.01	38.550
538.35	38.124
538.69	38.401
539.03	38.872
539.37	37.279
539.71	38.078
540.05	38.309
540.39	37.836
540.73	38.312
541.07	39.546
541.42	38.275
541.76	37.189
542.10	38.842
542.44	38.672
542.78	38.869
543.12	38.498
543.46	38.706
543.80	36.571
544.14	38.061
544.48	38.593
544.82	39.019
545.16	38.819
545.50	37.987
545.84	38.212
546.18	39.444
546.52	38.153
546.86	38.176
547.20	39.313
547.54	37.703
547.88	38.276
548.22	38.480
548.56	38.209
548.90	38.687
549.24	38.784
549.58	38.991
549.92	38.903
550.26	38.835
550.60	39.056
550.94	39.521
551.28	39.208
551.62	38.881
551.96	37.864
552.30	38.560
552.64	38.892
552.98	39.364
553.32	39.678
553.66	38.521
554.00	39.344
554.34	39.511
554.68	37.702
555.02	39.816
555.36	39.579
555.69	37.796
556.03	39.281
556.37	39.612
556.71	38.364
557.05	38.786
557.39	39.350
557.73	39.168
558.07	39.404
558.41	40.000
558.75	40.162
559.08	40.431
559.42	39.232
559.76	40.163
560.10	39.317
560.44	39.578
560.78	39.750
561.12	39.101
561.45	39.477
561.79	39.683
562.13	39.433
562.47	37.916
562.81	39.367
563.15	39.141
563.48	40.087
563.82	39.541
564.16	39.310
564.50	39.571
564.84	38.230
565.17	39.824
565.51	38.205
565.85	40.024
566.19	37.788
566.52	38.736
566.86	38.766
567.20	37.466
567.54	39.618
567.88	39.348
568.21	38.785
568.55	39.712
568.89	38.402
569.23	38.530
569.56	37.945
569.90	37.277
570.24	37.302
570.57	36.434
570.91	36.558
571.25	36.274
571.59	36.710
571.92	36.807
572.26	35.971
572.60	36.309
572.93	36.237
573.27	36.302
573.61	36.263
573.95	35.737
574.28	35.529
574.62	36.107
574.96	35.399
575.29	35.140
575.63	35.897
575.97	36.287
576.30	35.505
576.64	36.053
576.98	36.515
577.31	35.677
577.65	36.112
577.98	35.486
578.32	35.595
578.66	35.658
578.99	36.248
579.33	36.083
579.67	35.471
580.00	35.963
580.34	35.973
580.67	35.989
581.01	35.331
581.35	35.885
581.68	35.634
582.02	35.749
582.35	36.189
582.69	36.333
583.02	35.769
583.36	35.593
583.70	36.355
584.03	36.021
584.37	36.263
584.70	35.990
585.04	36.364
585.37	35.683
585.71	36.462
586.04	36.041
586.38	36.188
586.72	35.999
587.05	36.608
587.39	36.225
587.72	37.081
588.06	36.702
588.39	36.694
588.73	36.402
589.06	36.710
589.40	37.185
589.73	37.082
590.07	37.235
590.40	37.153
590.73	37.186
591.07	37.863
591.40	37.014
591.74	38.355
592.07	37.840
592.41	37.461
592.74	37.345
593.08	37.325
593.41	37.795
593.75	36.954
594.08	37.958
594.41	37.692
594.75	36.865
595.08	37.416
595.42	37.273
595.75	37.423
596.09	37.580
596.42	37.979
596.75	37.707
597.09	37.899
597.42	37.863
597.75	37.632
598.09	37.817
598.42	38.319
598.76	37.677
599.09	38.092
599.42	37.311
599.76	37.042
600.09	37.905
600.42	37.137
600.76	37.120
601.09	37.438
601.42	37.727
601.76	37.448
602.09	37.706
602.42	36.968
602.76	36.716
603.09	37.849
603.42	38.837
603.76	37.562
604.09	37.651
604.42	37.908
604.76	37.861
605.09	38.492
605.42	37.600
605.75	38.154
606.09	37.589
606.42	37.578
606.75	37.256
607.09	37.596
607.42	37.187
607.75	38.374
608.08	37.490
608.42	37.888
608.75	38.226
609.08	37.818
609.41	37.980
609.75	38.259
610.08	38.654
610.41	38.445
610.74	37.101
611.07	39.121
611.41	38.924
611.74	38.938
612.07	38.663
612.40	38.546
612.73	39.609
613.07	38.484
613.40	38.980
613.73	38.421
614.06	38.862
614.39	38.921
614.72	38.234
615.06	38.210
615.39	38.666
615.72	39.005
616.05	38.368
616.38	38.698
616.71	39.603
617.05	38.978
617.38	38.791
617.71	39.687
618.04	39.557
618.37	40.383
618.70	40.271
619.03	39.785
619.36	40.074
619.69	40.359
620.03	39.925
620.36	39.448
620.69	40.284
621.02	40.551
621.35	42.671
621.68	41.721
622.01	41.068
622.34	41.074
622.67	40.962
623.00	38.664
623.33	40.743
623.66	39.494
623.99	39.500
624.32	41.066
624.65	39.768
624.99	39.792
625.32	40.366
625.65	40.661
625.98	40.203
626.31	41.814
626.64	41.758
626.97	41.935
627.30	40.926
627.63	40.360
627.96	41.967
628.29	41.012
628.62	41.814
628.95	42.068
629.28	43.076
629.61	42.424
629.94	42.008
630.26	42.288
630.59	41.019
630.92	40.952
631.25	42.308
631.58	42.750
631.91	44.611
632.24	42.843
632.57	43.548
632.90	42.929
633.23	42.041
633.56	43.367
633.89	42.872
634.22	43.763
634.55	43.006
634.88	45.130
635.20	45.210
