SpectraSuite Data File
++++++++++++++++++++++++++++++++++++
Date: Thu May 14 14:34:33 PDT 2015
User: schluterlab
Dark Spectrum Present: Yes
Reference Spectrum Present: Yes
Number of Sampled Component Spectra: 1
Spectrometers: USB2E3373
Integration Time (usec): 3000 (USB2E3373)
Spectra Averaged: 3 (USB2E3373)
Boxcar Smoothing: 0 (USB2E3373)
Correct for Electrical Dark: No (USB2E3373)
Strobe/Lamp Enabled: No (USB2E3373)
Correct for Detector Non-linearity: No (USB2E3373)
Correct for Stray Light: No (USB2E3373)
Number of Pixels in Processed Spectrum: 2048
>>>>>Begin Processed Spectral Data<<<<<
178.53	0.000
178.91	-214.286
179.29	900.000
179.67	1700.000
180.04	-0.000
180.42	-150.000
180.80	-460.000
181.18	1600.000
181.56	2700.000
181.94	-425.000
182.31	650.000
182.69	-733.333
183.07	750.000
183.45	-200.000
183.83	366.667
184.20	533.333
184.58	-1300.000
184.96	450.000
185.34	211.111
185.72	380.000
186.09	-111.111
186.47	-1050.000
186.85	-120.000
187.23	155.556
187.61	1800.000
187.98	-120.000
188.36	-275.000
188.74	600.000
189.12	900.000
189.49	137.500
189.87	125.000
190.25	244.444
190.63	360.000
191.00	144.444
191.38	0.000
191.76	150.000
192.14	216.667
192.51	-1350.000
192.89	383.333
193.27	0.000
193.65	242.857
194.02	1100.000
194.40	271.429
194.78	-242.857
195.15	0.000
195.53	200.000
195.91	0.000
196.29	625.000
196.66	176.923
197.04	100.000
197.42	128.571
197.79	850.000
198.17	162.500
198.55	185.714
198.92	133.333
199.30	262.500
199.68	200.000
200.05	164.286
200.43	700.000
200.81	-28.571
201.18	0.000
201.56	-88.889
201.94	0.000
202.31	-100.000
202.69	55.556
203.07	-2000.000
203.44	322.222
203.82	300.000
204.19	166.667
204.57	233.333
204.95	225.000
205.32	900.000
205.70	-350.000
206.08	400.000
206.45	600.000
206.83	-200.000
207.20	333.333
207.58	360.000
207.96	166.667
208.33	266.667
208.71	-83.333
209.08	316.667
209.46	0.000
209.84	-200.000
210.21	-1050.000
210.59	-1400.000
210.96	-433.333
211.34	500.000
211.71	250.000
212.09	800.000
212.46	0.000
212.84	-900.000
213.22	280.000
213.59	275.000
213.97	200.000
214.34	500.000
214.72	-300.000
215.09	250.000
215.47	0.000
215.84	-228.571
216.22	-400.000
216.59	300.000
216.97	420.000
217.34	375.000
217.72	262.500
218.09	350.000
218.47	450.000
218.84	0.000
219.22	-400.000
219.59	135.294
219.97	130.000
220.34	-750.000
220.72	200.000
221.09	138.462
221.47	1133.333
221.84	150.000
222.22	185.714
222.59	0.000
222.97	375.000
223.34	300.000
223.72	1900.000
224.09	225.000
224.46	325.000
224.84	440.000
225.21	214.286
225.59	400.000
225.96	425.000
226.34	107.692
226.71	-183.333
227.08	1150.000
227.46	186.667
227.83	550.000
228.21	100.000
228.58	-187.500
228.95	-700.000
229.33	133.333
229.70	220.000
230.08	189.474
230.45	-90.000
230.82	666.667
231.20	178.571
231.57	208.333
231.95	118.182
232.32	163.636
232.69	125.000
233.07	625.000
233.44	94.118
233.81	170.000
234.19	105.556
234.56	95.455
234.93	100.000
235.31	121.053
235.68	127.778
236.05	100.000
236.43	138.462
236.80	132.000
237.17	74.074
237.55	63.636
237.92	100.000
238.29	74.194
238.67	43.182
239.04	80.556
239.41	47.619
239.79	63.043
240.16	46.296
240.53	39.130
240.91	41.176
241.28	57.377
241.65	50.746
242.02	48.649
242.40	24.615
242.77	30.667
243.14	34.146
243.51	28.947
243.89	56.410
244.26	36.634
244.63	46.078
245.00	34.579
245.38	32.456
245.75	22.124
246.12	37.302
246.49	32.558
246.87	31.429
247.24	33.113
247.61	32.895
247.98	26.846
248.36	24.691
248.73	22.086
249.10	27.322
249.47	33.333
249.84	30.366
250.22	25.907
250.59	27.222
250.96	28.636
251.33	26.020
251.70	26.923
252.08	26.667
252.45	25.820
252.82	25.207
253.19	23.828
253.56	29.278
253.94	21.923
254.31	28.409
254.68	30.420
255.05	25.733
255.42	20.068
255.79	20.712
256.16	24.172
256.54	21.523
256.91	26.557
257.28	24.918
257.65	24.841
258.02	23.009
258.39	25.356
258.76	26.300
259.14	26.724
259.51	23.055
259.88	18.697
260.25	25.000
260.62	24.384
260.99	25.683
261.36	23.861
261.73	21.485
262.10	23.352
262.47	21.984
262.85	26.768
263.22	21.039
263.59	20.526
263.96	26.343
264.33	21.995
264.70	25.679
265.07	22.912
265.44	24.943
265.81	22.222
266.18	26.984
266.55	21.875
266.92	21.412
267.29	23.195
267.66	22.395
268.03	21.397
268.40	20.877
268.77	21.640
269.14	20.044
269.51	20.833
269.88	23.361
270.25	23.139
270.62	22.785
270.99	22.828
271.36	23.366
271.73	22.986
272.10	24.449
272.47	21.643
272.84	23.293
273.21	22.445
273.58	21.976
273.95	20.000
274.32	19.011
274.69	20.309
275.06	21.612
275.43	20.702
275.80	21.693
276.17	20.926
276.54	18.657
276.91	21.467
277.28	20.434
277.65	21.185
278.02	21.140
278.39	21.739
278.76	20.211
279.13	22.340
279.50	23.196
279.87	22.361
280.23	19.014
280.60	19.831
280.97	19.243
281.34	19.694
281.71	21.151
282.08	19.435
282.45	19.149
282.82	19.623
283.19	18.255
283.56	19.344
283.92	21.471
284.29	19.905
284.66	21.182
285.03	18.269
285.40	19.165
285.77	20.898
286.14	20.000
286.51	21.766
286.87	19.431
287.24	20.934
287.61	19.581
287.98	18.429
288.35	19.083
288.72	18.491
289.08	20.205
289.45	15.976
289.82	19.277
290.19	19.540
290.56	20.000
290.93	17.689
291.29	18.595
291.66	18.457
292.03	15.197
292.40	17.959
292.77	16.173
293.13	18.133
293.50	15.769
293.87	17.047
294.24	17.067
294.60	17.446
294.97	17.181
295.34	17.926
295.71	16.646
296.08	17.442
296.44	17.034
296.81	15.713
297.18	16.812
297.55	15.448
297.91	15.421
298.28	15.758
298.65	14.982
299.02	15.230
299.38	17.506
299.75	14.953
300.12	14.468
300.48	15.438
300.85	15.748
301.22	15.213
301.59	15.068
301.95	14.463
302.32	15.333
302.69	13.691
303.05	15.016
303.42	13.969
303.79	14.688
304.15	14.406
304.52	16.173
304.89	13.927
305.25	13.147
305.62	15.256
305.99	15.773
306.35	14.012
306.72	14.581
307.09	13.604
307.45	14.700
307.82	14.026
308.19	14.228
308.55	15.236
308.92	14.995
309.29	14.751
309.65	12.671
310.02	14.356
310.38	13.976
310.75	14.951
311.12	15.149
311.48	13.685
311.85	14.245
312.22	14.231
312.58	13.427
312.95	14.149
313.31	13.460
313.68	14.011
314.05	14.453
314.41	14.754
314.78	14.532
315.14	13.702
315.51	14.404
315.87	15.392
316.24	14.338
316.61	13.854
316.97	13.665
317.34	14.021
317.70	14.672
318.07	13.316
318.43	14.456
318.80	14.967
319.16	14.077
319.53	12.768
319.89	12.883
320.26	14.235
320.62	13.918
320.99	12.373
321.35	13.494
321.72	14.698
322.08	13.886
322.45	13.640
322.81	13.267
323.18	13.894
323.54	13.966
323.91	14.680
324.27	13.339
324.64	14.945
325.00	13.350
325.37	14.333
325.73	13.884
326.10	14.599
326.46	14.577
326.83	14.412
327.19	14.331
327.56	14.941
327.92	13.533
328.29	13.952
328.65	13.735
329.01	13.875
329.38	14.238
329.74	14.041
330.11	14.298
330.47	14.153
330.84	12.834
331.20	13.750
331.56	13.432
331.93	14.310
332.29	13.983
332.66	14.369
333.02	14.070
333.38	14.094
333.75	13.636
334.11	13.428
334.48	14.026
334.84	14.104
335.20	13.686
335.57	13.659
335.93	13.884
336.29	13.644
336.66	13.204
337.02	13.796
337.38	13.350
337.75	13.223
338.11	13.625
338.47	14.392
338.84	14.129
339.20	12.468
339.56	14.250
339.93	13.711
340.29	14.090
340.65	14.193
341.02	12.929
341.38	14.066
341.74	12.510
342.11	13.435
342.47	13.185
342.83	14.010
343.20	14.227
343.56	12.430
343.92	13.211
344.28	13.437
344.65	14.496
345.01	13.573
345.37	13.064
345.73	12.938
346.10	13.495
346.46	13.766
346.82	12.884
347.19	13.293
347.55	13.050
347.91	12.481
348.27	13.050
348.63	14.318
349.00	12.752
349.36	13.457
349.72	13.244
350.08	13.522
350.45	12.776
350.81	13.122
351.17	13.835
351.53	13.268
351.89	13.743
352.26	13.806
352.62	12.687
352.98	13.282
353.34	12.547
353.70	13.945
354.07	13.413
354.43	13.212
354.79	12.939
355.15	13.024
355.51	13.743
355.87	11.518
356.24	13.156
356.60	13.378
356.96	12.380
357.32	12.342
357.68	12.079
358.04	12.051
358.40	12.015
358.77	13.304
359.13	12.629
359.49	12.565
359.85	13.198
360.21	12.697
360.57	12.060
360.93	12.482
361.29	13.895
361.66	12.238
362.02	12.874
362.38	12.930
362.74	12.500
363.10	13.686
363.46	13.296
363.82	12.003
364.18	12.738
364.54	13.416
364.90	12.843
365.26	11.793
365.62	13.200
365.98	13.342
366.35	12.483
366.71	12.993
367.07	12.382
367.43	13.132
367.79	12.873
368.15	13.043
368.51	13.532
368.87	12.280
369.23	11.800
369.59	12.227
369.95	12.170
370.31	12.559
370.67	13.274
371.03	12.119
371.39	12.424
371.75	13.618
372.11	12.669
372.47	12.390
372.83	12.893
373.19	13.209
373.55	13.008
373.91	11.247
374.27	12.678
374.63	13.126
374.99	12.003
375.35	13.442
375.71	12.323
376.07	12.589
376.42	11.965
376.78	12.492
377.14	12.664
377.50	12.397
377.86	12.623
378.22	12.575
378.58	12.961
378.94	12.500
379.30	11.951
379.66	13.228
380.02	13.099
380.38	12.903
380.74	11.944
381.09	11.382
381.45	12.557
381.81	13.466
382.17	13.005
382.53	12.865
382.89	12.528
383.25	12.778
383.61	12.616
383.97	12.721
384.32	12.560
384.68	12.123
385.04	12.955
385.40	12.669
385.76	13.130
386.12	11.969
386.48	12.882
386.83	12.992
387.19	12.746
387.55	12.089
387.91	12.728
388.27	12.818
388.62	12.772
388.98	12.690
389.34	12.728
389.70	13.248
390.06	12.729
390.42	12.530
390.77	12.462
391.13	12.207
391.49	13.466
391.85	12.848
392.20	11.922
392.56	13.585
392.92	12.868
393.28	13.212
393.64	13.073
393.99	12.493
394.35	13.960
394.71	13.413
395.07	12.455
395.42	13.078
395.78	14.260
396.14	12.775
396.50	12.827
396.85	12.821
397.21	13.254
397.57	12.603
397.92	13.402
398.28	11.624
398.64	12.815
399.00	11.990
399.35	13.717
399.71	12.935
400.07	12.633
400.42	13.388
400.78	12.847
401.14	12.920
401.49	13.189
401.85	12.907
402.21	13.384
402.57	13.967
402.92	12.766
403.28	12.354
403.63	12.828
403.99	12.352
404.35	12.564
404.70	14.108
405.06	13.043
405.42	12.588
405.77	13.631
406.13	12.426
406.49	13.739
406.84	13.130
407.20	12.577
407.55	12.477
407.91	12.885
408.27	12.956
408.62	13.554
408.98	13.291
409.34	12.727
409.69	13.103
410.05	13.834
410.40	13.341
410.76	12.844
411.11	13.793
411.47	13.575
411.83	13.521
412.18	12.289
412.54	12.804
412.89	13.562
413.25	13.262
413.60	13.153
413.96	13.170
414.31	12.295
414.67	13.775
415.03	12.677
415.38	13.367
415.74	13.012
416.09	13.880
416.45	12.649
416.80	12.913
417.16	13.665
417.51	12.951
417.87	13.243
418.22	13.234
418.58	13.321
418.93	13.912
419.29	13.194
419.64	12.605
420.00	12.404
420.35	13.307
420.71	12.234
421.06	13.168
421.42	13.188
421.77	12.763
422.12	12.421
422.48	12.391
422.83	13.363
423.19	12.732
423.54	13.274
423.90	12.811
424.25	12.373
424.61	12.859
424.96	13.070
425.31	13.004
425.67	11.916
426.02	13.060
426.38	13.203
426.73	13.002
427.09	13.668
427.44	12.452
427.79	13.101
428.15	11.872
428.50	12.472
428.85	13.490
429.21	13.351
429.56	12.043
429.92	12.629
430.27	13.108
430.62	12.604
430.98	12.445
431.33	12.659
431.68	12.596
432.04	11.935
432.39	12.908
432.74	12.785
433.10	13.250
433.45	11.984
433.80	12.768
434.16	13.017
434.51	11.768
434.86	13.029
435.22	12.380
435.57	12.736
435.92	12.743
436.28	12.628
436.63	13.326
436.98	12.399
437.34	12.683
437.69	12.438
438.04	13.062
438.39	12.866
438.75	12.396
439.10	13.161
439.45	13.136
439.81	12.938
440.16	12.386
440.51	13.434
440.86	12.618
441.22	13.451
441.57	12.631
441.92	12.561
442.27	12.323
442.63	12.270
442.98	13.287
443.33	12.625
443.68	13.380
444.03	13.405
444.39	13.176
444.74	13.170
445.09	12.620
445.44	13.066
445.79	12.931
446.15	12.127
446.50	12.610
446.85	13.181
447.20	13.008
447.55	12.918
447.91	11.832
448.26	12.421
448.61	12.327
448.96	13.251
449.31	12.460
449.66	12.200
450.02	12.605
450.37	13.159
450.72	12.217
451.07	12.585
451.42	12.421
451.77	13.452
452.12	12.754
452.47	13.072
452.83	13.626
453.18	13.076
453.53	12.292
453.88	12.479
454.23	12.881
454.58	12.943
454.93	12.439
455.28	12.884
455.63	12.678
455.98	12.905
456.34	12.839
456.69	12.934
457.04	12.352
457.39	12.583
457.74	13.255
458.09	12.521
458.44	12.823
458.79	12.429
459.14	12.847
459.49	13.016
459.84	12.697
460.19	12.715
460.54	12.834
460.89	12.811
461.24	12.356
461.59	13.005
461.94	11.922
462.29	13.158
462.64	13.096
462.99	13.559
463.34	13.433
463.69	13.951
464.04	13.007
464.39	12.892
464.74	12.372
465.09	13.264
465.44	12.393
465.79	13.696
466.14	12.038
466.49	12.842
466.84	12.837
467.19	12.948
467.54	12.338
467.89	12.471
468.24	13.075
468.59	12.391
468.94	12.179
469.29	12.897
469.64	12.842
469.99	12.492
470.34	13.243
470.68	12.714
471.03	12.639
471.38	12.688
471.73	12.354
472.08	12.437
472.43	12.763
472.78	13.161
473.13	11.884
473.48	14.079
473.83	13.175
474.17	13.306
474.52	12.808
474.87	13.400
475.22	13.239
475.57	12.565
475.92	13.091
476.27	13.578
476.61	12.357
476.96	12.096
477.31	12.723
477.66	13.274
478.01	13.320
478.36	12.363
478.70	12.759
479.05	13.241
479.40	13.179
479.75	12.440
480.10	12.885
480.45	12.580
480.79	12.880
481.14	12.546
481.49	12.313
481.84	12.968
482.19	12.516
482.53	12.768
482.88	12.539
483.23	12.761
483.58	12.271
483.92	12.323
484.27	11.981
484.62	12.665
484.97	12.947
485.31	12.601
485.66	11.855
486.01	11.247
486.36	11.541
486.70	11.753
487.05	12.005
487.40	12.236
487.75	12.519
488.09	12.201
488.44	12.022
488.79	12.378
489.13	12.419
489.48	12.583
489.83	12.354
490.17	11.948
490.52	12.110
490.87	12.437
491.22	12.608
491.56	13.311
491.91	12.386
492.26	12.765
492.60	12.680
492.95	12.549
493.30	12.819
493.64	12.659
493.99	12.412
494.34	12.456
494.68	12.163
495.03	13.084
495.37	12.295
495.72	12.018
496.07	12.883
496.41	12.570
496.76	12.427
497.11	12.994
497.45	12.861
497.80	13.105
498.14	12.381
498.49	12.776
498.84	12.340
499.18	12.596
499.53	12.780
499.87	12.571
500.22	12.734
500.56	12.641
500.91	12.357
501.26	12.909
501.60	12.196
501.95	12.723
502.29	12.769
502.64	13.161
502.98	12.726
503.33	12.138
503.67	12.342
504.02	12.916
504.36	12.511
504.71	13.367
505.06	12.369
505.40	12.386
505.75	13.479
506.09	13.352
506.44	12.906
506.78	12.936
507.13	12.540
507.47	13.406
507.82	13.021
508.16	12.285
508.51	12.143
508.85	12.329
509.19	13.074
509.54	13.545
509.88	12.627
510.23	13.356
510.57	13.485
510.92	13.062
511.26	13.035
511.61	12.989
511.95	12.592
512.30	13.294
512.64	12.444
512.98	12.706
513.33	13.508
513.67	13.004
514.02	13.439
514.36	12.685
514.70	13.229
515.05	13.191
515.39	13.333
515.74	13.043
516.08	13.471
516.42	13.919
516.77	13.617
517.11	12.739
517.46	13.892
517.80	13.041
518.14	14.091
518.49	12.798
518.83	13.784
519.17	12.870
519.52	13.522
519.86	13.252
520.20	13.685
520.55	13.198
520.89	13.457
521.23	13.065
521.58	13.955
521.92	13.088
522.26	13.918
522.61	13.773
522.95	13.437
523.29	13.506
523.64	13.509
523.98	14.546
524.32	14.212
524.66	14.115
525.01	14.270
525.35	13.785
525.69	13.283
526.04	13.318
526.38	14.598
526.72	13.956
527.06	13.548
527.41	13.178
527.75	14.192
528.09	13.636
528.43	14.328
528.78	13.064
529.12	13.647
529.46	13.772
529.80	13.616
530.15	14.145
530.49	13.642
530.83	14.168
531.17	13.142
531.51	14.140
531.86	14.062
532.20	14.268
532.54	13.824
532.88	14.121
533.22	14.555
533.57	13.618
533.91	13.973
534.25	14.302
534.59	13.851
534.93	12.847
535.27	14.085
535.62	14.440
535.96	14.120
536.30	13.455
536.64	14.474
536.98	14.330
537.32	13.642
537.66	14.473
538.01	13.776
538.35	14.495
538.69	13.401
539.03	13.673
539.37	14.134
539.71	13.994
540.05	13.909
540.39	13.692
540.73	13.783
541.07	14.224
541.42	13.763
541.76	13.760
542.10	13.752
542.44	13.581
542.78	13.625
543.12	14.720
543.46	13.492
543.80	13.369
544.14	13.884
544.48	13.475
544.82	14.004
545.16	14.132
545.50	13.241
545.84	13.166
546.18	14.630
546.52	13.376
546.86	13.522
547.20	14.059
547.54	13.546
547.88	13.623
548.22	12.690
548.56	13.283
548.90	13.731
549.24	14.103
549.58	13.754
549.92	13.839
550.26	14.239
550.60	14.359
550.94	14.295
551.28	14.521
551.62	15.027
551.96	14.045
552.30	14.532
552.64	13.628
552.98	13.724
553.32	14.855
553.66	13.698
554.00	13.997
554.34	14.350
554.68	13.751
555.02	13.798
555.36	15.122
555.69	14.094
556.03	13.871
556.37	14.831
556.71	14.141
557.05	14.441
557.39	13.802
557.73	13.474
558.07	13.642
558.41	13.289
558.75	13.725
559.08	14.614
559.42	13.443
559.76	14.450
560.10	14.668
560.44	13.786
560.78	14.500
561.12	13.054
561.45	14.538
561.79	13.126
562.13	14.849
562.47	13.625
562.81	13.544
563.15	13.258
563.48	14.232
563.82	13.724
564.16	14.173
564.50	13.886
564.84	13.156
565.17	13.529
565.51	13.636
565.85	13.361
566.19	12.961
566.52	13.926
566.86	14.035
567.20	12.779
567.54	13.914
567.88	13.761
568.21	13.982
568.55	13.237
568.89	13.073
569.23	13.181
569.56	12.896
569.90	12.937
570.24	13.187
570.57	12.540
570.91	12.339
571.25	12.757
571.59	12.831
571.92	12.633
572.26	12.282
572.60	12.367
572.93	12.858
573.27	12.504
573.61	12.732
573.95	12.624
574.28	12.404
574.62	12.210
574.96	11.932
575.29	11.919
575.63	12.081
575.97	12.527
576.30	12.189
576.64	12.837
576.98	12.096
577.31	12.221
577.65	12.196
577.98	12.180
578.32	11.951
578.66	12.231
578.99	12.431
579.33	12.650
579.67	12.149
580.00	12.610
580.34	12.413
580.67	12.357
581.01	12.138
581.35	12.429
581.68	12.085
582.02	12.020
582.35	12.003
582.69	12.521
583.02	12.334
583.36	12.261
583.70	12.202
584.03	12.791
584.37	12.935
584.70	12.469
585.04	11.672
585.37	12.815
585.71	12.341
586.04	12.329
586.38	12.535
586.72	12.008
587.05	12.075
587.39	11.842
587.72	12.584
588.06	12.427
588.39	12.348
588.73	12.619
589.06	12.613
589.40	13.092
589.73	12.693
590.07	12.666
590.40	12.847
590.73	12.902
591.07	13.068
591.40	13.025
591.74	12.798
592.07	13.317
592.41	13.170
592.74	12.673
593.08	12.962
593.41	12.511
593.75	12.644
594.08	12.390
594.41	12.660
594.75	12.521
595.08	12.248
595.42	12.760
595.75	12.690
596.09	13.182
596.42	12.504
596.75	13.200
597.09	13.333
597.42	13.071
597.75	12.975
598.09	13.413
598.42	13.148
598.76	12.724
599.09	12.567
599.42	12.571
599.76	12.578
600.09	13.080
600.42	12.513
600.76	12.550
601.09	12.612
601.42	12.667
601.76	12.621
602.09	13.081
602.42	12.105
602.76	12.804
603.09	12.628
603.42	13.042
603.76	12.579
604.09	13.272
604.42	12.771
604.76	12.900
605.09	13.283
605.42	12.839
605.75	12.769
606.09	12.542
606.42	12.331
606.75	12.706
607.09	12.750
607.42	12.524
607.75	13.013
608.08	12.786
608.42	12.535
608.75	12.977
609.08	12.564
609.41	12.792
609.75	13.036
610.08	13.412
610.41	13.254
610.74	13.193
611.07	13.544
611.41	12.870
611.74	13.580
612.07	13.698
612.40	13.308
612.73	13.447
613.07	13.203
613.40	13.186
613.73	12.855
614.06	13.297
614.39	13.120
614.72	12.664
615.06	12.993
615.39	12.711
615.72	13.412
616.05	12.967
616.38	13.219
616.71	13.271
617.05	13.152
617.38	13.537
617.71	14.093
618.04	13.330
618.37	13.333
618.70	13.688
619.03	13.799
619.36	13.194
619.69	13.389
620.03	12.994
620.36	13.558
620.69	13.387
621.02	14.370
621.35	14.877
621.68	14.751
622.01	13.950
622.34	12.901
622.67	13.883
623.00	12.753
623.33	14.731
623.66	14.202
623.99	13.035
624.32	14.490
624.65	13.127
624.99	14.499
625.32	14.762
625.65	14.160
625.98	13.695
626.31	13.678
626.64	14.066
626.97	14.629
627.30	14.047
627.63	13.053
627.96	15.240
628.29	13.463
628.62	13.770
628.95	13.497
629.28	13.934
629.61	14.310
629.94	13.808
630.26	13.051
630.59	14.421
630.92	14.113
631.25	15.385
631.58	14.030
631.91	14.620
632.24	16.330
632.57	14.516
