SpectraSuite Data File
++++++++++++++++++++++++++++++++++++
Date: Thu May 14 14:53:00 PDT 2015
User: schluterlab
Dark Spectrum Present: Yes
Reference Spectrum Present: Yes
Number of Sampled Component Spectra: 1
Spectrometers: USB2E3373
Integration Time (usec): 3000 (USB2E3373)
Spectra Averaged: 3 (USB2E3373)
Boxcar Smoothing: 0 (USB2E3373)
Correct for Electrical Dark: No (USB2E3373)
Strobe/Lamp Enabled: No (USB2E3373)
Correct for Detector Non-linearity: No (USB2E3373)
Correct for Stray Light: No (USB2E3373)
Number of Pixels in Processed Spectrum: 2048
>>>>>Begin Processed Spectral Data<<<<<
178.53	0.000
178.91	242.857
179.29	-1500.000
179.67	-2100.000
180.04	207.143
180.42	70.000
180.80	300.000
181.18	-1400.000
181.56	-500.000
181.94	325.000
182.31	-275.000
182.69	300.000
183.07	-250.000
183.45	300.000
183.83	-166.667
184.20	33.333
184.58	900.000
184.96	-275.000
185.34	-88.889
185.72	-120.000
186.09	177.778
186.47	700.000
186.85	480.000
187.23	-133.333
187.61	-1400.000
187.98	360.000
188.36	225.000
188.74	-225.000
189.12	-666.667
189.49	-43.750
189.87	-175.000
190.25	-66.667
190.63	-160.000
191.00	-155.556
191.38	0.000
191.76	-575.000
192.14	-283.333
192.51	150.000
192.89	-83.333
193.27	0.000
193.65	-114.286
194.02	-2300.000
194.40	-242.857
194.78	157.143
195.15	0.000
195.53	-54.545
195.91	0.000
196.29	-175.000
196.66	-53.846
197.04	-2100.000
197.42	-271.429
197.79	-850.000
198.17	-87.500
198.55	-185.714
198.92	-88.889
199.30	-100.000
199.68	-81.818
200.05	-35.714
200.43	-1000.000
200.81	314.286
201.18	0.000
201.56	344.444
201.94	0.000
202.31	633.333
202.69	-133.333
203.07	300.000
203.44	-133.333
203.82	-325.000
204.19	-116.667
204.57	-350.000
204.95	-300.000
205.32	-1900.000
205.70	450.000
206.08	-116.667
206.45	-83.333
206.83	300.000
207.20	-133.333
207.58	-180.000
207.96	-283.333
208.33	-83.333
208.71	166.667
209.08	-116.667
209.46	0.000
209.84	350.000
210.21	450.000
210.59	650.000
210.96	533.333
211.34	-175.000
211.71	-175.000
212.09	-900.000
212.46	0.000
212.84	1200.000
213.22	-320.000
213.59	-375.000
213.97	-100.000
214.34	-600.000
214.72	283.333
215.09	-450.000
215.47	0.000
215.84	128.571
216.22	500.000
216.59	0.000
216.97	-300.000
217.34	-475.000
217.72	-150.000
218.09	-375.000
218.47	-225.000
218.84	0.000
219.22	60.000
219.59	5.882
219.97	-35.000
220.34	600.000
220.72	-188.889
221.09	-15.385
221.47	-133.333
221.84	-150.000
222.22	-142.857
222.59	0.000
222.97	-37.500
223.34	-420.000
223.72	-1500.000
224.09	-400.000
224.46	-475.000
224.84	-300.000
225.21	-242.857
225.59	-325.000
225.96	-475.000
226.34	19.231
226.71	283.333
227.08	-550.000
227.46	13.333
227.83	-300.000
228.21	-10.526
228.58	187.500
228.95	850.000
229.33	-141.667
229.70	-140.000
230.08	-21.053
230.45	200.000
230.82	-366.667
231.20	-50.000
231.57	-25.000
231.95	-63.636
232.32	-54.545
232.69	-55.000
233.07	-225.000
233.44	-76.471
233.81	-200.000
234.19	-38.889
234.56	-31.818
234.93	-3.448
235.31	-52.632
235.68	-22.222
236.05	-45.000
236.43	15.385
236.80	32.000
237.17	0.000
237.55	-18.182
237.92	-90.000
238.29	-45.161
238.67	-25.000
239.04	-36.111
239.41	-38.095
239.79	-26.087
240.16	-22.222
240.53	-34.783
240.91	-39.216
241.28	-19.672
241.65	-7.463
242.02	-8.108
242.40	-24.615
242.77	-24.000
243.14	-18.293
243.51	-26.316
243.89	-26.923
244.26	0.990
244.63	0.000
245.00	-4.673
245.38	-9.649
245.75	-11.504
246.12	-4.762
246.49	-10.853
246.87	0.714
247.24	-3.974
247.61	-4.605
247.98	-5.369
248.36	-9.259
248.73	-5.521
249.10	-2.186
249.47	1.990
249.84	2.618
250.22	-4.145
250.59	-3.333
250.96	0.909
251.33	-5.612
251.70	-5.128
252.08	-2.083
252.45	0.000
252.82	-2.893
253.19	-1.953
253.56	-2.281
253.94	-4.231
254.31	-0.379
254.68	1.049
255.05	4.560
255.42	-0.340
255.79	-0.647
256.16	-0.331
256.54	-1.656
256.91	-1.639
257.28	-0.656
257.65	-0.955
258.02	-3.540
258.39	0.570
258.76	1.835
259.14	-0.575
259.51	0.000
259.88	-0.850
260.25	0.278
260.62	-0.822
260.99	3.279
261.36	1.072
261.73	-1.857
262.10	0.000
262.47	-1.877
262.85	2.778
263.22	-1.558
263.59	-3.158
263.96	-1.023
264.33	-3.836
264.70	3.210
265.07	2.864
265.44	1.814
265.81	-0.926
266.18	0.000
266.55	0.223
266.92	-3.645
267.29	1.532
267.66	-1.109
268.03	-0.218
268.40	0.209
268.77	-1.367
269.14	-0.661
269.51	0.658
269.88	2.049
270.25	-0.604
270.62	1.055
270.99	0.202
271.36	1.980
271.73	-0.196
272.10	1.202
272.47	0.000
272.84	-0.201
273.21	0.200
273.58	-0.806
273.95	-0.577
274.32	-1.331
274.69	-0.967
275.06	0.183
275.43	-0.924
275.80	0.353
276.17	-2.407
276.54	-1.306
276.91	-1.073
277.28	0.542
277.65	-1.077
278.02	0.368
278.39	-0.725
278.76	-1.054
279.13	-1.064
279.50	0.344
279.87	0.358
280.23	-1.408
280.60	2.712
280.97	0.000
281.34	-0.849
281.71	0.846
282.08	-0.332
282.45	-0.491
282.82	-0.471
283.19	-0.808
283.56	-0.164
283.92	0.300
284.29	2.686
284.66	1.642
285.03	-1.442
285.40	2.937
285.77	0.774
286.14	2.443
286.51	-0.304
286.87	-0.790
287.24	1.054
287.61	1.046
287.98	-1.813
288.35	0.148
288.72	1.331
289.08	2.635
289.45	-0.592
289.82	-0.301
290.19	1.293
290.56	3.099
290.93	0.143
291.29	-0.138
291.66	-0.826
292.03	-0.678
292.40	0.952
292.77	-0.135
293.13	1.083
293.50	-0.394
293.87	-0.403
294.24	2.400
294.60	0.506
294.97	0.268
295.34	1.280
295.71	-1.261
296.08	-0.129
296.44	0.368
296.81	-0.244
297.18	-0.996
297.55	0.118
297.91	0.712
298.28	0.948
298.65	1.308
299.02	0.826
299.38	1.144
299.75	0.935
300.12	-0.116
300.48	1.267
300.85	1.237
301.22	0.895
301.59	0.571
301.95	0.565
302.32	1.556
302.69	1.205
303.05	1.741
303.42	1.330
303.79	1.458
304.15	1.367
304.52	0.317
304.89	0.733
305.25	1.553
305.62	0.313
305.99	1.340
306.35	0.806
306.72	0.517
307.09	0.609
307.45	2.070
307.82	0.505
308.19	1.009
308.55	1.832
308.92	0.584
309.29	2.490
309.65	0.195
310.02	0.000
310.38	1.181
310.75	0.097
311.12	2.493
311.48	-0.489
311.85	1.045
312.22	1.423
312.58	0.282
312.95	1.147
313.31	1.265
313.68	1.190
314.05	2.620
314.41	0.546
314.78	0.727
315.14	2.450
315.51	1.293
315.87	1.080
316.24	1.644
316.61	1.687
316.97	0.090
317.34	1.235
317.70	1.223
318.07	1.852
318.43	1.956
318.80	2.174
319.16	2.060
319.53	0.428
319.89	1.139
320.26	1.601
320.62	0.532
320.99	1.016
321.35	0.277
321.72	1.581
322.08	1.713
322.45	1.174
322.81	1.534
323.18	0.531
323.54	0.603
323.91	1.779
324.27	0.775
324.64	1.931
325.00	1.244
325.37	2.211
325.73	1.818
326.10	2.190
326.46	2.443
326.83	2.242
327.19	1.181
327.56	2.609
327.92	1.180
328.29	1.290
328.65	0.670
329.01	1.100
329.38	1.516
329.74	1.455
330.11	2.140
330.47	1.853
330.84	1.464
331.20	1.583
331.56	0.867
331.93	1.925
332.29	1.780
332.66	2.907
333.02	1.591
333.38	1.091
333.75	1.852
334.11	1.835
334.48	0.825
334.84	2.719
335.20	1.427
335.57	3.120
335.93	2.975
336.29	1.165
336.66	0.925
337.02	2.676
337.38	2.551
337.75	1.818
338.11	1.850
338.47	1.985
338.84	1.777
339.20	0.421
339.56	1.730
339.93	2.381
340.29	2.738
340.65	2.109
341.02	1.836
341.38	2.991
341.74	1.856
342.11	1.770
342.47	0.635
342.83	1.449
343.20	1.881
343.56	1.844
343.92	2.242
344.28	1.953
344.65	2.946
345.01	2.106
345.37	2.722
345.73	0.935
346.10	2.106
346.46	1.978
346.82	2.846
347.19	2.063
347.55	2.276
347.91	1.560
348.27	1.821
348.63	1.828
349.00	1.715
349.36	2.082
349.72	2.009
350.08	1.932
350.45	1.369
350.81	1.810
351.17	1.504
351.53	2.274
351.89	2.354
352.26	1.866
352.62	2.164
352.98	1.908
353.34	1.718
353.70	2.157
354.07	1.490
354.43	1.139
354.79	1.870
355.15	2.281
355.51	3.070
355.87	1.571
356.24	1.445
356.60	1.256
356.96	1.927
357.32	1.264
357.68	1.025
358.04	1.272
358.40	1.493
358.77	2.412
359.13	1.551
359.49	1.487
359.85	1.450
360.21	1.865
360.57	1.579
360.93	1.622
361.29	1.404
361.66	1.448
362.02	2.227
362.38	2.178
362.74	1.327
363.10	2.682
363.46	1.177
363.82	1.776
364.18	0.915
364.54	2.075
364.90	2.475
365.26	1.034
365.62	2.333
365.98	1.566
366.35	2.148
366.71	1.633
367.07	1.488
367.43	1.838
367.79	2.057
368.15	1.940
368.51	2.165
368.87	1.437
369.23	1.667
369.59	2.117
369.95	2.231
370.31	2.566
370.67	2.682
371.03	2.355
371.39	1.478
371.75	1.719
372.11	2.100
372.47	2.031
372.83	2.094
373.19	2.201
373.55	2.033
373.91	1.363
374.27	2.005
374.63	2.097
374.99	0.995
375.35	2.143
375.71	2.129
376.07	1.743
376.42	2.015
376.78	2.362
377.14	2.183
377.50	1.771
377.86	3.571
378.22	2.275
378.58	1.902
378.94	2.406
379.30	1.582
379.66	2.234
380.02	2.654
380.38	2.592
380.74	1.972
381.09	3.136
381.45	2.841
381.81	3.044
382.17	2.316
382.53	2.865
382.89	2.765
383.25	2.814
383.61	1.852
383.97	1.943
384.32	2.751
384.68	1.624
385.04	3.297
385.40	2.770
385.76	2.521
386.12	2.214
386.48	2.059
386.83	3.218
387.19	3.013
387.55	1.937
387.91	2.626
388.27	3.464
388.62	3.436
388.98	2.594
389.34	2.887
389.70	2.557
390.06	2.783
390.42	2.771
390.77	3.492
391.13	3.580
391.49	3.261
391.85	2.364
392.20	2.788
392.56	3.190
392.92	3.326
393.28	3.648
393.64	2.626
393.99	2.905
394.35	2.512
394.71	3.533
395.07	2.395
395.42	3.312
395.78	3.352
396.14	3.387
396.50	2.553
396.85	3.280
397.21	2.899
397.57	3.651
397.92	3.723
398.28	2.988
398.64	2.403
399.00	2.565
399.35	3.246
399.71	3.152
400.07	2.583
400.42	3.434
400.78	2.836
401.14	3.244
401.49	3.582
401.85	2.849
402.21	2.839
402.57	3.580
402.92	3.369
403.28	2.869
403.63	2.625
403.99	3.147
404.35	2.899
404.70	3.456
405.06	4.076
405.42	2.635
405.77	3.435
406.13	2.809
406.49	3.435
406.84	3.435
407.20	3.130
407.55	2.786
407.91	3.143
408.27	2.886
408.62	2.909
408.98	3.424
409.34	2.111
409.69	3.708
410.05	3.165
410.40	3.306
410.76	2.916
411.11	3.156
411.47	3.194
411.83	3.704
412.18	3.012
412.54	3.023
412.89	3.143
413.25	3.217
413.60	2.298
413.96	2.797
414.31	3.569
414.67	3.637
415.03	2.954
415.38	3.216
415.74	3.360
416.09	3.270
416.45	2.755
416.80	3.611
417.16	3.193
417.51	3.674
417.87	2.759
418.22	3.174
418.58	2.788
418.93	3.492
419.29	2.343
419.64	2.821
420.00	3.086
420.35	3.257
420.71	3.676
421.06	2.818
421.42	2.810
421.77	2.854
422.12	3.805
422.48	3.175
422.83	3.286
423.19	2.706
423.54	2.434
423.90	3.313
424.25	3.040
424.61	2.239
424.96	3.350
425.31	3.875
425.67	2.791
426.02	2.490
426.38	2.755
426.73	2.567
427.09	3.576
427.44	3.332
427.79	2.764
428.15	2.626
428.50	2.865
428.85	3.100
429.21	3.617
429.56	3.110
429.92	3.440
430.27	3.133
430.62	3.322
430.98	2.951
431.33	3.079
431.68	2.921
432.04	2.996
432.39	2.732
432.74	3.425
433.10	2.866
433.45	2.508
433.80	3.058
434.16	3.564
434.51	3.186
434.86	3.203
435.22	2.976
435.57	3.125
435.92	3.228
436.28	2.844
436.63	2.622
436.98	3.650
437.34	3.551
437.69	2.752
438.04	3.067
438.39	3.159
438.75	2.546
439.10	3.224
439.45	3.410
439.81	3.164
440.16	2.949
440.51	3.344
440.86	3.947
441.22	2.947
441.57	3.040
441.92	3.201
442.27	3.232
442.63	3.030
442.98	3.469
443.33	3.156
443.68	3.469
444.03	3.104
444.39	3.560
444.74	3.369
445.09	3.041
445.44	2.950
445.79	3.736
446.15	3.340
446.50	2.997
446.85	3.502
447.20	3.095
447.55	3.295
447.91	2.984
448.26	2.748
448.61	2.550
448.96	3.380
449.31	3.340
449.66	3.105
450.02	2.690
450.37	3.836
450.72	3.229
451.07	2.733
451.42	2.831
451.77	3.391
452.12	2.991
452.47	2.971
452.83	2.984
453.18	2.977
453.53	2.412
453.88	2.816
454.23	2.768
454.58	3.366
454.93	1.820
455.28	2.529
455.63	2.729
455.98	3.575
456.34	3.357
456.69	2.587
457.04	3.014
457.39	3.104
457.74	3.244
458.09	2.581
458.44	3.179
458.79	2.424
459.14	2.727
459.49	2.830
459.84	2.938
460.19	1.943
460.54	3.180
460.89	2.647
461.24	2.356
461.59	2.767
461.94	2.624
462.29	2.856
462.64	2.836
462.99	2.574
463.34	3.050
463.69	3.048
464.04	2.946
464.39	3.195
464.74	3.592
465.09	2.653
465.44	2.790
465.79	3.437
466.14	2.970
466.49	2.737
466.84	2.369
467.19	3.179
467.54	2.996
467.89	2.529
468.24	2.936
468.59	2.548
468.94	2.622
469.29	2.519
469.64	2.924
469.99	2.103
470.34	2.970
470.68	3.076
471.03	2.816
471.38	2.420
471.73	2.211
472.08	2.094
472.43	2.589
472.78	3.086
473.13	2.845
473.48	2.598
473.83	2.902
474.17	2.872
474.52	2.405
474.87	2.879
475.22	3.155
475.57	2.752
475.92	3.086
476.27	2.556
476.61	2.700
476.96	1.981
477.31	3.366
477.66	3.148
478.01	2.898
478.36	2.991
478.70	2.857
479.05	3.425
479.40	3.011
479.75	3.170
480.10	3.269
480.45	2.963
480.79	3.401
481.14	2.757
481.49	2.862
481.84	3.307
482.19	3.140
482.53	2.755
482.88	3.545
483.23	2.801
483.58	2.751
483.92	2.482
484.27	3.133
484.62	3.259
484.97	3.733
485.31	2.851
485.66	3.187
486.01	3.084
486.36	3.107
486.70	3.468
487.05	3.249
487.40	2.972
487.75	3.511
488.09	3.212
488.44	2.990
488.79	3.912
489.13	3.114
489.48	2.485
489.83	2.736
490.17	2.957
490.52	3.243
490.87	3.469
491.22	2.730
491.56	3.626
491.91	2.835
492.26	2.726
492.60	2.930
492.95	3.028
493.30	2.645
493.64	2.497
493.99	3.640
494.34	2.787
494.68	2.484
495.03	2.907
495.37	3.107
495.72	3.220
496.07	3.330
496.41	2.917
496.76	3.294
497.11	2.590
497.45	2.892
497.80	3.865
498.14	3.265
498.49	2.941
498.84	2.879
499.18	3.419
499.53	2.960
499.87	2.945
500.22	2.627
500.56	2.744
500.91	2.792
501.26	3.045
501.60	3.137
501.95	3.474
502.29	3.072
502.64	2.886
502.98	3.581
503.33	2.808
503.67	2.529
504.02	2.890
504.36	3.217
504.71	2.848
505.06	3.092
505.40	3.199
505.75	3.324
506.09	3.177
506.44	3.482
506.78	3.486
507.13	2.997
507.47	3.363
507.82	3.835
508.16	2.438
508.51	2.860
508.85	2.929
509.19	3.174
509.54	3.506
509.88	2.574
510.23	3.011
510.57	3.673
510.92	3.290
511.26	2.934
511.61	2.752
511.95	3.075
512.30	3.742
512.64	3.298
512.98	3.352
513.33	3.427
513.67	2.805
514.02	3.628
514.36	2.813
514.70	3.073
515.05	3.285
515.39	3.360
515.74	3.499
516.08	3.117
516.42	3.715
516.77	3.260
517.11	3.043
517.46	3.712
517.80	3.848
518.14	3.428
518.49	3.037
518.83	3.246
519.17	2.962
519.52	3.826
519.86	3.168
520.20	3.355
520.55	4.053
520.89	3.435
521.23	3.406
521.58	3.446
521.92	3.286
522.26	3.551
522.61	3.472
522.95	3.576
523.29	2.586
523.64	4.204
523.98	3.822
524.32	3.725
524.66	3.017
525.01	3.567
525.35	2.757
525.69	3.248
526.04	3.272
526.38	2.759
526.72	3.691
527.06	2.757
527.41	3.615
527.75	3.325
528.09	3.306
528.43	3.967
528.78	2.890
529.12	2.982
529.46	3.148
529.80	3.432
530.15	3.420
530.49	2.847
530.83	3.365
531.17	3.106
531.51	3.369
531.86	3.726
532.20	3.963
532.54	3.591
532.88	3.455
533.22	4.243
533.57	3.289
533.91	3.311
534.25	3.618
534.59	2.874
534.93	2.999
535.27	3.268
535.62	3.809
535.96	4.067
536.30	3.760
536.64	3.483
536.98	3.690
537.32	4.136
537.66	3.244
538.01	3.867
538.35	3.776
538.69	3.486
539.03	3.985
539.37	3.828
539.71	3.964
540.05	3.537
540.39	3.056
540.73	2.975
541.07	3.495
541.42	3.071
541.76	3.677
542.10	3.619
542.44	3.350
542.78	3.285
543.12	3.874
543.46	3.907
543.80	2.998
544.14	3.411
544.48	3.428
544.82	4.069
545.16	3.339
545.50	3.595
545.84	3.491
546.18	5.432
546.52	3.758
546.86	3.711
547.20	3.308
547.54	3.246
547.88	3.797
548.22	2.632
548.56	2.984
548.90	3.164
549.24	3.526
549.58	3.533
549.92	3.380
550.26	3.883
550.60	4.531
550.94	3.493
551.28	4.488
551.62	4.043
551.96	4.142
552.30	4.716
552.64	3.734
552.98	4.055
553.32	3.987
553.66	3.601
554.00	4.224
554.34	3.990
554.68	4.003
555.02	4.336
555.36	4.076
555.69	3.523
556.03	4.098
556.37	4.193
556.71	3.297
557.05	4.089
557.39	4.380
557.73	4.359
558.07	2.980
558.41	4.252
558.75	4.462
559.08	3.479
559.42	3.155
559.76	4.681
560.10	4.421
560.44	3.694
560.78	4.625
561.12	4.557
561.45	4.805
561.79	3.785
562.13	4.559
562.47	3.514
562.81	4.114
563.15	4.293
563.48	4.351
563.82	3.930
564.16	3.755
564.50	4.291
564.84	4.189
565.17	4.294
565.51	3.510
565.85	3.504
566.19	3.571
566.52	4.096
566.86	4.527
567.20	4.024
567.54	3.717
567.88	4.434
568.21	3.557
568.55	3.741
568.89	4.539
569.23	4.689
569.56	4.533
569.90	4.027
570.24	4.283
570.57	3.945
570.91	3.919
571.25	4.397
571.59	4.286
571.92	4.478
572.26	4.341
572.60	4.341
572.93	4.175
573.27	3.934
573.61	3.997
573.95	4.030
574.28	4.321
574.62	4.093
574.96	4.080
575.29	4.296
575.63	4.158
575.97	4.431
576.30	4.096
576.64	4.414
576.98	4.146
577.31	4.227
577.65	4.395
577.98	4.311
578.32	3.990
578.66	4.278
578.99	4.014
579.33	4.357
579.67	4.125
580.00	4.293
580.34	4.058
580.67	4.170
581.01	4.262
581.35	4.169
581.68	4.082
582.02	4.283
582.35	4.324
582.69	4.465
583.02	4.373
583.36	4.169
583.70	3.931
584.03	4.440
584.37	4.345
584.70	3.961
585.04	3.953
585.37	3.955
585.71	4.337
586.04	4.139
586.38	4.225
586.72	4.011
587.05	3.965
587.39	3.989
587.72	4.187
588.06	4.618
588.39	4.332
588.73	4.048
589.06	4.543
589.40	4.057
589.73	4.242
590.07	4.111
590.40	4.598
590.73	4.242
591.07	4.691
591.40	3.849
591.74	3.855
592.07	4.466
592.41	4.101
592.74	4.153
593.08	4.777
593.41	4.520
593.75	4.454
594.08	3.908
594.41	4.231
594.75	4.384
595.08	3.937
595.42	4.091
595.75	4.391
596.09	4.371
596.42	4.694
596.75	4.786
597.09	4.525
597.42	4.370
597.75	4.155
598.09	4.246
598.42	4.584
598.76	4.089
599.09	4.236
599.42	4.358
599.76	4.160
600.09	4.538
600.42	4.538
600.76	4.128
601.09	4.580
601.42	4.291
601.76	4.655
602.09	4.289
602.42	4.289
602.76	4.280
603.09	4.038
603.42	4.841
603.76	3.594
604.09	5.004
604.42	4.257
604.76	4.756
605.09	4.547
605.42	4.147
605.75	4.231
606.09	3.994
606.42	4.524
606.75	4.010
607.09	4.109
607.42	4.586
607.75	4.181
608.08	4.144
608.42	4.474
608.75	4.519
609.08	4.244
609.41	4.058
609.75	4.375
610.08	4.354
610.41	4.545
610.74	4.622
611.07	3.774
611.41	3.991
611.74	4.434
612.07	4.161
612.40	4.230
612.73	4.303
613.07	4.450
613.40	4.475
613.73	3.948
614.06	4.220
614.39	3.693
614.72	4.270
615.06	4.139
615.39	3.673
615.72	3.981
616.05	4.322
616.38	3.683
616.71	3.918
617.05	4.207
617.38	4.441
617.71	4.374
618.04	4.425
618.37	4.645
618.70	4.808
619.03	3.286
619.36	4.192
619.69	3.716
620.03	4.457
620.36	3.988
620.69	3.578
621.02	4.331
621.35	4.354
621.68	3.977
622.01	3.843
622.34	3.835
622.67	3.986
623.00	2.564
623.33	3.716
623.66	4.345
623.99	3.555
624.32	4.938
624.65	3.604
624.99	4.161
625.32	4.964
625.65	4.113
625.98	3.864
626.31	4.323
626.64	3.297
626.97	3.376
627.30	3.265
627.63	3.751
627.96	4.955
628.29	4.514
628.62	3.023
628.95	3.593
629.28	3.908
629.61	3.620
629.94	2.929
630.26	2.966
630.59	3.195
630.92	3.810
631.25	4.741
631.58	3.672
631.91	3.280
632.24	4.131
632.57	3.985
632.90	3.611
633.23	4.184
633.56	3.163
633.89	2.686
634.22	4.054
634.55	4.906
634.88	3.571
635.20	5.167
635.53	3.842
635.86	5.634
636.19	4.136
636.52	3.586
636.85	3.473
637.18	3.846
637.51	3.011
637.83	4.983
638.16	3.802
638.49	2.465
638.82	4.171
639.15	2.176
639.48	4.388
639.81	3.926
640.13	3.298
640.46	2.788
640.79	4.044
641.12	3.478
641.45	2.258
641.77	4.493
642.10	3.150
642.43	4.521
642.76	1.491
643.09	1.644
643.41	2.521
643.74	3.310
644.07	4.690
644.40	3.678
644.73	2.032
645.05	2.056
645.38	4.173
645.71	4.545
646.04	6.600
646.36	3.066
646.69	1.994
647.02	3.058
647.35	3.664
647.67	3.382
648.00	2.707
648.33	3.604
648.66	3.709
648.98	3.265
649.31	4.195
649.64	5.179
649.96	3.050
650.29	2.364
650.62	3.678
650.94	3.303
651.27	1.647
651.60	2.778
651.92	3.495
652.25	3.473
652.58	4.539
652.90	3.488
653.23	4.507
653.56	3.566
653.88	5.618
654.21	2.676
654.54	3.179
654.86	3.541
655.19	2.133
655.52	3.990
