SpectraSuite Data File
++++++++++++++++++++++++++++++++++++
Date: Thu May 14 14:55:48 PDT 2015
User: schluterlab
Dark Spectrum Present: Yes
Reference Spectrum Present: Yes
Number of Sampled Component Spectra: 1
Spectrometers: USB2E3373
Integration Time (usec): 3000 (USB2E3373)
Spectra Averaged: 3 (USB2E3373)
Boxcar Smoothing: 0 (USB2E3373)
Correct for Electrical Dark: No (USB2E3373)
Strobe/Lamp Enabled: No (USB2E3373)
Correct for Detector Non-linearity: No (USB2E3373)
Correct for Stray Light: No (USB2E3373)
Number of Pixels in Processed Spectrum: 2048
>>>>>Begin Processed Spectral Data<<<<<
178.53	0.000
178.91	300.000
179.29	-2600.000
179.67	-2100.000
180.04	285.714
180.42	190.000
180.80	340.000
181.18	-1900.000
181.56	-500.000
181.94	400.000
182.31	-375.000
182.69	633.333
183.07	-400.000
183.45	500.000
183.83	-183.333
184.20	-466.667
184.58	1800.000
184.96	-525.000
185.34	-222.222
185.72	-280.000
186.09	322.222
186.47	1100.000
186.85	420.000
187.23	-211.111
187.61	-2000.000
187.98	280.000
188.36	375.000
188.74	-475.000
189.12	-633.333
189.49	-93.750
189.87	-237.500
190.25	-100.000
190.63	-320.000
191.00	-255.556
191.38	0.000
191.76	-450.000
192.14	-283.333
192.51	900.000
192.89	-233.333
193.27	0.000
193.65	-200.000
194.02	-1700.000
194.40	-185.714
194.78	271.429
195.15	0.000
195.53	-163.636
195.91	0.000
196.29	-550.000
196.66	-115.385
197.04	-2300.000
197.42	-157.143
197.79	-850.000
198.17	-250.000
198.55	-314.286
198.92	-122.222
199.30	-137.500
199.68	-18.182
200.05	-35.714
200.43	-1000.000
200.81	342.857
201.18	0.000
201.56	277.778
201.94	0.000
202.31	800.000
202.69	-300.000
203.07	1000.000
203.44	-233.333
203.82	-575.000
204.19	-166.667
204.57	-316.667
204.95	-312.500
205.32	-1400.000
205.70	300.000
206.08	-333.333
206.45	-200.000
206.83	480.000
207.20	-216.667
207.58	-320.000
207.96	-350.000
208.33	-266.667
208.71	158.333
209.08	-183.333
209.46	0.000
209.84	500.000
210.21	850.000
210.59	1200.000
210.96	1066.667
211.34	-325.000
211.71	-237.500
212.09	-2000.000
212.46	0.000
212.84	1750.000
213.22	-420.000
213.59	-425.000
213.97	-130.000
214.34	-566.667
214.72	250.000
215.09	-350.000
215.47	0.000
215.84	171.429
216.22	1300.000
216.59	-260.000
216.97	-440.000
217.34	-575.000
217.72	-175.000
218.09	-375.000
218.47	-400.000
218.84	0.000
219.22	320.000
219.59	-58.824
219.97	-35.000
220.34	700.000
220.72	-211.111
221.09	-107.692
221.47	-433.333
221.84	-170.000
222.22	-242.857
222.59	0.000
222.97	-100.000
223.34	-280.000
223.72	-1400.000
224.09	-550.000
224.46	-525.000
224.84	-220.000
225.21	-414.286
225.59	-625.000
225.96	-475.000
226.34	-15.385
226.71	433.333
227.08	-1050.000
227.46	-60.000
227.83	-350.000
228.21	-57.895
228.58	287.500
228.95	1200.000
229.33	-166.667
229.70	-170.000
230.08	-21.053
230.45	160.000
230.82	-300.000
231.20	-71.429
231.57	-175.000
231.95	-145.455
232.32	-109.091
232.69	-35.000
233.07	-500.000
233.44	-64.706
233.81	-230.000
234.19	-66.667
234.56	-54.545
234.93	-20.690
235.31	-110.526
235.68	-116.667
236.05	-125.000
236.43	-15.385
236.80	-52.000
237.17	-66.667
237.55	-63.636
237.92	-230.000
238.29	-51.613
238.67	-31.818
239.04	-44.444
239.41	-50.000
239.79	-30.435
240.16	-29.630
240.53	-23.913
240.91	-50.980
241.28	-22.951
241.65	-16.418
242.02	-18.919
242.40	-26.154
242.77	-8.000
243.14	-24.390
243.51	-31.579
243.89	-34.615
244.26	-13.861
244.63	-12.745
245.00	-10.280
245.38	-16.667
245.75	-14.159
246.12	-15.079
246.49	-16.279
246.87	-7.857
247.24	-3.974
247.61	-11.184
247.98	-7.383
248.36	-9.877
248.73	-17.178
249.10	-8.197
249.47	-0.498
249.84	-3.665
250.22	-8.290
250.59	-3.889
250.96	-3.636
251.33	-13.265
251.70	-4.274
252.08	-4.583
252.45	-5.738
252.82	-10.744
253.19	-8.594
253.56	-5.323
253.94	-8.077
254.31	-4.167
254.68	0.350
255.05	-3.583
255.42	-6.803
255.79	-7.767
256.16	-5.960
256.54	-7.947
256.91	-7.213
257.28	-7.213
257.65	-2.866
258.02	-5.605
258.39	-3.134
258.76	-2.752
259.14	-1.149
259.51	-4.323
259.88	-6.232
260.25	-5.000
260.62	-2.192
260.99	-1.913
261.36	-2.145
261.73	-6.101
262.10	-3.297
262.47	-4.290
262.85	0.253
263.22	-4.935
263.59	-7.105
263.96	-3.581
264.33	-4.604
264.70	-5.679
265.07	-2.864
265.44	-0.680
265.81	-2.083
266.18	-1.814
266.55	-1.339
266.92	-4.784
267.29	-1.969
267.66	-4.878
268.03	-2.183
268.40	-3.967
268.77	-5.923
269.14	-6.167
269.51	-1.754
269.88	-0.205
270.25	-2.213
270.62	-3.376
270.99	-0.404
271.36	-0.792
271.73	-2.947
272.10	-1.603
272.47	-3.206
272.84	-1.406
273.21	-2.806
273.58	-2.419
273.95	-2.885
274.32	-3.422
274.69	-5.222
275.06	-2.381
275.43	-2.773
275.80	-1.235
276.17	-2.778
276.54	-3.731
276.91	-3.041
277.28	-2.351
277.65	-2.693
278.02	-2.022
278.39	-2.355
278.76	-4.569
279.13	-2.305
279.50	-1.031
279.87	-1.968
280.23	-4.049
280.60	-0.678
280.97	-0.987
281.34	-3.056
281.71	-1.184
282.08	-2.990
282.45	-2.128
282.82	-3.140
283.19	-5.170
283.56	-3.934
283.92	-0.300
284.29	-1.106
284.66	-0.164
285.03	-3.205
285.40	-2.318
285.77	-3.096
286.14	-1.221
286.51	-1.674
286.87	-3.476
287.24	-0.753
287.61	-1.794
287.98	-1.360
288.35	-2.367
288.72	-1.331
289.08	-2.635
289.45	-3.846
289.82	-3.012
290.19	-3.017
290.56	-2.254
290.93	-2.710
291.29	-1.240
291.66	-2.204
292.03	-2.849
292.40	-0.544
292.77	-2.156
293.13	-2.571
293.50	-2.497
293.87	-1.342
294.24	-0.267
294.60	-0.632
294.97	-4.430
295.34	-0.640
295.71	-2.018
296.08	-3.230
296.44	-2.083
296.81	-2.071
297.18	-2.117
297.55	-1.769
297.91	-1.661
298.28	-2.488
298.65	-0.476
299.02	-2.361
299.38	-1.945
299.75	-1.402
300.12	-3.125
300.48	-2.074
300.85	-1.237
301.22	-1.007
301.59	-2.511
301.95	-3.503
302.32	0.000
302.69	-1.314
303.05	-1.741
303.42	-1.885
303.79	-2.188
304.15	-1.052
304.52	-2.008
304.89	-1.780
305.25	-1.553
305.62	-1.567
305.99	-1.237
306.35	-1.008
306.72	-0.414
307.09	-2.132
307.45	-1.863
307.82	-0.908
308.19	-1.211
308.55	-1.061
308.92	-1.363
309.29	-0.766
309.65	-2.047
310.02	-2.079
310.38	-2.461
310.75	-1.359
311.12	-1.151
311.48	-2.835
311.85	-1.804
312.22	-1.803
312.58	-1.315
312.95	-1.625
313.31	-1.536
313.68	-0.824
314.05	-0.271
314.41	-0.729
314.78	-0.908
315.14	-1.089
315.51	-0.831
315.87	0.000
316.24	-0.913
316.61	0.089
316.97	-1.538
317.34	-1.675
317.70	-0.961
318.07	-1.146
318.43	-0.765
318.80	-0.167
319.16	-1.030
319.53	-2.057
319.89	-1.139
320.26	-0.801
320.62	-1.152
320.99	-0.369
321.35	-1.109
321.72	-0.372
322.08	-1.353
322.45	-1.084
322.81	-1.173
323.18	-0.619
323.54	-0.345
323.91	-0.801
324.27	0.000
324.64	0.336
325.00	-0.746
325.37	0.410
325.73	0.248
326.10	0.081
326.46	0.326
326.83	-0.240
327.19	0.079
327.56	-0.079
327.92	-0.551
328.29	-0.484
328.65	-1.005
329.01	-0.508
329.38	-0.674
329.74	0.171
330.11	0.599
330.47	-0.337
330.84	-0.775
331.20	0.333
331.56	-0.693
331.93	0.251
332.29	-0.678
332.66	0.000
333.02	-0.754
333.38	-0.503
333.75	-0.673
334.11	-1.084
334.48	-0.413
334.84	0.000
335.20	-0.588
335.57	0.084
335.93	0.744
336.29	-0.998
336.66	-0.841
337.02	-0.585
337.38	0.765
337.75	0.000
338.11	-0.505
338.47	0.248
338.84	-1.015
339.20	-0.505
339.56	-0.577
339.93	-0.082
340.29	0.966
340.65	-0.162
341.02	0.798
341.38	0.647
341.74	-1.049
342.11	0.080
342.47	0.000
342.83	0.081
343.20	-0.491
343.56	-1.043
343.92	0.240
344.28	0.859
344.65	0.465
345.01	0.468
345.37	0.467
345.73	-0.779
346.10	0.234
346.46	-0.791
346.82	0.899
347.19	-0.382
347.55	0.303
347.91	-0.446
348.27	-0.759
348.63	0.381
349.00	-0.149
349.36	0.000
349.72	-0.074
350.08	0.892
350.45	-1.217
350.81	0.603
351.17	0.075
351.53	0.076
351.89	0.683
352.26	-0.299
352.62	0.149
352.98	-0.229
353.34	0.373
353.70	-0.077
354.07	0.149
354.43	-0.532
354.79	0.000
355.15	0.368
355.51	0.804
355.87	-0.150
356.24	0.076
356.60	-0.296
356.96	0.074
357.32	0.000
357.68	-0.220
358.04	-0.075
358.40	-0.522
358.77	0.804
359.13	-0.222
359.49	-1.487
359.85	-0.218
360.21	0.646
360.57	-0.287
360.93	-0.071
361.29	1.053
361.66	0.000
362.02	0.418
362.38	0.422
362.74	0.419
363.10	0.481
363.46	0.069
363.82	-0.213
364.18	-0.352
364.54	0.207
364.90	0.468
365.26	-0.069
365.62	0.800
365.98	0.272
366.35	0.000
366.71	0.748
367.07	0.541
367.43	0.394
367.79	0.730
368.15	0.602
368.51	0.609
368.87	0.653
369.23	0.400
369.59	-0.273
369.95	0.270
370.31	0.675
370.67	0.275
371.03	0.554
371.39	-0.537
371.75	-0.275
372.11	-0.271
372.47	0.406
372.83	1.178
373.19	0.200
373.55	0.407
373.91	-0.682
374.27	0.582
374.63	0.000
374.99	0.796
375.35	0.779
375.71	0.645
376.07	0.581
376.42	0.756
376.78	0.870
377.14	0.374
377.50	0.127
377.86	1.601
378.22	0.539
378.58	0.832
378.94	1.056
379.30	0.703
379.66	0.999
380.02	0.981
380.38	0.864
380.74	0.676
381.09	0.523
381.45	0.739
381.81	1.815
382.17	1.425
382.53	0.994
382.89	1.580
383.25	0.176
383.61	-0.058
383.97	0.883
384.32	0.778
384.68	0.290
385.04	1.215
385.40	0.825
385.76	1.290
386.12	1.257
386.48	1.176
386.83	1.311
387.19	1.043
387.55	0.469
387.91	0.628
388.27	1.039
388.62	1.260
388.98	1.128
389.34	1.296
389.70	1.162
390.06	1.243
390.42	0.361
390.77	1.445
391.13	1.232
391.49	1.389
391.85	1.333
392.20	0.771
392.56	1.122
392.92	1.418
393.28	1.327
393.64	0.950
393.99	1.395
394.35	1.051
394.71	1.617
395.07	0.719
395.42	1.485
395.78	1.645
396.14	1.901
396.50	0.356
396.85	1.014
397.21	1.124
397.57	0.883
397.92	0.974
398.28	0.489
398.64	0.915
399.00	1.099
399.35	1.466
399.71	1.467
400.07	1.179
400.42	0.582
400.78	0.694
401.14	0.911
401.49	1.364
401.85	0.814
402.21	1.101
402.57	0.880
402.92	1.005
403.28	0.820
403.63	0.239
403.99	0.356
404.35	1.706
404.70	1.246
405.06	1.196
405.42	0.937
405.77	1.636
406.13	1.459
406.49	1.126
406.84	1.607
407.20	0.783
407.55	0.787
407.91	0.754
408.27	2.002
408.62	1.105
408.98	0.871
409.34	0.176
409.69	0.865
410.05	0.938
410.40	1.798
410.76	1.010
411.11	1.110
411.47	1.413
411.83	1.411
412.18	1.325
412.54	1.363
412.89	1.339
413.25	1.129
413.60	1.436
413.96	1.573
414.31	1.246
414.67	1.610
415.03	0.554
415.38	1.387
415.74	1.222
416.09	1.357
416.45	1.440
416.80	1.285
417.16	1.277
417.51	1.183
417.87	1.349
418.22	0.838
418.58	0.434
418.93	1.339
419.29	0.740
419.64	1.020
420.00	0.297
420.35	1.797
420.71	0.919
421.06	0.633
421.42	1.261
421.77	1.023
422.12	1.427
422.48	1.536
422.83	1.041
423.19	1.538
423.54	0.996
423.90	1.491
424.25	1.920
424.61	0.574
424.96	0.934
425.31	1.752
425.67	0.698
426.02	1.273
426.38	1.607
426.73	1.004
427.09	2.191
427.44	0.874
427.79	1.382
428.15	0.913
428.50	0.899
428.85	1.033
429.21	1.915
429.56	1.234
429.92	0.934
430.27	1.398
430.62	1.856
430.98	1.033
431.33	1.271
431.68	1.485
432.04	0.914
432.39	1.125
432.74	1.655
433.10	1.785
433.45	0.725
433.80	1.824
434.16	1.653
434.51	0.874
434.86	1.574
435.22	1.382
435.57	1.533
435.92	1.669
436.28	1.251
436.63	1.693
436.98	1.879
437.34	1.353
437.69	1.046
438.04	1.481
438.39	1.091
438.75	1.605
439.10	1.797
439.45	1.118
439.81	1.130
440.16	1.287
440.51	1.505
440.86	0.778
441.22	1.340
441.57	1.101
441.92	1.552
442.27	1.515
442.63	2.285
442.98	1.654
443.33	1.631
443.68	1.982
444.03	1.693
444.39	1.942
444.74	1.633
445.09	1.318
445.44	1.212
445.79	1.389
446.15	1.799
446.50	1.292
446.85	2.286
447.20	2.176
447.55	2.092
447.91	1.780
448.26	1.427
448.61	2.179
448.96	1.878
449.31	1.750
449.66	0.817
450.02	1.688
450.37	1.971
450.72	1.130
451.07	2.278
451.42	1.213
451.77	0.723
452.12	1.016
452.47	0.951
452.83	1.351
453.18	1.518
453.53	0.919
453.88	2.264
454.23	1.356
454.58	1.567
454.93	0.667
455.28	2.348
455.63	1.990
455.98	2.011
456.34	1.119
456.69	1.470
457.04	1.241
457.39	1.275
457.74	1.734
458.09	1.593
458.44	1.401
458.79	1.650
459.14	1.678
459.49	1.868
459.84	1.784
460.19	1.444
460.54	1.306
460.89	1.218
461.24	0.690
461.59	1.605
461.94	0.970
462.29	1.456
462.64	1.328
462.99	1.444
463.34	1.233
463.69	2.169
464.04	1.890
464.39	1.345
464.74	1.539
465.09	1.499
465.44	1.180
465.79	2.221
466.14	1.928
466.49	1.895
466.84	1.598
467.19	1.214
467.54	1.880
467.89	1.494
468.24	2.105
468.59	0.521
468.94	1.690
469.29	0.960
469.64	2.098
469.99	1.083
470.34	1.176
470.68	1.230
471.03	1.441
471.38	1.112
471.73	0.585
472.08	1.586
472.43	1.626
472.78	1.826
473.13	0.632
473.48	1.631
473.83	2.147
474.17	1.407
474.52	0.902
474.87	1.938
475.22	1.690
475.57	1.817
475.92	1.593
476.27	1.278
476.61	2.129
476.96	1.147
477.31	1.683
477.66	1.784
478.01	1.881
478.36	1.196
478.70	1.232
479.05	1.994
479.40	2.221
479.75	2.305
480.10	1.421
480.45	1.960
480.79	2.041
481.14	1.746
481.49	2.135
481.84	2.306
482.19	2.108
482.53	2.186
482.88	1.551
483.23	1.779
483.58	1.485
483.92	1.640
484.27	1.778
484.62	1.609
484.97	2.294
485.31	1.619
485.66	1.836
486.01	2.124
486.36	2.296
486.70	2.184
487.05	2.338
487.40	2.113
487.75	2.443
488.09	2.085
488.44	2.127
488.79	2.091
489.13	2.100
489.48	1.864
489.83	1.650
490.17	1.458
490.52	2.176
490.87	2.030
491.22	1.386
491.56	2.176
491.91	2.006
492.26	2.034
492.60	1.793
492.95	1.931
493.30	1.658
493.64	1.708
493.99	1.711
494.34	1.263
494.68	1.585
495.03	1.894
495.37	1.553
495.72	1.905
496.07	1.621
496.41	1.716
496.76	2.043
497.11	1.868
497.45	1.554
497.80	2.044
498.14	1.224
498.49	1.654
498.84	1.782
499.18	2.114
499.53	2.018
499.87	2.022
500.22	1.558
500.56	1.664
500.91	1.419
501.26	1.727
501.60	1.900
501.95	2.041
502.29	1.580
502.64	1.924
502.98	2.373
503.33	1.685
503.67	1.570
504.02	2.014
504.36	1.564
504.71	1.194
505.06	1.501
505.40	1.691
505.75	2.049
506.09	1.519
506.44	1.718
506.78	2.339
507.13	2.351
507.47	1.705
507.82	1.610
508.16	1.195
508.51	1.688
508.85	1.417
509.19	2.037
509.54	2.113
509.88	1.603
510.23	1.506
510.57	1.837
510.92	1.451
511.26	1.924
511.61	1.400
511.95	1.952
512.30	1.723
512.64	1.599
512.98	1.551
513.33	1.714
513.67	1.836
514.02	2.044
514.36	1.483
514.70	2.188
515.05	2.138
515.39	1.417
515.74	2.227
516.08	2.113
516.42	2.302
516.77	1.630
517.11	2.372
517.46	2.174
517.80	2.031
518.14	1.850
518.49	2.386
518.83	2.395
519.17	1.831
519.52	1.992
519.86	1.901
520.20	2.609
520.55	1.479
520.89	1.520
521.23	2.178
521.58	1.638
521.92	1.813
522.26	1.604
522.61	1.852
522.95	1.730
523.29	1.494
523.64	2.018
523.98	2.396
524.32	2.063
524.66	2.504
525.01	1.416
525.35	1.321
525.69	1.798
526.04	1.837
526.38	1.322
526.72	1.845
527.06	1.466
527.41	1.633
527.75	2.019
528.09	1.653
528.43	1.954
528.78	0.983
529.12	1.778
529.46	1.686
529.80	2.231
530.15	1.739
530.49	1.068
530.83	2.125
531.17	1.314
531.51	1.745
531.86	1.803
532.20	2.317
532.54	2.035
532.88	1.455
533.22	2.004
533.57	2.020
533.91	2.581
534.25	2.092
534.59	1.839
534.93	1.981
535.27	2.028
535.62	2.103
535.96	2.266
536.30	1.704
536.64	2.282
536.98	2.337
537.32	2.037
537.66	2.059
538.01	2.236
538.35	2.010
538.69	1.262
539.03	2.023
539.37	2.768
539.71	1.562
540.05	2.278
540.39	1.711
540.73	1.639
541.07	1.901
541.42	1.890
541.76	1.898
542.10	1.870
542.44	1.462
542.78	2.372
543.12	2.265
543.46	2.503
543.80	1.139
544.14	1.436
544.48	1.832
544.82	2.095
545.16	1.968
545.50	2.037
545.84	1.715
546.18	2.654
546.52	1.656
546.86	2.075
547.20	2.036
547.54	1.810
547.88	1.808
548.22	1.111
548.56	1.814
548.90	1.552
549.24	1.581
549.58	1.514
549.92	1.084
550.26	1.618
550.60	2.361
550.94	1.876
551.28	1.518
551.62	2.224
551.96	2.395
552.30	2.741
552.64	1.431
552.98	2.121
553.32	1.479
553.66	1.543
554.00	1.955
554.34	1.802
554.68	1.743
555.02	1.643
555.36	3.156
555.69	0.961
556.03	2.018
556.37	1.815
556.71	1.776
557.05	1.917
557.39	1.194
557.73	1.783
558.07	1.656
558.41	2.791
558.75	1.690
559.08	1.461
559.42	1.372
559.76	2.239
560.10	2.411
560.44	1.649
560.78	2.500
561.12	1.909
561.45	2.129
561.79	2.137
562.13	2.095
562.47	1.973
562.81	1.519
563.15	1.768
563.48	2.300
563.82	2.418
564.16	1.696
564.50	1.192
564.84	1.534
565.17	1.706
565.51	1.726
565.85	1.841
566.19	1.728
566.52	1.463
566.86	1.585
567.20	1.794
567.54	1.593
567.88	2.141
568.21	1.927
568.55	2.350
568.89	2.497
569.23	2.239
569.56	1.719
569.90	2.031
570.24	2.024
570.57	1.988
570.91	1.715
571.25	1.967
571.59	2.505
571.92	2.052
572.26	2.170
572.60	2.129
572.93	2.310
573.27	2.135
573.61	2.356
573.95	2.355
574.28	2.242
574.62	2.228
574.96	1.853
575.29	2.225
575.63	2.102
575.97	2.275
576.30	2.295
576.64	2.076
576.98	2.278
577.31	2.431
577.65	2.414
577.98	2.485
578.32	2.261
578.66	2.035
578.99	2.273
579.33	1.912
579.67	2.493
580.00	2.248
580.34	2.552
580.67	2.096
581.01	2.034
581.35	2.182
581.68	2.484
582.02	2.524
582.35	2.401
582.69	2.463
583.02	2.243
583.36	2.300
583.70	2.113
584.03	2.280
584.37	2.246
584.70	2.103
585.04	2.279
585.37	2.519
585.71	2.373
586.04	2.114
586.38	2.112
586.72	2.031
587.05	2.098
587.39	2.019
587.72	2.344
588.06	2.345
588.39	2.440
588.73	2.063
589.06	2.144
589.40	1.967
589.73	2.217
590.07	2.122
590.40	2.333
590.73	2.192
591.07	2.234
591.40	2.411
591.74	1.908
592.07	1.989
592.41	1.932
592.74	1.952
593.08	2.357
593.41	2.712
593.75	1.925
594.08	2.424
594.41	2.212
594.75	2.059
595.08	1.682
595.42	2.208
595.75	2.422
596.09	2.067
596.42	2.078
596.75	2.393
597.09	2.747
597.42	2.424
597.75	2.666
598.09	2.460
598.42	2.211
598.76	1.796
599.09	1.780
599.42	2.011
599.76	2.377
600.09	2.402
600.42	2.402
600.76	2.147
601.09	2.356
601.42	2.540
601.76	2.034
602.09	2.001
602.42	1.999
602.76	2.472
603.09	1.725
603.42	1.987
603.76	1.727
604.09	2.413
604.42	2.312
604.76	1.750
605.09	1.955
605.42	2.193
605.75	1.885
606.09	2.016
606.42	2.080
606.75	1.949
607.09	1.767
607.42	2.081
607.75	1.641
608.08	2.052
608.42	1.894
608.75	2.570
609.08	1.868
609.41	1.676
609.75	1.295
610.08	2.067
610.41	1.954
610.74	2.185
611.07	1.599
611.41	2.377
611.74	2.309
612.07	2.431
612.40	1.236
612.73	1.467
613.07	1.858
613.40	2.262
613.73	2.118
614.06	2.061
614.39	2.430
614.72	1.989
615.06	1.877
615.39	1.595
615.72	2.180
616.05	1.603
616.38	1.917
616.71	1.776
617.05	1.384
617.38	2.675
617.71	1.242
618.04	1.673
618.37	1.803
618.70	1.867
619.03	1.613
619.36	2.219
619.69	1.986
620.03	1.883
620.36	1.411
620.69	1.727
621.02	1.837
621.35	1.161
621.68	1.663
622.01	2.064
622.34	2.092
622.67	0.962
623.00	-0.067
623.33	1.725
623.66	2.270
623.99	1.448
624.32	3.054
624.65	1.351
624.99	1.495
625.32	2.743
625.65	1.888
625.98	0.678
626.31	1.488
626.64	2.125
626.97	1.725
627.30	0.987
627.63	1.500
627.96	2.477
628.29	1.556
628.62	1.259
628.95	1.490
629.28	0.595
629.61	1.768
629.94	0.418
630.26	1.186
630.59	1.036
630.92	1.732
631.25	2.057
631.58	1.883
631.91	0.562
632.24	0.961
632.57	1.233
632.90	0.100
633.23	1.224
633.56	1.633
633.89	0.413
634.22	1.559
634.55	0.835
634.88	0.541
635.20	2.583
635.53	0.791
635.86	1.192
636.19	1.803
636.52	2.321
636.85	0.715
637.18	-0.624
637.51	0.538
637.83	1.440
638.16	0.806
638.49	0.235
638.82	0.564
639.15	0.229
639.48	1.386
639.81	0.693
640.13	1.649
640.46	-0.364
640.79	0.490
641.12	1.491
641.45	0.627
641.77	2.953
642.10	1.050
642.43	0.665
642.76	-0.678
643.09	-1.233
643.41	-0.280
643.74	0.690
644.07	2.621
644.40	-1.414
644.73	1.597
645.05	-0.881
645.38	2.590
645.71	0.147
646.04	2.009
646.36	1.022
646.69	-0.613
647.02	0.765
647.35	1.374
647.67	0.322
648.00	-0.637
648.33	1.952
648.66	0.143
648.98	-0.408
649.31	-0.135
649.64	1.195
