SpectraSuite Data File
++++++++++++++++++++++++++++++++++++
Date: Thu May 14 15:04:04 PDT 2015
User: schluterlab
Dark Spectrum Present: Yes
Reference Spectrum Present: Yes
Number of Sampled Component Spectra: 1
Spectrometers: USB2E3373
Integration Time (usec): 3000 (USB2E3373)
Spectra Averaged: 3 (USB2E3373)
Boxcar Smoothing: 0 (USB2E3373)
Correct for Electrical Dark: No (USB2E3373)
Strobe/Lamp Enabled: No (USB2E3373)
Correct for Detector Non-linearity: No (USB2E3373)
Correct for Stray Light: No (USB2E3373)
Number of Pixels in Processed Spectrum: 2048
>>>>>Begin Processed Spectral Data<<<<<
178.53	0.000
178.91	342.857
179.29	-3100.000
179.67	-2300.000
180.04	300.000
180.42	230.000
180.80	520.000
181.18	-2000.000
181.56	-600.000
181.94	500.000
182.31	-350.000
182.69	1033.333
183.07	-1000.000
183.45	700.000
183.83	-366.667
184.20	-1000.000
184.58	2500.000
184.96	-600.000
185.34	-266.667
185.72	-380.000
186.09	333.333
186.47	1400.000
186.85	580.000
187.23	-255.556
187.61	-2800.000
187.98	340.000
188.36	525.000
188.74	-500.000
189.12	-533.333
189.49	-81.250
189.87	-312.500
190.25	-144.444
190.63	-280.000
191.00	-166.667
191.38	0.000
191.76	-525.000
192.14	-283.333
192.51	1250.000
192.89	-316.667
193.27	0.000
193.65	-285.714
194.02	-2500.000
194.40	-328.571
194.78	414.286
195.15	0.000
195.53	-100.000
195.91	0.000
196.29	-575.000
196.66	-207.692
197.04	-3800.000
197.42	-428.571
197.79	-1350.000
198.17	-275.000
198.55	-314.286
198.92	-222.222
199.30	-337.500
199.68	-100.000
200.05	-92.857
200.43	-1300.000
200.81	471.429
201.18	0.000
201.56	400.000
201.94	0.000
202.31	1266.667
202.69	-355.556
203.07	2600.000
203.44	-255.556
203.82	-550.000
204.19	-183.333
204.57	-316.667
204.95	-312.500
205.32	-3200.000
205.70	500.000
206.08	-333.333
206.45	-466.667
206.83	660.000
207.20	-333.333
207.58	-480.000
207.96	-450.000
208.33	-316.667
208.71	250.000
209.08	-83.333
209.46	0.000
209.84	450.000
210.21	650.000
210.59	1300.000
210.96	1266.667
211.34	-425.000
211.71	-225.000
212.09	-2400.000
212.46	0.000
212.84	1550.000
213.22	-540.000
213.59	-500.000
213.97	-180.000
214.34	-933.333
214.72	500.000
215.09	-750.000
215.47	0.000
215.84	385.714
216.22	1300.000
216.59	-340.000
216.97	-540.000
217.34	-550.000
217.72	-212.500
218.09	-375.000
218.47	-525.000
218.84	0.000
219.22	780.000
219.59	-105.882
219.97	-120.000
220.34	1300.000
220.72	-288.889
221.09	-153.846
221.47	-933.333
221.84	-310.000
222.22	-400.000
222.59	0.000
222.97	-212.500
223.34	-600.000
223.72	-2500.000
224.09	-550.000
224.46	-600.000
224.84	-300.000
225.21	-357.143
225.59	-775.000
225.96	-525.000
226.34	-88.462
226.71	416.667
227.08	-1550.000
227.46	-200.000
227.83	-800.000
228.21	-110.526
228.58	350.000
228.95	1650.000
229.33	-166.667
229.70	-240.000
230.08	-89.474
230.45	260.000
230.82	-866.667
231.20	-135.714
231.57	-141.667
231.95	-245.455
232.32	-209.091
232.69	-105.000
233.07	-625.000
233.44	-129.412
233.81	-260.000
234.19	-100.000
234.56	-122.727
234.93	-68.966
235.31	-105.263
235.68	-138.889
236.05	-120.000
236.43	-38.462
236.80	-40.000
237.17	-70.370
237.55	-48.485
237.92	-280.000
238.29	-80.645
238.67	-45.455
239.04	-52.778
239.41	-40.476
239.79	-45.652
240.16	-46.296
240.53	-54.348
240.91	-39.216
241.28	-37.705
241.65	-19.403
242.02	-25.676
242.40	-35.385
242.77	-29.333
243.14	-34.146
243.51	-36.842
243.89	-44.872
244.26	-22.772
244.63	-18.627
245.00	-24.299
245.38	-23.684
245.75	-33.628
246.12	-8.730
246.49	-22.481
246.87	-15.714
247.24	-12.583
247.61	-16.447
247.98	-16.107
248.36	-11.728
248.73	-17.791
249.10	-16.393
249.47	-3.483
249.84	-9.948
250.22	-11.917
250.59	-15.556
250.96	-8.636
251.33	-15.816
251.70	-8.547
252.08	-5.417
252.45	-4.508
252.82	-9.504
253.19	-9.375
253.56	-2.662
253.94	-8.462
254.31	-6.818
254.68	-8.392
255.05	-4.235
255.42	-5.102
255.79	-9.709
256.16	-5.960
256.54	-6.954
256.91	-7.869
257.28	-8.525
257.65	-12.102
258.02	-10.324
258.39	-4.558
258.76	-1.835
259.14	-4.598
259.51	-6.340
259.88	-6.516
260.25	-3.333
260.62	-5.205
260.99	-3.552
261.36	-5.094
261.73	-6.897
262.10	-9.615
262.47	-6.166
262.85	-1.515
263.22	-4.935
263.59	-7.895
263.96	-4.348
264.33	-4.348
264.70	-3.704
265.07	-1.671
265.44	-1.361
265.81	-5.787
266.18	-2.494
266.55	-2.902
266.92	-6.606
267.29	-4.376
267.66	-6.430
268.03	-5.022
268.40	-2.923
268.77	-5.011
269.14	-6.608
269.51	-3.289
269.88	-2.869
270.25	-2.817
270.62	-3.586
270.99	-1.616
271.36	-3.762
271.73	-3.733
272.10	-3.006
272.47	-6.212
272.84	-2.811
273.21	-4.810
273.58	-4.032
273.95	-4.231
274.32	-4.943
274.69	-4.255
275.06	-4.396
275.43	-4.067
275.80	-3.880
276.17	-5.185
276.54	-4.664
276.91	-4.830
277.28	-2.170
277.65	-1.975
278.02	-3.676
278.39	-3.623
278.76	-3.691
279.13	-3.014
279.50	-2.749
279.87	-1.789
280.23	-5.282
280.60	-2.881
280.97	-2.961
281.34	-4.924
281.71	-2.538
282.08	-1.827
282.45	-3.110
282.82	-2.512
283.19	-4.039
283.56	-5.082
283.92	-1.802
284.29	-0.474
284.66	-2.956
285.03	-5.128
285.40	-3.091
285.77	-4.025
286.14	-1.221
286.51	-2.740
286.87	-4.423
287.24	-1.807
287.61	-2.990
287.98	-3.776
288.35	-3.254
288.72	-1.775
289.08	-2.196
289.45	-2.663
289.82	-3.163
290.19	-2.011
290.56	-2.254
290.93	-2.710
291.29	-1.928
291.66	-3.030
292.03	-3.121
292.40	-1.497
292.77	-3.100
293.13	-1.894
293.50	-2.891
293.87	-2.953
294.24	-0.933
294.60	-0.253
294.97	-3.624
295.34	-1.280
295.71	-2.648
296.08	-3.230
296.44	-2.574
296.81	-1.949
297.18	-1.743
297.55	-1.533
297.91	-1.779
298.28	-2.370
298.65	-2.021
299.02	-2.715
299.38	-1.602
299.75	-1.402
300.12	-2.431
300.48	-1.498
300.85	-0.787
301.22	-0.783
301.59	-2.968
301.95	-1.243
302.32	-0.333
302.69	-2.519
303.05	-0.979
303.42	-1.663
303.79	-1.146
304.15	-0.736
304.52	-1.691
304.89	-1.885
305.25	-0.725
305.62	-1.776
305.99	-1.649
306.35	0.202
306.72	-0.310
307.09	-0.812
307.45	-0.104
307.82	-0.908
308.19	-1.211
308.55	-0.193
308.92	-0.389
309.29	0.670
309.65	-0.585
310.02	-0.990
310.38	-0.689
310.75	-0.777
311.12	0.479
311.48	-1.173
311.85	-0.380
312.22	-0.190
312.58	-0.939
312.95	0.574
313.31	1.626
313.68	1.190
314.05	1.265
314.41	0.729
314.78	0.999
315.14	2.269
315.51	1.662
315.87	2.250
316.24	2.374
316.61	3.108
316.97	1.357
317.34	1.499
317.70	2.620
318.07	2.116
318.43	3.656
318.80	4.181
319.16	3.519
319.53	2.228
319.89	2.717
320.26	5.071
320.62	3.280
320.99	4.524
321.35	5.176
321.72	5.767
322.08	4.869
322.45	5.781
322.81	7.220
323.18	6.018
323.54	5.862
323.91	7.295
324.27	6.971
324.64	7.976
325.00	7.711
325.37	8.190
325.73	9.421
326.10	9.570
326.46	10.668
326.83	11.689
327.19	11.260
327.56	11.225
327.92	10.936
328.29	11.452
328.65	11.893
329.01	12.775
329.38	12.637
329.74	13.784
330.11	14.555
330.47	13.479
330.84	14.643
331.20	14.667
331.56	14.558
331.93	15.649
332.29	16.017
332.66	14.867
333.02	15.159
333.38	15.604
333.75	14.815
334.11	15.680
334.48	15.017
334.84	16.568
335.20	15.533
335.57	16.442
335.93	16.033
336.29	16.722
336.66	16.737
337.02	16.054
337.38	16.071
337.75	15.207
338.11	17.241
338.47	15.633
338.84	14.805
339.20	15.586
339.56	16.310
339.93	16.256
340.29	15.298
340.65	16.058
341.02	16.600
341.38	16.492
341.74	15.093
342.11	15.929
342.47	15.647
342.83	15.942
343.20	16.926
343.56	16.840
343.92	15.933
344.28	16.250
344.65	16.124
345.01	15.835
345.37	16.330
345.73	16.056
346.10	16.225
346.46	15.506
346.82	16.180
347.19	15.126
347.55	15.630
347.91	15.973
348.27	15.478
348.63	15.994
349.00	15.436
349.36	15.539
349.72	15.774
350.08	15.230
350.45	15.209
350.81	14.630
351.17	15.714
351.53	16.300
351.89	15.262
352.26	15.896
352.62	15.224
352.98	15.267
353.34	14.787
353.70	15.408
354.07	15.052
354.43	15.186
354.79	15.782
355.15	15.085
355.51	16.155
355.87	15.034
356.24	15.589
356.60	14.634
356.96	16.234
357.32	14.721
357.68	15.373
358.04	14.820
358.40	14.552
358.77	15.570
359.13	15.066
359.49	15.316
359.85	15.011
360.21	14.993
360.57	15.291
360.93	14.316
361.29	16.140
361.66	16.582
362.02	16.493
362.38	15.882
362.74	15.223
363.10	15.543
363.46	16.343
363.82	15.128
364.18	15.552
364.54	14.938
364.90	16.656
365.26	15.448
365.62	16.400
365.98	16.270
366.35	14.832
366.71	16.599
367.07	15.900
367.43	16.612
367.79	16.523
368.15	15.920
368.51	16.712
368.87	15.088
369.23	16.200
369.59	15.574
369.95	16.227
370.31	16.475
370.67	16.094
371.03	16.136
371.39	14.909
371.75	16.369
372.11	15.921
372.47	16.114
372.83	16.361
373.19	15.544
373.55	15.515
373.91	15.406
374.27	16.494
374.63	16.712
374.99	17.042
375.35	17.597
375.71	16.645
376.07	16.204
376.42	16.562
376.78	17.091
377.14	15.908
377.50	16.509
377.86	17.118
378.22	16.587
378.58	16.766
378.94	16.197
379.30	16.989
379.66	17.284
380.02	16.734
380.38	16.647
380.74	17.352
381.09	17.596
381.45	16.591
381.81	18.150
382.17	17.458
382.53	18.129
382.89	17.777
383.25	17.175
383.61	16.377
383.97	16.372
384.32	17.823
384.68	16.821
385.04	17.409
385.40	18.621
385.76	18.171
386.12	18.552
386.48	18.471
386.83	17.640
387.19	16.802
387.55	17.782
387.91	17.637
388.27	18.014
388.62	18.442
388.98	17.992
389.34	18.032
389.70	17.606
390.06	17.644
390.42	17.289
390.77	18.061
391.13	17.195
391.49	18.357
391.85	16.970
392.20	18.090
392.56	17.956
392.92	17.884
393.28	17.192
393.64	18.101
393.99	17.955
394.35	18.166
394.71	18.743
395.07	17.485
395.42	16.962
395.78	18.647
396.14	18.122
396.50	17.933
396.85	18.545
397.21	18.343
397.57	17.786
397.92	18.442
398.28	17.328
398.64	17.277
399.00	17.644
399.35	18.377
399.71	17.717
400.07	17.743
400.42	17.928
400.78	17.593
401.14	17.871
401.49	17.055
401.85	18.314
402.21	18.714
402.57	18.369
402.92	17.553
403.28	17.564
403.63	17.422
403.99	18.171
404.35	17.567
404.70	18.017
405.06	17.717
405.42	18.443
405.77	18.321
406.13	17.072
406.49	18.412
406.84	18.061
407.20	17.999
407.55	16.959
407.91	17.976
408.27	16.843
408.62	17.219
408.98	17.818
409.34	17.009
409.69	18.603
410.05	18.757
410.40	18.097
410.76	16.713
411.11	19.053
411.47	18.059
411.83	17.989
412.18	18.614
412.54	18.613
412.89	17.928
413.25	18.397
413.60	18.150
413.96	18.298
414.31	18.470
414.67	17.651
415.03	18.646
415.38	17.528
415.74	18.265
416.09	18.754
416.45	18.410
416.80	18.605
417.16	19.029
417.51	18.493
417.87	18.884
418.22	18.802
418.58	17.782
418.93	19.150
419.29	19.112
419.64	18.427
420.00	18.694
420.35	19.203
420.71	18.265
421.06	18.459
421.42	18.291
421.77	17.932
422.12	18.499
422.48	19.099
422.83	20.044
423.19	19.257
423.54	19.801
423.90	19.437
424.25	20.107
424.61	18.599
424.96	20.319
425.31	20.754
425.67	18.948
426.02	20.587
426.38	19.977
426.73	20.033
427.09	20.588
427.44	19.716
427.79	20.453
428.15	19.692
428.50	20.056
428.85	19.977
429.21	20.745
429.56	20.731
429.92	20.246
430.27	20.771
430.62	20.909
430.98	20.758
431.33	19.892
431.68	20.785
432.04	21.432
432.39	21.050
432.74	20.833
433.10	21.092
433.45	21.182
433.80	20.708
434.16	21.901
434.51	21.120
434.86	21.716
435.22	22.157
435.57	21.639
435.92	22.426
436.28	21.445
436.63	21.518
436.98	21.632
437.34	21.984
437.69	22.510
438.04	21.999
438.39	22.171
438.75	22.247
439.10	22.410
439.45	22.750
439.81	23.390
440.16	22.038
440.51	22.910
440.86	23.013
441.22	23.473
441.57	23.428
441.92	22.696
442.27	23.889
442.63	23.746
442.98	23.799
443.33	23.198
443.68	24.529
444.03	24.788
444.39	23.625
444.74	23.839
445.09	23.264
445.44	24.025
445.79	24.234
446.15	24.615
446.50	23.256
446.85	24.125
447.20	24.710
447.55	24.372
447.91	24.660
448.26	24.260
448.61	23.751
448.96	25.590
449.31	24.231
449.66	24.129
450.02	25.105
450.37	24.880
450.72	25.081
451.07	24.317
451.42	23.166
451.77	25.125
452.12	25.508
452.47	25.550
452.83	26.014
453.18	24.752
453.53	23.722
453.88	24.020
454.23	25.424
454.58	26.117
454.93	25.303
455.28	25.647
455.63	25.355
455.98	25.531
456.34	25.736
456.69	25.162
457.04	25.532
457.39	25.831
457.74	26.063
458.09	25.865
458.44	26.024
458.79	26.044
459.14	25.328
459.49	26.316
459.84	26.180
460.19	25.208
460.54	26.178
460.89	26.151
461.24	25.920
461.59	26.840
461.94	26.583
462.29	26.204
462.64	26.132
462.99	26.303
463.34	27.190
463.69	25.850
464.04	26.793
464.39	26.738
464.74	26.511
465.09	27.278
465.44	26.127
465.79	26.494
466.14	26.107
466.49	25.842
466.84	27.493
467.19	26.474
467.54	26.439
467.89	25.402
468.24	26.371
468.59	25.941
468.94	26.399
469.29	25.975
469.64	26.065
469.99	27.470
470.34	26.918
470.68	26.521
471.03	26.195
471.38	27.011
471.73	26.463
472.08	26.586
472.43	26.490
472.78	26.448
473.13	27.370
473.48	26.767
473.83	28.091
474.17	27.374
474.52	26.639
474.87	27.409
475.22	26.817
475.57	26.064
475.92	27.227
476.27	28.115
476.61	27.103
476.96	26.590
477.31	27.030
477.66	27.597
478.01	27.402
478.36	26.570
478.70	27.734
479.05	28.374
479.40	27.641
479.75	27.137
480.10	27.428
480.45	26.937
480.79	27.755
481.14	26.838
481.49	27.306
481.84	28.068
482.19	27.828
482.53	28.902
482.88	28.445
483.23	27.879
483.58	27.860
483.92	27.128
484.27	27.096
484.62	27.847
484.97	27.955
485.31	27.350
485.66	26.222
486.01	25.503
486.36	27.369
486.70	29.191
487.05	29.576
487.40	29.162
487.75	28.473
488.09	28.261
488.44	26.973
488.79	28.061
489.13	27.154
489.48	27.340
489.83	28.008
490.17	28.149
490.52	27.463
490.87	27.453
491.22	27.860
491.56	28.242
491.91	28.216
492.26	27.694
492.60	27.722
492.95	27.775
493.30	27.118
493.64	27.683
493.99	27.763
494.34	27.700
494.68	27.709
495.03	27.930
495.37	28.806
495.72	28.163
496.07	28.046
496.41	28.142
496.76	28.774
497.11	28.450
497.45	28.442
497.80	28.521
498.14	27.800
498.49	28.263
498.84	28.291
499.18	27.935
499.53	28.924
499.87	28.308
500.22	27.827
500.56	27.755
500.91	28.741
501.26	29.045
501.60	27.309
501.95	28.702
502.29	28.434
502.64	28.159
502.98	27.567
503.33	27.991
503.67	27.431
504.02	28.634
504.36	28.999
504.71	28.204
505.06	27.694
505.40	28.199
505.75	28.142
506.09	28.131
506.44	28.505
506.78	28.349
507.13	28.400
507.47	28.754
507.82	27.699
508.16	28.011
508.51	27.848
508.85	28.153
509.19	28.517
509.54	28.386
509.88	28.072
510.23	29.092
510.57	28.903
510.92	28.254
511.26	28.571
511.61	27.282
511.95	27.721
512.30	28.065
512.64	27.136
512.98	28.314
513.33	28.982
513.67	28.506
514.02	28.155
514.36	28.286
514.70	28.437
515.05	28.311
515.39	28.556
515.74	29.003
516.08	28.737
516.42	28.519
516.77	28.181
517.11	28.004
517.46	28.791
517.80	29.343
518.14	29.271
518.49	29.338
518.83	28.153
519.17	27.571
519.52	28.092
519.86	28.564
520.20	28.701
520.55	28.697
520.89	28.153
521.23	28.643
521.58	28.192
521.92	28.612
522.26	27.892
522.61	28.299
522.95	27.624
523.29	28.908
523.64	29.316
523.98	28.523
524.32	28.825
524.66	28.458
525.01	28.256
525.35	28.260
525.69	27.726
526.04	27.382
526.38	28.448
526.72	28.431
527.06	28.974
527.41	28.222
527.75	28.860
528.09	28.217
528.43	27.768
528.78	27.861
529.12	28.154
529.46	27.319
529.80	28.432
530.15	27.362
530.49	27.699
530.83	28.867
531.17	27.419
531.51	27.437
531.86	27.945
532.20	27.988
532.54	27.708
532.88	28.545
533.22	27.283
533.57	26.832
533.91	27.497
534.25	27.134
534.59	28.391
534.93	27.051
535.27	27.155
535.62	27.970
535.96	27.833
536.30	27.380
536.64	27.868
536.98	27.737
537.32	27.284
537.66	27.636
538.01	25.861
538.35	27.406
538.69	27.224
539.03	27.713
539.37	26.973
539.71	27.628
540.05	27.338
540.39	27.628
540.73	26.715
541.07	26.916
541.42	26.462
541.76	26.394
542.10	25.875
542.44	26.005
542.78	27.494
543.12	26.341
543.46	26.618
543.80	26.799
544.14	26.332
544.48	26.950
544.82	26.930
545.16	27.668
545.50	26.483
545.84	26.148
546.18	27.284
546.52	27.389
546.86	27.044
547.20	26.972
547.54	25.655
547.88	26.823
548.22	26.433
548.56	26.448
548.90	26.627
549.24	26.991
549.58	26.435
549.92	26.594
550.26	26.408
550.60	26.611
550.94	26.585
551.28	26.931
551.62	28.032
551.96	27.184
552.30	27.087
552.64	26.696
552.98	26.638
553.32	27.460
553.66	26.945
554.00	26.860
554.34	27.091
554.68	26.210
555.02	26.610
555.36	27.745
555.69	26.393
556.03	26.166
556.37	26.345
556.71	26.633
557.05	26.454
557.39	26.410
557.73	26.354
558.07	26.291
558.41	26.910
558.75	26.504
559.08	25.748
559.42	26.406
559.76	26.119
560.10	26.859
560.44	25.528
560.78	27.062
561.12	27.586
561.45	26.460
561.79	26.679
562.13	26.925
562.47	25.586
562.81	25.506
563.15	26.515
563.48	26.165
563.82	25.695
564.16	25.379
564.50	25.089
564.84	25.723
565.17	26.353
565.51	24.626
565.85	26.485
566.19	25.749
566.52	26.039
566.86	25.863
567.20	25.122
567.54	24.960
567.88	25.382
568.21	25.198
568.55	25.276
568.89	25.148
569.23	25.898
569.56	24.932
569.90	25.089
570.24	25.261
570.57	25.016
570.91	24.801
571.25	24.732
571.59	24.993
571.92	24.733
572.26	24.616
572.60	24.161
572.93	24.548
573.27	24.726
573.61	24.404
573.95	24.253
574.28	24.247
574.62	24.216
574.96	23.467
575.29	23.662
575.63	24.648
575.97	24.479
576.30	24.056
576.64	23.741
576.98	23.781
577.31	24.157
577.65	23.813
577.98	23.833
578.32	23.920
578.66	24.048
578.99	23.879
579.33	24.344
579.67	23.617
580.00	23.331
580.34	23.844
580.67	23.566
581.01	23.453
581.35	22.950
581.68	23.283
582.02	23.404
582.35	23.874
582.69	24.239
583.02	24.220
583.36	24.214
583.70	24.017
584.03	23.950
584.37	23.747
584.70	23.667
585.04	22.902
585.37	23.089
585.71	23.646
586.04	23.646
586.38	23.932
586.72	23.490
587.05	23.254
587.39	23.411
587.72	24.115
588.06	24.323
588.39	23.749
588.73	24.233
589.06	23.420
589.40	23.755
589.73	23.940
590.07	23.740
590.40	23.631
590.73	22.729
591.07	24.460
591.40	23.600
591.74	23.569
592.07	23.183
592.41	22.871
592.74	23.216
593.08	22.898
593.41	23.768
593.75	23.448
594.08	23.781
594.41	23.814
594.75	23.082
595.08	23.318
595.42	23.214
595.75	23.571
596.09	23.246
596.42	23.432
596.75	23.929
597.09	23.273
597.42	22.606
597.75	23.363
598.09	22.817
598.42	22.959
598.76	23.156
599.09	23.069
599.42	23.098
599.76	22.879
600.09	23.190
600.42	22.756
600.76	23.349
601.09	22.502
601.42	22.142
601.76	22.724
602.09	22.623
602.42	22.065
602.76	22.472
603.09	22.614
603.42	22.688
603.76	22.375
604.09	23.385
604.42	22.936
604.76	22.717
605.09	22.617
605.42	21.890
605.75	22.308
606.09	21.948
606.42	21.780
606.75	22.039
607.09	21.160
607.42	22.197
607.75	22.470
608.08	22.139
608.42	21.524
608.75	22.305
609.08	21.986
609.41	22.320
609.75	22.232
610.08	22.515
610.41	21.878
610.74	22.437
611.07	21.936
611.41	22.825
611.74	21.848
612.07	22.207
612.40	22.196
612.73	21.956
613.07	21.711
613.40	22.425
613.73	22.388
614.06	22.326
614.39	21.526
614.72	21.786
615.06	21.463
615.39	21.073
615.72	21.896
616.05	21.321
616.38	22.402
616.71	21.839
617.05	21.778
617.38	21.509
617.71	22.624
618.04	21.209
618.37	22.131
618.70	22.002
619.03	20.908
619.36	21.332
619.69	20.628
620.03	21.092
620.36	20.798
620.69	21.098
621.02	21.522
621.35	22.351
621.68	22.270
622.01	21.068
622.34	20.990
622.67	21.237
623.00	19.433
623.33	21.367
623.66	21.984
623.99	19.750
624.32	21.183
624.65	20.142
624.99	21.521
625.32	21.555
625.65	20.904
625.98	20.542
626.31	20.765
626.64	20.293
626.97	21.080
627.30	20.501
627.63	20.255
627.96	21.396
628.29	19.533
628.62	19.395
628.95	21.472
629.28	20.136
629.61	20.623
629.94	19.163
630.26	20.169
630.59	19.775
630.92	19.394
