SpectraSuite Data File
++++++++++++++++++++++++++++++++++++
Date: Thu May 14 15:03:59 PDT 2015
User: schluterlab
Dark Spectrum Present: Yes
Reference Spectrum Present: Yes
Number of Sampled Component Spectra: 1
Spectrometers: USB2E3373
Integration Time (usec): 3000 (USB2E3373)
Spectra Averaged: 3 (USB2E3373)
Boxcar Smoothing: 0 (USB2E3373)
Correct for Electrical Dark: No (USB2E3373)
Strobe/Lamp Enabled: No (USB2E3373)
Correct for Detector Non-linearity: No (USB2E3373)
Correct for Stray Light: No (USB2E3373)
Number of Pixels in Processed Spectrum: 2048
>>>>>Begin Processed Spectral Data<<<<<
178.53	0.000
178.91	385.714
179.29	-3200.000
179.67	-3200.000
180.04	271.429
180.42	360.000
180.80	560.000
181.18	-2800.000
181.56	-1400.000
181.94	675.000
182.31	-725.000
182.69	766.667
183.07	-1000.000
183.45	700.000
183.83	-316.667
184.20	-733.333
184.58	2900.000
184.96	-775.000
185.34	-211.111
185.72	-380.000
186.09	366.667
186.47	1600.000
186.85	700.000
187.23	-366.667
187.61	-3100.000
187.98	360.000
188.36	775.000
188.74	-650.000
189.12	-466.667
189.49	-131.250
189.87	-312.500
190.25	-166.667
190.63	-560.000
191.00	-322.222
191.38	0.000
191.76	-775.000
192.14	-433.333
192.51	850.000
192.89	-333.333
193.27	0.000
193.65	-242.857
194.02	-2900.000
194.40	-285.714
194.78	328.571
195.15	0.000
195.53	-200.000
195.91	0.000
196.29	-475.000
196.66	-130.769
197.04	-2500.000
197.42	-242.857
197.79	-1350.000
198.17	-350.000
198.55	-314.286
198.92	-300.000
199.30	-337.500
199.68	-136.364
200.05	-71.429
200.43	-1350.000
200.81	528.571
201.18	0.000
201.56	266.667
201.94	0.000
202.31	933.333
202.69	-277.778
203.07	2700.000
203.44	-200.000
203.82	-625.000
204.19	-175.000
204.57	-466.667
204.95	-275.000
205.32	-2700.000
205.70	550.000
206.08	-333.333
206.45	-333.333
206.83	580.000
207.20	-466.667
207.58	-620.000
207.96	-400.000
208.33	-116.667
208.71	183.333
209.08	-383.333
209.46	0.000
209.84	450.000
210.21	700.000
210.59	1400.000
210.96	800.000
211.34	-300.000
211.71	-312.500
212.09	-1700.000
212.46	0.000
212.84	1750.000
213.22	-460.000
213.59	-500.000
213.97	-230.000
214.34	-600.000
214.72	450.000
215.09	-275.000
215.47	0.000
215.84	342.857
216.22	1150.000
216.59	-440.000
216.97	-540.000
217.34	-725.000
217.72	-150.000
218.09	-550.000
218.47	-900.000
218.84	0.000
219.22	500.000
219.59	-141.176
219.97	-60.000
220.34	950.000
220.72	-188.889
221.09	-138.462
221.47	-833.333
221.84	-250.000
222.22	-357.143
222.59	0.000
222.97	-237.500
223.34	-660.000
223.72	-2300.000
224.09	-625.000
224.46	-800.000
224.84	-360.000
225.21	-357.143
225.59	-775.000
225.96	-625.000
226.34	-46.154
226.71	566.667
227.08	-1250.000
227.46	-93.333
227.83	-675.000
228.21	-126.316
228.58	350.000
228.95	1350.000
229.33	-91.667
229.70	-220.000
230.08	-63.158
230.45	290.000
230.82	-733.333
231.20	-150.000
231.57	-166.667
231.95	-245.455
232.32	-136.364
232.69	-80.000
233.07	-350.000
233.44	-158.824
233.81	-230.000
234.19	-16.667
234.56	-9.091
234.93	-34.483
235.31	-73.684
235.68	-66.667
236.05	-120.000
236.43	-26.923
236.80	0.000
237.17	-25.926
237.55	-45.455
237.92	-180.000
238.29	-41.935
238.67	-25.000
239.04	-8.333
239.41	-14.286
239.79	-8.696
240.16	-5.556
240.53	-10.870
240.91	-15.686
241.28	-3.279
241.65	16.418
242.02	1.351
242.40	-3.077
242.77	0.000
243.14	3.659
243.51	-1.316
243.89	8.974
244.26	19.802
244.63	6.863
245.00	12.150
245.38	4.386
245.75	6.195
246.12	13.492
246.49	9.302
246.87	25.000
247.24	25.828
247.61	21.053
247.98	20.134
248.36	19.753
248.73	19.018
249.10	24.044
249.47	27.363
249.84	31.937
250.22	21.762
250.59	26.111
250.96	25.455
251.33	20.918
251.70	20.940
252.08	26.667
252.45	23.361
252.82	30.992
253.19	28.125
253.56	28.137
253.94	26.923
254.31	31.439
254.68	31.818
255.05	32.899
255.42	23.129
255.79	26.537
256.16	29.801
256.54	29.470
256.91	28.197
257.28	25.246
257.65	26.752
258.02	28.909
258.39	27.066
258.76	33.639
259.14	28.161
259.51	25.360
259.88	27.195
260.25	29.444
260.62	29.041
260.99	28.415
261.36	28.954
261.73	28.382
262.10	30.220
262.47	28.686
262.85	29.293
263.22	29.091
263.59	26.842
263.96	28.133
264.33	27.110
264.70	30.123
265.07	33.652
265.44	32.200
265.81	29.398
266.18	32.653
266.55	30.357
266.92	28.474
267.29	30.197
267.66	32.373
268.03	30.131
268.40	27.975
268.77	26.196
269.14	28.855
269.51	28.947
269.88	29.713
270.25	27.968
270.62	28.692
270.99	30.707
271.36	30.099
271.73	30.845
272.10	30.261
272.47	29.659
272.84	27.711
273.21	29.860
273.58	30.645
273.95	28.462
274.32	28.897
274.69	30.174
275.06	30.220
275.43	27.172
275.80	31.393
276.17	27.037
276.54	29.291
276.91	27.549
277.28	27.306
277.65	29.803
278.02	29.412
278.39	30.254
278.76	27.944
279.13	27.660
279.50	30.756
279.87	28.444
280.23	27.817
280.60	32.203
280.97	27.961
281.34	29.542
281.71	28.934
282.08	29.734
282.45	28.314
282.82	28.414
283.19	27.625
283.56	29.016
283.92	28.829
284.29	29.542
284.66	29.721
285.03	26.282
285.40	27.975
285.77	28.328
286.14	27.481
286.51	28.919
286.87	25.750
287.24	29.669
287.61	27.504
287.98	26.284
288.35	27.071
288.72	26.923
289.08	27.233
289.45	27.367
289.82	25.301
290.19	28.879
290.56	23.662
290.93	24.536
291.29	26.033
291.66	26.446
292.03	24.016
292.40	28.844
292.77	24.663
293.13	25.034
293.50	23.784
293.87	24.832
294.24	26.000
294.60	24.905
294.97	22.819
295.34	24.328
295.71	21.816
296.08	23.773
296.44	22.672
296.81	24.482
297.18	23.537
297.55	23.231
297.91	23.013
298.28	21.682
298.65	21.879
299.02	22.550
299.38	22.197
299.75	23.248
300.12	21.759
300.48	21.889
300.85	22.385
301.22	22.260
301.59	22.831
301.95	22.825
302.32	21.444
302.69	21.030
303.05	21.980
303.42	22.173
303.79	21.562
304.15	22.608
304.52	22.199
304.89	22.932
305.25	20.911
305.62	21.212
305.99	22.680
306.35	20.867
306.72	21.717
307.09	21.624
307.45	22.153
307.82	21.393
308.19	21.493
308.55	21.504
308.92	21.422
309.29	21.648
309.65	22.320
310.02	21.089
310.38	22.736
310.75	22.816
311.12	21.956
311.48	22.190
311.85	22.982
312.22	21.347
312.58	21.221
312.95	21.797
313.31	21.861
313.68	22.894
314.05	24.661
314.41	23.224
314.78	23.887
315.14	23.866
315.51	23.269
315.87	24.122
316.24	23.927
316.61	23.712
316.97	22.986
317.34	23.986
317.70	24.279
318.07	24.691
318.43	25.255
318.80	25.334
319.16	25.408
319.53	23.993
319.89	25.504
320.26	25.890
320.62	25.177
320.99	25.946
321.35	25.601
321.72	26.419
322.08	26.330
322.45	26.920
322.81	28.069
323.18	26.195
323.54	26.638
323.91	28.292
324.27	27.711
324.64	28.883
325.00	28.192
325.37	29.238
325.73	28.595
326.10	28.629
326.46	29.479
326.83	29.384
327.19	29.606
327.56	28.775
327.92	30.291
328.29	30.242
328.65	29.313
329.01	30.626
329.38	29.907
329.74	31.164
330.11	30.308
330.47	28.475
330.84	29.371
331.20	30.917
331.56	30.069
331.93	30.711
332.29	30.254
332.66	30.897
333.02	31.742
333.38	30.285
333.75	31.313
334.11	30.442
334.48	30.446
334.84	31.351
335.20	30.059
335.57	32.040
335.93	30.744
336.29	30.366
336.66	30.025
337.02	30.769
337.38	30.017
337.75	29.752
338.11	30.698
338.47	31.183
338.84	31.218
339.20	30.497
339.56	29.819
339.93	31.199
340.29	30.918
340.65	30.981
341.02	30.966
341.38	31.205
341.74	30.831
342.11	31.376
342.47	31.056
342.83	31.401
343.20	30.172
343.56	30.794
343.92	31.946
344.28	30.313
344.65	32.326
345.01	31.357
345.37	32.426
345.73	30.631
346.10	31.123
346.46	31.646
346.82	30.037
347.19	31.016
347.55	31.032
347.91	30.609
348.27	32.018
348.63	31.912
349.00	30.649
349.36	31.004
349.72	31.324
350.08	31.501
350.45	31.179
350.81	30.166
351.17	31.353
351.53	32.373
351.89	30.979
352.26	31.940
352.62	31.493
352.98	31.450
353.34	31.217
353.70	31.741
354.07	32.489
354.43	32.422
354.79	31.264
355.15	32.597
355.51	32.091
355.87	31.414
356.24	32.776
356.60	29.933
356.96	32.024
357.32	31.078
357.68	31.698
358.04	31.961
358.40	32.463
358.77	31.433
359.13	31.610
359.49	30.781
359.85	32.125
360.21	32.066
360.57	33.238
360.93	32.087
361.29	33.123
361.66	32.078
362.02	32.985
362.38	32.537
362.74	32.682
363.10	32.875
363.46	32.618
363.82	33.097
364.18	33.638
364.54	33.887
364.90	34.849
365.26	34.000
365.62	32.800
365.98	33.424
366.35	32.617
366.71	33.946
367.07	33.085
367.43	32.830
367.79	34.638
368.15	34.916
368.51	34.506
368.87	34.030
369.23	34.800
369.59	34.699
369.95	34.550
370.31	35.111
370.67	35.282
371.03	34.834
371.39	33.580
371.75	35.557
372.11	35.637
372.47	34.597
372.83	35.602
373.19	34.490
373.55	34.959
373.91	34.356
374.27	34.799
374.63	34.912
374.99	35.146
375.35	36.039
375.71	35.355
376.07	36.023
376.42	35.453
376.78	36.047
377.14	36.182
377.50	35.990
377.86	36.392
378.22	37.126
378.58	37.218
378.94	35.681
379.30	36.204
379.66	36.802
380.02	37.507
380.38	37.558
380.74	38.310
381.09	36.643
381.45	36.989
381.81	38.993
382.17	37.648
382.53	38.012
382.89	36.569
383.25	39.156
383.61	37.963
383.97	38.516
384.32	38.397
384.68	37.877
385.04	39.098
385.40	39.246
385.76	40.152
386.12	37.882
386.48	39.059
386.83	39.511
387.19	39.571
387.55	39.202
387.91	39.897
388.27	39.838
388.62	38.832
388.98	37.563
389.34	40.896
389.70	40.383
390.06	39.372
390.42	39.096
390.77	39.916
391.13	39.437
391.49	40.821
391.85	40.303
392.20	39.502
392.56	40.106
392.92	38.713
393.28	39.635
393.64	39.721
393.99	40.325
394.35	40.479
394.71	41.557
395.07	40.120
395.42	40.206
395.78	41.987
396.14	41.474
396.50	39.549
396.85	40.429
397.21	41.183
397.57	40.577
397.92	40.893
398.28	40.739
398.64	39.760
399.00	39.895
399.35	40.419
399.71	40.109
400.07	41.437
400.42	40.338
400.78	40.799
401.14	41.264
401.49	41.273
401.85	40.814
402.21	41.889
402.57	41.432
402.92	40.426
403.28	39.637
403.63	40.692
403.99	40.796
404.35	40.421
404.70	40.850
405.06	39.130
405.42	41.101
405.77	41.603
406.13	39.816
406.49	40.597
406.84	41.053
407.20	40.414
407.55	41.551
407.91	40.038
408.27	40.342
408.62	41.012
408.98	40.221
409.34	39.648
409.69	41.347
410.05	42.087
410.40	41.647
410.76	41.110
411.11	41.672
411.47	41.155
411.83	41.681
412.18	42.289
412.54	40.368
412.89	40.338
413.25	41.140
413.60	40.953
413.96	41.783
414.31	40.737
414.67	40.906
415.03	40.738
415.38	42.686
415.74	41.356
416.09	41.949
416.45	40.263
416.80	41.677
417.16	42.082
417.51	40.847
417.87	41.386
418.22	42.395
418.58	43.123
418.93	43.364
419.29	43.342
419.64	42.197
420.00	42.611
420.35	42.560
420.71	42.906
421.06	41.978
421.42	43.463
421.77	41.842
422.12	42.600
422.48	42.704
422.83	43.209
423.19	44.032
423.54	44.248
423.90	44.064
424.25	45.067
424.61	44.259
424.96	44.097
425.31	45.117
425.67	44.283
426.02	45.656
426.38	45.293
426.73	44.922
427.09	45.617
427.44	45.603
427.79	45.550
428.15	45.605
428.50	45.618
428.85	45.982
429.21	46.596
429.56	45.459
429.92	45.749
430.27	46.747
430.62	46.312
430.98	46.975
431.33	46.285
431.68	45.594
432.04	48.045
432.39	47.563
432.74	48.059
433.10	47.647
433.45	48.384
433.80	46.620
434.16	47.056
434.51	48.458
434.86	49.077
435.22	49.362
435.57	50.118
435.92	49.416
436.28	48.805
436.63	48.935
436.98	48.846
437.34	49.042
437.69	49.312
438.04	49.551
438.39	48.937
438.75	49.474
439.10	50.423
439.45	50.140
439.81	50.621
440.16	48.954
440.51	50.780
440.86	50.472
441.22	50.322
441.57	50.000
441.92	49.952
442.27	51.616
442.63	50.472
442.98	51.601
443.33	51.236
443.68	51.734
444.03	51.976
444.39	52.288
444.74	52.833
445.09	51.597
445.44	52.213
445.79	51.964
446.15	52.055
446.50	51.421
446.85	52.335
447.20	51.161
447.55	53.556
447.91	53.194
448.26	53.224
448.61	53.082
448.96	53.863
449.31	52.333
449.66	52.451
450.02	53.059
450.37	53.330
450.72	53.229
451.07	53.189
451.42	53.380
451.77	52.640
452.12	54.007
452.47	54.308
452.83	55.631
453.18	53.882
453.53	53.762
453.88	52.623
454.23	53.616
454.58	54.092
454.93	53.762
455.28	54.606
455.63	53.496
455.98	55.140
456.34	54.535
456.69	54.497
457.04	55.201
457.39	55.044
457.74	54.195
458.09	54.530
458.44	53.933
458.79	52.501
459.14	53.802
459.49	54.612
459.84	54.827
460.19	54.525
460.54	55.650
460.89	55.161
461.24	54.828
461.59	55.119
461.94	54.592
462.29	56.271
462.64	54.858
462.99	55.242
463.34	56.197
463.69	53.341
464.04	55.586
464.39	55.830
464.74	54.789
465.09	55.594
465.44	55.472
465.79	55.156
466.14	54.664
466.49	55.316
466.84	56.915
467.19	55.723
467.54	54.877
467.89	55.517
468.24	54.903
468.59	55.298
468.94	53.904
469.29	55.669
469.64	56.135
469.99	55.895
470.34	56.312
470.68	57.280
471.03	57.040
471.38	56.900
471.73	55.592
472.08	57.170
472.43	57.495
472.78	55.668
473.13	56.953
473.48	57.100
473.83	56.703
474.17	57.034
474.52	58.388
474.87	56.921
475.22	58.028
475.57	55.088
475.92	56.645
476.27	56.550
476.61	56.127
476.96	56.674
477.31	56.139
477.66	57.765
478.01	57.550
478.36	56.879
478.70	56.995
479.05	57.975
479.40	57.502
479.75	56.148
480.10	56.845
480.45	57.566
480.79	57.279
481.14	56.847
481.49	56.293
481.84	56.876
482.19	58.624
482.53	58.067
482.88	58.396
483.23	58.337
483.58	57.205
483.92	56.826
484.27	56.351
484.62	56.683
484.97	56.182
485.31	56.177
485.66	52.525
486.01	51.505
486.36	53.452
486.70	57.306
487.05	60.380
487.40	59.485
487.75	58.193
488.09	58.636
488.44	57.090
488.79	56.998
489.13	56.408
489.48	56.738
489.83	56.740
490.17	55.610
490.52	56.650
490.87	57.149
491.22	58.059
491.56	56.527
491.91	57.785
492.26	57.075
492.60	57.368
492.95	58.052
493.30	57.822
493.64	57.030
493.99	57.105
494.34	57.666
494.68	58.116
495.03	58.987
495.37	58.589
495.72	58.141
496.07	57.362
496.41	57.272
496.76	56.964
497.11	58.174
497.45	57.877
497.80	58.685
498.14	57.370
498.49	58.915
498.84	58.455
499.18	59.469
499.53	58.475
499.87	58.769
500.22	58.014
500.56	57.760
500.91	59.039
501.26	59.273
501.60	57.711
501.95	58.576
502.29	59.368
502.64	59.773
502.98	58.067
503.33	58.013
503.67	57.915
504.02	58.056
504.36	60.054
504.71	58.842
505.06	58.163
505.40	59.735
505.75	58.880
506.09	58.840
506.44	60.167
506.78	59.862
507.13	59.336
507.47	59.119
507.82	59.517
508.16	59.656
508.51	59.353
508.85	60.179
509.19	60.066
509.54	59.846
509.88	60.223
510.23	61.438
510.57	60.222
510.92	60.474
511.26	60.462
511.61	59.005
511.95	60.615
512.30	61.448
512.64	60.520
512.98	60.680
513.33	62.702
513.67	61.040
514.02	61.114
514.36	62.148
514.70	61.146
515.05	62.044
515.39	61.155
515.74	62.089
516.08	61.965
516.42	62.376
516.77	61.987
517.11	61.578
517.46	61.294
517.80	63.228
518.14	63.384
518.49	63.341
518.83	61.735
519.17	61.443
519.52	62.683
519.86	63.147
520.20	61.715
520.55	62.596
520.89	62.556
521.23	63.707
521.58	64.520
521.92	62.266
522.26	63.001
522.61	63.252
522.95	63.322
523.29	62.759
523.64	62.500
523.98	64.005
524.32	65.387
524.66	63.802
525.01	62.458
525.35	63.584
525.69	62.703
526.04	63.031
526.38	63.678
526.72	62.687
527.06	64.692
527.41	64.548
527.75	65.202
528.09	63.813
528.43	64.476
528.78	64.046
529.12	62.615
529.46	62.395
529.80	64.302
530.15	63.188
530.49	63.998
530.83	63.577
531.17	64.456
531.51	63.718
531.86	63.942
532.20	64.817
532.54	62.837
532.88	64.121
533.22	62.110
533.57	61.743
533.91	62.626
534.25	62.465
534.59	63.908
534.93	63.894
535.27	63.380
535.62	63.786
535.96	63.219
536.30	62.691
536.64	63.724
536.98	65.806
537.32	63.333
537.66	63.631
538.01	61.390
538.35	63.946
538.69	62.560
539.03	64.194
539.37	62.191
539.71	62.763
540.05	64.029
540.39	63.936
540.73	62.417
541.07	63.458
541.42	62.256
541.76	62.633
542.10	63.148
542.44	63.033
542.78	62.591
543.12	62.992
543.46	62.393
543.80	61.751
544.14	61.700
544.48	64.421
544.82	63.974
545.16	62.016
545.50	62.612
545.84	63.013
546.18	64.012
546.52	63.312
546.86	62.390
547.20	63.550
547.54	62.297
547.88	62.628
548.22	62.164
548.56	63.780
548.90	63.881
549.24	62.128
549.58	63.218
549.92	65.051
550.26	65.113
550.60	62.093
550.94	62.937
551.28	61.914
551.62	65.162
551.96	62.460
552.30	62.460
552.64	63.223
552.98	63.568
553.32	64.695
553.66	64.952
554.00	64.187
554.34	64.093
554.68	62.944
555.02	63.272
555.36	65.615
555.69	63.293
556.03	63.493
556.37	62.766
556.71	62.968
557.05	62.556
557.39	64.433
557.73	64.003
558.07	64.305
558.41	64.186
558.75	64.841
559.08	65.066
559.42	63.100
559.76	63.501
560.10	64.032
560.44	64.182
560.78	63.500
561.12	64.163
561.45	64.964
561.79	64.286
562.13	64.633
562.47	63.748
562.81	64.051
563.15	63.952
563.48	63.331
563.82	62.152
564.16	62.689
564.50	62.932
564.84	62.714
565.17	62.294
565.51	61.680
565.85	62.827
566.19	62.039
566.52	62.434
566.86	62.252
567.20	61.066
567.54	63.091
567.88	62.232
568.21	61.957
568.55	62.302
568.89	61.235
569.23	60.541
569.56	60.492
569.90	60.228
570.24	61.383
570.57	60.231
570.91	59.461
571.25	58.953
571.59	59.783
571.92	59.062
572.26	59.317
572.60	59.350
572.93	59.866
573.27	58.809
573.61	59.873
573.95	58.339
574.28	58.655
574.62	58.367
574.96	57.918
575.29	57.458
575.63	58.697
575.97	58.946
576.30	58.006
576.64	58.435
576.98	56.993
577.31	57.709
577.65	58.337
577.98	57.869
578.32	57.180
578.66	58.104
578.99	57.895
579.33	59.604
579.67	58.998
580.00	58.395
580.34	58.595
580.67	58.848
581.01	57.659
581.35	57.374
581.68	57.409
582.02	57.541
582.35	58.961
582.69	59.511
583.02	59.522
583.36	60.115
583.70	59.964
584.03	58.891
584.37	59.763
584.70	58.949
585.04	58.056
585.37	58.241
585.71	57.799
586.04	58.520
586.38	59.053
586.72	59.313
587.05	59.529
587.39	60.309
587.72	60.359
588.06	59.018
588.39	60.095
588.73	59.259
589.06	60.017
589.40	60.787
589.73	59.865
590.07	61.074
590.40	61.055
590.73	59.420
591.07	61.727
591.40	60.187
591.74	60.771
592.07	61.145
592.41	60.450
592.74	59.212
593.08	59.172
593.41	60.367
593.75	60.057
594.08	60.860
594.41	61.474
594.75	60.246
595.08	60.734
595.42	60.195
595.75	60.446
596.09	61.606
596.42	61.340
596.75	61.598
597.09	61.495
597.42	60.509
597.75	60.447
598.09	61.230
598.42	61.319
598.76	60.260
599.09	60.164
599.42	58.632
599.76	59.360
600.09	60.260
600.42	60.194
600.76	60.898
601.09	60.339
601.42	59.526
601.76	60.690
602.09	61.258
602.42	60.378
602.76	60.849
603.09	60.977
603.42	61.741
603.76	60.641
604.09	60.646
604.42	62.128
604.76	60.693
605.09	60.989
605.42	60.845
605.75	60.231
606.09	61.180
606.42	60.635
606.75	60.270
607.09	60.637
607.42	61.040
607.75	61.196
608.08	60.695
608.42	60.459
608.75	61.733
609.08	61.842
609.41	60.829
609.75	61.830
610.08	62.137
610.41	61.682
610.74	61.303
611.07	62.655
611.41	61.794
611.74	62.217
612.07	61.571
612.40	63.118
612.73	63.374
613.07	61.711
613.40	62.031
613.73	61.627
614.06	61.629
614.39	61.710
614.72	61.281
615.06	61.261
615.39	62.542
615.72	61.090
616.05	62.118
616.38	63.269
616.71	62.800
617.05	61.661
617.38	61.423
617.71	62.851
618.04	63.519
618.37	63.224
618.70	63.857
619.03	63.441
619.36	63.194
619.69	64.830
620.03	63.465
620.36	63.742
620.69	63.048
621.02	64.501
621.35	67.054
621.68	66.377
622.01	64.342
622.34	63.877
622.67	64.192
623.00	61.876
623.33	63.769
623.66	64.462
623.99	63.924
624.32	64.847
624.65	63.449
624.99	65.215
625.32	65.905
625.65	64.936
625.98	64.203
626.31	64.210
626.64	64.615
626.97	66.542
627.30	65.604
627.63	64.066
627.96	64.790
628.29	64.981
628.62	67.254
628.95	67.222
629.28	64.911
629.61	65.572
629.94	64.268
630.26	66.186
630.59	65.976
630.92	65.628
631.25	66.905
