SpectraSuite Data File
++++++++++++++++++++++++++++++++++++
Date: Thu May 14 14:56:15 PDT 2015
User: schluterlab
Dark Spectrum Present: Yes
Reference Spectrum Present: Yes
Number of Sampled Component Spectra: 1
Spectrometers: USB2E3373
Integration Time (usec): 3000 (USB2E3373)
Spectra Averaged: 3 (USB2E3373)
Boxcar Smoothing: 0 (USB2E3373)
Correct for Electrical Dark: No (USB2E3373)
Strobe/Lamp Enabled: No (USB2E3373)
Correct for Detector Non-linearity: No (USB2E3373)
Correct for Stray Light: No (USB2E3373)
Number of Pixels in Processed Spectrum: 2048
>>>>>Begin Processed Spectral Data<<<<<
178.53	0.000
178.91	257.143
179.29	-3100.000
179.67	-2500.000
180.04	235.714
180.42	150.000
180.80	340.000
181.18	-900.000
181.56	-500.000
181.94	450.000
182.31	-475.000
182.69	633.333
183.07	-1100.000
183.45	650.000
183.83	-300.000
184.20	-700.000
184.58	1800.000
184.96	-525.000
185.34	-177.778
185.72	-120.000
186.09	322.222
186.47	1050.000
186.85	300.000
187.23	-255.556
187.61	-2400.000
187.98	380.000
188.36	700.000
188.74	-525.000
189.12	-433.333
189.49	-12.500
189.87	-287.500
190.25	-188.889
190.63	-240.000
191.00	-155.556
191.38	0.000
191.76	-500.000
192.14	-316.667
192.51	900.000
192.89	-166.667
193.27	0.000
193.65	-142.857
194.02	-2200.000
194.40	-300.000
194.78	242.857
195.15	0.000
195.53	-81.818
195.91	0.000
196.29	-450.000
196.66	-138.462
197.04	-2700.000
197.42	-342.857
197.79	-900.000
198.17	-300.000
198.55	-257.143
198.92	-144.444
199.30	-225.000
199.68	-100.000
200.05	-92.857
200.43	-800.000
200.81	242.857
201.18	0.000
201.56	222.222
201.94	0.000
202.31	766.667
202.69	-288.889
203.07	1400.000
203.44	-200.000
203.82	-375.000
204.19	-150.000
204.57	-250.000
204.95	-187.500
205.32	-2300.000
205.70	500.000
206.08	-183.333
206.45	-233.333
206.83	540.000
207.20	-200.000
207.58	-480.000
207.96	-233.333
208.33	-133.333
208.71	116.667
209.08	-250.000
209.46	0.000
209.84	450.000
210.21	1150.000
210.59	800.000
210.96	833.333
211.34	-375.000
211.71	-225.000
212.09	-1600.000
212.46	0.000
212.84	1150.000
213.22	-340.000
213.59	-525.000
213.97	-150.000
214.34	-600.000
214.72	400.000
215.09	-425.000
215.47	0.000
215.84	342.857
216.22	1200.000
216.59	-360.000
216.97	-220.000
217.34	-200.000
217.72	-100.000
218.09	-525.000
218.47	-650.000
218.84	0.000
219.22	220.000
219.59	-94.118
219.97	-100.000
220.34	850.000
220.72	-211.111
221.09	-46.154
221.47	-700.000
221.84	-70.000
222.22	-157.143
222.59	0.000
222.97	-100.000
223.34	-460.000
223.72	-2200.000
224.09	-450.000
224.46	-650.000
224.84	-280.000
225.21	-257.143
225.59	-600.000
225.96	-300.000
226.34	-46.154
226.71	400.000
227.08	-1050.000
227.46	-100.000
227.83	-500.000
228.21	-26.316
228.58	237.500
228.95	1350.000
229.33	-83.333
229.70	-110.000
230.08	15.789
230.45	240.000
230.82	-800.000
231.20	-92.857
231.57	-91.667
231.95	-218.182
232.32	-100.000
232.69	-35.000
233.07	-525.000
233.44	-82.353
233.81	-140.000
234.19	-66.667
234.56	-18.182
234.93	-17.241
235.31	-63.158
235.68	-44.444
236.05	-85.000
236.43	-30.769
236.80	-8.000
237.17	-44.444
237.55	-51.515
237.92	-190.000
238.29	-51.613
238.67	-18.182
239.04	-16.667
239.41	-21.429
239.79	-21.739
240.16	-24.074
240.53	-54.348
240.91	-35.294
241.28	-22.951
241.65	-11.940
242.02	-1.351
242.40	-18.462
242.77	-13.333
243.14	-19.512
243.51	-31.579
243.89	-26.923
244.26	-2.970
244.63	-0.980
245.00	0.935
245.38	-8.772
245.75	-10.619
246.12	-7.143
246.49	-4.651
246.87	-3.571
247.24	1.325
247.61	-0.658
247.98	-6.711
248.36	-6.173
248.73	-11.043
249.10	-5.464
249.47	4.975
249.84	6.806
250.22	0.000
250.59	-3.333
250.96	6.818
251.33	-4.592
251.70	0.427
252.08	-0.417
252.45	-1.230
252.82	-0.413
253.19	-1.172
253.56	-2.281
253.94	-4.615
254.31	-3.030
254.68	5.245
255.05	3.909
255.42	1.701
255.79	0.000
256.16	0.662
256.54	-2.980
256.91	-2.295
257.28	-0.984
257.65	-3.822
258.02	-5.015
258.39	1.425
258.76	0.000
259.14	0.862
259.51	0.288
259.88	-0.850
260.25	1.944
260.62	0.274
260.99	4.645
261.36	3.217
261.73	1.326
262.10	-1.923
262.47	-1.072
262.85	4.040
263.22	-2.078
263.59	-0.789
263.96	2.046
264.33	-1.279
264.70	2.716
265.07	3.103
265.44	3.175
265.81	2.546
266.18	4.082
266.55	1.562
266.92	0.911
267.29	0.438
267.66	1.552
268.03	4.148
268.40	3.549
268.77	-0.683
269.14	-1.542
269.51	2.412
269.88	4.098
270.25	3.622
270.62	3.376
270.99	3.434
271.36	3.762
271.73	2.750
272.10	2.405
272.47	2.605
272.84	1.807
273.21	3.206
273.58	1.411
273.95	2.115
274.32	1.521
274.69	0.774
275.06	3.114
275.43	-0.185
275.80	4.056
276.17	1.111
276.54	3.172
276.91	0.537
277.28	1.447
277.65	3.591
278.02	2.390
278.39	1.268
278.76	0.879
279.13	1.773
279.50	2.921
279.87	2.862
280.23	-0.528
280.60	2.373
280.97	3.783
281.34	1.188
281.71	4.230
282.08	2.658
282.45	1.146
282.82	3.454
283.19	1.131
283.56	1.639
283.92	4.805
284.29	5.055
284.66	4.762
285.03	0.641
285.40	4.019
285.77	1.858
286.14	4.885
286.51	2.283
286.87	1.264
287.24	2.108
287.61	2.691
287.98	2.266
288.35	1.479
288.72	1.036
289.08	3.221
289.45	1.775
289.82	1.506
290.19	2.586
290.56	1.972
290.93	3.566
291.29	4.132
291.66	1.240
292.03	1.764
292.40	3.537
292.77	1.887
293.13	4.465
293.50	1.708
293.87	2.282
294.24	4.933
294.60	5.183
294.97	1.745
295.34	3.841
295.71	2.396
296.08	2.713
296.44	3.309
296.81	4.141
297.18	3.861
297.55	3.420
297.91	3.796
298.28	3.673
298.65	4.043
299.02	3.188
299.38	4.577
299.75	4.322
300.12	3.241
300.48	3.687
300.85	3.825
301.22	4.362
301.59	3.311
301.95	3.955
302.32	4.556
302.69	4.710
303.05	4.570
303.42	4.656
303.79	3.646
304.15	5.468
304.52	2.854
304.89	4.607
305.25	5.072
305.62	5.329
305.99	5.052
306.35	3.528
306.72	5.895
307.09	5.076
307.45	6.211
307.82	6.862
308.19	4.541
308.55	5.882
308.92	3.311
309.29	6.322
309.65	5.263
310.02	5.347
310.38	4.823
310.75	4.660
311.12	6.903
311.48	5.572
311.85	5.888
312.22	6.736
312.58	6.103
312.95	6.214
313.31	6.865
313.68	7.509
314.05	6.323
314.41	6.831
314.78	7.175
315.14	6.897
315.51	7.664
315.87	6.661
316.24	7.306
316.61	8.082
316.97	6.697
317.34	6.085
317.70	7.336
318.07	8.289
318.43	6.803
318.80	9.699
319.16	7.897
319.53	7.198
319.89	5.609
320.26	8.185
320.62	8.067
320.99	7.849
321.35	8.133
321.72	9.581
322.08	7.755
322.45	7.859
322.81	8.213
323.18	8.142
323.54	9.914
323.91	9.075
324.27	9.208
324.64	11.335
325.00	10.033
325.37	10.647
325.73	10.909
326.10	11.679
326.46	11.808
326.83	11.609
327.19	12.205
327.56	13.123
327.92	12.589
328.29	12.258
328.65	11.977
329.01	13.536
329.38	14.153
329.74	15.068
330.11	14.726
330.47	13.648
330.84	15.159
331.20	16.417
331.56	15.165
331.93	15.900
332.29	16.610
332.66	15.365
333.02	15.745
333.38	15.352
333.75	15.657
334.11	16.847
334.48	16.172
334.84	16.568
335.20	16.541
335.57	16.526
335.93	16.694
336.29	15.391
336.66	15.980
337.02	16.973
337.38	17.177
337.75	17.686
338.11	16.400
338.47	17.452
338.84	16.836
339.20	16.175
339.56	16.969
339.93	17.241
340.29	17.311
340.65	16.626
341.02	17.957
341.38	16.168
341.74	17.837
342.11	17.216
342.47	15.886
342.83	16.908
343.20	17.334
343.56	17.001
343.92	18.255
344.28	17.812
344.65	18.062
345.01	17.707
345.37	17.574
345.73	16.913
346.10	17.083
346.46	17.247
346.82	17.079
347.19	18.411
347.55	17.375
347.91	17.013
348.27	16.237
348.63	17.974
349.00	16.928
349.36	17.472
349.72	18.080
350.08	17.682
350.45	17.795
350.81	17.496
351.17	17.594
351.53	17.892
351.89	17.312
352.26	16.866
352.62	17.015
352.98	16.107
353.34	16.729
353.70	17.720
354.07	17.511
354.43	18.147
354.79	17.502
355.15	17.366
355.51	18.860
355.87	17.502
356.24	17.871
356.60	18.256
356.96	17.717
357.32	17.918
357.68	17.716
358.04	17.365
358.40	17.463
358.77	19.225
359.13	18.021
359.49	17.621
359.85	17.912
360.21	17.575
360.57	17.588
360.93	18.688
361.29	17.333
361.66	18.755
362.02	18.720
362.38	18.482
362.74	17.388
363.10	19.876
363.46	19.598
363.82	19.247
364.18	19.775
364.54	19.087
364.90	19.732
365.26	18.483
365.62	18.600
365.98	19.129
366.35	18.255
366.71	19.184
367.07	18.945
367.43	19.829
367.79	17.916
368.15	19.130
368.51	19.350
368.87	19.203
369.23	20.267
369.59	19.467
369.95	20.216
370.31	20.257
370.67	20.014
371.03	19.668
371.39	19.342
371.75	20.426
372.11	20.528
372.47	20.379
372.83	20.681
373.19	19.546
373.55	19.851
373.91	20.382
374.27	20.893
374.63	19.959
374.99	20.623
375.35	21.688
375.71	20.645
376.07	20.142
376.42	21.033
376.78	21.628
377.14	21.023
377.50	21.442
377.86	22.906
378.22	21.916
378.58	22.235
378.94	20.775
379.30	21.265
379.66	21.399
380.02	22.274
380.38	22.523
380.74	21.070
381.09	21.661
381.45	21.477
381.81	22.658
382.17	22.209
382.53	21.813
382.89	22.009
383.25	21.981
383.61	22.106
383.97	22.203
384.32	22.787
384.68	21.810
385.04	22.730
385.40	23.041
385.76	23.036
386.12	23.639
386.48	22.588
386.83	23.719
387.19	22.306
387.55	22.829
387.91	22.546
388.27	23.152
388.62	22.279
388.98	22.899
389.34	23.512
389.70	23.475
390.06	23.505
390.42	24.157
390.77	23.119
391.13	22.829
391.49	23.792
391.85	22.788
392.20	23.725
392.56	23.745
392.92	23.501
393.28	23.881
393.64	23.520
393.99	23.359
394.35	23.657
394.71	23.772
395.07	23.293
395.42	23.187
395.78	23.827
396.14	23.648
396.50	22.625
396.85	23.375
397.21	23.491
397.57	23.734
397.92	23.024
398.28	22.162
398.64	22.540
399.00	22.565
399.35	23.194
399.71	22.609
400.07	23.133
400.42	23.749
400.78	23.322
401.14	23.278
401.49	22.968
401.85	23.721
402.21	23.754
402.57	23.885
402.92	22.813
403.28	22.248
403.63	22.017
403.99	22.684
404.35	23.024
404.70	22.493
405.06	22.283
405.42	22.600
405.77	23.446
406.13	22.690
406.49	22.354
406.84	23.102
407.20	22.582
407.55	21.381
407.91	22.627
408.27	22.556
408.62	22.920
408.98	23.099
409.34	22.405
409.69	22.250
410.05	22.802
410.40	23.144
410.76	22.658
411.11	22.326
411.47	22.604
411.83	22.457
412.18	22.108
412.54	22.466
412.89	21.944
413.25	22.404
413.60	21.999
413.96	21.911
414.31	22.153
414.67	22.004
415.03	22.523
415.38	22.762
415.74	22.175
416.09	22.085
416.45	21.227
416.80	22.277
417.16	22.414
417.51	23.039
417.87	22.195
418.22	22.395
418.58	22.119
418.93	23.399
419.29	22.811
419.64	23.049
420.00	23.145
420.35	24.144
420.71	23.033
421.06	22.369
421.42	23.911
421.77	22.563
422.12	22.886
422.48	22.888
422.83	24.206
423.19	23.660
423.54	23.451
423.90	23.689
424.25	24.320
424.61	24.168
424.96	23.998
425.31	24.310
425.67	24.262
426.02	24.239
426.38	24.684
426.73	23.828
427.09	25.029
427.44	24.577
427.79	25.318
428.15	24.658
428.50	24.944
428.85	24.455
429.21	25.319
429.56	25.222
429.92	25.995
430.27	25.880
430.62	25.550
430.98	26.119
431.33	25.367
431.68	25.479
432.04	26.765
432.39	26.567
432.74	26.712
433.10	27.204
433.45	25.307
433.80	25.644
434.16	26.343
434.51	26.567
434.86	27.144
435.22	26.993
435.57	28.125
435.92	27.268
436.28	27.190
436.63	27.799
436.98	26.302
437.34	27.114
437.69	28.123
438.04	27.129
438.39	27.570
438.75	26.453
439.10	28.013
439.45	26.831
439.81	27.401
440.16	27.399
440.51	27.480
440.86	27.460
441.22	26.795
441.57	27.516
441.92	27.643
442.27	27.778
442.63	28.614
442.98	28.175
443.33	28.669
443.68	28.692
444.03	28.504
444.39	28.525
444.74	28.535
445.09	27.623
445.44	28.767
445.79	27.538
446.15	28.366
446.50	28.269
446.85	28.988
447.20	28.723
447.55	29.341
447.91	28.325
448.26	28.224
448.61	28.480
448.96	29.721
449.31	28.685
449.66	28.595
450.02	29.483
450.37	29.515
450.72	28.902
451.07	28.588
451.42	28.712
451.77	28.961
452.12	28.555
452.47	28.699
452.83	28.941
453.18	29.130
453.53	30.155
453.88	29.486
454.23	28.588
454.58	29.367
454.93	29.430
455.28	29.922
455.63	29.335
455.98	29.777
456.34	28.916
456.69	30.747
457.04	29.551
457.39	29.268
457.74	29.754
458.09	29.764
458.44	30.765
458.79	29.397
459.14	29.942
459.49	30.504
459.84	29.958
460.19	28.262
460.54	29.983
460.89	30.069
461.24	29.023
461.59	30.327
461.94	28.808
462.29	30.459
462.64	30.356
462.99	30.257
463.34	31.408
463.69	30.012
464.04	30.573
464.39	29.316
464.74	29.932
465.09	29.988
465.44	29.936
465.79	30.037
466.14	29.495
466.49	30.053
466.84	31.074
467.19	30.751
467.54	29.553
467.89	30.000
468.24	30.970
468.59	29.994
468.94	29.953
469.29	30.954
469.64	30.515
469.99	29.892
470.34	30.507
470.68	32.057
471.03	31.434
471.38	31.458
471.73	30.234
472.08	31.726
472.43	30.704
472.78	31.234
473.13	31.290
473.48	30.816
473.83	31.573
474.17	30.657
474.52	31.630
474.87	30.509
475.22	31.042
475.57	30.218
475.92	30.811
476.27	30.990
476.61	31.205
476.96	29.875
477.31	31.089
477.66	32.791
478.01	31.164
478.36	31.007
478.70	30.000
479.05	32.209
479.40	31.688
479.75	31.220
480.10	31.691
480.45	31.723
480.79	30.884
481.14	31.158
481.49	31.713
481.84	32.115
482.19	31.785
482.53	32.313
482.88	32.034
483.23	31.525
483.58	31.223
483.92	30.718
484.27	30.906
484.62	31.106
484.97	31.065
485.31	30.306
485.66	27.977
486.01	27.793
486.36	28.578
486.70	30.556
487.05	32.647
487.40	31.925
487.75	31.323
488.09	32.263
488.44	31.689
488.79	30.759
489.13	31.571
489.48	30.485
489.83	30.865
490.17	30.417
490.52	31.691
490.87	31.937
491.22	32.236
491.56	31.655
491.91	31.967
492.26	31.588
492.60	31.526
492.95	32.251
493.30	32.810
493.64	32.194
493.99	31.404
494.34	31.882
494.68	31.649
495.03	31.894
495.37	32.224
495.72	32.063
496.07	32.209
496.41	31.103
496.76	32.152
497.11	32.017
497.45	31.636
497.80	33.096
498.14	32.472
498.49	32.077
498.84	32.998
499.18	32.299
499.53	32.556
499.87	32.967
500.22	31.923
500.56	32.569
500.91	32.540
501.26	33.273
501.60	31.993
501.95	32.870
502.29	32.251
502.64	33.144
502.98	31.967
503.33	32.311
503.67	32.447
504.02	32.399
504.36	33.601
504.71	33.027
505.06	32.651
505.40	32.633
505.75	33.971
506.09	33.610
506.44	33.844
506.78	33.119
507.13	33.011
507.47	33.349
507.82	32.576
508.16	33.556
508.51	33.099
508.85	32.310
509.19	33.728
509.54	34.390
509.88	33.269
510.23	33.123
510.57	34.316
510.92	33.672
511.26	32.804
511.61	32.690
511.95	34.407
512.30	33.727
512.64	33.383
512.98	34.567
513.33	33.317
513.67	33.605
514.02	33.776
514.36	34.220
514.70	34.323
515.05	34.619
515.39	34.173
515.74	34.995
516.08	34.812
516.42	34.537
516.77	33.964
517.11	33.161
517.46	34.677
517.80	35.115
518.14	34.875
518.49	34.219
518.83	34.540
519.17	33.764
519.52	34.539
519.86	33.791
520.20	35.623
520.55	34.173
520.89	34.797
521.23	34.673
521.58	34.689
521.92	34.618
522.26	34.708
522.61	35.706
522.95	35.294
523.29	35.402
523.64	35.090
523.98	35.140
524.32	36.504
524.66	34.718
525.01	35.674
525.35	34.463
525.69	34.397
526.04	34.041
526.38	34.885
526.72	34.717
527.06	35.601
527.41	34.402
527.75	35.333
528.09	36.128
528.43	34.813
528.78	34.162
529.12	34.805
529.46	34.008
529.80	36.613
530.15	34.725
530.49	34.579
530.83	35.065
531.17	35.544
531.51	35.199
531.86	34.435
532.20	36.037
532.54	34.470
532.88	34.606
533.22	34.885
533.57	34.680
533.91	34.961
534.25	33.861
534.59	34.655
534.93	34.182
535.27	34.310
535.62	34.849
535.96	35.328
536.30	35.135
536.64	35.375
536.98	35.363
537.32	35.988
537.66	34.997
538.01	34.079
538.35	34.470
538.69	34.255
539.03	34.703
539.37	34.335
539.71	34.595
540.05	33.993
540.39	34.597
540.73	32.969
541.07	35.132
541.42	33.018
541.76	34.104
542.10	33.957
542.44	33.252
542.78	33.637
543.12	34.267
543.46	33.578
543.80	33.094
544.14	33.573
544.48	33.570
544.82	34.829
545.16	33.810
545.50	33.493
545.84	34.476
546.18	35.617
546.52	34.140
546.86	35.031
547.20	33.842
547.54	33.770
547.88	33.273
548.22	33.275
548.56	33.879
548.90	34.627
549.24	33.860
549.58	33.565
549.92	34.120
550.26	34.498
550.60	33.567
550.94	34.541
551.28	33.861
551.62	34.434
551.96	33.786
552.30	35.755
552.64	34.785
552.98	33.063
553.32	35.177
553.66	35.177
554.00	33.859
554.34	34.427
554.68	34.668
555.02	34.625
555.36	34.583
555.69	33.504
556.03	34.741
556.37	34.856
556.71	33.989
557.05	34.696
557.39	34.837
557.73	34.214
558.07	34.834
558.41	34.618
558.75	34.821
559.08	35.003
559.42	34.774
559.76	34.532
560.10	34.494
560.44	34.960
560.78	36.062
561.12	33.682
561.45	34.672
561.79	34.127
562.13	34.134
562.47	33.785
562.81	34.873
563.15	34.154
563.48	34.058
563.82	33.857
564.16	33.677
564.50	33.015
564.84	33.628
565.17	33.882
565.51	32.739
565.85	33.670
566.19	33.065
566.52	33.704
566.86	33.843
567.20	32.572
567.54	32.873
567.88	32.773
568.21	32.856
568.55	33.525
568.89	32.501
569.23	32.319
569.56	31.809
569.90	31.789
570.24	30.995
570.57	31.366
570.91	30.435
571.25	30.662
571.59	31.060
571.92	29.584
572.26	30.334
572.60	29.975
572.93	30.476
573.27	30.318
573.61	30.307
573.95	29.837
574.28	29.713
574.62	30.082
574.96	29.356
575.29	28.949
575.63	29.314
575.97	30.275
576.30	29.706
576.64	29.444
576.98	29.134
577.31	29.041
577.65	28.972
577.98	28.709
578.32	28.958
578.66	29.250
578.99	29.326
579.33	29.969
579.67	29.533
580.00	29.085
580.34	29.821
580.67	29.082
581.01	29.316
581.35	28.891
581.68	28.749
582.02	28.599
582.35	29.382
582.69	29.644
583.02	29.415
583.36	30.027
583.70	29.925
584.03	29.566
584.37	29.795
584.70	29.046
585.04	28.854
585.37	29.143
585.71	29.428
586.04	29.546
586.38	29.689
586.72	29.631
587.05	29.598
587.39	29.743
587.72	29.545
588.06	29.787
588.39	29.898
588.73	29.815
589.06	30.164
589.40	30.854
589.73	30.495
590.07	30.438
590.40	31.102
590.73	30.505
591.07	31.013
591.40	29.666
591.74	30.405
592.07	30.857
592.41	30.481
592.74	30.174
593.08	30.000
593.41	29.775
593.75	30.086
594.08	30.779
594.41	30.705
594.75	30.355
595.08	30.350
595.42	30.357
595.75	30.287
596.09	31.210
596.42	30.992
596.75	31.146
597.09	31.636
597.42	30.989
597.75	30.380
598.09	31.071
598.42	30.599
598.76	30.837
599.09	30.082
599.42	29.098
599.76	29.944
600.09	30.197
600.42	30.230
600.76	30.284
601.09	30.302
601.42	29.866
601.76	30.000
602.09	30.343
602.42	30.752
602.76	30.627
603.09	30.176
603.42	30.347
603.76	29.528
604.09	30.163
604.42	30.532
604.76	30.556
605.09	30.475
605.42	30.622
605.75	30.308
606.09	30.086
606.42	29.697
606.75	30.022
607.09	29.416
607.42	30.443
607.75	30.207
608.08	30.308
608.42	30.149
608.75	30.017
609.08	29.966
609.41	31.098
609.75	30.134
610.08	31.794
610.41	29.907
610.74	30.882
611.07	30.817
611.41	31.166
611.74	31.871
612.07	31.557
612.40	30.466
612.73	31.051
613.07	30.465
613.40	30.847
613.73	30.525
614.06	31.551
614.39	30.272
614.72	30.568
615.06	30.414
615.39	29.773
615.72	30.569
616.05	30.695
616.38	31.130
616.71	31.505
617.05	30.884
617.38	31.300
617.71	31.371
618.04	31.462
618.37	31.038
618.70	31.731
619.03	31.541
619.36	31.566
619.69	31.839
620.03	32.141
620.36	31.902
620.69	31.894
621.02	33.399
621.35	34.615
621.68	33.044
622.01	33.737
622.34	30.614
622.67	31.340
623.00	30.702
623.33	32.250
623.66	32.361
623.99	31.402
624.32	32.034
624.65	32.239
624.99	32.575
625.32	32.658
625.65	32.434
625.98	32.610
626.31	32.318
626.64	31.941
626.97	32.258
627.30	31.587
627.63	32.108
627.96	34.009
628.29	32.451
628.62	32.074
628.95	34.268
629.28	33.815
629.61	33.165
629.94	33.222
630.26	32.119
630.59	33.420
630.92	33.593
631.25	34.794
631.58	35.405
631.91	34.396
632.24	33.429
632.57	33.966
632.90	34.804
633.23	34.286
633.56	33.776
633.89	34.504
634.22	35.447
634.55	35.699
634.88	33.117
