SpectraSuite Data File
++++++++++++++++++++++++++++++++++++
Date: Thu May 14 14:58:48 PDT 2015
User: schluterlab
Dark Spectrum Present: Yes
Reference Spectrum Present: Yes
Number of Sampled Component Spectra: 1
Spectrometers: USB2E3373
Integration Time (usec): 3000 (USB2E3373)
Spectra Averaged: 3 (USB2E3373)
Boxcar Smoothing: 0 (USB2E3373)
Correct for Electrical Dark: No (USB2E3373)
Strobe/Lamp Enabled: No (USB2E3373)
Correct for Detector Non-linearity: No (USB2E3373)
Correct for Stray Light: No (USB2E3373)
Number of Pixels in Processed Spectrum: 2048
>>>>>Begin Processed Spectral Data<<<<<
178.53	0.000
178.91	385.714
179.29	-3900.000
179.67	-2300.000
180.04	264.286
180.42	240.000
180.80	520.000
181.18	-2400.000
181.56	-1800.000
181.94	450.000
182.31	-500.000
182.69	866.667
183.07	-1000.000
183.45	725.000
183.83	-383.333
184.20	-1133.333
184.58	2300.000
184.96	-675.000
185.34	-300.000
185.72	-320.000
186.09	300.000
186.47	1300.000
186.85	580.000
187.23	-288.889
187.61	-2100.000
187.98	260.000
188.36	650.000
188.74	-725.000
189.12	-633.333
189.49	-150.000
189.87	-262.500
190.25	-133.333
190.63	-200.000
191.00	-344.444
191.38	0.000
191.76	-675.000
192.14	-483.333
192.51	1150.000
192.89	-183.333
193.27	0.000
193.65	-242.857
194.02	-1600.000
194.40	-228.571
194.78	300.000
195.15	0.000
195.53	-145.455
195.91	0.000
196.29	-375.000
196.66	-200.000
197.04	-3100.000
197.42	-242.857
197.79	-1050.000
198.17	-187.500
198.55	-314.286
198.92	-200.000
199.30	-337.500
199.68	-190.909
200.05	-142.857
200.43	-1050.000
200.81	257.143
201.18	0.000
201.56	311.111
201.94	0.000
202.31	866.667
202.69	-311.111
203.07	1000.000
203.44	-188.889
203.82	-725.000
204.19	-166.667
204.57	-350.000
204.95	-337.500
205.32	-3300.000
205.70	650.000
206.08	-383.333
206.45	-250.000
206.83	620.000
207.20	-266.667
207.58	-660.000
207.96	-400.000
208.33	-266.667
208.71	266.667
209.08	-233.333
209.46	0.000
209.84	400.000
210.21	1200.000
210.59	850.000
210.96	766.667
211.34	-450.000
211.71	-262.500
212.09	-2800.000
212.46	0.000
212.84	1650.000
213.22	-600.000
213.59	-525.000
213.97	-160.000
214.34	-500.000
214.72	616.667
215.09	-500.000
215.47	0.000
215.84	385.714
216.22	1550.000
216.59	-340.000
216.97	-400.000
217.34	-525.000
217.72	-162.500
218.09	-725.000
218.47	-825.000
218.84	0.000
219.22	480.000
219.59	-105.882
219.97	-80.000
220.34	1250.000
220.72	-211.111
221.09	-92.308
221.47	-733.333
221.84	-150.000
222.22	-342.857
222.59	0.000
222.97	-200.000
223.34	-500.000
223.72	-2500.000
224.09	-500.000
224.46	-650.000
224.84	-280.000
225.21	-314.286
225.59	-400.000
225.96	-575.000
226.34	-42.308
226.71	483.333
227.08	-1050.000
227.46	-100.000
227.83	-450.000
228.21	-89.474
228.58	350.000
228.95	850.000
229.33	-66.667
229.70	-130.000
230.08	-5.263
230.45	280.000
230.82	-466.667
231.20	-135.714
231.57	-100.000
231.95	-172.727
232.32	-163.636
232.69	-85.000
233.07	-550.000
233.44	-111.765
233.81	-220.000
234.19	-44.444
234.56	-54.545
234.93	-13.793
235.31	-84.211
235.68	-50.000
236.05	-50.000
236.43	19.231
236.80	-4.000
237.17	-51.852
237.55	-48.485
237.92	-180.000
238.29	-22.581
238.67	-20.455
239.04	-22.222
239.41	-26.190
239.79	-10.870
240.16	-3.704
240.53	-19.565
240.91	-7.843
241.28	14.754
241.65	22.388
242.02	12.162
242.40	-3.077
242.77	12.000
243.14	6.098
243.51	-1.316
243.89	8.974
244.26	18.812
244.63	22.549
245.00	21.495
245.38	14.912
245.75	0.885
246.12	13.492
246.49	14.729
246.87	23.571
247.24	25.828
247.61	21.053
247.98	28.859
248.36	22.840
248.73	30.061
249.10	25.683
249.47	26.368
249.84	37.173
250.22	25.389
250.59	28.889
250.96	33.636
251.33	28.061
251.70	27.778
252.08	24.583
252.45	30.738
252.82	30.579
253.19	27.344
253.56	28.897
253.94	28.846
254.31	28.788
254.68	33.566
255.05	33.225
255.42	29.592
255.79	30.744
256.16	30.795
256.54	30.464
256.91	33.770
257.28	29.508
257.65	30.573
258.02	28.614
258.39	31.909
258.76	35.780
259.14	33.333
259.51	29.971
259.88	31.728
260.25	33.333
260.62	31.507
260.99	34.699
261.36	34.048
261.73	33.687
262.10	33.516
262.47	33.780
262.85	34.596
263.22	31.688
263.59	30.526
263.96	31.202
264.33	32.481
264.70	34.568
265.07	34.606
265.44	36.735
265.81	31.944
266.18	34.921
266.55	32.589
266.92	29.385
267.29	31.947
267.66	31.929
268.03	33.188
268.40	31.733
268.77	31.207
269.14	35.463
269.51	33.991
269.88	33.607
270.25	34.608
270.62	39.451
270.99	34.545
271.36	32.871
271.73	32.809
272.10	34.669
272.47	33.667
272.84	32.129
273.21	34.669
273.58	34.677
273.95	31.154
274.32	32.510
274.69	32.495
275.06	34.249
275.43	30.129
275.80	31.217
276.17	33.333
276.54	29.478
276.91	32.200
277.28	35.805
277.65	33.932
278.02	34.375
278.39	31.341
278.76	34.271
279.13	31.738
279.50	34.536
279.87	31.664
280.23	29.930
280.60	34.068
280.97	33.224
281.34	32.428
281.71	34.518
282.08	31.229
282.45	30.606
282.82	32.025
283.19	33.926
283.56	30.984
283.92	32.432
284.29	33.965
284.66	32.841
285.03	30.769
285.40	30.912
285.77	32.817
286.14	32.061
286.51	32.572
286.87	30.806
287.24	34.789
287.61	29.895
287.98	28.097
288.35	31.213
288.72	29.882
289.08	32.211
289.45	30.030
289.82	29.066
290.19	31.466
290.56	31.972
290.93	31.098
291.29	29.614
291.66	29.890
292.03	27.680
292.40	31.429
292.77	28.706
293.13	26.793
293.50	27.595
293.87	27.517
294.24	29.600
294.60	28.192
294.97	24.698
295.34	27.785
295.71	26.860
296.08	25.581
296.44	24.755
296.81	27.284
297.18	24.408
297.55	25.118
297.91	25.860
298.28	23.460
298.65	24.970
299.02	25.030
299.38	24.027
299.75	25.350
300.12	24.769
300.48	24.885
300.85	25.309
301.22	25.951
301.59	25.571
301.95	26.215
302.32	24.667
302.69	25.082
303.05	25.354
303.42	24.501
303.79	23.438
304.15	26.078
304.52	24.524
304.89	24.921
305.25	23.188
305.62	23.197
305.99	22.990
306.35	23.790
306.72	24.302
307.09	22.234
307.45	23.913
307.82	24.016
308.19	22.906
308.55	23.240
308.92	23.369
309.29	22.414
309.65	23.197
310.02	23.366
310.38	23.425
310.75	23.398
311.12	22.723
311.48	23.558
311.85	23.457
312.22	22.581
312.58	22.817
312.95	22.562
313.31	23.848
313.68	22.436
314.05	23.035
314.41	23.679
314.78	22.616
315.14	23.049
315.51	23.546
315.87	22.772
316.24	22.831
316.61	23.446
316.97	22.172
317.34	22.840
317.70	23.144
318.07	22.928
318.43	22.619
318.80	22.659
319.16	22.833
319.53	21.337
319.89	22.524
320.26	23.043
320.62	22.340
320.99	23.730
321.35	21.904
321.72	23.256
322.08	22.182
322.45	22.042
322.81	22.202
323.18	21.770
323.54	22.845
323.91	22.954
324.27	21.429
324.64	21.914
325.00	22.886
325.37	23.014
325.73	22.397
326.10	24.250
326.46	22.964
326.83	23.619
327.19	23.150
327.56	23.794
327.92	22.423
328.29	22.984
328.65	21.859
329.01	22.843
329.38	22.999
329.74	24.486
330.11	22.945
330.47	22.831
330.84	23.342
331.20	23.333
331.56	21.750
331.93	23.180
332.29	22.797
332.66	22.591
333.02	22.948
333.38	22.064
333.75	22.054
334.11	23.103
334.48	21.617
334.84	23.364
335.20	21.830
335.57	23.019
335.93	22.645
336.29	22.296
336.66	21.447
337.02	22.826
337.38	22.194
337.75	21.074
338.11	22.792
338.47	22.746
338.84	20.643
339.20	21.567
339.56	22.982
339.93	21.675
340.29	22.383
340.65	20.681
341.02	22.745
341.38	22.070
341.74	22.115
342.11	21.641
342.47	20.413
342.83	22.142
343.20	22.567
343.56	22.294
343.92	22.418
344.28	21.172
344.65	22.558
345.01	21.841
345.37	20.762
345.73	20.811
346.10	22.309
346.46	22.231
346.82	21.948
347.19	21.161
347.55	21.244
347.91	21.248
348.27	22.762
348.63	21.021
349.00	21.104
349.36	21.487
349.72	20.833
350.08	21.917
350.45	20.228
350.81	22.398
351.17	21.429
351.53	21.304
351.89	20.501
352.26	21.418
352.62	20.373
352.98	20.992
353.34	21.359
353.70	21.032
354.07	21.088
354.43	20.957
354.79	21.765
355.15	20.898
355.51	21.857
355.87	20.868
356.24	20.532
356.60	20.325
356.96	20.756
357.32	20.149
357.68	19.839
358.04	20.808
358.40	21.791
358.77	20.980
359.13	20.606
359.49	20.372
359.85	21.755
360.21	20.230
360.57	20.244
360.93	20.663
361.29	20.491
361.66	20.348
362.02	21.364
362.38	19.888
362.74	20.531
363.10	20.083
363.46	20.845
363.82	20.668
364.18	20.408
364.54	21.438
364.90	21.204
365.26	20.138
365.62	21.333
365.98	19.877
366.35	19.664
366.71	21.361
367.07	20.027
367.43	20.420
367.79	21.168
368.15	21.538
368.51	19.959
368.87	20.314
369.23	20.800
369.59	20.082
369.95	21.366
370.31	19.041
370.67	20.633
371.03	20.568
371.39	19.745
371.75	19.945
372.11	19.851
372.47	18.957
372.83	20.681
373.19	19.947
373.55	19.986
373.91	19.155
374.27	19.922
374.63	20.095
374.99	20.623
375.35	21.429
375.71	20.323
376.07	19.432
376.42	20.025
376.78	20.883
377.14	20.274
377.50	21.063
377.86	20.628
378.22	20.180
378.58	20.155
378.94	20.423
379.30	19.977
379.66	19.636
380.02	19.908
380.38	20.910
380.74	20.282
381.09	19.803
381.45	20.739
381.81	20.902
382.17	21.437
382.53	20.760
382.89	20.993
383.25	20.516
383.61	19.676
383.97	19.906
384.32	21.232
384.68	19.896
385.04	20.879
385.40	21.626
385.76	20.926
386.12	20.108
386.48	20.176
386.83	20.799
387.19	20.684
387.55	20.657
387.91	20.662
388.27	20.843
388.62	19.874
388.98	20.135
389.34	21.096
389.70	21.150
390.06	20.782
390.42	20.843
390.77	20.831
391.13	20.305
391.49	20.773
391.85	20.364
392.20	20.344
392.56	20.969
392.92	21.047
393.28	20.785
393.64	20.391
393.99	20.976
394.35	20.444
394.71	20.838
395.07	20.240
395.42	20.788
395.78	21.085
396.14	21.509
396.50	20.724
396.85	21.407
397.21	20.533
397.57	21.378
397.92	21.879
398.28	20.098
398.64	20.366
399.00	20.628
399.35	20.733
399.71	20.870
400.07	20.719
400.42	20.314
400.78	21.065
401.14	21.685
401.49	21.148
401.85	20.523
402.21	20.452
402.57	21.831
402.92	20.922
403.28	20.667
403.63	19.869
403.99	20.606
404.35	21.148
404.70	21.246
405.06	20.707
405.42	21.370
405.77	21.919
406.13	21.124
406.49	19.932
406.84	21.053
407.20	20.794
407.55	20.291
407.91	20.742
408.27	19.022
408.62	20.652
408.98	19.965
409.34	19.824
409.69	20.643
410.05	20.516
410.40	21.984
410.76	20.639
411.11	20.748
411.47	20.762
411.83	21.164
412.18	21.205
412.54	20.391
412.89	20.955
413.25	20.711
413.60	20.965
413.96	20.979
414.31	20.680
414.67	20.572
415.03	21.108
415.38	20.429
415.74	20.525
416.09	21.407
416.45	19.912
416.80	20.502
417.16	21.137
417.51	21.233
417.87	20.601
418.22	20.599
418.58	21.561
418.93	20.256
419.29	20.407
419.64	20.768
420.00	20.237
420.35	20.382
420.71	20.850
421.06	19.724
421.42	20.986
421.77	19.655
422.12	21.247
422.48	19.918
422.83	21.303
423.19	21.220
423.54	21.239
423.90	20.928
424.25	20.907
424.61	20.551
424.96	19.769
425.31	21.019
425.67	20.988
426.02	20.863
426.38	21.125
426.73	20.982
427.09	20.877
427.44	20.699
427.79	20.453
428.15	20.377
428.50	20.225
428.85	20.551
429.21	21.117
429.56	20.731
429.92	20.344
430.27	20.771
430.62	20.518
430.98	20.266
431.33	20.332
431.68	20.594
432.04	22.092
432.39	20.621
432.74	19.578
433.10	20.065
433.45	20.290
433.80	20.118
434.16	20.093
434.51	21.069
434.86	21.227
435.22	21.520
435.57	21.108
435.92	20.033
436.28	20.876
436.63	21.300
436.98	20.505
437.34	20.011
437.69	20.143
438.04	20.836
438.39	20.276
438.75	21.029
439.10	20.507
439.45	21.465
439.81	20.621
440.16	20.643
440.51	20.736
440.86	20.233
441.22	19.829
441.57	20.807
441.92	20.563
442.27	21.061
442.63	21.113
442.98	20.811
443.33	20.252
443.68	20.763
444.03	20.696
444.39	20.758
444.74	20.674
445.09	20.375
445.44	21.128
445.79	20.833
446.15	21.017
446.50	20.568
446.85	20.477
447.20	21.228
447.55	21.025
447.91	19.686
448.26	20.190
448.61	20.510
448.96	21.137
449.31	20.626
449.66	20.425
450.02	20.411
450.37	20.618
450.72	20.721
451.07	20.103
451.42	20.451
451.77	20.456
452.12	20.429
452.47	20.321
452.83	20.439
453.18	20.432
453.53	20.448
453.88	19.989
454.23	20.678
454.58	21.068
454.93	20.570
455.28	20.289
455.63	20.125
455.98	20.279
456.34	20.495
456.69	21.399
457.04	20.981
457.39	20.455
457.74	19.966
458.09	20.868
458.44	20.420
458.79	19.907
459.14	19.979
459.49	20.374
459.84	20.304
460.19	19.767
460.54	20.727
460.89	20.646
461.24	19.828
461.59	20.808
461.94	19.681
462.29	20.717
462.64	19.916
462.99	19.837
463.34	20.831
463.69	19.930
464.04	20.956
464.39	20.572
464.74	19.840
465.09	20.358
465.44	20.225
465.79	20.360
466.14	20.010
466.49	20.211
466.84	20.220
467.19	20.520
467.54	20.035
467.89	18.908
468.24	19.668
468.59	19.166
468.94	20.513
469.29	20.336
469.64	19.708
469.99	19.694
470.34	18.193
470.68	19.822
471.03	20.629
471.38	19.621
471.73	19.441
472.08	19.797
472.43	19.567
472.78	20.466
473.13	19.027
473.48	19.335
473.83	21.126
474.17	20.399
474.52	20.024
474.87	20.321
475.22	19.662
475.57	19.730
475.92	20.607
476.27	19.755
476.61	20.561
476.96	19.760
477.31	20.495
477.66	19.937
478.01	19.065
478.36	19.591
478.70	19.507
479.05	20.757
479.40	19.793
479.75	19.741
480.10	19.564
480.45	20.602
480.79	20.000
481.14	20.358
481.49	20.082
481.84	20.670
482.19	20.387
482.53	20.245
482.88	20.115
483.23	19.653
483.58	19.301
483.92	19.193
484.27	19.517
484.62	19.472
484.97	20.257
485.31	20.063
485.66	19.471
486.01	20.572
486.36	21.705
486.70	22.479
487.05	22.861
487.40	21.198
487.75	19.975
488.09	19.977
488.44	18.896
488.79	19.359
489.13	19.660
489.48	18.718
489.83	18.994
490.17	19.239
490.52	19.294
490.87	19.585
491.22	19.281
491.56	20.179
491.91	20.061
492.26	20.121
492.60	19.283
492.95	19.614
493.30	19.857
493.64	19.536
493.99	19.430
494.34	19.730
494.68	19.743
495.03	19.383
495.37	19.885
495.72	19.002
496.07	19.413
496.41	18.919
496.76	19.892
497.11	20.255
497.45	19.724
497.80	18.792
498.14	19.138
498.49	18.658
498.84	19.881
499.18	19.523
499.53	19.821
499.87	19.780
500.22	18.477
500.56	19.118
500.91	19.451
501.26	19.955
501.60	18.869
501.95	19.583
502.29	19.351
502.64	19.764
502.98	19.629
503.33	19.136
503.67	19.930
504.02	19.746
504.36	19.929
504.71	19.201
505.06	18.236
505.40	19.424
505.75	19.080
506.09	19.567
506.44	18.942
506.78	19.633
507.13	19.272
507.47	19.943
507.82	19.318
508.16	19.598
508.51	19.128
508.85	19.225
509.19	20.038
509.54	19.741
509.88	19.184
510.23	19.184
510.57	19.623
510.92	19.255
511.26	18.519
511.61	18.252
511.95	19.375
512.30	19.892
512.64	19.040
512.98	18.659
513.33	19.506
513.67	18.868
514.02	19.060
514.36	18.977
514.70	19.115
515.05	20.021
515.39	18.845
515.74	19.883
516.08	18.542
516.42	19.833
516.77	18.980
517.11	18.257
517.46	19.830
517.80	19.081
518.14	19.967
518.49	19.143
518.83	19.212
519.17	18.040
519.52	19.235
519.86	18.743
520.20	19.276
520.55	18.839
520.89	17.680
521.23	18.537
521.58	19.266
521.92	18.527
522.26	18.786
522.61	18.981
522.95	18.685
523.29	19.368
523.64	18.778
523.98	19.224
524.32	19.484
524.66	19.351
525.01	18.516
525.35	18.610
525.69	18.677
526.04	17.968
526.38	18.908
526.72	19.204
527.06	18.651
527.41	18.950
527.75	18.705
528.09	18.713
528.43	18.236
528.78	18.497
529.12	18.750
529.46	18.831
529.80	19.050
530.15	18.957
530.49	18.387
530.83	18.654
531.17	18.459
531.51	18.532
531.86	19.050
532.20	18.598
532.54	18.492
532.88	18.485
533.22	19.328
533.57	19.215
533.91	18.687
534.25	19.333
534.59	19.425
534.93	18.393
535.27	18.648
535.62	19.500
535.96	18.245
536.30	18.978
536.64	19.820
536.98	18.942
537.32	19.630
537.66	19.401
538.01	18.973
538.35	18.392
538.69	18.630
539.03	20.172
539.37	19.435
539.71	18.559
540.05	19.305
540.39	18.399
540.73	18.822
541.07	18.394
541.42	18.783
541.76	19.158
542.10	19.119
542.44	18.270
542.78	19.161
543.12	18.772
543.46	19.109
543.80	18.585
544.14	19.270
544.48	19.858
544.82	19.330
545.16	18.724
545.50	18.814
545.84	19.228
546.18	19.568
546.52	18.790
546.86	18.553
547.20	17.748
547.54	18.851
547.88	18.505
548.22	18.889
548.56	19.310
548.90	18.985
549.24	18.845
549.58	19.243
549.92	19.133
550.26	19.223
550.60	18.251
550.94	19.340
551.28	18.350
551.62	18.935
551.96	18.188
552.30	19.439
552.64	19.664
552.98	19.027
553.32	19.228
553.66	18.650
554.00	19.609
554.34	19.884
554.68	18.915
555.02	18.660
555.36	19.198
555.69	18.322
556.03	18.033
556.37	18.836
556.71	17.819
557.05	18.786
557.39	18.315
557.73	19.287
558.07	18.411
558.41	19.336
558.75	17.512
559.08	18.232
559.42	17.147
559.76	19.132
560.10	18.017
560.44	18.734
560.78	19.562
561.12	19.520
561.45	19.282
561.79	18.864
562.13	19.470
562.47	18.866
562.81	18.671
563.15	19.508
563.48	18.645
563.82	18.501
564.16	18.474
564.50	19.130
564.84	19.764
565.17	19.412
565.51	17.664
565.85	19.240
566.19	18.203
566.52	19.310
566.86	18.846
567.20	19.195
567.54	19.809
567.88	20.183
568.21	19.911
568.55	19.904
568.89	20.200
569.23	20.786
569.56	20.946
569.90	21.062
570.24	20.911
570.57	20.590
570.91	20.606
571.25	20.769
571.59	20.874
571.92	21.189
572.26	20.963
572.60	20.830
572.93	20.679
573.27	20.792
573.61	20.858
573.95	21.025
574.28	21.140
574.62	21.191
574.96	20.931
575.29	20.753
575.63	20.790
575.97	21.078
576.30	20.429
576.64	20.854
576.98	21.162
577.31	20.872
577.65	21.771
577.98	21.611
578.32	21.107
578.66	21.730
578.99	21.176
579.33	20.698
579.67	20.807
580.00	20.611
580.34	20.921
580.67	20.366
581.01	20.662
581.35	20.709
581.68	21.562
582.02	22.036
582.35	22.197
582.69	22.426
583.02	21.566
583.36	21.052
583.70	20.314
584.03	19.702
584.37	20.118
584.70	19.756
585.04	20.274
585.37	20.681
585.71	20.863
586.04	21.136
586.38	21.286
586.72	20.481
587.05	20.798
587.39	20.718
587.72	21.029
588.06	21.132
588.39	21.060
588.73	20.317
589.06	20.570
589.40	20.221
589.73	19.826
590.07	19.728
590.40	20.115
590.73	20.255
591.07	19.583
591.40	19.596
591.74	19.793
592.07	20.503
592.41	19.598
592.74	20.696
593.08	21.401
593.41	21.464
593.75	21.034
594.08	20.872
594.41	20.897
594.75	20.292
595.08	19.717
595.42	20.519
595.75	20.633
596.09	19.892
596.42	20.100
596.75	19.992
597.09	20.283
597.42	19.587
597.75	19.875
598.09	20.159
598.42	20.064
598.76	19.870
599.09	20.007
599.42	20.248
599.76	20.667
600.09	20.554
600.42	20.654
600.76	20.476
601.09	19.980
601.42	20.014
601.76	20.172
602.09	19.979
602.42	19.920
602.76	19.926
603.09	19.750
603.42	20.159
603.76	20.120
604.09	20.617
604.42	20.220
604.76	19.368
605.09	20.503
605.42	19.896
605.75	20.038
606.09	20.269
606.42	19.664
606.75	19.753
607.09	19.393
607.42	19.461
607.75	20.125
608.08	19.811
608.42	20.073
608.75	19.237
609.08	19.143
609.41	19.497
609.75	19.152
610.08	19.921
610.41	19.881
610.74	19.412
611.07	19.627
611.41	19.955
611.74	19.723
612.07	20.150
612.40	19.392
612.73	18.680
613.07	18.875
613.40	19.201
613.73	19.210
614.06	19.578
614.39	20.117
614.72	19.893
615.06	19.394
615.39	18.898
615.72	20.142
616.05	18.990
616.38	19.778
616.71	18.913
617.05	18.584
617.38	19.262
617.71	19.060
618.04	18.511
618.37	19.399
618.70	18.891
619.03	18.280
619.36	18.126
619.69	19.026
620.03	18.267
620.36	19.141
620.69	18.754
621.02	18.504
621.35	18.433
621.68	19.017
622.01	19.359
622.34	18.131
622.67	18.419
623.00	16.802
623.33	17.983
623.66	19.196
623.99	18.631
624.32	19.558
624.65	18.855
624.99	19.246
625.32	19.530
625.65	19.218
625.98	18.169
626.31	17.434
626.64	17.802
626.97	17.179
627.30	16.781
627.63	19.130
627.96	18.318
628.29	17.821
628.62	17.296
628.95	16.214
629.28	16.143
629.61	18.687
629.94	17.573
630.26	17.119
630.59	16.494
630.92	17.229
