SpectraSuite Data File
++++++++++++++++++++++++++++++++++++
Date: Thu May 14 15:16:23 PDT 2015
User: schluterlab
Dark Spectrum Present: Yes
Reference Spectrum Present: Yes
Number of Sampled Component Spectra: 1
Spectrometers: USB2E3373
Integration Time (usec): 3000 (USB2E3373)
Spectra Averaged: 3 (USB2E3373)
Boxcar Smoothing: 0 (USB2E3373)
Correct for Electrical Dark: No (USB2E3373)
Strobe/Lamp Enabled: No (USB2E3373)
Correct for Detector Non-linearity: No (USB2E3373)
Correct for Stray Light: No (USB2E3373)
Number of Pixels in Processed Spectrum: 2048
>>>>>Begin Processed Spectral Data<<<<<
178.53	0.000
178.91	542.857
179.29	-3900.000
179.67	-3400.000
180.04	385.714
180.42	370.000
180.80	760.000
181.18	-4200.000
181.56	-3800.000
181.94	1025.000
182.31	-925.000
182.69	1166.667
183.07	-1750.000
183.45	1125.000
183.83	-633.333
184.20	-1233.333
184.58	5000.000
184.96	-1200.000
185.34	-411.111
185.72	-740.000
186.09	511.111
186.47	2200.000
186.85	860.000
187.23	-533.333
187.61	-5700.000
187.98	860.000
188.36	925.000
188.74	-1075.000
189.12	-1200.000
189.49	-206.250
189.87	-475.000
190.25	-444.444
190.63	-820.000
191.00	-433.333
191.38	0.000
191.76	-1300.000
192.14	-700.000
192.51	1700.000
192.89	-616.667
193.27	0.000
193.65	-485.714
194.02	-4700.000
194.40	-514.286
194.78	657.143
195.15	0.000
195.53	-345.455
195.91	0.000
196.29	-900.000
196.66	-292.308
197.04	-4800.000
197.42	-485.714
197.79	-2150.000
198.17	-537.500
198.55	-571.429
198.92	-333.333
199.30	-575.000
199.68	-336.364
200.05	-242.857
200.43	-2150.000
200.81	557.143
201.18	0.000
201.56	522.222
201.94	0.000
202.31	1233.333
202.69	-477.778
203.07	3400.000
203.44	-422.222
203.82	-1075.000
204.19	-275.000
204.57	-683.333
204.95	-537.500
205.32	-4300.000
205.70	1150.000
206.08	-700.000
206.45	-533.333
206.83	980.000
207.20	-600.000
207.58	-720.000
207.96	-733.333
208.33	-516.667
208.71	408.333
209.08	-483.333
209.46	0.000
209.84	733.333
210.21	1650.000
210.59	2100.000
210.96	1433.333
211.34	-950.000
211.71	-550.000
212.09	-4200.000
212.46	0.000
212.84	2500.000
213.22	-760.000
213.59	-1125.000
213.97	-360.000
214.34	-1300.000
214.72	683.333
215.09	-1000.000
215.47	0.000
215.84	571.429
216.22	2600.000
216.59	-920.000
216.97	-800.000
217.34	-1050.000
217.72	-537.500
218.09	-875.000
218.47	-1100.000
218.84	0.000
219.22	880.000
219.59	-217.647
219.97	-200.000
220.34	2050.000
220.72	-333.333
221.09	-261.538
221.47	-1100.000
221.84	-300.000
222.22	-614.286
222.59	0.000
222.97	-387.500
223.34	-1080.000
223.72	-4400.000
224.09	-1025.000
224.46	-975.000
224.84	-640.000
225.21	-642.857
225.59	-1150.000
225.96	-975.000
226.34	-80.769
226.71	700.000
227.08	-1600.000
227.46	-226.667
227.83	-1075.000
228.21	-136.842
228.58	525.000
228.95	2100.000
229.33	-233.333
229.70	-390.000
230.08	-94.737
230.45	410.000
230.82	-1233.333
231.20	-235.714
231.57	-300.000
231.95	-354.545
232.32	-300.000
232.69	-135.000
233.07	-925.000
233.44	-241.176
233.81	-420.000
234.19	-194.444
234.56	-145.455
234.93	-134.483
235.31	-157.895
235.68	-227.778
236.05	-205.000
236.43	-123.077
236.80	-100.000
237.17	-133.333
237.55	-93.939
237.92	-370.000
238.29	-93.548
238.67	-84.091
239.04	-58.333
239.41	-78.571
239.79	-52.174
240.16	-62.963
240.53	-67.391
240.91	-76.471
241.28	-59.016
241.65	-26.866
242.02	-18.919
242.40	-53.846
242.77	-25.333
243.14	-40.244
243.51	-53.947
243.89	-29.487
244.26	-30.693
244.63	-9.804
245.00	-12.150
245.38	-19.298
245.75	-31.858
246.12	-11.905
246.49	-19.380
246.87	-10.000
247.24	-11.921
247.61	-8.553
247.98	-11.409
248.36	-11.111
248.73	-12.270
249.10	-4.918
249.47	1.493
249.84	1.047
250.22	-6.218
250.59	0.556
250.96	1.818
251.33	-4.592
251.70	1.709
252.08	-1.250
252.45	2.049
252.82	2.066
253.19	-1.953
253.56	0.000
253.94	-1.923
254.31	2.652
254.68	6.993
255.05	3.257
255.42	5.442
255.79	2.913
256.16	3.311
256.54	0.993
256.91	5.246
257.28	0.656
257.65	1.274
258.02	5.605
258.39	5.983
258.76	7.339
259.14	6.322
259.51	4.611
259.88	2.833
260.25	2.500
260.62	7.397
260.99	8.743
261.36	5.898
261.73	5.040
262.10	6.593
262.47	5.094
262.85	8.586
263.22	2.857
263.59	6.316
263.96	8.184
264.33	6.138
264.70	5.185
265.07	10.501
265.44	9.070
265.81	6.481
266.18	7.937
266.55	6.473
266.92	3.417
267.29	10.066
267.66	7.761
268.03	6.987
268.40	7.724
268.77	6.378
269.14	5.947
269.51	5.263
269.88	9.836
270.25	7.646
270.62	8.439
270.99	10.505
271.36	9.901
271.73	7.269
272.10	9.218
272.47	9.419
272.84	8.434
273.21	8.016
273.58	8.871
273.95	6.731
274.32	7.605
274.69	8.511
275.06	9.158
275.43	8.318
275.80	8.642
276.17	7.963
276.54	7.836
276.91	6.798
277.28	7.957
277.65	7.720
278.02	8.640
278.39	8.877
278.76	7.909
279.13	7.447
279.50	9.794
279.87	6.619
280.23	6.162
280.60	7.966
280.97	8.224
281.34	8.149
281.71	9.814
282.08	9.136
282.45	8.020
282.82	7.849
283.19	6.139
283.56	6.393
283.92	9.459
284.29	9.795
284.66	9.688
285.03	6.250
285.40	8.810
285.77	7.585
286.14	10.076
286.51	7.763
286.87	6.793
287.24	9.488
287.61	7.623
287.98	6.344
288.35	8.580
288.72	9.615
289.08	8.931
289.45	7.249
289.82	6.476
290.19	8.046
290.56	7.324
290.93	7.846
291.29	6.061
291.66	6.887
292.03	6.242
292.40	7.755
292.77	6.604
293.13	9.202
293.50	6.307
293.87	7.919
294.24	8.133
294.60	9.102
294.97	6.846
295.34	8.579
295.71	6.431
296.08	7.494
296.44	7.353
296.81	8.161
297.18	6.227
297.55	5.307
297.91	6.762
298.28	6.161
298.65	8.442
299.02	6.494
299.38	7.323
299.75	8.178
300.12	6.597
300.48	6.912
300.85	6.412
301.22	7.271
301.59	6.393
301.95	6.554
302.32	7.000
302.69	7.448
303.05	5.985
303.42	8.315
303.79	7.604
304.15	7.886
304.52	6.660
304.89	7.644
305.25	7.143
305.62	7.419
305.99	6.804
306.35	6.956
306.72	7.859
307.09	6.497
307.45	7.246
307.82	6.862
308.19	6.256
308.55	7.040
308.92	6.913
309.29	7.280
309.65	6.530
310.02	5.545
310.38	6.102
310.75	7.087
311.12	6.999
311.48	6.745
311.85	7.028
312.22	6.926
312.58	6.385
312.95	5.736
313.31	7.227
313.68	8.333
314.05	7.678
314.41	7.832
314.78	7.811
315.14	8.530
315.51	8.033
315.87	8.371
316.24	8.128
316.61	8.348
316.97	6.516
317.34	7.937
317.70	8.035
318.07	8.642
318.43	9.269
318.80	10.368
319.16	8.155
319.53	8.398
319.89	7.888
320.26	9.431
320.62	8.156
320.99	8.864
321.35	10.166
321.72	10.419
322.08	8.656
322.45	10.659
322.81	10.650
323.18	10.354
323.54	11.121
323.91	11.121
324.27	9.639
324.64	11.839
325.00	10.448
325.37	11.384
325.73	10.579
326.10	12.409
326.46	12.215
326.83	12.410
327.19	13.150
327.56	12.411
327.92	12.510
328.29	12.258
328.65	11.893
329.01	13.706
329.38	13.395
329.74	14.555
330.11	13.955
330.47	13.479
330.84	13.092
331.20	14.667
331.56	14.038
331.93	14.477
332.29	15.169
332.66	15.615
333.02	14.573
333.38	14.513
333.75	14.983
334.11	15.013
334.48	14.686
334.84	15.038
335.20	15.365
335.57	14.587
335.93	15.537
336.29	14.309
336.66	15.139
337.02	15.217
337.38	15.901
337.75	15.702
338.11	15.896
338.47	15.550
338.84	15.059
339.20	15.670
339.56	14.827
339.93	15.107
340.29	15.378
340.65	15.247
341.02	16.201
341.38	16.653
341.74	15.174
342.11	15.688
342.47	15.330
342.83	16.184
343.20	16.435
343.56	16.520
343.92	15.612
344.28	15.781
344.65	17.442
345.01	16.381
345.37	17.185
345.73	14.887
346.10	16.537
346.46	16.772
346.82	16.854
347.19	17.341
347.55	16.616
347.91	16.642
348.27	17.375
348.63	16.756
349.00	17.226
349.36	17.621
349.72	16.443
350.08	16.716
350.45	16.350
350.81	16.365
351.17	16.842
351.53	17.665
351.89	17.844
352.26	17.015
352.62	15.821
352.98	16.870
353.34	15.833
353.70	17.565
354.07	16.766
354.43	16.553
354.79	16.230
355.15	17.071
355.51	18.056
355.87	16.978
356.24	16.578
356.60	17.147
356.96	16.827
357.32	16.877
357.68	17.496
358.04	17.066
358.40	17.761
358.77	17.105
359.13	18.612
359.49	16.134
359.85	18.492
360.21	17.647
360.57	17.803
360.93	17.842
361.29	18.456
361.66	17.958
362.02	18.928
362.38	18.131
362.74	18.925
363.10	18.157
363.46	18.767
363.82	18.963
364.18	19.141
364.54	18.326
364.90	18.729
365.26	19.103
365.62	19.467
365.98	18.720
366.35	19.329
366.71	19.388
367.07	19.147
367.43	19.238
367.79	20.040
368.15	20.201
368.51	19.215
368.87	19.726
369.23	19.200
369.59	20.287
369.95	20.284
370.31	21.269
370.67	20.770
371.03	20.083
371.39	19.678
371.75	20.977
372.11	20.528
372.47	20.447
372.83	20.681
373.19	19.880
373.55	20.732
373.91	20.927
374.27	20.569
374.63	21.583
374.99	21.684
375.35	22.078
375.71	21.677
376.07	22.660
376.42	22.607
376.78	22.374
377.14	22.208
377.50	22.960
377.86	23.707
378.22	23.473
378.58	23.365
378.94	23.709
379.30	23.081
379.66	24.691
380.02	23.370
380.38	24.251
380.74	23.831
381.09	23.984
381.45	24.659
381.81	25.703
382.17	24.584
382.53	25.673
382.89	25.000
383.25	26.026
383.61	25.463
383.97	26.090
384.32	26.615
384.68	26.276
385.04	26.721
385.40	27.048
385.76	28.195
386.12	26.870
386.48	27.882
386.83	27.890
387.19	27.868
387.55	27.758
387.91	28.425
388.27	28.118
388.62	27.721
388.98	28.257
389.34	28.462
389.70	29.460
390.06	28.893
390.42	29.458
390.77	30.464
391.13	29.871
391.49	30.616
391.85	28.182
392.20	29.597
392.56	30.301
392.92	30.207
393.28	31.012
393.64	31.006
393.99	31.784
394.35	31.133
394.71	31.677
395.07	31.377
395.42	31.525
395.78	32.785
396.14	31.848
396.50	31.413
396.85	30.531
397.21	32.426
397.57	31.802
397.92	31.558
398.28	32.265
398.64	32.208
399.00	32.461
399.35	32.932
399.71	32.337
400.07	33.801
400.42	33.760
400.78	33.160
401.14	33.694
401.49	33.769
401.85	33.953
402.21	34.531
402.57	34.331
402.92	33.156
403.28	33.021
403.63	34.308
403.99	34.264
404.35	34.963
404.70	34.278
405.06	33.641
405.42	34.895
405.77	35.333
406.13	35.332
406.49	35.360
406.84	35.346
407.20	35.271
407.55	35.494
407.91	35.072
408.27	35.748
408.62	35.428
408.98	36.448
409.34	35.425
409.69	36.836
410.05	36.694
410.40	36.195
410.76	36.231
411.11	37.347
411.47	36.794
411.83	37.390
412.18	36.988
412.54	36.633
412.89	37.020
413.25	37.641
413.60	38.196
413.96	37.354
414.31	37.167
414.67	37.746
415.03	37.231
415.38	38.777
415.74	37.752
416.09	37.693
416.45	37.508
416.80	37.760
417.16	38.186
417.51	38.605
417.87	39.117
418.22	38.623
418.58	38.971
418.93	39.697
419.29	39.766
419.64	38.655
420.00	39.228
420.35	40.090
420.71	38.196
421.06	39.333
421.42	40.023
421.77	38.988
422.12	39.958
422.48	40.297
422.83	40.745
423.19	40.159
423.54	41.316
423.90	41.082
424.25	40.587
424.61	39.724
424.96	41.241
425.31	40.870
425.67	41.975
426.02	41.339
426.38	41.447
426.73	41.518
427.09	41.407
427.44	41.453
427.79	41.902
428.15	41.324
428.50	42.921
428.85	42.710
429.21	42.553
429.56	43.189
429.92	42.211
430.27	41.253
430.62	42.501
430.98	42.499
431.33	42.131
431.68	42.481
432.04	44.540
432.39	43.010
432.74	42.922
433.10	43.483
433.45	41.360
433.80	41.524
434.16	43.182
434.51	44.450
434.86	44.625
435.22	45.005
435.57	43.809
435.92	44.908
436.28	43.572
436.63	45.931
436.98	44.283
437.34	44.589
437.69	44.744
438.04	45.320
438.39	44.744
438.75	44.826
439.10	45.560
439.45	44.997
439.81	45.763
440.16	45.791
440.51	46.210
440.86	45.359
441.22	44.534
441.57	45.597
441.92	45.247
442.27	46.515
442.63	45.902
442.98	46.158
443.33	46.712
443.68	47.423
444.03	47.413
444.39	47.388
444.74	47.882
445.09	46.883
445.44	47.787
445.79	48.084
446.15	47.020
446.50	46.408
446.85	47.811
447.20	46.712
447.55	47.490
447.91	48.639
448.26	47.463
448.61	46.759
448.96	48.820
449.31	48.303
449.66	47.876
450.02	48.101
450.37	46.990
450.72	47.740
451.07	48.235
451.42	48.354
451.77	47.304
452.12	49.661
452.47	48.960
452.83	48.423
453.18	49.270
453.53	49.052
453.88	49.034
454.23	48.927
454.58	48.578
454.93	48.908
455.28	49.669
455.63	49.517
455.98	47.821
456.34	49.588
456.69	49.677
457.04	49.941
457.39	49.889
457.74	50.168
458.09	48.929
458.44	50.647
458.79	49.613
459.14	50.184
459.49	50.764
459.84	50.735
460.19	49.528
460.54	51.051
460.89	50.503
461.24	49.885
461.59	50.858
461.94	49.059
462.29	51.176
462.64	49.909
462.99	51.538
463.34	50.681
463.69	50.176
464.04	50.639
464.39	51.289
464.74	50.513
465.09	51.096
465.44	50.215
465.79	50.608
466.14	51.277
466.49	51.474
466.84	52.011
467.19	51.503
467.54	50.470
467.89	50.345
468.24	51.745
468.59	51.129
468.94	51.457
469.29	52.130
469.64	51.748
469.99	52.581
470.34	51.361
470.68	53.383
471.03	53.307
471.38	53.630
471.73	51.756
472.08	53.236
472.43	52.920
472.78	53.401
473.13	53.161
473.48	52.568
473.83	53.685
474.17	52.286
474.52	54.299
474.87	52.713
475.22	53.577
475.57	52.908
475.92	52.912
476.27	53.355
476.61	53.375
476.96	52.711
477.31	52.772
477.66	54.302
478.01	53.330
478.36	52.493
478.70	52.808
479.05	53.732
479.40	53.801
479.75	53.266
480.10	53.245
480.45	53.464
480.79	53.923
481.14	53.722
481.49	53.567
481.84	53.220
482.19	54.409
482.53	53.957
482.88	55.117
483.23	54.780
483.58	53.930
483.92	53.590
484.27	53.302
484.62	52.805
484.97	54.121
485.31	52.728
485.66	48.420
486.01	48.440
486.36	51.707
486.70	55.283
487.05	57.746
487.40	56.141
487.75	55.140
488.09	54.325
488.44	52.836
488.79	53.120
489.13	53.005
489.48	52.039
489.83	53.722
490.17	52.531
490.52	53.900
490.87	54.780
491.22	54.939
491.56	54.224
491.91	54.557
492.26	55.041
492.60	54.482
492.95	54.585
493.30	55.580
493.64	55.322
493.99	54.342
494.34	54.834
494.68	54.390
495.03	54.273
495.37	55.570
495.72	55.102
496.07	54.557
496.41	54.869
496.76	55.421
497.11	55.711
497.45	56.280
497.80	54.776
498.14	55.465
498.49	56.526
498.84	55.393
499.18	55.556
499.53	55.830
499.87	56.000
500.22	55.076
500.56	55.601
500.91	56.979
501.26	56.364
501.60	56.032
501.95	56.014
502.29	55.331
502.64	55.400
502.98	55.220
503.33	55.076
503.67	55.997
504.02	56.086
504.36	57.328
504.71	57.281
505.06	55.616
505.40	56.901
505.75	55.874
506.09	55.801
506.44	57.799
506.78	57.018
507.13	57.077
507.47	59.261
507.82	57.008
508.16	57.457
508.51	56.118
508.85	57.959
509.19	58.314
509.54	59.078
509.88	57.212
510.23	57.309
510.57	58.579
510.92	58.249
511.26	57.576
511.61	58.088
511.95	57.443
512.30	57.262
512.64	57.221
512.98	57.379
513.33	59.577
513.67	58.848
514.02	60.245
514.36	58.875
514.70	59.792
515.05	58.968
515.39	58.163
515.74	59.332
516.08	58.743
516.42	59.288
516.77	59.411
517.11	59.412
517.46	60.551
517.80	60.075
518.14	60.664
518.49	59.544
518.83	59.180
519.17	59.828
519.52	59.434
519.86	60.190
520.20	60.863
520.55	60.350
520.89	60.191
521.23	60.078
521.58	62.260
521.92	60.850
522.26	59.507
522.61	61.748
522.95	61.707
523.29	62.471
523.64	60.538
523.98	61.380
524.32	61.719
524.66	61.810
525.01	61.325
525.35	59.391
525.69	60.093
526.04	61.137
526.38	61.839
526.72	60.438
527.06	60.587
527.41	61.341
527.75	61.283
528.09	61.570
528.43	61.930
528.78	60.751
529.12	60.034
529.46	61.327
529.80	62.014
530.15	60.580
530.49	61.566
530.83	62.043
531.17	61.410
531.51	61.252
531.86	62.500
532.20	62.988
532.54	60.922
532.88	61.515
533.22	60.931
533.57	61.396
533.91	60.718
534.25	61.221
534.59	62.586
534.93	61.743
535.27	60.225
535.62	62.820
535.96	61.476
536.30	62.162
536.64	62.162
536.98	61.870
537.32	62.222
537.66	60.948
538.01	60.785
538.35	60.049
538.69	62.079
539.03	62.416
539.37	59.953
539.71	60.901
540.05	61.631
540.39	61.064
540.73	61.263
541.07	61.496
541.42	59.835
541.76	60.795
542.10	61.218
542.44	60.780
542.78	61.010
543.12	60.250
543.46	60.134
543.80	59.412
544.14	59.964
544.48	60.757
544.82	61.460
545.16	61.717
545.50	61.294
545.84	62.033
546.18	61.975
546.52	61.274
546.86	60.818
547.20	61.387
547.54	61.049
547.88	59.855
548.22	60.292
548.56	61.673
548.90	60.955
549.24	61.763
549.58	60.883
549.92	61.607
550.26	61.359
550.60	61.264
550.94	61.772
551.28	61.122
551.62	62.197
551.96	60.065
552.30	61.122
552.64	61.108
552.98	61.323
553.32	62.830
553.66	61.350
554.00	61.412
554.34	61.647
554.68	61.524
555.02	61.235
555.36	63.379
555.69	60.794
556.03	60.971
556.37	61.890
556.71	61.826
557.05	62.045
557.39	61.579
557.73	62.814
558.07	61.457
558.41	61.661
558.75	61.934
559.08	62.978
559.42	61.385
559.76	61.398
560.10	61.353
560.44	60.950
560.78	60.562
561.12	62.131
561.45	62.105
561.79	62.515
562.13	61.491
562.47	61.221
562.81	61.646
563.15	61.237
563.48	61.591
563.82	60.822
564.16	60.630
564.50	59.952
564.84	60.590
565.17	62.059
565.51	60.414
565.85	60.808
566.19	58.007
566.52	59.684
566.86	61.404
567.20	60.305
567.54	60.276
567.88	61.213
568.21	60.277
568.55	60.048
568.89	59.601
569.23	59.865
569.56	58.695
569.90	58.232
570.24	59.157
570.57	58.018
570.91	58.083
571.25	57.535
571.59	57.668
571.92	57.116
572.26	56.988
572.60	58.149
572.93	58.196
573.27	56.898
573.61	56.670
573.95	56.057
574.28	55.571
574.62	56.685
574.96	55.382
575.29	56.224
575.63	56.410
575.97	56.838
576.30	55.514
576.64	56.240
576.98	55.923
577.31	56.088
577.65	56.521
577.98	55.572
578.32	55.396
578.66	55.918
578.99	56.277
579.33	56.959
579.67	56.052
580.00	55.316
580.34	55.846
580.67	56.267
581.01	56.123
581.35	55.426
581.68	55.421
582.02	55.147
582.35	56.708
582.69	56.500
583.02	56.700
583.36	56.582
583.70	57.328
584.03	56.228
584.37	56.406
584.70	55.012
585.04	54.476
585.37	54.795
585.71	55.167
586.04	55.328
586.38	56.221
586.72	55.854
587.05	56.536
587.39	56.270
587.72	56.531
588.06	56.093
588.39	56.510
588.73	55.238
589.06	55.982
589.40	57.191
589.73	56.202
590.07	56.698
590.40	57.133
590.73	56.875
591.07	58.377
591.40	55.832
591.74	57.790
592.07	57.694
592.41	57.058
592.74	57.366
593.08	56.911
593.41	56.693
593.75	56.351
594.08	57.679
594.41	58.526
594.75	56.991
595.08	57.133
595.42	57.630
595.75	57.088
596.09	57.303
596.42	57.757
596.75	56.542
597.09	58.020
597.42	57.608
597.75	56.370
598.09	57.460
598.42	58.062
598.76	56.477
599.09	56.461
599.42	56.252
599.76	56.157
600.09	57.090
600.42	56.523
600.76	56.110
601.09	56.654
601.42	56.505
601.76	55.483
602.09	55.933
602.42	55.871
602.76	56.273
603.09	56.938
603.42	56.358
603.76	55.638
604.09	57.417
604.42	56.587
604.76	56.317
605.09	57.479
605.42	56.978
605.75	56.654
606.09	57.111
606.42	56.476
606.75	55.247
607.09	55.952
607.42	57.110
607.75	57.249
608.08	56.827
608.42	55.945
608.75	57.048
609.08	56.791
609.41	57.389
609.75	57.098
610.08	57.740
610.41	57.094
610.74	56.891
611.07	57.060
611.41	57.354
611.74	58.060
612.07	57.223
612.40	56.844
612.73	58.044
613.07	57.115
613.40	58.181
613.73	57.053
614.06	57.704
614.39	57.046
614.72	56.623
615.06	57.122
615.39	56.936
615.72	56.967
616.05	57.504
616.38	57.820
616.71	58.255
617.05	57.188
617.38	57.785
617.71	57.667
618.04	58.392
618.37	58.415
618.70	59.050
619.03	58.244
619.36	59.679
619.69	58.680
620.03	57.815
620.36	57.853
620.69	58.051
621.02	58.727
621.35	62.119
621.68	60.882
622.01	60.071
622.34	58.508
622.67	59.244
623.00	58.300
623.33	59.987
623.66	59.209
623.99	59.250
624.32	59.324
624.65	58.687
624.99	60.208
625.32	58.263
625.65	59.811
625.98	58.102
626.31	59.957
626.64	60.806
626.97	59.715
627.30	59.150
627.63	58.365
627.96	60.511
628.29	60.156
628.62	61.713
628.95	61.525
629.28	60.493
629.61	61.532
629.94	60.586
630.26	59.492
630.59	60.535
630.92	59.567
631.25	62.970
631.58	62.712
631.91	62.699
632.24	59.750
632.57	61.765
632.90	63.791
633.23	62.755
633.56	63.265
