SpectraSuite Data File
++++++++++++++++++++++++++++++++++++
Date: Thu May 14 14:42:01 PDT 2015
User: schluterlab
Dark Spectrum Present: Yes
Reference Spectrum Present: Yes
Number of Sampled Component Spectra: 1
Spectrometers: USB2E3373
Integration Time (usec): 3000 (USB2E3373)
Spectra Averaged: 3 (USB2E3373)
Boxcar Smoothing: 0 (USB2E3373)
Correct for Electrical Dark: No (USB2E3373)
Strobe/Lamp Enabled: No (USB2E3373)
Correct for Detector Non-linearity: No (USB2E3373)
Correct for Stray Light: No (USB2E3373)
Number of Pixels in Processed Spectrum: 2048
>>>>>Begin Processed Spectral Data<<<<<
178.53	0.000
178.91	-100.000
179.29	-400.000
179.67	800.000
180.04	28.571
180.42	-90.000
180.80	120.000
181.18	800.000
181.56	1200.000
181.94	-175.000
182.31	125.000
182.69	-166.667
183.07	350.000
183.45	25.000
183.83	116.667
184.20	200.000
184.58	-1400.000
184.96	50.000
185.34	0.000
185.72	200.000
186.09	-33.333
186.47	-200.000
186.85	20.000
187.23	-33.333
187.61	400.000
187.98	20.000
188.36	-75.000
188.74	200.000
189.12	333.333
189.49	56.250
189.87	-37.500
190.25	33.333
190.63	280.000
191.00	11.111
191.38	0.000
191.76	225.000
192.14	116.667
192.51	200.000
192.89	283.333
193.27	0.000
193.65	100.000
194.02	-300.000
194.40	57.143
194.78	-14.286
195.15	0.000
195.53	145.455
195.91	0.000
196.29	100.000
196.66	123.077
197.04	-300.000
197.42	28.571
197.79	-150.000
198.17	62.500
198.55	85.714
198.92	22.222
199.30	12.500
199.68	0.000
200.05	57.143
200.43	350.000
200.81	114.286
201.18	0.000
201.56	66.667
201.94	0.000
202.31	-33.333
202.69	66.667
203.07	-1200.000
203.44	77.778
203.82	150.000
204.19	41.667
204.57	16.667
204.95	37.500
205.32	400.000
205.70	-300.000
206.08	150.000
206.45	200.000
206.83	-20.000
207.20	166.667
207.58	80.000
207.96	0.000
208.33	233.333
208.71	-8.333
209.08	200.000
209.46	0.000
209.84	50.000
210.21	-150.000
210.59	-100.000
210.96	266.667
211.34	175.000
211.71	112.500
212.09	-200.000
212.46	0.000
212.84	300.000
213.22	120.000
213.59	225.000
213.97	30.000
214.34	400.000
214.72	-16.667
215.09	250.000
215.47	0.000
215.84	-85.714
216.22	-50.000
216.59	280.000
216.97	40.000
217.34	150.000
217.72	87.500
218.09	225.000
218.47	125.000
218.84	0.000
219.22	-0.000
219.59	88.235
219.97	60.000
220.34	100.000
220.72	100.000
221.09	146.154
221.47	600.000
221.84	20.000
222.22	-85.714
222.59	0.000
222.97	187.500
223.34	-220.000
223.72	400.000
224.09	25.000
224.46	75.000
224.84	-20.000
225.21	85.714
225.59	-100.000
225.96	-25.000
226.34	38.462
226.71	-116.667
227.08	200.000
227.46	6.667
227.83	200.000
228.21	115.789
228.58	25.000
228.95	350.000
229.33	58.333
229.70	100.000
230.08	136.842
230.45	10.000
230.82	166.667
231.20	78.571
231.57	50.000
231.95	109.091
232.32	36.364
232.69	90.000
233.07	275.000
233.44	17.647
233.81	10.000
234.19	27.778
234.56	50.000
234.93	44.828
235.31	31.579
235.68	66.667
236.05	40.000
236.43	88.462
236.80	120.000
237.17	44.444
237.55	57.576
237.92	160.000
238.29	48.387
238.67	38.636
239.04	75.000
239.41	38.095
239.79	56.522
240.16	57.407
240.53	65.217
240.91	45.098
241.28	47.541
241.65	76.119
242.02	60.811
242.40	44.615
242.77	44.000
243.14	42.683
243.51	48.684
243.89	57.692
244.26	50.495
244.63	49.020
245.00	61.682
245.38	53.509
245.75	46.018
246.12	42.063
246.49	48.062
246.87	56.429
247.24	56.954
247.61	52.632
247.98	48.993
248.36	44.444
248.73	51.534
249.10	51.913
249.47	54.726
249.84	53.927
250.22	47.668
250.59	57.778
250.96	50.000
251.33	53.571
251.70	50.855
252.08	49.583
252.45	52.869
252.82	51.240
253.19	51.172
253.56	52.852
253.94	50.769
254.31	50.000
254.68	54.545
255.05	52.117
255.42	50.340
255.79	48.867
256.16	48.675
256.54	50.331
256.91	50.820
257.28	50.164
257.65	50.637
258.02	51.327
258.39	46.439
258.76	57.187
259.14	56.034
259.51	50.720
259.88	49.008
260.25	53.611
260.62	49.863
260.99	49.727
261.36	51.475
261.73	51.194
262.10	55.769
262.47	53.083
262.85	52.020
263.22	52.468
263.59	50.526
263.96	50.639
264.33	50.384
264.70	50.370
265.07	53.222
265.44	52.381
265.81	49.769
266.18	51.247
266.55	52.232
266.92	49.886
267.29	49.453
267.66	51.220
268.03	52.402
268.40	50.939
268.77	51.708
269.14	52.423
269.51	53.947
269.88	51.025
270.25	49.698
270.62	50.844
270.99	51.313
271.36	48.119
271.73	48.134
272.10	49.098
272.47	50.501
272.84	50.402
273.21	49.900
273.58	51.815
273.95	47.308
274.32	46.768
274.69	50.677
275.06	48.535
275.43	46.580
275.80	49.206
276.17	47.963
276.54	45.896
276.91	46.869
277.28	49.186
277.65	47.397
278.02	48.897
278.39	50.543
278.76	49.912
279.13	48.936
279.50	47.766
279.87	47.585
280.23	44.894
280.60	45.593
280.97	49.671
281.34	49.406
281.71	49.915
282.08	46.512
282.45	47.136
282.82	45.840
283.19	46.688
283.56	45.902
283.92	47.147
284.29	47.867
284.66	47.783
285.03	43.590
285.40	45.595
285.77	46.440
286.14	46.718
286.51	44.292
286.87	44.866
287.24	46.084
287.61	45.291
287.98	43.656
288.35	44.231
288.72	42.751
289.08	44.363
289.45	41.272
289.82	43.524
290.19	43.247
290.56	43.380
290.93	42.511
291.29	42.975
291.66	41.185
292.03	39.891
292.40	42.449
292.77	39.623
293.13	39.783
293.50	41.130
293.87	39.463
294.24	41.467
294.60	39.697
294.97	37.718
295.34	39.181
295.71	37.705
296.08	37.339
296.44	38.603
296.81	38.368
297.18	38.232
297.55	36.439
297.91	36.773
298.28	34.242
298.65	36.861
299.02	35.301
299.38	36.270
299.75	35.631
300.12	36.111
300.48	36.060
300.85	35.433
301.22	35.347
301.59	34.132
301.95	35.706
302.32	36.222
302.69	33.844
303.05	34.494
303.42	35.477
303.79	33.854
304.15	34.069
304.52	33.192
304.89	33.717
305.25	33.023
305.62	33.647
305.99	33.299
306.35	33.972
306.72	35.574
307.09	33.706
307.45	35.093
307.82	33.703
308.19	31.988
308.55	33.462
308.92	33.398
309.29	31.992
309.65	31.871
310.02	32.475
310.38	32.185
310.75	33.204
311.12	33.653
311.48	32.551
311.85	32.669
312.22	31.879
312.58	30.798
312.95	30.784
313.31	31.527
313.68	31.685
314.05	32.520
314.41	34.244
314.78	32.698
315.14	32.668
315.51	32.779
315.87	32.403
316.24	31.872
316.61	32.238
316.97	30.498
317.34	32.187
317.70	31.878
318.07	32.011
318.43	32.653
318.80	31.187
319.16	29.785
319.53	30.677
319.89	29.886
320.26	31.317
320.62	29.433
320.99	30.933
321.35	31.423
321.72	32.093
322.08	30.929
322.45	31.978
322.81	31.859
323.18	31.327
323.54	31.897
323.91	32.117
324.27	31.842
324.64	32.074
325.00	30.348
325.37	29.730
325.73	30.826
326.10	30.738
326.46	31.678
326.83	30.985
327.19	30.551
327.56	30.593
327.92	30.134
328.29	30.000
328.65	29.983
329.01	31.810
329.38	30.581
329.74	31.079
330.11	31.250
330.47	30.244
330.84	30.491
331.20	31.500
331.56	31.369
331.93	30.879
332.29	30.593
332.66	30.565
333.02	29.983
333.38	29.950
333.75	29.966
334.11	30.442
334.48	30.363
334.84	30.841
335.20	30.143
335.57	31.029
335.93	31.074
336.29	29.867
336.66	29.689
337.02	29.264
337.38	30.782
337.75	29.008
338.11	30.614
338.47	31.514
338.84	29.780
339.20	28.981
339.56	29.901
339.93	28.818
340.29	29.791
340.65	29.684
341.02	30.168
341.38	29.345
341.74	28.894
342.11	29.767
342.47	28.197
342.83	30.274
343.20	30.172
343.56	29.030
343.92	29.303
344.28	29.531
344.65	29.690
345.01	30.421
345.37	29.005
345.73	28.059
346.10	29.719
346.46	28.481
346.82	28.839
347.19	29.412
347.55	29.363
347.91	28.232
348.27	28.680
348.63	29.703
349.00	27.666
349.36	28.996
349.72	28.943
350.08	28.455
350.45	28.289
350.81	29.713
351.17	28.571
351.53	29.037
351.89	28.929
352.26	28.209
352.62	28.507
352.98	28.855
353.34	26.587
353.70	28.428
354.07	28.689
354.43	28.094
354.79	27.375
355.15	27.962
355.51	27.632
355.87	27.749
356.24	28.061
356.60	28.086
356.96	28.391
357.32	26.766
357.68	27.892
358.04	28.518
358.40	28.209
358.77	27.339
359.13	27.400
359.49	26.840
359.85	27.266
360.21	27.475
360.57	27.136
360.93	27.715
361.29	27.439
361.66	26.503
362.02	28.392
362.38	27.266
362.74	27.374
363.10	27.648
363.46	27.008
363.82	27.415
364.18	27.023
364.54	28.008
364.90	27.759
365.26	27.172
365.62	27.867
365.98	27.297
366.35	27.450
366.71	27.959
367.07	27.402
367.43	26.527
367.79	28.401
368.15	27.492
368.51	27.064
368.87	27.302
369.23	26.867
369.59	27.049
369.95	27.586
370.31	26.536
370.67	26.272
371.03	26.593
371.39	26.595
371.75	26.616
372.11	26.897
372.47	25.728
372.83	26.963
373.19	25.484
373.55	26.626
373.91	26.653
374.27	25.679
374.63	27.673
374.99	25.928
375.35	27.338
375.71	27.226
376.07	26.210
376.42	25.756
376.78	27.160
377.14	26.326
377.50	27.008
377.86	26.786
378.22	26.467
378.58	27.765
378.94	25.998
379.30	26.362
379.66	26.161
380.02	26.313
380.38	27.131
380.74	26.761
381.09	26.829
381.45	25.909
381.81	27.693
382.17	26.485
382.53	26.491
382.89	25.395
383.25	26.964
383.61	24.942
383.97	26.031
384.32	26.077
384.68	25.406
385.04	26.200
385.40	26.812
385.76	27.491
386.12	26.032
386.48	26.824
386.83	27.235
387.19	26.593
387.55	25.352
387.91	26.142
388.27	26.155
388.62	26.060
388.98	25.663
389.34	25.633
389.70	26.554
390.06	26.288
390.42	26.205
390.77	26.249
391.13	25.763
391.49	27.234
391.85	26.242
392.20	26.512
392.56	26.462
392.92	25.900
393.28	26.479
393.64	25.754
393.99	25.799
394.35	25.993
394.71	26.467
395.07	25.988
395.42	26.328
395.78	26.935
396.14	26.263
396.50	26.247
396.85	25.283
397.21	25.325
397.57	26.561
397.92	26.289
398.28	25.204
398.64	25.343
399.00	25.079
399.35	25.864
399.71	26.793
400.07	26.165
400.42	25.960
400.78	25.405
401.14	25.213
401.49	26.663
401.85	25.814
402.21	25.261
402.57	25.176
402.92	25.236
403.28	25.937
403.63	25.477
403.99	25.891
404.35	24.957
404.70	24.873
405.06	25.054
405.42	25.000
405.77	26.609
406.13	24.419
406.49	25.845
406.84	25.485
407.20	25.433
407.55	25.197
407.91	25.456
408.27	25.383
408.62	26.178
408.98	24.898
409.34	25.279
409.69	26.576
410.05	25.205
410.40	25.812
410.76	25.014
411.11	25.132
411.47	25.123
411.83	26.102
412.18	25.301
412.54	25.311
412.89	25.262
413.25	25.508
413.60	26.020
413.96	25.058
414.31	24.873
414.67	25.462
415.03	25.354
415.38	25.032
415.74	24.740
416.09	25.170
416.45	25.297
416.80	24.602
417.16	25.287
417.51	24.969
417.87	24.525
418.22	24.611
418.58	24.721
418.93	25.437
419.29	25.092
419.64	24.430
420.00	24.392
420.35	24.986
420.71	24.067
421.06	24.267
421.42	25.172
421.77	24.125
422.12	24.947
422.48	25.294
422.83	25.575
423.19	24.350
423.54	24.502
423.90	24.406
424.25	25.333
424.61	24.512
424.96	24.767
425.31	24.947
425.67	24.745
426.02	25.069
426.38	24.799
426.73	24.554
427.09	24.856
427.44	23.812
427.79	25.428
428.15	23.630
428.50	23.596
428.85	23.823
429.21	24.787
429.56	24.038
429.92	23.833
430.27	24.386
430.62	24.963
430.98	24.496
431.33	24.487
431.68	24.186
432.04	24.937
432.39	24.264
432.74	24.030
433.10	24.392
433.45	23.411
433.80	23.873
434.16	23.244
434.51	24.666
434.86	24.756
435.22	24.814
435.57	25.177
435.92	24.151
436.28	23.606
436.63	23.867
436.98	23.296
437.34	24.803
437.69	24.656
438.04	23.797
438.39	24.354
438.75	23.962
439.10	24.577
439.45	23.756
439.81	23.503
440.16	23.378
440.51	24.415
440.86	23.180
441.22	23.580
441.57	23.952
441.92	24.151
442.27	24.697
442.63	23.895
442.98	24.280
443.33	24.093
443.68	24.281
444.03	24.553
444.39	23.948
444.74	24.349
445.09	24.633
445.44	23.288
445.79	24.377
446.15	23.895
446.50	23.979
446.85	24.173
447.20	23.549
447.55	23.849
447.91	23.927
448.26	24.101
448.61	24.017
448.96	24.678
449.31	23.542
449.66	23.094
450.02	23.840
450.37	24.454
450.72	23.520
451.07	24.317
451.42	23.512
451.77	23.513
452.12	23.646
452.47	23.232
452.83	23.761
453.18	23.993
453.53	23.148
453.88	23.468
454.23	23.390
454.58	23.389
454.93	22.937
455.28	24.082
455.63	23.024
455.98	23.017
456.34	23.498
456.69	23.163
457.04	24.113
457.39	23.060
457.74	24.553
458.09	23.064
458.44	23.114
458.79	23.259
459.14	23.755
459.49	23.713
459.84	23.977
460.19	22.710
460.54	23.737
460.89	23.822
461.24	22.701
461.59	23.575
461.94	22.704
462.29	23.852
462.64	22.752
462.99	23.352
463.34	23.686
463.69	23.095
464.04	22.902
464.39	23.487
464.74	23.546
465.09	23.183
465.44	23.391
465.79	23.321
466.14	23.033
466.49	23.789
466.84	23.526
467.19	23.468
467.54	22.855
467.89	22.874
468.24	22.050
468.59	22.467
468.94	21.795
469.29	21.536
469.64	21.424
469.99	23.582
470.34	22.277
470.68	22.420
471.03	22.331
471.38	22.302
471.73	22.172
472.08	21.827
472.43	22.035
472.78	22.544
473.13	21.429
473.48	22.840
473.83	22.519
474.17	22.685
474.52	23.211
474.87	22.536
475.22	22.930
475.57	22.326
475.92	23.245
476.27	22.364
476.61	22.430
476.96	22.419
477.31	22.376
477.66	22.823
478.01	22.267
478.36	21.884
478.70	22.217
479.05	22.751
479.40	22.409
479.75	21.902
480.10	22.406
480.45	22.470
480.79	22.313
481.14	22.610
481.49	21.945
481.84	22.237
482.19	22.796
482.53	22.737
482.88	22.862
483.23	22.143
483.58	22.358
483.92	21.809
484.27	21.211
484.62	21.576
484.97	22.356
485.31	21.823
485.66	22.171
486.01	23.084
486.36	23.833
486.70	24.775
487.05	25.020
487.40	24.774
487.75	24.122
488.09	23.500
488.44	22.349
488.79	23.035
489.13	22.339
489.48	21.553
489.83	21.891
490.17	21.021
490.52	21.264
490.87	21.362
491.22	21.534
491.56	21.032
491.91	20.933
492.26	22.068
492.60	21.119
492.95	20.799
493.30	21.560
493.64	20.981
493.99	21.447
494.34	21.037
494.68	20.642
495.03	21.498
495.37	21.749
495.72	21.542
496.07	20.815
496.41	21.236
496.76	21.643
497.11	22.420
497.45	21.623
497.80	21.013
498.14	21.406
498.49	21.094
498.84	21.115
499.18	21.278
499.53	21.614
499.87	21.626
500.22	20.659
500.56	20.783
500.91	21.053
501.26	21.636
501.60	20.504
501.95	21.407
502.29	21.413
502.64	21.076
502.98	21.182
503.33	20.734
503.67	21.108
504.02	21.454
504.36	20.777
504.71	21.222
505.06	20.691
505.40	21.115
505.75	20.947
506.09	21.317
506.44	20.474
506.78	21.835
507.13	20.839
507.47	20.938
507.82	20.265
508.16	19.885
508.51	19.831
508.85	20.737
509.19	20.654
509.54	21.134
509.88	19.961
510.23	21.030
510.57	20.928
510.92	20.271
511.26	20.539
511.61	19.652
511.95	20.595
512.30	21.369
512.64	19.890
512.98	20.460
513.33	20.968
513.67	20.092
514.02	19.775
514.36	20.665
514.70	20.469
515.05	19.604
515.39	20.000
515.74	20.361
516.08	20.127
516.42	20.094
516.77	19.558
517.11	19.804
517.46	19.512
517.80	20.631
518.14	20.620
518.49	19.902
518.83	20.117
519.17	19.925
519.52	20.178
519.86	19.535
520.20	20.128
520.55	19.770
520.89	19.651
521.23	19.263
521.58	19.831
521.92	19.830
522.26	18.557
522.61	20.197
522.95	19.781
523.29	19.310
523.64	18.946
523.98	19.395
524.32	20.401
524.66	19.977
525.01	19.139
525.35	19.127
525.69	18.852
526.04	18.829
526.38	20.057
526.72	19.435
527.06	18.944
527.41	18.834
527.75	19.656
528.09	19.658
528.43	19.242
528.78	18.902
529.12	19.381
529.46	19.168
529.80	18.822
530.15	19.884
530.49	19.039
530.83	19.717
531.17	18.877
531.51	19.555
531.86	19.531
532.20	20.122
532.54	19.390
532.88	19.939
533.22	19.505
533.57	19.677
533.91	20.202
534.25	19.785
534.59	20.172
534.93	19.242
535.27	20.732
535.62	19.898
535.96	21.150
536.30	19.918
536.64	20.240
536.98	19.926
537.32	19.444
537.66	19.588
538.01	19.577
538.35	19.123
538.69	18.930
539.03	19.988
539.37	19.611
539.71	19.580
540.05	19.424
540.39	20.232
540.73	19.490
541.07	19.620
541.42	18.665
541.76	19.514
542.10	19.843
542.44	19.793
542.78	19.891
543.12	19.726
543.46	19.475
543.80	18.885
544.14	20.048
544.48	20.095
544.82	20.227
545.16	20.095
545.50	19.593
545.84	19.412
546.18	20.679
546.52	19.554
546.86	19.623
547.20	20.483
547.54	19.288
547.88	19.470
548.22	19.474
548.56	19.310
548.90	19.701
549.24	20.304
549.58	19.937
549.92	19.005
550.26	20.129
550.60	19.528
550.94	19.858
551.28	20.066
551.62	19.205
551.96	18.576
552.30	19.822
552.64	20.348
552.98	19.775
553.32	19.614
553.66	19.421
554.00	19.798
554.34	19.691
554.68	18.786
555.02	18.397
555.36	19.527
555.69	19.347
556.03	19.672
556.37	19.712
556.71	19.531
557.05	19.936
557.39	19.642
557.73	19.683
558.07	18.477
558.41	20.199
558.75	19.473
559.08	18.998
559.42	18.930
559.76	19.267
560.10	19.089
560.44	18.602
560.78	20.438
561.12	19.458
561.45	19.221
561.79	20.391
562.13	19.532
562.47	19.236
562.81	19.367
563.15	19.508
563.48	20.137
563.82	20.254
564.16	19.443
564.50	20.381
564.84	19.941
565.17	20.118
565.51	20.023
565.85	20.606
566.19	19.816
566.52	20.070
566.86	19.921
567.20	19.956
567.54	20.287
567.88	21.050
568.21	21.789
568.55	21.679
568.89	22.015
569.23	21.504
569.56	21.884
569.90	22.701
570.24	22.327
570.57	22.803
570.91	22.811
571.25	23.575
571.59	23.351
571.92	22.948
572.26	23.240
572.60	22.987
572.93	22.766
573.27	22.563
573.61	22.949
573.95	23.185
574.28	23.452
574.62	23.147
574.96	23.269
575.29	23.662
575.63	23.701
575.97	23.210
576.30	23.489
576.64	22.811
576.98	23.781
577.31	23.478
577.65	23.917
577.98	24.078
578.32	23.515
578.66	23.860
578.99	23.756
579.33	23.499
579.67	23.504
580.00	23.511
580.34	23.473
580.67	23.124
581.01	23.540
581.35	23.281
581.68	23.673
582.02	23.990
582.35	24.581
582.69	24.615
583.02	24.481
583.36	24.584
583.70	23.767
584.03	23.326
584.37	23.747
584.70	23.178
585.04	23.204
585.37	23.354
585.71	23.689
586.04	23.514
586.38	23.816
586.72	23.114
587.05	23.305
587.39	23.261
587.72	23.684
588.06	23.694
588.39	23.575
588.73	22.857
589.06	23.589
589.40	23.602
589.73	23.008
590.07	22.115
590.40	22.955
590.73	22.694
591.07	22.413
591.40	22.395
591.74	21.701
592.07	22.899
592.41	22.397
592.74	21.654
593.08	22.962
593.41	23.243
593.75	23.448
594.08	23.750
594.41	23.429
594.75	22.418
595.08	22.712
595.42	23.377
595.75	22.990
596.09	23.145
596.42	22.788
596.75	22.578
597.09	23.192
597.42	22.130
597.75	21.599
598.09	22.302
598.42	22.316
598.76	22.583
599.09	22.428
599.42	22.259
599.76	22.978
600.09	23.490
600.42	22.689
600.76	23.250
601.09	23.332
601.42	23.035
601.76	22.379
602.09	22.516
602.42	21.592
602.76	23.026
603.09	22.394
603.42	22.905
603.76	22.763
604.09	23.456
604.42	22.239
604.76	22.108
605.09	22.218
605.42	22.169
605.75	22.654
606.09	22.359
606.42	22.328
606.75	22.001
607.09	22.043
607.42	22.967
607.75	22.782
608.08	22.336
608.42	21.967
608.75	22.471
609.08	21.392
609.41	22.408
609.75	22.009
610.08	22.515
610.41	21.240
610.74	22.353
611.07	22.025
611.41	21.839
611.74	22.448
612.07	21.879
612.40	21.768
612.73	22.152
613.07	21.614
613.40	21.655
613.73	21.570
614.06	22.130
614.39	21.380
614.72	21.446
615.06	21.511
615.39	21.846
615.72	21.374
616.05	22.244
616.38	21.241
616.71	21.317
617.05	20.980
617.38	22.311
617.71	21.166
618.04	21.587
618.37	21.694
618.70	21.776
619.03	20.729
619.36	21.332
619.69	21.140
620.03	20.088
620.36	20.798
620.69	21.345
621.02	19.751
621.35	20.827
621.68	19.812
622.01	20.071
622.34	19.247
622.67	19.656
623.00	18.893
623.33	20.836
623.66	20.039
623.99	19.355
624.32	20.663
624.65	20.656
624.99	20.806
625.32	21.424
625.65	19.622
625.98	19.661
626.31	20.624
626.64	20.513
626.97	19.280
627.30	19.742
627.63	19.580
627.96	19.820
628.29	20.156
628.62	18.304
628.95	19.018
629.28	18.607
629.61	19.192
629.94	18.326
630.26	19.492
630.59	17.271
630.92	18.615
631.25	19.320
631.58	19.115
631.91	18.650
632.24	19.212
632.57	19.260
632.90	18.054
633.23	18.367
633.56	17.551
633.89	17.459
634.22	18.399
634.55	19.415
