SpectraSuite Data File
++++++++++++++++++++++++++++++++++++
Date: Thu May 14 15:19:28 PDT 2015
User: schluterlab
Dark Spectrum Present: Yes
Reference Spectrum Present: Yes
Number of Sampled Component Spectra: 1
Spectrometers: USB2E3373
Integration Time (usec): 3000 (USB2E3373)
Spectra Averaged: 3 (USB2E3373)
Boxcar Smoothing: 0 (USB2E3373)
Correct for Electrical Dark: No (USB2E3373)
Strobe/Lamp Enabled: No (USB2E3373)
Correct for Detector Non-linearity: No (USB2E3373)
Correct for Stray Light: No (USB2E3373)
Number of Pixels in Processed Spectrum: 2048
>>>>>Begin Processed Spectral Data<<<<<
178.53	0.000
178.91	542.857
179.29	-5000.000
179.67	-4700.000
180.04	428.571
180.42	430.000
180.80	1020.000
181.18	-4000.000
181.56	-3400.000
181.94	1000.000
182.31	-1075.000
182.69	1500.000
183.07	-2450.000
183.45	1200.000
183.83	-666.667
184.20	-1233.333
184.58	3400.000
184.96	-1100.000
185.34	-577.778
185.72	-700.000
186.09	611.111
186.47	2100.000
186.85	860.000
187.23	-500.000
187.61	-4500.000
187.98	800.000
188.36	1100.000
188.74	-950.000
189.12	-966.667
189.49	-218.750
189.87	-437.500
190.25	-433.333
190.63	-780.000
191.00	-433.333
191.38	0.000
191.76	-950.000
192.14	-633.333
192.51	1900.000
192.89	-650.000
193.27	0.000
193.65	-600.000
194.02	-5200.000
194.40	-457.143
194.78	600.000
195.15	0.000
195.53	-263.636
195.91	0.000
196.29	-900.000
196.66	-284.615
197.04	-4700.000
197.42	-642.857
197.79	-1950.000
198.17	-475.000
198.55	-657.143
198.92	-377.778
199.30	-450.000
199.68	-254.545
200.05	-235.714
200.43	-2250.000
200.81	671.429
201.18	0.000
201.56	511.111
201.94	0.000
202.31	1266.667
202.69	-544.444
203.07	3000.000
203.44	-400.000
203.82	-975.000
204.19	-308.333
204.57	-566.667
204.95	-412.500
205.32	-4000.000
205.70	825.000
206.08	-733.333
206.45	-600.000
206.83	920.000
207.20	-750.000
207.58	-720.000
207.96	-700.000
208.33	-516.667
208.71	366.667
209.08	-533.333
209.46	0.000
209.84	666.667
210.21	2200.000
210.59	1900.000
210.96	1833.333
211.34	-975.000
211.71	-437.500
212.09	-3700.000
212.46	0.000
212.84	2750.000
213.22	-1020.000
213.59	-1225.000
213.97	-360.000
214.34	-1100.000
214.72	666.667
215.09	-1000.000
215.47	0.000
215.84	528.571
216.22	2700.000
216.59	-680.000
216.97	-720.000
217.34	-1025.000
217.72	-387.500
218.09	-1275.000
218.47	-1275.000
218.84	0.000
219.22	820.000
219.59	-258.824
219.97	-145.000
220.34	2100.000
220.72	-455.556
221.09	-215.385
221.47	-1133.333
221.84	-380.000
222.22	-485.714
222.59	0.000
222.97	-575.000
223.34	-880.000
223.72	-4200.000
224.09	-1175.000
224.46	-1125.000
224.84	-660.000
225.21	-614.286
225.59	-1050.000
225.96	-850.000
226.34	-173.077
226.71	650.000
227.08	-2200.000
227.46	-253.333
227.83	-1125.000
228.21	-200.000
228.58	575.000
228.95	2500.000
229.33	-308.333
229.70	-360.000
230.08	-94.737
230.45	460.000
230.82	-1233.333
231.20	-264.286
231.57	-241.667
231.95	-290.909
232.32	-381.818
232.69	-160.000
233.07	-925.000
233.44	-205.882
233.81	-270.000
234.19	-172.222
234.56	-136.364
234.93	-113.793
235.31	-110.526
235.68	-194.444
236.05	-200.000
236.43	-103.846
236.80	-120.000
237.17	-111.111
237.55	-78.788
237.92	-480.000
238.29	-106.452
238.67	-70.455
239.04	-66.667
239.41	-88.095
239.79	-65.217
240.16	-50.000
240.53	-65.217
240.91	-64.706
241.28	-40.984
241.65	-25.373
242.02	-14.865
242.40	-43.077
242.77	-36.000
243.14	-30.488
243.51	-50.000
243.89	-32.051
244.26	-12.871
244.63	-17.647
245.00	-15.888
245.38	-12.281
245.75	-28.319
246.12	-7.937
246.49	-7.752
246.87	-4.286
247.24	-5.960
247.61	0.000
247.98	1.342
248.36	-1.852
248.73	-2.454
249.10	-1.093
249.47	6.468
249.84	6.283
250.22	0.000
250.59	9.444
250.96	5.000
251.33	4.082
251.70	5.983
252.08	6.250
252.45	9.836
252.82	5.785
253.19	6.250
253.56	9.506
253.94	5.385
254.31	7.955
254.68	13.986
255.05	11.401
255.42	5.782
255.79	9.709
256.16	8.940
256.54	7.285
256.91	10.164
257.28	8.197
257.65	10.828
258.02	10.324
258.39	13.390
258.76	14.679
259.14	14.080
259.51	13.545
259.88	9.915
260.25	10.556
260.62	14.247
260.99	13.388
261.36	13.941
261.73	10.875
262.10	10.714
262.47	13.137
262.85	15.152
263.22	11.169
263.59	9.211
263.96	15.090
264.33	11.509
264.70	13.333
265.07	14.081
265.44	17.914
265.81	15.972
266.18	15.193
266.55	14.955
266.92	14.579
267.29	15.536
267.66	16.408
268.03	14.847
268.40	13.779
268.77	12.301
269.14	12.555
269.51	16.447
269.88	15.164
270.25	15.292
270.62	17.722
270.99	15.556
271.36	15.842
271.73	13.949
272.10	15.431
272.47	14.228
272.84	16.867
273.21	13.627
273.58	16.129
273.95	14.038
274.32	14.639
274.69	14.313
275.06	16.850
275.43	12.384
275.80	15.520
276.17	13.519
276.54	13.060
276.91	13.417
277.28	14.647
277.65	17.056
278.02	15.625
278.39	15.399
278.76	15.817
279.13	14.007
279.50	16.151
279.87	15.206
280.23	13.556
280.60	15.254
280.97	16.283
281.34	16.808
281.71	16.244
282.08	14.120
282.45	14.894
282.82	13.972
283.19	13.893
283.56	14.754
283.92	15.766
284.29	17.536
284.66	15.764
285.03	15.865
285.40	16.538
285.77	15.789
286.14	15.420
286.51	15.068
286.87	14.376
287.24	15.964
287.61	13.602
287.98	15.257
288.35	17.456
288.72	15.680
289.08	16.252
289.45	15.237
289.82	15.663
290.19	13.793
290.56	13.380
290.93	13.552
291.29	14.325
291.66	15.014
292.03	12.076
292.40	15.918
292.77	11.725
293.13	15.020
293.50	13.141
293.87	12.886
294.24	14.800
294.60	13.274
294.97	13.154
295.34	12.164
295.71	12.863
296.08	11.886
296.44	12.255
296.81	11.815
297.18	13.948
297.55	12.854
297.91	11.507
298.28	13.033
298.65	12.128
299.02	12.987
299.38	11.785
299.75	13.551
300.12	12.847
300.48	13.134
300.85	13.386
301.22	13.087
301.59	11.187
301.95	12.542
302.32	12.667
302.69	12.048
303.05	13.602
303.42	11.863
303.79	12.708
304.15	12.934
304.52	12.474
304.89	13.927
305.25	12.836
305.62	12.226
305.99	12.887
306.35	13.004
306.72	14.168
307.09	11.980
307.45	14.182
307.82	12.916
308.19	13.118
308.55	13.983
308.92	12.950
309.29	12.835
309.65	12.476
310.02	13.366
310.38	12.500
310.75	14.272
311.12	13.231
311.48	12.610
311.85	13.675
312.22	13.378
312.58	12.864
312.95	13.193
313.31	13.911
313.68	14.011
314.05	13.821
314.41	15.392
314.78	14.078
315.14	14.701
315.51	14.312
315.87	14.761
316.24	15.160
316.61	16.607
316.97	14.842
317.34	15.608
317.70	14.934
318.07	14.903
318.43	16.412
318.80	17.391
319.16	16.052
319.53	14.824
319.89	14.899
320.26	15.036
320.62	16.223
320.99	16.343
321.35	15.804
321.72	16.930
322.08	16.772
322.45	17.254
322.81	17.058
323.18	16.106
323.54	16.983
323.91	16.904
324.27	16.609
324.64	16.961
325.00	17.579
325.37	17.772
325.73	17.851
326.10	17.680
326.46	19.300
326.83	18.975
327.19	18.583
327.56	19.289
327.92	18.804
328.29	19.355
328.65	18.342
329.01	18.613
329.38	19.545
329.74	20.976
330.11	19.092
330.47	19.124
330.84	19.983
331.20	21.000
331.56	20.191
331.93	20.167
332.29	20.763
332.66	21.761
333.02	19.933
333.38	19.295
333.75	19.276
334.11	20.934
334.48	21.205
334.84	21.071
335.20	21.243
335.57	21.332
335.93	21.653
336.29	20.466
336.66	20.774
337.02	20.401
337.38	21.939
337.75	19.835
338.11	21.194
338.47	21.505
338.84	20.981
339.20	20.051
339.56	20.758
339.93	20.854
340.29	21.578
340.65	20.519
341.02	20.990
341.38	22.150
341.74	20.823
342.11	20.917
342.47	20.572
342.83	22.383
343.20	21.995
343.56	21.251
343.92	22.098
344.28	20.781
344.65	22.481
345.01	20.671
345.37	22.006
345.73	21.356
346.10	21.217
346.46	20.411
346.82	21.573
347.19	22.307
347.55	21.472
347.91	21.620
348.27	22.003
348.63	22.011
349.00	22.148
349.36	22.751
349.72	21.875
350.08	22.437
350.45	21.977
350.81	21.116
351.17	21.278
351.53	22.441
351.89	22.475
352.26	22.313
352.62	22.313
352.98	21.908
353.34	21.210
353.70	22.573
354.07	22.727
354.43	23.007
354.79	22.812
355.15	21.854
355.51	22.953
355.87	22.887
356.24	24.106
356.60	21.508
356.96	22.387
357.32	22.379
357.68	23.133
358.04	22.156
358.40	22.612
358.77	23.392
359.13	22.526
359.49	22.379
359.85	23.205
360.21	23.960
360.57	23.259
360.93	23.131
361.29	24.281
361.66	23.027
362.02	24.078
362.38	23.331
362.74	23.045
363.10	24.140
363.46	23.546
363.82	23.580
364.18	24.138
364.54	23.237
364.90	24.147
365.26	23.379
365.62	25.200
365.98	24.643
366.35	23.758
366.71	25.238
367.07	24.357
367.43	25.082
367.79	24.818
368.15	25.485
368.51	25.507
368.87	25.278
369.23	24.200
369.59	24.249
369.95	24.949
370.31	26.063
370.67	25.516
371.03	24.861
371.39	24.916
371.75	25.309
372.11	25.474
372.47	24.848
372.83	25.000
373.19	25.550
373.55	24.797
373.91	25.631
374.27	26.197
374.63	27.267
374.99	26.724
375.35	26.169
375.71	27.548
376.07	26.791
376.42	26.196
376.78	26.476
377.14	25.140
377.50	26.692
377.86	27.094
378.22	27.605
378.58	27.348
378.94	26.878
379.30	27.768
379.66	27.572
380.02	27.640
380.38	28.168
380.74	28.169
381.09	29.501
381.45	28.580
381.81	29.098
382.17	28.325
382.53	28.947
382.89	28.950
383.25	29.777
383.61	28.646
383.97	29.152
384.32	28.768
384.68	28.654
385.04	29.381
385.40	30.171
385.76	30.129
386.12	29.623
386.48	29.706
386.83	30.632
387.19	29.374
387.55	29.577
387.91	30.651
388.27	30.716
388.62	30.412
388.98	30.400
389.34	31.173
389.70	32.365
390.06	31.676
390.42	30.723
390.77	31.367
391.13	30.516
391.49	32.307
391.85	31.030
392.20	31.673
392.56	31.305
392.92	31.461
393.28	31.896
393.64	30.615
393.99	31.900
394.35	32.477
394.71	31.796
395.07	31.916
395.42	30.954
395.78	32.176
396.14	32.799
396.50	32.067
396.85	31.366
397.21	32.544
397.57	31.625
397.92	32.990
398.28	31.287
398.64	32.666
399.00	31.047
399.35	32.304
399.71	32.065
400.07	31.948
400.42	32.189
400.78	31.713
401.14	32.442
401.49	32.405
401.85	32.965
402.21	33.082
402.57	32.746
402.92	32.151
403.28	32.260
403.63	33.771
403.99	31.829
404.35	32.007
404.70	32.578
405.06	32.174
405.42	31.792
405.77	32.225
406.13	32.685
406.49	33.502
406.84	33.075
407.20	32.029
407.55	31.799
407.91	32.621
408.27	31.508
408.62	32.810
408.98	32.153
409.34	32.141
409.69	33.375
410.05	32.181
410.40	33.121
410.76	32.698
411.11	32.846
411.47	32.187
411.83	32.216
412.18	32.831
412.54	32.543
412.89	32.421
413.25	33.014
413.60	33.314
413.96	32.809
414.31	33.144
414.67	32.677
415.03	32.308
415.38	33.291
415.74	32.376
416.09	33.436
416.45	32.123
416.80	33.170
417.16	34.547
417.51	33.624
417.87	34.028
418.22	34.012
418.58	33.147
418.93	33.469
419.29	34.279
419.64	33.733
420.00	33.709
420.35	33.577
420.71	33.314
421.06	34.100
421.42	34.633
421.77	33.226
422.12	34.567
422.48	34.153
422.83	34.556
423.19	34.589
423.54	36.338
423.90	34.346
424.25	35.040
424.61	33.812
424.96	35.255
425.31	35.138
425.67	35.158
426.02	35.861
426.38	35.591
426.73	34.487
427.09	36.851
427.44	35.172
427.79	36.153
428.15	35.731
428.50	36.910
428.85	35.763
429.21	36.330
429.56	36.278
429.92	35.676
430.27	36.193
430.62	36.199
430.98	36.695
431.33	36.461
431.68	36.686
432.04	37.430
432.39	37.333
432.74	37.272
433.10	36.993
433.45	35.563
433.80	37.071
434.16	36.467
434.51	37.564
434.86	37.948
435.22	38.948
435.57	37.913
435.92	37.396
436.28	37.884
436.63	37.903
436.98	37.305
437.34	38.557
437.69	37.259
438.04	37.441
438.39	37.220
438.75	38.628
439.10	38.266
439.45	37.731
439.81	38.814
440.16	37.748
440.51	38.852
440.86	38.299
441.22	37.621
441.57	39.256
441.92	38.312
442.27	39.040
442.63	39.096
442.98	39.007
443.33	38.769
443.68	39.445
444.03	40.499
444.39	40.222
444.74	39.969
445.09	39.078
445.44	40.411
445.79	40.757
446.15	39.723
446.50	40.052
446.85	40.029
447.20	40.184
447.55	39.854
447.91	39.791
448.26	40.169
448.61	39.107
448.96	40.290
449.31	40.350
449.66	39.052
450.02	39.715
450.37	39.957
450.72	40.581
451.07	40.376
451.42	40.035
451.77	40.300
452.12	40.124
452.47	39.988
452.83	40.315
453.18	40.047
453.53	39.977
453.88	40.806
454.23	40.282
454.58	39.698
454.93	40.655
455.28	41.120
455.63	39.909
455.98	40.838
456.34	40.931
456.69	40.564
457.04	41.194
457.39	40.355
457.74	41.443
458.09	39.044
458.44	40.302
458.79	40.382
459.14	39.643
459.49	41.879
459.84	41.081
460.19	40.422
460.54	41.511
460.89	41.133
461.24	41.322
461.59	41.671
461.94	40.673
462.29	41.769
462.64	40.978
462.99	41.306
463.34	40.883
463.69	40.563
464.04	40.967
464.39	42.096
464.74	40.821
465.09	40.657
465.44	40.826
465.79	40.984
466.14	40.490
466.49	41.842
466.84	42.534
467.19	42.312
467.54	39.777
467.89	41.954
468.24	41.607
468.59	41.517
468.94	40.152
469.29	41.632
469.64	41.132
469.99	43.085
470.34	42.574
470.68	42.789
471.03	42.764
471.38	42.708
471.73	41.873
472.08	41.117
472.43	42.203
472.78	42.380
473.13	42.857
473.48	41.934
473.83	43.006
474.17	42.849
474.52	43.656
474.87	43.300
475.22	43.775
475.57	42.368
475.92	42.708
476.27	42.758
476.61	42.160
476.96	43.431
477.31	44.653
477.66	45.016
478.01	43.569
478.36	42.921
478.70	42.906
479.05	43.763
479.40	44.867
479.75	42.891
480.10	44.055
480.45	43.847
480.79	43.311
481.14	42.785
481.49	43.662
481.84	43.386
482.19	44.043
482.53	44.950
482.88	44.794
483.23	45.442
483.58	43.275
483.92	43.262
484.27	43.607
484.62	42.822
484.97	42.691
485.31	42.168
485.66	39.454
486.01	39.982
486.36	42.155
486.70	44.669
487.05	46.751
487.40	45.229
487.75	45.140
488.09	44.830
488.44	43.218
488.79	44.216
489.13	42.071
489.48	42.602
489.83	43.018
490.17	43.378
490.52	43.883
490.87	43.359
491.22	43.761
491.56	43.857
491.91	43.524
492.26	44.353
492.60	44.119
492.95	44.888
493.30	44.688
493.64	43.627
493.99	45.088
494.34	43.641
494.68	44.026
495.03	44.714
495.37	45.184
495.72	44.943
496.07	45.048
496.41	43.801
496.76	45.538
497.11	45.138
497.45	45.274
497.80	45.446
498.14	44.671
498.49	45.037
498.84	45.293
499.18	44.309
499.53	44.933
499.87	45.758
500.22	44.524
500.56	44.894
500.91	46.087
501.26	46.545
501.60	44.012
501.95	45.332
502.29	45.853
502.64	45.912
502.98	45.384
503.33	45.313
503.67	44.745
504.02	45.578
504.36	47.051
504.71	45.062
505.06	46.658
505.40	46.389
505.75	46.630
506.09	46.455
506.44	47.354
506.78	47.661
507.13	46.842
507.47	48.318
507.82	47.396
508.16	46.797
508.51	47.023
508.85	46.906
509.19	47.892
509.54	47.887
509.88	48.179
510.23	48.324
510.57	47.849
510.92	48.283
511.26	47.908
511.61	47.127
511.95	48.121
512.30	49.286
512.64	46.777
512.98	48.724
513.33	49.042
513.67	49.516
514.02	49.974
514.36	49.565
514.70	50.313
515.05	51.147
515.39	50.446
515.74	49.629
516.08	49.921
516.42	51.491
516.77	50.789
517.11	49.665
517.46	50.583
517.80	51.844
518.14	51.469
518.49	51.681
518.83	50.346
519.17	50.996
519.52	50.419
519.86	51.109
520.20	51.491
520.55	50.931
520.89	52.252
521.23	51.591
521.58	53.051
521.92	52.578
522.26	51.375
522.61	52.488
522.95	52.595
523.29	53.046
523.64	51.738
523.98	52.139
524.32	54.269
524.66	53.159
525.01	52.661
525.35	52.269
525.69	52.262
526.04	51.607
526.38	52.874
526.72	52.595
527.06	53.666
527.41	53.469
527.75	53.563
528.09	53.306
528.43	53.049
528.78	52.832
529.12	53.899
529.46	53.288
529.80	53.432
530.15	53.623
530.49	52.550
530.83	52.538
531.17	54.301
531.51	52.948
531.86	54.387
532.20	54.329
532.54	53.740
532.88	52.848
533.22	52.504
533.57	52.914
533.91	52.806
534.25	53.872
534.59	53.793
534.93	54.329
535.27	53.183
535.62	54.349
535.96	55.026
536.30	53.643
536.64	53.994
536.98	54.182
537.32	54.136
537.66	54.273
538.01	51.601
538.35	52.741
538.69	53.786
539.03	53.464
539.37	52.650
539.71	53.694
540.05	54.017
540.39	52.689
540.73	53.491
541.07	53.403
541.42	53.514
541.76	52.254
542.10	52.835
542.44	53.654
542.78	53.589
543.12	53.159
543.46	52.808
543.80	52.818
544.14	52.902
544.48	53.960
544.82	54.279
545.16	53.011
545.50	53.984
545.84	53.766
546.18	53.889
546.52	54.841
546.86	52.390
547.20	54.135
547.54	53.246
547.88	52.441
548.22	54.094
548.56	53.482
548.90	53.851
549.24	53.860
549.58	53.123
549.92	54.082
550.26	54.628
550.60	54.499
550.94	53.558
551.28	54.455
551.62	54.582
551.96	52.880
552.30	52.900
552.64	53.703
552.98	53.712
553.32	55.563
553.66	55.820
554.00	55.738
554.34	54.826
554.68	53.389
555.02	54.205
555.36	54.767
555.69	53.555
556.03	53.909
556.37	55.194
556.71	54.090
557.05	54.824
557.39	53.484
557.73	54.029
558.07	52.980
558.41	54.219
558.75	55.578
559.08	55.045
559.42	54.115
559.76	54.138
560.10	53.048
560.44	54.288
560.78	54.937
561.12	54.002
561.45	54.927
561.79	54.579
562.13	55.699
562.47	53.946
562.81	54.747
563.15	54.293
563.48	54.568
563.82	54.776
564.16	54.634
564.50	53.278
564.84	53.746
565.17	53.471
565.51	53.913
565.85	54.335
566.19	53.514
566.52	54.184
566.86	53.933
567.20	53.290
567.54	53.478
567.88	53.262
568.21	53.113
568.55	52.950
568.89	53.109
569.23	52.471
569.56	53.185
569.90	52.174
570.24	51.939
570.57	52.726
570.91	51.225
571.25	50.969
571.59	51.712
571.92	50.480
572.26	50.688
572.60	51.734
572.93	50.905
573.27	50.688
573.61	50.238
573.95	50.328
574.28	50.993
574.62	50.364
574.96	49.735
575.29	49.857
575.63	49.965
575.97	50.012
576.30	50.308
576.64	50.251
576.98	49.863
577.31	50.153
577.65	50.186
577.98	49.981
578.32	49.274
578.66	49.416
578.99	50.072
579.33	51.312
579.67	50.068
580.00	49.831
580.34	49.978
580.67	49.823
581.01	49.373
581.35	49.367
581.68	49.210
582.02	49.642
582.35	51.085
582.69	51.215
583.02	50.701
583.36	51.160
583.70	51.102
584.03	50.492
584.37	50.753
584.70	50.122
585.04	50.221
585.37	49.867
585.71	49.773
586.04	50.484
586.38	51.021
586.72	50.689
587.05	50.857
587.39	51.085
587.72	51.603
588.06	51.185
588.39	50.834
588.73	51.111
589.06	51.637
589.40	52.274
589.73	52.057
590.07	51.691
590.40	51.589
590.73	51.785
591.07	52.457
591.40	51.711
591.74	52.663
592.07	52.375
592.41	51.104
592.74	50.586
593.08	52.643
593.41	52.202
593.75	52.529
594.08	52.530
594.41	52.147
594.75	51.876
595.08	51.817
595.42	52.208
595.75	51.986
596.09	52.355
596.42	52.239
596.75	52.258
597.09	53.091
597.42	51.927
597.75	51.705
598.09	52.024
598.42	52.553
598.76	50.554
599.09	51.727
599.42	50.587
599.76	50.974
600.09	52.052
600.42	51.652
600.76	52.180
601.09	52.207
601.42	50.429
601.76	52.000
602.09	51.608
602.42	51.109
602.76	51.550
603.09	52.900
603.42	52.962
603.76	52.960
604.09	51.810
604.42	52.110
604.76	51.484
605.09	52.892
605.42	52.113
605.75	51.808
606.09	51.661
606.42	51.003
606.75	51.124
607.09	51.267
607.42	51.137
607.75	50.840
608.08	51.894
608.42	51.511
608.75	51.575
609.08	51.995
609.41	52.713
609.75	53.170
610.08	52.990
610.41	51.912
610.74	51.975
611.07	52.087
611.41	52.870
611.74	52.748
612.07	53.156
612.40	52.519
612.73	52.421
613.07	52.518
613.40	53.224
613.73	52.865
614.06	52.699
614.39	52.284
614.72	52.547
615.06	51.540
615.39	52.537
615.72	52.559
616.05	52.695
616.38	53.280
616.71	53.553
617.05	52.396
617.38	51.525
617.71	52.808
618.04	52.294
618.37	52.951
618.70	53.394
619.03	54.241
619.36	53.884
619.69	53.235
620.03	54.300
620.36	53.926
620.69	53.300
621.02	54.396
621.35	57.257
621.68	54.953
622.01	54.733
622.34	53.417
622.67	54.089
623.00	52.901
623.33	55.541
623.66	54.215
623.99	53.785
624.32	54.711
624.65	52.896
624.99	55.202
625.32	54.997
625.65	55.765
625.98	55.525
626.31	53.863
626.64	54.945
626.97	54.689
627.30	53.986
627.63	53.188
627.96	56.156
628.29	54.864
628.62	54.324
628.95	56.179
629.28	55.480
629.61	55.135
629.94	55.314
630.26	56.271
