SpectraSuite Data File
++++++++++++++++++++++++++++++++++++
Date: Thu May 14 14:53:03 PDT 2015
User: schluterlab
Dark Spectrum Present: Yes
Reference Spectrum Present: Yes
Number of Sampled Component Spectra: 1
Spectrometers: USB2E3373
Integration Time (usec): 3000 (USB2E3373)
Spectra Averaged: 3 (USB2E3373)
Boxcar Smoothing: 0 (USB2E3373)
Correct for Electrical Dark: No (USB2E3373)
Strobe/Lamp Enabled: No (USB2E3373)
Correct for Detector Non-linearity: No (USB2E3373)
Correct for Stray Light: No (USB2E3373)
Number of Pixels in Processed Spectrum: 2048
>>>>>Begin Processed Spectral Data<<<<<
178.53	0.000
178.91	257.143
179.29	-1700.000
179.67	-600.000
180.04	192.857
180.42	150.000
180.80	180.000
181.18	-1500.000
181.56	-900.000
181.94	175.000
182.31	-250.000
182.69	133.333
183.07	-600.000
183.45	325.000
183.83	-183.333
184.20	-466.667
184.58	1000.000
184.96	-425.000
185.34	-100.000
185.72	-40.000
186.09	233.333
186.47	650.000
186.85	420.000
187.23	-88.889
187.61	-1300.000
187.98	260.000
188.36	225.000
188.74	-250.000
189.12	-400.000
189.49	0.000
189.87	-112.500
190.25	-88.889
190.63	-80.000
191.00	-155.556
191.38	0.000
191.76	-525.000
192.14	-166.667
192.51	1050.000
192.89	-50.000
193.27	0.000
193.65	-171.429
194.02	-2100.000
194.40	-200.000
194.78	71.429
195.15	0.000
195.53	-63.636
195.91	0.000
196.29	-50.000
196.66	-69.231
197.04	-1600.000
197.42	-114.286
197.79	-650.000
198.17	-262.500
198.55	-228.571
198.92	-55.556
199.30	-162.500
199.68	-81.818
200.05	-28.571
200.43	-900.000
200.81	214.286
201.18	0.000
201.56	277.778
201.94	0.000
202.31	466.667
202.69	-166.667
203.07	1000.000
203.44	-55.556
203.82	-450.000
204.19	-25.000
204.57	-216.667
204.95	-225.000
205.32	-1000.000
205.70	550.000
206.08	-116.667
206.45	-133.333
206.83	340.000
207.20	-100.000
207.58	-260.000
207.96	-233.333
208.33	-200.000
208.71	125.000
209.08	-200.000
209.46	0.000
209.84	333.333
210.21	750.000
210.59	650.000
210.96	500.000
211.34	-200.000
211.71	-137.500
212.09	-2100.000
212.46	0.000
212.84	1250.000
213.22	-260.000
213.59	-350.000
213.97	-130.000
214.34	-266.667
214.72	233.333
215.09	-150.000
215.47	0.000
215.84	57.143
216.22	700.000
216.59	-180.000
216.97	-300.000
217.34	-250.000
217.72	-125.000
218.09	-625.000
218.47	-300.000
218.84	0.000
219.22	280.000
219.59	-41.176
219.97	-35.000
220.34	750.000
220.72	-77.778
221.09	-38.462
221.47	-366.667
221.84	-150.000
222.22	-285.714
222.59	0.000
222.97	-50.000
223.34	-420.000
223.72	-300.000
224.09	-500.000
224.46	-575.000
224.84	-100.000
225.21	-257.143
225.59	-600.000
225.96	-325.000
226.34	-19.231
226.71	216.667
227.08	-600.000
227.46	-20.000
227.83	-500.000
228.21	-15.789
228.58	212.500
228.95	900.000
229.33	-66.667
229.70	-120.000
230.08	5.263
230.45	200.000
230.82	-300.000
231.20	-121.429
231.57	-50.000
231.95	-81.818
232.32	-90.909
232.69	-25.000
233.07	-350.000
233.44	-58.824
233.81	-130.000
234.19	-38.889
234.56	-40.909
234.93	20.690
235.31	-42.105
235.68	-5.556
236.05	-60.000
236.43	-7.692
236.80	0.000
237.17	-40.741
237.55	-27.273
237.92	-280.000
238.29	-29.032
238.67	-20.455
239.04	-33.333
239.41	-26.190
239.79	-41.304
240.16	-5.556
240.53	-21.739
240.91	-43.137
241.28	-6.557
241.65	-7.463
242.02	-10.811
242.40	-20.000
242.77	-6.667
243.14	-14.634
243.51	-27.632
243.89	-25.641
244.26	-9.901
244.63	-4.902
245.00	-9.346
245.38	-20.175
245.75	-23.009
246.12	-11.111
246.49	-13.178
246.87	-6.429
247.24	-2.649
247.61	-0.658
247.98	-8.054
248.36	-3.704
248.73	-6.748
249.10	-6.011
249.47	-1.493
249.84	-5.236
250.22	-7.772
250.59	-5.556
250.96	-2.273
251.33	-7.653
251.70	-1.282
252.08	-5.000
252.45	0.410
252.82	-2.479
253.19	-6.250
253.56	-5.703
253.94	-5.385
254.31	-3.409
254.68	-0.350
255.05	-1.629
255.42	-3.061
255.79	-5.502
256.16	-4.967
256.54	-5.298
256.91	-3.607
257.28	-1.639
257.65	-4.777
258.02	-7.670
258.39	-1.425
258.76	0.000
259.14	0.575
259.51	-4.323
259.88	-1.416
260.25	-2.222
260.62	-1.096
260.99	0.546
261.36	1.340
261.73	-3.448
262.10	-6.593
262.47	-4.021
262.85	0.253
263.22	-4.675
263.59	-2.632
263.96	-1.790
264.33	-6.138
264.70	-3.704
265.07	2.387
265.44	1.814
265.81	-3.472
266.18	-0.907
266.55	-1.786
266.92	-4.328
267.29	-0.875
267.66	-1.996
268.03	-0.437
268.40	-1.044
268.77	-5.923
269.14	-4.626
269.51	-1.754
269.88	-0.410
270.25	0.805
270.62	-0.422
270.99	0.606
271.36	0.000
271.73	-0.982
272.10	0.401
272.47	-1.002
272.84	-1.406
273.21	-0.401
273.58	-2.016
273.95	-1.731
274.32	0.190
274.69	-2.321
275.06	0.000
275.43	-0.739
275.80	0.353
276.17	-3.333
276.54	-2.425
276.91	-2.862
277.28	-2.893
277.65	-1.616
278.02	-1.103
278.39	-1.087
278.76	-2.988
279.13	-2.482
279.50	0.687
279.87	0.358
280.23	-4.401
280.60	-0.339
280.97	0.000
281.34	-3.905
281.71	1.692
282.08	-0.664
282.45	-1.637
282.82	-0.942
283.19	-2.746
283.56	-2.951
283.92	0.150
284.29	0.474
284.66	-0.164
285.03	-3.205
285.40	0.000
285.77	-2.167
286.14	0.305
286.51	-1.065
286.87	-2.370
287.24	-0.904
287.61	-2.392
287.98	-0.755
288.35	-1.183
288.72	-1.331
289.08	-0.732
289.45	-1.627
289.82	-1.355
290.19	-1.437
290.56	-0.423
290.93	-1.427
291.29	-1.240
291.66	-0.275
292.03	-0.950
292.40	-0.136
292.77	-0.809
293.13	-1.353
293.50	-3.022
293.87	-0.671
294.24	-0.533
294.60	-0.506
294.97	-2.282
295.34	-0.768
295.71	-1.009
296.08	-0.129
296.44	-0.735
296.81	-0.487
297.18	-1.370
297.55	-0.708
297.91	-1.305
298.28	-2.014
298.65	-0.476
299.02	-0.590
299.38	-1.373
299.75	-0.818
300.12	-1.157
300.48	-1.613
300.85	-0.562
301.22	-0.447
301.59	-0.799
301.95	-0.678
302.32	0.889
302.69	-0.110
303.05	-0.109
303.42	-0.333
303.79	-1.146
304.15	-0.841
304.52	-1.691
304.89	-0.628
305.25	-0.621
305.62	-0.522
305.99	-0.928
306.35	-1.310
306.72	0.000
307.09	-0.914
307.45	0.621
307.82	-1.312
308.19	-0.706
308.55	0.482
308.92	-0.097
309.29	-0.958
309.65	-0.585
310.02	-0.990
310.38	-1.083
310.75	-0.583
311.12	0.096
311.48	-0.978
311.85	0.095
312.22	-1.233
312.58	-1.033
312.95	-1.721
313.31	0.090
313.68	-0.275
314.05	0.090
314.41	0.000
314.78	-0.454
315.14	0.454
315.51	0.646
315.87	0.360
316.24	0.457
316.61	0.622
316.97	-0.633
317.34	-0.265
317.70	-0.961
318.07	0.088
318.43	0.000
318.80	1.338
319.16	0.343
319.53	0.086
319.89	-0.789
320.26	0.445
320.62	-0.443
320.99	0.554
321.35	-0.647
321.72	0.000
322.08	0.090
322.45	-0.632
322.81	-0.722
323.18	-0.177
323.54	0.086
323.91	0.178
324.27	0.688
324.64	-0.252
325.00	0.000
325.37	1.065
325.73	0.496
326.10	-0.162
326.46	0.163
326.83	0.721
327.19	0.236
327.56	0.791
327.92	0.315
328.29	0.081
328.65	0.419
329.01	-0.338
329.38	0.927
329.74	0.514
330.11	-0.171
330.47	0.253
330.84	-0.861
331.20	0.333
331.56	0.433
331.93	0.921
332.29	0.763
332.66	-0.083
333.02	1.005
333.38	0.252
333.75	0.589
334.11	0.167
334.48	0.413
334.84	0.510
335.20	-0.168
335.57	0.675
335.93	2.149
336.29	0.250
336.66	-0.168
337.02	0.084
337.38	0.595
337.75	-0.331
338.11	-0.084
338.47	-0.083
338.84	-0.423
339.20	-0.758
339.56	0.000
339.93	-0.164
340.29	0.644
340.65	0.324
341.02	1.277
341.38	1.213
341.74	0.081
342.11	0.322
342.47	0.397
342.83	0.483
343.20	0.572
343.56	-0.241
343.92	-0.320
344.28	0.625
344.65	0.698
345.01	1.092
345.37	1.166
345.73	-0.468
346.10	0.780
346.46	0.237
346.82	0.824
347.19	1.604
347.55	0.455
347.91	0.669
348.27	0.379
348.63	1.295
349.00	1.044
349.36	1.115
349.72	-0.446
350.08	0.743
350.45	-0.913
350.81	-0.151
351.17	0.752
351.53	0.682
351.89	1.367
352.26	-0.075
352.62	0.075
352.98	-0.076
353.34	-0.075
353.70	0.231
354.07	0.745
354.43	-0.304
354.79	0.598
355.15	1.030
355.51	1.170
355.87	0.374
356.24	0.456
356.60	0.148
356.96	-0.297
357.32	0.074
357.68	-0.586
358.04	0.075
358.40	-0.299
358.77	0.658
359.13	-0.074
359.49	-0.446
359.85	0.145
360.21	1.148
360.57	1.436
360.93	0.423
361.29	0.702
361.66	0.507
362.02	1.461
362.38	1.054
362.74	-0.279
363.10	0.481
363.46	0.416
363.82	0.568
364.18	0.141
364.54	0.484
364.90	0.669
365.26	0.138
365.62	0.800
365.98	0.681
366.35	1.007
366.71	1.088
367.07	0.541
367.43	1.379
367.79	0.464
368.15	1.806
368.51	0.541
368.87	0.784
369.23	0.933
369.59	-0.068
369.95	0.406
370.31	0.810
370.67	0.963
371.03	0.485
371.39	0.000
371.75	1.307
372.11	0.474
372.47	0.609
372.83	1.047
373.19	1.067
373.55	0.610
373.91	0.068
374.27	1.100
374.63	0.677
374.99	1.061
375.35	1.818
375.71	0.903
376.07	0.775
376.42	0.630
376.78	1.243
377.14	1.809
377.50	0.949
377.86	2.340
378.22	1.078
378.58	1.427
378.94	0.998
379.30	1.992
379.66	1.117
380.02	1.269
380.38	1.037
380.74	1.521
381.09	1.510
381.45	1.080
381.81	1.288
382.17	1.425
382.53	1.930
382.89	1.524
383.25	1.407
383.61	0.637
383.97	0.883
384.32	1.376
384.68	0.696
385.04	1.562
385.40	1.886
385.76	2.110
386.12	1.616
386.48	1.765
386.83	2.026
387.19	1.390
387.55	1.232
387.91	1.313
388.27	1.848
388.62	1.718
388.98	1.184
389.34	2.593
389.70	1.278
390.06	1.599
390.42	1.988
390.77	1.445
391.13	1.585
391.49	2.234
391.85	1.697
392.20	1.779
392.56	2.126
392.92	1.854
393.28	1.769
393.64	1.899
393.99	2.324
394.35	1.869
394.71	2.036
395.07	1.198
395.42	1.885
395.78	2.498
396.14	2.198
396.50	1.544
396.85	1.491
397.21	1.479
397.57	2.473
397.92	2.635
398.28	1.358
398.64	1.602
399.00	1.518
399.35	2.408
399.71	1.957
400.07	2.077
400.42	1.746
400.78	1.505
401.14	2.277
401.49	2.501
401.85	2.035
402.21	2.202
402.57	2.817
402.92	2.660
403.28	1.698
403.63	0.955
403.99	1.960
404.35	2.047
404.70	2.323
405.06	2.283
405.42	1.815
405.77	2.672
406.13	2.053
406.49	2.083
406.84	1.828
407.20	1.789
407.55	1.635
407.91	1.320
408.27	2.179
408.62	1.513
408.98	1.683
409.34	0.938
409.69	2.163
410.05	2.110
410.40	2.494
410.76	2.299
411.11	2.396
411.47	1.781
411.83	2.646
412.18	2.410
412.54	2.075
412.89	2.678
413.25	2.370
413.60	1.436
413.96	1.923
414.31	2.323
414.67	2.385
415.03	1.415
415.38	1.892
415.74	2.199
416.09	1.974
416.45	2.129
416.80	2.020
417.16	1.533
417.51	1.557
417.87	1.839
418.22	2.036
418.58	1.487
418.93	2.154
419.29	1.911
419.64	1.261
420.00	1.721
420.35	2.583
420.71	1.953
421.06	2.473
421.42	2.179
421.77	1.939
422.12	2.167
422.48	1.485
422.83	2.355
423.19	1.857
423.54	2.046
423.90	1.877
424.25	2.240
424.61	1.550
424.96	2.087
425.31	2.335
425.67	1.932
426.02	1.826
426.38	1.607
426.73	1.842
427.09	2.826
427.44	1.748
427.79	1.658
428.15	1.712
428.50	1.573
428.85	2.124
429.21	2.287
429.56	1.579
429.92	1.818
430.27	1.735
430.62	1.661
430.98	1.771
431.33	1.564
431.68	1.724
432.04	1.778
432.39	1.660
432.74	1.370
433.10	2.163
433.45	1.449
433.80	2.200
434.16	2.066
434.51	1.387
434.86	2.063
435.22	1.700
435.57	2.182
435.92	2.226
436.28	1.763
436.63	1.038
436.98	1.771
437.34	1.353
437.69	1.651
438.04	2.010
438.39	1.723
438.75	1.937
439.10	2.220
439.45	2.348
439.81	1.525
440.16	1.823
440.51	1.951
440.86	2.168
441.22	2.465
441.57	1.415
441.92	1.746
442.27	1.768
442.63	2.136
442.98	2.188
443.33	2.209
443.68	2.379
444.03	2.634
444.39	1.803
444.74	2.399
445.09	2.078
445.44	1.686
445.79	1.964
446.15	2.210
446.50	1.344
446.85	2.189
447.20	2.369
447.55	2.720
447.91	1.518
448.26	1.903
448.61	1.807
448.96	2.253
449.31	2.015
449.66	1.580
450.02	1.741
450.37	2.611
450.72	1.776
451.07	1.936
451.42	1.444
451.77	1.723
452.12	1.862
452.47	2.080
452.83	2.140
453.18	1.635
453.53	0.976
453.88	2.540
454.23	2.203
454.58	1.219
454.93	1.760
455.28	1.806
455.63	1.990
455.98	2.179
456.34	1.943
456.69	2.234
457.04	1.832
457.39	1.885
457.74	1.846
458.09	1.318
458.44	2.047
458.79	1.444
459.14	1.259
459.49	1.188
459.84	1.574
460.19	0.666
460.54	1.590
460.89	1.853
461.24	1.494
461.59	2.435
461.94	0.970
462.29	1.960
462.64	1.448
462.99	1.569
463.34	1.233
463.69	2.227
464.04	2.446
464.39	1.794
464.74	2.166
465.09	1.672
465.44	1.448
465.79	2.538
466.14	1.251
466.49	1.947
466.84	1.488
467.19	1.908
467.54	1.469
467.89	1.897
468.24	2.105
468.59	1.042
468.94	1.632
469.29	1.560
469.64	1.462
469.99	1.211
470.34	2.042
470.68	1.640
471.03	1.768
471.38	1.570
471.73	0.780
472.08	1.332
472.43	1.746
472.78	1.952
473.13	1.264
473.48	1.752
473.83	2.031
474.17	2.345
474.52	1.323
474.87	2.159
475.22	2.028
475.57	1.038
475.92	1.643
476.27	2.183
476.61	2.025
476.96	1.512
477.31	2.079
477.66	1.784
478.01	1.729
478.36	1.894
478.70	1.872
479.05	2.147
479.40	2.024
479.75	2.305
480.10	1.753
480.45	1.732
480.79	2.449
481.14	1.884
481.49	1.090
481.84	2.219
482.19	1.892
482.53	2.055
482.88	2.038
483.23	1.734
483.58	1.878
483.92	1.152
484.27	2.075
484.62	2.145
484.97	2.022
485.31	1.760
485.66	1.539
486.01	2.031
486.36	1.990
486.70	2.248
487.05	2.080
487.40	2.066
487.75	2.214
488.09	2.113
488.44	2.035
488.79	2.226
489.13	2.245
489.48	1.515
489.83	1.650
490.17	1.580
490.52	1.847
490.87	1.777
491.22	1.386
491.56	1.962
491.91	1.919
492.26	2.380
492.60	1.443
492.95	1.887
493.30	1.210
493.64	1.402
493.99	2.018
494.34	1.655
494.68	1.627
495.03	2.555
495.37	1.953
495.72	1.950
496.07	2.279
496.41	1.073
496.76	2.210
497.11	1.614
497.45	1.899
497.80	2.221
498.14	1.134
498.49	1.884
498.84	1.645
499.18	1.574
499.53	1.839
499.87	2.198
500.22	1.336
500.56	1.529
500.91	1.236
501.26	2.045
501.60	1.723
501.95	2.301
502.29	2.018
502.64	2.624
502.98	2.286
503.33	1.166
503.67	1.439
504.02	1.445
504.36	2.324
504.71	1.700
505.06	1.910
505.40	1.737
505.75	1.776
506.09	2.394
506.44	1.996
506.78	1.881
507.13	2.121
507.47	2.321
507.82	1.989
508.16	1.721
508.51	1.453
508.85	1.748
509.19	1.800
509.54	1.969
509.88	2.137
510.23	2.283
510.57	2.755
510.92	2.032
511.26	1.684
511.61	1.304
511.95	2.196
512.30	2.166
512.64	1.449
512.98	2.001
513.33	2.067
513.67	1.785
514.02	2.095
514.36	1.637
514.70	2.135
515.05	1.877
515.39	1.890
515.74	2.174
516.08	2.166
516.42	2.773
516.77	1.840
517.11	1.857
517.46	1.803
517.80	2.459
518.14	2.285
518.49	2.440
518.83	1.650
519.17	1.939
519.52	2.673
519.86	3.485
520.20	2.503
520.55	2.191
520.89	1.689
521.23	2.513
521.58	2.373
521.92	2.153
522.26	1.317
522.61	1.852
522.95	1.961
523.29	1.782
523.64	1.962
523.98	2.738
524.32	2.521
524.66	2.106
525.01	1.586
525.35	2.068
525.69	2.262
526.04	2.239
526.38	2.644
526.72	2.191
527.06	2.111
527.41	2.741
527.75	2.375
528.09	2.479
528.43	2.487
528.78	2.197
529.12	2.294
529.46	2.417
529.80	2.346
530.15	2.319
530.49	1.661
530.83	2.893
531.17	1.792
531.51	2.347
531.86	2.764
532.20	2.378
532.54	2.454
532.88	2.061
533.22	2.239
533.57	2.885
533.91	2.974
534.25	2.770
534.59	1.782
534.93	2.377
535.27	2.592
535.62	2.843
535.96	2.208
536.30	2.468
536.64	2.583
536.98	2.153
537.32	2.778
537.66	2.682
538.01	1.813
538.35	2.253
538.69	2.764
539.03	2.391
539.37	2.886
539.71	2.102
540.05	2.938
540.39	1.895
540.73	2.125
541.07	2.085
541.42	2.540
541.76	2.372
542.10	2.111
542.44	1.279
542.78	2.920
543.12	2.801
543.46	2.564
543.80	2.578
544.14	2.274
544.48	2.660
544.82	2.035
545.16	2.326
545.50	2.157
545.84	2.388
546.18	3.086
546.52	2.166
546.86	2.075
547.20	2.099
547.54	2.497
547.88	1.929
548.22	2.105
548.56	2.399
548.90	2.507
549.24	3.283
549.58	2.650
549.92	1.913
550.26	2.136
550.60	2.553
550.94	2.393
551.28	2.706
551.62	2.089
551.96	2.654
552.30	2.422
552.64	2.054
552.98	2.807
553.32	2.251
553.66	1.929
554.00	2.522
554.34	1.995
554.68	1.808
555.02	1.840
555.36	3.156
555.69	2.114
556.03	2.207
556.37	2.503
556.71	2.156
557.05	2.748
557.39	2.256
557.73	2.444
558.07	2.119
558.41	2.326
558.75	2.907
559.08	2.018
559.42	1.509
559.76	2.985
560.10	2.344
560.44	1.847
560.78	2.500
561.12	2.648
561.45	2.737
561.79	3.297
562.13	2.218
562.47	2.158
562.81	1.899
563.15	2.210
563.48	2.735
563.82	2.297
564.16	2.544
564.50	2.324
564.84	2.301
565.17	2.471
565.51	2.704
565.85	2.494
566.19	2.189
566.52	2.165
566.86	2.320
567.20	1.849
567.54	2.443
567.88	2.548
568.21	2.470
568.55	2.110
568.89	2.133
569.23	2.915
569.56	2.384
569.90	2.708
570.24	2.631
570.57	2.405
570.91	2.143
571.25	2.603
571.59	2.922
571.92	2.585
572.26	2.329
572.60	2.484
572.93	2.839
573.27	2.360
573.61	2.885
573.95	2.889
574.28	2.663
574.62	2.183
574.96	2.448
575.29	2.974
575.63	2.726
575.97	2.707
576.30	2.270
576.64	2.601
576.98	2.437
577.31	2.387
577.65	2.559
577.98	2.786
578.32	2.556
578.66	2.714
578.99	2.560
579.33	2.690
579.67	2.720
580.00	2.810
580.34	2.814
580.67	2.405
581.01	2.510
581.35	2.708
581.68	2.609
582.02	2.524
582.35	2.598
582.69	2.651
583.02	2.635
583.36	2.567
583.70	2.409
584.03	2.616
584.37	2.765
584.70	2.445
585.04	2.325
585.37	2.430
585.71	2.503
586.04	2.312
586.38	2.600
586.72	2.006
587.05	2.405
587.39	2.418
587.72	2.608
588.06	2.369
588.39	2.489
588.73	2.381
589.06	2.709
589.40	2.182
589.73	2.667
590.07	2.553
590.40	2.772
590.73	2.545
591.07	2.681
591.40	2.138
591.74	1.669
592.07	2.720
592.41	2.090
592.74	2.414
593.08	2.643
593.41	2.800
593.75	2.299
594.08	2.514
594.41	2.404
594.75	2.325
595.08	2.187
595.42	2.370
595.75	2.293
596.09	2.677
596.42	2.472
596.75	2.316
597.09	2.545
597.42	1.867
597.75	2.509
598.09	2.421
598.42	2.292
598.76	2.063
599.09	2.172
599.42	2.615
599.76	2.212
600.09	2.736
600.42	2.803
600.76	2.477
601.09	2.091
601.42	2.609
601.76	2.414
602.09	2.502
602.42	2.654
602.76	2.694
603.09	2.129
603.42	2.348
603.76	2.290
604.09	2.803
604.42	2.569
604.76	1.941
605.09	2.393
605.42	2.711
605.75	2.231
606.09	2.314
606.42	2.663
606.75	2.136
607.09	1.997
607.42	2.852
607.75	2.306
608.08	2.368
608.42	2.338
608.75	2.570
609.08	1.995
609.41	2.470
609.75	2.009
610.08	2.419
610.41	1.954
610.74	2.479
611.07	2.620
611.41	2.556
611.74	2.633
612.07	2.571
612.40	1.949
612.73	2.054
613.07	2.543
613.40	2.887
613.73	1.781
614.06	2.159
614.39	2.089
614.72	2.280
615.06	1.732
615.39	2.368
615.72	2.180
616.05	2.477
616.38	2.472
616.71	2.769
617.05	1.544
617.38	2.996
617.71	2.430
618.04	2.698
618.37	2.623
618.70	2.376
619.03	2.031
619.36	2.035
619.69	2.178
620.03	2.323
620.36	1.595
620.69	1.604
621.02	2.362
621.35	2.250
621.68	2.892
622.01	1.851
622.34	1.464
622.67	2.337
623.00	2.024
623.33	1.924
623.66	2.918
623.99	1.909
624.32	3.184
624.65	1.544
624.99	1.886
625.32	2.351
625.65	1.821
625.98	2.441
626.31	2.126
626.64	2.198
626.97	2.176
627.30	1.670
627.63	1.875
627.96	3.378
628.29	2.257
628.62	1.427
628.95	1.052
629.28	0.680
629.61	2.357
629.94	1.506
630.26	1.271
630.59	0.950
630.92	1.558
631.25	1.699
631.58	1.883
631.91	0.843
632.24	2.402
632.57	2.562
632.90	1.605
633.23	1.633
633.56	1.429
633.89	1.240
634.22	1.247
634.55	1.670
634.88	1.190
635.20	2.906
635.53	2.260
635.86	2.384
636.19	2.439
636.52	1.371
636.85	2.451
637.18	1.455
637.51	2.043
637.83	2.658
638.16	1.267
638.49	1.408
638.82	2.142
639.15	1.489
639.48	1.617
639.81	2.656
640.13	2.356
640.46	0.485
640.79	1.716
641.12	1.988
641.45	1.631
641.77	2.953
642.10	0.000
642.43	3.324
642.76	1.355
643.09	1.370
643.41	0.840
643.74	2.069
644.07	1.931
644.40	-0.283
644.73	-0.145
645.05	0.587
645.38	2.302
645.71	0.880
646.04	4.735
646.36	1.168
646.69	0.460
647.02	0.917
647.35	2.137
647.67	0.805
648.00	-0.318
648.33	1.201
648.66	-0.428
648.98	1.497
649.31	1.624
649.64	3.320
649.96	1.592
650.29	0.000
650.62	1.556
650.94	0.751
651.27	-0.449
651.60	1.754
651.92	0.152
652.25	1.881
652.58	1.788
