SpectraSuite Data File
++++++++++++++++++++++++++++++++++++
Date: Thu May 14 14:59:36 PDT 2015
User: schluterlab
Dark Spectrum Present: Yes
Reference Spectrum Present: Yes
Number of Sampled Component Spectra: 1
Spectrometers: USB2E3373
Integration Time (usec): 3000 (USB2E3373)
Spectra Averaged: 3 (USB2E3373)
Boxcar Smoothing: 0 (USB2E3373)
Correct for Electrical Dark: No (USB2E3373)
Strobe/Lamp Enabled: No (USB2E3373)
Correct for Detector Non-linearity: No (USB2E3373)
Correct for Stray Light: No (USB2E3373)
Number of Pixels in Processed Spectrum: 2048
>>>>>Begin Processed Spectral Data<<<<<
178.53	0.000
178.91	357.143
179.29	-3100.000
179.67	-2500.000
180.04	271.429
180.42	240.000
180.80	640.000
181.18	-2700.000
181.56	-1800.000
181.94	400.000
182.31	-525.000
182.69	933.333
183.07	-1150.000
183.45	600.000
183.83	-216.667
184.20	-666.667
184.58	1900.000
184.96	-625.000
185.34	-255.556
185.72	-240.000
186.09	388.889
186.47	1200.000
186.85	560.000
187.23	-322.222
187.61	-3000.000
187.98	260.000
188.36	550.000
188.74	-600.000
189.12	-866.667
189.49	-68.750
189.87	-375.000
190.25	-177.778
190.63	-260.000
191.00	-233.333
191.38	0.000
191.76	-575.000
192.14	-316.667
192.51	1050.000
192.89	-283.333
193.27	0.000
193.65	-342.857
194.02	-3400.000
194.40	-342.857
194.78	314.286
195.15	0.000
195.53	-136.364
195.91	0.000
196.29	-575.000
196.66	-161.538
197.04	-3400.000
197.42	-357.143
197.79	-900.000
198.17	-250.000
198.55	-300.000
198.92	-188.889
199.30	-325.000
199.68	-127.273
200.05	-164.286
200.43	-1000.000
200.81	400.000
201.18	0.000
201.56	300.000
201.94	0.000
202.31	833.333
202.69	-266.667
203.07	2200.000
203.44	-266.667
203.82	-675.000
204.19	-191.667
204.57	-366.667
204.95	-300.000
205.32	-2600.000
205.70	575.000
206.08	-300.000
206.45	-250.000
206.83	660.000
207.20	-516.667
207.58	-640.000
207.96	-450.000
208.33	-400.000
208.71	208.333
209.08	-250.000
209.46	0.000
209.84	550.000
210.21	1000.000
210.59	850.000
210.96	633.333
211.34	-500.000
211.71	-325.000
212.09	-2500.000
212.46	0.000
212.84	1450.000
213.22	-640.000
213.59	-750.000
213.97	-190.000
214.34	-933.333
214.72	600.000
215.09	-625.000
215.47	0.000
215.84	285.714
216.22	1550.000
216.59	-280.000
216.97	-340.000
217.34	-750.000
217.72	-187.500
218.09	-550.000
218.47	-450.000
218.84	0.000
219.22	440.000
219.59	-105.882
219.97	-45.000
220.34	1400.000
220.72	-300.000
221.09	-107.692
221.47	-800.000
221.84	-210.000
222.22	-357.143
222.59	0.000
222.97	-162.500
223.34	-560.000
223.72	-1600.000
224.09	-750.000
224.46	-775.000
224.84	-220.000
225.21	-328.571
225.59	-700.000
225.96	-575.000
226.34	-38.462
226.71	400.000
227.08	-1000.000
227.46	-146.667
227.83	-625.000
228.21	-73.684
228.58	275.000
228.95	1500.000
229.33	-66.667
229.70	-200.000
230.08	-5.263
230.45	290.000
230.82	-366.667
231.20	-135.714
231.57	-125.000
231.95	-209.091
232.32	-190.909
232.69	-55.000
233.07	-600.000
233.44	-135.294
233.81	-280.000
234.19	-111.111
234.56	-104.545
234.93	-41.379
235.31	-163.158
235.68	-94.444
236.05	-180.000
236.43	-30.769
236.80	-40.000
237.17	-88.889
237.55	-45.455
237.92	-300.000
238.29	-90.323
238.67	-54.545
239.04	-58.333
239.41	-38.095
239.79	-36.957
240.16	-27.778
240.53	-43.478
240.91	-31.373
241.28	-32.787
241.65	-20.896
242.02	-17.568
242.40	-43.077
242.77	-25.333
243.14	-25.610
243.51	-39.474
243.89	-35.897
244.26	-10.891
244.63	-13.725
245.00	-23.364
245.38	-23.684
245.75	-34.513
246.12	-15.873
246.49	-20.930
246.87	-10.000
247.24	-15.232
247.61	-10.526
247.98	-15.436
248.36	-14.815
248.73	-20.245
249.10	-10.929
249.47	-4.478
249.84	-7.330
250.22	-11.399
250.59	-13.889
250.96	-6.818
251.33	-13.265
251.70	-4.701
252.08	-9.583
252.45	-9.016
252.82	-12.397
253.19	-9.375
253.56	-6.084
253.94	-9.231
254.31	-4.924
254.68	-4.545
255.05	-2.606
255.42	-4.422
255.79	-6.149
256.16	-5.629
256.54	-9.934
256.91	-6.557
257.28	-5.246
257.65	-7.962
258.02	-6.195
258.39	-4.558
258.76	-2.752
259.14	-4.023
259.51	-6.916
259.88	-1.983
260.25	-5.833
260.62	-4.932
260.99	-4.372
261.36	-3.217
261.73	-8.753
262.10	-6.868
262.47	-6.166
262.85	0.000
263.22	-6.234
263.59	-6.579
263.96	-4.859
264.33	-6.650
264.70	-4.444
265.07	-2.148
265.44	-1.134
265.81	-4.861
266.18	-2.494
266.55	-1.563
266.92	-5.923
267.29	-3.282
267.66	-4.878
268.03	-3.057
268.40	-3.758
268.77	-8.200
269.14	-3.744
269.51	-3.947
269.88	-1.434
270.25	-1.408
270.62	-2.743
270.99	-0.606
271.36	-2.970
271.73	-1.768
272.10	-3.407
272.47	-2.605
272.84	-1.606
273.21	-3.407
273.58	-4.032
273.95	-4.038
274.32	-3.422
274.69	-3.482
275.06	-2.015
275.43	-3.882
275.80	-1.587
276.17	-4.815
276.54	-4.291
276.91	-3.399
277.28	-2.170
277.65	-3.232
278.02	-3.493
278.39	-3.442
278.76	-3.339
279.13	-3.546
279.50	-1.718
279.87	-2.147
280.23	-5.634
280.60	-2.373
280.97	-0.987
281.34	-3.396
281.71	-1.015
282.08	-3.654
282.45	-5.074
282.82	-2.512
283.19	-4.362
283.56	-3.279
283.92	-0.150
284.29	-1.264
284.66	-2.463
285.03	-5.128
285.40	-1.391
285.77	-3.715
286.14	-0.305
286.51	-2.740
286.87	-3.633
287.24	-1.506
287.61	-2.990
287.98	-3.172
288.35	-2.811
288.72	-1.775
289.08	-2.196
289.45	-2.959
289.82	-2.861
290.19	-2.586
290.56	-0.845
290.93	-2.282
291.29	-2.342
291.66	-2.755
292.03	-1.357
292.40	-0.544
292.77	-2.561
293.13	-1.218
293.50	-3.548
293.87	-1.745
294.24	-1.200
294.60	-2.528
294.97	-4.161
295.34	-1.408
295.71	-2.144
296.08	-1.680
296.44	-1.838
296.81	-1.096
297.18	-2.366
297.55	-1.887
297.91	-1.423
298.28	-3.436
298.65	-2.021
299.02	-2.597
299.38	-0.572
299.75	-0.584
300.12	-2.315
300.48	-1.843
300.85	-1.575
301.22	-1.454
301.59	-1.941
301.95	-1.921
302.32	-1.667
302.69	-2.957
303.05	-1.415
303.42	-1.774
303.79	-1.771
304.15	-1.472
304.52	-1.691
304.89	-1.466
305.25	-0.621
305.62	-2.194
305.99	-1.546
306.35	-1.411
306.72	-0.827
307.09	-1.624
307.45	-1.139
307.82	-0.404
308.19	-1.514
308.55	0.289
308.92	-1.168
309.29	-0.958
309.65	-2.047
310.02	-1.980
310.38	-1.673
310.75	-1.165
311.12	-0.192
311.48	-1.564
311.85	-0.285
312.22	-1.044
312.58	-0.563
312.95	-0.860
313.31	-0.361
313.68	0.458
314.05	0.542
314.41	0.546
314.78	0.454
315.14	0.817
315.51	0.369
315.87	0.990
316.24	1.918
316.61	1.954
316.97	-0.181
317.34	0.353
317.70	1.747
318.07	2.116
318.43	2.466
318.80	3.679
319.16	2.833
319.53	2.571
319.89	2.454
320.26	3.470
320.62	3.457
320.99	4.340
321.35	3.512
321.72	5.767
322.08	3.066
322.45	4.426
322.81	5.235
323.18	4.956
323.54	5.948
323.91	6.673
324.27	7.487
324.64	8.732
325.00	8.292
325.37	8.190
325.73	9.917
326.10	9.165
326.46	11.645
326.83	11.289
327.19	10.945
327.56	12.016
327.92	11.566
328.29	12.016
328.65	13.233
329.01	13.029
329.38	14.322
329.74	14.983
330.11	15.068
330.47	15.333
330.84	16.107
331.20	16.417
331.56	16.638
331.93	17.490
332.29	16.695
332.66	17.442
333.02	16.583
333.38	17.869
333.75	17.593
334.11	17.431
334.48	17.822
334.84	18.012
335.20	18.556
335.57	19.224
335.93	18.760
336.29	17.720
336.66	18.755
337.02	19.314
337.38	19.728
337.75	18.347
338.11	19.260
338.47	19.686
338.84	19.374
339.20	18.618
339.56	18.781
339.93	19.540
340.29	18.519
340.65	18.329
341.02	19.872
341.38	19.725
341.74	18.563
342.11	19.067
342.47	18.507
342.83	19.404
343.20	20.278
343.56	19.567
343.92	20.897
344.28	19.766
344.65	20.155
345.01	18.877
345.37	19.829
345.73	18.706
346.10	19.345
346.46	19.620
346.82	20.375
347.19	19.328
347.55	19.347
347.91	20.505
348.27	19.575
348.63	19.421
349.00	20.209
349.36	20.892
349.72	18.304
350.08	19.019
350.45	18.251
350.81	18.703
351.17	19.850
351.53	19.788
351.89	20.121
352.26	19.552
352.62	18.881
352.98	19.084
353.34	17.401
353.70	19.106
354.07	19.598
354.43	18.679
354.79	19.147
355.15	18.396
355.51	18.640
355.87	18.624
356.24	19.240
356.60	18.404
356.96	19.274
357.32	20.074
357.68	20.132
358.04	18.787
358.40	19.478
358.77	19.298
359.13	19.202
359.49	18.587
359.85	19.434
360.21	18.436
360.57	18.521
360.93	19.182
361.29	19.018
361.66	18.610
362.02	20.042
362.38	18.623
362.74	19.623
363.10	19.257
363.46	19.737
363.82	18.892
364.18	19.986
364.54	19.779
364.90	20.134
365.26	19.793
365.62	19.600
365.98	20.354
366.35	19.195
366.71	21.020
367.07	20.433
367.43	20.026
367.79	19.841
368.15	20.535
368.51	20.162
368.87	20.575
369.23	19.333
369.59	20.833
369.95	20.081
370.31	20.257
370.67	20.151
371.03	19.183
371.39	19.879
371.75	21.183
372.11	20.664
372.47	20.988
372.83	21.008
373.19	21.281
373.55	21.206
373.91	20.859
374.27	20.634
374.63	21.313
374.99	20.889
375.35	21.169
375.71	22.065
376.07	20.336
376.42	22.292
376.78	21.566
377.14	21.647
377.50	21.569
377.86	22.167
378.22	21.677
378.58	22.533
378.94	22.359
379.30	21.793
379.66	22.634
380.02	22.793
380.38	23.502
380.74	22.873
381.09	22.880
381.45	22.614
381.81	22.424
382.17	24.287
382.53	22.982
382.89	23.251
383.25	23.505
383.61	22.859
383.97	22.203
384.32	23.923
384.68	23.144
385.04	24.465
385.40	24.750
385.76	24.853
386.12	23.818
386.48	24.235
386.83	24.613
387.19	25.029
387.55	23.709
387.91	24.030
388.27	25.693
388.62	23.597
388.98	24.027
389.34	25.751
389.70	24.579
390.06	24.038
390.42	24.398
390.77	25.105
391.13	24.648
391.49	24.819
391.85	24.727
392.20	25.386
392.56	24.395
392.92	25.136
393.28	25.041
393.64	24.860
393.99	25.857
394.35	25.701
394.71	25.808
395.07	24.731
395.42	25.414
395.78	26.143
396.14	25.787
396.50	25.356
396.85	25.164
397.21	25.148
397.57	25.559
397.92	25.659
398.28	25.421
398.64	25.286
399.00	24.921
399.35	26.126
399.71	25.489
400.07	25.884
400.42	25.437
400.78	24.769
401.14	26.181
401.49	27.004
401.85	25.872
402.21	26.709
402.57	27.289
402.92	25.768
403.28	25.761
403.63	25.656
403.99	25.238
404.35	25.924
404.70	26.062
405.06	24.837
405.42	26.347
405.77	26.609
406.13	26.364
406.49	26.182
406.84	26.537
407.20	26.272
407.55	24.955
407.91	26.776
408.27	25.324
408.62	25.480
408.98	25.885
409.34	25.630
409.69	26.082
410.05	26.671
410.40	26.682
410.76	26.977
411.11	26.125
411.47	26.843
411.83	26.867
412.18	26.325
412.54	25.608
412.89	27.299
413.25	26.749
413.60	26.881
413.96	26.107
414.31	26.516
414.67	26.357
415.03	26.400
415.38	26.482
415.74	25.168
416.09	26.095
416.45	26.174
416.80	26.255
417.16	26.117
417.51	26.712
417.87	26.364
418.22	27.365
418.58	26.704
418.93	27.183
419.29	27.004
419.64	27.311
420.00	26.944
420.35	27.176
420.71	26.594
421.06	27.372
421.42	27.179
421.77	27.033
422.12	26.638
422.48	27.087
422.83	27.711
423.19	27.268
423.54	27.378
423.90	27.554
424.25	28.427
424.61	26.866
424.96	27.073
425.31	27.760
425.67	27.214
426.02	28.500
426.38	27.669
426.73	27.344
427.09	29.239
427.44	27.144
427.79	27.363
428.15	27.112
428.50	26.854
428.85	27.382
429.21	28.298
429.56	27.246
429.92	28.010
430.27	28.096
430.62	28.920
430.98	28.087
431.33	28.104
431.68	27.538
432.04	29.355
432.39	28.495
432.74	27.683
433.10	28.989
433.45	27.313
433.80	28.970
434.16	28.512
434.51	28.983
434.86	28.882
435.22	28.480
435.57	29.245
435.92	28.603
436.28	29.636
436.63	28.946
436.98	28.717
437.34	29.312
437.69	29.059
438.04	29.508
438.39	28.547
438.75	28.832
439.10	30.074
439.45	28.787
439.81	28.418
440.16	28.525
440.51	30.268
440.86	29.238
441.22	28.510
441.57	29.822
441.92	29.243
442.27	29.545
442.63	30.104
442.98	30.256
443.33	29.984
443.68	30.079
444.03	31.138
444.39	30.791
444.74	30.985
445.09	29.600
445.44	30.190
445.79	30.651
446.15	30.524
446.50	30.233
446.85	31.323
447.20	30.609
447.55	30.701
447.91	29.791
448.26	30.021
448.61	30.128
448.96	30.901
449.31	30.276
449.66	30.991
450.02	30.116
450.37	30.048
450.72	31.270
451.07	31.492
451.42	31.080
451.77	30.573
452.12	31.490
452.47	30.184
452.83	31.813
453.18	31.407
453.53	30.557
453.88	30.536
454.23	31.243
454.58	31.805
454.93	30.947
455.28	31.126
455.63	31.211
455.98	32.402
456.34	30.978
456.69	31.981
457.04	31.619
457.39	30.987
457.74	32.271
458.09	30.478
458.44	31.358
458.79	31.511
459.14	31.620
459.49	32.032
459.84	31.637
460.19	30.816
460.54	31.914
460.89	31.922
461.24	31.552
461.59	32.374
461.94	31.603
462.29	32.979
462.64	31.141
462.99	32.141
463.34	31.149
463.69	32.122
464.04	31.295
464.39	31.446
464.74	31.357
465.09	31.546
465.44	31.867
465.79	31.994
466.14	31.839
466.49	32.789
466.84	32.617
467.19	31.965
467.54	30.611
467.89	31.437
468.24	31.801
468.59	31.500
468.94	30.944
469.29	32.633
469.64	31.977
469.99	31.931
470.34	31.498
470.68	32.262
471.03	32.155
471.38	32.767
471.73	31.274
472.08	31.155
472.43	32.089
472.78	32.746
473.13	32.111
473.48	32.085
473.83	32.153
474.17	32.415
474.52	32.652
474.87	32.281
475.22	31.831
475.57	32.295
475.92	32.554
476.27	32.162
476.61	33.022
476.96	31.804
477.31	32.673
477.66	33.945
478.01	32.130
478.36	32.901
478.70	32.956
479.05	32.515
479.40	32.873
479.75	32.037
480.10	32.165
480.45	32.634
480.79	33.197
481.14	32.537
481.49	32.485
481.84	32.724
482.19	32.344
482.53	33.581
482.88	33.895
483.23	32.148
483.58	32.576
483.92	32.535
484.27	31.795
484.62	33.457
484.97	32.154
485.31	31.749
485.66	30.543
486.01	30.360
486.36	31.915
486.70	33.703
487.05	34.608
487.40	33.713
487.75	33.791
488.09	33.587
488.44	31.874
488.79	32.884
489.13	31.644
489.48	32.466
489.83	31.911
490.17	32.483
490.52	32.020
490.87	32.318
491.22	33.189
491.56	33.276
491.91	32.621
492.26	33.752
492.60	32.663
492.95	32.295
493.30	32.766
493.64	32.457
493.99	32.456
494.34	33.188
494.68	32.677
495.03	33.524
495.37	33.466
495.72	33.061
496.07	32.515
496.41	32.518
496.76	33.445
497.11	33.758
497.45	32.758
497.80	33.496
498.14	33.605
498.49	32.812
498.84	33.044
499.18	33.063
499.53	33.677
499.87	33.055
500.22	32.057
500.56	33.018
500.91	33.547
501.26	33.864
501.60	32.744
501.95	33.435
502.29	33.436
502.64	33.669
502.98	32.614
503.33	31.706
503.67	32.229
504.02	34.151
504.36	33.199
504.71	33.624
505.06	33.060
505.40	32.130
505.75	32.240
506.09	33.425
506.44	32.869
506.78	33.991
507.13	32.918
507.47	33.681
507.82	33.712
508.16	32.792
508.51	32.536
508.85	33.774
509.19	32.260
509.54	33.622
509.88	33.366
510.23	33.803
510.57	34.074
510.92	33.237
511.26	32.419
511.61	32.207
511.95	32.992
512.30	32.742
512.64	32.784
512.98	33.667
513.33	33.569
513.67	34.064
514.02	33.470
514.36	33.350
514.70	33.854
515.05	33.994
515.39	33.386
515.74	34.358
516.08	33.333
516.42	34.589
516.77	34.437
517.11	32.749
517.46	33.828
517.80	34.474
518.14	34.331
518.49	34.436
518.83	33.422
519.17	32.687
519.52	33.386
519.86	33.474
520.20	33.919
520.55	34.447
520.89	34.403
521.23	32.942
521.58	32.938
521.92	33.371
522.26	32.990
522.61	34.375
522.95	33.679
523.29	33.851
523.64	33.688
523.98	33.314
524.32	35.645
524.66	33.125
525.01	34.032
525.35	32.510
525.69	33.295
526.04	33.639
526.38	33.218
526.72	33.045
527.06	34.135
527.41	33.003
527.75	33.610
528.09	33.825
528.43	33.037
528.78	32.890
529.12	33.028
529.46	33.165
529.80	33.753
530.15	34.377
530.49	32.562
530.83	33.412
531.17	33.274
531.51	34.537
531.86	34.075
532.20	33.476
532.54	33.154
532.88	34.061
533.22	32.940
533.57	33.410
533.91	32.379
534.25	32.843
534.59	33.736
534.93	32.994
535.27	33.352
535.62	33.599
535.96	33.643
536.30	33.314
536.64	33.994
536.98	33.702
537.32	32.840
537.66	33.562
538.01	31.480
538.35	33.009
538.69	33.053
539.03	33.170
539.37	32.921
539.71	33.213
540.05	32.674
540.39	33.496
540.73	31.998
541.07	33.109
541.42	33.136
541.76	32.444
542.10	32.931
542.44	32.339
542.78	32.421
543.12	32.896
543.46	32.540
543.80	31.595
544.14	32.615
544.48	33.156
544.82	32.974
545.16	33.453
545.50	32.115
545.84	32.272
546.18	33.642
546.52	33.057
546.86	33.333
547.20	31.997
547.54	32.272
547.88	32.128
548.22	31.930
548.56	32.241
548.90	32.597
549.24	32.523
549.58	32.997
549.92	31.888
550.26	32.427
550.60	33.248
550.94	34.153
551.28	31.749
551.62	33.086
551.96	31.650
552.30	33.397
552.64	32.856
552.98	33.437
553.32	32.990
553.66	32.283
554.00	32.976
554.34	32.368
554.68	31.117
555.02	33.771
555.36	31.755
555.69	31.134
556.03	31.778
556.37	31.790
556.71	32.911
557.05	31.693
557.39	32.449
557.73	32.893
558.07	31.854
558.41	31.894
558.75	32.590
559.08	32.359
559.42	31.962
559.76	33.175
560.10	32.418
560.44	31.662
560.78	32.063
561.12	32.451
561.45	32.543
561.79	32.967
562.13	33.826
562.47	31.134
562.81	32.152
563.15	30.619
563.48	32.567
563.82	32.648
564.16	31.012
564.50	32.837
564.84	30.560
565.17	31.000
565.51	30.667
565.85	30.998
566.19	30.991
566.52	30.603
566.86	31.805
567.20	30.778
567.54	31.439
567.88	31.804
568.21	31.868
568.55	31.751
568.89	31.412
569.23	30.798
569.56	31.067
569.90	30.577
570.24	31.535
570.57	30.051
570.91	30.833
571.25	29.795
571.59	30.810
571.92	30.011
572.26	29.936
572.60	30.412
572.93	30.309
573.27	29.840
573.61	29.010
573.95	30.056
574.28	29.643
574.62	29.809
574.96	29.246
575.29	29.368
575.63	29.245
575.97	29.940
576.30	29.188
576.64	29.134
576.98	29.453
577.31	29.172
577.65	29.571
577.98	29.255
578.32	29.307
578.66	29.288
578.99	29.040
579.33	29.369
579.67	29.488
580.00	29.220
580.34	29.494
580.67	28.464
581.01	29.100
581.35	29.008
581.68	28.341
582.02	28.893
582.35	29.744
582.69	29.644
583.02	29.789
583.36	29.760
583.70	29.016
584.03	28.894
584.37	29.301
584.70	28.460
585.04	28.575
585.37	28.126
585.71	28.673
586.04	28.336
586.38	29.132
586.72	28.729
587.05	28.677
587.39	28.995
587.72	29.234
588.06	28.941
588.39	29.450
588.73	29.153
589.06	29.035
589.40	28.918
589.73	28.985
590.07	28.448
590.40	29.040
590.73	28.773
591.07	29.300
591.40	28.810
591.74	28.855
592.07	29.192
592.41	28.352
592.74	27.547
593.08	27.994
593.41	29.309
593.75	28.822
594.08	28.537
594.41	29.231
594.75	28.130
595.08	28.499
595.42	28.961
595.75	28.253
596.09	29.109
596.42	28.198
596.75	28.715
597.09	28.687
597.42	28.367
597.75	27.597
598.09	28.413
598.42	28.388
598.76	28.468
599.09	28.088
599.42	27.690
599.76	27.138
600.09	29.062
600.42	28.028
600.76	27.873
601.09	28.277
601.42	28.047
601.76	27.724
602.09	27.484
602.42	27.336
602.76	27.970
603.09	28.414
603.42	28.288
603.76	27.766
604.09	28.460
604.42	27.890
604.76	27.169
605.09	28.002
605.42	27.791
605.75	26.962
606.09	27.062
606.42	27.581
606.75	27.099
607.09	27.458
607.42	27.900
607.75	27.472
608.08	27.585
608.42	28.013
608.75	27.529
609.08	27.037
609.41	27.305
609.75	27.679
610.08	27.485
610.41	27.613
610.74	27.479
611.07	27.620
611.41	27.309
611.74	28.129
612.07	27.676
612.40	26.949
612.73	28.166
613.07	27.824
613.40	28.345
613.73	27.347
614.06	27.331
614.39	26.628
614.72	26.783
615.06	27.767
615.39	26.631
615.72	27.393
616.05	26.712
616.38	27.497
616.71	26.594
617.05	26.305
617.38	27.555
617.71	27.700
618.04	26.983
618.37	27.650
618.70	27.715
619.03	26.941
619.36	26.079
619.69	27.226
620.03	27.495
620.36	26.564
620.69	27.452
621.02	26.247
621.35	28.229
621.68	27.693
622.01	26.904
622.34	26.848
622.67	26.804
623.00	26.181
623.33	26.742
623.66	27.302
623.99	26.531
624.32	27.420
624.65	26.448
624.99	28.153
625.32	27.825
625.65	26.500
625.98	25.559
626.31	27.144
626.64	26.740
626.97	27.907
627.30	25.513
627.63	27.007
627.96	26.877
628.29	26.926
628.62	26.029
628.95	27.432
629.28	26.253
629.61	27.104
629.94	26.109
630.26	26.441
630.59	26.857
630.92	26.753
