SpectraSuite Data File
++++++++++++++++++++++++++++++++++++
Date: Thu May 14 14:34:37 PDT 2015
User: schluterlab
Dark Spectrum Present: Yes
Reference Spectrum Present: Yes
Number of Sampled Component Spectra: 1
Spectrometers: USB2E3373
Integration Time (usec): 3000 (USB2E3373)
Spectra Averaged: 3 (USB2E3373)
Boxcar Smoothing: 0 (USB2E3373)
Correct for Electrical Dark: No (USB2E3373)
Strobe/Lamp Enabled: No (USB2E3373)
Correct for Detector Non-linearity: No (USB2E3373)
Correct for Stray Light: No (USB2E3373)
Number of Pixels in Processed Spectrum: 2048
>>>>>Begin Processed Spectral Data<<<<<
178.53	0.000
178.91	-242.857
179.29	600.000
179.67	1600.000
180.04	-14.286
180.42	-230.000
180.80	-160.000
181.18	1400.000
181.56	2600.000
181.94	-325.000
182.31	425.000
182.69	-800.000
183.07	950.000
183.45	-175.000
183.83	433.333
184.20	866.667
184.58	-2100.000
184.96	450.000
185.34	188.889
185.72	520.000
186.09	-55.556
186.47	-300.000
186.85	-140.000
187.23	55.556
187.61	1600.000
187.98	-380.000
188.36	-225.000
188.74	400.000
189.12	566.667
189.49	131.250
189.87	50.000
190.25	255.556
190.63	380.000
191.00	177.778
191.38	0.000
191.76	500.000
192.14	350.000
192.51	-800.000
192.89	450.000
193.27	0.000
193.65	314.286
194.02	1700.000
194.40	257.143
194.78	-157.143
195.15	0.000
195.53	263.636
195.91	0.000
196.29	475.000
196.66	100.000
197.04	400.000
197.42	185.714
197.79	1000.000
198.17	200.000
198.55	185.714
198.92	177.778
199.30	212.500
199.68	309.091
200.05	185.714
200.43	1000.000
200.81	-71.429
201.18	0.000
201.56	-155.556
201.94	0.000
202.31	-333.333
202.69	55.556
203.07	-1600.000
203.44	155.556
203.82	325.000
204.19	133.333
204.57	300.000
204.95	275.000
205.32	2200.000
205.70	-550.000
206.08	383.333
206.45	433.333
206.83	-440.000
207.20	366.667
207.58	360.000
207.96	216.667
208.33	233.333
208.71	-100.000
209.08	500.000
209.46	0.000
209.84	-133.333
210.21	-950.000
210.59	-900.000
210.96	-533.333
211.34	700.000
211.71	175.000
212.09	1800.000
212.46	0.000
212.84	-350.000
213.22	180.000
213.59	525.000
213.97	260.000
214.34	766.667
214.72	-216.667
215.09	325.000
215.47	0.000
215.84	-285.714
216.22	-400.000
216.59	520.000
216.97	380.000
217.34	600.000
217.72	375.000
218.09	400.000
218.47	275.000
218.84	0.000
219.22	-300.000
219.59	100.000
219.97	165.000
220.34	-1050.000
220.72	188.889
221.09	176.923
221.47	533.333
221.84	180.000
222.22	157.143
222.59	0.000
222.97	300.000
223.34	400.000
223.72	1900.000
224.09	225.000
224.46	450.000
224.84	640.000
225.21	71.429
225.59	400.000
225.96	300.000
226.34	76.923
226.71	-116.667
227.08	700.000
227.46	66.667
227.83	450.000
228.21	110.526
228.58	-237.500
228.95	-550.000
229.33	125.000
229.70	130.000
230.08	136.842
230.45	-210.000
230.82	833.333
231.20	178.571
231.57	175.000
231.95	127.273
232.32	236.364
232.69	120.000
233.07	450.000
233.44	117.647
233.81	150.000
234.19	150.000
234.56	104.545
234.93	65.517
235.31	178.947
235.68	133.333
236.05	50.000
236.43	126.923
236.80	176.000
237.17	100.000
237.55	81.818
237.92	230.000
238.29	80.645
238.67	65.909
239.04	77.778
239.41	78.571
239.79	82.609
240.16	48.148
240.53	80.435
240.91	62.745
241.28	65.574
241.65	58.209
242.02	52.703
242.40	46.154
242.77	48.000
243.14	54.878
243.51	47.368
243.89	51.282
244.26	63.366
244.63	49.020
245.00	46.729
245.38	42.982
245.75	35.398
246.12	47.619
246.49	41.085
246.87	41.429
247.24	42.384
247.61	40.132
247.98	39.597
248.36	40.123
248.73	29.448
249.10	34.426
249.47	38.806
249.84	42.932
250.22	32.642
250.59	37.778
250.96	36.364
251.33	41.327
251.70	37.179
252.08	32.083
252.45	35.246
252.82	33.471
253.19	36.719
253.56	34.601
253.94	36.538
254.31	35.227
254.68	34.965
255.05	35.831
255.42	32.653
255.79	30.744
256.16	34.437
256.54	30.464
256.91	34.754
257.28	32.131
257.65	31.847
258.02	32.153
258.39	34.188
258.76	39.450
259.14	38.218
259.51	33.141
259.88	33.428
260.25	32.500
260.62	32.055
260.99	34.699
261.36	33.512
261.73	32.095
262.10	34.615
262.47	33.244
262.85	37.626
263.22	31.948
263.59	30.000
263.96	34.015
264.33	31.714
264.70	30.617
265.07	34.845
265.44	35.601
265.81	33.333
266.18	34.014
266.55	31.920
266.92	32.574
267.29	35.667
267.66	31.264
268.03	31.441
268.40	29.436
268.77	31.663
269.14	30.837
269.51	31.579
269.88	32.582
270.25	29.980
270.62	35.021
270.99	33.737
271.36	32.079
271.73	33.399
272.10	33.467
272.47	31.062
272.84	30.522
273.21	31.864
273.58	32.460
273.95	29.615
274.32	31.369
274.69	30.368
275.06	30.220
275.43	29.945
275.80	28.924
276.17	30.741
276.54	29.291
276.91	30.411
277.28	30.199
277.65	31.598
278.02	31.801
278.39	29.348
278.76	30.404
279.13	31.206
279.50	29.725
279.87	29.517
280.23	30.458
280.60	30.000
280.97	30.263
281.34	28.693
281.71	29.780
282.08	30.897
282.45	29.951
282.82	27.943
283.19	29.241
283.56	27.213
283.92	29.429
284.29	28.910
284.66	32.348
285.03	25.962
285.40	29.212
285.77	30.186
286.14	28.397
286.51	28.006
286.87	29.226
287.24	30.572
287.61	28.550
287.98	28.248
288.35	29.142
288.72	26.331
289.08	28.551
289.45	28.994
289.82	26.657
290.19	28.017
290.56	27.606
290.93	27.247
291.29	26.997
291.66	28.926
292.03	24.152
292.40	26.667
292.77	25.876
293.13	25.169
293.50	24.573
293.87	25.369
294.24	25.733
294.60	23.767
294.97	22.685
295.34	25.096
295.71	24.842
296.08	22.610
296.44	23.162
296.81	24.970
297.18	22.416
297.55	24.646
297.91	23.606
298.28	22.867
298.65	22.949
299.02	22.432
299.38	24.142
299.75	22.313
300.12	22.917
300.48	21.429
300.85	20.697
301.22	22.036
301.59	21.461
301.95	23.842
302.32	21.778
302.69	22.125
303.05	22.089
303.42	21.840
303.79	22.500
304.15	22.397
304.52	22.304
304.89	22.094
305.25	21.014
305.62	20.690
305.99	20.206
306.35	21.875
306.72	21.406
307.09	20.305
307.45	21.222
307.82	20.989
308.19	20.283
308.55	20.733
308.92	20.156
309.29	21.169
309.65	20.468
310.02	19.505
310.38	20.571
310.75	21.553
311.12	21.381
311.48	21.212
311.85	20.798
312.22	19.734
312.58	20.845
312.95	19.312
313.31	19.512
313.68	21.429
314.05	20.235
314.41	20.947
314.78	20.618
315.14	19.873
315.51	20.776
315.87	21.512
316.24	20.457
316.61	21.581
316.97	20.724
317.34	18.959
317.70	20.349
318.07	20.282
318.43	20.323
318.80	21.739
319.16	20.601
319.53	18.166
319.89	19.018
320.26	20.996
320.62	19.415
320.99	19.575
321.35	20.980
321.72	21.023
322.08	20.739
322.45	19.964
322.81	20.487
323.18	19.115
323.54	18.793
323.91	19.128
324.27	19.105
324.64	20.067
325.00	19.320
325.37	20.885
325.73	20.744
326.10	20.762
326.46	20.277
326.83	20.657
327.19	20.315
327.56	20.000
327.92	19.827
328.29	18.387
328.65	19.598
329.01	19.289
329.38	20.388
329.74	21.404
330.11	19.435
330.47	19.714
330.84	20.327
331.20	20.667
331.56	19.844
331.93	20.084
332.29	20.339
332.66	20.183
333.02	19.514
333.38	18.876
333.75	21.380
334.11	19.766
334.48	20.215
334.84	21.155
335.20	19.563
335.57	19.899
335.93	19.174
336.29	18.885
336.66	19.344
337.02	19.565
337.38	19.983
337.75	19.587
338.11	19.849
338.47	19.851
338.84	18.782
339.20	18.450
339.56	19.110
339.93	20.197
340.29	19.324
340.65	19.384
341.02	18.516
341.38	21.504
341.74	19.048
342.11	19.389
342.47	18.824
342.83	19.807
343.20	19.379
343.56	18.605
343.92	18.975
344.28	20.234
344.65	19.612
345.01	20.125
345.37	18.429
345.73	17.693
346.10	19.813
346.46	18.750
346.82	19.026
347.19	18.946
347.55	18.058
347.91	18.202
348.27	18.058
348.63	19.573
349.00	19.165
349.36	19.554
349.72	18.527
350.08	18.796
350.45	18.631
350.81	17.798
351.17	18.120
351.53	18.878
351.89	19.058
352.26	17.612
352.62	18.507
352.98	17.939
353.34	16.355
353.70	18.490
354.07	17.809
354.43	18.451
354.79	18.699
355.15	17.439
355.51	20.175
355.87	18.399
356.24	19.087
356.60	17.369
356.96	17.717
357.32	18.513
357.68	18.155
358.04	17.590
358.40	18.433
358.77	17.617
359.13	17.356
359.49	17.100
359.85	17.621
360.21	18.293
360.57	18.306
360.93	17.348
361.29	18.667
361.66	17.668
362.02	18.441
362.38	17.779
362.74	17.458
363.10	17.950
363.46	17.175
363.82	17.614
364.18	18.578
364.54	18.257
364.90	17.458
365.26	17.241
365.62	18.000
365.98	17.699
366.35	17.584
366.71	17.687
367.07	18.065
367.43	18.188
367.79	18.580
368.15	18.662
368.51	17.388
368.87	16.852
369.23	17.733
369.59	17.077
369.95	17.647
370.31	18.569
370.67	17.056
371.03	17.936
371.39	18.737
371.75	17.263
372.11	18.022
372.47	17.536
372.83	17.736
373.19	17.945
373.55	17.344
373.91	17.519
374.27	18.435
374.63	18.200
374.99	17.042
375.35	17.727
375.71	17.871
376.07	18.270
376.42	17.128
376.78	17.526
377.14	17.218
377.50	17.331
377.86	18.596
378.22	17.904
378.58	17.241
378.94	18.192
379.30	17.516
379.66	17.578
380.02	17.600
380.38	17.339
380.74	18.141
381.09	17.538
381.45	18.182
381.81	17.506
382.17	17.874
382.53	17.953
382.89	18.002
383.25	18.230
383.61	17.361
383.97	17.727
384.32	18.660
384.68	17.111
385.04	18.739
385.40	18.268
385.76	18.113
386.12	18.013
386.48	18.118
386.83	17.998
387.19	17.787
387.55	17.606
387.91	18.379
388.27	18.476
388.62	17.755
388.98	17.936
389.34	17.855
389.70	18.187
390.06	17.880
390.42	17.831
390.77	17.881
391.13	17.782
391.49	18.418
391.85	17.576
392.20	17.853
392.56	18.074
392.92	17.830
393.28	18.574
393.64	17.989
393.99	18.013
394.35	17.932
394.71	18.862
395.07	17.665
395.42	18.389
395.78	19.074
396.14	18.182
396.50	18.171
396.85	17.710
397.21	18.166
397.57	17.845
397.92	18.099
398.28	17.219
398.64	17.162
399.00	17.435
399.35	18.325
399.71	17.935
400.07	17.687
400.42	17.870
400.78	18.692
401.14	18.953
401.49	18.420
401.85	18.140
402.21	17.845
402.57	19.249
402.92	18.913
403.28	17.623
403.63	17.721
403.99	18.468
404.35	17.283
404.70	17.847
405.06	17.609
405.42	18.852
405.77	19.029
406.13	18.044
406.49	17.849
406.84	17.895
407.20	17.608
407.55	18.292
407.91	18.668
408.27	17.550
408.62	18.557
408.98	17.760
409.34	17.009
409.69	18.171
410.05	17.995
410.40	18.445
410.76	18.508
411.11	18.177
411.47	17.568
411.83	18.225
412.18	17.831
412.54	17.546
412.89	17.928
413.25	17.889
413.60	17.519
413.96	17.657
414.31	18.074
414.67	18.366
415.03	17.969
415.38	18.348
415.74	18.143
416.09	18.692
416.45	18.347
416.80	18.237
417.16	17.752
417.51	18.493
417.87	17.903
418.22	18.383
418.58	17.224
418.93	18.510
419.29	18.496
419.64	18.127
420.00	18.279
420.35	18.417
420.71	16.944
421.06	17.769
421.42	17.947
421.77	17.663
422.12	17.865
422.48	17.716
422.83	18.456
423.19	17.188
423.54	18.197
423.90	18.222
424.25	17.813
424.61	17.164
424.96	18.012
425.31	17.728
425.67	17.069
426.02	16.879
426.38	18.140
426.73	17.913
427.09	18.512
427.44	17.641
427.79	17.855
428.15	17.808
428.50	17.416
428.85	17.222
429.21	17.926
429.56	17.177
429.92	17.445
430.27	18.217
430.62	17.929
430.98	17.855
431.33	17.449
431.68	16.715
432.04	17.877
432.39	18.050
432.74	16.667
433.10	17.739
433.45	17.001
433.80	18.455
434.16	17.562
434.51	17.318
434.86	17.807
435.22	17.853
435.57	19.045
435.92	18.364
436.28	17.691
436.63	17.750
436.98	17.445
437.34	17.813
437.69	17.611
438.04	17.187
438.39	17.691
438.75	17.266
439.10	17.600
439.45	17.887
439.81	17.345
440.16	17.319
440.51	18.283
440.86	17.343
441.22	18.274
441.57	18.239
441.92	17.604
442.27	18.182
442.63	17.039
442.98	17.663
443.33	17.780
443.68	17.889
444.03	18.156
444.39	17.661
444.74	17.611
445.09	17.587
445.44	17.808
445.79	17.146
446.15	17.677
446.50	17.416
446.85	17.656
447.20	17.311
447.55	17.469
447.91	17.539
448.26	17.653
448.61	16.684
448.96	18.348
449.31	17.179
449.66	16.993
450.02	17.985
450.37	17.262
450.72	17.169
451.07	17.882
451.42	17.389
451.77	17.287
452.12	17.551
452.47	16.875
452.83	17.624
453.18	16.813
453.53	16.829
453.88	17.559
454.23	17.401
454.58	18.688
454.93	17.415
455.28	17.760
455.63	17.794
455.98	17.151
456.34	18.021
456.69	17.166
457.04	17.494
457.39	18.348
457.74	17.562
458.09	18.177
458.44	17.834
458.79	17.483
459.14	17.829
459.49	18.732
459.84	17.786
460.19	17.157
460.54	18.115
460.89	17.787
461.24	17.126
461.59	17.986
461.94	17.513
462.29	18.197
462.64	17.622
462.99	17.702
463.34	18.494
463.69	17.995
464.04	17.899
464.39	18.105
464.74	17.161
465.09	17.474
465.44	17.006
465.79	17.715
466.14	17.405
466.49	17.000
466.84	17.906
467.19	17.225
467.54	16.569
467.89	17.299
468.24	17.175
468.59	17.255
468.94	17.599
469.29	16.797
469.64	17.355
469.99	17.208
470.34	17.265
470.68	17.293
471.03	18.271
471.38	17.332
471.73	17.165
472.08	17.640
472.43	17.700
472.78	18.073
473.13	17.889
473.48	16.918
473.83	17.528
474.17	17.175
474.52	17.438
474.87	17.996
475.22	17.183
475.57	17.134
475.92	18.218
476.27	17.093
476.61	16.822
476.96	16.528
477.31	17.822
477.66	17.681
478.01	17.590
478.36	16.800
478.70	17.389
479.05	17.638
479.40	16.831
479.75	18.108
480.10	16.959
480.45	17.502
480.79	17.642
481.14	16.820
481.49	17.083
481.84	17.624
482.19	17.075
482.53	17.272
482.88	17.324
483.23	16.941
483.58	16.507
483.92	16.667
484.27	17.231
484.62	16.997
484.97	17.379
485.31	17.142
485.66	17.391
486.01	17.230
486.36	17.526
486.70	17.100
487.05	16.482
487.40	16.601
487.75	16.489
488.09	15.864
488.44	15.567
488.79	15.953
489.13	16.908
489.48	16.000
489.83	16.177
490.17	16.363
490.52	16.133
490.87	17.217
491.22	17.201
491.56	17.833
491.91	17.096
492.26	16.789
492.60	16.878
492.95	16.981
493.30	16.764
493.64	16.995
493.99	17.544
494.34	16.246
494.68	16.916
495.03	17.269
495.37	16.644
495.72	17.007
496.07	17.353
496.41	16.860
496.76	17.098
497.11	16.943
497.45	16.875
497.80	16.793
498.14	17.370
498.49	17.371
498.84	16.865
499.18	16.824
499.53	17.489
499.87	16.835
500.22	16.563
500.56	16.554
500.91	16.522
501.26	17.227
501.60	16.394
501.95	17.369
502.29	17.157
502.64	17.578
502.98	17.386
503.33	17.063
503.67	16.921
504.02	16.419
504.36	17.158
504.71	16.582
505.06	17.008
505.40	17.596
505.75	17.122
506.09	17.127
506.44	17.549
506.78	17.385
507.13	17.566
507.47	16.817
507.82	17.140
508.16	17.113
508.51	17.065
508.85	16.675
509.19	17.054
509.54	17.339
509.88	17.144
510.23	16.853
510.57	17.593
510.92	17.271
511.26	17.027
511.61	16.514
511.95	17.082
512.30	17.528
512.64	16.692
512.98	16.608
513.33	18.044
513.67	16.777
514.02	17.527
514.36	17.289
514.70	17.292
515.05	17.310
515.39	16.798
515.74	16.861
516.08	17.644
516.42	17.844
516.77	17.298
517.11	17.483
517.46	16.808
517.80	18.012
518.14	17.410
518.49	18.059
518.83	16.817
519.17	17.717
519.52	17.872
519.86	17.265
520.20	17.572
520.55	16.922
520.89	17.399
521.23	17.588
521.58	17.288
521.92	18.130
522.26	16.552
522.61	17.650
522.95	17.128
523.29	17.299
523.64	17.040
523.98	16.999
524.32	18.281
524.66	17.302
525.01	16.931
525.35	17.519
525.69	16.879
526.04	16.820
526.38	17.299
526.72	17.647
527.06	17.654
527.41	16.385
527.75	18.052
528.09	17.710
528.43	17.525
528.78	16.763
529.12	16.972
529.46	17.313
529.80	17.906
530.15	17.855
530.49	17.260
530.83	18.123
531.17	16.965
531.51	17.509
531.86	17.849
532.20	17.988
532.54	17.893
532.88	17.455
533.22	17.207
533.57	17.484
533.91	18.406
534.25	18.033
534.59	17.931
534.93	17.035
535.27	17.746
535.62	17.339
535.96	18.071
536.30	17.803
536.64	17.778
536.98	18.020
537.32	17.778
537.66	17.530
538.01	17.100
538.35	17.235
538.69	17.909
539.03	17.106
539.37	17.845
539.71	17.598
540.05	18.285
540.39	17.604
540.73	17.668
541.07	17.413
541.42	17.366
541.76	17.378
542.10	17.069
542.44	17.113
542.78	18.005
543.12	16.985
543.46	17.705
543.80	17.386
544.14	17.355
544.48	17.435
544.82	17.714
545.16	17.531
545.50	17.615
545.84	17.330
546.18	17.840
546.52	17.580
546.86	17.484
547.20	17.239
547.54	17.478
547.88	16.817
548.22	16.842
548.56	17.320
548.90	17.493
549.24	17.994
549.58	17.224
549.92	17.411
550.26	16.828
550.60	18.251
550.94	17.464
551.28	17.558
551.62	18.598
551.96	18.317
552.30	17.846
552.64	17.797
552.98	18.216
553.32	17.492
553.66	17.428
554.00	18.474
554.34	16.345
554.68	16.979
555.02	17.740
555.36	18.409
555.69	16.976
556.03	16.709
556.37	17.459
556.71	17.058
557.05	18.466
557.39	16.987
557.73	18.230
558.07	17.285
558.41	17.475
558.75	17.918
559.08	18.302
559.42	16.667
559.76	17.843
560.10	18.218
560.44	17.150
560.78	18.563
561.12	17.980
561.45	18.187
561.79	17.705
562.13	17.498
562.47	16.831
562.81	17.278
563.15	17.109
563.48	17.961
563.82	17.896
564.16	17.626
564.50	17.282
564.84	17.640
565.17	17.824
565.51	17.549
565.85	17.102
566.19	17.742
566.52	16.969
566.86	17.487
567.20	16.531
567.54	17.419
567.88	17.176
568.21	17.836
568.55	18.082
568.89	17.794
569.23	17.913
569.56	17.780
569.90	17.498
570.24	17.707
570.57	17.992
570.91	17.422
571.25	17.067
571.59	17.924
571.92	17.138
572.26	17.284
572.60	16.953
572.93	16.838
573.27	16.746
573.61	17.231
573.95	16.824
574.28	17.169
574.62	16.735
574.96	16.476
575.29	16.722
575.63	17.140
575.97	16.455
576.30	16.482
576.64	16.583
576.98	17.289
577.31	16.929
577.65	17.334
577.98	16.962
578.32	16.970
578.66	16.623
578.99	16.363
579.33	16.452
579.67	15.934
580.00	16.633
580.34	17.103
580.67	16.196
581.01	16.486
581.35	16.910
581.68	16.912
582.02	17.671
582.35	17.313
582.69	17.140
583.02	16.688
583.36	16.307
583.70	16.155
584.03	16.271
584.37	16.243
584.70	15.892
585.04	16.159
585.37	17.278
585.71	16.980
586.04	16.601
586.38	16.667
586.72	16.395
587.05	16.603
587.39	16.953
587.72	17.033
588.06	16.393
588.39	17.003
588.73	16.614
589.06	17.240
589.40	16.595
589.73	16.324
590.07	16.711
590.40	16.700
590.73	16.578
591.07	16.716
591.40	17.146
591.74	16.693
592.07	17.458
592.41	16.759
592.74	17.181
593.08	17.580
593.41	17.819
593.75	16.810
594.08	17.116
594.41	16.859
594.75	16.672
595.08	16.622
595.42	17.435
595.75	17.178
596.09	16.910
596.42	16.983
596.75	17.213
597.09	16.000
597.42	16.687
597.75	16.699
598.09	17.460
598.42	17.209
598.76	16.660
599.09	17.124
599.42	16.929
599.76	16.771
600.09	16.850
600.42	16.950
600.76	16.744
601.09	16.794
601.42	16.581
601.76	16.966
602.09	16.369
602.42	16.031
602.76	16.421
603.09	17.144
603.42	17.052
603.76	17.301
604.09	17.743
604.42	17.064
604.76	16.400
605.09	17.232
605.42	17.424
605.75	16.500
606.09	17.208
606.42	16.928
606.75	16.867
607.09	16.667
607.42	16.609
607.75	17.038
608.08	16.298
608.42	16.727
608.75	17.330
609.08	16.299
609.41	17.292
609.75	16.205
610.08	17.458
610.41	16.907
610.74	17.101
611.07	17.007
611.41	17.354
611.74	17.275
612.07	16.971
612.40	16.730
612.73	17.115
613.07	16.675
613.40	17.661
613.73	16.996
614.06	16.683
614.39	17.493
614.72	17.176
615.06	16.891
615.39	17.351
615.72	17.156
616.05	16.901
616.38	17.053
616.71	16.614
617.05	17.039
617.38	17.121
617.71	16.901
618.04	17.485
618.37	17.049
618.70	17.704
619.03	16.308
619.36	16.893
619.69	17.425
620.03	16.635
620.36	16.810
620.69	17.643
621.02	17.979
621.35	17.271
621.68	18.004
622.01	17.224
622.34	16.876
622.67	17.595
623.00	16.532
623.33	17.916
623.66	17.445
623.99	17.380
624.32	17.674
624.65	17.439
624.99	17.165
625.32	18.027
625.65	16.790
625.98	17.017
626.31	16.797
626.64	17.949
626.97	16.654
627.30	16.325
627.63	17.254
627.96	19.369
628.29	17.121
628.62	17.632
628.95	18.054
629.28	17.502
629.61	17.761
629.94	16.987
630.26	17.712
630.59	16.494
630.92	17.835
631.25	17.979
631.58	17.702
631.91	16.776
632.24	17.291
632.57	18.501
