SpectraSuite Data File
++++++++++++++++++++++++++++++++++++
Date: Thu May 14 14:45:30 PDT 2015
User: schluterlab
Dark Spectrum Present: Yes
Reference Spectrum Present: Yes
Number of Sampled Component Spectra: 1
Spectrometers: USB2E3373
Integration Time (usec): 3000 (USB2E3373)
Spectra Averaged: 3 (USB2E3373)
Boxcar Smoothing: 0 (USB2E3373)
Correct for Electrical Dark: No (USB2E3373)
Strobe/Lamp Enabled: No (USB2E3373)
Correct for Detector Non-linearity: No (USB2E3373)
Correct for Stray Light: No (USB2E3373)
Number of Pixels in Processed Spectrum: 2048
>>>>>Begin Processed Spectral Data<<<<<
178.53	0.000
178.91	28.571
179.29	-1100.000
179.67	-900.000
180.04	128.571
180.42	-30.000
180.80	100.000
181.18	400.000
181.56	-100.000
181.94	75.000
182.31	75.000
182.69	-233.333
183.07	250.000
183.45	75.000
183.83	100.000
184.20	66.667
184.58	-0.000
184.96	-100.000
185.34	55.556
185.72	120.000
186.09	133.333
186.47	100.000
186.85	140.000
187.23	-66.667
187.61	-1300.000
187.98	80.000
188.36	175.000
188.74	0.000
189.12	200.000
189.49	37.500
189.87	-25.000
190.25	77.778
190.63	-100.000
191.00	-88.889
191.38	0.000
191.76	-150.000
192.14	-16.667
192.51	-150.000
192.89	150.000
193.27	0.000
193.65	-85.714
194.02	-900.000
194.40	85.714
194.78	-57.143
195.15	0.000
195.53	45.455
195.91	0.000
196.29	100.000
196.66	-46.154
197.04	-1200.000
197.42	-85.714
197.79	50.000
198.17	25.000
198.55	-14.286
198.92	0.000
199.30	-75.000
199.68	54.545
200.05	92.857
200.43	-300.000
200.81	114.286
201.18	0.000
201.56	88.889
201.94	0.000
202.31	333.333
202.69	-33.333
203.07	-300.000
203.44	88.889
203.82	0.000
204.19	58.333
204.57	-233.333
204.95	-87.500
205.32	100.000
205.70	-50.000
206.08	-66.667
206.45	-83.333
206.83	80.000
207.20	116.667
207.58	-60.000
207.96	-100.000
208.33	-16.667
208.71	16.667
209.08	66.667
209.46	0.000
209.84	283.333
210.21	300.000
210.59	-150.000
210.96	100.000
211.34	125.000
211.71	-87.500
212.09	100.000
212.46	0.000
212.84	200.000
213.22	-280.000
213.59	125.000
213.97	-70.000
214.34	-133.333
214.72	83.333
215.09	-75.000
215.47	0.000
215.84	-0.000
216.22	500.000
216.59	60.000
216.97	160.000
217.34	125.000
217.72	-25.000
218.09	-200.000
218.47	0.000
218.84	0.000
219.22	40.000
219.59	52.941
219.97	15.000
220.34	300.000
220.72	-22.222
221.09	7.692
221.47	266.667
221.84	0.000
222.22	0.000
222.59	0.000
222.97	12.500
223.34	-160.000
223.72	-400.000
224.09	175.000
224.46	-75.000
224.84	160.000
225.21	-57.143
225.59	50.000
225.96	-100.000
226.34	-15.385
226.71	66.667
227.08	-50.000
227.46	0.000
227.83	150.000
228.21	63.158
228.58	12.500
228.95	600.000
229.33	-8.333
229.70	10.000
230.08	26.316
230.45	60.000
230.82	133.333
231.20	-35.714
231.57	8.333
231.95	100.000
232.32	54.545
232.69	30.000
233.07	175.000
233.44	-47.059
233.81	-40.000
234.19	44.444
234.56	-9.091
234.93	41.379
235.31	10.526
235.68	-22.222
236.05	-30.000
236.43	26.923
236.80	68.000
237.17	14.815
237.55	-9.091
237.92	-60.000
238.29	-16.129
238.67	4.545
239.04	11.111
239.41	7.143
239.79	0.000
240.16	7.407
240.53	6.522
240.91	-21.569
241.28	13.115
241.65	10.448
242.02	16.216
242.40	-15.385
242.77	6.667
243.14	6.098
243.51	0.000
243.89	-1.282
244.26	7.921
244.63	3.922
245.00	3.738
245.38	1.754
245.75	-11.504
246.12	-0.794
246.49	-2.326
246.87	2.857
247.24	6.623
247.61	8.553
247.98	2.013
248.36	-0.617
248.73	-3.067
249.10	1.639
249.47	8.955
249.84	7.330
250.22	0.518
250.59	2.778
250.96	7.727
251.33	-1.531
251.70	4.701
252.08	3.333
252.45	4.508
252.82	3.719
253.19	0.781
253.56	-0.760
253.94	3.462
254.31	1.515
254.68	7.343
255.05	6.515
255.42	4.082
255.79	0.647
256.16	2.318
256.54	3.311
256.91	4.590
257.28	0.328
257.65	0.637
258.02	0.590
258.39	6.838
258.76	4.893
259.14	5.172
259.51	1.729
259.88	1.700
260.25	3.333
260.62	1.644
260.99	6.011
261.36	4.290
261.73	1.857
262.10	0.549
262.47	2.145
262.85	4.293
263.22	3.117
263.59	-2.105
263.96	2.558
264.33	1.535
264.70	4.691
265.07	5.489
265.44	7.256
265.81	0.000
266.18	3.401
266.55	1.562
266.92	0.456
267.29	2.845
267.66	2.661
268.03	3.930
268.40	4.593
268.77	0.228
269.14	0.441
269.51	4.386
269.88	3.893
270.25	2.616
270.62	2.954
270.99	4.848
271.36	2.970
271.73	2.750
272.10	5.210
272.47	3.808
272.84	2.008
273.21	2.405
273.58	2.218
273.95	2.500
274.32	0.190
274.69	0.193
275.06	5.128
275.43	1.294
275.80	4.586
276.17	0.370
276.54	0.373
276.91	1.431
277.28	2.170
277.65	3.770
278.02	3.676
278.39	3.080
278.76	1.582
279.13	3.546
279.50	3.436
279.87	3.578
280.23	2.817
280.60	3.729
280.97	4.276
281.34	0.509
281.71	4.230
282.08	3.821
282.45	1.146
282.82	4.082
283.19	0.969
283.56	3.115
283.92	4.505
284.29	3.791
284.66	4.269
285.03	0.321
285.40	2.782
285.77	1.703
286.14	3.969
286.51	2.588
286.87	2.054
287.24	2.259
287.61	2.691
287.98	0.604
288.35	2.367
288.72	2.071
289.08	4.100
289.45	3.254
289.82	0.904
290.19	2.155
290.56	3.662
290.93	1.141
291.29	3.168
291.66	1.653
292.03	2.171
292.40	2.449
292.77	2.022
293.13	2.436
293.50	1.183
293.87	2.013
294.24	3.867
294.60	4.172
294.97	2.282
295.34	3.969
295.71	1.892
296.08	2.972
296.44	3.799
296.81	1.949
297.18	2.864
297.55	2.005
297.91	3.321
298.28	2.370
298.65	2.616
299.02	3.070
299.38	3.661
299.75	2.921
300.12	2.315
300.48	3.456
300.85	2.362
301.22	2.908
301.59	1.826
301.95	1.582
302.32	4.222
302.69	2.738
303.05	2.285
303.42	3.326
303.79	2.396
304.15	4.101
304.52	1.691
304.89	2.618
305.25	3.416
305.62	3.239
305.99	2.165
306.35	3.327
306.72	2.792
307.09	1.320
307.45	3.623
307.82	3.330
308.19	3.532
308.55	3.568
308.92	2.629
309.29	3.257
309.65	2.729
310.02	3.069
310.38	2.953
310.75	2.816
311.12	3.356
311.48	2.933
311.85	4.274
312.22	3.795
312.58	3.380
312.95	3.633
313.31	3.162
313.68	5.495
314.05	5.239
314.41	5.009
314.78	5.450
315.14	5.445
315.51	5.263
315.87	6.211
316.24	6.301
316.61	6.306
316.97	5.882
317.34	5.203
317.70	7.249
318.07	5.820
318.43	7.483
318.80	8.027
319.16	7.382
319.53	6.855
319.89	6.748
320.26	8.630
320.62	7.447
320.99	8.772
321.35	8.872
321.72	9.395
322.08	8.747
322.45	9.666
322.81	10.379
323.18	9.381
323.54	10.431
323.91	9.786
324.27	9.380
324.64	10.915
325.00	9.950
325.37	11.138
325.73	11.983
326.10	12.247
326.46	12.215
326.83	12.010
327.19	11.811
327.56	13.123
327.92	12.195
328.29	12.581
328.65	12.647
329.01	13.706
329.38	14.575
329.74	13.613
330.11	13.955
330.47	13.816
330.84	13.953
331.20	13.583
331.56	14.385
331.93	14.728
332.29	15.847
332.66	14.784
333.02	14.405
333.38	14.010
333.75	15.320
334.11	14.345
334.48	13.944
334.84	14.953
335.20	14.945
335.57	14.924
335.93	14.545
336.29	14.892
336.66	14.802
337.02	15.301
337.38	15.986
337.75	14.959
338.11	14.886
338.47	15.219
338.84	14.975
339.20	13.816
339.56	14.580
339.93	14.696
340.29	14.815
340.65	14.436
341.02	15.483
341.38	14.551
341.74	13.963
342.11	15.286
342.47	14.376
342.83	15.056
343.20	15.045
343.56	15.076
343.92	15.612
344.28	15.156
344.65	15.194
345.01	15.133
345.37	14.697
345.73	13.484
346.10	15.055
346.46	14.636
346.82	14.457
347.19	14.744
347.55	15.326
347.91	14.785
348.27	14.568
348.63	14.547
349.00	14.392
349.36	14.498
349.72	14.286
350.08	13.819
350.45	14.068
350.81	13.650
351.17	13.985
351.53	14.784
351.89	15.262
352.26	13.806
352.62	14.030
352.98	13.588
353.34	13.742
353.70	13.405
354.07	14.978
354.43	14.123
354.79	13.762
355.15	14.128
355.51	14.474
355.87	14.510
356.24	14.677
356.60	14.412
356.96	13.788
357.32	13.383
357.68	14.641
358.04	14.072
358.40	14.030
358.77	14.620
359.13	14.180
359.49	14.424
359.85	13.923
360.21	14.060
360.57	13.711
360.93	13.681
361.29	13.614
361.66	13.975
362.02	15.031
362.38	13.914
362.74	14.036
363.10	14.649
363.46	14.127
363.82	14.276
364.18	15.130
364.54	14.177
364.90	15.184
365.26	14.759
365.62	14.933
365.98	14.704
366.35	14.295
366.71	14.082
367.07	14.479
367.43	13.854
367.79	14.930
368.15	14.916
368.51	15.765
368.87	14.500
369.23	14.933
369.59	13.934
369.95	15.416
370.31	14.720
370.67	14.993
371.03	14.751
371.39	14.036
371.75	14.580
372.11	14.770
372.47	16.046
372.83	15.380
373.19	15.077
373.55	14.702
373.91	14.588
374.27	15.524
374.63	15.697
374.99	15.119
375.35	15.519
375.71	16.129
376.07	15.429
376.42	15.932
376.78	16.159
377.14	15.721
377.50	15.244
377.86	16.502
378.22	16.946
378.58	15.815
378.94	16.843
379.30	15.641
379.66	15.873
380.02	16.619
380.38	16.417
380.74	16.169
381.09	16.028
381.45	17.216
381.81	17.506
382.17	16.627
382.53	17.018
382.89	16.648
383.25	17.878
383.61	16.840
383.97	17.079
384.32	17.285
384.68	16.821
385.04	16.310
385.40	16.971
385.76	18.230
386.12	17.834
386.48	17.706
386.83	18.713
387.19	17.961
387.55	17.077
387.91	18.664
388.27	18.072
388.62	17.640
388.98	18.331
389.34	18.032
389.70	17.316
390.06	17.644
390.42	17.651
390.77	19.747
391.13	17.430
391.49	18.841
391.85	17.394
392.20	18.505
392.56	19.138
392.92	19.193
393.28	18.353
393.64	18.492
393.99	19.524
394.35	19.568
394.71	18.743
395.07	18.144
395.42	18.275
395.78	19.622
396.14	19.133
396.50	18.587
396.85	19.022
397.21	18.935
397.57	18.728
397.92	18.958
398.28	17.816
398.64	18.307
399.00	18.586
399.35	19.058
399.71	19.348
400.07	19.259
400.42	20.081
400.78	19.329
401.14	18.839
401.49	19.727
401.85	19.244
402.21	19.351
402.57	19.660
402.92	19.326
403.28	18.384
403.63	18.496
403.99	19.181
404.35	18.476
404.70	19.490
405.06	19.239
405.42	19.379
405.77	18.866
406.13	19.287
406.49	19.707
406.84	19.114
407.20	17.663
407.55	18.353
407.91	18.793
408.27	19.081
408.62	19.139
408.98	19.675
409.34	18.710
409.69	19.468
410.05	18.992
410.40	20.070
410.76	19.854
411.11	19.813
411.47	19.533
411.83	20.223
412.18	20.181
412.54	19.739
412.89	19.558
413.25	19.752
413.60	19.989
413.96	18.998
414.31	19.377
414.67	19.618
415.03	19.754
415.38	20.113
415.74	19.181
416.09	19.186
416.45	19.411
416.80	19.094
417.16	19.221
417.51	18.991
417.87	20.049
418.22	19.102
418.58	19.145
418.93	20.896
419.29	18.434
419.64	19.748
420.00	19.822
420.35	19.989
420.71	19.759
421.06	19.896
421.42	19.954
421.77	18.955
422.12	19.820
422.48	19.150
422.83	19.715
423.19	19.841
423.54	20.243
423.90	19.658
424.25	20.213
424.61	18.599
424.96	19.934
425.31	20.382
425.67	19.324
426.02	20.919
426.38	20.321
426.73	19.475
427.09	20.300
427.44	20.371
427.79	18.850
428.15	19.863
428.50	20.112
428.85	20.264
429.21	20.532
429.56	19.546
429.92	19.803
430.27	19.904
430.62	20.029
430.98	19.725
431.33	19.990
431.68	20.115
432.04	19.502
432.39	19.711
432.74	19.521
433.10	20.768
433.45	19.844
433.80	19.903
434.16	20.300
434.51	20.144
434.86	20.955
435.22	20.670
435.57	20.755
435.92	20.423
436.28	20.080
436.63	21.027
436.98	20.075
437.34	20.237
437.69	19.758
438.04	19.566
438.39	19.644
438.75	20.255
439.10	20.719
439.45	21.185
439.81	20.169
440.16	20.590
440.51	20.457
440.86	20.178
441.22	20.364
441.57	19.864
441.92	20.466
442.27	20.505
442.63	20.417
442.98	19.957
443.33	20.568
443.68	20.515
444.03	20.555
444.39	21.313
444.74	21.082
445.09	20.020
445.44	20.179
445.79	20.642
446.15	21.017
446.50	20.000
446.85	20.428
447.20	20.600
447.55	20.345
447.91	20.052
448.26	20.507
448.61	20.032
448.96	20.815
449.31	19.671
449.66	19.935
450.02	20.253
450.37	20.511
450.72	20.398
451.07	20.558
451.42	19.700
451.77	20.233
452.12	20.485
452.47	19.370
452.83	20.495
453.18	19.615
453.53	19.816
453.88	19.989
454.23	20.791
454.58	20.720
454.93	19.600
455.28	20.530
455.63	20.068
455.98	20.950
456.34	19.906
456.69	20.047
457.04	20.035
457.39	19.568
457.74	19.631
458.09	19.495
458.44	19.504
458.79	19.752
459.14	20.399
459.49	19.525
459.84	19.937
460.19	20.155
460.54	20.159
460.89	20.064
461.24	19.770
461.59	20.089
461.94	18.996
462.29	19.709
462.64	19.433
462.99	20.213
463.34	19.727
463.69	19.402
464.04	19.566
464.39	20.067
464.74	20.182
465.09	19.493
465.44	19.528
465.79	20.201
466.14	18.916
466.49	20.368
466.84	19.063
467.19	19.538
467.54	18.273
467.89	19.080
468.24	19.003
468.59	18.356
468.94	18.998
469.29	19.556
469.64	19.072
469.99	17.846
470.34	18.874
470.68	18.797
471.03	19.253
471.38	19.424
471.73	18.075
472.08	19.226
472.43	19.506
472.78	19.081
473.13	18.458
473.48	19.275
473.83	18.862
474.17	19.109
474.52	19.784
474.87	19.158
475.22	19.493
475.57	17.705
475.92	18.517
476.27	18.158
476.61	18.951
476.96	18.144
477.31	18.614
477.66	18.416
478.01	18.149
478.36	18.195
478.70	18.227
479.05	18.865
479.40	18.806
479.75	18.684
480.10	18.190
480.45	17.958
480.79	18.005
481.14	17.923
481.49	18.264
481.84	18.538
482.19	17.763
482.53	18.452
482.88	18.653
483.23	17.919
483.58	17.555
483.92	17.509
484.27	17.697
484.62	17.533
484.97	18.196
485.31	17.353
485.66	16.527
486.01	16.103
486.36	16.746
486.70	17.887
487.05	18.205
487.40	17.785
487.75	18.015
488.09	17.864
488.44	17.355
488.79	17.572
489.13	16.799
489.48	16.583
489.83	16.942
490.17	17.051
490.52	16.954
490.87	17.470
491.22	17.504
491.56	16.766
491.91	17.052
492.26	17.352
492.60	16.878
492.95	17.069
493.30	17.167
493.64	17.170
493.99	16.930
494.34	16.855
494.68	16.702
495.03	16.872
495.37	16.600
495.72	16.780
496.07	16.915
496.41	16.431
496.76	17.098
497.11	16.773
497.45	16.789
497.80	16.748
498.14	16.871
498.49	16.590
498.84	15.859
499.18	16.869
499.53	16.457
499.87	16.440
500.22	16.028
500.56	15.879
500.91	16.476
501.26	16.773
501.60	15.466
501.95	16.370
502.29	16.367
502.64	16.266
502.98	16.350
503.33	15.551
503.67	15.569
504.02	16.200
504.36	16.130
504.71	15.756
505.06	15.825
505.40	16.271
505.75	15.665
506.09	16.206
506.44	15.970
506.78	16.376
507.13	15.860
507.47	16.627
507.82	15.530
508.16	15.679
508.51	16.268
508.85	15.210
509.19	15.159
509.54	16.186
509.88	15.250
510.23	15.784
510.57	16.385
510.92	15.385
511.26	15.200
511.61	15.500
511.95	15.520
512.30	15.707
512.64	14.693
512.98	14.957
513.33	15.726
513.67	15.706
514.02	15.636
514.36	14.885
514.70	15.260
515.05	15.589
515.39	15.696
515.74	15.005
516.08	15.531
516.42	15.280
516.77	15.405
517.11	15.111
517.46	15.217
517.80	15.019
518.14	13.983
518.49	14.805
518.83	14.316
519.17	14.540
519.52	14.727
519.86	15.048
520.20	13.845
520.55	15.389
520.89	15.146
521.23	14.629
521.58	14.746
521.92	14.278
522.26	14.719
522.61	14.699
522.95	14.014
523.29	14.483
523.64	14.182
523.98	14.718
524.32	14.441
524.66	14.058
525.01	14.156
525.35	13.957
525.69	14.037
526.04	14.581
526.38	13.966
526.72	14.302
527.06	14.956
527.41	14.810
527.75	14.311
528.09	13.872
528.43	14.624
528.78	13.699
529.12	12.959
529.46	13.997
529.80	13.787
530.15	13.507
530.49	13.108
530.83	13.813
531.17	13.680
531.51	12.996
531.86	13.702
532.20	14.085
532.54	13.345
532.88	13.333
533.22	13.612
533.57	13.849
533.91	13.412
534.25	13.341
534.59	13.851
534.93	13.582
535.27	12.845
535.62	13.530
535.96	12.260
536.30	13.337
536.64	13.514
536.98	13.592
537.32	13.210
537.66	13.475
538.01	12.266
538.35	12.607
538.69	12.620
539.03	13.059
539.37	13.899
539.71	12.432
540.05	13.609
540.39	12.408
540.73	11.900
541.07	12.508
541.42	11.991
541.76	11.922
542.10	12.967
542.44	11.449
542.78	13.200
543.12	13.290
543.46	12.515
543.80	11.691
544.14	12.328
544.48	12.884
544.82	11.730
545.16	11.866
545.50	11.923
545.84	11.635
546.18	13.148
546.52	11.847
546.86	12.956
547.20	12.723
547.54	11.486
547.88	11.935
548.22	11.462
548.56	12.171
548.90	12.179
549.24	11.733
549.58	12.555
549.92	11.735
550.26	11.715
550.60	12.827
550.94	11.449
551.28	12.277
551.62	12.129
551.96	11.586
552.30	12.365
552.64	11.388
552.98	10.979
553.32	11.897
553.66	12.154
554.00	11.602
554.34	11.454
554.68	11.685
555.02	10.775
555.36	11.834
555.69	10.890
556.03	10.908
556.37	12.641
556.71	11.541
557.05	11.246
557.39	10.949
557.73	10.304
558.07	10.662
558.41	11.495
558.75	11.494
559.08	10.856
559.42	10.631
559.76	11.601
560.10	10.650
560.44	10.422
560.78	11.688
561.12	11.207
561.45	11.131
561.79	10.989
562.13	10.413
562.47	11.036
562.81	10.190
563.15	10.795
563.48	10.690
563.82	11.004
564.16	10.297
564.50	10.667
564.84	10.501
565.17	10.882
565.51	10.587
565.85	10.629
566.19	10.023
566.52	10.181
566.86	10.753
567.20	10.005
567.54	9.931
567.88	10.907
568.21	9.980
568.55	10.408
568.89	9.532
569.23	9.970
569.56	9.887
569.90	9.694
570.24	9.781
570.57	9.301
570.91	9.553
571.25	8.823
571.59	9.546
571.92	9.275
572.26	9.449
572.60	9.610
572.93	9.491
573.27	9.328
573.61	9.291
573.95	9.226
574.28	9.063
574.62	8.936
574.96	9.153
575.29	9.187
575.63	9.171
575.97	9.102
576.30	9.030
576.64	8.590
576.98	8.724
577.31	9.177
577.65	8.935
577.98	8.716
578.32	8.439
578.66	8.877
578.99	8.908
579.33	9.004
579.67	8.976
580.00	8.991
580.34	9.053
580.67	8.539
581.01	8.611
581.35	8.708
581.68	8.696
582.02	8.208
582.35	8.879
582.69	8.399
583.02	8.671
583.36	8.688
583.70	8.430
584.03	8.567
584.37	8.862
584.70	8.655
585.04	8.347
585.37	8.595
585.71	8.738
586.04	8.565
586.38	8.635
586.72	8.323
587.05	7.956
587.39	8.302
587.72	8.589
588.06	8.390
588.39	8.887
588.73	8.704
589.06	8.521
589.40	8.789
589.73	8.997
590.07	8.223
590.40	9.364
590.73	8.413
591.07	8.935
591.40	8.437
591.74	8.665
592.07	9.338
592.41	8.241
592.74	8.910
593.08	8.185
593.41	8.720
593.75	8.190
594.08	8.270
594.41	8.429
594.75	8.535
595.08	8.513
595.42	8.344
595.75	8.428
596.09	8.438
596.42	8.456
596.75	8.954
597.09	9.253
597.42	8.105
597.75	8.506
598.09	8.492
598.42	8.605
598.76	7.757
599.09	7.761
599.42	8.113
599.76	8.287
600.09	7.708
600.42	7.875
600.76	8.157
601.09	8.065
601.42	8.239
601.76	8.103
602.09	7.863
602.42	8.106
602.76	8.561
603.09	7.930
603.42	8.056
603.76	8.140
604.09	8.588
604.42	8.183
604.76	8.143
605.09	8.337
605.42	8.214
605.75	8.154
606.09	7.503
606.42	7.844
606.75	7.571
607.09	7.143
607.42	8.092
607.75	7.542
608.08	7.498
608.42	8.021
608.75	8.292
609.08	7.725
609.41	7.455
609.75	7.634
610.08	7.828
610.41	7.732
610.74	7.479
611.07	7.638
611.41	8.565
611.74	8.037
612.07	8.789
612.40	8.175
612.73	7.824
613.07	7.726
613.40	8.566
613.73	7.944
614.06	7.704
614.39	7.386
614.72	9.122
615.06	7.700
615.39	7.492
615.72	8.104
616.05	7.625
616.38	8.527
616.71	8.516
617.05	7.508
617.38	8.133
617.71	8.747
618.04	8.365
618.37	8.197
618.70	7.353
619.03	7.826
619.36	7.522
619.69	7.751
620.03	7.156
620.36	8.221
620.69	8.452
621.02	8.399
621.35	7.910
621.68	8.388
622.01	8.683
622.34	7.113
622.67	8.179
623.00	7.355
623.33	8.228
623.66	8.042
623.99	7.044
624.32	8.902
624.65	7.529
624.99	7.607
625.32	8.426
625.65	8.361
625.98	7.390
626.31	8.079
626.64	7.326
626.97	8.702
627.30	7.593
627.63	6.902
627.96	9.084
628.29	8.482
628.62	7.221
628.95	7.099
629.28	7.307
629.61	8.249
629.94	7.782
630.26	7.458
630.59	6.477
630.92	8.225
631.25	8.229
631.58	8.286
631.91	7.779
632.24	8.357
632.57	8.254
632.90	8.024
633.23	8.265
633.56	7.551
633.89	6.612
634.22	8.420
634.55	8.246
634.88	8.009
635.20	7.858
635.53	6.893
635.86	7.801
636.19	8.908
636.52	7.384
636.85	6.844
637.18	8.316
637.51	8.387
637.83	8.527
638.16	8.525
638.49	7.160
638.82	7.554
639.15	6.758
639.48	9.353
639.81	9.469
640.13	8.716
640.46	6.788
640.79	7.108
641.12	8.447
641.45	8.407
641.77	9.499
642.10	7.087
642.43	8.245
642.76	8.943
643.09	8.082
643.41	7.423
643.74	7.586
644.07	9.241
