SpectraSuite Data File
++++++++++++++++++++++++++++++++++++
Date: Thu May 14 15:16:34 PDT 2015
User: schluterlab
Dark Spectrum Present: Yes
Reference Spectrum Present: Yes
Number of Sampled Component Spectra: 1
Spectrometers: USB2E3373
Integration Time (usec): 3000 (USB2E3373)
Spectra Averaged: 3 (USB2E3373)
Boxcar Smoothing: 0 (USB2E3373)
Correct for Electrical Dark: No (USB2E3373)
Strobe/Lamp Enabled: No (USB2E3373)
Correct for Detector Non-linearity: No (USB2E3373)
Correct for Stray Light: No (USB2E3373)
Number of Pixels in Processed Spectrum: 2048
>>>>>Begin Processed Spectral Data<<<<<
178.53	0.000
178.91	628.571
179.29	-4800.000
179.67	-5000.000
180.04	414.286
180.42	430.000
180.80	940.000
181.18	-4300.000
181.56	-3100.000
181.94	1100.000
182.31	-950.000
182.69	1500.000
183.07	-2100.000
183.45	1075.000
183.83	-616.667
184.20	-1266.667
184.58	3900.000
184.96	-975.000
185.34	-433.333
185.72	-640.000
186.09	577.778
186.47	2100.000
186.85	1100.000
187.23	-488.889
187.61	-5200.000
187.98	820.000
188.36	1075.000
188.74	-1075.000
189.12	-1400.000
189.49	-225.000
189.87	-525.000
190.25	-533.333
190.63	-820.000
191.00	-466.667
191.38	0.000
191.76	-1100.000
192.14	-766.667
192.51	1950.000
192.89	-550.000
193.27	0.000
193.65	-657.143
194.02	-4000.000
194.40	-500.000
194.78	614.286
195.15	0.000
195.53	-354.545
195.91	0.000
196.29	-800.000
196.66	-261.538
197.04	-4200.000
197.42	-671.429
197.79	-2200.000
198.17	-612.500
198.55	-614.286
198.92	-322.222
199.30	-462.500
199.68	-272.727
200.05	-221.429
200.43	-2050.000
200.81	671.429
201.18	0.000
201.56	600.000
201.94	0.000
202.31	1400.000
202.69	-500.000
203.07	4400.000
203.44	-388.889
203.82	-875.000
204.19	-250.000
204.57	-733.333
204.95	-562.500
205.32	-3300.000
205.70	1000.000
206.08	-700.000
206.45	-550.000
206.83	920.000
207.20	-650.000
207.58	-1020.000
207.96	-683.333
208.33	-616.667
208.71	375.000
209.08	-416.667
209.46	0.000
209.84	800.000
210.21	1950.000
210.59	1950.000
210.96	1400.000
211.34	-1075.000
211.71	-575.000
212.09	-4500.000
212.46	0.000
212.84	2550.000
213.22	-1020.000
213.59	-1050.000
213.97	-370.000
214.34	-1366.667
214.72	700.000
215.09	-850.000
215.47	0.000
215.84	657.143
216.22	2050.000
216.59	-780.000
216.97	-840.000
217.34	-1125.000
217.72	-537.500
218.09	-1225.000
218.47	-950.000
218.84	0.000
219.22	840.000
219.59	-264.706
219.97	-160.000
220.34	2250.000
220.72	-466.667
221.09	-246.154
221.47	-1533.333
221.84	-330.000
222.22	-614.286
222.59	0.000
222.97	-400.000
223.34	-860.000
223.72	-5200.000
224.09	-1050.000
224.46	-875.000
224.84	-640.000
225.21	-714.286
225.59	-1025.000
225.96	-1100.000
226.34	-100.000
226.71	783.333
227.08	-2100.000
227.46	-220.000
227.83	-1225.000
228.21	-126.316
228.58	587.500
228.95	2250.000
229.33	-158.333
229.70	-370.000
230.08	-163.158
230.45	460.000
230.82	-1233.333
231.20	-278.571
231.57	-275.000
231.95	-318.182
232.32	-300.000
232.69	-125.000
233.07	-825.000
233.44	-252.941
233.81	-420.000
234.19	-188.889
234.56	-159.091
234.93	-124.138
235.31	-247.368
235.68	-194.444
236.05	-215.000
236.43	-126.923
236.80	-96.000
237.17	-111.111
237.55	-103.030
237.92	-390.000
238.29	-122.581
238.67	-102.273
239.04	-102.778
239.41	-102.381
239.79	-84.783
240.16	-74.074
240.53	-97.826
240.91	-109.804
241.28	-75.410
241.65	-58.209
242.02	-41.892
242.40	-67.692
242.77	-53.333
243.14	-47.561
243.51	-52.632
243.89	-50.000
244.26	-28.713
244.63	-43.137
245.00	-35.514
245.38	-35.965
245.75	-48.673
246.12	-22.222
246.49	-29.457
246.87	-26.429
247.24	-19.868
247.61	-23.026
247.98	-36.242
248.36	-22.222
248.73	-28.221
249.10	-21.311
249.47	-15.423
249.84	-10.995
250.22	-24.870
250.59	-19.444
250.96	-15.455
251.33	-26.531
251.70	-12.393
252.08	-14.583
252.45	-13.525
252.82	-18.182
253.19	-16.406
253.56	-15.970
253.94	-17.308
254.31	-14.773
254.68	-11.189
255.05	-11.075
255.42	-11.565
255.79	-10.356
256.16	-11.589
256.54	-15.894
256.91	-12.459
257.28	-11.803
257.65	-14.968
258.02	-14.159
258.39	-9.687
258.76	-11.315
259.14	-10.920
259.51	-11.816
259.88	-12.181
260.25	-9.444
260.62	-10.137
260.99	-6.011
261.36	-4.826
261.73	-8.753
262.10	-9.341
262.47	-12.869
262.85	-7.576
263.22	-9.610
263.59	-12.368
263.96	-11.765
264.33	-12.020
264.70	-7.901
265.07	-8.115
265.44	-6.576
265.81	-8.796
266.18	-5.896
266.55	-8.036
266.92	-9.795
267.29	-7.659
267.66	-8.647
268.03	-7.205
268.40	-7.098
268.77	-10.706
269.14	-9.251
269.51	-8.772
269.88	-6.557
270.25	-6.237
270.62	-6.118
270.99	-4.848
271.36	-3.564
271.73	-6.090
272.10	-6.012
272.47	-7.014
272.84	-7.229
273.21	-8.016
273.58	-7.863
273.95	-6.731
274.32	-7.795
274.69	-8.897
275.06	-5.678
275.43	-9.242
275.80	-6.878
276.17	-5.556
276.54	-8.209
276.91	-8.050
277.28	-6.148
277.65	-6.284
278.02	-6.434
278.39	-6.884
278.76	-7.381
279.13	-4.433
279.50	-4.124
279.87	-6.440
280.23	-8.451
280.60	-4.407
280.97	-5.099
281.34	-7.470
281.71	-5.415
282.08	-5.648
282.45	-6.056
282.82	-5.495
283.19	-8.885
283.56	-5.246
283.92	-4.354
284.29	-3.476
284.66	-5.255
285.03	-7.532
285.40	-4.637
285.77	-6.502
286.14	-5.038
286.51	-5.175
286.87	-6.635
287.24	-5.120
287.61	-6.278
287.98	-6.949
288.35	-5.030
288.72	-5.769
289.08	-4.392
289.45	-5.769
289.82	-6.024
290.19	-5.603
290.56	-3.944
290.93	-4.565
291.29	-4.545
291.66	-4.959
292.03	-5.699
292.40	-3.673
292.77	-4.717
293.13	-3.924
293.50	-5.650
293.87	-5.235
294.24	-3.067
294.60	-3.793
294.97	-4.564
295.34	-3.969
295.71	-4.288
296.08	-5.943
296.44	-4.657
296.81	-3.532
297.18	-3.238
297.55	-4.717
297.91	-4.033
298.28	-4.028
298.65	-3.686
299.02	-4.841
299.38	-2.860
299.75	-3.972
300.12	-4.282
300.48	-4.608
300.85	-2.812
301.22	-3.579
301.59	-4.680
301.95	-2.938
302.32	-1.889
302.69	-3.067
303.05	-2.176
303.42	-3.769
303.79	-3.438
304.15	-3.575
304.52	-4.651
304.89	-3.455
305.25	-2.588
305.62	-4.389
305.99	-1.959
306.35	-3.831
306.72	-2.172
307.09	-4.264
307.45	-3.934
307.82	-3.330
308.19	-4.945
308.55	-2.604
308.92	-2.532
309.29	-2.969
309.65	-3.314
310.02	-2.772
310.38	-3.346
310.75	-3.301
311.12	-1.918
311.48	-2.933
311.85	-2.754
312.22	-2.657
312.58	-2.254
312.95	-2.772
313.31	-1.897
313.68	-1.465
314.05	-0.723
314.41	-1.730
314.78	-2.816
315.14	-1.452
315.51	-1.570
315.87	-1.260
316.24	-0.913
316.61	0.355
316.97	-0.633
317.34	-1.675
317.70	-1.572
318.07	-0.529
318.43	-0.340
318.80	1.254
319.16	0.172
319.53	-1.200
319.89	-0.351
320.26	0.712
320.62	-0.532
320.99	0.092
321.35	0.462
321.72	0.651
322.08	-0.090
322.45	0.632
322.81	1.264
323.18	1.239
323.54	2.069
323.91	1.690
324.27	2.065
324.64	2.771
325.00	2.405
325.37	4.505
325.73	3.719
326.10	4.947
326.46	5.375
326.83	5.845
327.19	5.512
327.56	6.403
327.92	6.609
328.29	6.371
328.65	7.203
329.01	7.276
329.38	8.340
329.74	8.134
330.11	8.818
330.47	9.183
330.84	9.216
331.20	8.667
331.56	9.272
331.93	10.795
332.29	11.271
332.66	11.296
333.02	11.055
333.38	10.235
333.75	11.364
334.11	11.009
334.48	12.954
334.84	12.914
335.20	10.831
335.57	12.395
335.93	12.479
336.29	12.978
336.66	12.784
337.02	13.211
337.38	13.605
337.75	12.727
338.11	13.709
338.47	14.144
338.84	12.775
339.20	12.468
339.56	14.086
339.93	12.972
340.29	12.882
340.65	12.571
341.02	13.887
341.38	14.713
341.74	13.801
342.11	14.320
342.47	13.026
342.83	12.882
343.20	13.818
343.56	14.194
343.92	13.531
344.28	14.062
344.65	14.419
345.01	14.743
345.37	13.686
345.73	13.640
346.10	14.665
346.46	14.873
346.82	14.457
347.19	13.445
347.55	14.340
347.91	13.596
348.27	14.492
348.63	14.090
349.00	14.467
349.36	14.424
349.72	13.021
350.08	15.305
350.45	13.916
350.81	13.047
351.17	14.962
351.53	13.950
351.89	13.819
352.26	13.358
352.62	13.806
352.98	13.817
353.34	13.219
353.70	13.867
354.07	14.232
354.43	13.667
354.79	13.837
355.15	14.054
355.51	14.035
355.87	13.987
356.24	14.068
356.60	14.265
356.96	14.010
357.32	15.093
357.68	14.056
358.04	13.323
358.40	13.284
358.77	13.670
359.13	13.516
359.49	14.052
359.85	15.083
360.21	14.706
360.57	14.358
360.93	14.528
361.29	14.246
361.66	14.917
362.02	16.493
362.38	14.758
362.74	14.525
363.10	14.718
363.46	14.612
363.82	14.418
364.18	15.482
364.54	14.799
364.90	16.187
365.26	14.690
365.62	16.400
365.98	15.657
366.35	15.369
366.71	16.463
367.07	15.697
367.43	16.612
367.79	16.125
368.15	15.385
368.51	15.697
368.87	15.807
369.23	15.800
369.59	15.574
369.95	16.430
370.31	16.138
370.67	16.437
371.03	16.828
371.39	15.850
371.75	17.331
372.11	16.667
372.47	17.062
372.83	17.474
373.19	16.211
373.55	17.209
373.91	16.428
374.27	15.912
374.63	16.509
374.99	16.711
375.35	17.727
375.71	17.355
376.07	16.850
376.42	17.380
376.78	18.148
377.14	17.966
377.50	19.102
377.86	17.488
378.22	17.545
378.58	18.430
378.94	18.310
379.30	18.395
379.66	19.048
380.02	19.331
380.38	20.161
380.74	19.831
381.09	20.325
381.45	19.432
381.81	20.726
382.17	19.952
382.53	20.409
382.89	20.655
383.25	19.461
383.61	20.370
383.97	19.906
384.32	20.933
384.68	19.838
385.04	20.937
385.40	21.037
385.76	20.692
386.12	20.586
386.48	21.118
386.83	21.633
387.19	20.857
387.55	20.599
387.91	21.747
388.27	21.420
388.62	22.623
388.98	22.109
389.34	22.216
389.70	22.313
390.06	22.558
390.42	21.807
390.77	22.456
391.13	21.772
391.49	22.947
391.85	21.879
392.20	22.894
392.56	23.095
392.92	22.574
393.28	23.604
393.64	22.682
393.99	23.823
394.35	23.715
394.71	23.952
395.07	22.575
395.42	23.758
395.78	24.132
396.14	23.173
396.50	22.387
396.85	23.673
397.21	23.609
397.57	22.674
397.92	23.654
398.28	23.520
398.64	23.398
399.00	23.194
399.35	23.455
399.71	24.185
400.07	23.582
400.42	23.807
400.78	24.074
401.14	23.620
401.49	23.707
401.85	23.721
402.21	23.696
402.57	25.352
402.92	23.582
403.28	24.473
403.63	23.031
403.99	22.506
404.35	23.138
404.70	24.193
405.06	23.533
405.42	24.005
405.77	24.100
406.13	23.825
406.49	24.718
406.84	24.044
407.20	23.141
407.55	22.835
407.91	23.507
408.27	24.028
408.62	24.316
408.98	23.273
409.34	23.226
409.69	24.413
410.05	24.443
410.40	24.884
410.76	24.285
411.11	24.898
411.47	25.061
411.83	24.985
412.18	25.602
412.54	24.481
412.89	24.738
413.25	24.266
413.60	24.756
413.96	25.000
414.31	23.909
414.67	23.614
415.03	24.554
415.38	24.905
415.74	23.946
416.09	23.566
416.45	24.108
416.80	23.929
417.16	24.266
417.51	24.346
417.87	24.525
418.22	24.371
418.58	23.606
418.93	24.913
419.29	24.723
419.64	23.709
420.00	24.985
420.35	25.154
420.71	24.239
421.06	24.037
421.42	25.000
421.77	24.179
422.12	24.683
422.48	24.526
422.83	24.973
423.19	25.464
423.54	25.000
423.90	24.462
424.25	25.227
424.61	24.397
424.96	24.547
425.31	25.372
425.67	24.423
426.02	24.737
426.38	24.971
426.73	25.000
427.09	25.663
427.44	24.413
427.79	24.820
428.15	25.285
428.50	24.607
428.85	24.971
429.21	25.904
429.56	25.222
429.92	25.651
430.27	24.964
430.62	25.305
430.98	26.267
431.33	25.367
431.68	25.192
432.04	25.698
432.39	26.031
432.74	24.600
433.10	25.311
433.45	24.247
433.80	24.732
434.16	25.517
434.51	25.488
434.86	26.221
435.22	25.717
435.57	25.884
435.92	25.710
436.28	25.995
436.63	25.724
436.98	25.980
437.34	26.043
437.69	25.537
438.04	25.066
438.39	24.124
438.75	25.346
439.10	26.004
439.45	25.713
439.81	26.441
440.16	24.826
440.51	26.533
440.86	25.903
441.22	25.670
441.57	25.943
441.92	25.897
442.27	25.859
442.63	25.633
442.98	26.041
443.33	25.197
443.68	26.660
444.03	26.952
444.39	27.184
444.74	26.493
445.09	26.356
445.44	26.818
445.79	27.778
446.15	26.208
446.50	26.357
446.85	26.702
447.20	26.596
447.55	26.517
447.91	25.602
448.26	25.899
448.61	26.621
448.96	26.663
449.31	26.564
449.66	25.599
450.02	26.108
450.37	27.118
450.72	26.103
451.07	26.196
451.42	26.228
451.77	26.292
452.12	27.201
452.47	25.787
452.83	26.295
453.18	25.803
453.53	25.905
453.88	26.670
454.23	26.723
454.58	27.278
454.93	25.910
455.28	26.972
455.63	26.151
455.98	27.318
456.34	26.737
456.69	26.455
457.04	26.832
457.39	26.497
457.74	27.181
458.09	25.865
458.44	27.425
458.79	26.973
459.14	26.167
459.49	26.599
459.84	27.440
460.19	26.263
460.54	27.655
460.89	27.263
461.24	26.609
461.59	26.563
461.94	25.328
462.29	26.764
462.64	26.313
462.99	26.365
463.34	26.152
463.69	27.140
464.04	27.293
464.39	26.345
464.74	26.112
465.09	26.182
465.44	27.039
465.79	26.970
466.14	27.097
466.49	26.895
466.84	26.612
467.19	27.225
467.54	26.146
467.89	25.862
468.24	27.535
468.59	26.173
468.94	27.040
469.29	26.875
469.64	26.446
469.99	26.577
470.34	26.114
470.68	26.111
471.03	26.981
471.38	26.292
471.73	26.463
472.08	26.586
472.43	27.273
472.78	26.763
473.13	27.181
473.48	27.190
473.83	26.988
474.17	26.671
474.52	27.180
474.87	27.132
475.22	27.211
475.57	26.791
475.92	27.675
476.27	27.157
476.61	26.687
476.96	26.747
477.31	26.931
477.66	27.807
478.01	27.250
478.36	26.720
478.70	27.833
479.05	28.272
479.40	27.542
479.75	27.041
480.10	26.528
480.45	27.074
480.79	27.846
481.14	26.654
481.49	27.806
481.84	27.459
482.19	27.570
482.53	27.372
482.88	27.470
483.23	27.034
483.58	27.729
483.92	26.241
484.27	27.392
484.62	26.444
484.97	27.488
485.31	27.209
485.66	25.520
486.01	25.725
486.36	27.461
486.70	29.721
487.05	29.952
487.40	28.558
487.75	27.328
488.09	27.473
488.44	26.233
488.79	26.408
489.13	26.249
489.48	26.524
489.83	26.680
490.17	26.610
490.52	27.176
490.87	26.904
491.22	27.730
491.56	27.645
491.91	27.431
492.26	27.347
492.60	28.203
492.95	26.942
493.30	26.580
493.64	27.814
493.99	27.368
494.34	27.091
494.68	26.552
495.03	27.885
495.37	27.208
495.72	26.667
496.07	26.249
496.41	27.327
496.76	28.565
497.11	27.431
497.45	28.010
497.80	26.788
498.14	27.392
498.49	27.390
498.84	27.559
499.18	26.676
499.53	27.085
499.87	27.516
500.22	26.981
500.56	26.226
500.91	27.780
501.26	27.818
501.60	26.204
501.95	27.052
502.29	27.380
502.64	27.547
502.98	26.963
503.33	26.695
503.67	27.649
504.02	26.751
504.36	28.150
504.71	27.653
505.06	27.422
505.40	26.691
505.75	27.231
506.09	28.177
506.44	27.437
506.78	27.294
507.13	27.524
507.47	27.286
507.82	26.705
508.16	27.199
508.51	26.910
508.85	27.444
509.19	26.859
509.54	28.242
509.88	27.246
510.23	27.392
510.57	27.791
510.92	27.141
511.26	26.599
511.61	26.219
511.95	26.257
512.30	27.179
512.64	26.987
512.98	27.214
513.33	27.571
513.67	27.333
514.02	26.827
514.36	27.212
514.70	27.344
515.05	26.642
515.39	26.194
515.74	27.306
516.08	27.153
516.42	28.205
516.77	26.814
517.11	27.076
517.46	27.094
517.80	27.258
518.14	28.292
518.49	27.278
518.83	26.876
519.17	25.956
519.52	27.463
519.86	26.610
520.20	27.476
520.55	26.999
520.89	25.788
521.23	26.521
521.58	26.893
521.92	26.402
522.26	26.518
522.61	26.736
522.95	25.721
523.29	26.954
523.64	26.850
523.98	26.982
524.32	27.736
524.66	26.750
525.01	25.538
525.35	26.766
525.69	26.566
526.04	26.464
526.38	26.207
526.72	26.298
527.06	26.217
527.41	26.414
527.75	27.019
528.09	26.446
528.43	25.933
528.78	25.780
529.12	26.376
529.46	25.913
529.80	25.744
530.15	25.623
530.49	26.394
530.83	26.210
531.17	25.866
531.51	26.173
531.86	26.743
532.20	26.402
532.54	25.853
532.88	26.121
533.22	25.516
533.57	26.024
533.91	25.758
534.25	26.456
534.59	26.379
534.93	25.976
535.27	25.915
535.62	27.231
535.96	26.380
536.30	26.381
536.64	26.306
536.98	25.830
537.32	26.111
537.66	26.326
538.01	25.680
538.35	25.944
538.69	25.421
539.03	25.996
539.37	25.383
539.71	25.526
540.05	25.600
540.39	25.122
540.73	24.894
541.07	25.690
541.42	24.749
541.76	24.555
542.10	25.754
542.44	25.030
542.78	25.487
543.12	25.209
543.46	24.542
543.80	25.600
544.14	24.656
544.48	25.768
544.82	25.075
545.16	25.522
545.50	25.524
545.84	25.291
546.18	26.173
546.52	25.414
546.86	25.786
547.20	24.682
547.54	25.718
547.88	24.653
548.22	24.152
548.56	25.278
548.90	25.015
549.24	25.593
549.58	24.038
549.92	24.490
550.26	24.401
550.60	24.761
550.94	25.097
551.28	24.686
551.62	25.067
551.96	25.243
552.30	25.494
552.64	24.891
552.98	24.392
553.32	24.759
553.66	25.273
554.00	25.473
554.34	25.225
554.68	24.597
555.02	25.821
555.36	24.852
555.69	24.343
556.03	24.968
556.37	25.156
556.71	24.350
557.05	24.665
557.39	23.889
557.73	24.901
558.07	25.166
558.41	24.651
558.75	24.544
559.08	24.148
559.42	24.623
559.76	23.270
560.10	24.581
560.44	24.208
560.78	24.312
561.12	24.692
561.45	24.574
561.79	24.359
562.13	25.755
562.47	24.414
562.81	24.304
563.15	23.422
563.48	23.617
563.82	24.002
564.16	23.561
564.50	24.017
564.84	24.130
565.17	23.765
565.51	24.051
565.85	23.872
566.19	24.194
566.52	24.108
566.86	24.731
567.20	23.763
567.54	24.960
567.88	25.178
568.21	23.864
568.55	24.508
568.89	24.467
569.23	24.461
569.56	23.759
569.90	24.269
570.24	24.722
570.57	24.118
570.91	24.036
571.25	24.472
571.59	24.242
571.92	23.721
572.26	23.584
572.60	24.133
572.93	24.019
573.27	23.630
573.61	23.663
573.95	23.525
574.28	23.312
574.62	23.147
574.96	23.599
575.29	23.309
575.63	23.262
575.97	23.665
576.30	23.119
576.64	22.882
576.98	23.166
577.31	23.346
577.65	23.359
577.98	23.438
578.32	23.148
578.66	23.615
578.99	23.694
579.33	23.566
579.67	23.413
580.00	22.612
580.34	22.906
580.67	22.374
581.01	23.064
581.35	22.657
581.68	22.857
582.02	23.404
582.35	23.742
582.69	23.709
583.02	23.584
583.36	23.126
583.70	22.631
584.03	22.678
584.37	22.735
584.70	22.029
585.04	22.646
585.37	22.536
585.71	23.085
586.04	23.052
586.38	23.213
586.72	22.412
587.05	22.742
587.39	22.837
587.72	22.632
588.06	22.751
588.39	22.679
588.73	22.593
589.06	22.771
589.40	22.772
589.73	21.979
590.07	22.977
590.40	22.650
590.73	22.234
591.07	22.934
591.40	21.540
591.74	21.979
592.07	22.087
592.41	21.964
592.74	22.435
593.08	22.994
593.41	23.505
593.75	23.017
594.08	23.266
594.41	23.301
594.75	22.750
595.08	22.443
595.42	22.630
595.75	22.280
596.09	22.467
596.42	22.501
596.75	22.308
597.09	22.828
597.42	21.931
597.75	22.227
598.09	21.746
598.42	22.316
598.76	22.163
599.09	21.609
599.42	21.857
599.76	21.756
600.09	22.723
600.42	21.889
600.76	22.094
601.09	22.171
601.42	21.696
601.76	21.966
602.09	22.159
602.42	21.738
602.76	21.587
603.09	22.430
603.42	22.290
603.76	22.199
604.09	22.072
604.42	21.725
604.76	21.385
605.09	22.138
605.42	21.372
605.75	21.385
606.09	22.098
606.42	21.343
606.75	21.027
607.09	21.198
607.42	21.773
607.75	21.571
608.08	21.034
608.42	21.725
608.75	22.388
609.08	21.307
609.41	21.350
609.75	21.429
610.08	22.208
610.41	21.538
610.74	21.681
611.07	22.025
611.41	21.570
611.74	21.801
612.07	22.207
612.40	21.911
612.73	22.103
613.07	21.956
613.40	21.655
613.73	20.992
614.06	21.394
614.39	21.477
614.72	21.640
615.06	21.607
615.39	20.976
615.72	20.853
616.05	20.981
616.38	21.090
616.71	21.264
617.05	20.980
617.38	20.867
617.71	21.220
618.04	21.695
618.37	21.475
618.70	20.419
619.03	20.072
619.36	21.455
619.69	21.973
620.03	21.030
620.36	20.920
620.69	20.851
621.02	22.310
621.35	21.843
621.68	21.620
622.01	20.854
622.34	19.874
622.67	21.306
623.00	20.445
623.33	22.230
623.66	21.271
623.99	20.211
624.32	22.742
624.65	19.820
624.99	21.196
625.32	22.012
625.65	21.376
625.98	20.610
626.31	20.836
626.64	20.440
626.97	19.805
627.30	20.121
627.63	19.805
627.96	22.447
628.29	19.611
628.62	19.815
628.95	21.385
629.28	20.986
