SpectraSuite Data File
++++++++++++++++++++++++++++++++++++
Date: Thu May 14 15:04:06 PDT 2015
User: schluterlab
Dark Spectrum Present: Yes
Reference Spectrum Present: Yes
Number of Sampled Component Spectra: 1
Spectrometers: USB2E3373
Integration Time (usec): 3000 (USB2E3373)
Spectra Averaged: 3 (USB2E3373)
Boxcar Smoothing: 0 (USB2E3373)
Correct for Electrical Dark: No (USB2E3373)
Strobe/Lamp Enabled: No (USB2E3373)
Correct for Detector Non-linearity: No (USB2E3373)
Correct for Stray Light: No (USB2E3373)
Number of Pixels in Processed Spectrum: 2048
>>>>>Begin Processed Spectral Data<<<<<
178.53	0.000
178.91	400.000
179.29	-3000.000
179.67	-2700.000
180.04	335.714
180.42	290.000
180.80	560.000
181.18	-2600.000
181.56	-1400.000
181.94	550.000
182.31	-325.000
182.69	600.000
183.07	-1050.000
183.45	550.000
183.83	-450.000
184.20	-1066.667
184.58	2400.000
184.96	-525.000
185.34	-188.889
185.72	-440.000
186.09	333.333
186.47	1500.000
186.85	500.000
187.23	-344.444
187.61	-3100.000
187.98	440.000
188.36	600.000
188.74	-850.000
189.12	-600.000
189.49	-87.500
189.87	-200.000
190.25	-144.444
190.63	-420.000
191.00	-211.111
191.38	0.000
191.76	-725.000
192.14	-400.000
192.51	1050.000
192.89	-200.000
193.27	0.000
193.65	-242.857
194.02	-2700.000
194.40	-342.857
194.78	442.857
195.15	0.000
195.53	-100.000
195.91	0.000
196.29	-475.000
196.66	-61.538
197.04	-3200.000
197.42	-357.143
197.79	-1100.000
198.17	-325.000
198.55	-371.429
198.92	-244.444
199.30	-375.000
199.68	-163.636
200.05	-142.857
200.43	-1100.000
200.81	471.429
201.18	0.000
201.56	388.889
201.94	0.000
202.31	1300.000
202.69	-355.556
203.07	1400.000
203.44	-222.222
203.82	-575.000
204.19	-175.000
204.57	-366.667
204.95	-325.000
205.32	-2300.000
205.70	625.000
206.08	-366.667
206.45	-266.667
206.83	780.000
207.20	-366.667
207.58	-620.000
207.96	-416.667
208.33	-233.333
208.71	200.000
209.08	-266.667
209.46	0.000
209.84	516.667
210.21	1550.000
210.59	1650.000
210.96	933.333
211.34	-400.000
211.71	-262.500
212.09	-2300.000
212.46	0.000
212.84	1700.000
213.22	-360.000
213.59	-450.000
213.97	-150.000
214.34	-900.000
214.72	366.667
215.09	-600.000
215.47	0.000
215.84	257.143
216.22	1550.000
216.59	-480.000
216.97	-480.000
217.34	-775.000
217.72	-175.000
218.09	-675.000
218.47	-775.000
218.84	0.000
219.22	680.000
219.59	-76.471
219.97	-60.000
220.34	1350.000
220.72	-222.222
221.09	-107.692
221.47	-566.667
221.84	-160.000
222.22	-300.000
222.59	0.000
222.97	-162.500
223.34	-580.000
223.72	-3000.000
224.09	-700.000
224.46	-575.000
224.84	-120.000
225.21	-285.714
225.59	-700.000
225.96	-700.000
226.34	-53.846
226.71	450.000
227.08	-1100.000
227.46	-126.667
227.83	-675.000
228.21	-78.947
228.58	350.000
228.95	1150.000
229.33	-66.667
229.70	-190.000
230.08	-47.368
230.45	290.000
230.82	-700.000
231.20	-114.286
231.57	-166.667
231.95	-209.091
232.32	-163.636
232.69	-100.000
233.07	-450.000
233.44	-141.176
233.81	-250.000
234.19	-83.333
234.56	-54.545
234.93	-20.690
235.31	-73.684
235.68	-100.000
236.05	-145.000
236.43	-57.692
236.80	-72.000
237.17	-51.852
237.55	-36.364
237.92	-330.000
238.29	-51.613
238.67	-34.091
239.04	-47.222
239.41	-38.095
239.79	-17.391
240.16	-22.222
240.53	-52.174
240.91	-43.137
241.28	-4.918
241.65	-1.493
242.02	-1.351
242.40	-15.385
242.77	-16.000
243.14	-19.512
243.51	-27.632
243.89	-11.538
244.26	0.000
244.63	15.686
245.00	-7.477
245.38	0.000
245.75	-2.655
246.12	1.587
246.49	-2.326
246.87	10.000
247.24	7.285
247.61	4.605
247.98	8.054
248.36	7.407
248.73	1.227
249.10	2.732
249.47	9.453
249.84	15.707
250.22	5.181
250.59	8.333
250.96	10.000
251.33	3.571
251.70	8.547
252.08	11.667
252.45	9.016
252.82	8.264
253.19	5.078
253.56	12.167
253.94	8.846
254.31	16.667
254.68	12.937
255.05	11.726
255.42	9.184
255.79	11.650
256.16	10.265
256.54	9.934
256.91	9.836
257.28	17.049
257.65	11.465
258.02	11.504
258.39	14.530
258.76	15.596
259.14	16.954
259.51	12.968
259.88	10.765
260.25	12.222
260.62	11.781
260.99	18.306
261.36	13.673
261.73	14.589
262.10	11.813
262.47	16.086
262.85	17.424
263.22	9.091
263.59	11.579
263.96	16.368
264.33	12.532
264.70	15.309
265.07	17.184
265.44	18.141
265.81	13.426
266.18	12.925
266.55	13.839
266.92	12.984
267.29	16.411
267.66	14.634
268.03	14.847
268.40	14.196
268.77	13.895
269.14	13.216
269.51	15.132
269.88	16.189
270.25	16.298
270.62	15.823
270.99	15.556
271.36	16.040
271.73	14.735
272.10	15.230
272.47	13.828
272.84	13.655
273.21	15.230
273.58	15.121
273.95	14.808
274.32	14.449
274.69	14.313
275.06	15.934
275.43	13.124
275.80	16.578
276.17	13.333
276.54	14.179
276.91	15.206
277.28	15.190
277.65	14.722
278.02	14.706
278.39	14.130
278.76	15.993
279.13	15.426
279.50	16.151
279.87	15.206
280.23	12.148
280.60	15.085
280.97	15.625
281.34	13.073
281.71	17.428
282.08	14.784
282.45	13.257
282.82	12.873
283.19	13.409
283.56	14.426
283.92	17.117
284.29	16.904
284.66	13.629
285.03	12.500
285.40	14.374
285.77	14.861
286.14	14.656
286.51	14.460
286.87	13.744
287.24	14.608
287.61	13.602
287.98	13.746
288.35	13.905
288.72	15.976
289.08	13.763
289.45	13.018
289.82	13.253
290.19	13.793
290.56	14.225
290.93	15.121
291.29	13.774
291.66	13.499
292.03	12.347
292.40	13.197
292.77	11.860
293.13	12.585
293.50	13.141
293.87	12.886
294.24	12.533
294.60	13.148
294.97	10.738
295.34	14.213
295.71	11.097
296.08	11.628
296.44	13.603
296.81	13.764
297.18	13.325
297.55	12.500
297.91	12.574
298.28	11.019
298.65	11.891
299.02	11.806
299.38	11.556
299.75	12.033
300.12	12.153
300.48	12.097
300.85	10.799
301.22	11.409
301.59	12.443
301.95	12.881
302.32	11.556
302.69	11.501
303.05	12.731
303.42	13.304
303.79	12.708
304.15	11.777
304.52	11.628
304.89	12.775
305.25	11.284
305.62	11.808
305.99	12.784
306.35	12.198
306.72	13.030
307.09	11.574
307.45	13.561
307.82	11.100
308.19	12.008
308.55	13.308
308.92	13.048
309.29	12.739
309.65	12.378
310.02	12.970
310.38	13.386
310.75	13.981
311.12	13.519
311.48	13.196
311.85	14.435
312.22	14.421
312.58	14.272
312.95	13.671
313.31	13.369
313.68	15.568
314.05	15.447
314.41	16.120
314.78	16.621
315.14	16.606
315.51	16.528
315.87	16.292
316.24	17.626
316.61	17.851
316.97	16.290
317.34	17.637
317.70	18.952
318.07	18.166
318.43	19.303
318.80	20.318
319.16	19.056
319.53	18.937
319.89	19.895
320.26	22.242
320.62	21.543
320.99	20.960
321.35	21.904
321.72	22.140
322.08	21.912
322.45	23.035
322.81	24.368
323.18	23.717
323.54	23.879
323.91	24.911
324.27	26.506
324.64	26.868
325.00	26.036
325.37	27.355
325.73	27.934
326.10	29.440
326.46	30.049
326.83	30.905
327.19	31.654
327.56	33.043
327.92	31.707
328.29	31.210
328.65	33.501
329.01	33.756
329.38	33.783
329.74	35.788
330.11	34.332
330.47	35.046
330.84	36.865
331.20	36.583
331.56	35.702
331.93	35.816
332.29	37.458
332.66	37.375
333.02	36.600
333.38	37.668
333.75	37.205
334.11	38.365
334.48	37.376
334.84	39.082
335.20	38.539
335.57	38.196
335.93	38.843
336.29	37.438
336.66	37.847
337.02	37.542
337.38	39.541
337.75	38.760
338.11	38.940
338.47	38.792
338.84	38.579
339.20	37.658
339.56	38.880
339.93	38.916
340.29	38.084
340.65	38.037
341.02	39.346
341.38	38.884
341.74	39.548
342.11	38.697
342.47	38.681
342.83	39.533
343.20	39.002
343.56	38.974
343.92	39.952
344.28	39.375
344.65	38.372
345.01	37.910
345.37	37.403
345.73	37.568
346.10	40.016
346.46	38.291
346.82	39.551
347.19	39.954
347.55	38.088
347.91	39.302
348.27	39.757
348.63	39.223
349.00	39.746
349.36	38.959
349.72	38.988
350.08	39.079
350.45	39.240
350.81	38.839
351.17	38.797
351.53	39.879
351.89	38.193
352.26	39.179
352.62	39.925
352.98	39.313
353.34	38.984
353.70	40.370
354.07	39.121
354.43	40.395
354.79	39.791
355.15	39.146
355.51	39.547
355.87	39.865
356.24	39.772
356.60	39.172
356.96	39.214
357.32	38.290
357.68	40.849
358.04	39.671
358.40	40.075
358.77	39.912
359.13	40.325
359.49	39.851
359.85	40.174
360.21	39.598
360.57	39.483
360.93	39.210
361.29	40.000
361.66	41.202
362.02	41.197
362.38	41.110
362.74	40.782
363.10	41.265
363.46	41.274
363.82	40.625
364.18	41.027
364.54	40.941
364.90	41.672
365.26	40.345
365.62	42.267
365.98	41.389
366.35	41.745
366.71	42.449
367.07	41.272
367.43	41.957
367.79	41.539
368.15	42.609
368.51	41.678
368.87	41.541
369.23	41.667
369.59	42.486
369.95	42.055
370.31	42.674
370.67	42.022
371.03	42.659
371.39	41.370
371.75	42.916
372.11	42.818
372.47	42.654
372.83	42.736
373.19	41.761
373.55	42.209
373.91	42.468
374.27	42.950
374.63	43.166
374.99	42.706
375.35	44.026
375.71	42.774
376.07	43.512
376.42	42.695
376.78	42.946
377.14	43.793
377.50	44.213
377.86	44.397
378.22	43.832
378.58	43.401
378.94	43.251
379.30	43.292
379.66	44.562
380.02	45.009
380.38	45.046
380.74	43.944
381.09	44.774
381.45	45.284
381.81	45.375
382.17	44.477
382.53	44.152
382.89	43.623
383.25	44.725
383.61	44.387
383.97	45.112
384.32	44.617
384.68	44.258
385.04	45.228
385.40	45.905
385.76	45.311
386.12	44.464
386.48	43.941
386.83	45.590
387.19	45.481
387.55	45.129
387.91	45.833
388.27	45.208
388.62	45.017
388.98	44.219
389.34	45.669
389.70	46.020
390.06	45.708
390.42	45.904
390.77	46.418
391.13	45.951
391.49	46.135
391.85	44.727
392.20	45.018
392.56	45.245
392.92	44.929
393.28	45.108
393.64	45.251
393.99	44.916
394.35	46.203
394.71	46.287
395.07	44.431
395.42	45.460
395.78	46.862
396.14	46.108
396.50	45.784
396.85	45.379
397.21	44.615
397.57	44.641
397.92	45.647
398.28	44.813
398.64	45.309
399.00	44.241
399.35	45.654
399.71	45.380
400.07	45.817
400.42	45.809
400.78	45.370
401.14	44.508
401.49	45.480
401.85	46.686
402.21	46.350
402.57	46.479
402.92	45.272
403.28	44.672
403.63	44.869
403.99	45.487
404.35	44.912
404.70	43.966
405.06	43.478
405.42	43.970
405.77	46.510
406.13	44.679
406.49	45.270
406.84	44.266
407.20	45.556
407.55	45.306
407.91	43.935
408.27	45.583
408.62	45.608
408.98	44.573
409.34	44.106
409.69	44.994
410.05	44.783
410.40	43.619
410.76	44.363
411.11	45.880
411.47	45.577
411.83	45.209
412.18	45.422
412.54	44.695
412.89	44.703
413.25	44.470
413.60	45.663
413.96	44.697
414.31	43.683
414.67	45.259
415.03	45.046
415.38	45.397
415.74	45.754
416.09	45.219
416.45	44.771
416.80	44.614
417.16	45.466
417.51	46.077
417.87	45.861
418.22	45.629
418.58	44.919
418.93	45.809
419.29	46.671
419.64	45.438
420.00	45.935
420.35	46.547
420.71	46.238
421.06	45.543
421.42	47.534
421.77	45.396
422.12	46.564
422.48	47.363
422.83	48.083
423.19	47.905
423.54	48.673
423.90	47.598
424.25	49.440
424.61	48.909
424.96	48.435
425.31	49.151
425.67	49.329
426.02	49.806
426.38	49.426
426.73	49.219
427.09	49.654
427.44	49.372
427.79	49.530
428.15	50.628
428.50	50.449
428.85	50.517
429.21	50.691
429.56	51.974
429.92	50.565
430.27	51.614
430.62	51.441
430.98	51.107
431.33	50.440
431.68	51.628
432.04	53.022
432.39	51.687
432.74	51.313
433.10	53.164
433.45	51.728
433.80	53.219
434.16	52.428
434.51	54.162
434.86	55.320
435.22	54.516
435.57	55.425
435.92	54.201
436.28	56.030
436.63	55.816
436.98	54.321
437.34	56.257
437.69	55.146
438.04	54.733
438.39	54.394
438.75	55.617
439.10	55.550
439.45	55.674
439.81	55.763
440.16	55.174
440.51	55.574
440.86	55.698
441.22	55.466
441.57	56.551
441.92	55.820
442.27	57.020
442.63	56.582
442.98	56.937
443.33	57.286
443.68	56.888
444.03	57.996
444.39	57.513
444.74	57.427
445.09	56.158
445.44	58.693
445.79	58.525
446.15	58.684
446.50	58.243
446.85	57.247
447.20	57.640
447.55	58.316
447.91	58.743
448.26	57.400
448.61	58.395
448.96	59.281
449.31	57.741
449.66	57.952
450.02	58.808
450.37	58.551
450.72	59.203
451.07	59.282
451.42	59.041
451.77	58.088
452.12	60.214
452.47	59.893
452.83	61.149
453.18	59.778
453.53	59.161
453.88	59.856
454.23	59.605
454.58	60.940
454.93	59.587
455.28	60.506
455.63	60.091
455.98	60.000
456.34	60.836
456.69	59.847
457.04	62.825
457.39	59.867
457.74	62.081
458.09	60.791
458.44	60.614
458.79	60.340
459.14	61.248
459.49	61.573
459.84	61.228
460.19	60.466
460.54	61.670
460.89	61.620
461.24	60.287
461.59	62.369
461.94	60.753
462.29	61.814
462.64	61.979
462.99	62.461
463.34	62.557
463.69	60.844
464.04	61.757
464.39	60.650
464.74	60.490
465.09	61.246
465.44	61.159
465.79	61.925
466.14	61.230
466.49	63.053
466.84	61.983
467.19	61.965
467.54	60.400
467.89	61.494
468.24	60.831
468.59	61.841
468.94	61.480
469.29	62.088
469.64	63.255
469.99	60.867
470.34	61.200
470.68	62.543
471.03	62.999
471.38	62.198
471.73	63.459
472.08	62.881
472.43	62.793
472.78	62.154
473.13	62.705
473.48	61.934
473.83	62.972
474.17	63.013
474.52	64.101
474.87	64.009
475.22	63.662
475.57	61.423
475.92	62.021
476.27	63.206
476.61	63.084
476.96	63.243
477.31	62.921
477.66	63.746
478.01	62.430
478.36	62.662
478.70	64.335
479.05	64.213
479.40	63.820
479.75	64.073
480.10	63.335
480.45	62.762
480.79	63.084
481.14	62.776
481.49	63.108
481.84	63.098
482.19	63.441
482.53	64.451
482.88	64.688
483.23	63.762
483.58	64.236
483.92	63.032
484.27	63.844
484.62	63.160
484.97	62.636
485.31	61.880
485.66	58.196
486.01	58.467
486.36	60.585
486.70	64.997
487.05	66.819
487.40	64.221
487.75	63.359
488.09	63.145
488.44	61.529
488.79	62.496
489.13	61.731
489.48	62.757
489.83	62.575
490.17	62.900
490.52	63.259
490.87	63.071
491.22	63.518
491.56	63.652
491.91	64.108
492.26	64.777
492.60	64.101
492.95	63.712
493.30	65.710
493.64	63.776
493.99	63.158
494.34	63.371
494.68	64.625
495.03	64.053
495.37	65.646
495.72	65.125
496.07	64.373
496.41	64.350
496.76	64.095
497.11	65.563
497.45	64.221
497.80	63.794
498.14	64.354
498.49	64.522
498.84	64.488
499.18	64.327
499.53	64.933
499.87	64.044
500.22	64.292
500.56	64.957
500.91	66.316
501.26	65.273
501.60	63.677
501.95	64.307
502.29	65.029
502.64	65.632
502.98	63.244
503.33	63.931
503.67	63.454
504.02	64.405
504.36	65.282
504.71	65.733
505.06	64.620
505.40	64.580
505.75	64.435
506.09	64.503
506.44	66.110
506.78	64.908
507.13	66.160
507.47	66.082
507.82	64.915
508.16	64.532
508.51	63.947
508.85	64.525
509.19	65.893
509.54	65.370
509.88	65.080
510.23	66.829
510.57	65.781
510.92	65.119
511.26	64.839
511.61	64.075
511.95	64.031
512.30	66.174
512.64	65.367
512.98	64.982
513.33	66.381
513.67	64.814
514.02	65.304
514.36	65.831
514.70	66.771
515.05	65.798
515.39	66.667
515.74	67.338
516.08	66.138
516.42	65.986
516.77	66.456
517.11	65.652
517.46	66.490
517.80	66.007
518.14	67.301
518.49	66.161
518.83	65.886
519.17	65.697
519.52	66.038
519.86	65.312
520.20	67.252
520.55	65.882
520.89	66.836
521.23	65.829
521.58	67.062
521.92	65.269
522.26	65.349
522.61	66.956
522.95	66.090
523.29	66.494
523.64	65.639
523.98	65.602
524.32	66.762
524.66	67.217
525.01	65.685
525.35	66.054
525.69	65.487
526.04	64.983
526.38	66.034
526.72	65.456
527.06	65.924
527.41	65.539
527.75	65.083
528.09	65.998
528.43	65.364
528.78	65.145
529.12	65.023
529.46	64.868
529.80	65.389
530.15	65.043
530.49	66.370
530.83	65.171
531.17	66.428
531.51	65.584
531.86	65.385
532.20	65.305
532.54	64.632
532.88	65.212
533.22	63.583
533.57	62.781
533.91	63.580
534.25	62.352
534.59	64.598
534.93	64.969
535.27	65.859
535.62	64.866
535.96	64.904
536.30	64.924
536.64	64.925
536.98	64.760
537.32	63.951
537.66	64.941
538.01	61.873
538.35	64.129
538.69	63.702
539.03	64.807
539.37	63.840
539.71	63.483
540.05	63.669
540.39	63.753
540.73	63.692
541.07	64.194
541.42	61.370
541.76	63.820
542.10	63.752
542.44	62.485
542.78	63.564
543.12	62.455
543.46	62.027
543.80	63.189
544.14	63.914
544.48	64.066
544.82	64.153
545.16	63.626
545.50	64.350
545.84	61.972
546.18	64.630
546.52	64.140
546.86	64.528
547.20	64.440
547.54	62.172
547.88	62.146
548.22	62.632
548.56	63.487
548.90	63.642
549.24	63.526
549.58	64.164
549.92	65.115
550.26	63.819
550.60	64.263
550.94	64.877
551.28	63.960
551.62	64.757
551.96	62.589
552.30	63.544
552.64	64.592
552.98	63.007
553.32	65.016
553.66	64.244
554.00	64.250
554.34	64.801
554.68	61.653
555.02	63.798
555.36	63.905
555.69	61.947
556.03	64.061
556.37	64.894
556.71	63.792
557.05	63.642
557.39	64.499
557.73	64.465
558.07	63.245
558.41	64.452
558.75	63.354
559.08	65.623
559.42	64.060
559.76	63.365
560.10	62.626
560.44	63.984
560.78	64.875
561.12	63.362
561.45	64.173
561.79	63.980
562.13	65.434
562.47	62.700
562.81	64.177
563.15	64.015
563.48	63.580
563.82	62.817
564.16	63.477
564.50	62.455
564.84	63.127
565.17	63.000
565.51	61.910
565.85	62.827
566.19	62.500
566.52	64.190
566.86	62.252
567.20	60.087
567.54	62.666
567.88	62.385
568.21	62.006
568.55	61.583
568.89	60.372
569.23	61.132
569.56	60.258
569.90	59.836
570.24	60.337
570.57	59.846
570.91	59.063
571.25	58.606
571.59	58.030
571.92	58.342
572.26	58.100
572.60	57.603
572.93	57.556
573.27	56.982
573.61	57.120
573.95	56.737
574.28	56.949
574.62	56.435
574.96	55.955
575.29	55.783
575.63	56.110
575.97	57.102
576.30	56.477
576.64	55.858
576.98	56.902
577.31	56.110
577.65	56.810
577.98	56.156
578.32	55.966
578.66	55.824
578.99	56.072
579.33	56.981
579.67	56.573
580.00	56.350
580.34	55.585
580.67	55.671
581.01	56.101
581.35	55.913
581.68	55.883
582.02	55.831
582.35	57.284
582.69	57.492
583.02	57.279
583.36	56.665
583.70	56.942
584.03	55.748
584.37	56.282
584.70	55.306
585.04	55.801
585.37	56.363
585.71	55.944
586.04	56.671
586.38	57.103
586.72	56.656
587.05	57.125
587.39	57.317
587.72	58.038
588.06	57.084
588.39	57.530
588.73	57.169
589.06	58.409
589.40	57.621
589.73	58.290
590.07	58.322
590.40	58.350
590.73	57.618
591.07	58.898
591.40	56.921
591.74	58.983
592.07	58.587
592.41	58.833
592.74	57.508
593.08	58.408
593.41	58.559
593.75	58.879
594.08	57.619
594.41	59.391
594.75	57.688
595.08	58.008
595.42	58.506
595.75	58.153
596.09	58.489
596.42	58.760
596.75	58.163
597.09	58.586
597.42	57.727
597.75	58.016
598.09	58.532
598.42	58.705
598.76	57.356
599.09	58.063
599.42	57.560
599.76	56.983
600.09	57.391
600.42	58.292
600.76	57.926
601.09	57.484
601.42	56.917
601.76	57.379
602.09	56.648
602.42	56.634
602.76	57.712
603.09	58.260
603.42	57.695
603.76	57.435
604.09	57.878
604.42	58.055
604.76	57.686
605.09	57.080
605.42	58.293
605.75	57.500
606.09	57.260
606.42	55.272
606.75	55.997
607.09	56.490
607.42	58.189
607.75	57.913
608.08	57.419
608.42	56.429
608.75	57.297
609.08	56.961
609.41	57.874
609.75	57.946
610.08	58.575
610.41	57.137
610.74	56.975
611.07	57.593
611.41	58.072
611.74	58.014
612.07	58.766
612.40	57.937
612.73	59.071
613.07	57.848
613.40	58.277
613.73	57.679
614.06	58.194
614.39	56.997
614.72	56.429
615.06	56.833
615.39	56.452
615.72	57.251
616.05	57.115
616.38	58.476
616.71	58.203
617.05	57.827
617.38	57.785
617.71	57.613
618.04	57.852
618.37	59.290
618.70	59.106
619.03	58.423
619.36	58.385
619.69	58.040
620.03	57.564
620.36	57.607
620.69	57.372
621.02	58.136
621.35	61.611
621.68	59.725
622.01	59.858
622.34	58.368
622.67	58.419
623.00	57.422
623.33	59.456
623.66	59.339
623.99	59.250
624.32	59.064
624.65	58.430
624.99	60.143
625.32	60.222
625.65	58.732
625.98	58.102
626.31	60.028
626.64	59.487
626.97	59.490
627.30	59.150
627.63	58.590
627.96	59.910
628.29	60.623
628.62	59.278
628.95	60.473
629.28	59.643
629.61	59.933
629.94	58.828
630.26	60.000
630.59	60.708
630.92	59.394
