SpectraSuite Data File
++++++++++++++++++++++++++++++++++++
Date: Thu May 14 14:53:15 PDT 2015
User: schluterlab
Dark Spectrum Present: Yes
Reference Spectrum Present: Yes
Number of Sampled Component Spectra: 1
Spectrometers: USB2E3373
Integration Time (usec): 3000 (USB2E3373)
Spectra Averaged: 3 (USB2E3373)
Boxcar Smoothing: 0 (USB2E3373)
Correct for Electrical Dark: No (USB2E3373)
Strobe/Lamp Enabled: No (USB2E3373)
Correct for Detector Non-linearity: No (USB2E3373)
Correct for Stray Light: No (USB2E3373)
Number of Pixels in Processed Spectrum: 2048
>>>>>Begin Processed Spectral Data<<<<<
178.53	0.000
178.91	185.714
179.29	-2300.000
179.67	-1800.000
180.04	214.286
180.42	170.000
180.80	300.000
181.18	-1500.000
181.56	-700.000
181.94	450.000
182.31	-250.000
182.69	333.333
183.07	-450.000
183.45	300.000
183.83	-100.000
184.20	-300.000
184.58	800.000
184.96	-500.000
185.34	-33.333
185.72	-160.000
186.09	200.000
186.47	650.000
186.85	380.000
187.23	-155.556
187.61	-1800.000
187.98	440.000
188.36	400.000
188.74	-250.000
189.12	-233.333
189.49	-50.000
189.87	-225.000
190.25	-111.111
190.63	-300.000
191.00	-177.778
191.38	0.000
191.76	-350.000
192.14	-200.000
192.51	700.000
192.89	-50.000
193.27	0.000
193.65	-85.714
194.02	-2100.000
194.40	-85.714
194.78	171.429
195.15	0.000
195.53	-63.636
195.91	0.000
196.29	-125.000
196.66	-92.308
197.04	-2200.000
197.42	-142.857
197.79	-800.000
198.17	-87.500
198.55	-185.714
198.92	33.333
199.30	-200.000
199.68	-72.727
200.05	-35.714
200.43	-900.000
200.81	242.857
201.18	0.000
201.56	255.556
201.94	0.000
202.31	600.000
202.69	-200.000
203.07	1200.000
203.44	-155.556
203.82	-325.000
204.19	-50.000
204.57	-266.667
204.95	-200.000
205.32	-1100.000
205.70	25.000
206.08	-233.333
206.45	-150.000
206.83	540.000
207.20	-266.667
207.58	-260.000
207.96	-233.333
208.33	-150.000
208.71	166.667
209.08	-83.333
209.46	0.000
209.84	366.667
210.21	800.000
210.59	500.000
210.96	700.000
211.34	-250.000
211.71	0.000
212.09	-1800.000
212.46	0.000
212.84	1200.000
213.22	-280.000
213.59	25.000
213.97	20.000
214.34	-166.667
214.72	183.333
215.09	-425.000
215.47	0.000
215.84	14.286
216.22	900.000
216.59	-260.000
216.97	-200.000
217.34	-125.000
217.72	-37.500
218.09	-400.000
218.47	-275.000
218.84	0.000
219.22	380.000
219.59	-17.647
219.97	-70.000
220.34	550.000
220.72	-88.889
221.09	-7.692
221.47	-166.667
221.84	-120.000
222.22	-214.286
222.59	0.000
222.97	-112.500
223.34	-400.000
223.72	-2300.000
224.09	-375.000
224.46	-425.000
224.84	-240.000
225.21	-157.143
225.59	-375.000
225.96	-375.000
226.34	-61.538
226.71	366.667
227.08	-350.000
227.46	-53.333
227.83	-125.000
228.21	-63.158
228.58	200.000
228.95	950.000
229.33	-16.667
229.70	-90.000
230.08	15.789
230.45	160.000
230.82	-333.333
231.20	-21.429
231.57	-33.333
231.95	-127.273
232.32	-109.091
232.69	5.000
233.07	-225.000
233.44	-58.824
233.81	-200.000
234.19	0.000
234.56	9.091
234.93	-13.793
235.31	-15.789
235.68	-50.000
236.05	-40.000
236.43	3.846
236.80	24.000
237.17	-11.111
237.55	-15.152
237.92	-170.000
238.29	-41.935
238.67	-15.909
239.04	-16.667
239.41	-19.048
239.79	-4.348
240.16	-7.407
240.53	-2.174
240.91	-13.725
241.28	-4.918
241.65	16.418
242.02	2.703
242.40	6.154
242.77	1.333
243.14	-6.098
243.51	-13.158
243.89	-12.821
244.26	15.842
244.63	7.843
245.00	0.935
245.38	12.281
245.75	1.770
246.12	22.222
246.49	8.527
246.87	17.143
247.24	9.934
247.61	11.184
247.98	6.711
248.36	12.346
248.73	3.681
249.10	10.929
249.47	14.428
249.84	12.042
250.22	11.917
250.59	12.222
250.96	17.273
251.33	8.673
251.70	13.248
252.08	12.917
252.45	15.164
252.82	14.463
253.19	9.375
253.56	16.730
253.94	13.077
254.31	17.803
254.68	16.434
255.05	17.264
255.42	14.626
255.79	12.945
256.16	13.907
256.54	11.921
256.91	14.754
257.28	13.770
257.65	11.783
258.02	13.864
258.39	15.385
258.76	20.183
259.14	14.943
259.51	14.986
259.88	17.847
260.25	18.056
260.62	14.795
260.99	16.120
261.36	17.962
261.73	16.446
262.10	13.736
262.47	12.601
262.85	18.434
263.22	13.506
263.59	12.895
263.96	16.368
264.33	14.322
264.70	16.049
265.07	19.332
265.44	17.687
265.81	17.130
266.18	18.367
266.55	17.187
266.92	17.312
267.29	17.287
267.66	14.856
268.03	18.122
268.40	17.537
268.77	15.490
269.14	13.436
269.51	16.228
269.88	17.213
270.25	16.700
270.62	18.143
270.99	16.768
271.36	18.020
271.73	16.503
272.10	17.635
272.47	14.629
272.84	14.859
273.21	15.631
273.58	15.121
273.95	15.769
274.32	14.829
274.69	16.248
275.06	17.766
275.43	14.233
275.80	16.931
276.17	14.074
276.54	16.791
276.91	15.385
277.28	16.637
277.65	16.876
278.02	16.176
278.39	15.036
278.76	16.344
279.13	14.539
279.50	16.838
279.87	15.027
280.23	13.908
280.60	14.915
280.97	16.447
281.34	15.959
281.71	17.259
282.08	15.947
282.45	15.876
282.82	16.954
283.19	13.893
283.56	17.049
283.92	18.619
284.29	14.376
284.66	16.256
285.03	15.385
285.40	14.683
285.77	15.325
286.14	16.947
286.51	16.438
286.87	15.482
287.24	17.169
287.61	14.649
287.98	14.653
288.35	14.793
288.72	15.237
289.08	16.545
289.45	14.349
289.82	14.910
290.19	15.230
290.56	13.944
290.93	16.405
291.29	14.187
291.66	14.876
292.03	13.840
292.40	15.374
292.77	12.803
293.13	12.991
293.50	12.615
293.87	12.886
294.24	12.800
294.60	14.033
294.97	11.275
295.34	14.981
295.71	11.854
296.08	12.791
296.44	12.623
296.81	13.398
297.18	13.823
297.55	12.028
297.91	13.049
298.28	11.611
298.65	12.366
299.02	10.980
299.38	13.959
299.75	13.318
300.12	11.574
300.48	11.982
300.85	11.699
301.22	12.192
301.59	12.215
301.95	12.316
302.32	13.778
302.69	12.267
303.05	12.622
303.42	10.976
303.79	12.292
304.15	12.829
304.52	11.839
304.89	12.775
305.25	11.284
305.62	11.912
305.99	11.443
306.35	12.298
306.72	12.513
307.09	10.863
307.45	12.526
307.82	11.705
308.19	11.907
308.55	11.186
308.92	11.392
309.29	12.739
309.65	11.988
310.02	10.396
310.38	11.713
310.75	12.621
311.12	12.176
311.48	10.753
311.85	12.251
312.22	11.385
312.58	12.207
312.95	11.281
313.31	11.743
313.68	12.454
314.05	12.918
314.41	12.659
314.78	12.171
315.14	12.795
315.51	12.281
315.87	11.971
316.24	13.881
316.61	13.233
316.97	10.588
317.34	12.081
317.70	12.664
318.07	12.346
318.43	11.905
318.80	13.043
319.16	11.159
319.53	10.626
319.89	11.218
320.26	12.456
320.62	11.082
320.99	11.819
321.35	13.124
321.72	13.581
322.08	11.271
322.45	12.376
322.81	12.455
323.18	11.858
323.54	12.586
323.91	12.367
324.27	12.134
324.64	13.602
325.00	12.355
325.37	13.268
325.73	12.645
326.10	13.382
326.46	14.007
326.83	12.250
327.19	14.094
327.56	14.387
327.92	12.589
328.29	13.710
328.65	14.154
329.01	14.552
329.38	13.816
329.74	14.127
330.11	13.784
330.47	12.890
330.84	14.643
331.20	14.417
331.56	14.298
331.93	15.063
332.29	14.661
332.66	14.037
333.02	13.903
333.38	14.346
333.75	14.562
334.11	14.095
334.48	14.769
334.84	15.463
335.20	13.854
335.57	13.744
335.93	15.455
336.29	14.393
336.66	13.373
337.02	15.134
337.38	14.541
337.75	13.884
338.11	15.139
338.47	14.557
338.84	14.805
339.20	13.564
339.56	13.921
339.93	14.286
340.29	15.378
340.65	14.842
341.02	14.844
341.38	15.117
341.74	13.963
342.11	14.240
342.47	13.264
342.83	14.412
343.20	15.209
343.56	14.675
343.92	14.732
344.28	15.469
344.65	14.961
345.01	15.055
345.37	14.541
345.73	14.263
346.10	15.523
346.46	14.636
346.82	15.281
347.19	15.126
347.55	15.250
347.91	13.893
348.27	14.643
348.63	15.537
349.00	13.721
349.36	14.275
349.72	14.732
350.08	15.750
350.45	14.449
350.81	14.857
351.17	15.338
351.53	15.315
351.89	15.338
352.26	15.373
352.62	14.701
352.98	14.427
353.34	14.414
353.70	14.792
354.07	15.574
354.43	13.516
354.79	14.435
355.15	14.054
355.51	15.936
355.87	14.734
356.24	15.285
356.60	14.043
356.96	15.048
357.32	14.424
357.68	14.641
358.04	14.371
358.40	15.224
358.77	15.132
359.13	13.885
359.49	13.978
359.85	13.416
360.21	15.352
360.57	15.291
360.93	14.104
361.29	15.860
361.66	14.772
362.02	14.753
362.38	15.460
362.74	14.525
363.10	14.580
363.46	14.889
363.82	14.844
364.18	15.412
364.54	15.837
364.90	15.853
365.26	14.759
365.62	15.200
365.98	14.568
366.35	15.369
366.71	15.578
367.07	14.953
367.43	15.036
367.79	15.262
368.15	15.385
368.51	15.359
368.87	15.415
369.23	15.267
369.59	15.369
369.95	15.213
370.31	16.138
370.67	15.406
371.03	15.166
371.39	15.514
371.75	14.649
372.11	14.973
372.47	15.437
372.83	15.183
373.19	16.278
373.55	14.837
373.91	15.337
374.27	15.783
374.63	14.073
374.99	14.589
375.35	15.584
375.71	14.903
376.07	15.300
376.42	15.050
376.78	15.413
377.14	16.157
377.50	15.560
377.86	15.948
378.22	16.168
378.58	16.409
378.94	15.962
379.30	16.227
379.66	15.932
380.02	15.580
380.38	16.014
380.74	15.662
381.09	16.144
381.45	15.852
381.81	16.452
382.17	16.093
382.53	16.550
382.89	16.704
383.25	15.885
383.61	16.262
383.97	16.313
384.32	16.507
384.68	15.371
385.04	15.847
385.40	16.264
385.76	16.589
386.12	16.158
386.48	15.941
386.83	16.985
387.19	15.759
387.55	16.197
387.91	16.553
388.27	16.744
388.62	16.208
388.98	15.792
389.34	16.971
389.70	17.025
390.06	16.815
390.42	16.807
390.77	17.459
391.13	15.493
391.49	17.391
391.85	16.121
392.20	17.378
392.56	17.543
392.92	16.739
393.28	16.639
393.64	16.704
393.99	16.153
394.35	17.523
394.71	16.287
395.07	16.467
395.42	16.562
395.78	17.672
396.14	17.231
396.50	16.746
396.85	16.518
397.21	16.509
397.57	16.137
397.92	17.125
398.28	16.513
398.64	16.991
399.00	16.545
399.35	17.173
399.71	17.011
400.07	16.957
400.42	17.229
400.78	17.130
401.14	16.904
401.49	17.339
401.85	16.977
402.21	17.207
402.57	18.251
402.92	16.726
403.28	16.920
403.63	16.229
403.99	16.449
404.35	17.226
404.70	16.714
405.06	16.576
405.42	17.272
405.77	17.884
406.13	16.802
406.49	16.892
406.84	17.341
407.20	18.222
407.55	17.262
407.91	16.908
408.27	16.431
408.62	16.405
408.98	17.237
409.34	15.894
409.69	17.429
410.05	16.999
410.40	17.401
410.76	17.499
411.11	17.475
411.47	17.383
411.83	17.225
412.18	17.410
412.54	16.894
412.89	16.997
413.25	16.704
413.60	16.600
413.96	17.541
414.31	17.110
414.67	17.293
415.03	15.754
415.38	17.087
415.74	16.982
416.09	16.718
416.45	17.533
416.80	17.442
417.16	16.858
417.51	17.995
417.87	17.229
418.22	17.725
418.58	16.853
418.93	17.579
419.29	16.276
419.64	16.987
420.00	17.448
420.35	16.901
420.71	16.772
421.06	17.136
421.42	17.431
421.77	16.532
422.12	17.706
422.48	17.665
422.83	18.291
423.19	17.454
423.54	16.925
423.90	17.007
424.25	17.813
424.61	17.853
424.96	17.518
425.31	18.047
425.67	17.713
426.02	18.096
426.38	16.935
426.73	16.685
427.09	18.281
427.44	17.586
427.79	16.915
428.15	16.838
428.50	16.854
428.85	18.083
429.21	18.351
429.56	16.979
429.92	18.378
430.27	17.976
430.62	17.782
430.98	17.708
431.33	17.986
431.68	17.289
432.04	18.182
432.39	18.211
432.74	17.751
433.10	18.280
433.45	17.113
433.80	16.899
434.16	18.182
434.51	17.883
434.86	18.675
435.22	18.650
435.57	18.337
435.92	17.974
436.28	18.146
436.63	18.514
436.98	17.982
437.34	17.813
437.69	17.666
438.04	18.350
438.39	18.495
438.75	18.871
439.10	19.080
439.45	19.229
439.81	18.475
440.16	18.660
440.51	18.562
440.86	18.121
441.22	17.685
441.57	18.291
441.92	18.526
442.27	19.040
442.63	18.530
442.98	18.410
443.33	18.254
443.68	18.880
444.03	19.473
444.39	18.955
444.74	19.040
445.09	18.956
445.44	19.389
445.79	19.588
446.15	19.013
446.50	19.225
446.85	19.212
447.20	19.342
447.55	18.776
447.91	19.058
448.26	18.605
448.61	18.438
448.96	19.689
449.31	18.876
449.66	18.192
450.02	19.198
450.37	19.286
450.72	19.914
451.07	19.134
451.42	19.122
451.77	18.733
452.12	19.074
452.47	18.598
452.83	19.032
453.18	18.856
453.53	18.667
453.88	18.885
454.23	19.605
454.58	19.907
454.93	18.932
455.28	19.627
455.63	20.011
455.98	19.721
456.34	18.375
456.69	19.812
457.04	19.444
457.39	18.459
457.74	19.631
458.09	19.989
458.44	18.750
458.79	19.082
459.14	19.874
459.49	19.185
459.84	19.727
460.19	19.212
460.54	19.648
460.89	19.428
461.24	18.333
461.59	19.812
461.94	19.224
462.29	20.157
462.64	18.648
462.99	20.088
463.34	19.208
463.69	19.461
464.04	19.900
464.39	19.507
464.74	19.555
465.09	19.550
465.44	19.206
465.79	20.095
466.14	19.281
466.49	18.947
466.84	19.890
467.19	20.578
467.54	19.330
467.89	19.080
468.24	19.557
468.59	19.572
468.94	19.755
469.29	19.496
469.64	19.453
469.99	20.459
470.34	20.050
470.68	20.369
471.03	20.825
471.38	19.751
471.73	20.806
472.08	20.305
472.43	20.169
472.78	21.222
473.13	19.659
473.48	20.000
473.83	20.546
474.17	20.340
474.52	20.866
474.87	21.207
475.22	20.507
475.57	20.197
475.92	19.811
476.27	20.394
476.61	20.145
476.96	19.864
477.31	20.743
477.66	21.668
478.01	20.488
478.36	20.837
478.70	20.690
479.05	21.575
479.40	21.224
479.75	21.278
480.10	20.417
480.45	20.146
480.79	20.907
481.14	20.358
481.49	20.445
481.84	21.323
482.19	21.118
482.53	21.207
482.88	21.267
483.23	21.120
483.58	21.310
483.92	20.168
484.27	20.322
484.62	20.751
484.97	21.229
485.31	20.345
485.66	18.688
486.01	18.486
486.36	18.736
486.70	19.958
487.05	20.404
487.40	19.805
487.75	20.102
488.09	19.780
488.44	19.760
488.79	19.933
489.13	20.746
489.48	20.311
489.83	20.483
490.17	20.494
490.52	21.018
490.87	20.981
491.22	21.534
491.56	21.715
491.91	21.457
492.26	21.939
492.60	21.251
492.95	21.501
493.30	21.336
493.64	20.894
493.99	22.018
494.34	21.341
494.68	20.899
495.03	21.630
495.37	21.482
495.72	21.723
496.07	22.130
496.41	21.536
496.76	21.601
497.11	21.953
497.45	21.234
497.80	21.724
498.14	22.585
498.49	22.059
498.84	22.166
499.18	22.042
499.53	22.377
499.87	22.154
500.22	21.549
500.56	22.132
500.91	22.838
501.26	22.682
501.60	21.829
501.95	22.406
502.29	21.501
502.64	22.519
502.98	22.778
503.33	21.685
503.67	22.285
504.02	21.804
504.36	22.654
504.71	22.784
505.06	22.556
505.40	22.166
505.75	22.905
506.09	23.435
506.44	22.981
506.78	23.119
507.13	22.960
507.47	23.449
507.82	23.343
508.16	23.327
508.51	22.597
508.85	23.288
509.19	23.828
509.54	24.544
509.88	23.798
510.23	23.847
510.57	24.408
510.92	24.625
511.26	23.569
511.61	23.563
511.95	23.816
512.30	23.929
512.64	24.338
512.98	24.412
513.33	25.000
513.67	24.783
514.02	25.038
514.36	25.217
514.70	25.573
515.05	25.235
515.39	24.882
515.74	25.610
516.08	25.621
516.42	25.589
516.77	25.079
517.11	25.580
517.46	26.087
517.80	26.029
518.14	26.823
518.49	25.868
518.83	25.333
519.17	25.310
519.52	26.205
519.86	26.822
520.20	27.050
520.55	26.232
520.89	26.351
521.23	25.851
521.58	27.401
521.92	27.082
522.26	26.231
522.61	26.910
522.95	26.990
523.29	27.126
523.64	27.074
523.98	27.439
524.32	28.596
524.66	27.888
525.01	27.576
525.35	26.939
525.69	28.190
526.04	27.325
526.38	27.069
526.72	27.336
527.06	27.801
527.41	28.163
527.75	28.919
528.09	27.804
528.43	27.531
528.78	26.994
529.12	27.179
529.46	27.768
529.80	27.632
530.15	27.710
530.49	28.410
530.83	27.804
531.17	28.315
531.51	29.122
531.86	28.546
532.20	29.268
532.54	28.366
532.88	28.364
533.22	27.873
533.57	27.986
533.91	28.114
534.25	27.530
534.59	27.529
534.93	27.448
535.27	28.056
535.62	28.653
535.96	28.181
536.30	28.026
536.64	27.748
536.98	28.290
537.32	28.704
537.66	29.320
538.01	28.036
538.35	28.319
538.69	27.764
539.03	28.449
539.37	28.563
539.71	27.628
540.05	28.058
540.39	27.628
540.73	28.112
541.07	28.755
541.42	27.466
541.76	28.055
542.10	27.684
542.44	27.527
542.78	28.893
543.12	26.937
543.46	28.083
543.80	27.818
544.14	27.828
544.48	28.901
544.82	27.768
545.16	28.444
545.50	29.359
545.84	28.659
546.18	29.074
546.52	28.408
546.86	28.113
547.20	28.880
547.54	28.152
547.88	27.788
548.22	28.129
548.56	28.379
548.90	27.642
549.24	28.207
549.58	27.823
549.92	28.699
550.26	29.126
550.60	29.036
550.94	29.107
551.28	28.317
551.62	29.582
551.96	28.220
552.30	28.426
552.64	28.749
552.98	27.823
553.32	29.068
553.66	28.424
554.00	29.823
554.34	29.151
554.68	27.566
555.02	28.712
555.36	29.520
555.69	28.635
556.03	27.995
556.37	29.099
556.71	28.725
557.05	29.073
557.39	29.463
557.73	29.458
558.07	28.940
558.41	29.103
558.75	29.817
559.08	29.228
559.42	29.698
559.76	29.851
560.10	29.203
560.44	29.617
560.78	29.438
561.12	28.818
561.45	29.258
561.79	29.304
562.13	28.343
562.47	28.483
562.81	29.684
563.15	29.167
563.48	28.589
563.82	29.625
564.16	27.498
564.50	28.665
564.84	27.729
565.17	29.059
565.51	27.733
565.85	28.741
566.19	27.650
566.52	28.262
566.86	28.862
567.20	26.862
567.54	28.306
567.88	28.389
568.21	27.717
568.55	26.954
568.89	27.281
569.23	27.165
569.56	26.651
569.90	26.087
570.24	26.105
570.57	25.978
570.91	25.168
571.25	25.774
571.59	24.743
571.92	24.813
572.26	25.463
572.60	24.870
572.93	25.522
573.27	24.923
573.61	24.537
573.95	24.788
574.28	24.177
574.62	24.375
574.96	24.151
575.29	23.772
575.63	24.694
575.97	24.790
576.30	24.722
576.64	24.219
576.98	23.759
577.31	24.463
577.65	24.185
577.98	24.040
578.32	23.423
578.66	23.784
578.99	23.756
579.33	23.944
579.67	23.980
580.00	24.005
580.34	24.127
580.67	23.742
581.01	23.886
581.35	24.118
581.68	23.744
582.02	23.453
582.35	24.005
582.69	24.034
583.02	24.220
583.36	24.440
583.70	23.904
584.03	23.782
584.37	23.821
584.70	24.450
585.04	23.739
585.37	24.149
585.71	24.056
586.04	24.373
586.38	24.327
586.72	24.467
587.05	24.149
587.39	24.233
587.72	24.809
588.06	24.541
588.39	24.745
588.73	24.735
589.06	24.802
589.40	25.569
589.73	25.064
590.07	26.227
590.40	25.558
590.73	25.380
591.07	26.061
591.40	25.156
591.74	25.795
592.07	26.391
592.41	25.789
592.74	25.417
593.08	25.414
593.41	25.314
593.75	24.511
594.08	25.871
594.41	25.897
594.75	25.274
595.08	25.168
595.42	25.487
595.75	25.379
596.09	26.059
596.42	25.331
596.75	25.550
597.09	27.232
597.42	25.944
597.75	26.931
598.09	26.587
598.42	26.498
598.76	25.946
599.09	25.027
599.42	25.545
599.76	25.388
600.09	26.093
600.42	25.192
600.76	25.958
601.09	25.456
601.42	25.472
601.76	25.448
602.09	25.304
602.42	25.191
602.76	25.609
603.09	26.028
603.42	25.614
603.76	26.004
604.09	26.650
604.42	25.982
604.76	25.837
605.09	26.286
605.42	26.156
605.75	25.962
606.09	26.353
606.42	25.757
606.75	26.012
607.09	24.885
607.42	26.012
607.75	26.338
608.08	26.164
608.42	25.675
608.75	26.783
609.08	26.146
609.41	27.128
609.75	26.830
610.08	27.661
610.41	25.786
610.74	26.891
611.07	26.377
611.41	26.996
611.74	26.374
612.07	27.069
612.40	25.808
612.73	27.139
613.07	26.797
613.40	27.238
613.73	26.914
614.06	27.134
614.39	27.357
614.72	27.171
615.06	27.045
615.39	27.260
615.72	27.109
616.05	27.635
616.38	28.153
616.71	27.586
617.05	27.157
617.38	27.769
617.71	28.726
618.04	28.171
618.37	28.251
618.70	28.281
619.03	27.838
619.36	29.038
619.69	28.379
620.03	28.939
620.36	28.528
620.69	29.056
621.02	29.199
621.35	29.681
621.68	30.730
622.01	30.391
622.34	28.870
622.67	29.278
623.00	28.677
623.33	30.259
623.66	29.831
623.99	30.086
624.32	29.370
624.65	28.700
624.99	29.064
625.32	29.980
625.65	29.804
625.98	28.678
626.31	29.199
626.64	30.403
626.97	29.932
627.30	29.765
627.63	30.983
627.96	31.381
628.29	31.751
628.62	31.234
628.95	31.727
629.28	31.096
629.61	32.744
629.94	30.293
630.26	30.678
630.59	31.261
630.92	32.294
631.25	32.200
631.58	32.015
631.91	31.490
632.24	33.141
