SpectraSuite Data File
++++++++++++++++++++++++++++++++++++
Date: Thu May 14 14:48:49 PDT 2015
User: schluterlab
Dark Spectrum Present: Yes
Reference Spectrum Present: Yes
Number of Sampled Component Spectra: 1
Spectrometers: USB2E3373
Integration Time (usec): 3000 (USB2E3373)
Spectra Averaged: 3 (USB2E3373)
Boxcar Smoothing: 0 (USB2E3373)
Correct for Electrical Dark: No (USB2E3373)
Strobe/Lamp Enabled: No (USB2E3373)
Correct for Detector Non-linearity: No (USB2E3373)
Correct for Stray Light: No (USB2E3373)
Number of Pixels in Processed Spectrum: 2048
>>>>>Begin Processed Spectral Data<<<<<
178.53	0.000
178.91	157.143
179.29	-1600.000
179.67	-900.000
180.04	157.143
180.42	60.000
180.80	200.000
181.18	-500.000
181.56	600.000
181.94	-150.000
182.31	-75.000
182.69	66.667
183.07	-300.000
183.45	150.000
183.83	-33.333
184.20	-100.000
184.58	400.000
184.96	-250.000
185.34	-100.000
185.72	-160.000
186.09	88.889
186.47	300.000
186.85	300.000
187.23	-55.556
187.61	-500.000
187.98	260.000
188.36	425.000
188.74	-75.000
189.12	66.667
189.49	-12.500
189.87	-25.000
190.25	-11.111
190.63	-40.000
191.00	-122.222
191.38	0.000
191.76	-350.000
192.14	-50.000
192.51	-0.000
192.89	50.000
193.27	0.000
193.65	0.000
194.02	-700.000
194.40	100.000
194.78	71.429
195.15	0.000
195.53	-9.091
195.91	0.000
196.29	-125.000
196.66	-53.846
197.04	-1100.000
197.42	-171.429
197.79	-700.000
198.17	-125.000
198.55	-128.571
198.92	11.111
199.30	-25.000
199.68	-90.909
200.05	50.000
200.43	-750.000
200.81	214.286
201.18	0.000
201.56	122.222
201.94	0.000
202.31	200.000
202.69	-100.000
203.07	-100.000
203.44	22.222
203.82	-50.000
204.19	8.333
204.57	-133.333
204.95	-12.500
205.32	-600.000
205.70	200.000
206.08	-133.333
206.45	16.667
206.83	520.000
207.20	-33.333
207.58	-180.000
207.96	-133.333
208.33	150.000
208.71	91.667
209.08	-16.667
209.46	0.000
209.84	116.667
210.21	250.000
210.59	-100.000
210.96	300.000
211.34	-150.000
211.71	-112.500
212.09	-200.000
212.46	0.000
212.84	150.000
213.22	-140.000
213.59	-225.000
213.97	0.000
214.34	-300.000
214.72	83.333
215.09	-50.000
215.47	0.000
215.84	214.286
216.22	350.000
216.59	20.000
216.97	-140.000
217.34	-25.000
217.72	-125.000
218.09	-175.000
218.47	-175.000
218.84	0.000
219.22	-100.000
219.59	0.000
219.97	65.000
220.34	1000.000
220.72	-100.000
221.09	15.385
221.47	66.667
221.84	-30.000
222.22	-85.714
222.59	0.000
222.97	-62.500
223.34	-220.000
223.72	-100.000
224.09	-100.000
224.46	-75.000
224.84	-100.000
225.21	-157.143
225.59	-375.000
225.96	0.000
226.34	34.615
226.71	100.000
227.08	-300.000
227.46	0.000
227.83	-175.000
228.21	-5.263
228.58	62.500
228.95	300.000
229.33	33.333
229.70	20.000
230.08	94.737
230.45	90.000
230.82	-100.000
231.20	-50.000
231.57	-25.000
231.95	-81.818
232.32	81.818
232.69	20.000
233.07	-25.000
233.44	17.647
233.81	-20.000
234.19	11.111
234.56	4.545
234.93	27.586
235.31	-42.105
235.68	-22.222
236.05	-35.000
236.43	23.077
236.80	28.000
237.17	-14.815
237.55	15.152
237.92	-40.000
238.29	0.000
238.67	-2.273
239.04	36.111
239.41	-4.762
239.79	6.522
240.16	-1.852
240.53	-28.261
240.91	-9.804
241.28	6.557
241.65	17.910
242.02	18.919
242.40	-6.154
242.77	2.667
243.14	2.439
243.51	-3.947
243.89	-19.231
244.26	-1.980
244.63	6.863
245.00	-1.869
245.38	3.509
245.75	-12.389
246.12	3.175
246.49	-0.775
246.87	8.571
247.24	1.987
247.61	-0.658
247.98	4.698
248.36	1.852
248.73	-2.454
249.10	2.186
249.47	6.468
249.84	3.141
250.22	-1.036
250.59	7.222
250.96	0.909
251.33	-7.653
251.70	-1.282
252.08	6.250
252.45	4.508
252.82	4.959
253.19	0.391
253.56	3.042
253.94	1.923
254.31	3.788
254.68	5.245
255.05	9.446
255.42	4.422
255.79	2.265
256.16	1.656
256.54	0.331
256.91	2.623
257.28	0.328
257.65	1.911
258.02	-2.065
258.39	2.849
258.76	7.645
259.14	6.034
259.51	0.576
259.88	0.283
260.25	0.556
260.62	3.562
260.99	6.557
261.36	6.702
261.73	1.592
262.10	2.198
262.47	1.877
262.85	6.566
263.22	3.377
263.59	1.316
263.96	3.581
264.33	1.023
264.70	4.691
265.07	4.535
265.44	6.576
265.81	2.778
266.18	3.855
266.55	5.134
266.92	1.822
267.29	7.002
267.66	4.213
268.03	3.275
268.40	5.219
268.77	-0.228
269.14	0.441
269.51	1.974
269.88	5.738
270.25	5.231
270.62	5.485
270.99	6.667
271.36	6.535
271.73	4.912
272.10	3.206
272.47	4.208
272.84	2.209
273.21	3.607
273.58	2.823
273.95	3.654
274.32	3.612
274.69	3.675
275.06	4.396
275.43	2.588
275.80	4.233
276.17	0.370
276.54	3.172
276.91	2.683
277.28	4.702
277.65	3.591
278.02	2.941
278.39	2.536
278.76	3.515
279.13	2.660
279.50	3.952
279.87	4.472
280.23	1.761
280.60	3.051
280.97	3.947
281.34	2.716
281.71	4.907
282.08	4.651
282.45	2.128
282.82	1.413
283.19	2.585
283.56	2.623
283.92	5.856
284.29	4.581
284.66	4.598
285.03	1.763
285.40	3.091
285.77	2.632
286.14	4.275
286.51	4.566
286.87	2.528
287.24	1.958
287.61	2.242
287.98	2.870
288.35	2.515
288.72	4.142
289.08	3.953
289.45	2.367
289.82	3.012
290.19	3.161
290.56	3.662
290.93	2.710
291.29	3.857
291.66	2.755
292.03	3.392
292.40	4.898
292.77	3.100
293.13	3.789
293.50	2.628
293.87	4.295
294.24	4.400
294.60	4.678
294.97	1.745
295.34	3.329
295.71	2.774
296.08	3.747
296.44	2.941
296.81	3.410
297.18	3.736
297.55	2.948
297.91	3.440
298.28	2.488
298.65	3.210
299.02	3.188
299.38	4.691
299.75	3.972
300.12	3.009
300.48	4.263
300.85	4.274
301.22	4.362
301.59	3.425
301.95	4.068
302.32	4.333
302.69	3.834
303.05	3.700
303.42	3.104
303.79	3.750
304.15	3.891
304.52	2.960
304.89	3.979
305.25	4.141
305.62	3.657
305.99	4.124
306.35	3.327
306.72	3.516
307.09	3.452
307.45	3.313
307.82	3.835
308.19	3.935
308.55	4.918
308.92	3.311
309.29	3.927
309.65	3.119
310.02	2.673
310.38	3.642
310.75	3.689
311.12	3.547
311.48	4.399
311.85	3.609
312.22	3.795
312.58	3.850
312.95	3.728
313.31	4.246
313.68	5.311
314.05	5.510
314.41	5.100
314.78	3.906
315.14	4.991
315.51	5.725
315.87	4.860
316.24	5.388
316.61	5.684
316.97	3.439
317.34	4.233
317.70	4.716
318.07	4.233
318.43	5.357
318.80	5.686
319.16	4.120
319.53	2.999
319.89	4.733
320.26	5.071
320.62	4.078
320.99	4.709
321.35	4.344
321.72	5.023
322.08	4.959
322.45	5.149
322.81	5.054
323.18	4.513
323.54	5.690
323.91	5.160
324.27	5.938
324.64	4.870
325.00	4.892
325.37	5.897
325.73	5.702
326.10	6.083
326.46	6.189
326.83	5.524
327.19	6.220
327.56	6.166
327.92	5.665
328.29	5.887
328.65	5.528
329.01	5.838
329.38	6.824
329.74	5.822
330.11	5.993
330.47	7.161
330.84	6.202
331.20	7.000
331.56	5.546
331.93	7.113
332.29	7.288
332.66	6.312
333.02	6.365
333.38	5.956
333.75	6.313
334.11	6.088
334.48	6.518
334.84	7.222
335.20	5.374
335.57	7.167
335.93	6.694
336.29	5.740
336.66	6.308
337.02	5.518
337.38	6.378
337.75	6.694
338.11	6.224
338.47	6.452
338.84	5.922
339.20	5.560
339.56	6.260
339.93	6.732
340.29	6.522
340.65	5.839
341.02	7.023
341.38	6.952
341.74	6.134
342.11	6.034
342.47	6.434
342.83	5.878
343.20	5.887
343.56	6.415
343.92	6.405
344.28	6.094
344.65	7.132
345.01	6.396
345.37	7.543
345.73	7.015
346.10	6.084
346.46	6.408
346.82	6.742
347.19	6.875
347.55	7.511
347.91	6.538
348.27	7.208
348.63	7.388
349.00	6.562
349.36	7.212
349.72	6.473
350.08	7.429
350.45	6.616
350.81	6.637
351.17	6.992
351.53	6.672
351.89	6.834
352.26	6.045
352.62	6.493
352.98	5.878
353.34	7.020
353.70	5.624
354.07	6.334
354.43	5.998
354.79	5.610
355.15	6.917
355.51	7.310
355.87	5.759
356.24	7.452
356.60	7.021
356.96	6.375
357.32	7.212
357.68	5.490
358.04	6.287
358.40	6.119
358.77	6.725
359.13	6.352
359.49	4.981
359.85	6.962
360.21	6.169
360.57	5.599
360.93	6.700
361.29	6.667
361.66	5.358
362.02	7.307
362.38	7.309
362.74	6.983
363.10	7.772
363.46	6.856
363.82	5.895
364.18	6.193
364.54	7.054
364.90	6.823
365.26	6.276
365.62	8.133
365.98	6.807
366.35	6.040
366.71	7.347
367.07	7.781
367.43	7.485
367.79	7.167
368.15	8.428
368.51	6.631
368.87	6.989
369.23	7.133
369.59	6.557
369.95	6.897
370.31	7.360
370.67	6.534
371.03	6.510
371.39	6.850
371.75	6.878
372.11	7.182
372.47	7.177
372.83	7.526
373.19	7.472
373.55	6.504
373.91	6.408
374.27	7.762
374.63	6.698
374.99	7.560
375.35	8.182
375.71	7.742
376.07	7.037
376.42	7.683
376.78	8.142
377.14	7.236
377.50	6.705
377.86	8.251
378.22	7.545
378.58	7.491
378.94	7.629
379.30	7.557
379.66	7.584
380.02	8.021
380.38	8.122
380.74	7.324
381.09	7.607
381.45	7.159
381.81	8.665
382.17	8.076
382.53	7.661
382.89	8.296
383.25	8.324
383.61	6.944
383.97	7.597
384.32	8.074
384.68	7.541
385.04	8.618
385.40	7.955
385.76	8.792
386.12	8.737
386.48	8.471
386.83	8.284
387.19	8.285
387.55	7.629
387.91	8.733
388.27	8.487
388.62	9.507
388.98	9.024
389.34	8.073
389.70	8.542
390.06	9.118
390.42	8.373
390.77	9.151
391.13	8.568
391.49	9.118
391.85	8.061
392.20	9.015
392.56	9.569
392.92	9.106
393.28	9.287
393.64	8.715
393.99	9.704
394.35	9.229
394.71	8.862
395.07	8.383
395.42	9.652
395.78	10.420
396.14	9.091
396.50	8.907
396.85	9.064
397.21	9.645
397.57	9.600
397.92	8.992
398.28	8.637
398.64	8.524
399.00	8.743
399.35	9.424
399.71	8.750
400.07	8.984
400.42	9.022
400.78	10.069
401.14	9.619
401.49	10.063
401.85	9.884
402.21	10.139
402.57	10.153
402.92	8.570
403.28	8.841
403.63	9.129
403.99	9.798
404.35	9.096
404.70	10.085
405.06	9.891
405.42	9.660
405.77	10.414
406.13	9.995
406.49	9.741
406.84	9.363
407.20	10.006
407.55	9.388
407.91	9.742
408.27	10.071
408.62	9.831
408.98	9.750
409.34	9.091
409.69	9.518
410.05	10.492
410.40	10.325
410.76	9.983
411.11	9.994
411.47	9.889
411.83	9.465
412.18	10.120
412.54	10.018
412.89	11.118
413.25	9.932
413.60	9.707
413.96	9.907
414.31	9.915
414.67	10.376
415.03	9.908
415.38	10.719
415.74	10.018
416.09	9.994
416.45	10.520
416.80	10.282
417.16	9.834
417.51	10.274
417.87	10.668
418.22	11.138
418.58	10.595
418.93	10.768
419.29	9.926
419.64	10.084
420.00	10.326
420.35	10.724
420.71	10.109
421.06	10.868
421.42	10.092
421.77	9.908
422.12	10.888
422.48	10.855
422.83	10.953
423.19	10.981
423.54	10.896
423.90	10.547
424.25	10.880
424.61	9.644
424.96	10.489
425.31	11.465
425.67	10.199
426.02	10.681
426.38	10.448
426.73	10.826
427.09	12.284
427.44	10.595
427.79	11.001
428.15	10.902
428.50	10.506
428.85	10.735
429.21	11.543
429.56	11.106
429.92	10.860
430.27	10.651
430.62	10.699
430.98	11.117
431.33	11.535
431.68	11.015
432.04	11.173
432.39	11.462
432.74	10.502
433.10	11.520
433.45	11.204
433.80	11.159
434.16	11.209
434.51	11.511
434.86	10.858
435.22	10.680
435.57	11.910
435.92	11.797
436.28	11.320
436.63	10.705
436.98	10.574
437.34	11.725
437.69	11.723
438.04	11.740
438.39	11.258
438.75	11.068
439.10	11.681
439.45	11.683
439.81	11.017
440.16	10.831
440.51	11.483
440.86	11.228
441.22	11.522
441.57	11.268
441.92	11.203
442.27	11.717
442.63	11.277
442.98	12.593
443.33	11.310
443.68	12.488
444.03	12.088
444.39	11.789
444.74	11.485
445.09	11.556
445.44	11.275
445.79	11.734
446.15	11.819
446.50	11.318
446.85	11.722
447.20	12.137
447.55	11.820
447.91	11.518
448.26	10.729
448.61	11.211
448.96	11.910
449.31	11.665
449.66	10.730
450.02	11.920
450.37	12.413
450.72	12.002
451.07	11.617
451.42	11.958
451.77	11.784
452.12	11.795
452.47	11.171
452.83	11.881
453.18	11.150
453.53	11.488
453.88	11.430
454.23	12.203
454.58	12.130
454.93	11.226
455.28	11.740
455.63	12.393
455.98	12.905
456.34	11.425
456.69	12.111
457.04	11.229
457.39	12.140
457.74	12.136
458.09	11.917
458.44	12.284
458.79	11.655
459.14	12.271
459.49	12.281
459.84	12.225
460.19	10.550
460.54	11.868
460.89	11.752
461.24	11.839
461.59	11.898
461.94	11.694
462.29	11.814
462.64	11.889
462.99	12.994
463.34	12.784
463.69	12.309
464.04	12.118
464.39	12.220
464.74	12.315
465.09	11.822
465.44	12.393
465.79	12.110
466.14	12.142
466.49	12.526
466.84	11.846
467.19	13.121
467.54	12.515
467.89	12.529
468.24	11.911
468.59	11.928
468.94	11.830
469.29	11.938
469.64	11.380
469.99	12.173
470.34	12.871
470.68	12.509
471.03	12.312
471.38	11.707
471.73	12.029
472.08	12.944
472.43	12.282
472.78	12.091
473.13	13.211
473.48	12.024
473.83	12.710
474.17	12.427
474.52	12.989
474.87	12.514
475.22	12.225
475.57	11.682
475.92	12.096
476.27	12.194
476.61	11.734
476.96	11.418
477.31	12.525
477.66	12.434
478.01	12.150
478.36	12.164
478.70	12.020
479.05	11.912
479.40	12.142
479.75	13.016
480.10	11.890
480.45	12.352
480.79	11.837
481.14	12.132
481.49	12.494
481.84	12.707
482.19	12.172
482.53	12.505
482.88	12.982
483.23	12.183
483.58	12.314
483.92	11.791
484.27	12.574
484.62	12.129
484.97	12.830
485.31	11.686
485.66	11.585
486.01	11.394
486.36	11.740
486.70	12.540
487.05	13.035
487.40	12.723
487.75	13.181
488.09	12.990
488.44	12.423
488.79	12.648
489.13	12.600
489.48	11.922
489.83	11.831
490.17	11.989
490.52	12.562
490.87	12.183
491.22	12.652
491.56	13.097
491.91	13.389
492.26	12.549
492.60	12.724
492.95	12.944
493.30	12.775
493.64	12.834
493.99	12.719
494.34	12.413
494.68	12.548
495.03	12.731
495.37	12.605
495.72	12.200
496.07	12.708
496.41	11.926
496.76	13.011
497.11	12.272
497.45	12.818
497.80	13.283
498.14	12.562
498.49	12.454
498.84	12.980
499.18	12.371
499.53	12.915
499.87	13.143
500.22	12.110
500.56	12.731
500.91	12.815
501.26	13.318
501.60	12.373
501.95	12.549
502.29	12.900
502.64	12.680
502.98	12.856
503.33	12.225
503.67	12.604
504.02	12.785
504.36	13.315
504.71	13.367
505.06	13.461
505.40	12.934
505.75	13.934
506.09	13.029
506.44	13.231
506.78	13.303
507.13	13.186
507.47	13.548
507.82	13.352
508.16	12.906
508.51	13.080
508.85	13.415
509.19	13.548
509.54	13.401
509.88	13.065
510.23	13.405
510.57	13.678
510.92	13.111
511.26	13.035
511.61	13.230
511.95	13.275
512.30	13.688
512.64	13.343
512.98	13.707
513.33	14.264
513.67	13.310
514.02	13.694
514.36	12.941
514.70	13.229
515.05	13.712
515.39	13.596
515.74	14.263
516.08	13.735
516.42	13.815
516.77	14.090
517.11	13.667
517.46	13.680
517.80	14.164
518.14	15.506
518.49	14.262
518.83	13.411
519.17	14.163
519.52	14.203
519.86	14.308
520.20	14.483
520.55	13.417
520.89	14.977
521.23	14.070
521.58	13.955
521.92	14.334
522.26	13.918
522.61	13.542
522.95	13.841
523.29	13.621
523.64	14.462
523.98	13.976
524.32	14.785
524.66	15.367
525.01	13.590
525.35	13.900
525.69	14.037
526.04	14.466
526.38	14.598
526.72	14.302
527.06	14.545
527.41	15.160
527.75	15.558
528.09	14.345
528.43	14.269
528.78	14.277
529.12	14.048
529.46	14.278
529.80	14.531
530.15	14.261
530.49	14.828
530.83	14.817
531.17	14.397
531.51	14.561
531.86	14.423
532.20	14.329
532.54	14.722
532.88	14.364
533.22	15.144
533.57	14.657
533.91	15.264
534.25	14.980
534.59	14.483
534.93	14.601
535.27	14.310
535.62	15.236
535.96	15.282
536.30	14.454
536.64	14.715
536.98	15.314
537.32	14.938
537.66	14.660
538.01	14.441
538.35	14.251
538.69	14.243
539.03	14.899
539.37	14.664
539.71	15.075
540.05	14.988
540.39	13.814
540.73	14.693
541.07	15.635
541.42	14.885
541.76	14.413
542.10	15.320
542.44	15.530
542.78	15.207
543.12	14.482
543.46	14.652
543.80	14.568
544.14	14.542
544.48	15.248
544.82	15.260
545.16	15.742
545.50	15.279
545.84	14.268
546.18	15.494
546.52	14.650
546.86	14.843
547.20	14.758
547.54	15.231
547.88	14.768
548.22	14.327
548.56	15.448
548.90	14.507
549.24	14.468
549.58	15.899
549.92	14.923
550.26	14.951
550.60	15.507
550.94	15.653
551.28	14.983
551.62	15.970
551.96	16.052
552.30	14.659
552.64	15.619
552.98	15.159
553.32	15.563
553.66	14.727
554.00	15.195
554.34	15.122
554.68	14.009
555.02	14.915
555.36	14.661
555.69	14.158
556.03	15.826
556.37	15.394
556.71	14.585
557.05	15.144
557.39	15.063
557.73	14.795
558.07	15.298
558.41	16.678
558.75	15.889
559.08	15.518
559.42	14.815
559.76	16.011
560.10	15.539
560.44	15.765
560.78	15.562
561.12	15.764
561.45	15.693
561.79	14.591
562.13	15.096
562.47	15.105
562.81	14.557
563.15	15.846
563.48	15.040
563.82	15.175
564.16	14.416
564.50	14.958
564.84	15.162
565.17	15.412
565.51	14.557
565.85	15.439
566.19	14.574
566.52	14.745
566.86	15.224
567.20	15.117
567.54	14.923
567.88	15.240
568.21	14.723
568.55	14.916
568.89	15.116
569.23	14.998
569.56	14.928
569.90	15.039
570.24	14.503
570.57	14.368
570.91	14.452
571.25	14.319
571.59	14.779
571.92	14.419
572.26	14.558
572.60	14.715
572.93	14.807
573.27	14.386
573.61	14.320
573.95	14.542
574.28	14.366
574.62	14.575
574.96	13.630
575.29	13.946
575.63	14.530
575.97	14.826
576.30	14.286
576.64	14.221
576.98	13.781
577.31	14.323
577.65	14.177
577.98	14.608
578.32	14.083
578.66	14.531
578.99	14.254
579.33	14.829
579.67	14.302
580.00	14.655
580.34	14.594
580.67	14.519
581.01	14.496
581.35	14.631
581.68	14.037
582.02	14.251
582.35	14.748
582.69	14.489
583.02	14.483
583.36	14.808
583.70	14.588
584.03	14.447
584.37	14.737
584.70	13.985
585.04	13.997
585.37	14.450
585.71	14.088
586.04	14.839
586.38	14.578
586.72	14.415
587.05	14.275
587.39	14.361
587.72	14.713
588.06	14.869
588.39	15.086
588.73	14.471
589.06	14.955
589.40	14.597
589.73	14.910
590.07	14.920
590.40	14.976
590.73	14.988
591.07	14.780
591.40	14.697
591.74	14.547
592.07	15.104
592.41	14.669
592.74	14.732
593.08	14.522
593.41	14.961
593.75	14.511
594.08	14.420
594.41	15.288
594.75	14.314
595.08	14.805
595.42	14.805
595.75	14.918
596.09	15.181
596.42	14.547
596.75	15.129
597.09	15.273
597.42	14.184
597.75	14.818
598.09	14.960
598.42	15.682
598.76	14.903
599.09	14.596
599.42	14.314
599.76	14.625
600.09	15.115
600.42	14.882
600.76	14.663
601.09	14.736
601.42	15.208
601.76	14.897
602.09	14.832
602.42	14.140
602.76	14.649
603.09	14.758
603.42	14.559
603.76	15.081
604.09	15.827
604.42	15.046
604.76	14.878
605.09	15.078
605.42	15.072
605.75	14.962
606.09	14.782
606.42	15.104
606.75	14.393
607.09	14.593
607.42	14.644
607.75	14.771
608.08	15.114
608.42	15.075
608.75	14.925
609.08	14.643
609.41	14.821
609.75	14.554
610.08	15.875
610.41	14.274
610.74	14.748
611.07	14.698
611.41	15.247
611.74	14.873
612.07	14.914
612.40	14.496
612.73	14.768
613.07	14.914
613.40	14.966
613.73	14.829
614.06	14.917
614.39	14.189
614.72	14.896
615.06	15.063
615.39	14.790
615.72	14.455
616.05	14.473
616.38	15.237
616.71	15.465
617.05	14.590
617.38	14.821
617.71	15.335
618.04	16.028
618.37	15.246
618.70	15.271
619.03	14.755
619.36	14.488
619.69	15.054
620.03	14.878
620.36	15.031
620.69	15.546
621.02	14.633
621.35	15.893
621.68	16.197
622.01	15.730
622.34	14.854
622.67	15.052
623.00	13.293
623.33	16.125
623.66	15.759
623.99	14.878
624.32	17.349
624.65	13.964
624.99	15.280
625.32	15.676
625.65	15.374
625.98	15.254
626.31	15.521
626.64	15.604
626.97	15.454
627.30	15.490
627.63	15.454
627.96	16.366
628.29	15.564
628.62	14.945
628.95	15.425
629.28	14.868
629.61	15.067
629.94	15.146
630.26	14.153
630.59	15.285
630.92	14.719
631.25	16.100
631.58	15.160
631.91	15.089
632.24	15.082
632.57	16.224
632.90	15.848
633.23	16.939
633.56	15.000
633.89	16.219
634.22	15.385
634.55	15.136
634.88	15.909
635.20	15.823
635.53	15.819
635.86	15.818
636.19	15.907
636.52	15.506
636.85	15.526
637.18	14.449
637.51	16.237
637.83	16.722
638.16	15.553
638.49	14.437
638.82	16.122
639.15	14.433
639.48	16.513
639.81	16.513
640.13	15.077
640.46	15.152
640.79	14.583
641.12	15.652
641.45	16.813
641.77	17.330
642.10	15.486
642.43	17.154
642.76	16.938
643.09	15.068
643.41	17.087
