SpectraSuite Data File
++++++++++++++++++++++++++++++++++++
Date: Thu May 14 14:43:22 PDT 2015
User: schluterlab
Dark Spectrum Present: Yes
Reference Spectrum Present: Yes
Number of Sampled Component Spectra: 1
Spectrometers: USB2E3373
Integration Time (usec): 3000 (USB2E3373)
Spectra Averaged: 3 (USB2E3373)
Boxcar Smoothing: 0 (USB2E3373)
Correct for Electrical Dark: No (USB2E3373)
Strobe/Lamp Enabled: No (USB2E3373)
Correct for Detector Non-linearity: No (USB2E3373)
Correct for Stray Light: No (USB2E3373)
Number of Pixels in Processed Spectrum: 2048
>>>>>Begin Processed Spectral Data<<<<<
178.53	0.000
178.91	-71.429
179.29	300.000
179.67	300.000
180.04	50.000
180.42	-30.000
180.80	20.000
181.18	-200.000
181.56	800.000
181.94	-100.000
182.31	200.000
182.69	33.333
183.07	-350.000
183.45	-50.000
183.83	150.000
184.20	0.000
184.58	-400.000
184.96	50.000
185.34	88.889
185.72	220.000
186.09	133.333
186.47	150.000
186.85	40.000
187.23	-44.444
187.61	-700.000
187.98	-60.000
188.36	75.000
188.74	-275.000
189.12	66.667
189.49	62.500
189.87	-100.000
190.25	166.667
190.63	200.000
191.00	-111.111
191.38	0.000
191.76	-25.000
192.14	66.667
192.51	150.000
192.89	-66.667
193.27	0.000
193.65	128.571
194.02	0.000
194.40	142.857
194.78	-14.286
195.15	0.000
195.53	163.636
195.91	0.000
196.29	75.000
196.66	23.077
197.04	300.000
197.42	-42.857
197.79	-50.000
198.17	62.500
198.55	100.000
198.92	55.556
199.30	-12.500
199.68	9.091
200.05	28.571
200.43	50.000
200.81	-85.714
201.18	0.000
201.56	122.222
201.94	0.000
202.31	-100.000
202.69	-44.444
203.07	-1100.000
203.44	44.444
203.82	75.000
204.19	133.333
204.57	116.667
204.95	75.000
205.32	-300.000
205.70	-100.000
206.08	16.667
206.45	83.333
206.83	-40.000
207.20	116.667
207.58	-40.000
207.96	0.000
208.33	216.667
208.71	8.333
209.08	66.667
209.46	0.000
209.84	50.000
210.21	-650.000
210.59	-50.000
210.96	-0.000
211.34	275.000
211.71	0.000
212.09	1200.000
212.46	0.000
212.84	300.000
213.22	40.000
213.59	125.000
213.97	50.000
214.34	33.333
214.72	116.667
215.09	-25.000
215.47	0.000
215.84	-14.286
216.22	150.000
216.59	60.000
216.97	-40.000
217.34	25.000
217.72	37.500
218.09	200.000
218.47	150.000
218.84	0.000
219.22	100.000
219.59	17.647
219.97	45.000
220.34	350.000
220.72	55.556
221.09	100.000
221.47	300.000
221.84	-50.000
222.22	-128.571
222.59	0.000
222.97	100.000
223.34	-160.000
223.72	-400.000
224.09	-50.000
224.46	0.000
224.84	180.000
225.21	-171.429
225.59	225.000
225.96	50.000
226.34	15.385
226.71	83.333
227.08	750.000
227.46	66.667
227.83	200.000
228.21	84.211
228.58	-0.000
228.95	-0.000
229.33	100.000
229.70	40.000
230.08	89.474
230.45	80.000
230.82	-200.000
231.20	-35.714
231.57	58.333
231.95	45.455
232.32	163.636
232.69	60.000
233.07	100.000
233.44	0.000
233.81	20.000
234.19	61.111
234.56	68.182
234.93	48.276
235.31	42.105
235.68	72.222
236.05	-5.000
236.43	73.077
236.80	64.000
237.17	18.519
237.55	30.303
237.92	-50.000
238.29	29.032
238.67	25.000
239.04	22.222
239.41	40.476
239.79	34.783
240.16	24.074
240.53	28.261
240.91	19.608
241.28	27.869
241.65	38.806
242.02	36.486
242.40	24.615
242.77	14.667
243.14	10.976
243.51	11.842
243.89	23.077
244.26	25.743
244.63	29.412
245.00	21.495
245.38	23.684
245.75	7.965
246.12	22.222
246.49	19.380
246.87	24.286
247.24	27.815
247.61	23.684
247.98	25.503
248.36	19.753
248.73	20.245
249.10	19.126
249.47	23.881
249.84	23.560
250.22	17.098
250.59	27.778
250.96	24.545
251.33	13.776
251.70	25.641
252.08	23.333
252.45	24.180
252.82	21.488
253.19	17.969
253.56	22.814
253.94	16.538
254.31	19.697
254.68	21.678
255.05	21.824
255.42	19.388
255.79	15.534
256.16	20.861
256.54	18.212
256.91	20.000
257.28	20.328
257.65	20.701
258.02	16.519
258.39	19.088
258.76	24.771
259.14	24.138
259.51	19.597
259.88	18.130
260.25	21.111
260.62	19.452
260.99	21.858
261.36	21.180
261.73	19.894
262.10	21.978
262.47	21.716
262.85	23.232
263.22	18.961
263.59	18.421
263.96	21.739
264.33	19.437
264.70	21.481
265.07	21.480
265.44	22.902
265.81	19.907
266.18	20.408
266.55	19.420
266.92	18.679
267.29	21.225
267.66	21.729
268.03	21.179
268.40	20.668
268.77	22.096
269.14	20.705
269.51	21.272
269.88	19.467
270.25	21.529
270.62	18.987
270.99	20.404
271.36	20.990
271.73	20.629
272.10	19.439
272.47	20.641
272.84	19.478
273.21	19.038
273.58	20.161
273.95	20.000
274.32	19.772
274.69	19.923
275.06	21.062
275.43	17.190
275.80	19.224
276.17	18.333
276.54	19.776
276.91	19.499
277.28	18.445
277.65	19.390
278.02	18.934
278.39	20.833
278.76	19.508
279.13	17.908
279.50	20.103
279.87	18.784
280.23	15.669
280.60	17.458
280.97	19.901
281.34	17.487
281.71	20.305
282.08	20.930
282.45	18.167
282.82	20.722
283.19	17.286
283.56	18.197
283.92	19.820
284.29	21.643
284.66	18.227
285.03	16.186
285.40	18.547
285.77	15.944
286.14	17.863
286.51	17.960
286.87	18.325
287.24	21.084
287.61	17.788
287.98	17.221
288.35	16.420
288.72	16.864
289.08	17.570
289.45	19.527
289.82	17.620
290.19	17.529
290.56	17.465
290.93	17.404
291.29	15.840
291.66	15.840
292.03	15.739
292.40	17.823
292.77	14.555
293.13	16.373
293.50	14.586
293.87	15.705
294.24	18.400
294.60	15.550
294.97	15.436
295.34	17.670
295.71	14.376
296.08	15.375
296.44	14.583
296.81	16.322
297.18	15.940
297.55	15.330
297.91	14.116
298.28	14.100
298.65	14.982
299.02	15.584
299.38	14.188
299.75	15.070
300.12	14.352
300.48	14.747
300.85	15.748
301.22	14.430
301.59	14.269
301.95	13.898
302.32	14.556
302.69	14.020
303.05	14.037
303.42	14.302
303.79	15.104
304.15	14.511
304.52	13.002
304.89	14.555
305.25	13.251
305.62	14.002
305.99	13.402
306.35	13.810
306.72	13.857
307.09	12.589
307.45	14.079
307.82	13.724
308.19	13.118
308.55	14.851
308.92	12.658
309.29	13.602
309.65	13.840
310.02	12.475
310.38	13.091
310.75	13.398
311.12	14.286
311.48	13.978
311.85	13.295
312.22	13.757
312.58	13.615
312.95	12.715
313.31	11.924
313.68	13.370
314.05	14.002
314.41	14.026
314.78	13.533
315.14	13.702
315.51	14.681
315.87	14.041
316.24	12.603
316.61	13.233
316.97	12.036
317.34	12.698
317.70	13.799
318.07	14.286
318.43	13.861
318.80	15.301
319.16	13.820
319.53	12.339
319.89	12.621
320.26	14.413
320.62	13.121
320.99	13.019
321.35	12.662
321.72	14.977
322.08	13.886
322.45	15.176
322.81	14.079
323.18	13.097
323.54	12.845
323.91	13.968
324.27	14.372
324.64	15.365
325.00	12.935
325.37	14.251
325.73	13.884
326.10	14.031
326.46	14.251
326.83	13.851
327.19	14.646
327.56	13.518
327.92	12.903
328.29	14.758
328.65	12.898
329.01	13.029
329.38	14.659
329.74	14.384
330.11	14.897
330.47	13.901
330.84	13.178
331.20	13.417
331.56	13.518
331.93	14.477
332.29	13.983
332.66	13.621
333.02	13.903
333.38	14.346
333.75	12.626
334.11	14.095
334.48	14.191
334.84	15.293
335.20	13.686
335.57	14.418
335.93	13.884
336.29	12.978
336.66	13.961
337.02	14.130
337.38	14.201
337.75	13.223
338.11	14.382
338.47	14.227
338.84	13.283
339.20	13.142
339.56	14.168
339.93	13.218
340.29	13.849
340.65	12.571
341.02	13.807
341.38	14.309
341.74	14.205
342.11	13.757
342.47	12.311
342.83	13.205
343.20	13.410
343.56	14.194
343.92	13.691
344.28	13.203
344.65	13.488
345.01	14.041
345.37	15.319
345.73	12.627
346.10	14.119
346.46	13.528
346.82	13.333
347.19	14.057
347.55	14.492
347.91	13.522
348.27	12.064
348.63	13.861
349.00	13.348
349.36	12.565
349.72	13.690
350.08	13.596
350.45	12.167
350.81	13.348
351.17	12.932
351.53	13.268
351.89	13.060
352.26	12.836
352.62	13.209
352.98	13.282
353.34	12.024
353.70	12.943
354.07	14.083
354.43	13.667
354.79	12.341
355.15	12.877
355.51	13.816
355.87	13.164
356.24	13.612
356.60	12.639
356.96	12.676
357.32	13.011
357.68	12.738
358.04	12.575
358.40	12.313
358.77	12.939
359.13	12.777
359.49	11.599
359.85	12.473
360.21	12.554
360.57	12.778
360.93	13.188
361.29	12.561
361.66	13.179
362.02	14.335
362.38	12.860
362.74	11.941
363.10	13.136
363.46	13.227
363.82	12.358
364.18	12.526
364.54	13.693
364.90	12.910
365.26	12.414
365.62	13.067
365.98	12.594
366.35	12.416
366.71	11.565
367.07	13.870
367.43	12.344
367.79	13.470
368.15	12.575
368.51	12.585
368.87	11.757
369.23	13.133
369.59	12.978
369.95	12.644
370.31	12.559
370.67	12.655
371.03	12.604
371.39	12.559
371.75	12.586
372.11	13.008
372.47	13.202
372.83	12.762
373.19	12.942
373.55	12.805
373.91	11.384
374.27	12.872
374.63	12.111
374.99	12.798
375.35	12.208
375.71	12.516
376.07	12.395
376.42	11.587
376.78	12.927
377.14	13.350
377.50	13.093
377.86	13.300
378.22	12.814
378.58	12.782
378.94	13.263
379.30	12.478
379.66	12.522
380.02	12.579
380.38	12.558
380.74	12.732
381.09	13.008
381.45	12.159
381.81	13.583
382.17	13.005
382.53	12.749
382.89	12.980
383.25	12.485
383.61	12.558
383.97	13.015
384.32	13.158
384.68	12.761
385.04	12.608
385.40	12.905
385.76	12.544
386.12	13.046
386.48	12.941
386.83	13.945
387.19	12.399
387.55	12.500
387.91	13.014
388.27	13.453
388.62	13.345
388.98	12.465
389.34	13.966
389.70	12.783
390.06	13.144
390.42	13.193
390.77	13.847
391.13	13.439
391.49	13.225
391.85	12.667
392.20	13.286
392.56	13.644
392.92	13.250
393.28	13.709
393.64	13.073
393.99	13.364
394.35	13.493
394.71	13.293
395.07	12.814
395.42	13.592
395.78	13.772
396.14	14.023
396.50	13.599
396.85	12.343
397.21	13.136
397.57	14.075
397.92	13.402
398.28	12.819
398.64	12.643
399.00	13.455
399.35	12.984
399.71	12.880
400.07	13.644
400.42	13.271
400.78	12.905
401.14	14.058
401.49	13.758
401.85	13.953
402.21	14.311
402.57	12.969
402.92	12.766
403.28	12.237
403.63	12.768
403.99	13.183
404.35	13.303
404.70	13.201
405.06	13.424
405.42	13.583
405.77	14.231
406.13	12.642
406.49	12.669
406.84	13.850
407.20	13.918
407.55	12.659
407.91	13.325
408.27	13.310
408.62	12.740
408.98	13.639
409.34	12.727
409.69	13.473
410.05	13.130
410.40	13.341
410.76	13.124
411.11	14.261
411.47	13.943
411.83	13.639
412.18	13.494
412.54	13.871
412.89	13.620
413.25	13.883
413.60	12.751
413.96	12.238
414.31	12.861
414.67	13.357
415.03	13.538
415.38	13.556
415.74	13.622
416.09	13.510
416.45	13.275
416.80	13.464
417.16	13.729
417.51	14.010
417.87	13.550
418.22	13.533
418.58	12.949
418.93	13.737
419.29	12.885
419.64	13.205
420.00	13.175
420.35	14.318
420.71	12.809
421.06	12.823
421.42	13.589
421.77	12.978
422.12	13.584
422.48	12.903
422.83	13.417
423.19	12.679
423.54	12.832
423.90	12.866
424.25	13.653
424.61	12.285
424.96	12.740
425.31	13.482
425.67	13.741
426.02	13.226
426.38	12.687
426.73	12.612
427.09	13.783
427.44	12.671
427.79	13.101
428.15	12.842
428.50	11.854
428.85	12.744
429.21	13.723
429.56	12.636
429.92	13.612
430.27	13.060
430.62	12.897
430.98	13.281
431.33	12.952
431.68	12.835
432.04	13.357
432.39	12.855
432.74	13.242
433.10	13.791
433.45	12.486
433.80	12.715
434.16	13.843
434.51	13.052
434.86	13.084
435.22	13.124
435.57	13.325
435.92	14.246
436.28	12.856
436.63	13.435
436.98	13.312
437.34	12.965
437.69	13.209
438.04	13.326
438.39	13.613
438.75	12.507
439.10	13.689
439.45	14.198
439.81	12.938
440.16	13.083
440.51	13.099
440.86	12.563
441.22	12.969
441.57	12.631
441.92	13.676
442.27	13.283
442.63	13.612
442.98	13.394
443.33	12.888
443.68	13.528
444.03	13.688
444.39	13.916
444.74	13.629
445.09	13.381
445.44	13.330
445.79	13.937
446.15	13.412
446.50	13.798
446.85	13.862
447.20	13.540
447.55	13.180
447.91	13.246
448.26	13.055
448.61	12.806
448.96	14.002
449.31	13.309
449.66	12.745
450.02	13.238
450.37	13.692
450.72	13.617
451.07	14.237
451.42	12.478
451.77	13.285
452.12	13.600
452.47	12.894
452.83	14.189
453.18	12.960
453.53	13.153
453.88	13.308
454.23	13.107
454.58	13.929
454.93	13.592
455.28	13.666
455.63	13.701
455.98	14.134
456.34	13.369
456.69	13.169
457.04	13.534
457.39	13.304
457.74	13.647
458.09	12.905
458.44	13.093
458.79	13.667
459.14	13.057
459.49	13.639
459.84	12.854
460.19	12.660
460.54	14.140
460.89	13.870
461.24	13.046
461.59	13.614
461.94	12.835
462.29	14.110
462.64	13.639
462.99	13.685
463.34	13.498
463.69	13.658
464.04	13.841
464.39	13.229
464.74	13.284
465.09	12.687
465.44	13.680
465.79	13.326
466.14	13.132
466.49	13.368
466.84	14.050
467.19	13.526
467.54	13.455
467.89	13.046
468.24	13.740
468.59	13.260
468.94	12.995
469.29	13.137
469.64	13.414
469.99	13.958
470.34	13.676
470.68	13.534
471.03	13.883
471.38	14.061
471.73	13.784
472.08	13.579
472.43	14.088
472.78	13.665
473.13	12.642
473.48	13.897
473.83	13.175
474.17	12.837
474.52	13.109
474.87	13.677
475.22	13.352
475.57	13.707
475.92	13.290
476.27	13.419
476.61	13.603
476.96	13.295
477.31	13.614
477.66	13.379
478.01	13.371
478.36	13.659
478.70	13.547
479.05	13.753
479.40	13.031
479.75	13.929
480.10	13.927
480.45	14.084
480.79	13.560
481.14	13.281
481.49	13.221
481.84	13.925
482.19	13.505
482.53	13.599
482.88	14.045
483.23	13.384
483.58	12.707
483.92	13.209
484.27	13.336
484.62	12.995
484.97	13.841
485.31	12.918
485.66	12.449
486.01	12.465
486.36	13.072
486.70	13.680
487.05	13.689
487.40	13.420
487.75	13.511
488.09	13.497
488.44	13.409
488.79	13.963
489.13	14.193
489.48	12.854
489.83	12.837
490.17	13.528
490.52	13.259
490.87	13.579
491.22	13.648
491.56	13.396
491.91	13.912
492.26	13.457
492.60	13.118
492.95	13.339
493.30	13.671
493.64	13.622
493.99	14.167
494.34	12.805
494.68	13.448
495.03	14.009
495.37	13.449
495.72	13.605
496.07	14.330
496.41	13.213
496.76	13.761
497.11	13.163
497.45	13.768
497.80	13.505
498.14	13.469
498.49	13.603
498.84	13.437
499.18	14.035
499.53	13.812
499.87	13.626
500.22	12.956
500.56	13.360
500.91	14.233
501.26	13.818
501.60	12.992
501.95	13.591
502.29	13.646
502.64	13.555
502.98	13.072
503.33	13.391
503.67	12.909
504.02	13.792
504.36	13.628
504.71	13.137
505.06	13.233
505.40	13.665
505.75	14.071
506.09	14.411
506.44	13.417
506.78	13.670
507.13	13.555
507.47	13.974
507.82	13.400
508.16	13.098
508.51	12.752
508.85	13.793
509.19	13.643
509.54	14.217
509.88	13.259
510.23	12.967
510.57	14.016
510.92	13.740
511.26	13.083
511.61	13.134
511.95	13.177
512.30	13.737
512.64	13.943
512.98	13.657
513.33	14.466
513.67	14.074
514.02	14.205
514.36	13.350
514.70	13.646
515.05	14.338
515.39	14.278
515.74	14.687
516.08	13.735
516.42	14.286
516.77	13.565
517.11	13.976
517.46	13.998
517.80	14.057
518.14	14.363
518.49	13.991
518.83	14.210
519.17	13.570
519.52	14.361
519.86	14.572
520.20	14.217
520.55	13.910
520.89	14.133
521.23	13.959
521.58	14.068
521.92	14.108
522.26	13.918
522.61	14.815
522.95	13.899
523.29	14.080
523.64	14.350
523.98	15.060
524.32	14.785
524.66	14.286
525.01	14.213
525.35	13.211
525.69	14.211
526.04	13.949
526.38	14.713
526.72	14.821
527.06	14.487
527.41	13.936
527.75	14.192
528.09	14.345
528.43	13.854
528.78	13.468
529.12	14.278
529.46	13.378
529.80	13.959
530.15	14.609
530.49	13.642
530.83	15.053
531.17	13.620
531.51	14.440
531.86	14.844
532.20	14.207
532.54	14.063
532.88	13.758
533.22	14.143
533.57	13.791
533.91	13.749
534.25	13.284
534.59	13.793
534.93	13.752
535.27	13.465
535.62	14.781
535.96	14.003
536.30	14.924
536.64	14.655
536.98	14.453
537.32	15.185
537.66	14.473
538.01	14.502
538.35	14.373
538.69	13.942
539.03	15.573
539.37	14.252
539.71	14.294
540.05	14.628
540.39	14.487
540.73	13.783
541.07	14.960
541.42	14.117
541.76	13.701
542.10	13.571
542.44	13.398
542.78	14.051
543.12	14.184
543.46	14.164
543.80	13.369
544.14	13.884
544.48	14.480
544.82	13.764
545.16	14.490
545.50	12.762
545.84	13.166
546.18	14.444
546.52	13.503
546.86	14.340
547.20	14.186
547.54	13.858
547.88	13.502
548.22	13.684
548.56	14.511
548.90	14.448
549.24	13.921
549.58	14.700
549.92	13.712
550.26	14.693
550.60	14.295
550.94	14.554
551.28	14.587
551.62	14.353
551.96	13.916
552.30	14.595
552.64	14.375
552.98	14.223
553.32	14.405
553.66	14.598
554.00	14.817
554.34	14.221
554.68	13.428
555.02	14.652
555.36	15.122
555.69	13.389
556.03	13.241
556.37	15.081
556.71	14.077
557.05	14.633
557.39	14.599
557.73	14.069
558.07	13.576
558.41	13.953
558.75	14.131
559.08	14.683
559.42	13.855
559.76	14.858
560.10	14.869
560.44	14.644
560.78	15.438
561.12	14.286
561.45	14.720
561.79	14.164
562.13	14.849
562.47	13.748
562.81	14.494
563.15	13.889
563.48	13.362
563.82	14.027
564.16	14.355
564.50	14.184
564.84	14.100
565.17	14.588
565.51	13.809
565.85	13.658
566.19	13.594
566.52	13.517
566.86	14.658
567.20	13.377
567.54	13.755
567.88	14.373
568.21	13.883
568.55	14.149
568.89	13.981
569.23	14.068
569.56	13.912
569.90	13.685
570.24	12.951
570.57	13.438
570.91	13.135
571.25	13.885
571.59	13.832
571.92	13.220
572.26	13.182
572.60	13.514
572.93	13.805
573.27	13.627
573.61	13.526
573.95	13.207
574.28	13.245
574.62	13.392
574.96	12.903
575.29	13.241
575.63	13.167
575.97	13.581
576.30	13.003
576.64	13.243
576.98	13.303
577.31	13.579
577.65	13.372
577.98	12.782
578.32	13.219
578.66	13.230
578.99	13.148
579.33	13.473
579.67	12.897
580.00	13.284
580.34	13.198
580.67	13.151
581.01	13.414
581.35	12.955
581.68	13.185
582.02	13.160
582.35	13.548
582.69	13.154
583.02	13.493
583.36	13.329
583.70	13.224
584.03	13.487
584.37	13.824
584.70	12.934
585.04	12.950
585.37	13.124
585.71	13.269
586.04	13.364
586.38	13.162
586.72	12.936
587.05	12.842
587.39	13.588
587.72	13.158
588.06	13.395
588.39	13.318
588.73	13.413
589.06	13.600
589.40	13.706
589.73	13.303
590.07	13.959
590.40	13.624
590.73	13.856
591.07	14.110
591.40	13.453
591.74	12.997
592.07	13.926
592.41	13.762
592.74	13.383
593.08	13.599
593.41	13.794
593.75	13.621
594.08	13.663
594.41	13.686
594.75	13.517
595.08	13.156
595.42	13.701
595.75	13.949
596.09	13.385
596.42	13.651
596.75	13.933
597.09	14.101
597.42	13.309
597.75	13.054
598.09	13.889
598.42	13.631
598.76	13.336
599.09	13.421
599.42	13.309
599.76	13.305
600.09	13.313
600.42	13.380
600.76	13.375
601.09	13.342
601.42	13.079
601.76	13.586
602.09	13.259
602.42	13.304
602.76	13.616
603.09	13.363
603.42	13.548
603.76	13.002
604.09	14.088
604.42	13.688
604.76	13.584
605.09	14.001
605.42	13.995
605.75	13.192
606.09	13.326
606.42	13.353
606.75	13.306
607.09	13.095
607.42	13.873
607.75	13.365
608.08	13.299
608.42	13.301
608.75	13.350
609.08	13.625
609.41	14.248
609.75	13.616
610.08	13.500
610.41	13.679
610.74	13.193
611.07	13.588
611.41	13.004
611.74	13.256
612.07	13.885
612.40	13.973
612.73	13.692
613.07	12.958
613.40	13.090
613.73	14.059
614.06	13.248
614.39	13.120
614.72	12.955
615.06	13.090
615.39	13.195
615.72	13.507
616.05	13.356
616.38	14.127
616.71	14.054
617.05	13.365
617.38	14.393
617.71	13.769
618.04	13.600
618.37	14.317
618.70	13.235
619.03	13.142
619.36	13.502
619.69	14.478
620.03	13.685
620.36	13.374
620.69	13.572
621.02	13.517
621.35	14.659
621.68	14.027
622.01	13.452
622.34	13.180
622.67	12.990
623.00	12.888
623.33	13.404
623.66	14.202
623.99	13.101
624.32	14.945
624.65	13.192
624.99	13.589
625.32	14.762
625.65	14.767
625.98	13.695
626.31	14.458
626.64	13.700
626.97	14.104
627.30	12.149
627.63	13.203
627.96	15.165
628.29	14.475
628.62	14.106
628.95	13.935
629.28	14.019
629.61	14.141
629.94	12.385
630.26	12.458
630.59	13.817
630.92	13.853
631.25	15.116
631.58	14.313
631.91	13.683
632.24	14.313
632.57	13.757
632.90	13.641
633.23	12.959
633.56	13.878
633.89	12.810
634.22	15.385
634.55	13.257
