SpectraSuite Data File
++++++++++++++++++++++++++++++++++++
Date: Thu May 14 14:43:40 PDT 2015
User: schluterlab
Dark Spectrum Present: Yes
Reference Spectrum Present: Yes
Number of Sampled Component Spectra: 1
Spectrometers: USB2E3373
Integration Time (usec): 3000 (USB2E3373)
Spectra Averaged: 3 (USB2E3373)
Boxcar Smoothing: 0 (USB2E3373)
Correct for Electrical Dark: No (USB2E3373)
Strobe/Lamp Enabled: No (USB2E3373)
Correct for Detector Non-linearity: No (USB2E3373)
Correct for Stray Light: No (USB2E3373)
Number of Pixels in Processed Spectrum: 2048
>>>>>Begin Processed Spectral Data<<<<<
178.53	0.000
178.91	-0.000
179.29	-500.000
179.67	-200.000
180.04	64.286
180.42	-20.000
180.80	140.000
181.18	-200.000
181.56	1200.000
181.94	-100.000
182.31	-25.000
182.69	-166.667
183.07	300.000
183.45	225.000
183.83	16.667
184.20	100.000
184.58	100.000
184.96	100.000
185.34	33.333
185.72	180.000
186.09	-44.444
186.47	400.000
186.85	20.000
187.23	-22.222
187.61	-600.000
187.98	-20.000
188.36	175.000
188.74	-50.000
189.12	266.667
189.49	93.750
189.87	12.500
190.25	88.889
190.63	120.000
191.00	-100.000
191.38	0.000
191.76	-175.000
192.14	-50.000
192.51	-200.000
192.89	116.667
193.27	0.000
193.65	28.571
194.02	-300.000
194.40	100.000
194.78	28.571
195.15	0.000
195.53	45.455
195.91	0.000
196.29	200.000
196.66	30.769
197.04	200.000
197.42	14.286
197.79	250.000
198.17	37.500
198.55	42.857
198.92	-11.111
199.30	-25.000
199.68	109.091
200.05	50.000
200.43	-300.000
200.81	14.286
201.18	0.000
201.56	55.556
201.94	0.000
202.31	166.667
202.69	44.444
203.07	-400.000
203.44	111.111
203.82	25.000
204.19	25.000
204.57	-66.667
204.95	-25.000
205.32	-100.000
205.70	-25.000
206.08	33.333
206.45	33.333
206.83	40.000
207.20	100.000
207.58	-40.000
207.96	16.667
208.33	216.667
208.71	-33.333
209.08	183.333
209.46	0.000
209.84	83.333
210.21	250.000
210.59	-700.000
210.96	100.000
211.34	175.000
211.71	-12.500
212.09	-600.000
212.46	0.000
212.84	250.000
213.22	60.000
213.59	-100.000
213.97	10.000
214.34	-66.667
214.72	-33.333
215.09	100.000
215.47	0.000
215.84	71.429
216.22	-100.000
216.59	120.000
216.97	100.000
217.34	150.000
217.72	12.500
218.09	250.000
218.47	125.000
218.84	0.000
219.22	100.000
219.59	29.412
219.97	75.000
220.34	200.000
220.72	66.667
221.09	53.846
221.47	333.333
221.84	-40.000
222.22	57.143
222.59	0.000
222.97	125.000
223.34	-60.000
223.72	-100.000
224.09	175.000
224.46	100.000
224.84	80.000
225.21	-71.429
225.59	75.000
225.96	-75.000
226.34	42.308
226.71	16.667
227.08	250.000
227.46	86.667
227.83	-25.000
228.21	36.842
228.58	-25.000
228.95	250.000
229.33	66.667
229.70	180.000
230.08	73.684
230.45	-40.000
230.82	66.667
231.20	42.857
231.57	91.667
231.95	54.545
232.32	81.818
232.69	30.000
233.07	125.000
233.44	11.765
233.81	30.000
234.19	38.889
234.56	59.091
234.93	51.724
235.31	84.211
235.68	61.111
236.05	15.000
236.43	73.077
236.80	100.000
237.17	92.593
237.55	12.121
237.92	50.000
238.29	9.677
238.67	25.000
239.04	72.222
239.41	21.429
239.79	56.522
240.16	46.296
240.53	39.130
240.91	27.451
241.28	54.098
241.65	59.701
242.02	44.595
242.40	44.615
242.77	52.000
243.14	48.780
243.51	46.053
243.89	42.308
244.26	37.624
244.63	50.000
245.00	41.121
245.38	40.351
245.75	31.858
246.12	47.619
246.49	37.984
246.87	40.000
247.24	37.748
247.61	42.763
247.98	33.557
248.36	38.889
248.73	42.331
249.10	42.077
249.47	42.786
249.84	45.026
250.22	40.415
250.59	44.444
250.96	43.636
251.33	38.776
251.70	44.017
252.08	37.500
252.45	43.033
252.82	35.537
253.19	39.844
253.56	36.122
253.94	35.000
254.31	39.394
254.68	40.909
255.05	38.111
255.42	39.116
255.79	38.511
256.16	39.073
256.54	38.079
256.91	41.967
257.28	41.639
257.65	37.261
258.02	38.348
258.39	37.037
258.76	43.119
259.14	41.092
259.51	37.464
259.88	38.527
260.25	39.167
260.62	38.356
260.99	41.257
261.36	39.678
261.73	37.666
262.10	40.934
262.47	38.606
262.85	42.929
263.22	39.481
263.59	35.526
263.96	37.852
264.33	37.084
264.70	42.963
265.07	39.857
265.44	38.776
265.81	39.583
266.18	39.002
266.55	38.170
266.92	35.308
267.29	40.700
267.66	40.133
268.03	39.738
268.40	39.040
268.77	35.308
269.14	37.445
269.51	41.447
269.88	39.549
270.25	37.827
270.62	43.038
270.99	37.980
271.36	38.614
271.73	38.114
272.10	36.874
272.47	39.479
272.84	38.956
273.21	37.675
273.58	38.508
273.95	36.731
274.32	34.601
274.69	38.491
275.06	39.377
275.43	34.750
275.80	38.272
276.17	36.296
276.54	36.194
276.91	35.778
277.28	38.336
277.65	35.727
278.02	37.868
278.39	37.681
278.76	36.555
279.13	38.652
279.50	34.192
279.87	38.462
280.23	33.451
280.60	39.322
280.97	36.184
281.34	37.351
281.71	38.579
282.08	35.880
282.45	36.825
282.82	32.653
283.19	35.218
283.56	35.410
283.92	37.387
284.29	36.493
284.66	37.110
285.03	33.654
285.40	35.394
285.77	35.449
286.14	37.405
286.51	36.073
286.87	33.491
287.24	34.789
287.61	35.277
287.98	33.837
288.35	36.391
288.72	34.024
289.08	34.553
289.45	31.213
289.82	33.886
290.19	34.626
290.56	34.648
290.93	32.810
291.29	31.405
291.66	33.609
292.03	31.615
292.40	32.245
292.77	29.380
293.13	32.612
293.50	29.829
293.87	30.470
294.24	32.800
294.60	31.353
294.97	28.859
295.34	33.291
295.71	29.508
296.08	29.587
296.44	29.902
296.81	30.085
297.18	29.141
297.55	29.009
297.91	28.233
298.28	27.607
298.65	29.845
299.02	26.328
299.38	29.405
299.75	26.869
300.12	28.356
300.48	27.765
300.85	28.121
301.22	28.076
301.59	26.941
301.95	27.571
302.32	29.444
302.69	27.930
303.05	30.141
303.42	29.490
303.79	27.292
304.15	27.655
304.52	28.647
304.89	28.901
305.25	27.019
305.62	27.064
305.99	28.247
306.35	26.512
306.72	30.300
307.09	27.817
307.45	28.778
307.82	27.952
308.19	28.052
308.55	29.412
308.92	28.822
309.29	29.023
309.65	29.727
310.02	28.911
310.38	27.854
310.75	30.291
311.12	30.201
311.48	30.010
311.85	30.294
312.22	30.645
312.58	30.423
312.95	30.210
313.31	30.443
313.68	30.952
314.05	31.888
314.41	33.060
314.78	32.425
315.14	32.123
315.51	34.257
315.87	32.133
316.24	33.699
316.61	34.813
316.97	33.394
317.34	33.598
317.70	36.157
318.07	35.979
318.43	35.204
318.80	36.037
319.16	36.652
319.53	36.332
319.89	36.372
320.26	37.278
320.62	37.234
320.99	39.058
321.35	39.279
321.72	40.837
322.08	39.225
322.45	41.644
322.81	41.065
323.18	41.239
323.54	41.810
323.91	44.395
324.27	44.406
324.64	46.012
325.00	44.444
325.37	47.584
325.73	48.182
326.10	48.013
326.46	50.814
326.83	51.401
327.19	52.756
327.56	52.411
327.92	53.265
328.29	54.194
328.65	56.868
329.01	56.937
329.38	58.551
329.74	59.503
330.11	60.274
330.47	58.719
330.84	61.068
331.20	62.667
331.56	62.998
331.93	65.105
332.29	64.153
332.66	64.452
333.02	63.317
333.38	64.430
333.75	64.562
334.11	66.389
334.48	66.007
334.84	66.270
335.20	66.583
335.57	66.779
335.93	67.851
336.29	64.559
336.66	65.601
337.02	68.060
337.38	67.432
337.75	67.934
338.11	68.293
338.47	66.915
338.84	68.274
339.20	67.650
339.56	67.381
339.93	69.787
340.29	65.620
340.65	66.910
341.02	68.875
341.38	68.634
341.74	67.393
342.11	69.509
342.47	66.958
342.83	69.807
343.20	71.791
343.56	70.409
343.92	69.496
344.28	68.516
344.65	68.992
345.01	68.799
345.37	69.129
345.73	69.213
346.10	68.877
346.46	69.146
346.82	69.288
347.19	68.220
347.55	69.803
347.91	69.837
348.27	69.727
348.63	68.469
349.00	68.829
349.36	68.996
349.72	69.866
350.08	69.316
350.45	69.582
350.81	68.100
351.17	70.150
351.53	68.992
351.89	69.856
352.26	69.701
352.62	69.328
352.98	69.924
353.34	70.276
353.70	69.800
354.07	70.790
354.43	71.147
354.79	69.185
355.15	70.419
355.51	71.126
355.87	70.232
356.24	73.004
356.60	69.697
356.96	72.053
357.32	70.409
357.68	70.498
358.04	72.006
358.40	71.045
358.77	70.322
359.13	70.236
359.49	70.037
359.85	70.848
360.21	71.736
360.57	70.711
360.93	70.592
361.29	70.667
361.66	72.556
362.02	71.816
362.38	71.820
362.74	71.089
363.10	72.421
363.46	73.823
363.82	72.372
364.18	74.595
364.54	73.167
364.90	72.040
365.26	74.621
365.62	73.267
365.98	73.928
366.35	72.349
366.71	75.102
367.07	73.207
367.43	73.079
367.79	74.320
368.15	76.054
368.51	74.087
368.87	73.155
369.23	73.000
369.59	74.385
369.95	73.293
370.31	76.367
370.67	74.622
371.03	74.723
371.39	73.539
371.75	76.891
372.11	75.949
372.47	76.100
372.83	74.869
373.19	74.917
373.55	75.881
373.91	76.074
374.27	75.162
374.63	77.808
374.99	75.928
375.35	76.364
375.71	76.839
376.07	77.276
376.42	77.267
376.78	77.626
377.14	78.540
377.50	79.696
377.86	78.202
378.22	78.383
378.58	78.954
378.94	77.700
379.30	77.387
379.66	78.718
380.02	80.150
380.38	81.106
380.74	78.873
381.09	79.675
381.45	79.432
381.81	82.201
382.17	81.354
382.53	80.351
382.89	79.402
383.25	82.063
383.61	81.655
383.97	81.037
384.32	82.416
384.68	80.394
385.04	82.302
385.40	84.561
385.76	83.118
386.12	81.867
386.48	83.882
386.83	84.088
387.19	82.851
387.55	84.096
387.91	84.075
388.27	84.411
388.62	84.364
388.98	82.290
389.34	85.916
389.70	85.764
390.06	85.198
390.42	84.458
390.77	84.889
391.13	84.624
391.49	85.205
391.85	83.939
392.20	85.172
392.56	84.997
392.92	83.806
393.28	86.512
393.64	85.587
393.99	86.229
394.35	87.442
394.71	85.329
395.07	85.808
395.42	86.065
395.78	87.873
396.14	86.572
396.50	86.936
396.85	87.716
397.21	87.811
397.57	85.689
397.92	86.770
398.28	86.420
398.64	86.499
399.00	86.230
399.35	85.969
399.71	87.174
400.07	88.321
400.42	87.660
400.78	88.252
401.14	87.194
401.49	87.834
401.85	90.233
402.21	89.513
402.57	89.202
402.92	88.593
403.28	87.998
403.63	88.544
403.99	87.352
404.35	86.470
404.70	87.762
405.06	87.228
405.42	87.881
405.77	88.277
406.13	89.411
406.49	89.077
406.84	87.812
407.20	88.317
407.55	88.976
407.91	89.378
408.27	87.927
408.62	88.598
408.98	87.464
409.34	87.625
409.69	89.370
410.05	89.215
410.40	89.849
410.76	88.446
411.11	90.006
411.47	90.725
411.83	89.771
412.18	90.783
412.54	89.034
412.89	87.893
413.25	90.011
413.60	89.604
413.96	91.026
414.31	88.272
414.67	87.835
415.03	89.969
415.38	91.677
415.74	88.882
416.09	89.636
416.45	86.850
416.80	86.536
417.16	89.464
417.51	89.290
417.87	91.171
418.22	90.060
418.58	90.520
418.93	90.803
419.29	91.800
419.64	88.956
420.00	90.564
420.35	89.220
420.71	89.374
421.06	89.534
421.42	90.940
421.77	88.691
422.12	89.641
422.48	90.323
422.83	90.964
423.19	90.928
423.54	92.533
423.90	89.785
424.25	91.520
424.61	91.160
424.96	91.598
425.31	92.357
425.67	90.660
426.02	91.367
426.38	91.217
426.73	90.792
427.09	90.138
427.44	91.371
427.79	91.376
428.15	91.096
428.50	90.562
428.85	90.930
429.21	90.904
429.56	92.053
429.92	90.369
430.27	91.470
430.62	90.865
430.98	91.195
431.33	90.420
431.68	91.427
432.04	92.788
432.39	92.876
432.74	92.523
433.10	93.618
433.45	90.022
433.80	92.221
434.16	91.374
434.51	94.142
434.86	94.680
435.22	92.508
435.57	95.342
435.92	91.764
436.28	93.003
436.63	94.320
436.98	91.036
437.34	92.785
437.69	93.396
438.04	92.332
438.39	92.993
438.75	91.533
439.10	93.499
439.45	92.342
439.81	92.316
440.16	92.547
440.51	91.918
440.86	91.495
441.22	92.176
441.57	94.549
441.92	91.028
442.27	95.000
442.63	93.343
442.98	92.369
443.33	92.635
443.68	93.459
444.03	94.262
444.39	94.360
444.74	93.568
445.09	91.840
445.44	95.943
445.79	93.487
446.15	94.245
446.50	94.160
446.85	92.607
447.20	94.391
447.55	95.345
447.91	92.932
448.26	93.076
448.61	92.880
448.96	95.386
449.31	91.941
449.66	94.281
450.02	94.146
450.37	93.447
450.72	95.371
451.07	92.768
451.42	92.837
451.77	93.496
452.12	94.695
452.47	93.999
452.83	95.833
453.18	93.345
453.53	93.969
453.88	93.484
454.23	94.463
454.58	95.299
454.93	94.053
455.28	95.424
455.63	93.235
455.98	93.464
456.34	94.111
456.69	94.944
457.04	96.454
457.39	94.900
457.74	95.526
458.09	94.948
458.44	94.666
458.79	92.264
459.14	94.127
459.49	95.586
459.84	95.016
460.19	94.059
460.54	95.684
460.89	96.030
461.24	95.575
461.59	94.411
461.94	93.668
462.29	97.368
462.64	94.146
462.99	94.727
463.34	95.977
463.69	93.552
464.04	94.330
464.39	95.348
464.74	94.356
465.09	93.541
465.44	93.455
465.79	93.231
466.14	93.486
466.49	94.368
466.84	96.804
467.19	94.509
467.54	94.007
467.89	93.333
468.24	94.848
468.59	94.731
468.94	93.590
469.29	95.261
469.64	94.978
469.99	96.112
470.34	95.050
470.68	95.899
471.03	96.464
471.38	95.749
471.73	98.309
472.08	95.622
472.43	95.485
472.78	97.040
473.13	96.207
473.48	95.650
473.83	96.053
474.17	94.021
474.52	97.474
474.87	92.802
475.22	95.268
475.57	93.718
475.92	93.977
476.27	94.835
476.61	93.769
476.96	95.203
477.31	95.545
477.66	96.170
478.01	95.221
478.36	94.915
478.70	94.532
479.05	96.779
479.40	95.410
479.75	94.524
480.10	94.173
480.45	94.075
480.79	94.331
481.14	94.485
481.49	95.911
481.84	95.126
482.19	94.452
482.53	95.890
482.88	96.367
483.23	95.242
483.58	95.764
483.92	94.016
484.27	95.089
484.62	93.771
484.97	94.751
485.31	92.714
485.66	88.064
486.01	87.221
486.36	89.101
486.70	92.614
487.05	95.602
487.40	94.195
487.75	94.606
488.09	96.168
488.44	93.742
488.79	94.503
489.13	94.895
489.48	93.825
489.83	93.964
490.17	94.249
490.52	93.144
490.87	94.543
491.22	95.884
491.56	93.643
491.91	95.334
492.26	94.418
492.60	94.797
492.95	94.866
493.30	95.966
493.64	94.437
493.99	95.351
494.34	94.120
494.68	93.062
495.03	94.934
495.37	95.340
495.72	94.921
496.07	95.223
496.41	93.951
496.76	95.288
497.11	95.584
497.45	95.425
497.80	94.936
498.14	95.193
498.49	95.496
498.84	94.790
499.18	94.197
499.53	95.336
499.87	94.769
500.22	95.191
500.56	95.187
500.91	96.201
501.26	96.045
501.60	95.404
501.95	94.225
502.29	95.305
502.64	95.015
502.98	94.737
503.33	94.730
503.67	94.461
504.02	93.783
504.36	96.515
504.71	95.039
505.06	94.770
505.40	95.841
505.75	96.129
506.09	94.521
506.44	96.379
506.78	95.917
507.13	95.343
507.47	96.968
507.82	95.597
508.16	95.459
508.51	95.030
508.85	97.874
509.19	95.784
509.54	96.254
509.88	95.969
510.23	97.135
510.57	96.617
510.92	97.339
511.26	94.853
511.61	95.509
511.95	94.973
512.30	95.519
512.64	94.303
512.98	96.848
513.33	96.270
513.67	94.799
514.02	96.014
514.36	98.056
514.70	96.823
515.05	97.237
515.39	97.323
515.74	97.508
516.08	96.619
516.42	97.959
516.77	97.319
517.11	95.874
517.46	97.243
517.80	98.076
518.14	97.769
518.49	96.258
518.83	93.614
519.17	95.423
519.52	94.759
519.86	96.357
520.20	95.314
520.55	96.605
520.89	96.959
521.23	96.817
521.58	98.362
521.92	96.884
522.26	96.506
522.61	97.164
522.95	96.482
523.29	98.103
523.64	96.357
523.98	96.805
524.32	98.510
524.66	99.317
525.01	96.433
525.35	97.358
525.69	96.984
526.04	95.178
526.38	97.126
526.72	96.597
527.06	97.889
527.41	97.901
527.75	98.575
528.09	97.226
528.43	96.329
528.78	94.624
529.12	95.528
529.46	95.728
529.80	97.197
530.15	96.406
530.49	98.695
530.83	97.344
531.17	97.192
531.51	98.616
531.86	98.197
532.20	98.963
532.54	96.589
532.88	97.758
533.22	96.346
533.57	94.576
533.91	96.016
534.25	96.608
534.59	97.874
534.93	95.869
535.27	96.732
535.62	96.532
535.96	96.804
536.30	97.474
536.64	96.456
536.98	96.802
537.32	96.667
537.66	97.442
538.01	94.079
538.35	95.311
538.69	95.733
539.03	98.038
539.37	94.700
539.71	95.556
540.05	95.144
540.39	95.355
540.73	96.296
541.07	96.812
541.42	92.735
541.76	94.306
542.10	95.597
542.44	96.163
542.78	95.742
543.12	94.279
543.46	94.444
543.80	93.585
544.14	94.075
544.48	94.622
544.82	95.452
545.16	95.707
545.50	94.847
545.84	94.734
546.18	97.469
546.52	96.688
546.86	94.969
547.20	95.611
547.54	94.070
547.88	93.731
548.22	94.094
548.56	94.441
548.90	95.224
549.24	95.076
549.58	94.826
549.92	95.281
550.26	96.828
550.60	95.533
550.94	95.019
551.28	93.135
551.62	96.900
551.96	93.139
552.30	93.818
552.64	93.777
552.98	95.259
553.32	97.428
553.66	95.241
554.00	94.767
554.34	95.045
554.68	93.932
555.02	94.547
555.36	95.398
555.69	94.170
556.03	92.938
556.37	95.056
556.71	94.103
557.05	95.016
557.39	95.222
557.73	94.914
558.07	94.636
558.41	96.013
558.75	94.997
559.08	96.033
559.42	95.748
559.76	93.691
560.10	93.034
560.44	95.251
560.78	95.812
561.12	93.165
561.45	95.438
561.79	93.040
562.13	93.839
562.47	92.355
562.81	93.987
563.15	94.886
563.48	93.599
563.82	92.866
564.16	92.550
564.50	93.743
564.84	92.271
565.17	93.353
565.51	93.383
565.85	93.052
566.19	92.166
566.52	92.569
566.86	95.190
567.20	90.865
567.54	92.140
567.88	92.355
568.21	92.243
568.55	91.127
568.89	90.150
569.23	89.861
569.56	90.934
569.90	88.881
570.24	88.870
570.57	88.550
570.91	86.742
571.25	87.012
571.59	86.335
571.92	85.448
572.26	87.321
572.60	86.377
572.93	86.808
573.27	86.850
573.61	84.833
573.95	85.045
574.28	85.004
574.62	85.084
574.96	83.855
575.29	84.248
575.63	85.285
575.97	85.102
576.30	85.097
576.64	84.347
576.98	84.510
577.31	84.998
577.65	85.431
577.98	83.923
578.32	83.361
578.66	83.886
578.99	84.804
579.33	85.127
579.67	84.723
580.00	84.041
580.34	84.097
580.67	84.334
581.01	84.055
581.35	83.148
581.68	82.662
582.02	83.208
582.35	84.495
582.69	84.160
583.02	85.124
583.36	85.028
583.70	85.526
584.03	84.809
584.37	85.855
584.70	83.839
585.04	83.492
585.37	84.468
585.71	83.581
586.04	84.412
586.38	83.983
586.72	84.633
587.05	85.060
587.39	85.091
587.72	84.569
588.06	84.405
588.39	84.815
588.73	84.259
589.06	85.356
589.40	85.956
589.73	86.889
590.07	86.439
590.40	85.801
590.73	86.002
591.07	86.672
591.40	85.187
591.74	86.328
592.07	85.993
592.41	86.120
592.74	83.884
593.08	84.745
593.41	83.873
593.75	84.684
594.08	85.186
594.41	86.250
594.75	85.121
595.08	85.599
595.42	85.162
595.75	84.695
596.09	85.632
596.42	85.525
596.75	85.681
597.09	86.869
597.42	85.538
597.75	85.692
598.09	85.159
598.42	85.243
598.76	85.097
599.09	83.375
599.42	81.596
599.76	82.932
600.09	84.985
600.42	83.750
600.76	84.148
601.09	82.476
601.42	84.140
601.76	83.931
602.09	83.774
602.42	84.297
602.76	84.207
603.09	84.031
603.42	84.863
603.76	85.307
604.09	84.705
604.42	84.991
604.76	85.084
605.09	84.683
605.42	84.171
605.75	85.000
606.09	83.688
606.42	81.977
606.75	83.808
607.09	83.487
607.42	84.008
607.75	84.174
608.08	83.978
608.42	83.595
608.75	84.163
609.08	84.295
609.41	84.738
609.75	84.241
610.08	85.224
610.41	83.857
610.74	83.361
611.07	86.456
611.41	83.812
611.74	85.358
612.07	85.601
612.40	84.316
612.73	87.824
613.07	84.743
613.40	85.948
613.73	83.967
614.06	86.016
614.39	84.062
614.72	83.649
615.06	83.494
615.39	82.407
615.72	84.408
616.05	84.167
616.38	86.024
616.71	84.535
617.05	85.783
617.38	84.430
617.71	86.447
618.04	84.620
618.37	85.956
618.70	85.464
619.03	86.081
619.36	84.834
619.69	87.636
620.03	86.441
620.36	84.479
620.69	86.058
621.02	86.286
621.35	90.203
621.68	88.286
622.01	88.043
622.34	86.681
622.67	86.598
623.00	86.302
623.33	86.729
623.66	86.770
623.99	85.714
624.32	86.615
624.65	84.106
624.99	87.126
625.32	86.871
625.65	86.784
625.98	86.034
626.31	86.393
626.64	87.912
626.97	87.922
627.30	88.307
627.63	88.372
627.96	87.688
628.29	88.405
628.62	90.512
628.95	89.483
629.28	88.530
629.61	89.646
629.94	86.611
630.26	89.322
630.59	88.860
630.92	86.840
631.25	90.698
631.58	92.844
631.91	91.284
632.24	90.778
632.57	87.192
632.90	90.873
633.23	90.204
633.56	92.143
633.89	91.529
634.22	92.412
634.55	91.232
