SpectraSuite Data File
++++++++++++++++++++++++++++++++++++
Date: Thu May 14 14:28:12 PDT 2015
User: schluterlab
Dark Spectrum Present: Yes
Reference Spectrum Present: Yes
Number of Sampled Component Spectra: 1
Spectrometers: USB2E3373
Integration Time (usec): 3000 (USB2E3373)
Spectra Averaged: 3 (USB2E3373)
Boxcar Smoothing: 0 (USB2E3373)
Correct for Electrical Dark: No (USB2E3373)
Strobe/Lamp Enabled: No (USB2E3373)
Correct for Detector Non-linearity: No (USB2E3373)
Correct for Stray Light: No (USB2E3373)
Number of Pixels in Processed Spectrum: 2048
>>>>>Begin Processed Spectral Data<<<<<
178.53	0.000
178.91	-57.143
179.29	200.000
179.67	-400.000
180.04	71.429
180.42	-170.000
180.80	-80.000
181.18	1300.000
181.56	2100.000
181.94	-425.000
182.31	300.000
182.69	-133.333
183.07	650.000
183.45	-175.000
183.83	150.000
184.20	433.333
184.58	-1000.000
184.96	400.000
185.34	177.778
185.72	540.000
186.09	-0.000
186.47	-500.000
186.85	20.000
187.23	100.000
187.61	1000.000
187.98	-100.000
188.36	-150.000
188.74	275.000
189.12	500.000
189.49	75.000
189.87	50.000
190.25	166.667
190.63	300.000
191.00	44.444
191.38	0.000
191.76	175.000
192.14	116.667
192.51	-700.000
192.89	300.000
193.27	0.000
193.65	142.857
194.02	1100.000
194.40	257.143
194.78	-71.429
195.15	0.000
195.53	127.273
195.91	0.000
196.29	375.000
196.66	161.538
197.04	400.000
197.42	200.000
197.79	200.000
198.17	150.000
198.55	114.286
198.92	66.667
199.30	-12.500
199.68	127.273
200.05	164.286
200.43	750.000
200.81	-157.143
201.18	0.000
201.56	-22.222
201.94	0.000
202.31	-500.000
202.69	144.444
203.07	-1100.000
203.44	144.444
203.82	350.000
204.19	116.667
204.57	116.667
204.95	200.000
205.32	1400.000
205.70	-375.000
206.08	200.000
206.45	216.667
206.83	40.000
207.20	100.000
207.58	80.000
207.96	116.667
208.33	133.333
208.71	-33.333
209.08	266.667
209.46	0.000
209.84	-83.333
210.21	-450.000
210.59	-950.000
210.96	-300.000
211.34	625.000
211.71	187.500
212.09	1400.000
212.46	0.000
212.84	350.000
213.22	120.000
213.59	300.000
213.97	160.000
214.34	200.000
214.72	-150.000
215.09	375.000
215.47	0.000
215.84	-185.714
216.22	-50.000
216.59	300.000
216.97	200.000
217.34	200.000
217.72	112.500
218.09	200.000
218.47	75.000
218.84	0.000
219.22	-300.000
219.59	111.765
219.97	100.000
220.34	-350.000
220.72	66.667
221.09	92.308
221.47	266.667
221.84	70.000
222.22	57.143
222.59	0.000
222.97	200.000
223.34	100.000
223.72	600.000
224.09	375.000
224.46	175.000
224.84	140.000
225.21	171.429
225.59	250.000
225.96	-50.000
226.34	65.385
226.71	33.333
227.08	450.000
227.46	100.000
227.83	175.000
228.21	136.842
228.58	-25.000
228.95	-250.000
229.33	133.333
229.70	90.000
230.08	115.789
230.45	10.000
230.82	100.000
231.20	107.143
231.57	125.000
231.95	90.909
232.32	209.091
232.69	50.000
233.07	225.000
233.44	52.941
233.81	90.000
234.19	172.222
234.56	81.818
234.93	75.862
235.31	42.105
235.68	22.222
236.05	20.000
236.43	61.538
236.80	120.000
237.17	22.222
237.55	42.424
237.92	90.000
238.29	54.839
238.67	15.909
239.04	19.444
239.41	28.571
239.79	-4.348
240.16	16.667
240.53	28.261
240.91	11.765
241.28	4.918
241.65	13.433
242.02	20.270
242.40	6.154
242.77	17.333
243.14	4.878
243.51	-3.947
243.89	7.692
244.26	18.812
244.63	22.549
245.00	14.019
245.38	-3.509
245.75	-7.965
246.12	15.079
246.49	5.426
246.87	15.714
247.24	15.232
247.61	11.842
247.98	6.040
248.36	8.025
248.73	4.294
249.10	4.372
249.47	6.965
249.84	7.853
250.22	8.290
250.59	11.111
250.96	10.455
251.33	-1.531
251.70	8.120
252.08	3.750
252.45	5.328
252.82	5.785
253.19	1.563
253.56	5.323
253.94	2.692
254.31	4.545
254.68	7.692
255.05	4.235
255.42	4.422
255.79	2.913
256.16	4.305
256.54	2.318
256.91	5.574
257.28	3.934
257.65	-0.318
258.02	1.475
258.39	4.274
258.76	3.058
259.14	4.885
259.51	2.305
259.88	4.249
260.25	2.500
260.62	3.836
260.99	6.011
261.36	5.630
261.73	6.101
262.10	0.000
262.47	4.826
262.85	4.798
263.22	2.857
263.59	0.526
263.96	4.604
264.33	1.023
264.70	3.457
265.07	3.580
265.44	4.989
265.81	3.704
266.18	4.082
266.55	4.911
266.92	1.367
267.29	3.939
267.66	4.656
268.03	4.148
268.40	5.010
268.77	1.367
269.14	1.322
269.51	1.754
269.88	6.967
270.25	4.628
270.62	4.641
270.99	6.061
271.36	4.950
271.73	5.894
272.10	4.609
272.47	4.409
272.84	6.225
273.21	3.206
273.58	1.210
273.95	5.000
274.32	2.852
274.69	1.934
275.06	5.311
275.43	2.588
275.80	4.233
276.17	2.222
276.54	0.933
276.91	1.252
277.28	2.170
277.65	3.591
278.02	5.515
278.39	2.899
278.76	0.703
279.13	1.773
279.50	4.467
279.87	4.830
280.23	-1.585
280.60	3.220
280.97	3.618
281.34	1.528
281.71	3.384
282.08	2.658
282.45	3.110
282.82	1.099
283.19	0.646
283.56	1.148
283.92	3.303
284.29	4.739
284.66	3.120
285.03	1.603
285.40	2.318
285.77	1.858
286.14	4.885
286.51	1.979
286.87	2.370
287.24	3.464
287.61	2.242
287.98	1.208
288.35	3.402
288.72	2.219
289.08	4.539
289.45	2.959
289.82	3.313
290.19	3.305
290.56	3.662
290.93	1.284
291.29	2.066
291.66	2.893
292.03	0.543
292.40	3.537
292.77	2.561
293.13	3.383
293.50	0.131
293.87	2.685
294.24	3.067
294.60	2.276
294.97	1.477
295.34	2.433
295.71	3.153
296.08	1.809
296.44	1.225
296.81	1.827
297.18	2.615
297.55	2.594
297.91	0.949
298.28	1.777
298.65	2.140
299.02	2.361
299.38	3.547
299.75	3.621
300.12	2.083
300.48	2.765
300.85	2.587
301.22	1.790
301.59	2.626
301.95	2.147
302.32	2.889
302.69	1.533
303.05	2.720
303.42	1.441
303.79	2.292
304.15	3.260
304.52	1.903
304.89	2.199
305.25	3.106
305.62	1.881
305.99	2.474
306.35	2.117
306.72	2.068
307.09	1.117
307.45	2.692
307.82	3.330
308.19	2.523
308.55	2.989
308.92	2.240
309.29	2.490
309.65	2.339
310.02	1.287
310.38	2.264
310.75	2.233
311.12	2.780
311.48	1.760
311.85	2.469
312.22	1.803
312.58	2.254
312.95	1.912
313.31	1.897
313.68	3.480
314.05	2.529
314.41	2.186
314.78	1.817
315.14	3.176
315.51	2.678
315.87	2.610
316.24	3.288
316.61	2.398
316.97	2.262
317.34	2.028
317.70	2.533
318.07	2.822
318.43	2.381
318.80	3.428
319.16	1.717
319.53	1.114
319.89	1.315
320.26	2.224
320.62	2.216
320.99	3.047
321.35	1.941
321.72	2.605
322.08	1.623
322.45	2.710
322.81	2.076
323.18	1.770
323.54	2.672
323.91	2.758
324.27	3.356
324.64	2.603
325.00	1.907
325.37	3.358
325.73	2.810
326.10	2.433
326.46	2.932
326.83	4.163
327.19	2.598
327.56	2.846
327.92	1.888
328.29	2.903
328.65	2.178
329.01	2.200
329.38	3.033
329.74	2.825
330.11	2.568
330.47	2.527
330.84	2.153
331.20	3.083
331.56	2.773
331.93	3.013
332.29	2.458
332.66	3.405
333.02	2.261
333.38	2.517
333.75	2.020
334.11	2.002
334.48	3.135
334.84	3.229
335.20	1.763
335.57	3.288
335.93	2.810
336.29	1.997
336.66	2.607
337.02	3.595
337.38	2.976
337.75	2.066
338.11	2.355
338.47	3.143
338.84	1.777
339.20	1.853
339.56	2.554
339.93	3.859
340.29	3.382
340.65	3.082
341.02	2.235
341.38	2.668
341.74	2.502
342.11	2.655
342.47	2.065
342.83	2.254
343.20	2.698
343.56	2.406
343.92	2.642
344.28	3.125
344.65	3.256
345.01	3.042
345.37	2.644
345.73	1.793
346.10	3.120
346.46	2.532
346.82	3.446
347.19	3.132
347.55	2.580
347.91	2.972
348.27	2.352
348.63	3.046
349.00	2.610
349.36	3.569
349.72	3.125
350.08	3.269
350.45	1.749
350.81	2.866
351.17	2.180
351.53	3.033
351.89	3.113
352.26	2.836
352.62	2.164
352.98	2.290
353.34	1.718
353.70	2.311
354.07	3.502
354.43	2.126
354.79	2.618
355.15	2.575
355.51	2.924
355.87	2.543
356.24	2.510
356.60	2.513
356.96	2.001
357.32	2.454
357.68	2.489
358.04	2.171
358.40	2.687
358.77	2.778
359.13	2.290
359.49	1.338
359.85	2.828
360.21	2.654
360.57	2.082
360.93	1.975
361.29	2.526
361.66	2.245
362.02	3.619
362.38	2.389
362.74	2.374
363.10	3.301
363.46	2.701
363.82	2.344
364.18	1.970
364.54	2.628
364.90	3.612
365.26	2.207
365.62	3.667
365.98	3.131
366.35	2.282
366.71	2.585
367.07	3.248
367.43	2.692
367.79	2.853
368.15	2.408
368.51	2.842
368.87	3.201
369.23	2.867
369.59	1.981
369.95	2.907
370.31	3.309
370.67	3.576
371.03	3.463
371.39	2.283
371.75	3.232
372.11	2.778
372.47	3.250
372.83	3.338
373.19	2.935
373.55	2.846
373.91	2.249
374.27	3.364
374.63	2.300
374.99	2.653
375.35	3.571
375.71	2.839
376.07	2.970
376.42	2.267
376.78	3.356
377.14	3.244
377.50	3.099
377.86	3.571
378.22	4.012
378.58	3.092
378.94	3.756
379.30	3.398
379.66	3.410
380.02	2.943
380.38	3.111
380.74	3.493
381.09	3.659
381.45	3.750
381.81	3.923
382.17	3.266
382.53	3.801
382.89	3.894
383.25	3.283
383.61	2.836
383.97	2.886
384.32	3.469
384.68	3.190
385.04	3.644
385.40	3.771
385.76	4.220
386.12	3.890
386.48	3.765
386.83	4.052
387.19	3.998
387.55	3.110
387.91	3.767
388.27	4.273
388.62	4.868
388.98	3.723
389.34	4.007
389.70	4.009
390.06	4.500
390.42	3.795
390.77	4.576
391.13	3.521
391.49	4.287
391.85	3.636
392.20	4.686
392.56	4.962
392.92	4.962
393.28	4.367
393.64	3.799
393.99	4.474
394.35	4.731
394.71	4.491
395.07	4.072
395.42	5.026
395.78	5.424
396.14	4.516
396.50	3.919
396.85	4.532
397.21	4.615
397.57	5.124
397.92	5.269
398.28	4.237
398.64	4.748
399.00	4.084
399.35	4.241
399.71	4.891
400.07	4.211
400.42	4.482
400.78	4.398
401.14	4.895
401.49	4.434
401.85	3.837
402.21	5.156
402.57	4.519
402.92	4.492
403.28	3.630
403.63	4.117
403.99	3.741
404.35	4.377
404.70	5.382
405.06	5.272
405.42	4.625
405.77	5.234
406.13	4.592
406.49	4.730
406.84	4.598
407.20	4.807
407.55	4.664
407.91	4.588
408.27	5.241
408.62	5.294
408.98	4.875
409.34	3.812
409.69	5.068
410.05	5.217
410.40	4.002
410.76	4.262
411.11	4.851
411.47	5.160
411.83	5.115
412.18	4.880
412.54	5.394
412.89	4.366
413.25	4.233
413.60	4.078
413.96	4.720
414.31	4.759
414.67	5.247
415.03	5.046
415.38	4.792
415.74	5.009
416.09	5.120
416.45	5.072
416.80	5.447
417.16	4.789
417.51	5.479
417.87	5.395
418.22	4.611
418.58	5.081
418.93	4.948
419.29	4.871
419.64	4.622
420.00	4.273
420.35	5.446
420.71	5.055
421.06	5.175
421.42	5.218
421.77	5.062
422.12	5.550
422.48	4.659
422.83	4.545
423.19	4.987
423.54	4.867
423.90	4.804
424.25	4.907
424.61	4.191
424.96	5.217
425.31	5.149
425.67	4.563
426.02	4.925
426.38	5.741
426.73	4.408
427.09	5.998
427.44	4.588
427.79	4.478
428.15	4.281
428.50	5.281
428.85	4.420
429.21	5.319
429.56	4.689
429.92	4.767
430.27	4.337
430.62	5.227
430.98	4.575
431.33	5.279
431.68	4.789
432.04	4.520
432.39	4.660
432.74	4.623
433.10	5.354
433.45	4.905
433.80	5.097
434.16	5.269
434.51	4.779
434.86	4.940
435.22	4.729
435.57	5.483
435.92	5.064
436.28	5.006
436.63	4.315
436.98	4.831
437.34	5.186
437.69	4.293
438.04	4.865
438.39	5.169
438.75	5.036
439.10	5.285
439.45	5.590
439.81	5.254
440.16	4.450
440.51	5.072
440.86	4.391
441.22	4.984
441.57	5.084
441.92	4.850
442.27	4.899
442.63	4.968
442.98	5.229
443.33	5.208
443.68	5.253
444.03	5.033
444.39	4.993
444.74	5.054
445.09	5.068
445.44	5.163
445.79	5.077
446.15	5.653
446.50	4.755
446.85	5.302
447.20	5.658
447.55	5.335
447.91	4.974
448.26	4.598
448.61	5.473
448.96	5.204
449.31	4.825
449.66	4.085
450.02	5.063
450.37	5.754
450.72	4.844
451.07	5.353
451.42	5.026
451.77	5.114
452.12	5.192
452.47	5.051
452.83	5.631
453.18	4.729
453.53	4.423
453.88	5.467
454.23	5.085
454.58	5.281
454.93	4.066
455.28	5.479
455.63	4.775
455.98	5.028
456.34	4.535
456.69	4.644
457.04	4.610
457.39	5.044
457.74	4.978
458.09	4.503
458.44	5.065
458.79	4.281
459.14	5.611
459.49	5.320
459.84	5.247
460.19	4.164
460.54	5.338
460.89	4.923
461.24	4.425
461.59	5.091
461.94	4.621
462.29	5.095
462.64	5.069
462.99	5.336
463.34	5.256
463.69	5.920
464.04	5.781
464.39	5.213
464.74	5.017
465.09	4.556
465.44	4.345
465.79	5.711
466.14	4.742
466.49	5.000
466.84	5.289
467.19	5.202
467.54	4.700
467.89	4.885
468.24	5.263
468.59	4.748
468.94	5.070
469.29	4.739
469.64	5.022
469.99	5.163
470.34	4.889
470.68	4.443
471.03	5.108
471.38	5.363
471.73	4.356
472.08	5.393
472.43	4.455
472.78	5.605
473.13	5.057
473.48	4.713
473.83	5.572
474.17	5.569
474.52	4.811
474.87	5.150
475.22	5.127
475.57	4.569
475.92	4.679
476.27	4.526
476.61	5.348
476.96	5.162
477.31	4.901
477.66	5.089
478.01	5.033
478.36	4.935
478.70	4.877
479.05	4.959
479.40	4.837
479.75	5.235
480.10	5.069
480.45	4.923
480.79	4.989
481.14	4.917
481.49	4.771
481.84	5.396
482.19	4.688
482.53	4.810
482.88	4.918
483.23	4.624
483.58	4.323
483.92	4.566
484.27	5.123
484.62	5.033
484.97	4.705
485.31	4.435
485.66	4.699
486.01	4.432
486.36	4.148
486.70	4.287
487.05	4.497
487.40	4.644
487.75	4.784
488.09	4.903
488.44	4.069
488.79	4.755
489.13	4.526
489.48	4.350
489.83	4.507
490.17	4.658
490.52	5.049
490.87	4.780
491.22	3.986
491.56	5.119
491.91	5.059
492.26	4.717
492.60	4.941
492.95	4.783
493.30	4.796
493.64	4.512
493.99	5.132
494.34	5.009
494.68	4.839
495.03	4.714
495.37	4.838
495.72	5.215
496.07	5.302
496.41	5.019
496.76	5.171
497.11	4.501
497.45	4.920
497.80	5.509
498.14	5.261
498.49	5.101
498.84	4.433
499.18	5.083
499.53	5.067
499.87	5.538
500.22	4.096
500.56	4.274
500.91	4.577
501.26	5.273
501.60	5.038
501.95	5.037
502.29	4.914
502.64	5.203
502.98	5.393
503.33	5.097
503.67	4.492
504.02	4.947
504.36	5.183
504.71	5.053
505.06	5.412
505.40	5.119
505.75	5.009
506.09	5.157
506.44	5.153
506.78	5.413
507.13	5.486
507.47	5.258
507.82	5.303
508.16	4.207
508.51	5.110
508.85	4.535
509.19	5.069
509.54	5.091
509.88	4.711
510.23	5.197
510.57	6.235
510.92	5.273
511.26	4.906
511.61	4.877
511.95	5.027
512.30	5.958
512.64	4.898
512.98	5.203
513.33	5.242
513.67	5.405
514.02	4.446
514.36	4.962
514.70	5.312
515.05	4.797
515.39	4.987
515.74	5.567
516.08	5.917
516.42	5.756
516.77	4.995
517.11	5.106
517.46	5.514
517.80	5.933
518.14	5.930
518.49	5.748
518.83	5.428
519.17	5.385
519.52	5.398
519.86	5.597
520.20	6.283
520.55	5.531
520.89	5.124
521.23	5.639
521.58	5.650
521.92	5.836
522.26	5.384
522.61	5.903
522.95	5.594
523.29	6.092
523.64	5.942
523.98	5.705
524.32	6.304
524.66	5.748
525.01	5.153
525.35	4.997
525.69	5.278
526.04	6.028
526.38	5.517
526.72	6.228
527.06	5.513
527.41	5.481
527.75	6.295
528.09	5.313
528.43	5.802
528.78	5.838
529.12	5.734
529.46	6.071
529.80	5.950
530.15	5.391
530.49	5.516
530.83	6.375
531.17	5.137
531.51	5.957
531.86	6.010
532.20	5.793
532.54	6.044
532.88	6.182
533.22	6.011
533.57	5.886
533.91	6.004
534.25	6.162
534.59	5.632
534.93	5.829
535.27	5.746
535.62	5.799
535.96	6.101
536.30	5.170
536.64	6.306
536.98	6.458
537.32	6.420
537.66	5.739
538.01	6.103
538.35	5.725
538.69	6.250
539.03	6.254
539.37	6.125
539.71	6.126
540.05	6.415
540.39	6.051
540.73	5.222
541.07	5.395
541.42	5.966
541.76	5.516
542.10	5.850
542.44	5.481
542.78	6.448
543.12	6.317
543.46	5.922
543.80	5.156
544.14	5.566
544.48	5.969
544.82	5.506
545.16	5.784
545.50	6.111
545.84	6.797
546.18	7.346
546.52	6.115
546.86	5.849
547.20	6.170
547.54	5.680
547.88	5.365
548.22	5.556
548.56	6.202
548.90	5.433
549.24	6.444
549.58	5.994
549.92	6.122
550.26	7.055
550.60	6.318
550.94	6.533
551.28	6.007
551.62	7.075
551.96	6.667
552.30	6.628
552.64	5.849
552.98	6.675
553.32	6.238
553.66	5.916
554.00	6.494
554.34	6.306
554.68	6.908
555.02	6.176
555.36	5.983
555.69	4.933
556.03	5.990
556.37	6.633
556.71	5.897
557.05	6.326
557.39	5.707
557.73	7.199
558.07	5.828
558.41	6.113
558.75	6.423
559.08	6.750
559.42	5.967
559.76	6.920
560.10	5.894
560.44	5.937
560.78	6.438
561.12	5.973
561.45	6.083
561.79	5.800
562.13	6.531
562.47	5.857
562.81	6.266
563.15	6.376
563.48	6.277
563.82	6.771
564.16	5.330
564.50	6.198
564.84	5.546
565.17	6.294
565.51	6.099
565.85	5.760
566.19	5.588
566.52	5.734
566.86	6.055
567.20	5.492
567.54	5.736
567.88	5.759
568.21	5.385
568.55	5.468
568.89	5.719
569.23	5.957
569.56	5.627
569.90	6.023
570.24	5.430
570.57	5.228
570.91	4.868
571.25	5.265
571.59	5.873
571.92	5.304
572.26	5.320
572.60	5.160
572.93	5.399
573.27	5.142
573.61	5.558
573.95	5.414
574.28	5.302
574.62	5.139
574.96	5.029
575.29	5.001
575.63	5.151
575.97	5.222
576.30	5.280
576.64	4.963
576.98	5.285
577.31	5.344
577.65	5.241
577.98	4.857
578.32	4.799
578.66	5.051
578.99	5.222
579.33	5.247
579.67	4.828
580.00	5.147
580.34	5.301
580.67	5.119
581.01	5.149
581.35	5.007
581.68	5.200
582.02	4.902
582.35	5.113
582.69	5.132
583.02	5.064
583.36	5.217
583.70	5.362
584.03	5.016
584.37	5.159
584.70	4.914
585.04	5.208
585.37	5.369
585.71	5.049
586.04	5.064
586.38	5.037
586.72	4.788
587.05	5.142
587.39	5.236
587.72	5.024
588.06	5.343
588.39	5.302
588.73	4.921
589.06	5.333
589.40	5.286
589.73	5.495
590.07	5.504
590.40	5.578
590.73	5.444
591.07	5.733
591.40	5.638
591.74	5.207
592.07	5.806
592.41	5.639
592.74	5.644
593.08	5.860
593.41	5.453
593.75	5.517
594.08	5.513
594.41	5.545
594.75	4.816
595.08	5.283
595.42	4.935
595.75	5.199
596.09	5.591
596.42	5.303
596.75	5.982
597.09	6.222
597.42	5.920
597.75	5.880
598.09	5.873
598.42	5.428
598.76	5.197
599.09	5.625
599.42	5.598
599.76	5.612
600.09	5.272
600.42	5.906
600.76	5.515
601.09	5.144
601.42	5.561
601.76	5.448
602.09	5.289
602.42	5.016
602.76	5.646
603.09	5.653
603.42	5.527
603.76	5.215
604.09	6.033
604.42	5.615
604.76	5.251
605.09	5.864
605.42	5.941
605.75	5.923
606.09	5.300
606.42	5.874
606.75	5.135
607.09	5.453
607.42	5.588
607.75	5.432
608.08	5.406
608.42	5.804
608.75	5.721
609.08	5.475
609.41	5.558
609.75	5.536
610.08	5.849
610.41	5.395
610.74	5.756
611.07	5.639
611.41	5.785
611.74	5.543
612.07	5.844
612.40	5.561
612.73	6.015
613.07	5.672
613.40	6.064
613.73	5.585
614.06	6.281
614.39	5.588
614.72	5.677
615.06	5.919
615.39	5.800
615.72	5.924
616.05	5.197
616.38	5.701
616.71	5.747
617.05	5.112
617.38	7.170
617.71	5.886
618.04	6.044
618.37	5.902
618.70	6.335
619.03	5.735
619.36	6.289
619.69	5.958
620.03	6.089
620.36	6.012
620.69	5.490
621.02	5.774
621.35	6.241
621.68	6.435
622.01	6.050
622.34	5.858
622.67	5.636
623.00	5.061
623.33	6.105
623.66	6.874
623.99	5.925
624.32	6.628
624.65	5.470
624.99	6.567
625.32	5.683
625.65	6.204
625.98	5.627
626.31	6.237
626.64	6.154
626.97	6.452
627.30	5.543
627.63	5.926
627.96	8.258
628.29	6.148
628.62	5.458
628.95	6.310
629.28	5.353
629.61	6.313
629.94	5.356
630.26	5.847
630.59	5.613
630.92	6.840
631.25	6.887
631.58	6.591
631.91	6.467
632.24	5.572
632.57	6.546
632.90	6.219
633.23	6.633
633.56	5.714
633.89	5.579
634.22	7.796
634.55	6.263
634.88	6.818
635.20	8.396
635.53	6.667
635.86	7.259
636.19	7.741
636.52	6.540
636.85	5.924
637.18	6.445
637.51	7.204
637.83	7.420
638.16	8.295
638.49	6.925
638.82	6.764
639.15	7.216
639.48	6.697
639.81	8.199
640.13	7.420
640.46	4.485
640.79	6.740
641.12	7.205
641.45	8.030
641.77	9.114
642.10	6.430
642.43	7.580
642.76	7.588
643.09	6.712
643.41	5.322
643.74	6.621
644.07	8.414
644.40	5.092
644.73	5.806
645.05	5.580
645.38	8.777
645.71	7.185
646.04	9.469
646.36	7.007
646.69	7.975
647.02	8.257
647.35	7.786
647.67	8.052
648.00	6.529
648.33	7.357
648.66	4.708
648.98	6.122
649.31	8.254
649.64	8.101
649.96	7.029
650.29	5.285
650.62	6.365
650.94	6.006
651.27	6.587
651.60	8.041
651.92	6.535
652.25	8.249
652.58	7.153
652.90	6.541
653.23	7.606
653.56	7.275
653.88	9.831
654.21	7.606
654.54	7.948
654.86	7.365
655.19	6.148
655.52	6.464
655.84	4.535
656.17	5.242
656.49	7.495
656.82	8.323
657.15	6.705
657.47	5.097
657.80	3.910
658.13	3.138
658.45	4.158
658.78	5.216
659.10	5.012
