SpectraSuite Data File
++++++++++++++++++++++++++++++++++++
Date: Thu May 14 15:24:50 PDT 2015
User: schluterlab
Dark Spectrum Present: Yes
Reference Spectrum Present: Yes
Number of Sampled Component Spectra: 1
Spectrometers: USB2E3373
Integration Time (usec): 3000 (USB2E3373)
Spectra Averaged: 3 (USB2E3373)
Boxcar Smoothing: 0 (USB2E3373)
Correct for Electrical Dark: No (USB2E3373)
Strobe/Lamp Enabled: No (USB2E3373)
Correct for Detector Non-linearity: No (USB2E3373)
Correct for Stray Light: No (USB2E3373)
Number of Pixels in Processed Spectrum: 2048
>>>>>Begin Processed Spectral Data<<<<<
178.53	0.000
178.91	585.714
179.29	-5400.000
179.67	-4100.000
180.04	471.429
180.42	400.000
180.80	1100.000
181.18	-5000.000
181.56	-4200.000
181.94	1350.000
182.31	-1100.000
182.69	1433.333
183.07	-2300.000
183.45	1300.000
183.83	-783.333
184.20	-1433.333
184.58	4100.000
184.96	-1175.000
185.34	-522.222
185.72	-760.000
186.09	577.778
186.47	2550.000
186.85	1100.000
187.23	-544.444
187.61	-5300.000
187.98	860.000
188.36	1150.000
188.74	-1250.000
189.12	-1700.000
189.49	-293.750
189.87	-650.000
190.25	-477.778
190.63	-1020.000
191.00	-488.889
191.38	0.000
191.76	-1300.000
192.14	-750.000
192.51	2300.000
192.89	-566.667
193.27	0.000
193.65	-685.714
194.02	-5400.000
194.40	-757.143
194.78	757.143
195.15	0.000
195.53	-372.727
195.91	0.000
196.29	-1150.000
196.66	-384.615
197.04	-5300.000
197.42	-728.571
197.79	-2500.000
198.17	-625.000
198.55	-742.857
198.92	-422.222
199.30	-562.500
199.68	-345.455
200.05	-242.857
200.43	-3050.000
200.81	728.571
201.18	0.000
201.56	677.778
201.94	0.000
202.31	1833.333
202.69	-444.444
203.07	4200.000
203.44	-555.556
203.82	-1450.000
204.19	-308.333
204.57	-883.333
204.95	-725.000
205.32	-5800.000
205.70	1200.000
206.08	-733.333
206.45	-683.333
206.83	1300.000
207.20	-750.000
207.58	-1020.000
207.96	-733.333
208.33	-600.000
208.71	416.667
209.08	-833.333
209.46	0.000
209.84	883.333
210.21	2350.000
210.59	2600.000
210.96	1833.333
211.34	-1075.000
211.71	-525.000
212.09	-4800.000
212.46	0.000
212.84	3100.000
213.22	-1140.000
213.59	-1350.000
213.97	-450.000
214.34	-1766.667
214.72	866.667
215.09	-1225.000
215.47	0.000
215.84	657.143
216.22	2400.000
216.59	-820.000
216.97	-1120.000
217.34	-1375.000
217.72	-512.500
218.09	-1350.000
218.47	-1400.000
218.84	0.000
219.22	1000.000
219.59	-258.824
219.97	-190.000
220.34	2250.000
220.72	-500.000
221.09	-300.000
221.47	-1566.667
221.84	-490.000
222.22	-714.286
222.59	0.000
222.97	-550.000
223.34	-1060.000
223.72	-5400.000
224.09	-1275.000
224.46	-1400.000
224.84	-740.000
225.21	-800.000
225.59	-1175.000
225.96	-1075.000
226.34	-138.462
226.71	866.667
227.08	-2200.000
227.46	-300.000
227.83	-1300.000
228.21	-263.158
228.58	625.000
228.95	2450.000
229.33	-350.000
229.70	-400.000
230.08	-173.684
230.45	570.000
230.82	-1700.000
231.20	-335.714
231.57	-333.333
231.95	-436.364
232.32	-436.364
232.69	-215.000
233.07	-1150.000
233.44	-276.471
233.81	-490.000
234.19	-172.222
234.56	-163.636
234.93	-110.345
235.31	-210.526
235.68	-194.444
236.05	-230.000
236.43	-146.154
236.80	-124.000
237.17	-140.741
237.55	-115.152
237.92	-580.000
238.29	-141.935
238.67	-102.273
239.04	-122.222
239.41	-111.905
239.79	-84.783
240.16	-66.667
240.53	-102.174
240.91	-98.039
241.28	-68.852
241.65	-47.761
242.02	-50.000
242.40	-67.692
242.77	-52.000
243.14	-53.659
243.51	-63.158
243.89	-51.282
244.26	-36.634
244.63	-32.353
245.00	-30.841
245.38	-33.333
245.75	-40.708
246.12	-22.222
246.49	-26.357
246.87	-27.143
247.24	-21.854
247.61	-21.711
247.98	-17.450
248.36	-23.457
248.73	-21.472
249.10	-15.847
249.47	-13.433
249.84	-9.424
250.22	-11.399
250.59	-18.889
250.96	-13.636
251.33	-20.918
251.70	-9.402
252.08	-5.000
252.45	-4.508
252.82	-7.025
253.19	-12.500
253.56	-7.985
253.94	-10.385
254.31	-4.545
254.68	-2.797
255.05	-3.909
255.42	-6.122
255.79	-5.178
256.16	-7.285
256.54	-7.285
256.91	-4.262
257.28	-6.557
257.65	-8.917
258.02	-5.605
258.39	-2.849
258.76	-1.223
259.14	-2.299
259.51	-3.458
259.88	-3.683
260.25	-3.611
260.62	-1.918
260.99	0.273
261.36	-0.268
261.73	-3.979
262.10	-4.121
262.47	-4.558
262.85	0.000
263.22	-2.597
263.59	-5.789
263.96	-4.859
264.33	-4.604
264.70	-3.210
265.07	-0.239
265.44	0.454
265.81	0.463
266.18	0.907
266.55	-2.009
266.92	-2.961
267.29	0.875
267.66	0.000
268.03	-1.092
268.40	2.505
268.77	-2.050
269.14	-2.643
269.51	1.535
269.88	1.639
270.25	-0.402
270.62	0.844
270.99	2.626
271.36	4.158
271.73	-0.393
272.10	1.603
272.47	1.804
272.84	0.602
273.21	0.802
273.58	0.403
273.95	0.385
274.32	1.711
274.69	-0.387
275.06	2.198
275.43	1.664
275.80	2.646
276.17	-0.556
276.54	0.933
276.91	0.179
277.28	0.723
277.65	1.616
278.02	0.919
278.39	1.993
278.76	0.703
279.13	1.241
279.50	2.405
279.87	2.504
280.23	-0.176
280.60	2.881
280.97	1.316
281.34	-0.509
281.71	1.861
282.08	2.658
282.45	1.146
282.82	1.256
283.19	1.131
283.56	1.148
283.92	4.655
284.29	3.160
284.66	1.478
285.03	1.763
285.40	2.628
285.77	1.858
286.14	2.595
286.51	0.913
286.87	1.738
287.24	4.066
287.61	2.392
287.98	2.417
288.35	1.923
288.72	2.367
289.08	3.367
289.45	0.888
289.82	2.259
290.19	1.724
290.56	2.535
290.93	1.569
291.29	2.066
291.66	2.204
292.03	1.493
292.40	2.993
292.77	2.830
293.13	1.624
293.50	1.314
293.87	2.013
294.24	3.067
294.60	2.655
294.97	0.940
295.34	3.073
295.71	1.892
296.08	1.809
296.44	2.083
296.81	2.923
297.18	1.370
297.55	2.005
297.91	2.847
298.28	1.540
298.65	3.686
299.02	1.535
299.38	2.746
299.75	2.921
300.12	2.431
300.48	2.765
300.85	2.250
301.22	2.461
301.59	1.598
301.95	2.825
302.32	3.889
302.69	1.424
303.05	1.959
303.42	2.217
303.79	2.708
304.15	3.575
304.52	1.903
304.89	2.513
305.25	2.588
305.62	2.403
305.99	3.505
306.35	2.621
306.72	2.896
307.09	1.117
307.45	2.277
307.82	2.523
308.19	2.725
308.55	2.893
308.92	2.921
309.29	2.969
309.65	2.047
310.02	1.980
310.38	2.362
310.75	2.330
311.12	2.876
311.48	2.542
311.85	2.279
312.22	1.423
312.58	2.723
312.95	2.390
313.31	2.349
313.68	4.212
314.05	4.246
314.41	3.552
314.78	2.997
315.14	3.358
315.51	3.601
315.87	3.870
316.24	3.288
316.61	3.552
316.97	1.900
317.34	2.469
317.70	3.668
318.07	3.175
318.43	3.827
318.80	3.428
319.16	2.489
319.53	1.542
319.89	1.578
320.26	4.359
320.62	2.305
320.99	3.693
321.35	2.126
321.72	3.256
322.08	2.525
322.45	3.704
322.81	2.708
323.18	2.920
323.54	2.586
323.91	3.203
324.27	2.754
324.64	3.359
325.00	2.653
325.37	4.095
325.73	3.306
326.10	3.731
326.46	3.339
326.83	4.323
327.19	3.465
327.56	4.032
327.92	3.777
328.29	2.419
328.65	2.680
329.01	3.723
329.38	3.791
329.74	3.682
330.11	3.682
330.47	2.190
330.84	3.101
331.20	4.500
331.56	2.426
331.93	3.347
332.29	3.305
332.66	2.824
333.02	2.680
333.38	3.691
333.75	3.788
334.11	2.919
334.48	3.960
334.84	4.248
335.20	1.931
335.57	3.120
335.93	3.471
336.29	3.827
336.66	3.785
337.02	3.177
337.38	3.827
337.75	3.140
338.11	3.532
338.47	3.474
338.84	2.284
339.20	3.454
339.56	3.048
339.93	2.381
340.29	3.301
340.65	3.406
341.02	3.831
341.38	4.285
341.74	2.825
342.11	4.103
342.47	2.939
342.83	3.060
343.20	3.843
343.56	3.047
343.92	3.203
344.28	3.359
344.65	3.101
345.01	3.276
345.37	3.966
345.73	2.027
346.10	3.120
346.46	2.769
346.82	4.345
347.19	3.361
347.55	4.249
347.91	3.343
348.27	4.173
348.63	4.341
349.00	2.759
349.36	3.643
349.72	3.199
350.08	3.863
350.45	2.662
350.81	3.318
351.17	3.083
351.53	3.184
351.89	3.645
352.26	2.090
352.62	3.433
352.98	2.748
353.34	3.435
353.70	3.005
354.07	3.055
354.43	2.733
354.79	3.291
355.15	3.900
355.51	4.971
355.87	3.141
356.24	2.966
356.60	3.104
356.96	3.039
357.32	3.197
357.68	2.928
358.04	2.919
358.40	2.612
358.77	3.436
359.13	2.733
359.49	2.454
359.85	2.466
360.21	3.515
360.57	3.446
360.93	3.103
361.29	3.719
361.66	3.331
362.02	3.967
362.38	3.865
362.74	3.841
363.10	3.851
363.46	3.186
363.82	2.841
364.18	2.674
364.54	4.564
364.90	4.013
365.26	2.897
365.62	4.600
365.98	3.472
366.35	2.953
366.71	3.810
367.07	3.248
367.43	4.268
367.79	3.251
368.15	4.548
368.51	3.180
368.87	3.462
369.23	3.867
369.59	3.210
369.95	4.057
370.31	3.916
370.67	3.164
371.03	3.809
371.39	3.492
371.75	2.682
372.11	3.659
372.47	3.588
372.83	4.385
373.19	4.203
373.55	3.455
373.91	2.249
374.27	4.269
374.63	4.465
374.99	3.846
375.35	4.935
375.71	2.645
376.07	4.067
376.42	4.282
376.78	3.978
377.14	3.556
377.50	3.163
377.86	3.448
378.22	4.192
378.58	4.340
378.94	4.284
379.30	3.808
379.66	4.115
380.02	4.155
380.38	4.435
380.74	4.169
381.09	3.484
381.45	4.489
381.81	4.450
382.17	4.038
382.53	3.801
382.89	4.289
383.25	4.396
383.61	4.282
383.97	4.005
384.32	4.545
384.68	4.292
385.04	4.569
385.40	3.889
385.76	4.220
386.12	3.890
386.48	5.118
386.83	5.006
387.19	3.360
387.55	3.638
387.91	3.995
388.27	4.042
388.62	4.353
388.98	4.681
389.34	5.068
389.70	4.939
390.06	4.085
390.42	5.482
390.77	4.877
391.13	4.871
391.49	4.891
391.85	4.000
392.20	5.338
392.56	5.257
392.92	4.580
393.28	4.256
393.64	4.413
393.99	5.113
394.35	5.140
394.71	5.269
395.07	4.132
395.42	5.368
395.78	4.692
396.14	4.516
396.50	4.751
396.85	4.472
397.21	3.905
397.57	5.065
397.92	5.097
398.28	3.911
398.64	4.062
399.00	4.607
399.35	5.131
399.71	5.054
400.07	5.390
400.42	5.297
400.78	3.877
401.14	4.952
401.49	4.889
401.85	4.477
402.21	4.635
402.57	5.223
402.92	4.846
403.28	4.157
403.63	4.594
403.99	4.276
404.35	4.605
404.70	5.382
405.06	5.163
405.42	4.567
405.77	5.562
406.13	4.754
406.49	5.180
406.84	5.208
407.20	4.472
407.55	4.058
407.91	4.463
408.27	5.006
408.62	5.294
408.98	5.107
409.34	3.754
409.69	3.770
410.05	5.275
410.40	5.336
410.76	5.104
411.11	5.494
411.47	4.545
411.83	4.879
412.18	4.940
412.54	4.209
412.89	5.471
413.25	5.135
413.60	4.882
413.96	5.070
414.31	4.419
414.67	5.188
415.03	4.062
415.38	5.044
415.74	4.520
416.09	4.688
416.45	4.571
416.80	4.100
417.16	4.215
417.51	4.483
417.87	5.028
418.22	5.090
418.58	4.461
418.93	4.715
419.29	4.377
419.64	3.842
420.00	4.214
420.35	5.109
420.71	5.514
421.06	5.060
421.42	4.644
421.77	4.416
422.12	5.444
422.48	4.916
422.83	4.600
423.19	4.828
423.54	5.088
423.90	4.970
424.25	5.173
424.61	4.478
424.96	5.217
425.31	6.051
425.67	4.992
426.02	5.202
426.38	4.650
426.73	5.190
427.09	5.940
427.44	4.533
427.79	5.362
428.15	4.737
428.50	4.831
428.85	4.420
429.21	5.372
429.56	5.084
429.92	4.373
430.27	4.578
430.62	5.032
430.98	5.214
431.33	5.230
431.68	5.172
432.04	5.739
432.39	4.981
432.74	4.795
433.10	5.084
433.45	4.181
433.80	4.399
434.16	5.320
434.51	5.498
434.86	4.886
435.22	4.835
435.57	5.189
435.92	4.897
436.28	4.721
436.63	4.752
436.98	5.368
437.34	4.566
437.69	4.623
438.04	5.077
438.39	5.744
438.75	4.704
439.10	5.655
439.45	4.751
439.81	5.424
440.16	4.879
440.51	4.961
440.86	5.559
441.22	5.145
441.57	4.979
441.92	5.189
442.27	5.505
442.63	5.315
442.98	5.069
443.33	5.260
443.68	5.847
444.03	5.503
444.39	5.733
444.74	5.360
445.09	4.916
445.44	4.795
445.79	5.843
446.15	5.036
446.50	5.065
446.85	5.545
447.20	5.851
447.55	5.753
447.91	5.340
448.26	5.285
448.61	5.367
448.96	5.204
449.31	4.772
449.66	4.630
450.02	5.591
450.37	5.487
450.72	4.521
451.07	4.897
451.42	5.026
451.77	4.614
452.12	4.853
452.47	4.753
452.83	4.561
453.18	4.670
453.53	3.848
453.88	4.417
454.23	4.802
454.58	5.398
454.93	3.823
455.28	5.298
455.63	5.287
455.98	5.531
456.34	4.888
456.69	4.762
457.04	4.965
457.39	4.324
457.74	5.872
458.09	4.448
458.44	5.550
458.79	5.003
459.14	5.139
459.49	5.320
459.84	5.037
460.19	3.831
460.54	4.997
460.89	4.764
461.24	4.713
461.59	5.811
461.94	5.077
462.29	4.927
462.64	4.647
462.99	4.896
463.34	5.127
463.69	5.334
464.04	6.115
464.39	4.933
464.74	5.188
465.09	5.190
465.44	4.506
465.79	5.341
466.14	5.263
466.49	6.000
466.84	5.289
467.19	5.376
467.54	4.172
467.89	4.943
468.24	5.152
468.59	4.401
468.94	4.604
469.29	4.859
469.64	3.560
469.99	4.908
470.34	5.074
470.68	5.332
471.03	4.322
471.38	3.859
471.73	3.576
472.08	4.315
472.43	4.214
472.78	4.282
473.13	4.109
473.48	5.378
473.83	5.281
474.17	4.572
474.52	4.510
474.87	5.205
475.22	4.732
475.57	4.829
475.92	5.525
476.27	5.538
476.61	5.504
476.96	4.327
477.31	5.594
477.66	5.666
478.01	5.999
478.36	5.234
478.70	5.468
479.05	5.164
479.40	5.874
479.75	5.908
480.10	5.306
480.45	5.606
480.79	5.669
481.14	5.515
481.49	5.498
481.84	6.179
482.19	5.591
482.53	5.597
482.88	5.760
483.23	4.980
483.58	5.284
483.92	5.629
484.27	5.715
484.62	5.487
484.97	5.754
485.31	5.139
485.66	5.455
486.01	6.057
486.36	6.352
486.70	6.792
487.05	6.854
487.40	6.826
487.75	6.234
488.09	6.143
488.44	5.734
488.79	5.666
489.13	5.503
489.48	5.165
489.83	5.634
490.17	5.589
490.52	5.829
490.87	5.880
491.22	4.939
491.56	6.101
491.91	5.669
492.26	5.842
492.60	6.034
492.95	5.660
493.30	5.244
493.64	5.169
493.99	5.789
494.34	5.488
494.68	5.610
495.03	5.507
495.37	5.282
495.72	5.669
496.07	6.486
496.41	5.148
496.76	5.796
497.11	5.478
497.45	5.783
497.80	5.864
498.14	5.488
498.49	5.607
498.84	5.256
499.18	5.893
499.53	6.099
499.87	6.110
500.22	4.809
500.56	5.713
500.91	5.812
501.26	6.273
501.60	5.391
501.95	6.209
502.29	5.529
502.64	6.253
502.98	6.126
503.33	5.659
503.67	5.015
504.02	5.692
504.36	6.077
504.71	5.972
505.06	6.912
505.40	5.896
505.75	6.284
506.09	5.893
506.44	5.757
506.78	6.101
507.13	5.901
507.47	6.300
507.82	6.250
508.16	5.497
508.51	4.923
508.85	5.668
509.19	6.253
509.54	6.628
509.88	5.925
510.23	6.217
510.57	6.767
510.92	5.854
511.26	5.435
511.61	5.843
511.95	5.905
512.30	5.908
512.64	5.897
512.98	6.053
513.33	6.149
513.67	5.354
514.02	6.132
514.36	6.087
514.70	6.302
515.05	5.735
515.39	5.879
515.74	5.461
516.08	6.286
516.42	6.384
516.77	5.468
517.11	5.776
517.46	5.673
517.80	5.879
518.14	6.366
518.49	5.857
518.83	6.173
519.17	5.439
519.52	6.289
519.86	6.019
520.20	6.709
520.55	6.134
520.89	5.687
521.23	5.863
521.58	5.989
521.92	6.289
522.26	5.498
522.61	6.192
522.95	6.171
523.29	6.264
523.64	5.774
523.98	6.788
524.32	7.163
524.66	5.692
525.01	6.116
525.35	5.514
525.69	6.148
526.04	6.200
526.38	6.034
526.72	5.421
527.06	6.510
527.41	6.006
527.75	6.829
528.09	5.903
528.43	5.565
528.78	6.012
529.12	5.963
529.46	5.677
529.80	5.435
530.15	6.261
530.49	5.042
530.83	6.257
531.17	6.033
531.51	5.114
531.86	5.529
532.20	5.854
532.54	6.643
532.88	6.364
533.22	6.541
533.57	5.943
533.91	6.678
534.25	6.049
534.59	5.460
534.93	5.659
535.27	5.746
535.62	6.424
535.96	6.043
536.30	5.758
536.64	6.486
536.98	6.027
537.32	5.988
537.66	5.989
538.01	6.405
538.35	5.542
538.69	5.829
539.03	6.560
539.37	5.713
539.71	6.246
540.05	6.235
540.39	5.807
540.73	5.586
541.07	5.334
541.42	5.729
541.76	5.101
542.10	5.971
542.44	5.116
542.78	6.204
543.12	5.840
543.46	5.739
543.80	6.055
544.14	5.566
544.48	5.674
544.82	6.224
545.16	5.725
545.50	5.812
545.84	5.756
546.18	6.667
546.52	5.541
546.86	5.786
547.20	5.280
547.54	6.055
547.88	6.269
548.22	5.322
548.56	6.202
548.90	6.328
549.24	6.261
549.58	6.057
549.92	5.038
550.26	5.631
550.60	6.254
550.94	6.145
551.28	5.677
551.62	6.132
551.96	5.372
552.30	7.011
552.64	6.596
552.98	5.739
553.32	6.817
553.66	5.209
554.00	5.864
554.34	6.499
554.68	5.165
555.02	6.176
555.36	6.377
555.69	4.869
556.03	5.107
556.37	6.696
556.71	5.390
557.05	5.304
557.39	5.773
557.73	5.086
558.07	4.834
558.41	6.578
558.75	5.882
559.08	5.776
559.42	5.007
559.76	5.970
560.10	6.430
560.44	5.937
560.78	5.750
561.12	6.219
561.45	6.569
561.79	6.349
562.13	6.408
562.47	5.302
562.81	6.139
563.15	5.997
563.48	5.780
563.82	6.953
564.16	5.451
564.50	6.257
564.84	5.841
565.17	6.000
565.51	5.581
565.85	6.295
566.19	6.048
566.52	6.261
566.86	6.678
567.20	6.308
567.54	6.638
567.88	6.320
568.21	6.374
568.55	6.619
568.89	6.537
569.23	7.013
569.56	6.292
569.90	6.736
570.24	6.678
570.57	6.511
570.91	6.430
571.25	6.711
571.59	7.264
571.92	6.583
572.26	6.776
572.60	7.016
572.93	7.097
573.27	6.378
573.61	6.644
573.95	6.968
574.28	7.311
574.62	6.889
574.96	6.528
575.29	7.160
575.63	6.607
575.97	7.018
576.30	6.736
576.64	7.110
576.98	6.970
577.31	6.965
577.65	6.892
577.98	7.078
578.32	6.766
578.66	7.143
578.99	6.942
579.33	6.625
579.67	6.596
580.00	6.676
580.34	7.046
580.67	6.553
581.01	6.750
581.35	6.877
581.68	6.974
582.02	7.052
582.35	7.136
582.69	7.287
583.02	7.083
583.36	6.962
583.70	6.589
584.03	6.527
584.37	6.714
584.70	6.479
585.04	6.394
585.37	6.253
585.71	7.120
586.04	7.001
586.38	7.080
586.72	6.593
587.05	6.498
587.39	6.657
587.72	6.938
588.06	7.012
588.39	6.821
588.73	6.455
589.06	6.603
589.40	6.423
589.73	6.523
590.07	6.664
590.40	6.930
590.73	6.539
591.07	6.888
591.40	6.260
591.74	6.041
592.07	6.780
592.41	6.309
592.74	6.390
593.08	7.006
593.41	6.941
593.75	6.983
594.08	6.574
594.41	6.538
594.75	6.642
595.08	5.989
595.42	6.364
595.75	6.813
596.09	6.777
596.42	6.342
596.75	6.600
597.09	6.303
597.42	6.555
597.75	6.703
598.09	6.508
598.42	6.876
598.76	6.381
599.09	6.693
599.42	6.269
599.76	6.768
600.09	6.406
600.42	6.507
600.76	6.374
601.09	6.572
601.42	6.385
601.76	7.000
602.09	6.683
602.42	5.671
602.76	6.273
603.09	6.388
603.42	6.503
603.76	6.660
604.09	6.849
604.42	6.606
604.76	6.621
605.09	6.861
605.42	5.861
605.75	6.269
606.09	6.122
606.42	6.676
606.75	6.034
607.09	6.567
607.42	7.245
607.75	6.370
608.08	5.801
608.42	6.449
608.75	6.965
609.08	5.730
609.41	6.352
609.75	6.071
610.08	6.728
610.41	6.287
610.74	5.714
611.07	6.039
611.41	6.637
611.74	6.005
612.07	6.498
612.40	5.513
612.73	6.112
613.07	6.064
613.40	5.823
613.73	5.633
614.06	6.232
614.39	6.220
614.72	6.308
615.06	6.737
615.39	5.703
615.72	6.256
616.05	5.877
616.38	5.954
616.71	6.479
617.05	5.857
617.38	6.474
617.71	6.048
618.04	6.206
618.37	6.011
618.70	6.052
619.03	6.093
619.36	5.179
619.69	4.869
620.03	4.834
620.36	5.399
620.69	4.997
621.02	5.774
621.35	5.007
621.68	5.495
622.01	5.552
622.34	4.393
622.67	5.223
623.00	4.993
623.33	6.105
623.66	5.707
623.99	5.662
624.32	7.083
624.65	5.341
624.99	6.567
625.32	6.728
625.65	5.260
625.98	5.424
626.31	5.315
626.64	5.055
626.97	5.251
627.30	4.556
627.63	5.476
627.96	5.781
628.29	5.759
628.62	4.702
628.95	5.434
629.28	4.503
629.61	5.471
629.94	4.603
630.26	4.237
630.59	4.404
630.92	4.502
631.25	5.456
631.58	5.273
631.91	3.749
632.24	4.323
632.57	4.459
632.90	4.213
633.23	4.388
633.56	4.898
633.89	5.062
634.22	6.029
634.55	4.593
634.88	2.273
635.20	5.597
635.53	2.938
635.86	4.009
636.19	5.832
636.52	4.852
636.85	4.290
637.18	4.574
637.51	3.763
637.83	4.762
638.16	4.032
638.49	1.761
638.82	5.524
639.15	2.749
639.48	4.734
639.81	4.619
640.13	3.887
640.46	3.273
640.79	2.206
641.12	5.093
641.45	3.639
641.77	4.108
642.10	2.887
642.43	5.319
642.76	3.117
643.09	3.562
643.41	4.342
643.74	2.483
644.07	4.690
644.40	2.405
644.73	2.322
645.05	1.468
645.38	4.460
645.71	1.906
646.04	3.443
646.36	1.606
646.69	4.141
647.02	3.058
647.35	3.511
647.67	1.932
648.00	2.707
648.33	3.303
648.66	2.853
648.98	3.537
649.31	2.571
649.64	3.851
649.96	2.918
650.29	3.199
650.62	3.819
650.94	2.553
651.27	1.347
651.60	3.509
651.92	1.976
652.25	4.197
652.58	4.264
652.90	1.017
