SpectraSuite Data File
++++++++++++++++++++++++++++++++++++
Date: Thu May 14 14:56:32 PDT 2015
User: schluterlab
Dark Spectrum Present: Yes
Reference Spectrum Present: Yes
Number of Sampled Component Spectra: 1
Spectrometers: USB2E3373
Integration Time (usec): 3000 (USB2E3373)
Spectra Averaged: 3 (USB2E3373)
Boxcar Smoothing: 0 (USB2E3373)
Correct for Electrical Dark: No (USB2E3373)
Strobe/Lamp Enabled: No (USB2E3373)
Correct for Detector Non-linearity: No (USB2E3373)
Correct for Stray Light: No (USB2E3373)
Number of Pixels in Processed Spectrum: 2048
>>>>>Begin Processed Spectral Data<<<<<
178.53	0.000
178.91	271.429
179.29	-2200.000
179.67	-1900.000
180.04	278.571
180.42	180.000
180.80	520.000
181.18	-1600.000
181.56	-1700.000
181.94	650.000
182.31	-450.000
182.69	533.333
183.07	-850.000
183.45	375.000
183.83	-383.333
184.20	-400.000
184.58	2100.000
184.96	-550.000
185.34	-222.222
185.72	-180.000
186.09	277.778
186.47	1150.000
186.85	580.000
187.23	-244.444
187.61	-1800.000
187.98	380.000
188.36	725.000
188.74	-550.000
189.12	-533.333
189.49	-56.250
189.87	-237.500
190.25	-155.556
190.63	-360.000
191.00	-155.556
191.38	0.000
191.76	-475.000
192.14	-200.000
192.51	900.000
192.89	-166.667
193.27	0.000
193.65	-171.429
194.02	-1900.000
194.40	-285.714
194.78	371.429
195.15	0.000
195.53	-145.455
195.91	0.000
196.29	-125.000
196.66	-169.231
197.04	-3700.000
197.42	-257.143
197.79	-850.000
198.17	-212.500
198.55	-257.143
198.92	-166.667
199.30	-300.000
199.68	-145.455
200.05	-92.857
200.43	-1350.000
200.81	242.857
201.18	0.000
201.56	277.778
201.94	0.000
202.31	833.333
202.69	-300.000
203.07	1600.000
203.44	-188.889
203.82	-275.000
204.19	-175.000
204.57	-433.333
204.95	-275.000
205.32	-1300.000
205.70	600.000
206.08	-333.333
206.45	-166.667
206.83	420.000
207.20	-233.333
207.58	-580.000
207.96	-316.667
208.33	-216.667
208.71	183.333
209.08	-183.333
209.46	0.000
209.84	483.333
210.21	500.000
210.59	1250.000
210.96	700.000
211.34	-325.000
211.71	-262.500
212.09	-2800.000
212.46	0.000
212.84	800.000
213.22	-320.000
213.59	-200.000
213.97	-120.000
214.34	-666.667
214.72	383.333
215.09	-425.000
215.47	0.000
215.84	257.143
216.22	1400.000
216.59	-240.000
216.97	-240.000
217.34	-550.000
217.72	-150.000
218.09	-400.000
218.47	-700.000
218.84	0.000
219.22	480.000
219.59	-100.000
219.97	-20.000
220.34	800.000
220.72	-322.222
221.09	-76.923
221.47	-833.333
221.84	-190.000
222.22	-357.143
222.59	0.000
222.97	-212.500
223.34	-380.000
223.72	-1500.000
224.09	-425.000
224.46	-800.000
224.84	-380.000
225.21	-300.000
225.59	-475.000
225.96	-550.000
226.34	-80.769
226.71	350.000
227.08	-950.000
227.46	-60.000
227.83	-400.000
228.21	-47.368
228.58	375.000
228.95	1100.000
229.33	-108.333
229.70	-80.000
230.08	-5.263
230.45	240.000
230.82	-800.000
231.20	-142.857
231.57	-75.000
231.95	-218.182
232.32	-172.727
232.69	-30.000
233.07	-325.000
233.44	-47.059
233.81	-150.000
234.19	-72.222
234.56	-72.727
234.93	-37.931
235.31	-89.474
235.68	-22.222
236.05	-100.000
236.43	-46.154
236.80	-24.000
237.17	-77.778
237.55	-36.364
237.92	-170.000
238.29	-54.839
238.67	-34.091
239.04	-27.778
239.41	-59.524
239.79	-10.870
240.16	-16.667
240.53	-30.435
240.91	-43.137
241.28	-16.393
241.65	-11.940
242.02	-2.703
242.40	-12.308
242.77	-10.667
243.14	-20.732
243.51	-36.842
243.89	-30.769
244.26	-5.941
244.63	2.941
245.00	-1.869
245.38	-8.772
245.75	-19.469
246.12	-8.730
246.49	-6.202
246.87	-5.000
247.24	-8.609
247.61	-5.263
247.98	-6.040
248.36	-11.728
248.73	-11.043
249.10	-7.650
249.47	1.493
249.84	0.000
250.22	-0.518
250.59	-2.778
250.96	-0.909
251.33	-8.163
251.70	1.282
252.08	0.833
252.45	1.230
252.82	0.413
253.19	-1.953
253.56	-1.521
253.94	-5.769
254.31	0.379
254.68	0.699
255.05	2.932
255.42	-0.340
255.79	-5.502
256.16	-1.656
256.54	-1.325
256.91	2.951
257.28	-2.623
257.65	-4.140
258.02	-3.835
258.39	-0.855
258.76	0.306
259.14	0.287
259.51	-0.865
259.88	-0.850
260.25	-1.111
260.62	-0.822
260.99	2.186
261.36	0.268
261.73	-2.122
262.10	-1.648
262.47	-0.268
262.85	2.525
263.22	-1.299
263.59	-0.526
263.96	-1.279
264.33	-0.512
264.70	2.222
265.07	1.671
265.44	3.628
265.81	0.694
266.18	2.268
266.55	2.232
266.92	0.228
267.29	3.501
267.66	0.443
268.03	2.620
268.40	2.088
268.77	-2.050
269.14	-1.982
269.51	0.219
269.88	3.279
270.25	3.219
270.62	1.266
270.99	4.444
271.36	2.970
271.73	0.589
272.10	2.004
272.47	0.802
272.84	1.205
273.21	1.202
273.58	2.016
273.95	0.769
274.32	1.141
274.69	0.774
275.06	-0.183
275.43	0.555
275.80	1.411
276.17	0.000
276.54	0.560
276.91	1.252
277.28	-0.181
277.65	1.616
278.02	3.309
278.39	1.449
278.76	1.582
279.13	0.709
279.50	3.093
279.87	1.968
280.23	0.176
280.60	2.542
280.97	1.974
281.34	0.849
281.71	2.200
282.08	2.658
282.45	2.128
282.82	1.413
283.19	-0.808
283.56	0.492
283.92	3.453
284.29	3.476
284.66	2.956
285.03	-0.641
285.40	0.773
285.77	0.929
286.14	3.969
286.51	1.522
286.87	-1.580
287.24	1.807
287.61	0.448
287.98	1.057
288.35	1.183
288.72	0.888
289.08	2.782
289.45	1.183
289.82	1.657
290.19	1.724
290.56	2.394
290.93	1.284
291.29	0.689
291.66	1.515
292.03	1.085
292.40	3.129
292.77	1.887
293.13	1.488
293.50	0.394
293.87	-0.537
294.24	2.133
294.60	2.276
294.97	-0.805
295.34	3.713
295.71	1.009
296.08	0.388
296.44	1.471
296.81	1.583
297.18	1.370
297.55	0.590
297.91	0.830
298.28	0.118
298.65	1.784
299.02	0.236
299.38	1.602
299.75	1.285
300.12	0.694
300.48	1.267
300.85	1.800
301.22	3.020
301.59	-0.114
301.95	1.695
302.32	2.222
302.69	1.972
303.05	0.871
303.42	1.663
303.79	1.458
304.15	1.682
304.52	-0.846
304.89	1.047
305.25	2.277
305.62	0.731
305.99	1.443
306.35	1.815
306.72	1.551
307.09	0.609
307.45	1.760
307.82	2.825
308.19	1.110
308.55	2.314
308.92	1.753
309.29	2.107
309.65	1.267
310.02	2.376
310.38	2.165
310.75	1.359
311.12	2.589
311.48	0.880
311.85	1.519
312.22	2.087
312.58	1.408
312.95	1.625
313.31	2.168
313.68	3.388
314.05	3.071
314.41	1.913
314.78	1.998
315.14	2.087
315.51	2.678
315.87	3.960
316.24	2.648
316.61	2.575
316.97	1.810
317.34	2.116
317.70	3.319
318.07	3.439
318.43	4.252
318.80	4.933
319.16	3.176
319.53	3.085
319.89	3.067
320.26	4.181
320.62	2.394
320.99	4.155
321.35	3.327
321.72	4.279
322.08	3.066
322.45	3.613
322.81	3.430
323.18	3.717
323.54	3.966
323.91	4.004
324.27	4.647
324.64	5.038
325.00	4.892
325.37	4.586
325.73	4.876
326.10	4.866
326.46	5.537
326.83	6.565
327.19	4.803
327.56	5.929
327.92	4.799
328.29	5.242
328.65	5.779
329.01	5.415
329.38	5.223
329.74	5.993
330.11	5.736
330.47	5.813
330.84	6.029
331.20	6.417
331.56	6.153
331.93	6.862
332.29	5.847
332.66	6.478
333.02	6.365
333.38	6.711
333.75	6.145
334.11	7.173
334.48	6.436
334.84	7.052
335.20	5.626
335.57	6.830
335.93	7.851
336.29	5.657
336.66	5.719
337.02	6.940
337.38	7.738
337.75	6.529
338.11	6.812
338.47	6.948
338.84	5.415
339.20	5.055
339.56	6.755
339.93	7.553
340.29	6.522
340.65	6.164
341.02	6.464
341.38	7.599
341.74	6.618
342.11	6.516
342.47	6.593
342.83	7.246
343.20	6.051
343.56	7.137
343.92	5.845
344.28	7.109
344.65	7.984
345.01	6.942
345.37	7.076
345.73	6.157
346.10	7.644
346.46	6.566
346.82	7.865
347.19	7.257
347.55	7.360
347.91	7.132
348.27	6.980
348.63	6.550
349.00	6.488
349.36	7.732
349.72	7.217
350.08	7.875
350.45	6.996
350.81	7.240
351.17	6.917
351.53	6.823
351.89	7.365
352.26	7.015
352.62	7.313
352.98	6.641
353.34	6.199
353.70	7.550
354.07	7.824
354.43	6.530
354.79	7.255
355.15	6.843
355.51	7.675
355.87	6.731
356.24	5.779
356.60	7.391
356.96	6.894
357.32	7.138
357.68	6.442
358.04	7.485
358.40	6.866
358.77	7.602
359.13	6.721
359.49	7.138
359.85	8.049
360.21	8.250
360.57	7.538
360.93	6.700
361.29	8.561
361.66	6.589
362.02	8.003
362.38	8.011
362.74	8.170
363.10	7.428
363.46	6.925
363.82	8.026
364.18	7.389
364.54	8.091
364.90	8.495
365.26	7.310
365.62	8.733
365.98	8.101
366.35	7.852
366.71	7.551
367.07	7.645
367.43	9.061
367.79	8.427
368.15	8.161
368.51	8.187
368.87	8.883
369.23	8.600
369.59	7.719
369.95	8.519
370.31	8.778
370.67	7.634
371.03	8.657
371.39	8.328
371.75	8.735
372.11	8.604
372.47	8.463
372.83	9.751
373.19	9.139
373.55	9.011
373.91	8.044
374.27	8.732
374.63	9.066
374.99	9.284
375.35	9.610
375.71	9.871
376.07	9.748
376.42	9.446
376.78	10.068
377.14	9.482
377.50	9.488
377.86	10.653
378.22	10.240
378.58	9.512
378.94	9.859
379.30	10.018
379.66	10.406
380.02	10.040
380.38	10.829
380.74	10.479
381.09	9.988
381.45	10.455
381.81	11.007
382.17	10.689
382.53	11.228
382.89	10.948
383.25	11.020
383.61	10.417
383.97	11.307
384.32	11.722
384.68	11.195
385.04	11.914
385.40	12.434
385.76	11.430
386.12	11.789
386.48	11.941
386.83	11.979
387.19	12.051
387.55	11.209
387.91	12.100
388.27	12.182
388.62	12.543
388.98	11.506
389.34	12.434
389.70	12.609
390.06	11.723
390.42	12.470
390.77	13.125
391.13	11.913
391.49	13.043
391.85	12.242
392.20	12.871
392.56	13.113
392.92	13.413
393.28	13.046
393.64	12.682
393.99	13.016
394.35	14.252
394.71	13.293
395.07	12.036
395.42	13.535
395.78	14.077
396.14	14.320
396.50	13.599
396.85	13.119
397.21	13.669
397.57	14.193
397.92	13.918
398.28	13.362
398.64	13.787
399.00	14.136
399.35	13.822
399.71	14.457
400.07	14.093
400.42	13.853
400.78	13.715
401.14	14.343
401.49	14.156
401.85	14.012
402.21	14.484
402.57	14.671
402.92	14.539
403.28	13.466
403.63	14.200
403.99	14.252
404.35	14.213
404.70	15.127
405.06	13.913
405.42	14.696
405.77	15.431
406.13	14.749
406.49	14.640
406.84	14.848
407.20	14.421
407.55	13.810
407.91	14.268
408.27	14.841
408.62	14.951
408.98	14.684
409.34	13.842
409.69	14.833
410.05	14.830
410.40	15.255
410.76	14.694
411.11	14.962
411.47	14.681
411.83	15.991
412.18	15.241
412.54	14.997
412.89	15.134
413.25	14.898
413.60	15.106
413.96	15.093
414.31	14.391
414.67	15.086
415.03	14.400
415.38	14.502
415.74	14.966
416.09	15.052
416.45	14.527
416.80	14.259
417.16	14.879
417.51	14.944
417.87	15.021
418.22	15.210
418.58	14.684
418.93	15.832
419.29	14.982
419.64	14.466
420.00	14.065
420.35	14.935
420.71	15.393
421.06	14.779
421.42	15.367
421.77	15.132
422.12	15.328
422.48	15.156
422.83	15.498
423.19	16.233
423.54	15.044
423.90	14.909
424.25	15.360
424.61	15.270
424.96	15.980
425.31	15.658
425.67	14.922
426.02	15.883
426.38	15.270
426.73	15.904
427.09	16.090
427.44	14.691
427.79	15.478
428.15	14.555
428.50	15.506
428.85	14.868
429.21	15.745
429.56	15.647
429.92	14.742
430.27	15.566
430.62	16.659
430.98	15.593
431.33	15.885
431.68	15.996
432.04	16.150
432.39	15.854
432.74	15.011
433.10	15.900
433.45	15.329
433.80	15.129
434.16	15.496
434.51	16.238
434.86	15.852
435.22	15.994
435.57	15.684
435.92	16.138
436.28	15.927
436.63	15.784
436.98	15.191
437.34	15.727
437.69	16.015
438.04	15.918
438.39	15.796
438.75	16.270
439.10	16.226
439.45	16.713
439.81	15.706
440.16	15.174
440.51	16.221
440.86	15.787
441.22	16.774
441.57	16.195
441.92	16.198
442.27	16.667
442.63	16.195
442.98	16.382
443.33	16.412
443.68	16.749
444.03	16.416
444.39	16.505
444.74	16.488
445.09	16.472
445.44	16.175
445.79	16.475
446.15	16.906
446.50	16.486
446.85	16.975
447.20	16.344
447.55	16.423
447.91	15.812
448.26	16.913
448.61	16.047
448.96	16.738
449.31	16.384
449.66	15.741
450.02	16.508
450.37	16.889
450.72	16.631
451.07	16.173
451.42	16.638
451.77	16.009
452.12	16.535
452.47	15.983
452.83	15.653
453.18	16.346
453.53	15.681
453.88	15.958
454.23	16.158
454.58	15.961
454.93	16.019
455.28	16.496
455.63	17.169
455.98	16.145
456.34	16.137
456.69	16.520
457.04	16.371
457.39	15.965
457.74	16.779
458.09	16.200
458.44	16.756
458.79	15.936
459.14	16.203
459.49	16.865
459.84	16.159
460.19	16.380
460.54	16.241
460.89	15.881
461.24	15.977
461.59	16.491
461.94	15.916
462.29	16.517
462.64	15.691
462.99	15.129
463.34	15.704
463.69	16.413
464.04	16.120
464.39	16.087
464.74	15.792
465.09	16.436
465.44	16.577
465.79	16.922
466.14	16.102
466.49	16.526
466.84	16.749
467.19	17.457
467.54	16.745
467.89	16.494
468.24	16.177
468.59	15.055
468.94	15.443
469.29	16.197
469.64	16.020
469.99	15.615
470.34	16.832
470.68	16.336
471.03	17.158
471.38	15.500
471.73	15.540
472.08	16.307
472.43	17.279
472.78	16.625
473.13	16.625
473.48	16.918
473.83	17.586
474.17	16.471
474.52	16.176
474.87	16.944
475.22	17.239
475.57	15.940
475.92	16.775
476.27	16.773
476.61	16.771
476.96	16.945
477.31	17.178
477.66	17.471
478.01	16.675
478.36	16.002
478.70	16.059
479.05	16.871
479.40	17.522
479.75	17.819
480.10	16.959
480.45	16.500
480.79	16.780
481.14	17.004
481.49	17.038
481.84	17.058
482.19	16.258
482.53	16.659
482.88	16.792
483.23	16.719
483.58	16.681
483.92	15.780
484.27	16.300
484.62	16.007
484.97	16.485
485.31	16.332
485.66	15.285
486.01	16.251
486.36	16.424
486.70	17.566
487.05	18.245
487.40	17.506
487.75	17.125
488.09	17.272
488.44	16.430
488.79	16.695
489.13	16.908
489.48	16.117
489.83	15.654
490.17	16.727
490.52	15.969
490.87	16.201
491.22	16.031
491.56	16.382
491.91	16.572
492.26	15.924
492.60	16.878
492.95	17.113
493.30	15.778
493.64	16.645
493.99	16.140
494.34	16.202
494.68	15.460
495.03	15.815
495.37	16.955
495.72	15.782
496.07	16.039
496.41	16.345
496.76	16.013
497.11	16.900
497.45	16.228
497.80	16.659
498.14	16.599
498.49	16.452
498.84	16.362
499.18	16.419
499.53	16.502
499.87	16.879
500.22	16.118
500.56	16.104
500.91	16.751
501.26	16.727
501.60	16.836
501.95	16.023
502.29	16.542
502.64	17.272
502.98	16.911
503.33	16.199
503.67	16.529
504.02	16.813
504.36	16.890
504.71	16.491
505.06	16.917
505.40	15.951
505.75	17.395
506.09	16.575
506.44	17.270
506.78	17.431
507.13	17.105
507.47	16.864
507.82	16.903
508.16	16.874
508.51	17.300
508.85	17.100
509.19	16.817
509.54	17.627
509.88	17.047
510.23	17.144
510.57	17.690
510.92	17.562
511.26	16.931
511.61	17.769
511.95	16.935
512.30	17.381
512.64	16.842
512.98	17.709
513.33	18.145
513.67	17.185
514.02	17.680
514.36	17.647
514.70	16.927
515.05	17.414
515.39	17.270
515.74	18.081
516.08	17.380
516.42	18.367
516.77	17.298
517.11	17.019
517.46	18.081
517.80	17.958
518.14	17.791
518.49	17.408
518.83	17.509
519.17	17.501
519.52	17.925
519.86	17.899
520.20	18.797
520.55	17.141
520.89	18.018
521.23	18.258
521.58	18.079
521.92	18.074
522.26	16.953
522.61	17.940
522.95	17.705
523.29	18.506
523.64	17.601
523.98	18.140
524.32	18.567
524.66	18.270
525.01	17.894
525.35	16.829
525.69	17.865
526.04	16.820
526.38	17.874
526.72	18.108
527.06	17.830
527.41	17.493
527.75	17.993
528.09	18.654
528.43	17.407
528.78	17.688
529.12	18.463
529.46	17.988
529.80	18.135
530.15	19.014
530.49	16.904
530.83	17.769
531.17	17.861
531.51	18.171
531.86	18.029
532.20	19.085
532.54	18.073
532.88	17.576
533.22	18.150
533.57	18.292
533.91	18.182
534.25	17.750
534.59	17.529
534.93	17.261
535.27	18.141
535.62	18.818
535.96	18.071
536.30	18.801
536.64	18.498
536.98	18.450
537.32	19.012
537.66	18.590
538.01	17.523
538.35	17.052
538.69	18.389
539.03	18.455
539.37	18.316
539.71	17.838
540.05	18.046
540.39	17.176
540.73	18.033
541.07	18.087
541.42	17.897
541.76	17.972
542.10	17.973
542.44	16.991
542.78	17.883
543.12	17.640
543.46	17.521
543.80	17.686
544.14	18.073
544.48	18.262
544.82	18.253
545.16	18.068
545.50	16.956
545.84	17.453
546.18	18.580
546.52	17.580
546.86	18.113
547.20	17.875
547.54	17.478
547.88	17.541
548.22	16.725
548.56	17.086
548.90	16.896
549.24	17.751
549.58	16.530
549.92	17.538
550.26	17.864
550.60	17.741
550.94	17.206
551.28	16.436
551.62	17.655
551.96	16.893
552.30	17.718
552.64	17.175
552.98	17.842
553.32	17.621
553.66	16.977
554.00	16.267
554.34	17.053
554.68	16.527
555.02	16.623
555.36	17.028
555.69	16.464
556.03	16.709
556.37	18.273
556.71	17.438
557.05	16.613
557.39	17.850
557.73	16.975
558.07	16.556
558.41	16.080
558.75	17.309
559.08	16.562
559.42	16.804
559.76	16.825
560.10	17.214
560.44	17.084
560.78	16.750
561.12	16.995
561.45	17.092
561.79	17.338
562.13	17.067
562.47	15.968
562.81	17.089
563.15	17.298
563.48	16.532
563.82	16.264
564.16	15.990
564.50	16.806
564.84	16.047
565.17	17.706
565.51	17.722
565.85	15.796
566.19	16.014
566.52	16.618
566.86	16.525
567.20	16.803
567.54	16.782
567.88	17.023
568.21	17.490
568.55	17.506
568.89	17.068
569.23	17.195
569.56	16.999
569.90	16.999
570.24	16.695
570.57	16.806
570.91	17.146
571.25	16.980
571.59	17.478
571.92	17.297
572.26	17.522
572.60	17.445
572.93	17.256
573.27	17.505
573.61	17.178
573.95	16.970
574.28	17.169
574.62	16.849
574.96	16.718
575.29	17.096
575.63	16.909
575.97	16.910
576.30	16.605
576.64	16.559
576.98	16.651
577.31	16.689
577.65	17.416
577.98	16.773
578.32	16.860
578.66	16.868
578.99	16.936
579.33	17.074
579.67	16.455
580.00	16.678
580.34	17.038
580.67	16.483
581.01	16.357
581.35	16.384
581.68	16.699
582.02	17.166
582.35	17.346
582.69	17.414
583.02	17.174
583.36	16.923
583.70	16.451
584.03	16.511
584.37	16.786
584.70	16.137
585.04	16.229
585.37	16.262
585.71	16.980
586.04	16.380
586.38	16.760
586.72	16.345
587.05	16.449
587.39	16.205
587.72	16.962
588.06	16.514
588.39	16.405
588.73	16.667
589.06	16.563
589.40	16.503
589.73	16.035
590.07	16.346
590.40	16.599
590.73	16.225
591.07	16.679
591.40	15.785
591.74	15.938
592.07	16.281
592.41	15.970
592.74	15.797
593.08	16.688
593.41	16.156
593.75	16.839
594.08	16.965
594.41	16.474
594.75	16.672
595.08	16.353
595.42	16.494
595.75	16.274
596.09	16.130
596.42	16.159
596.75	16.210
597.09	16.808
597.42	15.971
597.75	15.915
598.09	16.230
598.42	16.405
598.76	15.705
599.09	15.913
599.42	15.823
599.76	16.078
600.09	16.049
600.42	15.549
600.76	15.687
601.09	15.765
601.42	16.238
601.76	15.690
602.09	15.332
602.42	15.594
602.76	16.089
603.09	15.382
603.42	15.860
603.76	15.715
604.09	16.608
604.42	15.817
604.76	15.335
605.09	15.796
605.42	15.550
605.75	16.385
606.09	16.088
606.42	15.907
606.75	15.180
607.09	15.438
607.42	15.800
607.75	15.944
608.08	16.062
608.42	16.082
608.75	16.128
609.08	15.323
609.41	15.659
609.75	15.625
610.08	15.567
610.41	15.718
610.74	15.042
611.07	15.409
611.41	15.247
611.74	15.473
612.07	15.849
612.40	14.781
612.73	16.479
613.07	15.355
613.40	15.399
613.73	15.166
614.06	15.751
614.39	14.966
614.72	15.818
615.06	15.159
615.39	15.515
615.72	15.166
616.05	15.444
616.38	15.691
616.71	15.622
617.05	14.590
617.38	16.105
617.71	16.091
618.04	15.326
618.37	15.792
618.70	15.554
619.03	14.875
619.36	15.228
619.69	15.183
620.03	14.313
620.36	14.663
620.69	14.497
621.02	14.436
621.35	14.877
621.68	14.534
622.01	14.947
622.34	14.435
622.67	14.089
623.00	13.225
623.33	15.395
623.66	15.045
623.99	14.417
624.32	15.919
624.65	14.543
624.99	14.629
625.32	14.435
625.65	14.295
625.98	14.169
626.31	14.458
626.64	15.092
626.97	13.203
627.30	13.591
627.63	13.803
627.96	15.916
628.29	14.319
628.62	13.434
628.95	13.935
629.28	14.104
629.61	15.741
629.94	13.808
630.26	13.136
630.59	14.767
630.92	13.333
631.25	13.953
631.58	14.313
631.91	14.058
632.24	14.409
632.57	13.188
632.90	13.842
633.23	15.102
633.56	13.469
633.89	12.603
634.22	12.890
634.55	13.674
634.88	13.636
635.20	15.393
635.53	12.881
635.86	14.410
636.19	13.043
636.52	12.764
636.85	13.177
637.18	14.241
637.51	13.871
637.83	14.618
