SpectraSuite Data File
++++++++++++++++++++++++++++++++++++
Date: Thu May 14 14:57:16 PDT 2015
User: schluterlab
Dark Spectrum Present: Yes
Reference Spectrum Present: Yes
Number of Sampled Component Spectra: 1
Spectrometers: USB2E3373
Integration Time (usec): 3000 (USB2E3373)
Spectra Averaged: 3 (USB2E3373)
Boxcar Smoothing: 0 (USB2E3373)
Correct for Electrical Dark: No (USB2E3373)
Strobe/Lamp Enabled: No (USB2E3373)
Correct for Detector Non-linearity: No (USB2E3373)
Correct for Stray Light: No (USB2E3373)
Number of Pixels in Processed Spectrum: 2048
>>>>>Begin Processed Spectral Data<<<<<
178.53	0.000
178.91	271.429
179.29	-2800.000
179.67	-1900.000
180.04	257.143
180.42	170.000
180.80	460.000
181.18	-2600.000
181.56	-1200.000
181.94	525.000
182.31	-350.000
182.69	1033.333
183.07	-700.000
183.45	575.000
183.83	-383.333
184.20	-366.667
184.58	1800.000
184.96	-475.000
185.34	-155.556
185.72	-380.000
186.09	322.222
186.47	1350.000
186.85	460.000
187.23	-300.000
187.61	-2000.000
187.98	480.000
188.36	675.000
188.74	-625.000
189.12	-600.000
189.49	-56.250
189.87	-250.000
190.25	-88.889
190.63	-420.000
191.00	-322.222
191.38	0.000
191.76	-675.000
192.14	-200.000
192.51	1000.000
192.89	-200.000
193.27	0.000
193.65	-300.000
194.02	-3500.000
194.40	-271.429
194.78	314.286
195.15	0.000
195.53	-154.545
195.91	0.000
196.29	-300.000
196.66	-176.923
197.04	-2500.000
197.42	-257.143
197.79	-1350.000
198.17	-337.500
198.55	-328.571
198.92	-155.556
199.30	-275.000
199.68	-118.182
200.05	-107.143
200.43	-1400.000
200.81	314.286
201.18	0.000
201.56	344.444
201.94	0.000
202.31	700.000
202.69	-288.889
203.07	2100.000
203.44	-244.444
203.82	-550.000
204.19	-166.667
204.57	-350.000
204.95	-225.000
205.32	-2000.000
205.70	525.000
206.08	-266.667
206.45	-266.667
206.83	580.000
207.20	-233.333
207.58	-520.000
207.96	-266.667
208.33	-133.333
208.71	225.000
209.08	-133.333
209.46	0.000
209.84	383.333
210.21	500.000
210.59	650.000
210.96	866.667
211.34	-425.000
211.71	-300.000
212.09	-2600.000
212.46	0.000
212.84	1550.000
213.22	-420.000
213.59	-500.000
213.97	-160.000
214.34	-666.667
214.72	400.000
215.09	-450.000
215.47	0.000
215.84	314.286
216.22	1750.000
216.59	-320.000
216.97	-280.000
217.34	-425.000
217.72	-187.500
218.09	-450.000
218.47	-475.000
218.84	0.000
219.22	320.000
219.59	-100.000
219.97	-120.000
220.34	1050.000
220.72	-266.667
221.09	-38.462
221.47	-666.667
221.84	-230.000
222.22	-228.571
222.59	0.000
222.97	-212.500
223.34	-660.000
223.72	-2500.000
224.09	-325.000
224.46	-550.000
224.84	-280.000
225.21	-285.714
225.59	-600.000
225.96	-650.000
226.34	-34.615
226.71	500.000
227.08	-1300.000
227.46	-100.000
227.83	-475.000
228.21	-52.632
228.58	287.500
228.95	850.000
229.33	-100.000
229.70	-140.000
230.08	10.526
230.45	190.000
230.82	-633.333
231.20	-121.429
231.57	-125.000
231.95	-227.273
232.32	-90.909
232.69	-40.000
233.07	-500.000
233.44	-135.294
233.81	-220.000
234.19	-50.000
234.56	-72.727
234.93	-24.138
235.31	-94.737
235.68	-77.778
236.05	-115.000
236.43	15.385
236.80	12.000
237.17	-59.259
237.55	-24.242
237.92	-60.000
238.29	-29.032
238.67	-38.636
239.04	-50.000
239.41	-30.952
239.79	-36.957
240.16	-5.556
240.53	-26.087
240.91	-23.529
241.28	-16.393
241.65	4.478
242.02	9.459
242.40	-6.154
242.77	0.000
243.14	-7.317
243.51	-13.158
243.89	-7.692
244.26	7.921
244.63	7.843
245.00	15.888
245.38	2.632
245.75	-4.425
246.12	10.317
246.49	-1.550
246.87	7.143
247.24	14.570
247.61	7.895
247.98	2.685
248.36	4.938
248.73	7.975
249.10	6.557
249.47	14.925
249.84	24.084
250.22	11.917
250.59	12.222
250.96	15.909
251.33	9.184
251.70	14.103
252.08	12.917
252.45	17.213
252.82	17.769
253.19	12.500
253.56	20.913
253.94	13.462
254.31	16.667
254.68	20.629
255.05	18.241
255.42	19.048
255.79	12.945
256.16	15.894
256.54	15.563
256.91	16.393
257.28	15.410
257.65	10.510
258.02	14.749
258.39	16.239
258.76	18.960
259.14	16.954
259.51	16.427
259.88	15.864
260.25	16.389
260.62	18.904
260.99	20.219
261.36	21.716
261.73	15.119
262.10	18.956
262.47	20.643
262.85	20.202
263.22	15.325
263.59	17.895
263.96	17.136
264.33	17.647
264.70	17.778
265.07	19.093
265.44	21.995
265.81	17.130
266.18	19.955
266.55	19.420
266.92	16.401
267.29	20.131
267.66	20.621
268.03	19.651
268.40	20.251
268.77	16.856
269.14	19.604
269.51	20.833
269.88	21.926
270.25	19.718
270.62	21.730
270.99	20.606
271.36	18.614
271.73	17.878
272.10	19.238
272.47	20.441
272.84	16.867
273.21	19.238
273.58	21.371
273.95	19.038
274.32	16.730
274.69	20.503
275.06	17.766
275.43	16.451
275.80	18.519
276.17	17.778
276.54	19.776
276.91	18.784
277.28	18.987
277.65	19.749
278.02	19.118
278.39	20.471
278.76	18.453
279.13	20.213
279.50	18.557
279.87	17.352
280.23	16.549
280.60	19.831
280.97	18.914
281.34	20.034
281.71	20.474
282.08	18.771
282.45	16.858
282.82	19.623
283.19	17.771
283.56	18.033
283.92	19.369
284.29	19.273
284.66	17.241
285.03	16.346
285.40	18.856
285.77	17.337
286.14	19.695
286.51	17.808
286.87	18.641
287.24	18.072
287.61	17.788
287.98	19.184
288.35	17.604
288.72	17.604
289.08	19.034
289.45	15.976
289.82	15.211
290.19	18.247
290.56	16.197
290.93	16.548
291.29	16.804
291.66	16.804
292.03	15.604
292.40	19.320
292.77	15.499
293.13	16.509
293.50	16.032
293.87	15.436
294.24	16.133
294.60	16.056
294.97	13.960
295.34	16.261
295.71	15.259
296.08	14.341
296.44	13.725
296.81	14.982
297.18	13.450
297.55	14.623
297.91	14.116
298.28	14.218
298.65	14.269
299.02	13.105
299.38	14.760
299.75	14.603
300.12	13.657
300.48	13.594
300.85	13.723
301.22	15.436
301.59	13.584
301.95	13.107
302.32	14.444
302.69	12.705
303.05	13.602
303.42	13.969
303.79	14.688
304.15	14.511
304.52	14.165
304.89	14.450
305.25	13.561
305.62	14.943
305.99	14.742
306.35	13.710
306.72	13.650
307.09	14.721
307.45	13.975
307.82	13.724
308.19	13.421
308.55	15.043
308.92	12.950
309.29	12.739
309.65	12.963
310.02	12.079
310.38	13.287
310.75	13.689
311.12	13.998
311.48	13.490
311.85	13.010
312.22	13.662
312.58	14.085
312.95	13.576
313.31	12.105
313.68	13.736
314.05	13.369
314.41	13.934
314.78	13.806
315.14	13.158
315.51	13.204
315.87	13.051
316.24	14.612
316.61	11.901
316.97	13.213
317.34	13.492
317.70	14.148
318.07	13.668
318.43	12.925
318.80	14.716
319.16	12.532
319.53	12.768
319.89	12.621
320.26	12.989
320.62	13.564
320.99	13.112
321.35	13.586
321.72	14.233
322.08	12.624
322.45	12.376
322.81	14.621
323.18	11.327
323.54	13.707
323.91	13.790
324.27	13.081
324.64	15.029
325.00	12.852
325.37	13.432
325.73	13.306
326.10	13.382
326.46	14.739
326.83	13.771
327.19	13.858
327.56	14.229
327.92	12.825
328.29	12.903
328.65	14.322
329.01	13.367
329.38	13.564
329.74	14.469
330.11	12.671
330.47	13.564
330.84	13.264
331.20	14.917
331.56	13.605
331.93	14.142
332.29	13.898
332.66	13.040
333.02	13.065
333.38	12.752
333.75	12.542
334.11	13.928
334.48	13.449
334.84	13.594
335.20	13.602
335.57	12.901
335.93	13.058
336.29	12.562
336.66	12.952
337.02	13.462
337.38	13.690
337.75	12.231
338.11	13.877
338.47	14.144
338.84	13.113
339.20	11.963
339.56	14.003
339.93	13.711
340.29	13.688
340.65	12.733
341.02	12.690
341.38	14.390
341.74	13.559
342.11	13.516
342.47	12.629
342.83	12.963
343.20	13.900
343.56	13.392
343.92	12.730
344.28	13.984
344.65	13.798
345.01	13.261
345.37	12.830
345.73	12.783
346.10	13.105
346.46	12.658
346.82	12.959
347.19	12.911
347.55	13.202
347.91	13.001
348.27	13.278
348.63	13.328
349.00	12.752
349.36	13.680
349.72	13.616
350.08	13.150
350.45	13.308
350.81	12.217
351.17	12.632
351.53	13.192
351.89	12.908
352.26	12.836
352.62	12.090
352.98	11.756
353.34	11.501
353.70	12.635
354.07	13.040
354.43	11.769
354.79	11.967
355.15	12.804
355.51	12.646
355.87	12.266
356.24	12.852
356.60	12.491
356.96	11.490
357.32	12.788
357.68	12.299
358.04	12.201
358.40	11.493
358.77	12.281
359.13	11.965
359.49	11.524
359.85	12.110
360.21	13.415
360.57	11.558
360.93	11.283
361.29	12.491
361.66	13.179
362.02	12.944
362.38	12.790
362.74	12.221
363.10	12.448
363.46	12.673
363.82	12.429
364.18	12.104
364.54	12.310
364.90	12.776
365.26	11.517
365.62	12.267
365.98	12.730
366.35	12.148
366.71	12.177
367.07	12.111
367.43	12.935
367.79	12.940
368.15	13.043
368.51	12.923
368.87	12.214
369.23	11.867
369.59	12.022
369.95	13.185
370.31	12.897
370.67	12.105
371.03	12.327
371.39	11.484
371.75	11.967
372.11	13.347
372.47	12.593
372.83	13.089
373.19	12.809
373.55	12.534
373.91	11.861
374.27	12.354
374.63	12.855
374.99	11.936
375.35	12.662
375.71	12.065
376.07	12.072
376.42	11.650
376.78	12.679
377.14	12.664
377.50	12.207
377.86	12.808
378.22	12.395
378.58	12.307
378.94	12.383
379.30	12.654
379.66	12.463
380.02	12.233
380.38	12.558
380.74	12.113
381.09	13.124
381.45	10.966
381.81	12.822
382.17	12.530
382.53	12.398
382.89	13.262
383.25	12.309
383.61	11.574
383.97	12.367
384.32	12.440
384.68	11.427
385.04	12.840
385.40	13.082
385.76	12.720
386.12	12.507
386.48	12.706
386.83	12.872
387.19	12.630
387.55	12.559
387.91	12.386
388.27	12.182
388.62	12.543
388.98	12.296
389.34	12.316
389.70	13.074
390.06	11.841
390.42	12.470
390.77	12.703
391.13	12.207
391.49	12.923
391.85	11.758
392.20	11.625
392.56	12.699
392.92	12.432
393.28	13.267
393.64	12.905
393.99	12.377
394.35	13.084
394.71	12.754
395.07	11.617
395.42	12.336
395.78	13.528
396.14	13.072
396.50	11.580
396.85	13.119
397.21	11.953
397.57	12.544
397.92	12.428
398.28	11.027
398.64	12.700
399.00	11.832
399.35	12.565
399.71	12.663
400.07	12.240
400.42	12.340
400.78	12.153
401.14	11.725
401.49	12.052
401.85	12.558
402.21	12.630
402.57	12.148
402.92	12.766
403.28	11.417
403.63	11.456
403.99	11.698
404.35	12.223
404.70	13.144
405.06	11.793
405.42	12.119
405.77	12.759
406.13	12.318
406.49	12.500
406.84	12.576
407.20	12.353
407.55	11.993
407.91	11.754
408.27	11.484
408.62	12.100
408.98	12.826
409.34	11.848
409.69	11.928
410.05	12.837
410.40	11.949
410.76	11.497
411.11	12.741
411.47	12.162
411.83	13.169
412.18	12.289
412.54	12.626
412.89	12.398
413.25	11.964
413.60	11.890
413.96	13.578
414.31	12.918
414.67	12.284
415.03	12.615
415.38	12.232
415.74	12.340
416.09	12.832
416.45	11.709
416.80	12.240
417.16	12.069
417.51	12.889
417.87	12.017
418.22	12.515
418.58	11.958
418.93	11.758
419.29	12.207
419.64	11.945
420.00	11.869
420.35	11.847
420.71	12.119
421.06	12.191
421.42	12.615
421.77	11.955
422.12	12.844
422.48	11.777
422.83	12.705
423.19	12.308
423.54	12.500
423.90	11.761
424.25	11.787
424.61	11.366
424.96	12.576
425.31	13.217
425.67	12.185
426.02	12.120
426.38	11.768
426.73	12.221
427.09	13.033
427.44	11.851
427.79	11.940
428.15	11.644
428.50	12.135
428.85	12.400
429.21	12.979
429.56	11.797
429.92	12.629
430.27	13.157
430.62	12.115
430.98	12.346
431.33	12.121
431.68	12.261
432.04	12.646
432.39	12.533
432.74	12.500
433.10	12.872
433.45	11.984
433.80	12.715
434.16	11.983
434.51	12.487
434.86	12.106
435.22	12.221
435.57	12.736
435.92	12.966
436.28	12.116
436.63	12.616
436.98	12.775
437.34	12.289
437.69	12.438
438.04	12.427
438.39	12.636
438.75	13.005
439.10	13.372
439.45	12.633
439.81	12.429
440.16	11.796
440.51	13.043
440.86	12.674
441.22	12.594
441.57	13.260
441.92	12.512
442.27	13.081
442.63	13.313
442.98	13.020
443.33	13.414
443.68	12.983
444.03	13.547
444.39	13.407
444.74	12.660
445.09	13.026
445.44	13.751
445.79	13.458
446.15	13.464
446.50	13.592
446.85	13.230
447.20	13.056
447.55	13.598
447.91	12.513
448.26	13.214
448.61	12.912
448.96	13.197
449.31	12.513
449.66	13.508
450.02	13.397
450.37	13.053
450.72	12.056
451.07	13.554
451.42	13.576
451.77	13.118
452.12	13.262
452.47	12.834
452.83	13.232
453.18	13.076
453.53	13.383
453.88	14.025
454.23	13.277
454.58	13.233
454.93	13.410
455.28	13.847
455.63	13.303
455.98	13.520
456.34	13.899
456.69	13.933
457.04	14.303
457.39	13.581
457.74	13.367
458.09	13.509
458.44	13.685
458.79	13.873
459.14	13.110
459.49	13.752
459.84	13.799
460.19	13.159
460.54	13.799
460.89	13.923
461.24	13.506
461.59	14.222
461.94	13.234
462.29	13.550
462.64	14.182
462.99	13.810
463.34	14.082
463.69	13.775
464.04	13.785
464.39	14.126
464.74	12.942
465.09	13.264
465.44	13.519
465.79	14.120
466.14	13.601
466.49	14.053
466.84	14.931
467.19	13.468
467.54	13.278
467.89	13.678
468.24	13.740
468.59	12.970
468.94	12.995
469.29	13.497
469.64	13.922
469.99	13.512
470.34	13.738
470.68	14.286
471.03	14.473
471.38	13.669
471.73	13.199
472.08	14.721
472.43	14.449
472.78	13.917
473.13	14.096
473.48	13.656
473.83	14.277
474.17	13.658
474.52	14.432
474.87	14.396
475.22	14.817
475.57	13.551
475.92	14.535
476.27	14.271
476.61	15.317
476.96	13.712
477.31	14.505
477.66	15.163
478.01	13.777
478.36	13.908
478.70	13.547
479.05	14.468
479.40	15.005
479.75	14.169
480.10	14.401
480.45	14.950
480.79	13.878
481.14	14.246
481.49	14.312
481.84	15.231
482.19	14.538
482.53	14.517
482.88	14.444
483.23	14.807
483.58	14.192
483.92	14.273
484.27	14.056
484.62	14.686
484.97	15.008
485.31	13.446
485.66	13.151
486.01	13.333
486.36	14.098
486.70	14.852
487.05	15.055
487.40	14.465
487.75	14.173
488.09	14.145
488.44	13.748
488.79	14.165
489.13	14.229
489.48	13.748
489.83	14.004
490.17	13.892
490.52	14.655
490.87	14.805
491.22	14.775
491.56	15.230
491.91	15.482
492.26	15.534
492.60	15.260
492.95	14.699
493.30	15.733
493.64	14.805
493.99	14.781
494.34	14.242
494.68	15.460
495.03	14.934
495.37	15.180
495.72	14.376
496.07	14.724
496.41	14.843
496.76	15.471
497.11	14.777
497.45	15.019
497.80	15.238
498.14	14.875
498.49	15.579
498.84	15.585
499.18	14.935
499.53	14.664
499.87	14.901
500.22	14.693
500.56	14.440
500.91	14.828
501.26	15.318
501.60	14.582
501.95	14.763
502.29	14.963
502.64	15.173
502.98	15.056
503.33	14.600
503.67	14.741
504.02	14.799
504.36	15.505
504.71	15.250
505.06	15.462
505.40	14.534
505.75	15.528
506.09	15.470
506.44	15.645
506.78	15.596
507.13	15.768
507.47	15.490
507.82	15.388
508.16	15.296
508.51	15.096
508.85	14.974
509.19	15.111
509.54	15.946
509.88	16.221
510.23	15.542
510.57	16.095
510.92	15.868
511.26	15.488
511.61	15.210
511.95	15.422
512.30	16.150
512.64	15.092
512.98	15.458
513.33	15.726
513.67	15.553
514.02	15.841
514.36	16.010
514.70	15.990
515.05	16.267
515.39	15.958
515.74	16.437
516.08	16.218
516.42	16.536
516.77	15.773
517.11	16.452
517.46	15.695
517.80	17.157
518.14	16.649
518.49	16.323
518.83	16.338
519.17	15.886
519.52	15.199
519.86	16.684
520.20	15.868
520.55	16.046
520.89	16.104
521.23	16.806
521.58	15.819
521.92	15.637
522.26	16.266
522.61	16.262
522.95	16.148
523.29	16.552
523.64	16.424
523.98	17.228
524.32	16.848
524.66	17.359
525.01	15.912
525.35	15.853
525.69	16.299
526.04	15.672
526.38	16.322
526.72	17.128
527.06	16.598
527.41	16.735
527.75	16.805
528.09	17.119
528.43	15.631
528.78	15.954
529.12	16.571
529.46	16.751
529.80	16.934
530.15	16.928
530.49	16.845
530.83	16.470
531.17	15.651
531.51	17.148
531.86	15.685
532.20	17.073
532.54	16.158
532.88	16.182
533.22	16.382
533.57	16.330
533.91	16.330
534.25	16.507
534.59	16.149
534.93	15.846
535.27	16.338
535.62	16.202
535.96	16.153
536.30	16.510
536.64	16.997
536.98	15.990
537.32	16.852
537.66	15.783
538.01	16.435
538.35	16.443
538.69	16.587
539.03	16.677
539.37	16.196
539.71	16.036
540.05	16.547
540.39	15.770
540.73	15.361
541.07	15.696
541.42	15.830
541.76	15.125
542.10	15.742
542.44	15.956
542.78	15.815
543.12	15.793
543.46	16.300
543.80	15.048
544.14	16.038
544.48	16.548
544.82	16.338
545.16	15.385
545.50	15.398
545.84	15.064
546.18	16.667
546.52	16.051
546.86	16.289
547.20	15.394
547.54	15.855
547.88	15.552
548.22	16.667
548.56	16.033
548.90	15.940
549.24	15.380
549.58	16.151
549.92	16.327
550.26	15.922
550.60	16.401
550.94	16.365
551.28	16.370
551.62	16.712
551.96	16.440
552.30	16.061
552.64	16.304
552.98	16.032
553.32	16.527
553.66	16.399
554.00	16.646
554.34	15.573
554.68	15.623
555.02	15.769
555.36	16.700
555.69	15.759
556.03	15.322
556.37	17.084
556.71	15.599
557.05	16.358
557.39	16.523
557.73	16.579
558.07	16.424
558.41	17.409
558.75	16.700
559.08	16.771
559.42	16.735
559.76	16.961
560.10	16.343
560.44	15.897
560.78	16.625
561.12	16.810
561.45	16.727
561.79	16.239
562.13	16.697
562.47	15.783
562.81	16.772
563.15	15.657
563.48	16.656
563.82	16.566
564.16	16.111
564.50	15.912
564.84	16.637
565.17	16.176
565.51	16.571
565.85	16.686
566.19	16.475
566.52	15.974
566.86	16.242
567.20	15.606
567.54	16.091
567.88	16.463
568.21	15.810
568.55	15.779
568.89	15.615
569.23	16.012
569.56	15.358
569.90	15.538
570.24	15.143
570.57	14.753
570.91	14.819
571.25	14.608
571.59	14.862
571.92	14.686
572.26	14.531
572.60	14.414
572.93	14.890
573.27	14.836
573.61	14.637
573.95	14.518
574.28	14.179
574.62	14.256
574.96	13.917
575.29	13.924
575.63	14.253
575.97	13.964
576.30	14.162
576.64	14.006
576.98	14.032
577.31	14.477
577.65	14.239
577.98	14.062
578.32	13.881
578.66	14.041
578.99	13.905
579.33	13.784
579.67	14.030
580.00	13.936
580.34	13.809
580.67	13.923
581.01	14.301
581.35	13.891
581.68	13.984
582.02	14.381
582.35	13.992
582.69	14.283
583.02	14.110
583.36	13.863
583.70	13.906
584.03	13.943
584.37	13.799
584.70	13.814
585.04	13.625
585.37	14.185
585.71	13.873
586.04	14.597
586.38	14.392
586.72	13.913
587.05	13.993
587.39	14.161
587.72	14.617
588.06	14.531
588.39	14.688
588.73	14.127
589.06	14.165
589.40	14.444
589.73	14.171
590.07	14.622
590.40	14.976
590.73	14.917
591.07	15.004
591.40	15.124
591.74	15.223
592.07	14.779
592.41	15.221
592.74	15.122
593.08	15.605
593.41	15.281
593.75	15.057
594.08	14.723
594.41	14.615
594.75	14.281
595.08	15.209
595.42	14.708
595.75	15.079
596.09	15.215
596.42	14.977
596.75	14.473
597.09	15.071
597.42	14.779
597.75	15.327
598.09	14.841
598.42	14.958
598.76	14.673
599.09	15.237
599.42	15.119
599.76	14.790
600.09	15.415
600.42	14.648
600.76	14.729
601.09	14.338
601.42	15.105
601.76	15.379
602.09	15.583
602.42	14.904
602.76	15.314
603.09	14.941
603.42	15.101
603.76	14.588
604.09	15.366
604.42	15.119
604.76	14.954
605.09	15.357
605.42	15.231
605.75	15.346
606.09	14.632
606.42	14.666
606.75	14.693
607.09	14.555
607.42	15.299
607.75	14.498
608.08	15.036
608.42	14.994
608.75	14.677
609.08	15.195
609.41	15.395
609.75	15.223
610.08	15.347
610.41	15.548
610.74	15.168
611.07	15.275
611.41	15.202
611.74	15.751
612.07	15.381
612.40	14.544
612.73	15.208
613.07	15.599
613.40	15.544
613.73	15.022
614.06	15.800
614.39	15.160
614.72	15.818
615.06	15.351
615.39	15.080
615.72	14.929
616.05	15.590
616.38	15.994
616.71	16.092
617.05	15.655
617.38	15.623
617.71	15.551
618.04	15.057
618.37	16.503
618.70	16.063
619.03	15.293
619.36	16.153
619.69	14.542
620.03	16.447
620.36	15.460
620.69	16.163
621.02	15.945
621.35	16.618
621.68	16.558
622.01	15.801
622.34	16.457
622.67	16.082
623.00	15.250
623.33	15.859
623.66	15.499
623.99	16.327
624.32	16.374
624.65	15.766
624.99	15.995
625.32	16.003
625.65	15.442
625.98	15.932
626.31	16.088
626.64	16.484
626.97	16.204
627.30	15.718
627.63	16.954
627.96	16.892
628.29	15.409
628.62	16.457
628.95	17.528
629.28	16.228
629.61	17.340
629.94	15.983
630.26	16.186
630.59	16.149
630.92	16.537
631.25	15.474
