SpectraSuite Data File
++++++++++++++++++++++++++++++++++++
Date: Thu May 14 15:05:16 PDT 2015
User: schluterlab
Dark Spectrum Present: Yes
Reference Spectrum Present: Yes
Number of Sampled Component Spectra: 1
Spectrometers: USB2E3373
Integration Time (usec): 3000 (USB2E3373)
Spectra Averaged: 3 (USB2E3373)
Boxcar Smoothing: 0 (USB2E3373)
Correct for Electrical Dark: No (USB2E3373)
Strobe/Lamp Enabled: No (USB2E3373)
Correct for Detector Non-linearity: No (USB2E3373)
Correct for Stray Light: No (USB2E3373)
Number of Pixels in Processed Spectrum: 2048
>>>>>Begin Processed Spectral Data<<<<<
178.53	0.000
178.91	371.429
179.29	-3600.000
179.67	-3100.000
180.04	271.429
180.42	240.000
180.80	680.000
181.18	-3300.000
181.56	-2400.000
181.94	675.000
182.31	-500.000
182.69	866.667
183.07	-1150.000
183.45	900.000
183.83	-550.000
184.20	-933.333
184.58	2300.000
184.96	-550.000
185.34	-166.667
185.72	-240.000
186.09	377.778
186.47	1000.000
186.85	620.000
187.23	-355.556
187.61	-3200.000
187.98	680.000
188.36	775.000
188.74	-750.000
189.12	-966.667
189.49	-106.250
189.87	-387.500
190.25	-266.667
190.63	-600.000
191.00	-266.667
191.38	0.000
191.76	-275.000
192.14	-416.667
192.51	1350.000
192.89	-283.333
193.27	0.000
193.65	-342.857
194.02	-2900.000
194.40	-371.429
194.78	571.429
195.15	0.000
195.53	-190.909
195.91	0.000
196.29	-725.000
196.66	-192.308
197.04	-2900.000
197.42	-257.143
197.79	-1650.000
198.17	-387.500
198.55	-414.286
198.92	-133.333
199.30	-262.500
199.68	-154.545
200.05	-135.714
200.43	-1050.000
200.81	528.571
201.18	0.000
201.56	355.556
201.94	0.000
202.31	1000.000
202.69	-366.667
203.07	2100.000
203.44	-233.333
203.82	-800.000
204.19	-183.333
204.57	-433.333
204.95	-300.000
205.32	-2800.000
205.70	750.000
206.08	-500.000
206.45	-366.667
206.83	500.000
207.20	-500.000
207.58	-560.000
207.96	-600.000
208.33	-433.333
208.71	225.000
209.08	-250.000
209.46	0.000
209.84	600.000
210.21	850.000
210.59	1500.000
210.96	1166.667
211.34	-575.000
211.71	-337.500
212.09	-2700.000
212.46	0.000
212.84	1450.000
213.22	-540.000
213.59	-475.000
213.97	-230.000
214.34	-1000.000
214.72	433.333
215.09	-975.000
215.47	0.000
215.84	471.429
216.22	1650.000
216.59	-420.000
216.97	-380.000
217.34	-550.000
217.72	-250.000
218.09	-950.000
218.47	-625.000
218.84	0.000
219.22	600.000
219.59	-105.882
219.97	-105.000
220.34	1550.000
220.72	-377.778
221.09	-130.769
221.47	-833.333
221.84	-170.000
222.22	-428.571
222.59	0.000
222.97	-237.500
223.34	-540.000
223.72	-2100.000
224.09	-625.000
224.46	-800.000
224.84	-460.000
225.21	-485.714
225.59	-475.000
225.96	-525.000
226.34	-84.615
226.71	400.000
227.08	-1500.000
227.46	-186.667
227.83	-725.000
228.21	-100.000
228.58	312.500
228.95	1000.000
229.33	-150.000
229.70	-270.000
230.08	-94.737
230.45	260.000
230.82	-1100.000
231.20	-128.571
231.57	-183.333
231.95	-163.636
232.32	-263.636
232.69	-110.000
233.07	-800.000
233.44	-147.059
233.81	-200.000
234.19	-138.889
234.56	-100.000
234.93	-58.621
235.31	-131.579
235.68	-138.889
236.05	-165.000
236.43	-46.154
236.80	-32.000
237.17	-59.259
237.55	-54.545
237.92	-240.000
238.29	-74.194
238.67	-75.000
239.04	-75.000
239.41	-42.857
239.79	-36.957
240.16	-25.926
240.53	-67.391
240.91	-68.627
241.28	-42.623
241.65	-23.881
242.02	-20.270
242.40	-46.154
242.77	-25.333
243.14	-21.951
243.51	-36.842
243.89	-35.897
244.26	-21.782
244.63	-25.490
245.00	-20.561
245.38	-23.684
245.75	-34.513
246.12	-16.667
246.49	-17.054
246.87	-11.429
247.24	-13.245
247.61	-10.526
247.98	-12.081
248.36	-13.580
248.73	-21.472
249.10	-17.486
249.47	-8.458
249.84	-6.283
250.22	-11.399
250.59	-11.111
250.96	-7.273
251.33	-16.837
251.70	-6.410
252.08	-6.667
252.45	-7.787
252.82	-7.851
253.19	-10.938
253.56	-5.323
253.94	-9.615
254.31	-9.470
254.68	-7.343
255.05	-2.280
255.42	-7.143
255.79	-10.680
256.16	-8.278
256.54	-6.623
256.91	-6.885
257.28	-8.525
257.65	-8.599
258.02	-8.260
258.39	-4.843
258.76	-4.893
259.14	-4.023
259.51	-6.340
259.88	-5.949
260.25	-4.444
260.62	-5.205
260.99	-2.459
261.36	-5.094
261.73	-7.692
262.10	-5.220
262.47	-6.702
262.85	-0.758
263.22	-6.494
263.59	-9.211
263.96	-3.581
264.33	-8.696
264.70	-5.432
265.07	-2.387
265.44	-0.227
265.81	-3.009
266.18	-2.721
266.55	-3.571
266.92	-8.656
267.29	-3.063
267.66	-3.326
268.03	-5.677
268.40	-2.714
268.77	-6.378
269.14	-6.608
269.51	-1.535
269.88	-1.025
270.25	-3.421
270.62	-4.008
270.99	-2.424
271.36	-2.970
271.73	-3.143
272.10	-1.403
272.47	-3.607
272.84	-3.614
273.21	-2.806
273.58	-3.226
273.95	-3.269
274.32	-4.183
274.69	-4.642
275.06	-1.465
275.43	-4.436
275.80	-1.411
276.17	-3.889
276.54	-3.918
276.91	-4.293
277.28	-1.085
277.65	-2.873
278.02	-2.206
278.39	-2.717
278.76	-3.691
279.13	-2.660
279.50	-1.375
279.87	-2.504
280.23	-3.873
280.60	-2.034
280.97	-1.974
281.34	-5.093
281.71	-1.861
282.08	-4.319
282.45	-2.782
282.82	-2.198
283.19	-4.362
283.56	-3.279
283.92	0.300
284.29	-0.316
284.66	0.493
285.03	-2.564
285.40	-3.091
285.77	-3.560
286.14	-1.985
286.51	-3.349
286.87	-2.686
287.24	-2.861
287.61	-2.392
287.98	-3.021
288.35	-1.923
288.72	-2.663
289.08	-1.025
289.45	-2.219
289.82	-3.012
290.19	-3.305
290.56	-1.549
290.93	-2.282
291.29	-1.515
291.66	-3.581
292.03	-2.714
292.40	-0.544
292.77	-0.135
293.13	-0.812
293.50	-2.365
293.87	-2.953
294.24	-0.400
294.60	0.253
294.97	-3.490
295.34	-0.384
295.71	-2.648
296.08	-2.713
296.44	-0.980
296.81	-1.705
297.18	-2.366
297.55	-2.476
297.91	-2.847
298.28	-1.777
298.65	-0.357
299.02	-1.063
299.38	-1.373
299.75	-1.636
300.12	-1.157
300.48	-1.498
300.85	-1.350
301.22	-0.447
301.59	-1.941
301.95	-1.808
302.32	-1.111
302.69	-1.533
303.05	-0.871
303.42	0.443
303.79	-0.208
304.15	0.000
304.52	-1.797
304.89	-0.419
305.25	-0.621
305.62	-1.463
305.99	-0.412
306.35	-1.310
306.72	-1.344
307.09	-2.030
307.45	-0.414
307.82	-1.211
308.19	-1.413
308.55	0.482
308.92	-0.682
309.29	-0.766
309.65	-0.975
310.02	-1.188
310.38	-0.787
310.75	-0.680
311.12	0.384
311.48	-1.564
311.85	-0.760
312.22	-0.664
312.58	-0.939
312.95	-1.338
313.31	-1.084
313.68	0.000
314.05	0.361
314.41	-0.455
314.78	-0.454
315.14	0.091
315.51	-0.369
315.87	-0.270
316.24	-0.183
316.61	0.622
316.97	-0.905
317.34	-1.146
317.70	-0.349
318.07	-0.265
318.43	0.935
318.80	1.338
319.16	0.000
319.53	-1.285
319.89	-0.701
320.26	0.356
320.62	-0.089
320.99	0.185
321.35	-0.462
321.72	0.558
322.08	-0.361
322.45	-0.723
322.81	0.271
323.18	-0.442
323.54	0.431
323.91	0.178
324.27	0.086
324.64	1.092
325.00	0.415
325.37	1.065
325.73	0.413
326.10	0.243
326.46	0.814
326.83	0.801
327.19	0.157
327.56	1.186
327.92	0.079
328.29	-0.081
328.65	-0.084
329.01	0.085
329.38	0.590
329.74	0.942
330.11	0.428
330.47	0.505
330.84	0.000
331.20	1.083
331.56	0.433
331.93	0.669
332.29	1.949
332.66	1.661
333.02	0.251
333.38	0.168
333.75	0.337
334.11	0.417
334.48	1.155
334.84	0.765
335.20	0.504
335.57	0.253
335.93	1.157
336.29	-0.083
336.66	0.757
337.02	0.669
337.38	0.850
337.75	0.165
338.11	0.757
338.47	1.158
338.84	0.338
339.20	-1.179
339.56	0.988
339.93	1.314
340.29	1.127
340.65	0.973
341.02	1.197
341.38	1.293
341.74	0.565
342.11	1.770
342.47	0.635
342.83	0.886
343.20	0.736
343.56	1.443
343.92	1.761
344.28	1.484
344.65	2.248
345.01	1.950
345.37	1.011
345.73	0.701
346.10	1.170
346.46	0.791
346.82	1.873
347.19	1.604
347.55	1.897
347.91	1.412
348.27	1.897
348.63	1.752
349.00	1.119
349.36	1.115
349.72	1.265
350.08	1.783
350.45	1.065
350.81	1.131
351.17	1.203
351.53	1.365
351.89	1.746
352.26	0.746
352.62	1.119
352.98	1.756
353.34	0.672
353.70	0.770
354.07	0.894
354.43	1.215
354.79	1.122
355.15	1.030
355.51	2.924
355.87	1.122
356.24	2.662
356.60	0.665
356.96	1.260
357.32	1.338
357.68	1.245
358.04	0.898
358.40	0.746
358.77	1.608
359.13	0.739
359.49	-0.149
359.85	1.813
360.21	1.435
360.57	0.933
360.93	1.340
361.29	1.825
361.66	1.665
362.02	2.505
362.38	1.687
362.74	1.257
363.10	1.857
363.46	1.385
363.82	0.710
364.18	1.126
364.54	1.452
364.90	2.408
365.26	0.276
365.62	2.067
365.98	2.383
366.35	1.812
366.71	2.109
367.07	1.759
367.43	1.838
367.79	2.588
368.15	2.274
368.51	1.894
368.87	2.939
369.23	1.733
369.59	1.981
369.95	2.096
370.31	2.566
370.67	1.857
371.03	2.147
371.39	1.142
371.75	1.788
372.11	2.439
372.47	2.370
372.83	1.898
373.19	2.468
373.55	1.965
373.91	1.159
374.27	2.135
374.63	2.165
374.99	1.857
375.35	1.818
375.71	2.258
376.07	2.518
376.42	2.645
376.78	2.797
377.14	2.495
377.50	1.961
377.86	3.325
378.22	2.695
378.58	2.497
378.94	2.641
379.30	2.343
379.66	2.763
380.02	2.943
380.38	3.168
380.74	2.930
381.09	2.613
381.45	2.841
381.81	3.044
382.17	2.316
382.53	2.924
382.89	3.386
383.25	2.989
383.61	2.315
383.97	2.532
384.32	2.751
384.68	2.146
385.04	3.355
385.40	3.359
385.76	4.045
386.12	3.052
386.48	3.647
386.83	3.754
387.19	3.013
387.55	3.110
387.91	2.911
388.27	3.464
388.62	3.379
388.98	3.666
389.34	4.420
389.70	2.847
390.06	2.960
390.42	3.494
390.77	4.455
391.13	3.756
391.49	3.563
391.85	3.394
392.20	3.203
392.56	4.017
392.92	4.253
393.28	3.759
393.64	3.017
393.99	4.067
394.35	3.680
394.71	3.832
395.07	2.874
395.42	3.312
395.78	4.205
396.14	3.446
396.50	3.444
396.85	3.936
397.21	2.781
397.57	4.122
397.92	4.296
398.28	3.694
398.64	3.490
399.00	3.613
399.35	4.136
399.71	3.967
400.07	3.930
400.42	4.366
400.78	3.125
401.14	4.269
401.49	3.923
401.85	3.837
402.21	3.998
402.57	3.932
402.92	3.428
403.28	3.279
403.63	2.983
403.99	3.029
404.35	3.127
404.70	4.306
405.06	4.130
405.42	3.571
405.77	3.708
406.13	4.052
406.49	3.322
406.84	3.878
407.20	4.080
407.55	2.968
407.91	3.583
408.27	4.240
408.62	3.432
408.98	3.134
409.34	2.991
409.69	3.646
410.05	4.338
410.40	4.118
410.76	4.094
411.11	3.916
411.47	3.931
411.83	3.704
412.18	3.133
412.54	3.972
412.89	4.191
413.25	4.063
413.60	3.102
413.96	3.846
414.31	4.136
414.67	3.995
415.03	3.138
415.38	4.035
415.74	4.215
416.09	3.578
416.45	3.632
416.80	3.794
417.16	3.831
417.51	4.234
417.87	3.740
418.22	3.832
418.58	3.594
418.93	4.598
419.29	2.959
419.64	3.541
420.00	3.501
420.35	4.436
420.71	3.274
421.06	3.220
421.42	3.612
421.77	3.339
422.12	4.123
422.48	3.789
422.83	4.107
423.19	4.562
423.54	3.429
423.90	3.865
424.25	4.267
424.61	3.157
424.96	4.119
425.31	4.193
425.67	3.865
426.02	3.431
426.38	4.191
426.73	3.795
427.09	5.190
427.44	3.714
427.79	3.814
428.15	3.710
428.50	3.258
428.85	3.731
429.21	4.787
429.56	3.899
429.92	4.029
430.27	3.807
430.62	3.664
430.98	4.624
431.33	4.301
431.68	3.688
432.04	4.825
432.39	4.178
432.74	4.053
433.10	4.597
433.45	3.958
433.80	3.702
434.16	5.165
434.51	3.854
434.86	4.126
435.22	4.038
435.57	4.186
435.92	4.730
436.28	3.868
436.63	3.714
436.98	4.026
437.34	3.720
437.69	4.128
438.04	4.495
438.39	4.710
438.75	3.652
439.10	4.863
439.45	4.080
439.81	4.463
440.16	4.718
440.51	4.348
440.86	4.503
441.22	4.662
441.57	4.193
441.92	4.122
442.27	4.293
442.63	4.570
442.98	4.803
443.33	4.314
443.68	5.600
444.03	5.080
444.39	4.762
444.74	4.798
445.09	4.460
445.44	4.426
445.79	4.693
446.15	5.036
446.50	4.599
446.85	4.912
447.20	5.609
447.55	4.236
447.91	4.398
448.26	4.334
448.61	4.676
448.96	4.882
449.31	5.090
449.66	4.521
450.02	5.327
450.37	4.582
450.72	4.467
451.07	4.841
451.42	4.564
451.77	4.225
452.12	4.458
452.47	4.100
452.83	4.673
453.18	4.378
453.53	4.595
453.88	4.528
454.23	4.802
454.58	4.469
454.93	4.126
455.28	4.937
455.63	5.060
455.98	4.916
456.34	4.476
456.69	4.527
457.04	4.433
457.39	4.656
457.74	4.642
458.09	4.503
458.44	5.550
458.79	4.229
459.14	4.562
459.49	4.527
459.84	4.774
460.19	4.164
460.54	4.940
460.89	4.182
461.24	3.908
461.59	5.036
461.94	3.765
462.29	5.151
462.64	4.707
462.99	4.457
463.34	4.997
463.69	5.569
464.04	5.003
464.39	5.101
464.74	4.390
465.09	4.902
465.44	4.506
465.79	4.865
466.14	4.273
466.49	5.053
466.84	4.904
467.19	4.624
467.54	4.877
467.89	4.425
468.24	5.983
468.59	3.995
468.94	4.254
469.29	4.499
469.64	4.450
469.99	4.525
470.34	4.950
470.68	4.375
471.03	3.995
471.38	4.905
471.73	4.551
472.08	4.442
472.43	5.057
472.78	4.786
473.13	4.425
473.48	4.532
473.83	4.817
474.17	4.865
474.52	4.209
474.87	5.316
475.22	5.183
475.57	5.296
475.92	5.127
476.27	4.899
476.61	4.517
476.96	4.640
477.31	5.198
477.66	5.929
478.01	5.897
478.36	5.234
478.70	5.369
479.05	5.470
479.40	5.380
479.75	5.476
480.10	4.832
480.45	5.834
480.79	5.215
481.14	5.331
481.49	5.270
481.84	5.744
482.19	5.161
482.53	5.684
482.88	5.450
483.23	5.158
483.58	5.764
483.92	5.230
484.27	5.885
484.62	5.157
484.97	5.404
485.31	5.702
485.66	5.293
486.01	5.337
486.36	5.449
486.70	5.893
487.05	6.478
487.40	6.617
487.75	6.081
488.09	5.861
488.44	5.888
488.79	5.632
489.13	5.539
489.48	5.165
489.83	5.392
490.17	5.589
490.52	5.419
490.87	5.415
491.22	5.026
491.56	5.930
491.91	5.975
492.26	5.322
492.60	4.941
492.95	5.792
493.30	5.379
493.64	6.001
493.99	5.482
494.34	5.226
494.68	5.139
495.03	5.771
495.37	5.770
495.72	5.533
496.07	5.828
496.41	5.620
496.76	5.713
497.11	5.605
497.45	5.783
497.80	6.086
498.14	6.032
498.49	5.515
498.84	5.622
499.18	5.578
499.53	6.233
499.87	6.286
500.22	4.987
500.56	5.398
500.91	5.767
501.26	5.636
501.60	5.347
501.95	6.122
502.29	5.968
502.64	6.209
502.98	6.169
503.33	5.961
503.67	5.582
504.02	5.736
504.36	6.122
504.71	5.788
505.06	5.639
505.40	6.033
505.75	6.375
506.09	6.492
506.44	5.896
506.78	5.963
507.13	7.054
507.47	6.537
507.82	6.392
508.16	5.784
508.51	6.048
508.85	5.291
509.19	6.869
509.54	5.908
509.88	6.654
510.23	6.751
510.57	6.380
510.92	7.112
511.26	6.445
511.61	5.698
511.95	6.296
512.30	7.139
512.64	6.197
512.98	6.803
513.33	6.401
513.67	6.476
514.02	6.490
514.36	6.292
514.70	6.667
515.05	6.778
515.39	6.457
515.74	6.734
516.08	6.498
516.42	6.960
516.77	6.887
517.11	6.653
517.46	7.264
517.80	7.536
518.14	7.073
518.49	7.050
518.83	7.025
519.17	6.839
519.52	8.438
519.86	7.497
520.20	7.455
520.55	7.010
520.89	7.207
521.23	8.152
521.58	7.401
521.92	6.969
522.26	7.446
522.61	7.812
522.95	6.632
523.29	7.241
523.64	7.791
523.98	8.443
524.32	8.825
524.66	7.171
525.01	7.871
525.35	7.007
525.69	7.135
526.04	8.037
526.38	7.586
526.72	7.958
527.06	7.625
527.41	8.805
527.75	8.195
528.09	8.323
528.43	8.111
528.78	7.572
529.12	7.970
529.46	7.982
529.80	8.124
530.15	8.348
530.49	7.948
530.83	8.383
531.17	7.826
531.51	8.063
531.86	8.233
532.20	9.207
532.54	8.558
532.88	8.061
533.22	7.896
533.57	8.367
533.91	8.418
534.25	8.253
534.59	8.333
534.93	8.149
535.27	7.944
535.62	8.130
535.96	9.123
536.30	8.284
536.64	9.129
536.98	9.410
537.32	8.889
537.66	8.110
538.01	7.795
538.35	8.465
538.69	6.851
539.03	8.890
539.37	9.187
539.71	8.288
540.05	7.554
540.39	8.741
540.73	8.257
541.07	8.645
541.42	8.387
541.76	8.422
542.10	8.203
542.44	7.552
542.78	8.029
543.12	8.820
543.46	7.753
543.80	7.794
544.14	7.959
544.48	8.215
544.82	9.396
545.16	8.646
545.50	8.388
545.84	8.206
546.18	9.568
546.52	7.962
546.86	8.679
547.20	8.524
547.54	8.427
547.88	8.861
548.22	8.538
548.56	8.309
548.90	8.000
549.24	8.693
549.58	9.085
549.92	7.526
550.26	9.191
550.60	8.360
550.94	8.473
551.28	8.383
551.62	8.895
551.96	8.867
552.30	9.369
552.64	8.463
552.98	8.484
553.32	8.746
553.66	8.360
554.00	9.395
554.34	8.237
554.68	8.263
555.02	9.724
555.36	9.336
555.69	7.880
556.03	8.827
556.37	9.762
556.71	9.068
557.05	9.073
557.39	8.958
557.73	8.454
558.07	8.675
558.41	9.103
558.75	8.857
559.08	9.047
559.42	9.259
559.76	8.820
560.10	8.841
560.44	8.707
560.78	9.812
561.12	8.498
561.45	9.307
561.79	8.913
562.13	9.181
562.47	8.508
562.81	9.367
563.15	7.955
563.48	8.825
563.82	8.827
564.16	8.540
564.50	9.356
564.84	7.847
565.17	9.353
565.51	8.228
565.85	8.907
566.19	8.410
566.52	8.894
566.86	8.602
567.20	9.135
567.54	8.816
567.88	8.970
568.21	9.042
568.55	8.633
568.89	8.625
569.23	9.970
569.56	8.949
569.90	8.803
570.24	8.836
570.57	8.339
570.91	8.941
571.25	9.112
571.59	8.990
571.92	9.009
572.26	8.894
572.60	9.036
572.93	8.962
573.27	8.879
573.61	9.052
573.95	8.667
574.28	8.970
574.62	8.231
574.96	8.999
575.29	8.768
575.63	8.755
575.97	9.198
576.30	8.956
576.64	8.733
576.98	8.929
577.31	9.527
577.65	8.873
577.98	8.886
578.32	8.678
578.66	8.820
578.99	9.052
579.33	9.249
579.67	9.180
580.00	9.013
580.34	9.228
580.67	9.047
581.01	8.827
581.35	8.962
581.68	8.944
582.02	8.941
582.35	9.191
582.69	9.357
583.02	9.325
583.36	9.222
583.70	9.271
584.03	9.359
584.37	9.158
584.70	8.973
585.04	9.137
585.37	8.948
585.71	8.846
586.04	9.137
586.38	9.215
586.72	8.849
587.05	8.800
587.39	9.225
587.72	9.258
588.06	9.212
588.39	9.559
588.73	9.233
589.06	9.509
589.40	9.588
589.73	9.415
590.07	9.450
590.40	9.432
590.73	9.191
591.07	9.531
591.40	9.331
591.74	9.102
592.07	9.663
592.41	9.188
592.74	9.762
593.08	9.172
593.41	9.565
593.75	9.253
594.08	9.512
594.41	9.712
594.75	9.565
595.08	9.085
595.42	9.253
595.75	9.558
596.09	9.590
596.42	9.280
596.75	9.031
597.09	9.737
597.42	9.138
597.75	9.526
598.09	9.325
598.42	9.771
598.76	9.094
599.09	9.114
599.42	9.420
599.76	9.178
600.09	9.209
600.42	9.276
600.76	9.742
601.09	9.326
601.42	8.685
601.76	9.828
602.09	9.685
602.42	9.051
602.76	9.594
603.09	9.728
603.42	9.393
603.76	9.302
604.09	10.007
604.42	9.358
604.76	9.399
605.09	9.414
605.42	9.769
605.75	9.731
606.09	8.959
606.42	9.011
606.75	9.483
607.09	9.370
607.42	9.326
607.75	9.418
608.08	9.392
608.42	9.391
608.75	9.204
609.08	9.720
609.41	9.881
609.75	9.152
610.08	9.543
610.41	9.601
610.74	9.118
611.07	8.925
611.41	10.269
611.74	9.099
612.07	10.005
612.40	9.173
612.73	9.438
613.07	9.633
613.40	9.673
613.73	9.437
614.06	9.323
614.39	9.670
614.72	9.656
615.06	9.673
615.39	9.763
615.72	9.289
616.05	9.665
616.38	10.141
616.71	9.248
617.05	8.892
617.38	10.219
617.71	9.287
618.04	9.768
618.37	9.781
618.70	9.955
619.03	9.379
619.36	9.679
619.69	9.737
620.03	9.667
620.36	9.755
620.69	9.130
621.02	9.711
621.35	10.015
621.68	9.761
622.01	10.036
622.34	9.135
622.67	9.416
623.00	7.827
623.33	9.423
623.66	10.117
623.99	9.217
624.32	9.747
624.65	10.167
624.99	9.818
625.32	10.189
625.65	10.384
625.98	9.763
626.31	9.284
626.64	10.330
626.97	8.927
627.30	8.656
627.63	9.077
627.96	10.736
628.29	10.195
628.62	8.480
628.95	9.202
629.28	9.601
629.61	9.848
629.94	10.042
630.26	9.237
630.59	9.758
630.92	9.870
631.25	10.644
631.58	11.111
631.91	8.997
632.24	10.471
632.57	10.057
632.90	10.030
633.23	10.000
633.56	9.898
633.89	9.814
634.22	10.707
634.55	9.290
634.88	9.091
635.20	10.118
635.53	10.282
635.86	9.751
636.19	11.665
636.52	9.494
636.85	9.704
637.18	9.252
637.51	9.247
637.83	11.517
638.16	11.175
638.49	8.216
638.82	8.117
639.15	8.820
639.48	9.931
639.81	10.970
640.13	11.425
640.46	8.606
640.79	9.436
641.12	10.435
641.45	8.908
641.77	11.425
642.10	9.843
642.43	10.239
642.76	10.298
643.09	7.808
643.41	8.683
643.74	8.276
644.07	10.759
644.40	8.911
644.73	9.144
645.05	8.076
645.38	11.799
645.71	9.677
646.04	10.473
646.36	8.321
646.69	9.663
647.02	9.174
647.35	10.840
647.67	7.729
648.00	7.962
648.33	9.159
648.66	9.415
648.98	9.388
649.31	9.608
649.64	8.898
649.96	9.416
