SpectraSuite Data File
++++++++++++++++++++++++++++++++++++
Date: Thu May 14 14:39:40 PDT 2015
User: schluterlab
Dark Spectrum Present: Yes
Reference Spectrum Present: Yes
Number of Sampled Component Spectra: 1
Spectrometers: USB2E3373
Integration Time (usec): 3000 (USB2E3373)
Spectra Averaged: 3 (USB2E3373)
Boxcar Smoothing: 0 (USB2E3373)
Correct for Electrical Dark: No (USB2E3373)
Strobe/Lamp Enabled: No (USB2E3373)
Correct for Detector Non-linearity: No (USB2E3373)
Correct for Stray Light: No (USB2E3373)
Number of Pixels in Processed Spectrum: 2048
>>>>>Begin Processed Spectral Data<<<<<
178.53	0.000
178.91	-200.000
179.29	1300.000
179.67	1100.000
180.04	28.571
180.42	-120.000
180.80	-320.000
181.18	500.000
181.56	1800.000
181.94	-275.000
182.31	350.000
182.69	-333.333
183.07	200.000
183.45	-100.000
183.83	50.000
184.20	500.000
184.58	-1100.000
184.96	200.000
185.34	211.111
185.72	520.000
186.09	-22.222
186.47	-400.000
186.85	-140.000
187.23	133.333
187.61	800.000
187.98	-320.000
188.36	-350.000
188.74	350.000
189.12	866.667
189.49	106.250
189.87	125.000
190.25	111.111
190.63	320.000
191.00	-22.222
191.38	0.000
191.76	475.000
192.14	233.333
192.51	-550.000
192.89	250.000
193.27	0.000
193.65	228.571
194.02	500.000
194.40	228.571
194.78	-85.714
195.15	0.000
195.53	200.000
195.91	0.000
196.29	700.000
196.66	138.462
197.04	400.000
197.42	128.571
197.79	550.000
198.17	100.000
198.55	71.429
198.92	266.667
199.30	262.500
199.68	154.545
200.05	128.571
200.43	650.000
200.81	-142.857
201.18	0.000
201.56	-44.444
201.94	0.000
202.31	-400.000
202.69	155.556
203.07	-1800.000
203.44	188.889
203.82	300.000
204.19	133.333
204.57	166.667
204.95	162.500
205.32	1100.000
205.70	-450.000
206.08	250.000
206.45	216.667
206.83	-160.000
207.20	116.667
207.58	280.000
207.96	116.667
208.33	450.000
208.71	-116.667
209.08	333.333
209.46	0.000
209.84	-83.333
210.21	-650.000
210.59	-350.000
210.96	-333.333
211.34	525.000
211.71	187.500
212.09	1100.000
212.46	0.000
212.84	100.000
213.22	220.000
213.59	475.000
213.97	230.000
214.34	433.333
214.72	-50.000
215.09	150.000
215.47	0.000
215.84	-114.286
216.22	-450.000
216.59	160.000
216.97	300.000
217.34	250.000
217.72	237.500
218.09	200.000
218.47	150.000
218.84	0.000
219.22	-500.000
219.59	129.412
219.97	130.000
220.34	-550.000
220.72	111.111
221.09	215.385
221.47	400.000
221.84	170.000
222.22	100.000
222.59	0.000
222.97	312.500
223.34	180.000
223.72	1500.000
224.09	250.000
224.46	175.000
224.84	400.000
225.21	185.714
225.59	75.000
225.96	300.000
226.34	103.846
226.71	50.000
227.08	350.000
227.46	93.333
227.83	100.000
228.21	136.842
228.58	-87.500
228.95	-600.000
229.33	200.000
229.70	170.000
230.08	131.579
230.45	-70.000
230.82	600.000
231.20	114.286
231.57	100.000
231.95	227.273
232.32	154.545
232.69	35.000
233.07	225.000
233.44	135.294
233.81	180.000
234.19	116.667
234.56	100.000
234.93	72.414
235.31	63.158
235.68	83.333
236.05	15.000
236.43	126.923
236.80	148.000
237.17	40.741
237.55	48.485
237.92	60.000
238.29	45.161
238.67	45.455
239.04	75.000
239.41	50.000
239.79	47.826
240.16	44.444
240.53	36.957
240.91	19.608
241.28	39.344
241.65	55.224
242.02	54.054
242.40	35.385
242.77	30.667
243.14	17.073
243.51	31.579
243.89	26.923
244.26	24.752
244.63	30.392
245.00	27.103
245.38	25.439
245.75	13.274
246.12	26.984
246.49	26.357
246.87	25.000
247.24	27.815
247.61	25.000
247.98	32.215
248.36	21.605
248.73	20.859
249.10	22.404
249.47	26.866
249.84	28.796
250.22	19.689
250.59	23.889
250.96	25.455
251.33	22.449
251.70	23.077
252.08	22.917
252.45	20.902
252.82	18.182
253.19	26.172
253.56	19.772
253.94	20.769
254.31	27.273
254.68	23.427
255.05	21.173
255.42	19.048
255.79	16.828
256.16	20.861
256.54	19.868
256.91	22.623
257.28	23.607
257.65	20.382
258.02	18.584
258.39	21.368
258.76	23.853
259.14	19.828
259.51	20.461
259.88	20.113
260.25	20.000
260.62	22.466
260.99	20.492
261.36	21.180
261.73	20.424
262.10	18.681
262.47	20.375
262.85	22.980
263.22	19.221
263.59	18.421
263.96	17.136
264.33	18.159
264.70	19.259
265.07	21.241
265.44	20.862
265.81	18.519
266.18	19.728
266.55	19.196
266.92	17.995
267.29	18.600
267.66	17.738
268.03	20.306
268.40	19.624
268.77	19.362
269.14	19.824
269.51	18.421
269.88	19.877
270.25	21.127
270.62	20.886
270.99	20.606
271.36	20.990
271.73	19.253
272.10	19.639
272.47	18.236
272.84	17.269
273.21	18.036
273.58	20.363
273.95	18.077
274.32	16.350
274.69	16.828
275.06	18.681
275.43	16.821
275.80	17.460
276.17	19.444
276.54	19.030
276.91	19.857
277.28	16.456
277.65	20.108
278.02	18.199
278.39	18.478
278.76	17.575
279.13	16.312
279.50	19.588
279.87	19.678
280.23	17.077
280.60	18.136
280.97	18.586
281.34	18.676
281.71	18.613
282.08	16.445
282.45	16.694
282.82	17.111
283.19	16.478
283.56	16.885
283.92	18.468
284.29	19.115
284.66	18.227
285.03	16.827
285.40	18.547
285.77	18.576
286.14	18.168
286.51	16.438
286.87	17.694
287.24	16.566
287.61	16.442
287.98	15.106
288.35	15.385
288.72	17.751
289.08	14.934
289.45	17.012
289.82	16.717
290.19	15.086
290.56	16.338
290.93	17.261
291.29	16.116
291.66	13.499
292.03	14.111
292.40	16.463
292.77	13.612
293.13	14.885
293.50	15.637
293.87	14.765
294.24	15.067
294.60	15.424
294.97	12.752
295.34	15.749
295.71	14.880
296.08	12.920
296.44	12.745
296.81	13.276
297.18	14.072
297.55	13.090
297.91	13.879
298.28	11.137
298.65	14.031
299.02	13.695
299.38	13.387
299.75	14.019
300.12	12.384
300.48	14.862
300.85	14.398
301.22	13.423
301.59	12.900
301.95	13.107
302.32	13.889
302.69	12.815
303.05	12.840
303.42	13.193
303.79	12.500
304.15	13.670
304.52	12.262
304.89	12.042
305.25	12.008
305.62	12.226
305.99	12.887
306.35	11.895
306.72	13.547
307.09	11.168
307.45	12.526
307.82	12.109
308.19	12.210
308.55	12.247
308.92	12.269
309.29	13.027
309.65	10.916
310.02	11.485
310.38	12.697
310.75	12.718
311.12	12.656
311.48	12.121
311.85	12.441
312.22	12.334
312.58	12.770
312.95	12.428
313.31	12.827
313.68	14.194
314.05	12.918
314.41	12.750
314.78	12.988
315.14	13.249
315.51	14.866
315.87	13.501
316.24	15.342
316.61	14.831
316.97	13.213
317.34	13.668
317.70	15.197
318.07	15.168
318.43	15.136
318.80	15.301
319.16	15.021
319.53	14.910
319.89	14.812
320.26	17.082
320.62	15.514
320.99	16.990
321.35	18.115
321.72	18.977
322.08	18.305
322.45	18.699
322.81	19.224
323.18	19.204
323.54	19.224
323.91	21.085
324.27	19.363
324.64	20.319
325.00	19.652
325.37	22.686
325.73	21.818
326.10	23.114
326.46	23.371
326.83	23.299
327.19	22.835
327.56	24.032
327.92	23.761
328.29	23.871
328.65	25.042
329.01	24.112
329.38	26.201
329.74	26.455
330.11	26.798
330.47	27.633
330.84	27.907
331.20	27.333
331.56	26.863
331.93	28.703
332.29	28.390
332.66	28.239
333.02	28.978
333.38	29.614
333.75	28.114
334.11	28.941
334.48	29.703
334.84	30.331
335.20	29.471
335.57	30.354
335.93	30.331
336.29	28.869
336.66	29.352
337.02	30.268
337.38	30.017
337.75	29.339
338.11	32.212
338.47	30.521
338.84	31.134
339.20	30.244
339.56	30.807
339.93	30.788
340.29	31.401
340.65	31.468
341.02	32.322
341.38	30.558
341.74	30.589
342.11	31.456
342.47	30.580
342.83	30.757
343.20	31.889
343.56	31.034
343.92	32.266
344.28	31.875
344.65	31.705
345.01	31.747
345.37	31.571
345.73	30.631
346.10	31.669
346.46	31.962
346.82	32.285
347.19	31.780
347.55	31.487
347.91	31.129
348.27	30.653
348.63	31.455
349.00	31.245
349.36	31.524
349.72	30.878
350.08	32.244
350.45	31.787
350.81	31.222
351.17	31.278
351.53	32.449
351.89	32.574
352.26	31.866
352.62	31.493
352.98	32.366
353.34	31.292
353.70	32.666
354.07	32.489
354.43	31.891
354.79	31.862
355.15	31.788
355.51	32.383
355.87	32.012
356.24	32.700
356.60	31.338
356.96	33.284
357.32	31.896
357.68	32.064
358.04	31.811
358.40	32.239
358.77	33.041
359.13	32.792
359.49	32.342
359.85	33.503
360.21	32.855
360.57	32.233
360.93	33.498
361.29	33.614
361.66	32.513
362.02	34.447
362.38	33.029
362.74	33.240
363.10	34.250
363.46	33.310
363.82	33.310
364.18	34.694
364.54	34.094
364.90	34.783
365.26	34.552
365.62	34.267
365.98	33.764
366.35	35.034
366.71	34.490
367.07	33.627
367.43	34.274
367.79	34.439
368.15	35.385
368.51	33.491
368.87	34.357
369.23	34.200
369.59	35.109
369.95	34.753
370.31	36.124
370.67	36.176
371.03	35.873
371.39	35.662
371.75	36.795
372.11	35.569
372.47	34.462
372.83	35.275
373.19	34.690
373.55	36.653
373.91	36.264
374.27	35.770
374.63	36.671
374.99	35.345
375.35	37.857
375.71	36.452
376.07	37.573
376.42	36.083
376.78	37.787
377.14	36.307
377.50	37.887
377.86	37.377
378.22	38.024
378.58	37.455
378.94	37.793
379.30	37.317
379.66	38.213
380.02	38.373
380.38	38.479
380.74	37.972
381.09	38.502
381.45	37.670
381.81	39.813
382.17	38.599
382.53	38.480
382.89	38.544
383.25	39.683
383.61	39.641
383.97	38.869
384.32	40.849
384.68	39.791
385.04	41.353
385.40	40.542
385.76	40.504
386.12	40.335
386.48	40.588
386.83	41.836
387.19	39.919
387.55	39.437
387.91	40.982
388.27	40.820
388.62	39.863
388.98	40.045
389.34	40.837
389.70	40.442
390.06	41.445
390.42	40.783
390.77	40.819
391.13	40.962
391.49	41.606
391.85	41.697
392.20	41.756
392.56	41.406
392.92	40.949
393.28	41.846
393.64	41.453
393.99	41.720
394.35	42.348
394.71	42.156
395.07	41.796
395.42	42.204
395.78	43.449
396.14	41.711
396.50	42.458
396.85	42.159
397.21	42.485
397.57	42.226
397.92	42.898
398.28	42.260
398.64	41.190
399.00	42.304
399.35	41.728
399.71	41.576
400.07	42.673
400.42	41.735
400.78	42.940
401.14	41.320
401.49	43.604
401.85	42.500
402.21	42.758
402.57	44.014
402.92	42.967
403.28	42.213
403.63	41.110
403.99	42.637
404.35	41.728
404.70	43.003
405.06	41.033
405.42	42.506
405.77	43.293
406.13	42.464
406.49	42.568
406.84	42.992
407.20	43.656
407.55	42.520
407.91	43.118
408.27	41.755
408.62	43.630
408.98	43.122
409.34	41.584
409.69	43.511
410.05	42.907
410.40	43.852
410.76	43.242
411.11	43.425
411.47	44.287
411.83	42.857
412.18	44.277
412.54	44.458
412.89	43.655
413.25	44.187
413.60	43.308
413.96	43.765
414.31	42.946
414.67	43.530
415.03	43.569
415.38	44.199
415.74	44.411
416.09	45.589
416.45	43.957
416.80	44.798
417.16	45.530
417.51	45.330
417.87	44.942
418.22	45.269
418.58	46.283
418.93	45.634
419.29	46.054
419.64	45.738
420.00	45.816
420.35	45.536
420.71	46.008
421.06	47.039
421.42	46.216
421.77	44.911
422.12	45.930
422.48	47.005
422.83	46.824
423.19	47.374
423.54	48.009
423.90	47.708
424.25	47.733
424.61	47.933
424.96	48.490
425.31	48.673
425.67	48.953
426.02	48.921
426.38	49.196
426.73	48.605
427.09	50.519
427.44	49.153
427.79	50.304
428.15	50.000
428.50	48.596
428.85	50.402
429.21	50.479
429.56	50.987
429.92	51.007
430.27	51.518
430.62	51.197
430.98	50.566
431.33	50.782
431.68	51.102
432.04	52.819
432.39	52.384
432.74	52.454
433.10	53.326
433.45	53.233
433.80	54.453
434.16	53.512
434.51	53.803
434.86	54.017
435.22	55.101
435.57	56.132
435.92	55.147
436.28	55.575
436.63	56.581
436.98	56.468
437.34	56.652
437.69	55.806
438.04	56.108
438.39	56.577
438.75	56.115
439.10	57.294
439.45	57.742
439.81	59.040
440.16	56.997
440.51	56.745
440.86	56.921
441.22	57.771
441.57	58.176
441.92	58.002
442.27	58.939
442.63	58.023
442.98	58.805
443.33	59.285
443.68	59.812
444.03	60.160
444.39	60.148
444.74	58.857
445.09	58.236
445.44	60.327
445.79	60.680
446.15	60.123
446.50	59.328
446.85	61.770
447.20	60.880
447.55	60.146
447.91	61.832
448.26	61.152
448.61	61.371
448.96	63.197
449.31	61.294
449.66	61.765
450.02	61.551
450.37	61.375
450.72	63.079
451.07	62.642
451.42	61.641
451.77	62.368
452.12	63.995
452.47	63.399
452.83	65.034
453.18	63.339
453.53	63.412
453.88	63.611
454.23	63.559
454.58	65.235
454.93	64.927
455.28	64.901
455.63	64.525
455.98	63.966
456.34	63.251
456.69	64.139
457.04	65.426
457.39	65.576
457.74	65.996
458.09	64.470
458.44	65.248
458.79	62.971
459.14	63.555
459.49	65.252
459.84	65.425
460.19	64.575
460.54	65.928
460.89	65.379
461.24	66.092
461.59	65.412
461.94	63.320
462.29	65.733
462.64	65.118
462.99	66.478
463.34	67.229
463.69	65.182
464.04	66.537
464.39	66.200
464.74	64.652
465.09	67.128
465.44	66.094
465.79	65.309
466.14	65.294
466.49	65.526
466.84	66.501
467.19	66.185
467.54	66.216
467.89	64.713
468.24	67.036
468.59	66.532
468.94	66.142
469.29	67.127
469.64	67.133
469.99	67.240
470.34	68.317
470.68	68.489
471.03	69.155
471.38	68.542
471.73	69.376
472.08	67.703
472.43	67.790
472.78	69.081
473.13	69.406
473.48	68.580
473.83	67.266
474.17	67.819
474.52	69.994
474.87	67.885
475.22	68.676
475.57	67.549
475.92	67.148
476.27	66.826
476.61	67.238
476.96	67.205
477.31	68.416
477.66	70.252
478.01	68.277
478.36	67.896
478.70	68.621
479.05	69.683
479.40	69.003
479.75	67.867
480.10	69.304
480.45	68.414
480.79	68.254
481.14	68.520
481.49	68.651
481.84	68.451
482.19	68.946
482.53	69.480
482.88	68.720
483.23	68.786
483.58	68.952
483.92	68.706
484.27	68.882
484.62	67.120
484.97	67.224
485.31	66.807
485.66	63.651
486.01	62.604
486.36	62.957
486.70	63.809
487.05	65.471
487.40	65.684
487.75	65.420
488.09	65.906
488.44	65.382
488.79	66.914
489.13	67.089
489.48	67.612
489.83	67.203
490.17	67.517
490.52	68.186
490.87	69.924
491.22	69.454
491.56	69.198
491.91	69.080
492.26	68.196
492.60	68.824
492.95	68.934
493.30	69.476
493.64	69.777
493.99	68.421
494.34	68.380
494.68	69.079
495.03	70.000
495.37	70.706
495.72	69.569
496.07	69.150
496.41	68.168
496.76	69.516
497.11	69.639
497.45	69.573
497.80	69.969
498.14	69.569
498.49	70.496
498.84	70.567
499.18	71.975
499.53	70.359
499.87	70.374
500.22	68.522
500.56	70.805
500.91	71.076
501.26	71.136
501.60	70.261
501.95	69.952
502.29	69.987
502.64	70.529
502.98	69.198
503.33	69.028
503.67	69.647
504.02	69.046
504.36	70.912
504.71	70.188
505.06	68.440
505.40	70.430
505.75	70.401
506.09	70.396
506.44	71.495
506.78	71.468
507.13	70.539
507.47	71.009
507.82	70.975
508.16	70.363
508.51	71.449
508.85	70.477
509.19	71.388
509.54	71.278
509.88	71.977
510.23	72.657
510.57	72.064
510.92	72.666
511.26	71.044
511.61	69.966
511.95	70.669
512.30	71.492
512.64	69.515
512.98	71.836
513.33	71.976
513.67	72.004
514.02	72.151
514.36	72.839
514.70	72.500
515.05	72.888
515.39	72.703
515.74	72.853
516.08	71.580
516.42	71.952
516.77	73.028
517.11	72.408
517.46	72.747
517.80	73.650
518.14	74.429
518.49	73.319
518.83	71.740
519.17	71.298
519.52	70.545
519.86	71.225
520.20	73.376
520.55	72.782
520.89	74.493
521.23	72.418
521.58	73.390
521.92	72.691
522.26	72.451
522.61	73.380
522.95	73.068
523.29	73.908
523.64	72.309
523.98	74.843
524.32	75.186
524.66	73.136
525.01	72.084
525.35	72.257
525.69	72.564
526.04	72.560
526.38	73.851
526.72	73.183
527.06	74.545
527.41	74.052
527.75	73.694
528.09	72.904
528.43	74.067
528.78	72.948
529.12	74.427
529.46	70.601
529.80	72.597
530.15	73.391
530.49	73.072
530.83	72.432
531.17	73.656
531.51	73.887
531.86	74.279
532.20	73.232
532.54	72.771
532.88	73.091
533.22	71.656
533.57	71.379
533.91	69.529
534.25	70.661
534.59	71.667
534.93	71.873
535.27	71.718
535.62	71.461
535.96	72.632
536.30	70.858
536.64	72.853
536.98	72.878
537.32	72.099
537.66	72.863
538.01	70.997
538.35	71.011
538.69	72.837
539.03	71.980
539.37	71.731
539.71	70.150
540.05	71.223
540.39	72.188
540.73	69.277
541.07	72.103
541.42	69.758
541.76	69.039
542.10	71.351
542.44	70.524
542.78	70.438
543.12	68.892
543.46	71.856
543.80	69.844
544.14	69.838
544.48	70.035
544.82	70.975
545.16	71.199
545.50	70.821
545.84	70.667
546.18	73.272
546.52	72.548
546.86	70.189
547.20	71.374
547.54	71.598
547.88	70.344
548.22	70.292
548.56	71.270
548.90	70.269
549.24	70.517
549.58	71.420
549.92	71.365
550.26	73.398
550.60	70.581
550.94	73.739
551.28	71.881
551.62	73.383
551.96	71.392
552.30	73.614
552.64	72.060
552.98	71.803
553.32	73.569
553.66	73.441
554.00	72.509
554.34	72.716
554.68	71.272
555.02	72.996
555.36	74.162
555.69	71.300
556.03	71.311
556.37	73.029
556.71	73.114
557.05	72.971
557.39	73.723
557.73	73.976
558.07	73.046
558.41	74.817
558.75	74.037
559.08	74.948
559.42	73.388
559.76	73.745
560.10	74.146
560.44	73.417
560.78	73.813
561.12	72.783
561.45	73.054
561.79	72.222
562.13	73.629
562.47	72.133
562.81	74.430
563.15	73.737
563.48	73.648
563.82	73.519
564.16	72.078
564.50	71.633
564.84	72.212
565.17	72.471
565.51	72.094
565.85	71.853
566.19	69.643
566.52	72.323
566.86	71.534
567.20	68.896
567.54	70.685
567.88	70.183
568.21	69.516
568.55	68.777
568.89	68.679
569.23	66.455
569.56	66.276
569.90	65.360
570.24	65.565
570.57	64.561
570.91	63.411
571.25	62.337
571.59	62.037
571.92	62.820
572.26	62.017
572.60	62.135
572.93	61.731
573.27	63.585
573.61	62.573
573.95	60.961
574.28	60.663
574.62	61.301
574.96	60.498
575.29	60.784
575.63	60.568
575.97	60.862
576.30	59.956
576.64	60.463
576.98	60.114
577.31	60.644
577.65	60.277
577.98	59.883
578.32	59.790
578.66	59.348
578.99	59.492
579.33	60.471
579.67	59.882
580.00	59.452
580.34	59.773
580.67	60.216
581.01	59.866
581.35	59.108
581.68	59.237
582.02	59.023
582.35	60.293
582.69	59.819
583.02	60.101
583.36	61.224
583.70	60.850
584.03	60.811
584.37	61.590
584.70	60.758
585.04	60.823
585.37	60.605
585.71	60.518
586.04	60.326
586.38	61.351
586.72	61.218
587.05	61.755
587.39	61.655
587.72	62.392
588.06	62.016
588.39	62.659
588.73	62.963
589.06	62.951
589.40	64.628
589.73	65.231
590.07	65.086
590.40	64.773
590.73	64.935
591.07	66.009
591.40	65.824
591.74	66.534
592.07	65.814
592.41	66.009
592.74	64.572
593.08	64.650
593.41	64.275
593.75	64.569
594.08	64.011
594.41	64.744
594.75	64.563
595.08	65.007
595.42	65.032
595.75	64.482
596.09	65.503
596.42	65.783
596.75	67.117
597.09	67.394
597.42	66.309
597.75	65.857
598.09	65.992
598.42	67.149
598.76	66.106
599.09	64.899
599.42	64.432
599.76	64.708
600.09	64.464
600.42	64.698
600.76	63.904
601.09	64.620
601.42	64.504
601.76	65.828
602.09	64.904
602.42	65.285
602.76	66.642
603.09	65.345
603.42	67.233
603.76	65.011
604.09	66.785
604.42	65.982
604.76	65.601
605.09	66.693
605.42	67.145
605.75	64.885
606.09	65.323
606.42	65.049
606.75	65.442
607.09	65.361
607.42	65.780
607.75	66.549
608.08	65.904
608.42	65.780
608.75	66.998
609.08	66.299
609.41	67.799
609.75	66.920
610.08	67.986
610.41	66.653
610.74	66.092
611.07	67.984
611.41	67.892
611.74	69.099
612.07	68.396
612.40	67.395
612.73	69.633
613.07	68.557
613.40	68.768
613.73	68.994
614.06	68.253
614.39	68.513
614.72	67.686
615.06	67.469
615.39	67.617
615.72	68.626
616.05	68.480
616.38	70.737
616.71	70.167
617.05	70.341
617.38	69.930
617.71	69.600
618.04	70.804
618.37	69.945
618.70	70.362
619.03	70.370
619.36	70.469
619.69	72.261
620.03	72.505
620.36	70.429
620.69	71.191
621.02	74.672
621.35	76.197
621.68	76.645
622.01	74.520
622.34	74.338
622.67	73.540
623.00	72.537
623.33	75.050
623.66	72.698
623.99	72.614
624.32	74.074
624.65	73.295
624.99	73.147
625.32	73.481
625.65	73.769
625.98	73.898
626.31	73.707
626.64	75.385
626.97	75.244
627.30	76.765
627.63	75.769
627.96	75.601
628.29	75.798
628.62	77.918
628.95	79.404
629.28	79.524
629.61	77.946
629.94	76.402
630.26	78.814
630.59	79.188
630.92	79.654
631.25	80.054
631.58	82.674
631.91	82.099
632.24	80.307
632.57	80.835
632.90	82.949
633.23	82.755
