SpectraSuite Data File
++++++++++++++++++++++++++++++++++++
Date: Thu May 14 15:19:41 PDT 2015
User: schluterlab
Dark Spectrum Present: Yes
Reference Spectrum Present: Yes
Number of Sampled Component Spectra: 1
Spectrometers: USB2E3373
Integration Time (usec): 3000 (USB2E3373)
Spectra Averaged: 3 (USB2E3373)
Boxcar Smoothing: 0 (USB2E3373)
Correct for Electrical Dark: No (USB2E3373)
Strobe/Lamp Enabled: No (USB2E3373)
Correct for Detector Non-linearity: No (USB2E3373)
Correct for Stray Light: No (USB2E3373)
Number of Pixels in Processed Spectrum: 2048
>>>>>Begin Processed Spectral Data<<<<<
178.53	0.000
178.91	642.857
179.29	-5500.000
179.67	-3900.000
180.04	385.714
180.42	370.000
180.80	920.000
181.18	-5100.000
181.56	-3500.000
181.94	1075.000
182.31	-825.000
182.69	1200.000
183.07	-1850.000
183.45	1100.000
183.83	-566.667
184.20	-1066.667
184.58	4300.000
184.96	-1075.000
185.34	-388.889
185.72	-780.000
186.09	544.444
186.47	2150.000
186.85	1000.000
187.23	-555.556
187.61	-5000.000
187.98	820.000
188.36	1100.000
188.74	-1025.000
189.12	-1633.333
189.49	-262.500
189.87	-587.500
190.25	-300.000
190.63	-780.000
191.00	-522.222
191.38	0.000
191.76	-1225.000
192.14	-750.000
192.51	2100.000
192.89	-566.667
193.27	0.000
193.65	-514.286
194.02	-4700.000
194.40	-557.143
194.78	471.429
195.15	0.000
195.53	-263.636
195.91	0.000
196.29	-1025.000
196.66	-284.615
197.04	-5300.000
197.42	-542.857
197.79	-1900.000
198.17	-587.500
198.55	-542.857
198.92	-377.778
199.30	-587.500
199.68	-245.455
200.05	-242.857
200.43	-2000.000
200.81	700.000
201.18	0.000
201.56	644.444
201.94	0.000
202.31	1833.333
202.69	-477.778
203.07	3700.000
203.44	-322.222
203.82	-900.000
204.19	-325.000
204.57	-733.333
204.95	-487.500
205.32	-3200.000
205.70	1100.000
206.08	-650.000
206.45	-583.333
206.83	1000.000
207.20	-650.000
207.58	-960.000
207.96	-566.667
208.33	-450.000
208.71	391.667
209.08	-516.667
209.46	0.000
209.84	650.000
210.21	1950.000
210.59	2050.000
210.96	1500.000
211.34	-850.000
211.71	-475.000
212.09	-4100.000
212.46	0.000
212.84	2850.000
213.22	-820.000
213.59	-950.000
213.97	-390.000
214.34	-900.000
214.72	816.667
215.09	-1025.000
215.47	0.000
215.84	457.143
216.22	2100.000
216.59	-740.000
216.97	-820.000
217.34	-1000.000
217.72	-475.000
218.09	-1100.000
218.47	-825.000
218.84	0.000
219.22	740.000
219.59	-152.941
219.97	-210.000
220.34	2350.000
220.72	-500.000
221.09	-230.769
221.47	-1166.667
221.84	-330.000
222.22	-585.714
222.59	0.000
222.97	-437.500
223.34	-860.000
223.72	-4100.000
224.09	-1100.000
224.46	-1100.000
224.84	-660.000
225.21	-642.857
225.59	-1050.000
225.96	-1050.000
226.34	-126.923
226.71	783.333
227.08	-2100.000
227.46	-240.000
227.83	-1000.000
228.21	-136.842
228.58	550.000
228.95	2100.000
229.33	-275.000
229.70	-320.000
230.08	-136.842
230.45	470.000
230.82	-1633.333
231.20	-278.571
231.57	-233.333
231.95	-354.545
232.32	-327.273
232.69	-135.000
233.07	-1075.000
233.44	-211.765
233.81	-340.000
234.19	-177.778
234.56	-150.000
234.93	-68.966
235.31	-173.684
235.68	-211.111
236.05	-195.000
236.43	-96.154
236.80	-92.000
237.17	-92.593
237.55	-75.758
237.92	-370.000
238.29	-74.194
238.67	-65.909
239.04	-80.556
239.41	-61.905
239.79	-45.652
240.16	-35.185
240.53	-41.304
240.91	-39.216
241.28	-27.869
241.65	-16.418
242.02	-10.811
242.40	-33.846
242.77	-13.333
243.14	-9.756
243.51	-14.474
243.89	-14.103
244.26	-0.990
244.63	0.000
245.00	3.738
245.38	4.386
245.75	-15.044
246.12	3.175
246.49	8.527
246.87	5.714
247.24	11.258
247.61	12.500
247.98	9.396
248.36	16.667
248.73	5.521
249.10	20.765
249.47	24.378
249.84	23.560
250.22	16.062
250.59	20.000
250.96	25.909
251.33	18.878
251.70	21.795
252.08	19.167
252.45	21.311
252.82	19.421
253.19	22.656
253.56	26.616
253.94	20.769
254.31	24.242
254.68	27.273
255.05	24.756
255.42	23.810
255.79	24.919
256.16	23.841
256.54	22.185
256.91	25.902
257.28	22.295
257.65	20.701
258.02	24.189
258.39	26.496
258.76	29.358
259.14	27.874
259.51	29.107
259.88	26.912
260.25	23.056
260.62	28.767
260.99	30.601
261.36	26.273
261.73	23.873
262.10	28.022
262.47	27.882
262.85	30.303
263.22	28.312
263.59	24.737
263.96	27.877
264.33	28.389
264.70	29.136
265.07	30.788
265.44	29.252
265.81	29.398
266.18	29.025
266.55	29.018
266.92	25.740
267.29	29.759
267.66	31.264
268.03	31.441
268.40	28.810
268.77	28.702
269.14	29.295
269.51	26.754
269.88	28.484
270.25	29.577
270.62	29.536
270.99	30.505
271.36	29.703
271.73	30.255
272.10	32.866
272.47	31.463
272.84	30.120
273.21	25.852
273.58	28.629
273.95	27.885
274.32	27.757
274.69	26.886
275.06	31.868
275.43	26.063
275.80	31.041
276.17	27.593
276.54	29.291
276.91	32.737
277.28	30.380
277.65	30.700
278.02	30.515
278.39	29.348
278.76	27.241
279.13	29.078
279.50	28.007
279.87	28.623
280.23	25.704
280.60	27.966
280.97	30.592
281.34	30.900
281.71	29.949
282.08	28.571
282.45	29.133
282.82	29.042
283.19	27.948
283.56	28.361
283.92	29.730
284.29	31.280
284.66	30.049
285.03	27.083
285.40	28.284
285.77	29.412
286.14	30.534
286.51	29.680
286.87	27.488
287.24	30.271
287.61	28.102
287.98	26.888
288.35	29.438
288.72	30.325
289.08	29.429
289.45	24.556
289.82	26.506
290.19	28.305
290.56	28.028
290.93	28.245
291.29	27.135
291.66	27.686
292.03	28.494
292.40	28.707
292.77	26.415
293.13	28.011
293.50	25.230
293.87	28.322
294.24	29.600
294.60	27.434
294.97	25.906
295.34	27.401
295.71	24.968
296.08	25.323
296.44	25.000
296.81	25.822
297.18	25.529
297.55	25.943
297.91	27.046
298.28	24.763
298.65	26.397
299.02	26.328
299.38	26.430
299.75	25.584
300.12	26.852
300.48	27.650
300.85	27.109
301.22	26.286
301.59	26.142
301.95	25.876
302.32	26.333
302.69	25.849
303.05	27.312
303.42	25.942
303.79	26.042
304.15	27.340
304.52	26.850
304.89	26.702
305.25	27.329
305.62	27.691
305.99	27.526
306.35	27.218
306.72	30.507
307.09	27.614
307.45	27.743
307.82	27.649
308.19	26.942
308.55	28.640
308.92	28.627
309.29	30.077
309.65	28.850
310.02	28.317
310.38	30.020
310.75	29.320
311.12	31.448
311.48	30.108
311.85	30.389
312.22	31.120
312.58	30.516
312.95	30.784
313.31	32.340
313.68	31.044
314.05	33.062
314.41	33.607
314.78	32.334
315.14	32.668
315.51	33.518
315.87	33.573
316.24	33.516
316.61	34.991
316.97	34.751
317.34	33.686
317.70	37.118
318.07	35.891
318.43	35.204
318.80	36.706
319.16	36.824
319.53	35.219
319.89	35.933
320.26	37.633
320.62	37.145
320.99	36.842
321.35	38.632
321.72	38.326
322.08	37.421
322.45	39.657
322.81	39.170
323.18	38.938
323.54	39.569
323.91	40.480
324.27	40.361
324.64	41.646
325.00	41.128
325.37	41.523
325.73	43.223
326.10	44.120
326.46	44.218
326.83	44.996
327.19	44.882
327.56	46.087
327.92	44.060
328.29	45.968
328.65	44.556
329.01	46.954
329.38	47.009
329.74	47.774
330.11	47.688
330.47	47.430
330.84	47.804
331.20	48.500
331.56	48.700
331.93	49.707
332.29	51.017
332.66	50.498
333.02	49.581
333.38	48.909
333.75	50.926
334.11	51.710
334.48	50.413
334.84	52.251
335.20	51.050
335.57	51.349
335.93	50.992
336.29	50.416
336.66	51.051
337.02	50.836
337.38	51.020
337.75	51.818
338.11	52.229
338.47	51.117
338.84	51.354
339.20	50.969
339.56	49.588
339.93	51.970
340.29	50.644
340.65	50.852
341.02	52.674
341.38	53.517
341.74	51.735
342.11	52.454
342.47	50.675
342.83	51.771
343.20	53.639
343.56	52.366
343.92	52.922
344.28	51.875
344.65	51.783
345.01	51.404
345.37	51.944
345.73	50.585
346.10	53.822
346.46	53.244
346.82	52.959
347.19	53.247
347.55	52.883
347.91	53.492
348.27	51.973
348.63	51.485
349.00	53.617
349.36	53.234
349.72	53.125
350.08	52.229
350.45	52.624
350.81	52.790
351.17	51.955
351.53	52.085
351.89	53.759
352.26	54.403
352.62	53.284
352.98	54.198
353.34	51.606
353.70	55.085
354.07	54.322
354.43	52.392
354.79	53.029
355.15	53.422
355.51	54.167
355.87	53.927
356.24	55.665
356.60	53.954
356.96	54.337
357.32	54.052
357.68	53.953
358.04	53.593
358.40	55.075
358.77	54.167
359.13	54.505
359.49	55.465
359.85	54.097
360.21	54.806
360.57	54.702
360.93	54.725
361.29	55.018
361.66	54.164
362.02	56.367
362.38	55.235
362.74	54.888
363.10	55.777
363.46	56.510
363.82	55.043
364.18	56.087
364.54	54.564
364.90	56.522
365.26	57.931
365.62	56.333
365.98	56.705
366.35	56.510
366.71	58.844
367.07	57.984
367.43	56.730
367.79	56.072
368.15	58.127
368.51	57.916
368.87	57.283
369.23	57.733
369.59	59.016
369.95	58.485
370.31	58.744
370.67	59.835
371.03	57.133
371.39	58.496
371.75	58.528
372.11	57.520
372.47	58.632
372.83	60.144
373.19	59.239
373.55	59.553
373.91	58.419
374.27	57.891
374.63	61.231
374.99	60.743
375.35	59.416
375.71	60.323
376.07	59.264
376.42	60.390
376.78	61.529
377.14	60.137
377.50	62.239
377.86	59.914
378.22	62.275
378.58	62.485
378.94	60.681
379.30	61.863
379.66	62.787
380.02	62.781
380.38	62.615
380.74	62.817
381.09	62.660
381.45	63.068
381.81	64.930
382.17	63.064
382.53	61.520
382.89	62.133
383.25	64.244
383.61	64.525
383.97	63.781
384.32	65.132
384.68	63.225
385.04	65.529
385.40	65.410
385.76	65.768
386.12	64.632
386.48	65.059
386.83	65.554
387.19	64.195
387.55	64.554
387.91	65.696
388.27	64.896
388.62	64.318
388.98	64.354
389.34	65.645
389.70	66.647
390.06	64.772
390.42	64.096
390.77	65.804
391.13	65.669
391.49	66.304
391.85	66.545
392.20	64.828
392.56	65.151
392.92	64.613
393.28	65.340
393.64	65.642
393.99	65.137
394.35	66.180
394.71	66.886
395.07	64.491
395.42	65.791
395.78	67.642
396.14	65.181
396.50	64.252
396.85	64.162
397.21	65.089
397.57	65.842
397.92	64.318
398.28	65.019
398.64	63.444
399.00	64.084
399.35	63.613
399.71	64.457
400.07	65.300
400.42	65.600
400.78	64.931
401.14	64.314
401.49	64.810
401.85	65.233
402.21	64.774
402.57	65.258
402.92	64.894
403.28	63.349
403.63	63.723
403.99	62.648
404.35	64.184
404.70	64.193
405.06	62.717
405.42	62.646
405.77	64.231
406.13	63.317
406.49	63.119
406.84	63.767
407.20	62.661
407.55	63.295
407.91	63.356
408.27	62.485
408.62	63.176
408.98	61.172
409.34	63.460
409.69	63.164
410.05	62.544
410.40	64.443
410.76	62.142
411.11	64.115
411.47	64.742
411.83	63.374
412.18	63.855
412.54	61.411
412.89	63.155
413.25	63.770
413.60	64.388
413.96	63.170
414.31	62.946
414.67	62.612
415.03	62.338
415.38	63.493
415.74	63.714
416.09	63.109
416.45	61.929
416.80	64.504
417.16	64.815
417.51	64.197
417.87	63.397
418.22	64.910
418.58	64.746
418.93	65.250
419.29	66.400
419.64	66.387
420.00	65.935
420.35	65.806
420.71	65.709
421.06	67.510
421.42	66.686
421.77	66.020
422.12	67.019
422.48	69.585
422.83	68.729
423.19	69.973
423.54	69.303
423.90	68.360
424.25	70.133
424.61	69.575
424.96	70.840
425.31	71.072
425.67	71.444
426.02	72.053
426.38	72.273
426.73	71.763
427.09	74.279
427.44	71.928
427.79	73.632
428.15	72.203
428.50	74.270
428.85	73.192
429.21	74.362
429.56	75.765
429.92	75.479
430.27	76.723
430.62	76.014
430.98	77.324
431.33	76.051
431.68	76.580
432.04	78.263
432.39	77.611
432.74	77.568
433.10	78.908
433.45	77.648
433.80	77.200
434.16	79.184
434.51	80.370
434.86	82.790
435.22	80.606
435.57	81.663
435.92	81.692
436.28	80.660
436.63	83.506
436.98	81.213
437.34	81.849
437.69	82.389
438.04	82.813
438.39	82.309
438.75	83.785
439.10	83.615
439.45	82.337
439.81	84.633
440.16	81.769
440.51	83.501
440.86	82.713
441.22	84.298
441.57	83.857
441.92	84.045
442.27	86.010
442.63	84.799
442.98	83.778
443.33	85.481
443.68	85.728
444.03	86.406
444.39	86.824
444.74	86.217
445.09	85.099
445.44	87.460
445.79	86.446
446.15	86.331
446.50	86.563
446.85	87.354
447.20	86.702
447.55	87.395
447.91	86.963
448.26	88.002
448.61	87.726
448.96	88.144
449.31	86.161
449.66	86.438
450.02	85.549
450.37	87.214
450.72	89.397
451.07	88.098
451.42	87.464
451.77	88.938
452.12	90.632
452.47	87.463
452.83	90.259
453.18	88.792
453.53	90.350
453.88	88.680
454.23	88.644
454.58	91.120
454.93	89.078
455.28	90.488
455.63	89.937
455.98	88.101
456.34	90.106
456.69	91.064
457.04	91.785
457.39	90.798
457.74	91.275
458.09	89.237
458.44	91.703
458.79	89.531
459.14	90.718
459.49	92.699
459.84	90.923
460.19	90.505
460.54	91.709
460.89	92.483
461.24	91.149
461.59	91.478
461.94	90.302
462.29	93.169
462.64	91.129
462.99	90.333
463.34	92.018
463.69	90.797
464.04	93.441
464.39	90.471
464.74	90.023
465.09	91.696
465.44	91.363
465.79	92.226
466.14	91.298
466.49	92.579
466.84	95.482
467.19	91.850
467.54	90.952
467.89	91.552
468.24	91.524
468.59	93.341
468.94	93.357
469.29	92.861
469.64	90.909
469.99	94.328
470.34	93.131
470.68	92.755
471.03	94.499
471.38	95.618
471.73	93.368
472.08	94.924
472.43	94.100
472.78	94.710
473.13	94.437
473.48	95.347
473.83	95.183
474.17	94.256
474.52	96.933
474.87	94.629
475.22	94.704
475.57	93.094
475.92	94.276
476.27	94.675
476.61	93.977
476.96	94.473
477.31	94.059
477.66	96.642
478.01	94.713
478.36	91.725
478.70	95.074
479.05	96.268
479.40	96.644
479.75	94.621
480.10	93.226
480.45	94.576
480.79	94.195
481.14	94.118
481.49	95.911
481.84	96.345
482.19	96.129
482.53	96.764
482.88	97.120
483.23	95.954
483.58	95.939
483.92	95.390
484.27	95.174
484.62	94.142
484.97	95.023
485.31	92.714
485.66	86.038
486.01	86.796
486.36	90.984
486.70	97.463
487.05	100.852
487.40	97.098
487.75	95.064
488.09	94.336
488.44	91.677
488.79	92.681
489.13	91.962
489.48	93.087
489.83	93.159
490.17	94.897
490.52	94.335
490.87	96.277
491.22	97.444
491.56	96.331
491.91	95.944
492.26	96.625
492.60	96.371
492.95	97.148
493.30	96.952
493.64	96.759
493.99	97.412
494.34	96.429
494.68	96.916
495.03	97.401
495.37	97.692
495.72	96.780
496.07	96.582
496.41	97.683
496.76	98.165
497.11	99.066
497.45	97.583
497.80	98.223
498.14	98.458
498.49	97.518
498.84	97.898
499.18	98.246
499.53	98.789
499.87	98.549
500.22	98.175
500.56	96.941
500.91	99.771
501.26	99.727
501.60	97.570
501.95	98.046
502.29	99.517
502.64	98.688
502.98	96.678
503.33	97.883
503.67	97.732
504.02	98.161
504.36	98.928
504.71	101.194
505.06	99.318
505.40	98.583
505.75	98.315
506.09	98.435
506.44	100.743
506.78	100.229
507.13	99.862
507.47	100.426
507.82	98.674
508.16	98.805
508.51	98.781
508.85	100.000
509.19	100.189
509.54	100.192
509.88	99.223
510.23	100.437
510.57	102.320
510.92	100.339
511.26	100.914
511.61	99.469
511.95	100.049
512.30	100.394
512.64	99.750
512.98	100.350
513.33	101.361
513.67	102.193
514.02	100.869
514.36	100.409
514.70	101.875
515.05	104.015
515.39	101.942
515.74	103.022
516.08	102.219
516.42	103.768
516.77	102.839
517.11	100.722
517.46	103.128
517.80	102.245
518.14	103.482
518.49	102.332
518.83	101.118
519.17	100.969
519.52	101.048
519.86	103.432
520.20	104.526
520.55	100.986
520.89	103.660
521.23	101.954
521.58	104.124
521.92	102.040
522.26	104.009
522.61	103.530
522.95	103.749
523.29	105.057
523.64	101.570
523.98	103.137
524.32	104.642
524.66	103.187
525.01	103.114
525.35	102.929
525.69	103.248
526.04	101.722
526.38	103.391
526.72	103.806
527.06	103.460
527.41	103.615
527.75	104.454
528.09	104.132
528.43	100.592
528.78	103.873
529.12	102.351
529.46	102.473
529.80	103.547
530.15	102.493
530.49	102.550
530.83	101.299
531.17	103.465
531.51	102.768
531.86	101.863
532.20	102.256
532.54	101.795
532.88	102.545
533.22	101.355
533.57	100.058
533.91	98.485
534.25	100.509
534.59	103.333
534.93	102.207
535.27	101.690
535.62	101.308
535.96	102.150
536.30	101.175
536.64	103.544
536.98	102.522
537.32	101.049
537.66	101.622
538.01	100.604
538.35	100.731
538.69	101.382
539.03	103.924
539.37	99.764
539.71	101.742
540.05	102.038
540.39	102.506
540.73	99.575
541.07	100.061
541.42	98.819
541.76	98.814
542.10	99.940
542.44	100.792
542.78	101.703
543.12	100.477
543.46	100.733
543.80	100.060
544.14	100.718
544.48	98.759
544.82	101.676
545.16	100.954
545.50	100.300
545.84	100.490
546.18	102.222
546.52	101.146
546.86	100.126
547.20	101.781
547.54	99.501
547.88	100.482
548.22	100.234
548.56	100.468
548.90	101.612
549.24	101.520
549.58	100.568
549.92	104.082
550.26	100.647
550.60	99.362
550.94	103.622
551.28	101.518
551.62	103.437
551.96	100.583
552.30	102.741
552.64	102.302
552.98	102.807
553.32	104.823
553.66	105.145
554.00	105.675
554.34	103.732
554.68	100.710
555.02	103.154
555.36	103.879
555.69	101.537
556.03	101.072
556.37	103.942
556.71	105.390
557.05	103.259
557.39	103.052
557.73	102.972
558.07	104.636
558.41	103.189
558.75	104.327
559.08	106.124
559.42	102.881
559.76	103.460
560.10	103.818
560.44	104.815
560.78	103.188
561.12	103.941
561.45	103.710
561.79	103.724
562.13	103.697
562.47	102.589
562.81	103.987
563.15	102.904
563.48	103.915
563.82	103.204
564.16	101.938
564.50	99.881
564.84	103.068
565.17	102.294
565.51	101.036
565.85	103.207
566.19	102.419
566.52	102.165
566.86	101.471
567.20	99.674
567.54	102.284
567.88	102.446
568.21	100.791
568.55	101.775
568.89	100.999
569.23	99.662
569.56	98.671
569.90	97.149
570.24	97.673
570.57	97.723
570.91	95.070
571.25	95.574
571.59	95.380
571.92	95.283
572.26	94.521
572.60	94.267
572.93	93.793
573.27	94.296
573.61	92.986
573.95	93.105
574.28	91.661
574.62	92.883
574.96	91.442
575.29	91.077
575.63	92.215
575.97	91.689
576.30	91.315
576.64	92.221
576.98	91.116
577.31	90.955
577.65	91.684
577.98	90.663
578.32	90.660
578.66	90.784
578.99	91.685
579.33	92.352
579.67	91.500
580.00	90.874
580.34	89.791
580.67	90.468
581.01	90.805
581.35	89.869
581.68	90.044
582.02	90.928
582.35	92.749
582.69	92.508
583.02	92.861
583.36	92.257
583.70	92.434
584.03	91.097
584.37	91.286
584.70	90.342
585.04	90.863
585.37	91.295
585.71	91.413
586.04	92.911
586.38	93.152
586.72	93.131
587.05	94.321
587.39	93.892
587.72	94.378
588.06	93.907
588.39	93.901
588.73	93.915
589.06	94.357
589.40	96.497
589.73	95.180
590.07	95.623
590.40	95.233
590.73	94.415
591.07	96.984
591.40	97.123
591.74	97.178
592.07	98.417
592.41	97.240
592.74	96.379
593.08	96.943
593.41	97.667
593.75	97.213
594.08	98.061
594.41	97.981
594.75	96.446
595.08	96.433
595.42	96.234
595.75	96.739
596.09	97.831
596.42	96.632
596.75	97.298
597.09	99.030
597.42	97.457
597.75	96.472
598.09	97.421
598.42	98.713
598.76	97.975
599.09	96.618
599.42	95.139
599.76	97.095
600.09	96.830
600.42	97.297
600.76	97.226
601.09	96.714
601.42	96.189
601.76	97.138
602.09	96.355
602.42	96.038
602.76	96.310
603.09	97.063
603.42	98.049
603.76	96.582
604.09	97.516
604.42	97.761
604.76	97.717
605.09	98.245
605.42	97.568
605.75	96.846
606.09	97.910
606.42	95.950
606.75	95.840
607.09	96.582
607.42	95.992
607.75	97.304
608.08	96.330
608.42	96.413
608.75	97.761
609.08	97.199
609.41	97.089
609.75	97.589
610.08	99.868
610.41	98.173
610.74	97.731
611.07	97.602
611.41	99.013
611.74	101.155
612.07	98.831
612.40	98.764
612.73	100.733
613.07	99.511
613.40	99.615
613.73	99.567
614.06	100.000
614.39	97.133
614.72	99.321
615.06	99.182
615.39	99.613
615.72	99.810
616.05	97.960
616.38	101.463
616.71	98.642
617.05	100.106
617.38	99.251
617.71	101.350
618.04	101.295
618.37	101.421
618.70	101.640
619.03	100.358
619.36	100.555
619.69	101.666
620.03	102.950
620.36	101.963
620.69	101.851
621.02	102.822
621.35	106.967
621.68	104.700
622.01	102.989
622.34	103.417
622.67	105.223
623.00	102.227
623.33	105.309
623.66	105.123
623.99	105.596
624.32	104.353
624.65	103.282
624.99	106.567
625.32	103.005
625.65	103.709
