SpectraSuite Data File
++++++++++++++++++++++++++++++++++++
Date: Thu May 14 15:19:38 PDT 2015
User: schluterlab
Dark Spectrum Present: Yes
Reference Spectrum Present: Yes
Number of Sampled Component Spectra: 1
Spectrometers: USB2E3373
Integration Time (usec): 3000 (USB2E3373)
Spectra Averaged: 3 (USB2E3373)
Boxcar Smoothing: 0 (USB2E3373)
Correct for Electrical Dark: No (USB2E3373)
Strobe/Lamp Enabled: No (USB2E3373)
Correct for Detector Non-linearity: No (USB2E3373)
Correct for Stray Light: No (USB2E3373)
Number of Pixels in Processed Spectrum: 2048
>>>>>Begin Processed Spectral Data<<<<<
178.53	0.000
178.91	657.143
179.29	-5700.000
179.67	-4500.000
180.04	414.286
180.42	440.000
180.80	820.000
181.18	-4600.000
181.56	-3900.000
181.94	950.000
182.31	-1075.000
182.69	1300.000
183.07	-1650.000
183.45	950.000
183.83	-666.667
184.20	-1200.000
184.58	3600.000
184.96	-1100.000
185.34	-455.556
185.72	-820.000
186.09	588.889
186.47	2100.000
186.85	980.000
187.23	-455.556
187.61	-4700.000
187.98	800.000
188.36	1125.000
188.74	-1150.000
189.12	-1266.667
189.49	-218.750
189.87	-450.000
190.25	-322.222
190.63	-800.000
191.00	-522.222
191.38	0.000
191.76	-1025.000
192.14	-650.000
192.51	2050.000
192.89	-600.000
193.27	0.000
193.65	-514.286
194.02	-5000.000
194.40	-571.429
194.78	671.429
195.15	0.000
195.53	-327.273
195.91	0.000
196.29	-950.000
196.66	-315.385
197.04	-4200.000
197.42	-485.714
197.79	-2100.000
198.17	-550.000
198.55	-657.143
198.92	-422.222
199.30	-550.000
199.68	-327.273
200.05	-307.143
200.43	-2150.000
200.81	685.714
201.18	0.000
201.56	588.889
201.94	0.000
202.31	1400.000
202.69	-455.556
203.07	3400.000
203.44	-522.222
203.82	-1200.000
204.19	-358.333
204.57	-700.000
204.95	-437.500
205.32	-3800.000
205.70	850.000
206.08	-550.000
206.45	-600.000
206.83	960.000
207.20	-666.667
207.58	-960.000
207.96	-766.667
208.33	-533.333
208.71	358.333
209.08	-483.333
209.46	0.000
209.84	650.000
210.21	2050.000
210.59	2300.000
210.96	1466.667
211.34	-775.000
211.71	-425.000
212.09	-4700.000
212.46	0.000
212.84	2200.000
213.22	-820.000
213.59	-950.000
213.97	-340.000
214.34	-1266.667
214.72	716.667
215.09	-975.000
215.47	0.000
215.84	571.429
216.22	2550.000
216.59	-720.000
216.97	-820.000
217.34	-775.000
217.72	-500.000
218.09	-850.000
218.47	-1025.000
218.84	0.000
219.22	900.000
219.59	-194.118
219.97	-180.000
220.34	2200.000
220.72	-377.778
221.09	-230.769
221.47	-1100.000
221.84	-350.000
222.22	-585.714
222.59	0.000
222.97	-412.500
223.34	-980.000
223.72	-3700.000
224.09	-1000.000
224.46	-975.000
224.84	-580.000
225.21	-642.857
225.59	-1075.000
225.96	-1125.000
226.34	-111.538
226.71	716.667
227.08	-2000.000
227.46	-220.000
227.83	-900.000
228.21	-178.947
228.58	525.000
228.95	2200.000
229.33	-250.000
229.70	-310.000
230.08	-178.947
230.45	400.000
230.82	-1266.667
231.20	-264.286
231.57	-283.333
231.95	-363.636
232.32	-327.273
232.69	-165.000
233.07	-1100.000
233.44	-223.529
233.81	-410.000
234.19	-155.556
234.56	-145.455
234.93	-113.793
235.31	-178.947
235.68	-166.667
236.05	-190.000
236.43	-84.615
236.80	-88.000
237.17	-103.704
237.55	-93.939
237.92	-370.000
238.29	-96.774
238.67	-63.636
239.04	-77.778
239.41	-80.952
239.79	-45.652
240.16	-55.556
240.53	-76.087
240.91	-74.510
241.28	-62.295
241.65	-22.388
242.02	-31.081
242.40	-53.846
242.77	-37.333
243.14	-29.268
243.51	-57.895
243.89	-38.462
244.26	-17.822
244.63	-12.745
245.00	-18.692
245.38	-10.526
245.75	-27.434
246.12	-9.524
246.49	-3.876
246.87	-0.714
247.24	-3.311
247.61	-6.579
247.98	-7.383
248.36	-7.407
248.73	-10.429
249.10	-1.093
249.47	4.975
249.84	4.712
250.22	-0.518
250.59	-4.444
250.96	2.727
251.33	3.571
251.70	8.120
252.08	6.667
252.45	3.279
252.82	0.000
253.19	2.344
253.56	11.407
253.94	-3.462
254.31	3.409
254.68	11.189
255.05	7.166
255.42	4.422
255.79	6.796
256.16	5.960
256.54	4.967
256.91	8.852
257.28	4.590
257.65	5.096
258.02	5.900
258.39	7.977
258.76	9.174
259.14	10.345
259.51	7.781
259.88	7.365
260.25	8.611
260.62	7.671
260.99	12.295
261.36	9.651
261.73	11.141
262.10	12.088
262.47	9.920
262.85	12.374
263.22	10.390
263.59	6.579
263.96	8.440
264.33	8.184
264.70	12.840
265.07	11.456
265.44	13.605
265.81	9.259
266.18	13.605
266.55	10.714
266.92	9.339
267.29	11.816
267.66	9.978
268.03	13.319
268.40	10.438
268.77	10.478
269.14	10.793
269.51	10.088
269.88	13.525
270.25	12.072
270.62	11.603
270.99	13.939
271.36	11.881
271.73	11.198
272.10	11.623
272.47	13.427
272.84	11.847
273.21	12.425
273.58	10.887
273.95	12.885
274.32	11.217
274.69	12.573
275.06	14.835
275.43	9.982
275.80	13.580
276.17	10.185
276.54	13.433
276.91	11.986
277.28	13.382
277.65	12.029
278.02	12.132
278.39	12.138
278.76	13.357
279.13	12.411
279.50	13.574
279.87	12.343
280.23	10.563
280.60	14.237
280.97	12.336
281.34	11.205
281.71	12.014
282.08	13.289
282.45	12.602
282.82	12.716
283.19	11.632
283.56	14.590
283.92	11.862
284.29	11.848
284.66	14.122
285.03	11.538
285.40	12.056
285.77	13.158
286.14	14.198
286.51	11.416
286.87	11.690
287.24	13.554
287.61	13.453
287.98	11.480
288.35	12.722
288.72	14.053
289.08	14.348
289.45	11.834
289.82	12.048
290.19	11.782
290.56	14.648
290.93	11.983
291.29	12.121
291.66	10.882
292.03	10.041
292.40	13.605
292.77	10.377
293.13	12.585
293.50	11.695
293.87	10.604
294.24	12.933
294.60	11.378
294.97	10.872
295.34	12.548
295.71	10.593
296.08	10.853
296.44	11.520
296.81	12.302
297.18	9.838
297.55	10.849
297.91	10.913
298.28	10.308
298.65	12.604
299.02	10.508
299.38	10.412
299.75	10.164
300.12	10.764
300.48	11.060
300.85	12.598
301.22	11.409
301.59	10.274
301.95	11.073
302.32	10.667
302.69	11.391
303.05	11.208
303.42	11.308
303.79	10.938
304.15	11.146
304.52	11.099
304.89	10.157
305.25	11.905
305.62	10.345
305.99	12.268
306.35	11.593
306.72	13.340
307.09	11.675
307.45	12.733
307.82	11.705
308.19	11.403
308.55	13.115
308.92	12.074
309.29	13.697
309.65	12.573
310.02	12.079
310.38	12.303
310.75	12.233
311.12	14.286
311.48	13.685
311.85	13.770
312.22	13.852
312.58	13.333
312.95	14.149
313.31	14.815
313.68	13.736
314.05	15.718
314.41	16.029
314.78	15.441
315.14	16.243
315.51	16.159
315.87	16.832
316.24	18.721
316.61	17.940
316.97	17.647
317.34	18.519
317.70	19.389
318.07	19.136
318.43	19.643
318.80	20.234
319.16	20.343
319.53	19.023
319.89	20.245
320.26	21.352
320.62	21.277
320.99	21.607
321.35	21.165
321.72	23.535
322.08	22.362
322.45	23.487
322.81	24.188
323.18	23.717
323.54	23.966
323.91	27.135
324.27	25.301
324.64	26.532
325.00	26.617
325.37	28.174
325.73	28.347
326.10	29.197
326.46	30.863
326.83	30.745
327.19	30.079
327.56	31.146
327.92	30.291
328.29	31.694
328.65	31.658
329.01	32.318
329.38	34.541
329.74	35.360
330.11	35.531
330.47	34.878
330.84	34.367
331.20	36.333
331.56	35.355
331.93	37.238
332.29	38.136
332.66	36.545
333.02	36.348
333.38	37.752
333.75	37.374
334.11	37.865
334.48	36.634
334.84	37.723
335.20	37.615
335.57	38.449
335.93	39.504
336.29	39.018
336.66	37.763
337.02	37.960
337.38	39.626
337.75	38.926
338.11	38.520
338.47	37.883
338.84	38.748
339.20	39.006
339.56	38.550
339.93	38.506
340.29	38.164
340.65	39.822
341.02	40.463
341.38	40.501
341.74	40.839
342.11	40.628
342.47	37.887
342.83	41.224
343.20	40.474
343.56	39.615
343.92	40.432
344.28	40.156
344.65	41.473
345.01	40.250
345.37	40.513
345.73	39.283
346.10	39.626
346.46	40.744
346.82	40.524
347.19	40.565
347.55	40.137
347.91	41.456
348.27	42.033
348.63	42.117
349.00	41.760
349.36	41.338
349.72	40.774
350.08	41.159
350.45	40.608
350.81	41.026
351.17	41.353
351.53	41.698
351.89	41.989
352.26	42.537
352.62	42.612
352.98	42.214
353.34	41.897
353.70	42.912
354.07	42.996
354.43	42.369
354.79	43.007
355.15	40.839
355.51	43.348
355.87	41.361
356.24	43.954
356.60	42.055
356.96	43.217
357.32	43.717
357.68	42.826
358.04	44.461
358.40	43.060
358.77	43.640
359.13	43.279
359.49	43.197
359.85	43.365
360.21	43.615
360.57	43.719
360.93	43.724
361.29	43.789
361.66	43.954
362.02	45.094
362.38	44.483
362.74	45.251
363.10	43.673
363.46	44.252
363.82	46.449
364.18	45.179
364.54	46.058
364.90	45.686
365.26	45.448
365.62	46.333
365.98	45.677
366.35	46.443
366.71	45.306
367.07	46.820
367.43	46.290
367.79	47.047
368.15	48.161
368.51	46.414
368.87	45.787
369.23	46.467
369.59	48.156
369.95	47.938
370.31	47.603
370.67	48.762
371.03	47.299
371.39	47.952
371.75	48.349
372.11	48.238
372.47	48.138
372.83	49.215
373.19	47.698
373.55	49.322
373.91	49.830
374.27	47.607
374.63	48.985
374.99	49.469
375.35	50.455
375.71	50.581
376.07	49.839
376.42	49.811
376.78	51.647
377.14	49.969
377.50	50.601
377.86	51.170
378.22	51.138
378.58	52.081
378.94	51.291
379.30	51.728
379.66	52.616
380.02	52.683
380.38	53.341
380.74	52.563
381.09	53.310
381.45	52.784
381.81	54.684
382.17	53.207
382.53	53.041
382.89	53.273
383.25	54.396
383.61	55.150
383.97	53.710
384.32	54.366
384.68	54.060
385.04	55.755
385.40	53.860
385.76	56.506
386.12	54.458
386.48	55.176
386.83	54.946
387.19	54.693
387.55	56.338
387.91	56.792
388.27	55.139
388.62	55.326
388.98	56.514
389.34	56.688
389.70	57.467
390.06	56.838
390.42	56.084
390.77	57.255
391.13	56.690
391.49	55.254
391.85	56.545
392.20	57.058
392.56	57.118
392.92	55.998
393.28	56.385
393.64	54.693
393.99	57.641
394.35	56.717
394.71	56.347
395.07	56.048
395.42	56.825
395.78	57.343
396.14	57.398
396.50	56.829
396.85	54.621
397.21	55.621
397.57	55.948
397.92	56.357
398.28	56.382
398.64	55.435
399.00	54.398
399.35	56.963
399.71	56.413
400.07	55.755
400.42	56.461
400.78	56.713
401.14	55.891
401.49	56.055
401.85	56.395
402.21	56.547
402.57	56.397
402.92	55.792
403.28	54.977
403.63	56.205
403.99	55.226
404.35	54.122
404.70	54.334
405.06	53.261
405.42	54.391
405.77	55.780
406.13	55.051
406.49	55.293
406.84	54.737
407.20	55.394
407.55	54.512
407.91	53.677
408.27	54.005
408.62	54.799
408.98	54.266
409.34	53.783
409.69	53.708
410.05	55.217
410.40	54.988
410.76	54.739
411.11	55.757
411.47	55.160
411.83	54.733
412.18	55.602
412.54	54.890
412.89	55.413
413.25	54.740
413.60	55.428
413.96	55.828
414.31	55.297
414.67	55.754
415.03	55.385
415.38	57.503
415.74	56.750
416.09	56.755
416.45	54.978
416.80	54.774
417.16	55.428
417.51	57.472
417.87	56.591
418.22	56.826
418.58	56.939
418.93	57.218
419.29	58.755
419.64	58.343
420.00	58.694
420.35	57.945
420.71	58.185
421.06	57.619
421.42	59.862
421.77	58.858
422.12	59.408
422.48	60.215
422.83	62.596
423.19	60.743
423.54	62.113
423.90	61.679
424.25	61.707
424.61	62.170
424.96	62.328
425.31	62.898
425.67	62.748
426.02	64.970
426.38	64.868
426.73	63.449
427.09	64.072
427.44	63.190
427.79	64.787
428.15	64.954
428.50	65.843
428.85	64.351
429.21	66.809
429.56	65.005
429.92	66.192
430.27	66.506
430.62	67.318
430.98	66.306
431.33	67.400
431.68	67.241
432.04	69.680
432.39	69.363
432.74	68.379
433.10	69.551
433.45	68.116
433.80	67.650
434.16	68.905
434.51	69.784
434.86	72.313
435.22	71.892
435.57	71.639
435.92	71.397
436.28	71.900
436.63	72.529
436.98	70.424
437.34	72.097
437.69	72.922
438.04	72.131
438.39	70.994
438.75	72.662
439.10	73.362
439.45	73.561
439.81	73.390
440.16	72.011
440.51	75.864
440.86	73.708
441.22	73.365
441.57	73.166
441.92	73.763
442.27	76.061
442.63	74.516
442.98	74.973
443.33	73.488
443.68	75.768
444.03	76.529
444.39	76.329
444.74	76.672
445.09	76.280
445.44	77.028
445.79	76.916
446.15	76.516
446.50	76.072
446.85	76.411
447.20	75.338
447.55	76.674
447.91	75.707
448.26	77.273
448.61	76.727
448.96	79.131
449.31	75.981
449.66	76.634
450.02	76.635
450.37	77.784
450.72	79.656
451.07	78.246
451.42	76.834
451.77	77.376
452.12	79.176
452.47	79.026
452.83	80.687
453.18	78.926
453.53	78.461
453.88	76.808
454.23	78.814
454.58	79.629
454.93	78.519
455.28	80.193
455.63	79.193
455.98	78.156
456.34	78.916
456.69	79.777
457.04	80.260
457.39	79.324
457.74	80.313
458.09	79.517
458.44	79.580
458.79	80.093
459.14	79.392
459.49	81.098
459.84	81.375
460.19	80.900
460.54	82.226
460.89	81.789
461.24	80.115
461.59	80.022
461.94	79.521
462.29	80.907
462.64	81.714
462.99	81.544
463.34	82.738
463.69	78.722
464.04	81.490
464.39	80.437
464.74	78.335
465.09	80.277
465.44	81.277
465.79	79.640
466.14	81.866
466.49	81.053
466.84	82.204
467.19	81.618
467.54	78.613
467.89	80.747
468.24	81.163
468.59	82.224
468.94	81.818
469.29	82.184
469.64	82.009
469.99	82.983
470.34	81.745
470.68	83.459
471.03	82.973
471.38	83.322
471.73	83.095
472.08	83.058
472.43	82.661
472.78	82.683
473.13	84.450
473.48	83.142
473.83	83.981
474.17	81.653
474.52	84.546
474.87	82.392
475.22	83.944
475.57	82.503
475.92	81.682
476.27	84.079
476.61	83.178
476.96	82.847
477.31	82.376
477.66	85.414
478.01	81.800
478.36	81.256
478.70	83.645
479.05	84.151
479.40	84.946
479.75	83.189
480.10	82.568
480.45	83.911
480.79	83.356
481.14	83.134
481.49	83.235
481.84	84.465
482.19	85.075
482.53	84.827
482.88	84.404
483.23	85.149
483.58	84.672
483.92	83.644
484.27	83.616
484.62	82.921
484.97	83.009
485.31	81.098
485.66	75.614
486.01	74.090
486.36	77.376
486.70	83.237
487.05	87.262
487.40	85.233
487.75	83.486
488.09	83.516
488.44	81.782
488.79	81.585
489.13	81.354
489.48	82.408
489.83	81.569
490.17	83.556
490.52	84.360
490.87	85.660
491.22	85.919
491.56	85.452
491.91	84.780
492.26	86.283
492.60	84.084
492.95	85.520
493.30	85.074
493.64	85.195
493.99	85.614
494.34	85.235
494.68	84.325
495.03	86.916
495.37	86.640
495.72	85.624
496.07	85.539
496.41	85.371
496.76	86.864
497.11	86.964
497.45	86.621
497.80	85.473
498.14	85.669
498.49	86.811
498.84	86.746
499.18	86.550
499.53	86.099
499.87	86.725
500.22	86.420
500.56	86.280
500.91	87.140
501.26	87.136
501.60	87.141
501.95	85.410
502.29	86.266
502.64	87.363
502.98	84.944
503.33	86.220
503.67	86.263
504.02	86.515
504.36	87.131
504.71	88.746
505.06	86.721
505.40	87.477
505.75	87.887
506.09	87.569
506.44	88.022
506.78	89.174
507.13	88.105
507.47	88.678
507.82	88.163
508.16	86.759
508.51	87.482
508.85	88.002
509.19	90.099
509.54	89.577
509.88	88.344
510.23	88.052
510.57	89.222
510.92	89.647
511.26	88.504
511.61	87.591
511.95	89.019
512.30	89.365
512.64	89.055
512.98	89.745
513.33	89.214
513.67	89.036
514.02	90.700
514.36	90.844
514.70	90.677
515.05	90.667
515.39	90.499
515.74	90.721
516.08	91.072
516.42	91.156
516.77	92.219
517.11	89.685
517.46	90.350
517.80	91.662
518.14	92.873
518.49	91.323
518.83	89.995
519.17	90.415
519.52	90.828
519.86	91.288
520.20	90.841
520.55	91.238
520.89	92.455
521.23	92.686
521.58	93.164
521.92	92.975
522.26	91.810
522.61	91.956
522.95	92.215
523.29	92.471
523.64	91.536
523.98	92.584
524.32	93.983
524.66	92.544
525.01	91.336
525.35	90.121
525.69	92.227
526.04	91.160
526.38	91.724
526.72	91.176
527.06	92.962
527.41	91.895
527.75	93.409
528.09	92.503
528.43	91.356
528.78	91.850
529.12	91.915
529.46	88.589
529.80	92.563
530.15	91.826
530.49	92.883
530.83	91.558
531.17	92.354
531.51	90.493
531.86	92.368
532.20	91.463
532.54	90.963
532.88	92.061
533.22	90.925
533.57	89.844
533.91	89.282
534.25	88.977
534.59	91.379
534.93	90.266
535.27	89.634
535.62	91.472
535.96	91.865
536.30	90.776
536.64	90.511
536.98	90.713
537.32	92.160
537.66	92.389
538.01	89.245
538.35	90.012
538.69	90.565
539.03	89.884
539.37	90.283
539.71	90.390
540.05	90.947
540.39	89.548
540.73	89.496
541.07	89.884
541.42	87.950
541.76	87.307
542.10	88.601
542.44	89.586
542.78	90.693
543.12	89.273
543.46	88.523
543.80	88.849
544.14	89.826
544.48	89.539
544.82	90.545
545.16	90.161
545.50	90.114
545.84	90.141
546.18	90.988
546.52	90.637
546.86	90.252
547.20	90.776
547.54	90.325
547.88	89.813
548.22	88.713
548.56	89.760
548.90	91.881
549.24	91.429
549.58	92.744
549.92	90.497
550.26	89.838
550.60	90.747
550.94	92.497
551.28	90.363
551.62	91.240
551.96	88.673
552.30	89.994
552.64	90.790
552.98	91.578
553.32	95.370
553.66	93.955
554.00	92.308
554.34	93.115
554.68	91.866
555.02	93.298
555.36	91.453
555.69	90.199
556.03	91.110
556.37	92.491
556.71	90.615
557.05	91.182
557.39	93.232
557.73	92.008
558.07	93.245
558.41	94.219
558.75	93.442
559.08	94.015
559.42	94.307
559.76	92.741
560.10	93.570
560.44	92.150
560.78	93.438
561.12	90.702
561.45	92.518
561.79	92.308
562.13	92.483
562.47	91.060
562.81	92.722
563.15	93.434
563.48	92.293
563.82	91.838
564.16	89.824
564.50	92.133
564.84	90.324
565.17	90.412
565.51	89.298
565.85	91.746
566.19	89.804
566.52	90.638
566.86	90.945
567.20	88.200
567.54	90.122
567.88	88.328
568.21	88.439
568.55	89.688
568.89	87.245
569.23	88.044
569.56	86.479
569.90	84.961
570.24	85.936
570.57	84.541
570.91	83.099
571.25	82.210
571.59	82.382
571.92	81.317
572.26	81.789
572.60	81.600
572.93	80.573
573.27	80.978
573.61	79.989
573.95	79.874
574.28	79.654
574.62	79.673
574.96	79.113
575.29	78.916
575.63	79.418
575.97	79.569
576.30	78.658
576.64	78.931
576.98	78.064
577.31	78.647
577.65	79.303
577.98	78.313
578.32	77.441
578.66	77.949
578.99	78.886
579.33	79.391
579.67	79.488
580.00	78.602
580.34	77.923
580.67	78.420
581.01	78.170
581.35	77.089
581.68	76.841
582.02	77.443
582.35	79.217
582.69	80.038
583.02	79.873
583.36	80.674
583.70	80.573
584.03	79.386
584.37	80.178
584.70	78.606
585.04	78.517
585.37	78.480
585.71	78.921
586.04	80.273
586.38	80.826
586.72	80.296
587.05	81.990
587.39	81.077
587.72	81.531
588.06	80.754
588.39	81.404
588.73	81.534
589.06	81.857
589.40	84.511
589.73	83.419
590.07	83.223
590.40	83.435
590.73	83.528
591.07	85.406
591.40	83.981
591.74	84.102
592.07	84.490
592.41	85.134
592.74	82.819
593.08	83.280
593.41	83.465
593.75	83.420
594.08	84.702
594.41	84.872
594.75	84.158
595.08	85.128
595.42	83.929
595.75	83.500
596.09	85.463
596.42	84.163
596.75	84.755
597.09	87.677
597.42	85.141
597.75	84.869
598.09	85.278
598.42	86.369
598.76	83.722
599.09	83.766
599.42	82.132
599.76	83.130
600.09	83.884
600.42	83.750
600.76	84.346
601.09	83.770
601.42	83.076
601.76	84.552
602.09	84.489
602.42	83.388
602.76	85.018
603.09	85.206
603.42	85.405
603.76	83.686
604.09	84.173
604.42	84.771
604.76	84.703
605.09	85.880
605.42	86.603
605.75	84.000
606.09	84.696
606.42	84.349
606.75	84.108
607.09	84.178
607.42	84.470
607.75	85.229
608.08	84.175
608.42	84.522
608.75	86.443
609.08	84.295
609.41	87.208
609.75	86.339
610.08	87.379
610.41	85.387
610.74	86.261
611.07	85.790
611.41	86.771
611.74	87.483
612.07	88.593
612.40	88.356
612.73	88.851
613.07	86.797
613.40	87.584
613.73	86.808
614.06	88.420
614.39	87.123
614.72	85.784
615.06	85.659
615.39	86.080
615.72	87.014
616.05	87.178
616.38	89.102
616.71	87.356
617.05	87.487
617.38	88.229
617.71	88.661
618.04	88.505
618.37	90.273
618.70	90.385
619.03	88.351
619.36	91.492
619.69	90.711
620.03	91.212
620.36	89.080
620.69	90.500
621.02	93.307
621.35	94.775
621.68	92.336
622.01	93.310
622.34	92.887
622.67	93.677
623.00	91.498
623.33	92.435
623.66	91.375
623.99	92.429
624.32	92.073
624.65	91.956
624.99	92.718
625.32	91.966
625.65	91.436
625.98	91.390
626.31	93.905
626.64	92.967
626.97	93.323
627.30	95.444
627.63	94.074
627.96	93.844
628.29	94.630
628.62	96.641
628.95	99.912
629.28	95.242
629.61	95.875
629.94	95.314
630.26	96.017
630.59	96.632
