SpectraSuite Data File
++++++++++++++++++++++++++++++++++++
Date: Thu May 14 14:28:41 PDT 2015
User: schluterlab
Dark Spectrum Present: Yes
Reference Spectrum Present: Yes
Number of Sampled Component Spectra: 1
Spectrometers: USB2E3373
Integration Time (usec): 3000 (USB2E3373)
Spectra Averaged: 3 (USB2E3373)
Boxcar Smoothing: 0 (USB2E3373)
Correct for Electrical Dark: No (USB2E3373)
Strobe/Lamp Enabled: No (USB2E3373)
Correct for Detector Non-linearity: No (USB2E3373)
Correct for Stray Light: No (USB2E3373)
Number of Pixels in Processed Spectrum: 2048
>>>>>Begin Processed Spectral Data<<<<<
178.53	0.000
178.91	-100.000
179.29	100.000
179.67	1200.000
180.04	-7.143
180.42	-170.000
180.80	-20.000
181.18	1000.000
181.56	1600.000
181.94	-200.000
182.31	250.000
182.69	-166.667
183.07	650.000
183.45	-225.000
183.83	266.667
184.20	500.000
184.58	-1000.000
184.96	350.000
185.34	55.556
185.72	360.000
186.09	-55.556
186.47	-400.000
186.85	-40.000
187.23	33.333
187.61	100.000
187.98	-460.000
188.36	-250.000
188.74	250.000
189.12	333.333
189.49	93.750
189.87	112.500
190.25	277.778
190.63	260.000
191.00	44.444
191.38	0.000
191.76	225.000
192.14	300.000
192.51	-150.000
192.89	316.667
193.27	0.000
193.65	185.714
194.02	600.000
194.40	271.429
194.78	-42.857
195.15	0.000
195.53	145.455
195.91	0.000
196.29	400.000
196.66	69.231
197.04	1100.000
197.42	171.429
197.79	600.000
198.17	175.000
198.55	171.429
198.92	155.556
199.30	125.000
199.68	90.909
200.05	42.857
200.43	350.000
200.81	-57.143
201.18	0.000
201.56	11.111
201.94	0.000
202.31	-366.667
202.69	111.111
203.07	-2200.000
203.44	255.556
203.82	550.000
204.19	125.000
204.57	333.333
204.95	62.500
205.32	1100.000
205.70	-50.000
206.08	150.000
206.45	216.667
206.83	-60.000
207.20	233.333
207.58	100.000
207.96	83.333
208.33	250.000
208.71	-75.000
209.08	333.333
209.46	0.000
209.84	-100.000
210.21	-350.000
210.59	-600.000
210.96	-33.333
211.34	350.000
211.71	150.000
212.09	1100.000
212.46	0.000
212.84	100.000
213.22	120.000
213.59	400.000
213.97	180.000
214.34	433.333
214.72	-100.000
215.09	275.000
215.47	0.000
215.84	-71.429
216.22	-100.000
216.59	400.000
216.97	180.000
217.34	400.000
217.72	162.500
218.09	300.000
218.47	250.000
218.84	0.000
219.22	-300.000
219.59	152.941
219.97	115.000
220.34	-300.000
220.72	133.333
221.09	169.231
221.47	433.333
221.84	160.000
222.22	142.857
222.59	0.000
222.97	275.000
223.34	40.000
223.72	1300.000
224.09	350.000
224.46	275.000
224.84	500.000
225.21	128.571
225.59	225.000
225.96	275.000
226.34	111.538
226.71	33.333
227.08	750.000
227.46	80.000
227.83	275.000
228.21	100.000
228.58	-112.500
228.95	-650.000
229.33	141.667
229.70	90.000
230.08	110.526
230.45	30.000
230.82	533.333
231.20	107.143
231.57	158.333
231.95	154.545
232.32	118.182
232.69	100.000
233.07	100.000
233.44	64.706
233.81	100.000
234.19	144.444
234.56	77.273
234.93	86.207
235.31	84.211
235.68	94.444
236.05	60.000
236.43	61.538
236.80	92.000
237.17	55.556
237.55	57.576
237.92	180.000
238.29	67.742
238.67	47.727
239.04	47.222
239.41	45.238
239.79	39.130
240.16	33.333
240.53	47.826
240.91	17.647
241.28	36.066
241.65	49.254
242.02	44.595
242.40	41.538
242.77	26.667
243.14	21.951
243.51	30.263
243.89	44.872
244.26	33.663
244.63	30.392
245.00	36.449
245.38	35.965
245.75	20.354
246.12	30.952
246.49	22.481
246.87	27.857
247.24	29.801
247.61	29.605
247.98	26.846
248.36	25.926
248.73	18.405
249.10	21.858
249.47	28.358
249.84	32.461
250.22	24.870
250.59	28.333
250.96	25.000
251.33	20.408
251.70	25.214
252.08	22.500
252.45	27.869
252.82	23.140
253.19	25.391
253.56	23.954
253.94	20.769
254.31	22.348
254.68	19.930
255.05	22.801
255.42	21.088
255.79	21.036
256.16	23.841
256.54	20.861
256.91	24.590
257.28	21.639
257.65	20.382
258.02	20.354
258.39	23.932
258.76	24.465
259.14	24.713
259.51	24.496
259.88	20.113
260.25	22.778
260.62	22.740
260.99	26.776
261.36	21.716
261.73	24.668
262.10	21.703
262.47	25.201
262.85	23.485
263.22	21.299
263.59	22.105
263.96	23.529
264.33	19.182
264.70	22.222
265.07	21.957
265.44	27.211
265.81	21.528
266.18	24.036
266.55	23.214
266.92	19.590
267.29	23.632
267.66	21.951
268.03	22.926
268.40	21.712
268.77	20.501
269.14	21.366
269.51	21.491
269.88	21.926
270.25	20.523
270.62	20.464
270.99	22.424
271.36	22.772
271.73	22.004
272.10	21.242
272.47	23.647
272.84	19.880
273.21	23.447
273.58	21.976
273.95	20.962
274.32	19.962
274.69	18.182
275.06	20.147
275.43	21.072
275.80	21.164
276.17	20.000
276.54	21.269
276.91	17.889
277.28	21.157
277.65	21.724
278.02	20.956
278.39	20.652
278.76	20.211
279.13	20.390
279.50	21.478
279.87	21.646
280.23	17.782
280.60	23.051
280.97	19.737
281.34	18.676
281.71	22.504
282.08	19.103
282.45	19.640
282.82	19.152
283.19	19.225
283.56	19.836
283.92	21.622
284.29	19.905
284.66	20.525
285.03	19.391
285.40	19.629
285.77	20.124
286.14	21.679
286.51	20.244
286.87	18.957
287.24	19.428
287.61	18.984
287.98	19.184
288.35	19.083
288.72	20.858
289.08	20.059
289.45	18.639
289.82	18.825
290.19	20.690
290.56	18.451
290.93	19.116
291.29	18.733
291.66	18.733
292.03	17.503
292.40	19.456
292.77	17.790
293.13	18.133
293.50	18.134
293.87	19.329
294.24	18.133
294.60	20.228
294.97	18.389
295.34	19.462
295.71	16.898
296.08	17.571
296.44	18.505
296.81	17.540
297.18	17.808
297.55	19.222
297.91	18.505
298.28	16.232
298.65	19.144
299.02	17.828
299.38	17.849
299.75	19.276
300.12	17.361
300.48	18.548
300.85	17.998
301.22	17.562
301.59	17.808
301.95	16.836
302.32	19.444
302.69	16.429
303.05	19.260
303.42	17.627
303.79	18.229
304.15	17.771
304.52	17.019
304.89	18.115
305.25	18.427
305.62	18.600
305.99	19.072
306.35	18.246
306.72	17.890
307.09	17.259
307.45	18.012
307.82	17.861
308.19	17.962
308.55	18.708
308.92	17.722
309.29	18.103
309.65	17.154
310.02	18.218
310.38	17.028
310.75	18.932
311.12	18.696
311.48	17.595
311.85	18.993
312.22	19.260
312.58	18.685
312.95	17.878
313.31	18.699
313.68	19.048
314.05	21.500
314.41	19.126
314.78	18.710
315.14	20.236
315.51	19.298
315.87	19.442
316.24	20.365
316.61	18.739
316.97	18.824
317.34	18.519
317.70	20.786
318.07	20.018
318.43	20.663
318.80	20.234
319.16	19.914
319.53	19.280
319.89	20.070
320.26	19.395
320.62	20.656
320.99	20.683
321.35	20.240
321.72	22.326
322.08	20.739
322.45	20.687
322.81	21.480
323.18	21.504
323.54	20.690
323.91	20.907
324.27	23.236
324.64	22.670
325.00	20.647
325.37	22.604
325.73	22.066
326.10	23.114
326.46	24.593
326.83	24.339
327.19	22.205
327.56	23.953
327.92	24.548
328.29	24.032
328.65	23.534
329.01	24.873
329.38	25.274
329.74	24.658
330.11	26.027
330.47	25.695
330.84	26.012
331.20	25.583
331.56	26.083
331.93	25.439
332.29	27.288
332.66	26.163
333.02	25.963
333.38	26.594
333.75	26.852
334.11	27.523
334.48	27.475
334.84	27.782
335.20	26.784
335.57	27.740
335.93	26.364
336.29	27.870
336.66	27.839
337.02	27.007
337.38	28.486
337.75	27.686
338.11	28.091
338.47	27.874
338.84	27.919
339.20	26.959
339.56	27.265
339.93	27.422
340.29	27.536
340.65	26.845
341.02	27.294
341.38	28.213
341.74	26.877
342.11	28.319
342.47	27.085
342.83	28.422
343.20	27.964
343.56	27.346
343.92	28.102
344.28	27.344
344.65	28.915
345.01	27.847
345.37	27.605
345.73	27.670
346.10	27.613
346.46	27.057
346.82	28.090
347.19	27.349
347.55	27.086
347.91	27.860
348.27	27.314
348.63	28.104
349.00	27.666
349.36	27.509
349.72	27.083
350.08	27.786
350.45	28.593
350.81	26.697
351.17	26.391
351.53	28.355
351.89	28.094
352.26	26.493
352.62	27.164
352.98	27.328
353.34	27.035
353.70	26.965
354.07	28.390
354.43	27.866
354.79	28.497
355.15	28.624
355.51	27.047
355.87	27.225
356.24	27.833
356.60	27.864
356.96	27.947
357.32	27.286
357.68	28.258
358.04	27.919
358.40	27.910
358.77	28.363
359.13	27.400
359.49	28.699
359.85	28.209
360.21	27.834
360.57	27.710
360.93	27.997
361.29	27.930
361.66	29.037
362.02	28.601
362.38	28.110
362.74	29.260
363.10	29.574
363.46	28.670
363.82	28.622
364.18	29.627
364.54	29.046
364.90	30.033
365.26	28.069
365.62	28.733
365.98	29.204
366.35	30.604
366.71	28.707
367.07	29.161
367.43	29.678
367.79	29.263
368.15	29.231
368.51	30.041
368.87	29.327
369.23	29.667
369.59	30.669
369.95	31.102
370.31	30.452
370.67	29.505
371.03	29.917
371.39	29.080
371.75	29.849
372.11	30.420
372.47	29.113
372.83	30.694
373.19	29.286
373.55	28.726
373.91	30.879
374.27	30.142
374.63	30.717
374.99	31.034
375.35	30.649
375.71	29.677
376.07	30.859
376.42	30.793
376.78	31.945
377.14	30.630
377.50	32.132
377.86	32.882
378.22	32.335
378.58	32.402
378.94	31.690
379.30	32.513
379.66	32.040
380.02	32.833
380.38	33.468
380.74	32.451
381.09	33.508
381.45	32.898
381.81	33.782
382.17	33.076
382.53	34.035
382.89	33.804
383.25	34.232
383.61	33.854
383.97	35.453
384.32	35.048
384.68	33.817
385.04	34.413
385.40	35.474
385.76	36.049
386.12	34.650
386.48	35.176
386.83	36.293
387.19	35.458
387.55	35.329
387.91	34.932
388.27	35.393
388.62	35.338
388.98	35.025
389.34	36.889
389.70	36.432
390.06	36.649
390.42	36.867
390.77	35.762
391.13	36.561
391.49	36.655
391.85	36.303
392.20	37.129
392.56	38.039
392.92	36.587
393.28	36.429
393.64	35.419
393.99	38.001
394.35	37.383
394.71	37.246
395.07	36.766
395.42	35.979
395.78	37.599
396.14	36.898
396.50	37.767
396.85	36.494
397.21	36.391
397.57	36.867
397.92	36.884
398.28	36.719
398.64	36.270
399.00	36.440
399.35	36.911
399.71	36.467
400.07	36.272
400.42	37.602
400.78	38.079
401.14	37.223
401.49	36.839
401.85	36.221
402.21	37.601
402.57	37.676
402.92	36.466
403.28	36.183
403.63	36.158
403.99	36.045
404.35	35.986
404.70	37.337
405.06	36.250
405.42	36.066
405.77	37.732
406.13	37.061
406.49	36.036
406.84	35.734
407.20	36.221
407.55	35.796
407.91	36.518
408.27	36.396
408.62	36.242
408.98	36.332
409.34	36.188
409.69	36.465
410.05	37.222
410.40	36.891
410.76	36.455
411.11	36.762
411.47	38.022
411.83	37.096
412.18	36.867
412.54	36.811
412.89	37.253
413.25	35.948
413.60	35.899
413.96	36.189
414.31	35.637
414.67	37.209
415.03	35.631
415.38	36.885
415.74	36.042
416.09	38.063
416.45	36.318
416.80	36.659
417.16	38.633
417.51	36.862
417.87	38.075
418.22	37.365
418.58	36.927
418.93	38.417
419.29	37.670
419.64	38.956
420.00	39.347
420.35	37.900
420.71	37.392
421.06	38.470
421.42	37.615
421.77	36.887
422.12	38.319
422.48	38.761
422.83	39.814
423.19	38.568
423.54	39.712
423.90	39.536
424.25	39.360
424.61	38.691
424.96	39.758
425.31	39.968
425.67	40.311
426.02	40.564
426.38	40.241
426.73	40.290
427.09	40.542
427.44	40.852
427.79	41.349
428.15	40.240
428.50	41.966
428.85	40.299
429.21	41.649
429.56	40.326
429.92	41.032
430.27	40.964
430.62	42.159
430.98	40.925
431.33	40.371
431.68	40.996
432.04	42.204
432.39	41.618
432.74	42.180
433.10	42.996
433.45	41.304
433.80	41.899
434.16	42.717
434.51	42.806
434.86	43.105
435.22	43.996
435.57	42.335
435.92	43.127
436.28	44.027
436.63	44.839
436.98	42.888
437.34	44.250
437.69	43.478
438.04	43.205
438.39	44.457
438.75	43.996
439.10	45.032
439.45	44.606
439.81	44.915
440.16	44.826
440.51	45.819
440.86	44.803
441.22	45.498
441.57	45.650
441.92	44.374
442.27	46.263
442.63	44.113
442.98	45.678
443.33	45.660
443.68	45.491
444.03	45.720
444.39	44.984
444.74	46.554
445.09	46.477
445.44	47.102
445.79	46.360
446.15	46.865
446.50	46.253
446.85	46.449
447.20	46.518
447.55	46.967
447.91	46.545
448.26	46.987
448.61	46.281
448.96	47.639
449.31	47.614
449.66	46.187
450.02	46.624
450.37	46.883
450.72	46.932
451.07	47.494
451.42	47.776
451.77	46.859
452.12	47.348
452.47	46.583
452.83	48.874
453.18	47.869
453.53	47.674
453.88	47.101
454.23	47.853
454.58	49.042
454.93	48.604
455.28	48.104
455.63	47.811
455.98	49.162
456.34	48.057
456.69	47.678
457.04	49.113
457.39	48.060
457.74	48.434
458.09	48.435
458.44	48.599
458.79	48.169
459.14	47.090
459.49	49.349
459.84	48.164
460.19	47.252
460.54	48.041
460.89	49.868
461.24	48.966
461.59	49.087
461.94	47.804
462.29	49.720
462.64	50.030
462.99	49.906
463.34	49.968
463.69	48.710
464.04	48.694
464.39	49.552
464.74	49.829
465.09	50.231
465.44	49.410
465.79	49.603
466.14	49.036
466.49	49.421
466.84	49.146
467.19	49.422
467.54	48.766
467.89	49.310
468.24	49.695
468.59	48.523
468.94	49.942
469.29	49.610
469.64	50.286
469.99	51.115
470.34	48.577
470.68	51.880
471.03	51.473
471.38	50.948
471.73	50.715
472.08	50.254
472.43	51.114
472.78	51.322
473.13	51.643
473.48	50.755
473.83	51.190
474.17	50.703
474.52	50.331
474.87	50.166
475.22	52.000
475.57	49.740
475.92	50.523
476.27	51.597
476.61	50.052
476.96	50.209
477.31	51.089
477.66	51.889
478.01	50.890
478.36	51.296
478.70	50.246
479.05	51.738
479.40	52.369
479.75	51.201
480.10	51.966
480.45	50.593
480.79	50.612
481.14	50.414
481.49	51.068
481.84	51.088
482.19	52.731
482.53	50.634
482.88	51.927
483.23	51.578
483.58	50.873
483.92	51.108
484.27	50.466
484.62	50.000
484.97	49.767
485.31	50.334
485.66	49.905
486.01	47.313
486.36	47.375
486.70	47.800
487.05	48.574
487.40	49.199
487.75	50.025
488.09	50.859
488.44	50.771
488.79	51.501
489.13	51.774
489.48	51.379
489.83	51.308
490.17	51.073
490.52	50.657
490.87	51.734
491.22	51.690
491.56	51.536
491.91	52.159
492.26	51.752
492.60	52.121
492.95	51.514
493.30	51.322
493.64	51.467
493.99	51.842
494.34	51.350
494.68	50.835
495.03	51.498
495.37	52.463
495.72	52.653
496.07	52.016
496.41	51.780
496.76	52.460
497.11	53.163
497.45	52.180
497.80	52.332
498.14	52.336
498.49	52.068
498.84	52.377
499.18	53.261
499.53	52.601
499.87	52.835
500.22	51.647
500.56	51.552
500.91	52.540
501.26	53.591
501.60	52.187
501.95	53.409
502.29	52.523
502.64	52.864
502.98	50.733
503.33	52.613
503.67	52.246
504.02	53.109
504.36	53.887
504.71	53.238
505.06	52.433
505.40	52.925
505.75	53.097
506.09	53.131
506.44	53.946
506.78	53.486
507.13	52.974
507.47	52.724
507.82	53.504
508.16	54.159
508.51	53.540
508.85	52.952
509.19	53.671
509.54	54.995
509.88	52.841
510.23	54.590
510.57	55.099
510.92	54.475
511.26	53.439
511.61	53.018
511.95	53.978
512.30	55.047
512.64	54.323
512.98	54.427
513.33	54.940
513.67	54.258
514.02	56.617
514.36	55.090
514.70	54.844
515.05	54.640
515.39	55.276
515.74	55.408
516.08	54.886
516.42	55.625
516.77	54.784
517.11	54.306
517.46	54.984
517.80	55.959
518.14	55.822
518.49	54.501
518.83	55.242
519.17	54.873
519.52	54.769
519.86	55.702
520.20	55.378
520.55	56.134
520.89	55.912
521.23	56.672
521.58	57.232
521.92	55.864
522.26	56.071
522.61	56.481
522.95	56.344
523.29	56.149
523.64	55.493
523.98	56.361
524.32	55.874
524.66	56.517
525.01	55.096
525.35	55.543
525.69	55.510
526.04	55.798
526.38	55.460
526.72	57.324
527.06	57.595
527.41	57.493
527.75	56.235
528.09	56.021
528.43	55.417
528.78	54.971
529.12	55.619
529.46	55.256
529.80	56.178
530.15	55.072
530.49	56.228
530.83	56.375
531.17	56.392
531.51	56.077
531.86	56.490
532.20	58.049
532.54	54.997
532.88	55.636
533.22	55.392
533.57	55.453
533.91	56.061
534.25	56.473
534.59	56.954
534.93	56.876
535.27	54.930
535.62	55.486
535.96	56.130
536.30	55.288
536.64	56.577
536.98	56.581
537.32	56.975
537.66	57.829
538.01	56.193
538.35	56.699
538.69	56.971
539.03	55.549
539.37	55.418
539.71	55.916
540.05	55.935
540.39	54.707
540.73	53.977
541.07	57.143
541.42	55.109
541.76	53.499
542.10	55.669
542.44	55.238
542.78	56.265
543.12	54.768
543.46	54.579
543.80	55.396
544.14	54.997
544.48	55.969
544.82	56.613
545.16	55.754
545.50	53.385
545.84	54.868
546.18	56.975
546.52	56.178
546.86	55.975
547.20	54.962
547.54	56.055
547.88	55.576
548.22	53.977
548.56	56.524
548.90	55.881
549.24	55.319
549.58	55.521
549.92	57.398
550.26	57.929
550.60	55.839
550.94	56.986
551.28	56.172
551.62	57.278
551.96	56.634
552.30	55.959
552.64	55.196
552.98	55.022
553.32	56.399
553.66	56.977
554.00	56.368
554.34	56.757
554.68	54.616
555.02	56.505
555.36	57.265
555.69	56.694
556.03	55.044
556.37	56.571
556.71	56.690
557.05	56.166
557.39	56.802
557.73	56.869
558.07	55.695
558.41	57.143
558.75	56.592
559.08	56.507
559.42	56.036
559.76	56.377
560.10	55.794
560.44	57.124
560.78	55.562
561.12	55.727
561.45	55.657
561.79	54.518
562.13	56.439
562.47	53.761
562.81	55.759
563.15	56.503
563.48	55.065
563.82	56.227
564.16	56.632
564.50	56.377
564.84	54.572
565.17	55.529
565.51	53.970
565.85	55.641
566.19	54.839
566.52	55.120
566.86	55.348
567.20	54.432
567.54	53.691
567.88	54.179
568.21	53.755
568.55	53.717
568.89	53.563
569.23	52.345
569.56	52.481
569.90	50.535
570.24	51.096
570.57	50.192
570.91	50.000
571.25	49.465
571.59	50.431
571.92	49.760
572.26	49.100
572.60	49.659
572.93	49.346
573.27	50.042
573.61	49.391
573.95	49.721
574.28	48.704
574.62	48.818
574.96	48.059
575.29	47.808
575.63	49.064
575.97	48.982
576.30	48.359
576.64	49.058
576.98	48.132
577.31	49.014
577.65	48.535
577.98	47.760
578.32	47.766
578.66	47.380
578.99	48.085
579.33	48.355
579.67	48.776
580.00	48.820
580.34	49.084
580.67	48.544
581.01	48.680
581.35	48.276
581.68	47.329
582.02	47.606
582.35	47.863
582.69	47.982
583.02	48.477
583.36	48.942
583.70	49.330
584.03	49.388
584.37	49.691
584.70	50.244
585.04	49.291
585.37	49.028
585.71	48.220
586.04	48.635
586.38	48.839
586.72	49.035
587.05	49.092
587.39	49.289
587.72	49.522
588.06	49.468
588.39	49.365
588.73	48.915
589.06	50.762
589.40	51.506
589.73	50.996
590.07	51.326
590.40	50.913
590.73	51.220
591.07	52.569
591.40	52.216
591.74	51.987
592.07	52.294
592.41	51.025
592.74	50.373
593.08	49.682
593.41	50.365
593.75	49.684
594.08	50.348
594.41	49.615
594.75	50.249
595.08	50.639
595.42	50.357
595.75	50.791
596.09	51.271
596.42	52.633
596.75	51.872
597.09	53.212
597.42	51.847
597.75	51.980
598.09	52.302
598.42	51.990
598.76	51.013
599.09	51.086
599.42	49.950
599.76	50.017
600.09	50.083
600.42	50.651
600.76	50.528
601.09	49.585
601.42	49.811
601.76	50.379
602.09	50.572
602.42	50.927
602.76	50.886
603.09	51.579
603.42	50.723
603.76	50.423
604.09	51.171
604.42	50.789
604.76	50.342
605.09	50.778
605.42	51.196
605.75	50.692
606.09	51.400
606.42	50.237
606.75	50.525
607.09	49.462
607.42	51.098
607.75	50.606
608.08	50.671
608.42	50.383
608.75	51.244
609.08	51.146
609.41	51.434
609.75	52.009
610.08	52.199
610.41	50.850
610.74	50.924
611.07	51.377
611.41	52.691
611.74	51.640
612.07	51.893
612.40	51.806
612.73	52.029
613.07	51.980
613.40	52.166
613.73	51.372
614.06	52.993
614.39	51.458
614.72	51.771
615.06	51.347
615.39	52.054
615.72	51.659
616.05	51.724
616.38	52.270
616.71	53.187
617.05	52.343
617.38	52.648
617.71	53.240
618.04	52.887
618.37	53.115
618.70	53.846
619.03	53.644
619.36	54.871
619.69	53.491
620.03	52.919
620.36	52.822
620.69	54.041
621.02	54.593
621.35	56.749
621.68	55.748
622.01	55.089
622.34	54.672
622.67	54.364
623.00	53.576
623.33	54.877
623.66	54.604
623.99	54.707
624.32	55.101
624.65	52.960
624.99	54.226
625.32	55.323
625.65	55.226
625.98	54.576
626.31	55.351
626.64	55.165
626.97	55.289
627.30	55.049
627.63	54.689
627.96	56.006
628.29	55.019
628.62	57.095
628.95	56.792
629.28	56.924
629.61	57.323
629.94	57.155
630.26	56.441
630.59	55.786
630.92	58.095
631.25	57.603
631.58	58.757
631.91	58.575
632.24	59.462
632.57	58.444
632.90	58.877
633.23	58.776
633.56	60.204
