SpectraSuite Data File
++++++++++++++++++++++++++++++++++++
Date: Thu May 14 14:35:20 PDT 2015
User: schluterlab
Dark Spectrum Present: Yes
Reference Spectrum Present: Yes
Number of Sampled Component Spectra: 1
Spectrometers: USB2E3373
Integration Time (usec): 3000 (USB2E3373)
Spectra Averaged: 3 (USB2E3373)
Boxcar Smoothing: 0 (USB2E3373)
Correct for Electrical Dark: No (USB2E3373)
Strobe/Lamp Enabled: No (USB2E3373)
Correct for Detector Non-linearity: No (USB2E3373)
Correct for Stray Light: No (USB2E3373)
Number of Pixels in Processed Spectrum: 2048
>>>>>Begin Processed Spectral Data<<<<<
178.53	0.000
178.91	-271.429
179.29	800.000
179.67	1700.000
180.04	14.286
180.42	-160.000
180.80	-260.000
181.18	1800.000
181.56	3200.000
181.94	-425.000
182.31	400.000
182.69	-700.000
183.07	1050.000
183.45	-350.000
183.83	300.000
184.20	733.333
184.58	-1400.000
184.96	75.000
185.34	211.111
185.72	500.000
186.09	-144.444
186.47	-800.000
186.85	-200.000
187.23	244.444
187.61	1600.000
187.98	-380.000
188.36	-475.000
188.74	500.000
189.12	600.000
189.49	175.000
189.87	137.500
190.25	333.333
190.63	300.000
191.00	166.667
191.38	0.000
191.76	375.000
192.14	250.000
192.51	-900.000
192.89	416.667
193.27	0.000
193.65	242.857
194.02	900.000
194.40	242.857
194.78	-157.143
195.15	0.000
195.53	190.909
195.91	0.000
196.29	675.000
196.66	161.538
197.04	1500.000
197.42	185.714
197.79	950.000
198.17	150.000
198.55	314.286
198.92	322.222
199.30	262.500
199.68	172.727
200.05	114.286
200.43	700.000
200.81	-228.571
201.18	0.000
201.56	-122.222
201.94	0.000
202.31	-766.667
202.69	155.556
203.07	-1400.000
203.44	300.000
203.82	425.000
204.19	166.667
204.57	300.000
204.95	350.000
205.32	2100.000
205.70	-525.000
206.08	383.333
206.45	550.000
206.83	-300.000
207.20	250.000
207.58	300.000
207.96	300.000
208.33	366.667
208.71	-83.333
209.08	600.000
209.46	0.000
209.84	-216.667
210.21	-1300.000
210.59	-1000.000
210.96	-266.667
211.34	650.000
211.71	162.500
212.09	1000.000
212.46	0.000
212.84	-350.000
213.22	460.000
213.59	675.000
213.97	220.000
214.34	400.000
214.72	-200.000
215.09	250.000
215.47	0.000
215.84	-300.000
216.22	-750.000
216.59	320.000
216.97	340.000
217.34	225.000
217.72	237.500
218.09	425.000
218.47	450.000
218.84	0.000
219.22	-300.000
219.59	135.294
219.97	105.000
220.34	-500.000
220.72	211.111
221.09	138.462
221.47	366.667
221.84	290.000
222.22	157.143
222.59	0.000
222.97	275.000
223.34	260.000
223.72	800.000
224.09	525.000
224.46	475.000
224.84	480.000
225.21	271.429
225.59	450.000
225.96	275.000
226.34	80.769
226.71	-233.333
227.08	850.000
227.46	186.667
227.83	300.000
228.21	157.895
228.58	-300.000
228.95	-600.000
229.33	175.000
229.70	200.000
230.08	157.895
230.45	-100.000
230.82	533.333
231.20	150.000
231.57	241.667
231.95	181.818
232.32	200.000
232.69	145.000
233.07	575.000
233.44	123.529
233.81	160.000
234.19	116.667
234.56	113.636
234.93	120.690
235.31	157.895
235.68	133.333
236.05	110.000
236.43	153.846
236.80	144.000
237.17	92.593
237.55	78.788
237.92	230.000
238.29	90.323
238.67	65.909
239.04	97.222
239.41	57.143
239.79	47.826
240.16	59.259
240.53	80.435
240.91	62.745
241.28	59.016
241.65	67.164
242.02	51.351
242.40	58.462
242.77	68.000
243.14	50.000
243.51	52.632
243.89	47.436
244.26	53.465
244.63	51.961
245.00	54.206
245.38	52.632
245.75	46.018
246.12	47.619
246.49	53.488
246.87	52.143
247.24	49.007
247.61	48.026
247.98	46.309
248.36	44.444
248.73	38.650
249.10	37.705
249.47	45.771
249.84	47.120
250.22	38.342
250.59	40.556
250.96	40.909
251.33	42.347
251.70	37.179
252.08	36.250
252.45	34.426
252.82	40.083
253.19	36.719
253.56	38.023
253.94	43.846
254.31	40.909
254.68	37.413
255.05	39.414
255.42	36.735
255.79	36.893
256.16	40.066
256.54	39.735
256.91	37.049
257.28	39.016
257.65	33.439
258.02	34.808
258.39	32.764
258.76	40.673
259.14	37.644
259.51	38.329
259.88	36.261
260.25	32.778
260.62	39.726
260.99	38.798
261.36	37.265
261.73	34.218
262.10	39.835
262.47	37.802
262.85	36.869
263.22	35.844
263.59	33.421
263.96	36.829
264.33	35.806
264.70	34.074
265.07	36.754
265.44	33.107
265.81	34.722
266.18	36.735
266.55	35.045
266.92	34.852
267.29	35.449
267.66	36.364
268.03	36.026
268.40	36.326
268.77	36.902
269.14	35.903
269.51	34.211
269.88	37.090
270.25	32.394
270.62	36.709
270.99	35.556
271.36	35.248
271.73	35.560
272.10	35.070
272.47	36.673
272.84	32.329
273.21	35.872
273.58	33.871
273.95	35.000
274.32	32.700
274.69	33.462
275.06	35.531
275.43	32.163
275.80	32.804
276.17	31.481
276.54	34.515
276.91	32.737
277.28	35.624
277.65	33.932
278.02	35.294
278.39	35.326
278.76	32.337
279.13	31.383
279.50	32.646
279.87	33.631
280.23	32.394
280.60	36.102
280.97	34.539
281.34	31.409
281.71	33.503
282.08	33.223
282.45	31.915
282.82	32.967
283.19	31.179
283.56	33.115
283.92	32.733
284.29	34.123
284.66	30.542
285.03	31.571
285.40	31.685
285.77	32.353
286.14	32.366
286.51	30.746
286.87	30.174
287.24	31.175
287.61	30.344
287.98	30.665
288.35	31.213
288.72	30.473
289.08	30.747
289.45	31.805
289.82	30.873
290.19	30.747
290.56	30.563
290.93	30.670
291.29	29.201
291.66	28.926
292.03	27.680
292.40	29.388
292.77	29.111
293.13	28.958
293.50	29.172
293.87	28.054
294.24	28.933
294.60	28.445
294.97	26.711
295.34	28.809
295.71	27.364
296.08	27.261
296.44	28.554
296.81	27.040
297.18	26.276
297.55	25.708
297.91	26.453
298.28	25.711
298.65	24.614
299.02	25.974
299.38	26.430
299.75	27.453
300.12	25.000
300.48	26.498
300.85	25.084
301.22	25.391
301.59	24.658
301.95	25.650
302.32	25.667
302.69	25.301
303.05	25.027
303.42	25.388
303.79	25.833
304.15	24.816
304.52	25.476
304.89	24.817
305.25	25.155
305.62	25.392
305.99	25.155
306.35	26.008
306.72	27.508
307.09	25.076
307.45	26.087
307.82	25.732
308.19	27.043
308.55	26.615
308.92	25.316
309.29	25.958
309.65	25.439
310.02	25.941
310.38	25.886
310.75	26.699
311.12	27.517
311.48	27.273
311.85	27.255
312.22	27.514
312.58	26.197
312.95	27.342
313.31	27.281
313.68	27.473
314.05	28.636
314.41	30.055
314.78	28.701
315.14	29.492
315.51	28.717
315.87	30.513
316.24	31.142
316.61	29.041
316.97	29.321
317.34	30.335
317.70	31.441
318.07	32.716
318.43	31.207
318.80	31.689
319.16	32.017
319.53	31.020
319.89	31.201
320.26	32.651
320.62	32.979
320.99	34.626
321.35	34.658
321.72	35.628
322.08	33.183
322.45	32.972
322.81	35.560
323.18	33.894
323.54	35.948
323.91	36.210
324.27	35.628
324.64	36.692
325.00	35.572
325.37	36.364
325.73	36.116
326.10	36.740
326.46	37.378
326.83	37.790
327.19	36.850
327.56	38.182
327.92	38.395
328.29	38.468
328.65	36.097
329.01	38.325
329.38	38.837
329.74	39.298
330.11	38.699
330.47	37.911
330.84	39.449
331.20	39.083
331.56	40.815
331.93	40.251
332.29	39.576
332.66	40.781
333.02	38.442
333.38	39.597
333.75	39.899
334.11	40.033
334.48	39.769
334.84	39.847
335.20	38.371
335.57	40.894
335.93	38.099
336.29	39.018
336.66	41.043
337.02	40.970
337.38	40.221
337.75	39.504
338.11	41.295
338.47	40.364
338.84	40.440
339.20	39.174
339.56	39.127
339.93	39.491
340.29	40.338
340.65	38.200
341.02	39.745
341.38	41.148
341.74	38.902
342.11	39.984
342.47	38.125
342.83	40.016
343.20	40.229
343.56	39.695
343.92	40.753
344.28	38.516
344.65	40.000
345.01	38.222
345.37	39.269
345.73	38.971
346.10	39.314
346.46	39.082
346.82	38.277
347.19	39.572
347.55	39.757
347.91	39.227
348.27	38.998
348.63	40.213
349.00	39.448
349.36	39.480
349.72	39.658
350.08	38.633
350.45	39.011
350.81	39.291
351.17	39.925
351.53	38.514
351.89	39.408
352.26	38.433
352.62	38.507
352.98	39.008
353.34	37.341
353.70	38.367
354.07	39.195
354.43	40.395
354.79	37.846
355.15	38.337
355.51	38.743
355.87	38.893
356.24	39.087
356.60	37.694
356.96	37.509
357.32	37.695
357.68	38.653
358.04	37.799
358.40	38.507
358.77	38.523
359.13	39.513
359.49	37.621
359.85	38.216
360.21	37.303
360.57	38.335
360.93	37.941
361.29	38.807
361.66	37.944
362.02	39.596
362.38	38.370
362.74	38.128
363.10	38.996
363.46	39.335
363.82	38.210
364.18	39.198
364.54	38.866
364.90	37.993
365.26	38.690
365.62	39.267
365.98	39.210
366.35	38.591
366.71	39.592
367.07	39.513
367.43	38.017
367.79	40.013
368.15	38.662
368.51	39.175
368.87	38.341
369.23	38.867
369.59	39.413
369.95	38.878
370.31	39.568
370.67	38.790
371.03	38.712
371.39	39.087
371.75	38.996
372.11	39.905
372.47	39.607
372.83	39.202
373.19	39.493
373.55	38.550
373.91	39.945
374.27	39.457
374.63	40.460
374.99	39.058
375.35	39.870
375.71	39.161
376.07	39.832
376.42	38.917
376.78	40.398
377.14	38.989
377.50	40.797
377.86	39.840
378.22	41.198
378.58	39.893
378.94	39.671
379.30	40.480
379.66	40.917
380.02	41.258
380.38	41.532
380.74	40.113
381.09	41.580
381.45	40.000
381.81	42.916
382.17	40.855
382.53	41.579
382.89	40.293
383.25	41.852
383.61	40.336
383.97	41.578
384.32	42.584
384.68	41.995
385.04	42.626
385.40	42.192
385.76	42.556
386.12	41.652
386.48	41.882
386.83	43.266
387.19	42.005
387.55	42.430
387.91	42.808
388.27	42.783
388.62	42.554
388.98	41.794
389.34	43.724
389.70	44.393
390.06	42.214
390.42	42.651
390.77	43.347
391.13	43.134
391.49	42.693
391.85	43.697
392.20	44.187
392.56	43.237
392.92	43.784
393.28	43.449
393.64	43.408
393.99	44.044
394.35	43.224
394.71	44.551
395.07	43.114
395.42	43.347
395.78	45.338
396.14	44.444
396.50	44.240
396.85	43.411
397.21	44.497
397.57	42.815
397.92	43.643
398.28	44.215
398.64	42.735
399.00	42.827
399.35	43.508
399.71	43.859
400.07	44.862
400.42	44.587
400.78	44.155
401.14	43.540
401.49	43.718
401.85	44.360
402.21	45.771
402.57	45.305
402.92	44.563
403.28	43.852
403.63	45.167
403.99	44.418
404.35	44.173
404.70	44.249
405.06	43.750
405.42	43.794
405.77	43.675
406.13	44.030
406.49	44.820
406.84	43.213
407.20	44.438
407.55	44.761
407.91	44.249
408.27	43.875
408.62	45.026
408.98	44.515
409.34	43.754
409.69	44.561
410.05	44.842
410.40	45.302
410.76	44.139
411.11	44.535
411.47	44.533
411.83	45.444
412.18	45.000
412.54	44.576
412.89	45.052
413.25	44.865
413.60	44.170
413.96	44.697
414.31	43.796
414.67	45.677
415.03	44.000
415.38	45.019
415.74	43.983
416.09	45.096
416.45	44.396
416.80	43.329
417.16	44.444
417.51	44.396
417.87	44.574
418.22	44.910
418.58	45.043
418.93	44.936
419.29	45.438
419.64	45.198
420.00	44.451
420.35	45.312
420.71	44.917
421.06	45.198
421.42	45.126
421.77	44.480
422.12	44.503
422.48	44.240
422.83	45.893
423.19	43.979
423.54	45.022
423.90	44.671
424.25	45.333
424.61	45.235
424.96	45.524
425.31	45.170
425.67	43.586
426.02	45.822
426.38	44.661
426.73	44.866
427.09	45.502
427.44	44.620
427.79	45.384
428.15	44.692
428.50	45.225
428.85	45.350
429.21	44.628
429.56	45.607
429.92	44.324
430.27	45.831
430.62	45.530
430.98	45.007
431.33	44.526
431.68	44.301
432.04	44.337
432.39	44.403
432.74	45.662
433.10	44.673
433.45	44.314
433.80	45.011
434.16	45.558
434.51	46.300
434.86	45.657
435.22	45.855
435.57	47.052
435.92	45.353
436.28	46.189
436.63	47.242
436.98	45.357
437.34	46.110
437.69	44.854
438.04	44.897
438.39	45.261
438.75	45.932
439.10	45.560
439.45	45.947
439.81	45.876
440.16	45.147
440.51	45.485
440.86	45.970
441.22	46.624
441.57	46.646
441.92	46.266
442.27	45.960
442.63	45.653
442.98	45.784
443.33	46.291
443.68	46.531
444.03	45.626
444.39	46.232
444.74	45.687
445.09	45.008
445.44	46.101
445.79	45.833
446.15	45.838
446.50	45.581
446.85	45.671
447.20	45.938
447.55	45.711
447.91	45.812
448.26	46.142
448.61	46.281
448.96	46.459
449.31	46.023
449.66	45.643
450.02	45.359
450.37	44.912
450.72	46.502
451.07	46.412
451.42	46.909
451.77	45.525
452.12	46.840
452.47	46.108
452.83	47.185
453.18	45.126
453.53	45.204
453.88	45.610
454.23	45.537
454.58	47.591
454.93	45.813
455.28	45.936
455.63	46.163
455.98	47.095
456.34	46.879
456.69	45.209
457.04	46.749
457.39	46.341
457.74	46.085
458.09	46.678
458.44	45.582
458.79	45.591
459.14	46.041
459.49	47.085
459.84	46.065
460.19	46.086
460.54	47.132
460.89	47.115
461.24	45.575
461.59	46.431
461.94	44.780
462.29	45.913
462.64	44.900
462.99	46.516
463.34	47.956
463.69	45.604
464.04	47.471
464.39	46.581
464.74	46.009
465.09	47.232
465.44	46.137
465.79	45.849
466.14	45.753
466.49	46.789
466.84	47.163
467.19	46.012
467.54	43.655
467.89	46.149
468.24	45.540
468.59	45.976
468.94	45.629
469.29	45.291
469.64	45.264
469.99	46.272
470.34	46.473
470.68	47.573
471.03	47.544
471.38	46.043
471.73	45.449
472.08	46.193
472.43	45.816
472.78	46.222
473.13	46.397
473.48	45.378
473.83	47.011
474.17	46.190
474.52	46.963
474.87	46.235
475.22	46.254
475.57	45.898
475.92	46.142
476.27	46.592
476.61	46.521
476.96	45.360
477.31	46.089
477.66	47.482
478.01	45.958
478.36	45.414
478.70	46.059
479.05	46.933
479.40	46.298
479.75	46.398
480.10	45.523
480.45	45.761
480.79	46.848
481.14	46.232
481.49	45.979
481.84	46.475
482.19	45.634
482.53	46.087
482.88	46.655
483.23	46.465
483.58	45.590
483.92	45.434
484.27	45.639
484.62	44.307
484.97	45.956
485.31	45.019
485.66	45.342
486.01	45.097
486.36	45.553
486.70	45.857
487.05	45.721
487.40	45.693
487.75	45.344
488.09	45.647
488.44	45.314
488.79	46.273
489.13	45.185
489.48	45.437
489.83	45.070
490.17	44.795
490.52	44.663
490.87	45.685
491.22	45.061
491.56	45.179
491.91	44.265
492.26	45.262
492.60	44.950
492.95	45.371
493.30	46.033
493.64	45.247
493.99	45.570
494.34	44.991
494.68	44.625
495.03	45.859
495.37	45.850
495.72	44.263
496.07	45.267
496.41	45.345
496.76	46.539
497.11	45.605
497.45	44.670
497.80	45.358
498.14	44.399
498.49	45.910
498.84	46.435
499.18	45.209
499.53	45.874
499.87	46.593
500.22	44.346
500.56	44.804
500.91	45.400
501.26	45.909
501.60	44.631
501.95	45.376
502.29	45.459
502.64	46.043
502.98	45.945
503.33	45.140
503.67	44.483
504.02	45.096
504.36	45.487
504.71	45.108
505.06	44.657
505.40	45.384
505.75	45.173
506.09	45.442
506.44	44.800
506.78	45.642
507.13	44.859
507.47	45.476
507.82	45.170
508.16	45.746
508.51	45.429
508.85	45.394
509.19	46.139
509.54	45.677
509.88	44.633
510.23	45.750
510.57	45.868
510.92	45.525
511.26	45.022
511.61	44.761
511.95	45.144
512.30	45.593
512.64	44.128
512.98	44.972
513.33	45.665
513.67	45.640
514.02	45.273
514.36	46.292
514.70	44.635
515.05	45.881
515.39	45.512
515.74	46.288
516.08	45.747
516.42	46.049
516.77	45.689
517.11	45.333
517.46	46.978
517.80	46.232
518.14	47.008
518.49	45.390
518.83	45.130
519.17	45.180
519.52	45.440
519.86	45.090
520.20	45.314
520.55	44.852
520.89	45.890
521.23	46.008
521.58	45.763
521.92	45.949
522.26	45.533
522.61	46.759
522.95	45.271
523.29	45.920
523.64	46.637
523.98	45.978
524.32	45.960
524.66	45.987
525.01	45.130
525.35	45.319
525.69	45.070
526.04	44.432
526.38	45.517
526.72	46.021
527.06	46.745
527.41	45.131
527.75	46.437
528.09	45.218
528.43	45.056
528.78	45.318
529.12	45.872
529.46	45.363
529.80	46.110
530.15	45.333
530.49	43.832
530.83	45.986
531.17	45.161
531.51	45.668
531.86	46.695
532.20	46.463
532.54	45.183
532.88	45.394
533.22	46.081
533.57	45.701
533.91	45.903
534.25	46.128
534.59	46.034
534.93	45.501
535.27	45.465
535.62	45.935
535.96	46.659
536.30	45.593
536.64	46.787
536.98	46.248
537.32	46.543
537.66	45.228
538.01	45.740
538.35	44.945
538.69	45.853
539.03	46.413
539.37	45.406
539.71	45.526
540.05	45.204
540.39	45.660
540.73	45.537
541.07	45.739
541.42	44.182
541.76	44.128
542.10	45.899
542.44	44.580
542.78	45.195
543.12	45.530
543.46	45.360
543.80	44.484
544.14	45.781
544.48	45.331
544.82	45.661
545.16	46.273
545.50	44.697
545.84	44.764
546.18	44.877
546.52	45.732
546.86	46.164
547.20	45.293
547.54	46.192
547.88	45.329
548.22	44.971
548.56	45.173
548.90	44.597
549.24	44.438
549.58	45.174
549.92	44.898
550.26	44.725
550.60	44.416
550.94	45.925
551.28	43.828
551.62	45.620
551.96	45.049
552.30	46.590
552.64	45.924
552.98	45.540
553.32	45.338
553.66	45.209
554.00	45.397
554.34	44.852
554.68	44.158
555.02	44.744
555.36	46.614
555.69	43.562
556.03	45.523
556.37	43.429
556.71	44.388
557.05	45.367
557.39	45.455
557.73	45.905
558.07	45.033
558.41	45.847
558.75	45.368
559.08	45.164
559.42	44.170
559.76	45.183
560.10	43.804
560.44	44.459
560.78	45.312
561.12	45.320
561.45	45.377
561.79	44.750
562.13	44.486
562.47	43.896
562.81	45.253
563.15	44.886
563.48	45.308
563.82	44.861
564.16	43.973
564.50	44.756
564.84	45.133
565.17	45.000
565.51	44.131
565.85	44.834
566.19	44.931
566.52	45.348
566.86	45.444
567.20	45.296
567.54	44.397
567.88	46.687
568.21	45.059
568.55	45.612
568.89	45.166
569.23	44.994
569.56	44.822
569.90	45.189
570.24	45.970
570.57	45.029
570.91	44.182
571.25	44.403
571.59	44.976
571.92	44.803
572.26	44.680
572.60	44.090
572.93	44.754
573.27	44.394
573.61	44.415
573.95	44.525
574.28	44.125
574.62	45.202
574.96	43.869
575.29	44.041
575.63	44.098
575.97	44.431
576.30	43.918
576.64	44.405
576.98	44.465
577.31	44.788
577.65	45.336
577.98	44.447
578.32	44.493
578.66	43.592
578.99	44.501
579.33	44.464
579.67	44.039
580.00	44.392
580.34	44.786
580.67	43.888
581.01	44.267
581.35	44.691
581.68	44.330
582.02	44.446
582.35	45.265
582.69	45.142
583.02	44.777
583.36	44.794
583.70	44.672
584.03	44.132
584.37	44.557
584.70	44.401
585.04	44.548
585.37	44.123
585.71	44.401
586.04	43.857
586.38	44.058
586.72	43.720
587.05	44.359
587.39	43.929
587.72	44.737
588.06	44.681
588.39	44.859
588.73	43.413
589.06	44.611
589.40	45.298
589.73	43.830
590.07	44.629
590.40	44.726
590.73	44.327
591.07	45.123
591.40	44.401
591.74	44.674
592.07	44.255
592.41	43.612
592.74	43.592
593.08	44.682
593.41	45.261
593.75	44.511
594.08	44.956
594.41	44.583
594.75	44.537
595.08	43.775
595.42	44.416
595.75	44.301
596.09	44.121
596.42	44.894
596.75	44.076
597.09	44.808
597.42	43.782
597.75	43.865
598.09	44.722
598.42	44.230
598.76	44.096
599.09	43.610
599.42	43.245
599.76	43.546
600.09	44.111
600.42	43.577
600.76	44.122
601.09	43.843
601.42	42.980
601.76	44.000
602.09	43.138
602.42	44.020
602.76	43.727
603.09	43.979
603.42	45.014
603.76	43.869
604.09	44.606
604.42	43.927
604.76	43.874
605.09	43.757
605.42	43.979
605.75	43.269
606.09	43.934
606.42	43.013
606.75	43.028
607.09	43.088
607.42	43.044
607.75	44.939
608.08	43.410
608.42	43.692
608.75	43.367
609.08	42.912
609.41	44.376
609.75	43.348
610.08	44.283
610.41	44.138
610.74	43.571
611.07	43.872
611.41	44.305
611.74	44.480
612.07	44.834
612.40	43.489
612.73	44.939
613.07	43.912
613.40	44.177
613.73	43.861
614.06	43.670
614.39	43.586
614.72	43.911
615.06	42.589
615.39	42.823
615.72	43.081
616.05	44.925
616.38	44.652
616.71	43.939
617.05	42.812
617.38	44.355
617.71	43.575
618.04	44.199
618.37	44.153
618.70	44.174
619.03	44.265
619.36	43.095
619.69	43.113
620.03	43.503
620.36	43.436
620.69	43.924
621.02	43.963
621.35	44.702
621.68	45.264
622.01	43.132
622.34	43.933
622.67	44.605
623.00	43.522
623.33	43.862
623.66	43.839
623.99	44.371
624.32	44.120
624.65	43.951
624.99	44.668
625.32	44.219
625.65	44.639
625.98	43.119
626.31	44.224
626.64	43.883
626.97	44.111
627.30	43.660
627.63	43.361
627.96	45.571
628.29	44.981
628.62	43.661
628.95	43.032
629.28	44.180
629.61	44.529
629.94	43.096
630.26	43.814
630.59	43.610
630.92	42.511
631.25	44.723
631.58	43.879
631.91	44.611
632.24	44.573
632.57	43.738
