SpectraSuite Data File
++++++++++++++++++++++++++++++++++++
Date: Thu May 14 14:27:11 PDT 2015
User: schluterlab
Dark Spectrum Present: Yes
Reference Spectrum Present: Yes
Number of Sampled Component Spectra: 1
Spectrometers: USB2E3373
Integration Time (usec): 3000 (USB2E3373)
Spectra Averaged: 3 (USB2E3373)
Boxcar Smoothing: 0 (USB2E3373)
Correct for Electrical Dark: No (USB2E3373)
Strobe/Lamp Enabled: No (USB2E3373)
Correct for Detector Non-linearity: No (USB2E3373)
Correct for Stray Light: No (USB2E3373)
Number of Pixels in Processed Spectrum: 2048
>>>>>Begin Processed Spectral Data<<<<<
178.53	0.000
178.91	-57.143
179.29	900.000
179.67	600.000
180.04	-7.143
180.42	-140.000
180.80	-60.000
181.18	1800.000
181.56	1800.000
181.94	25.000
182.31	350.000
182.69	-33.333
183.07	450.000
183.45	-175.000
183.83	166.667
184.20	333.333
184.58	-1100.000
184.96	300.000
185.34	55.556
185.72	440.000
186.09	-100.000
186.47	-350.000
186.85	-0.000
187.23	33.333
187.61	-500.000
187.98	-280.000
188.36	-25.000
188.74	225.000
189.12	200.000
189.49	93.750
189.87	37.500
190.25	55.556
190.63	320.000
191.00	33.333
191.38	0.000
191.76	225.000
192.14	66.667
192.51	-450.000
192.89	150.000
193.27	0.000
193.65	28.571
194.02	0.000
194.40	185.714
194.78	-100.000
195.15	0.000
195.53	172.727
195.91	0.000
196.29	150.000
196.66	115.385
197.04	1200.000
197.42	171.429
197.79	650.000
198.17	75.000
198.55	0.000
198.92	88.889
199.30	100.000
199.68	109.091
200.05	121.429
200.43	350.000
200.81	42.857
201.18	0.000
201.56	33.333
201.94	0.000
202.31	-0.000
202.69	0.000
203.07	-700.000
203.44	122.222
203.82	150.000
204.19	41.667
204.57	183.333
204.95	175.000
205.32	500.000
205.70	-325.000
206.08	100.000
206.45	50.000
206.83	80.000
207.20	200.000
207.58	160.000
207.96	0.000
208.33	133.333
208.71	25.000
209.08	116.667
209.46	0.000
209.84	-33.333
210.21	-700.000
210.59	-500.000
210.96	33.333
211.34	425.000
211.71	187.500
212.09	100.000
212.46	0.000
212.84	-150.000
213.22	120.000
213.59	325.000
213.97	190.000
214.34	166.667
214.72	-66.667
215.09	-75.000
215.47	0.000
215.84	14.286
216.22	-250.000
216.59	520.000
216.97	160.000
217.34	400.000
217.72	225.000
218.09	250.000
218.47	250.000
218.84	0.000
219.22	-320.000
219.59	105.882
219.97	70.000
220.34	-350.000
220.72	177.778
221.09	153.846
221.47	100.000
221.84	70.000
222.22	0.000
222.59	0.000
222.97	175.000
223.34	260.000
223.72	600.000
224.09	175.000
224.46	50.000
224.84	340.000
225.21	171.429
225.59	-150.000
225.96	250.000
226.34	50.000
226.71	-66.667
227.08	800.000
227.46	73.333
227.83	25.000
228.21	42.105
228.58	-175.000
228.95	-250.000
229.33	58.333
229.70	70.000
230.08	89.474
230.45	-30.000
230.82	100.000
231.20	121.429
231.57	91.667
231.95	-18.182
232.32	172.727
232.69	85.000
233.07	150.000
233.44	41.176
233.81	60.000
234.19	88.889
234.56	95.455
234.93	72.414
235.31	89.474
235.68	44.444
236.05	10.000
236.43	100.000
236.80	116.000
237.17	40.741
237.55	48.485
237.92	30.000
238.29	41.935
238.67	18.182
239.04	66.667
239.41	26.190
239.79	17.391
240.16	27.778
240.53	4.348
240.91	-1.961
241.28	14.754
241.65	14.925
242.02	31.081
242.40	15.385
242.77	-1.333
243.14	7.317
243.51	5.263
243.89	19.231
244.26	20.792
244.63	7.843
245.00	14.019
245.38	13.158
245.75	2.655
246.12	15.873
246.49	5.426
246.87	15.000
247.24	12.583
247.61	17.763
247.98	7.383
248.36	8.642
248.73	4.294
249.10	6.011
249.47	14.925
249.84	15.707
250.22	10.881
250.59	8.333
250.96	10.455
251.33	8.163
251.70	11.111
252.08	8.333
252.45	11.066
252.82	9.504
253.19	6.641
253.56	11.027
253.94	6.538
254.31	9.091
254.68	16.783
255.05	11.401
255.42	5.442
255.79	8.414
256.16	6.623
256.54	8.609
256.91	8.852
257.28	9.180
257.65	5.096
258.02	6.490
258.39	9.117
258.76	11.315
259.14	7.471
259.51	6.916
259.88	11.048
260.25	8.889
260.62	9.589
260.99	10.383
261.36	9.651
261.73	7.162
262.10	7.143
262.47	6.434
262.85	12.121
263.22	7.792
263.59	6.842
263.96	7.417
264.33	6.650
264.70	8.889
265.07	8.831
265.44	11.565
265.81	5.556
266.18	7.483
266.55	7.812
266.92	6.834
267.29	7.440
267.66	7.317
268.03	9.389
268.40	7.724
268.77	5.011
269.14	5.286
269.51	6.360
269.88	7.992
270.25	8.451
270.62	7.806
270.99	8.687
271.36	9.703
271.73	7.662
272.10	9.218
272.47	8.216
272.84	7.831
273.21	6.814
273.58	10.282
273.95	8.269
274.32	6.654
274.69	7.157
275.06	8.608
275.43	6.285
275.80	7.584
276.17	6.481
276.54	6.903
276.91	6.440
277.28	8.137
277.65	5.925
278.02	7.904
278.39	6.522
278.76	6.854
279.13	7.801
279.50	7.560
279.87	7.513
280.23	4.930
280.60	8.475
280.97	6.414
281.34	5.093
281.71	6.768
282.08	5.980
282.45	5.401
282.82	7.535
283.19	7.108
283.56	6.721
283.92	8.408
284.29	7.741
284.66	7.553
285.03	4.647
285.40	8.037
285.77	6.656
286.14	7.023
286.51	6.849
286.87	6.477
287.24	6.777
287.61	6.577
287.98	6.042
288.35	6.953
288.72	6.805
289.08	6.881
289.45	7.396
289.82	6.024
290.19	7.471
290.56	7.042
290.93	5.991
291.29	7.025
291.66	6.198
292.03	5.292
292.40	7.891
292.77	6.739
293.13	7.442
293.50	6.176
293.87	6.443
294.24	7.467
294.60	7.965
294.97	5.235
295.34	8.195
295.71	6.557
296.08	7.235
296.44	7.966
296.81	7.430
297.18	7.721
297.55	7.075
297.91	7.236
298.28	6.161
298.65	7.848
299.02	6.612
299.38	6.407
299.75	7.243
300.12	5.671
300.48	6.221
300.85	6.187
301.22	7.159
301.59	6.507
301.95	7.684
302.32	8.333
302.69	6.791
303.05	8.052
303.42	6.763
303.79	7.292
304.15	7.361
304.52	6.765
304.89	6.283
305.25	7.557
305.62	5.747
305.99	7.010
306.35	6.552
306.72	8.066
307.09	6.904
307.45	6.418
307.82	7.669
308.19	7.669
308.55	8.293
308.92	7.108
309.29	8.333
309.65	7.602
310.02	7.327
310.38	7.776
310.75	7.282
311.12	9.396
311.48	8.211
311.85	8.357
312.22	8.065
312.58	8.357
312.95	7.839
313.31	9.214
313.68	10.073
314.05	9.575
314.41	10.018
314.78	9.173
315.14	10.163
315.51	11.634
315.87	10.891
316.24	10.137
316.61	11.812
316.97	9.955
317.34	11.376
317.70	11.528
318.07	11.640
318.43	11.990
318.80	13.545
319.16	12.790
319.53	11.311
319.89	12.182
320.26	12.900
320.62	11.791
320.99	13.666
321.35	13.586
321.72	14.884
322.08	13.616
322.45	14.815
322.81	15.975
323.18	13.894
323.54	14.914
323.91	16.103
324.27	15.232
324.64	17.212
325.00	16.335
325.37	17.035
325.73	17.190
326.10	18.086
326.46	18.078
326.83	18.655
327.19	17.874
327.56	19.684
327.92	18.017
328.29	18.226
328.65	17.755
329.01	20.389
329.38	19.377
329.74	20.890
330.11	20.890
330.47	21.146
330.84	22.653
331.20	21.667
331.56	22.530
331.93	24.603
332.29	23.220
332.66	23.422
333.02	22.948
333.38	22.483
333.75	22.559
334.11	24.020
334.48	23.102
334.84	25.404
335.20	22.250
335.57	24.115
335.93	23.636
336.29	23.544
336.66	23.717
337.02	22.742
337.38	23.724
337.75	25.207
338.11	24.474
338.47	24.566
338.84	22.843
339.20	23.252
339.56	24.217
339.93	24.713
340.29	23.994
340.65	23.520
341.02	23.304
341.38	24.980
341.74	24.778
342.11	24.296
342.47	22.637
342.83	23.671
343.20	23.630
343.56	24.138
343.92	22.978
344.28	23.672
344.65	24.651
345.01	23.401
345.37	24.184
345.73	23.071
346.10	23.635
346.46	23.497
346.82	23.745
347.19	23.988
347.55	23.748
347.91	23.328
348.27	23.065
348.63	23.153
349.00	22.521
349.36	22.900
349.72	22.098
350.08	23.848
350.45	22.890
350.81	22.775
351.17	22.256
351.53	23.199
351.89	23.842
352.26	21.343
352.62	22.836
352.98	23.435
353.34	21.882
353.70	23.267
354.07	22.727
354.43	22.703
354.79	21.466
355.15	22.443
355.51	22.880
355.87	21.915
356.24	23.194
356.60	22.395
356.96	21.868
357.32	21.636
357.68	22.255
358.04	22.455
358.40	22.015
358.77	22.953
359.13	22.526
359.49	21.710
359.85	22.770
360.21	20.732
360.57	21.752
360.93	22.426
361.29	22.456
361.66	21.579
362.02	23.312
362.38	22.839
362.74	21.788
363.10	22.627
363.46	21.884
363.82	22.088
364.18	22.942
364.54	22.476
364.90	22.676
365.26	22.621
365.62	23.867
365.98	21.511
366.35	22.752
366.71	22.925
367.07	21.854
367.43	22.784
367.79	23.822
368.15	23.478
368.51	22.936
368.87	22.600
369.23	22.533
369.59	22.883
369.95	22.786
370.31	23.768
370.67	22.765
371.03	22.576
371.39	22.901
371.75	23.315
372.11	21.748
372.47	23.561
372.83	23.233
373.19	24.016
373.55	23.509
373.91	21.404
374.27	23.803
374.63	23.004
374.99	23.806
375.35	23.896
375.71	23.484
376.07	23.564
376.42	23.678
376.78	24.177
377.14	22.832
377.50	23.466
377.86	24.384
378.22	23.533
378.58	24.019
378.94	23.768
379.30	23.199
379.66	23.574
380.02	24.755
380.38	24.251
380.74	23.944
381.09	24.274
381.45	25.000
381.81	24.180
382.17	24.941
382.53	24.035
382.89	24.492
383.25	24.736
383.61	23.785
383.97	23.969
384.32	25.538
384.68	23.840
385.04	25.564
385.40	25.162
385.76	24.971
386.12	24.417
386.48	24.647
386.83	25.447
387.19	24.276
387.55	25.528
387.91	25.114
388.27	25.577
388.62	25.315
388.98	24.986
389.34	25.280
389.70	25.567
390.06	24.867
390.42	25.422
390.77	25.828
391.13	24.120
391.49	25.725
391.85	25.030
392.20	25.860
392.56	25.517
392.92	25.845
393.28	25.871
393.64	24.358
393.99	25.683
394.35	25.292
394.71	25.928
395.07	25.269
395.42	25.414
395.78	24.802
396.14	25.193
396.50	25.178
396.85	25.760
397.21	24.675
397.57	25.265
397.92	24.914
398.28	24.661
398.64	24.371
399.00	24.136
399.35	24.921
399.71	24.402
400.07	24.031
400.42	24.098
400.78	24.363
401.14	24.530
401.49	24.559
401.85	24.884
402.21	25.261
402.57	25.176
402.92	23.641
403.28	23.419
403.63	24.463
403.99	23.634
404.35	23.081
404.70	24.136
405.06	23.152
405.42	23.478
405.77	24.100
406.13	23.339
406.49	23.874
406.84	24.321
407.20	23.477
407.55	23.864
407.91	22.816
408.27	24.146
408.62	23.618
408.98	23.564
409.34	22.815
409.69	23.424
410.05	24.033
410.40	23.144
410.76	23.331
411.11	23.144
411.47	23.956
411.83	23.280
412.18	23.373
412.54	22.940
412.89	23.108
413.25	22.968
413.60	22.803
413.96	23.019
414.31	22.606
414.67	23.137
415.03	22.523
415.38	23.644
415.74	23.091
416.09	22.887
416.45	22.354
416.80	23.745
417.16	23.691
417.51	22.852
417.87	23.544
418.22	22.994
418.58	23.854
418.93	23.632
419.29	23.798
419.64	23.049
420.00	23.383
420.35	23.582
420.71	24.411
421.06	23.634
421.42	23.968
421.77	23.263
422.12	23.362
422.48	23.502
422.83	24.261
423.19	24.191
423.54	24.060
423.90	23.909
424.25	24.267
424.61	23.823
424.96	24.382
425.31	24.098
425.67	25.067
426.02	25.235
426.38	24.799
426.73	24.833
427.09	26.528
427.44	24.959
427.79	25.373
428.15	25.171
428.50	24.775
428.85	25.201
429.21	26.543
429.56	24.926
429.92	25.307
430.27	25.687
430.62	25.403
430.98	25.135
431.33	25.611
431.68	25.000
432.04	25.749
432.39	26.406
432.74	26.427
433.10	26.663
433.45	26.756
433.80	26.878
434.16	27.066
434.51	26.516
434.86	26.819
435.22	27.311
435.57	26.769
435.92	26.934
436.28	26.792
436.63	27.526
436.98	26.999
437.34	27.396
437.69	27.573
438.04	27.869
438.39	28.374
438.75	27.117
439.10	27.378
439.45	26.551
439.81	27.345
440.16	27.936
440.51	28.149
440.86	27.904
441.22	28.081
441.57	28.354
441.92	28.128
442.27	29.444
442.63	27.919
442.98	28.709
443.33	28.722
443.68	29.534
444.03	29.915
444.39	29.542
444.74	29.658
445.09	29.650
445.44	29.505
445.79	29.837
446.15	29.702
446.50	28.786
446.85	30.058
447.20	29.449
447.55	30.073
447.91	30.105
448.26	30.285
448.61	29.756
448.96	30.848
449.31	30.753
449.66	29.956
450.02	30.274
450.37	30.900
450.72	30.194
451.07	30.068
451.42	30.040
451.77	30.739
452.12	30.756
452.47	31.551
452.83	31.137
453.18	31.057
453.53	30.787
453.88	30.536
454.23	30.678
454.58	31.631
454.93	31.796
455.28	31.186
455.63	31.438
455.98	31.229
456.34	31.095
456.69	31.335
457.04	31.383
457.39	32.373
457.74	32.047
458.09	30.862
458.44	32.328
458.79	31.305
459.14	31.883
459.49	32.258
459.84	32.004
460.19	31.483
460.54	32.595
460.89	32.875
461.24	31.839
461.59	31.876
461.94	31.831
462.29	33.371
462.64	32.106
462.99	32.894
463.34	32.966
463.69	31.946
464.04	34.130
464.39	32.343
464.74	33.067
465.09	32.526
465.44	32.296
465.79	33.263
466.14	31.892
466.49	32.947
466.84	33.278
467.19	32.775
467.54	33.314
467.89	32.126
468.24	32.853
468.59	32.426
468.94	31.643
469.29	32.933
469.64	33.884
469.99	32.951
470.34	32.797
470.68	33.493
471.03	33.661
471.38	33.355
471.73	32.770
472.08	33.629
472.43	33.654
472.78	34.068
473.13	33.312
473.48	33.414
473.83	33.662
474.17	34.408
474.52	33.975
474.87	34.164
475.22	34.366
475.57	33.593
475.92	33.897
476.27	33.600
476.61	33.853
476.96	33.889
477.31	33.366
477.66	34.470
478.01	34.215
478.36	34.397
478.70	33.842
479.05	34.509
479.40	34.650
479.75	34.438
480.10	33.918
480.45	34.230
480.79	34.195
481.14	34.099
481.49	34.439
481.84	33.986
482.19	34.022
482.53	34.237
482.88	34.958
483.23	35.127
483.58	34.716
483.92	33.998
484.27	34.589
484.62	34.488
484.97	33.981
485.31	34.671
485.66	32.973
486.01	32.410
486.36	32.206
486.70	31.920
487.05	32.666
487.40	33.388
487.75	34.300
488.09	34.207
488.44	33.631
488.79	35.582
489.13	34.902
489.48	34.718
489.83	35.332
490.17	34.589
490.52	34.195
490.87	35.237
491.22	35.832
491.56	35.154
491.91	35.805
492.26	35.006
492.60	34.849
492.95	35.410
493.30	35.141
493.64	35.304
493.99	35.482
494.34	35.017
494.68	35.075
495.03	35.507
495.37	36.218
495.72	36.689
496.07	35.583
496.41	34.964
496.76	34.862
497.11	35.456
497.45	35.520
497.80	35.495
498.14	35.283
498.49	35.708
498.84	36.426
499.18	36.347
499.53	36.054
499.87	36.264
500.22	35.218
500.56	35.762
500.91	35.927
501.26	36.273
501.60	36.014
501.95	36.214
502.29	36.244
502.64	36.073
502.98	35.160
503.33	35.292
503.67	35.063
504.02	35.464
504.36	36.506
504.71	36.197
505.06	35.607
505.40	36.197
505.75	36.430
506.09	37.339
506.44	37.326
506.78	37.339
507.13	36.653
507.47	37.186
507.82	36.695
508.16	36.711
508.51	36.474
508.85	36.656
509.19	35.765
509.54	37.416
509.88	36.328
510.23	37.542
510.57	37.699
510.92	36.865
511.26	36.989
511.61	35.297
511.95	36.701
512.30	36.780
512.64	37.531
512.98	36.918
513.33	37.601
513.67	37.838
514.02	38.273
514.36	37.391
514.70	38.125
515.05	38.217
515.39	37.375
515.74	38.812
516.08	38.457
516.42	37.572
516.77	37.592
517.11	37.494
517.46	37.116
517.80	37.787
518.14	38.030
518.49	37.690
518.83	37.520
519.17	37.749
519.52	37.264
519.86	37.434
520.20	37.380
520.55	37.897
520.89	38.570
521.23	38.079
521.58	38.475
521.92	38.527
522.26	37.973
522.61	38.252
522.95	38.697
523.29	38.506
523.64	38.117
523.98	39.875
524.32	38.223
524.66	38.589
525.01	37.373
525.35	38.196
525.69	38.109
526.04	37.428
526.38	38.563
526.72	38.293
527.06	38.065
527.41	39.067
527.75	38.242
528.09	38.902
528.43	38.247
528.78	38.035
529.12	37.385
529.46	37.774
529.80	38.558
530.15	37.391
530.49	37.960
530.83	38.017
531.17	37.575
531.51	38.628
531.86	37.981
532.20	38.598
532.54	38.001
532.88	38.364
533.22	38.067
533.57	38.777
533.91	37.654
534.25	36.800
534.59	37.644
534.93	36.729
535.27	38.028
535.62	38.545
535.96	38.757
536.30	37.015
536.64	39.520
536.98	38.130
537.32	37.901
537.66	39.738
538.01	37.160
538.35	38.429
538.69	37.139
539.03	37.155
539.37	37.633
539.71	38.198
540.05	38.070
540.39	37.836
540.73	37.341
541.07	37.400
541.42	36.858
541.76	36.773
542.10	37.334
542.44	36.784
542.78	38.504
543.12	37.783
543.46	37.118
543.80	38.010
544.14	38.121
544.48	38.239
544.82	38.659
545.16	37.150
545.50	37.448
545.84	37.171
546.18	37.840
546.52	37.516
546.86	37.673
547.20	39.059
547.54	37.640
547.88	37.432
548.22	36.608
548.56	37.449
548.90	37.373
549.24	37.143
549.58	38.486
549.92	37.819
550.26	37.605
550.60	37.907
550.94	38.098
551.28	38.086
551.62	39.218
551.96	36.505
552.30	37.986
552.64	37.710
552.98	37.617
553.32	39.100
553.66	38.071
554.00	38.840
554.34	38.932
554.68	37.637
555.02	38.371
555.36	39.579
555.69	37.284
556.03	37.011
556.37	38.298
556.71	37.857
557.05	38.147
557.39	38.023
557.73	38.177
558.07	38.543
558.41	39.468
558.75	38.134
559.08	39.388
559.42	37.997
559.76	38.331
560.10	38.647
560.44	37.995
560.78	38.813
561.12	37.685
561.45	37.530
561.79	37.668
562.13	39.556
562.47	37.115
562.81	38.354
563.15	38.384
563.48	37.663
563.82	37.001
564.16	38.340
564.50	37.843
564.84	37.050
565.17	37.471
565.51	36.306
565.85	36.817
566.19	36.751
566.52	37.332
566.86	37.465
567.20	36.324
567.54	36.644
567.88	37.717
568.21	36.759
568.55	36.019
568.89	36.950
569.23	35.615
569.56	34.623
569.90	34.498
570.24	34.874
570.57	34.926
570.91	34.201
571.25	34.191
571.59	34.066
571.92	33.102
572.26	33.669
572.60	33.797
572.93	33.259
573.27	34.026
573.61	33.642
573.95	33.333
574.28	33.030
574.62	32.947
574.96	32.444
575.29	32.937
575.63	32.663
575.97	33.892
576.30	33.062
576.64	32.880
576.98	33.144
577.31	33.158
577.65	32.872
577.98	32.869
578.32	32.359
578.66	32.567
578.99	32.378
579.33	33.059
579.67	33.341
580.00	32.951
580.34	33.333
580.67	33.032
581.01	32.929
581.35	32.535
581.68	33.079
582.02	32.443
582.35	32.884
582.69	33.014
583.02	32.648
583.36	33.005
583.70	33.015
584.03	33.237
584.37	33.597
584.70	33.203
585.04	33.039
585.37	33.495
585.71	32.816
586.04	32.827
586.38	33.194
586.72	33.643
587.05	33.308
587.39	33.283
587.72	33.780
588.06	33.366
588.39	33.981
588.73	33.519
589.06	33.719
589.40	33.805
589.73	34.351
590.07	35.146
590.40	34.719
590.73	35.631
591.07	35.257
591.40	34.642
591.74	34.658
592.07	35.039
592.41	34.740
592.74	34.576
593.08	34.268
593.41	33.946
593.75	33.477
594.08	33.172
594.41	34.263
594.75	34.175
595.08	33.950
595.42	34.188
595.75	33.904
596.09	34.361
596.42	34.181
596.75	34.581
597.09	35.152
597.42	35.320
597.75	34.692
598.09	34.405
598.42	35.143
598.76	34.620
599.09	33.998
599.42	33.121
599.76	33.575
600.09	33.934
600.42	33.867
600.76	33.620
601.09	34.152
601.42	33.574
601.76	34.276
602.09	34.167
602.42	34.169
602.76	33.875
603.09	34.361
603.42	34.393
603.76	33.369
604.09	34.457
604.42	34.239
604.76	33.486
605.09	34.503
605.42	34.250
605.75	33.885
606.09	33.893
606.42	34.112
606.75	33.171
607.09	33.180
607.42	33.064
607.75	34.271
608.08	34.570
608.42	33.454
608.75	34.453
609.08	34.720
609.41	34.627
609.75	35.179
610.08	35.004
610.41	33.475
610.74	33.403
611.07	34.813
611.41	34.843
611.74	34.873
612.07	35.344
612.40	34.125
612.73	35.403
613.07	34.719
613.40	35.322
613.73	34.377
614.06	35.083
614.39	34.159
614.72	34.207
615.06	34.023
615.39	34.461
615.72	34.739
616.05	34.774
616.38	35.166
616.71	34.848
617.05	35.250
617.38	35.152
617.71	35.205
618.04	33.513
618.37	35.355
618.70	35.916
619.03	35.245
619.36	35.573
619.69	36.323
620.03	35.593
620.36	35.460
620.69	35.040
621.02	36.417
621.35	37.663
621.68	37.383
622.01	36.868
622.34	35.635
622.67	36.426
623.00	35.493
623.33	36.961
623.66	36.187
623.99	35.616
624.32	35.932
624.65	35.264
624.99	37.191
625.32	36.839
625.65	35.536
625.98	34.780
626.31	36.782
626.64	36.190
626.97	35.784
627.30	37.130
627.63	36.084
627.96	37.312
628.29	36.732
628.62	36.608
628.95	38.913
629.28	37.213
629.61	37.121
629.94	36.485
630.26	35.932
630.59	36.442
630.92	37.056
631.25	39.445
631.58	38.512
631.91	38.144
632.24	38.905
632.57	38.899
632.90	37.111
633.23	38.163
633.56	38.163
633.89	37.913
634.22	38.877
634.55	38.309
634.88	38.312
635.20	39.505
635.53	39.209
635.86	37.378
636.19	39.979
636.52	38.608
636.85	36.466
637.18	37.526
637.51	37.204
637.83	37.984
