SpectraSuite Data File
++++++++++++++++++++++++++++++++++++
Date: Thu May 14 15:05:30 PDT 2015
User: schluterlab
Dark Spectrum Present: Yes
Reference Spectrum Present: Yes
Number of Sampled Component Spectra: 1
Spectrometers: USB2E3373
Integration Time (usec): 3000 (USB2E3373)
Spectra Averaged: 3 (USB2E3373)
Boxcar Smoothing: 0 (USB2E3373)
Correct for Electrical Dark: No (USB2E3373)
Strobe/Lamp Enabled: No (USB2E3373)
Correct for Detector Non-linearity: No (USB2E3373)
Correct for Stray Light: No (USB2E3373)
Number of Pixels in Processed Spectrum: 2048
>>>>>Begin Processed Spectral Data<<<<<
178.53	0.000
178.91	400.000
179.29	-3800.000
179.67	-3100.000
180.04	328.571
180.42	250.000
180.80	620.000
181.18	-2200.000
181.56	-1400.000
181.94	650.000
182.31	-725.000
182.69	933.333
183.07	-1100.000
183.45	575.000
183.83	-433.333
184.20	-733.333
184.58	1900.000
184.96	-650.000
185.34	-344.444
185.72	-340.000
186.09	311.111
186.47	1200.000
186.85	700.000
187.23	-344.444
187.61	-3600.000
187.98	680.000
188.36	750.000
188.74	-775.000
189.12	-666.667
189.49	-150.000
189.87	-237.500
190.25	-177.778
190.63	-460.000
191.00	-288.889
191.38	0.000
191.76	-775.000
192.14	-483.333
192.51	1600.000
192.89	-383.333
193.27	0.000
193.65	-357.143
194.02	-3300.000
194.40	-285.714
194.78	442.857
195.15	0.000
195.53	-209.091
195.91	0.000
196.29	-475.000
196.66	-192.308
197.04	-3500.000
197.42	-514.286
197.79	-1450.000
198.17	-375.000
198.55	-285.714
198.92	-244.444
199.30	-287.500
199.68	-227.273
200.05	-121.429
200.43	-1800.000
200.81	371.429
201.18	0.000
201.56	466.667
201.94	0.000
202.31	966.667
202.69	-300.000
203.07	2700.000
203.44	-266.667
203.82	-550.000
204.19	-191.667
204.57	-233.333
204.95	-287.500
205.32	-2200.000
205.70	650.000
206.08	-333.333
206.45	-433.333
206.83	800.000
207.20	-600.000
207.58	-620.000
207.96	-533.333
208.33	-250.000
208.71	191.667
209.08	-133.333
209.46	0.000
209.84	600.000
210.21	1200.000
210.59	1250.000
210.96	866.667
211.34	-500.000
211.71	-237.500
212.09	-2800.000
212.46	0.000
212.84	1700.000
213.22	-520.000
213.59	-650.000
213.97	-220.000
214.34	-933.333
214.72	450.000
215.09	-450.000
215.47	0.000
215.84	500.000
216.22	1850.000
216.59	-440.000
216.97	-520.000
217.34	-600.000
217.72	-250.000
218.09	-825.000
218.47	-925.000
218.84	0.000
219.22	460.000
219.59	-100.000
219.97	-135.000
220.34	1300.000
220.72	-266.667
221.09	-146.154
221.47	-733.333
221.84	-180.000
222.22	-485.714
222.59	0.000
222.97	-337.500
223.34	-600.000
223.72	-2300.000
224.09	-850.000
224.46	-625.000
224.84	-280.000
225.21	-414.286
225.59	-875.000
225.96	-825.000
226.34	-50.000
226.71	400.000
227.08	-1350.000
227.46	-160.000
227.83	-725.000
228.21	-157.895
228.58	387.500
228.95	1550.000
229.33	-158.333
229.70	-260.000
230.08	-94.737
230.45	240.000
230.82	-933.333
231.20	-157.143
231.57	-175.000
231.95	-218.182
232.32	-190.909
232.69	-105.000
233.07	-575.000
233.44	-176.471
233.81	-270.000
234.19	-88.889
234.56	-68.182
234.93	-34.483
235.31	-100.000
235.68	-77.778
236.05	-125.000
236.43	-80.769
236.80	-28.000
237.17	-55.556
237.55	-69.697
237.92	-320.000
238.29	-80.645
238.67	-40.909
239.04	-66.667
239.41	-61.905
239.79	-43.478
240.16	-44.444
240.53	-52.174
240.91	-58.824
241.28	-29.508
241.65	-23.881
242.02	-16.216
242.40	-24.615
242.77	-25.333
243.14	-29.268
243.51	-38.158
243.89	-34.615
244.26	-24.752
244.63	-15.686
245.00	-17.757
245.38	-21.053
245.75	-31.858
246.12	-15.873
246.49	-23.256
246.87	-10.000
247.24	-7.947
247.61	-11.842
247.98	-10.067
248.36	-11.728
248.73	-13.497
249.10	-13.115
249.47	-4.975
249.84	-0.524
250.22	-9.326
250.59	-12.778
250.96	-3.636
251.33	-14.796
251.70	-9.402
252.08	-8.333
252.45	-6.148
252.82	-9.917
253.19	-7.422
253.56	-9.506
253.94	-11.923
254.31	-6.439
254.68	-2.448
255.05	-0.326
255.42	-7.483
255.79	-5.502
256.16	-4.967
256.54	-6.954
256.91	-2.623
257.28	-5.902
257.65	-11.146
258.02	-8.555
258.39	-3.419
258.76	-1.529
259.14	-1.724
259.51	-3.458
259.88	-3.683
260.25	-5.278
260.62	-2.740
260.99	-0.546
261.36	-0.804
261.73	-5.570
262.10	-6.593
262.47	-5.362
262.85	-0.505
263.22	-5.974
263.59	-6.842
263.96	-2.558
264.33	-7.673
264.70	-3.210
265.07	-1.432
265.44	-1.361
265.81	-4.398
266.18	-1.134
266.55	-3.125
266.92	-4.784
267.29	-1.094
267.66	-1.774
268.03	-0.655
268.40	-0.835
268.77	-5.467
269.14	-5.286
269.51	-3.728
269.88	-1.025
270.25	-0.805
270.62	-2.532
270.99	-1.616
271.36	-0.594
271.73	-0.786
272.10	-3.006
272.47	-4.409
272.84	-2.008
273.21	-1.403
273.58	-3.629
273.95	-3.462
274.32	-2.852
274.69	-3.288
275.06	-1.648
275.43	-3.142
275.80	0.529
276.17	-3.519
276.54	-0.373
276.91	-1.610
277.28	-2.532
277.65	-1.436
278.02	-1.103
278.39	-3.261
278.76	-1.933
279.13	-1.064
279.50	1.203
279.87	-0.716
280.23	-2.113
280.60	-1.186
280.97	-1.809
281.34	-3.396
281.71	-1.184
282.08	-1.163
282.45	-1.637
282.82	-1.099
283.19	-3.069
283.56	-1.639
283.92	-1.351
284.29	0.474
284.66	-0.821
285.03	-3.045
285.40	-0.618
285.77	-0.310
286.14	-1.374
286.51	-1.065
286.87	-2.370
287.24	-1.807
287.61	-2.242
287.98	-3.172
288.35	-1.627
288.72	-0.148
289.08	-1.464
289.45	-1.923
289.82	-0.452
290.19	0.000
290.56	0.845
290.93	-0.999
291.29	-1.102
291.66	-0.964
292.03	-1.221
292.40	0.544
292.77	-1.887
293.13	-0.135
293.50	-1.708
293.87	-0.671
294.24	1.333
294.60	0.379
294.97	-1.879
295.34	1.024
295.71	-1.135
296.08	-1.292
296.44	-0.490
296.81	-1.218
297.18	0.000
297.55	-0.472
297.91	-0.949
298.28	-1.777
298.65	0.832
299.02	-0.826
299.38	-0.458
299.75	-0.350
300.12	-1.157
300.48	-0.461
300.85	0.562
301.22	0.671
301.59	-1.256
301.95	0.000
302.32	1.333
302.69	-0.767
303.05	0.544
303.42	0.998
303.79	-0.729
304.15	-0.315
304.52	-0.634
304.89	0.628
305.25	0.828
305.62	-0.104
305.99	0.722
306.35	-1.008
306.72	0.310
307.09	-0.812
307.45	0.725
307.82	0.202
308.19	0.706
308.55	0.579
308.92	1.558
309.29	1.341
309.65	-0.097
310.02	0.396
310.38	-0.098
310.75	0.777
311.12	1.630
311.48	0.587
311.85	0.570
312.22	0.759
312.58	0.657
312.95	1.243
313.31	1.987
313.68	3.022
314.05	3.162
314.41	2.823
314.78	1.998
315.14	3.448
315.51	2.678
315.87	4.050
316.24	3.836
316.61	4.529
316.97	2.896
317.34	3.086
317.70	3.930
318.07	5.026
318.43	5.697
318.80	5.351
319.16	5.494
319.53	4.970
319.89	5.259
320.26	7.117
320.62	5.762
320.99	6.556
321.35	7.116
321.72	7.628
322.08	8.025
322.45	8.672
322.81	9.206
323.18	9.735
323.54	9.741
323.91	10.587
324.27	11.360
324.64	12.594
325.00	11.857
325.37	13.022
325.73	14.298
326.10	15.653
326.46	14.739
326.83	16.894
327.19	16.614
327.56	17.549
327.92	17.231
328.29	17.742
328.65	19.598
329.01	19.966
329.38	20.893
329.74	21.747
330.11	22.432
330.47	22.662
330.84	23.170
331.20	25.000
331.56	24.610
331.93	25.523
332.29	25.847
332.66	26.163
333.02	25.126
333.38	25.419
333.75	27.273
334.11	26.188
334.48	26.980
334.84	27.443
335.20	28.128
335.57	28.415
335.93	28.017
336.29	27.787
336.66	28.680
337.02	29.181
337.38	30.102
337.75	28.512
338.11	29.100
338.47	28.701
338.84	28.511
339.20	29.823
339.56	30.643
339.93	30.706
340.29	29.469
340.65	29.116
341.02	29.928
341.38	31.690
341.74	30.670
342.11	30.169
342.47	30.342
342.83	30.596
343.20	32.134
343.56	31.115
343.92	30.905
344.28	30.703
344.65	30.620
345.01	30.655
345.37	31.726
345.73	31.800
346.10	33.073
346.46	31.408
346.82	31.386
347.19	32.544
347.55	32.473
347.91	31.798
348.27	32.322
348.63	31.912
349.00	30.723
349.36	32.416
349.72	32.440
350.08	33.581
350.45	33.232
350.81	33.032
351.17	33.233
351.53	32.676
351.89	34.093
352.26	34.403
352.62	33.209
352.98	32.366
353.34	34.055
353.70	33.898
354.07	33.010
354.43	33.865
354.79	32.610
355.15	34.290
355.51	35.015
355.87	34.630
356.24	33.688
356.60	34.442
356.96	35.730
357.32	34.796
357.68	35.286
358.04	34.805
358.40	33.657
358.77	35.526
359.13	35.007
359.49	35.985
359.85	36.041
360.21	36.298
360.57	34.745
360.93	36.601
361.29	36.281
361.66	36.206
362.02	37.926
362.38	36.121
362.74	36.802
363.10	37.689
363.46	38.435
363.82	37.287
364.18	38.001
364.54	38.036
364.90	39.465
365.26	37.517
365.62	38.133
365.98	38.257
366.35	37.987
366.71	39.184
367.07	39.378
367.43	38.017
367.79	38.686
368.15	39.866
368.51	39.783
368.87	39.647
369.23	40.267
369.59	40.505
369.95	40.095
370.31	40.513
370.67	38.996
371.03	39.958
371.39	39.758
371.75	40.990
372.11	42.344
372.47	40.961
372.83	41.099
373.19	40.761
373.55	41.125
373.91	42.059
374.27	41.785
374.63	42.287
374.99	42.706
375.35	42.597
375.71	43.161
376.07	41.640
376.42	43.640
376.78	43.132
377.14	42.795
377.50	45.414
377.86	42.980
378.22	43.952
378.58	44.828
378.94	45.129
379.30	44.054
379.66	45.267
380.02	45.586
380.38	46.313
380.74	44.958
381.09	45.470
381.45	44.716
381.81	46.253
382.17	48.040
382.53	47.076
382.89	45.655
383.25	47.773
383.61	47.164
383.97	47.350
384.32	48.206
384.68	48.260
385.04	47.658
385.40	48.321
385.76	49.121
386.12	47.816
386.48	47.941
386.83	48.391
387.19	47.914
387.55	47.653
387.91	48.801
388.27	48.730
388.62	48.511
388.98	48.223
389.34	48.733
389.70	49.622
390.06	48.964
390.42	49.157
390.77	48.766
391.13	48.592
391.49	48.068
391.85	50.000
392.20	48.695
392.56	50.325
392.92	48.964
393.28	49.475
393.64	49.162
393.99	50.087
394.35	49.065
394.71	48.383
395.07	47.605
395.42	48.829
395.78	50.274
396.14	48.723
396.50	49.050
396.85	48.241
397.21	48.698
397.57	48.881
397.92	48.568
398.28	46.931
398.64	47.998
399.00	46.911
399.35	47.906
399.71	49.130
400.07	48.793
400.42	49.302
400.78	47.859
401.14	47.752
401.49	48.493
401.85	48.779
402.21	47.972
402.57	48.885
402.92	48.286
403.28	48.185
403.63	48.747
403.99	46.853
404.35	48.323
404.70	47.195
405.06	47.717
405.42	47.307
405.77	47.710
406.13	47.434
406.49	47.804
406.84	46.981
407.20	46.618
407.55	46.336
407.91	46.323
408.27	46.408
408.62	46.306
408.98	46.953
409.34	45.865
409.69	46.292
410.05	45.897
410.40	46.636
410.76	46.270
411.11	45.996
411.47	46.806
411.83	45.797
412.18	46.747
412.54	46.177
412.89	45.867
413.25	46.501
413.60	46.410
413.96	47.669
414.31	45.892
414.67	46.094
415.03	45.723
415.38	46.658
415.74	47.098
416.09	47.193
416.45	47.088
416.80	46.940
417.16	47.190
417.51	46.326
417.87	47.272
418.22	45.988
418.58	47.088
418.93	48.137
419.29	48.582
419.64	47.599
420.00	47.953
420.35	49.467
420.71	48.593
421.06	49.396
421.42	48.681
421.77	47.604
422.12	48.097
422.48	50.128
422.83	50.164
423.19	49.072
423.54	51.549
423.90	49.862
424.25	51.787
424.61	50.631
424.96	50.027
425.31	51.168
425.67	51.852
426.02	52.407
426.38	52.526
426.73	50.558
427.09	54.095
427.44	52.703
427.79	52.239
428.15	53.938
428.50	53.708
428.85	52.641
429.21	54.255
429.56	53.060
429.92	52.432
430.27	53.060
430.62	53.444
430.98	54.255
431.33	54.839
431.68	54.215
432.04	54.952
432.39	55.597
432.74	54.623
433.10	55.489
433.45	55.295
433.80	54.238
434.16	56.250
434.51	56.783
434.86	57.058
435.22	58.130
435.57	57.547
435.92	56.260
436.28	57.395
436.63	58.875
436.98	56.683
437.34	57.610
437.69	58.173
438.04	57.959
438.39	56.921
438.75	57.443
439.10	57.400
439.45	57.574
439.81	57.345
440.16	57.373
440.51	57.469
440.86	58.588
441.22	57.181
441.57	58.595
441.92	58.050
442.27	59.899
442.63	58.718
442.98	58.911
443.33	59.179
443.68	59.068
444.03	60.019
444.39	60.194
444.74	59.265
445.09	58.186
445.44	60.485
445.79	60.536
446.15	59.712
446.50	59.638
446.85	58.609
447.20	59.913
447.55	59.519
447.91	60.628
448.26	59.672
448.61	60.202
448.96	62.285
449.31	60.604
449.66	59.205
450.02	61.234
450.37	60.948
450.72	60.441
451.07	61.048
451.42	60.485
451.77	59.867
452.12	61.400
452.47	61.378
452.83	61.261
453.18	60.245
453.53	61.172
453.88	60.188
454.23	61.186
454.58	61.753
454.93	61.165
455.28	62.432
455.63	61.001
455.98	60.559
456.34	61.249
456.69	61.846
457.04	63.298
457.39	61.197
457.74	62.248
458.09	61.395
458.44	60.937
458.79	61.011
459.14	61.300
459.49	62.196
459.84	61.752
460.19	61.077
460.54	63.146
460.89	62.996
461.24	61.839
461.59	61.981
461.94	61.380
462.29	62.262
462.64	61.497
462.99	61.268
463.34	61.518
463.69	61.020
464.04	62.312
464.39	61.603
464.74	61.231
465.09	62.168
465.44	61.642
465.79	60.550
466.14	61.334
466.49	62.474
466.84	62.314
467.19	61.792
467.54	61.516
467.89	61.034
468.24	61.219
468.59	60.915
468.94	61.830
469.29	61.428
469.64	61.348
469.99	62.906
470.34	62.005
470.68	63.295
471.03	62.606
471.38	62.655
471.73	62.224
472.08	63.198
472.43	62.432
472.78	61.713
473.13	62.326
473.48	61.873
473.83	62.101
474.17	62.192
474.52	62.477
474.87	61.517
475.22	62.085
475.57	61.371
475.92	62.320
476.27	62.407
476.61	62.201
476.96	61.627
477.31	62.772
477.66	62.329
478.01	61.566
478.36	59.472
478.70	60.837
479.05	63.855
479.40	61.994
479.75	61.623
480.10	61.487
480.45	63.628
480.79	62.585
481.14	62.914
481.49	61.881
481.84	62.315
482.19	62.065
482.53	63.183
482.88	64.023
483.23	62.339
483.58	62.620
483.92	61.348
484.27	61.981
484.62	61.262
484.97	62.170
485.31	60.753
485.66	56.171
486.01	56.528
486.36	59.636
486.70	62.524
487.05	65.115
487.40	62.712
487.75	62.010
488.09	61.003
488.44	59.587
488.79	59.798
489.13	60.246
489.48	59.534
489.83	60.121
490.17	60.632
490.52	60.837
490.87	62.606
491.22	62.435
491.56	61.732
491.91	63.410
492.26	61.315
492.60	62.134
492.95	62.264
493.30	61.721
493.64	62.724
493.99	61.272
494.34	62.326
494.68	61.670
495.03	61.938
495.37	62.938
495.72	63.673
496.07	61.350
496.41	62.119
496.76	62.510
497.11	61.996
497.45	62.236
497.80	61.040
498.14	62.449
498.49	62.224
498.84	62.386
499.18	61.943
499.53	62.108
499.87	61.934
500.22	61.264
500.56	60.954
500.91	62.059
501.26	63.227
501.60	61.158
501.95	61.876
502.29	62.176
502.64	62.178
502.98	61.173
503.33	60.605
503.67	62.189
504.02	61.734
504.36	63.137
504.71	62.609
505.06	62.028
505.40	61.289
505.75	61.157
506.09	61.971
506.44	62.256
506.78	62.523
507.13	62.333
507.47	62.482
507.82	62.121
508.16	62.954
508.51	61.463
508.85	63.155
509.19	62.340
509.54	61.671
509.88	62.118
510.23	62.555
510.57	62.639
510.92	62.458
511.26	61.472
511.61	61.275
511.95	61.981
512.30	63.023
512.64	61.569
512.98	62.781
513.33	61.442
513.67	63.437
514.02	62.391
514.36	63.478
514.70	63.177
515.05	62.930
515.39	63.307
515.74	63.627
516.08	61.807
516.42	63.789
516.77	62.881
517.11	62.816
517.46	63.680
517.80	64.083
518.14	62.894
518.49	62.636
518.83	62.267
519.17	61.928
519.52	61.950
519.86	62.302
520.20	62.780
520.55	63.198
520.89	62.556
521.23	62.367
521.58	62.881
521.92	63.229
522.26	63.116
522.61	65.162
522.95	62.687
523.29	62.816
523.64	62.780
523.98	64.518
524.32	63.324
524.66	63.688
525.01	62.854
525.35	61.746
525.69	62.935
526.04	62.113
526.38	63.851
526.72	62.803
527.06	63.519
527.41	62.157
527.75	63.539
528.09	63.341
528.43	61.989
528.78	62.254
529.12	63.360
529.46	61.832
529.80	62.014
530.15	62.551
530.49	64.709
530.83	62.987
531.17	63.321
531.51	61.974
531.86	62.680
532.20	62.744
532.54	61.281
532.88	63.030
533.22	61.108
533.57	61.050
533.91	59.989
534.25	60.656
534.59	63.506
534.93	60.838
535.27	62.310
535.62	62.706
535.96	61.650
536.30	61.633
536.64	62.402
536.98	63.038
537.32	60.926
537.66	62.757
538.01	60.483
538.35	60.597
538.69	62.260
539.03	61.435
539.37	60.483
539.71	60.360
540.05	61.031
540.39	60.636
540.73	59.988
541.07	61.619
541.42	60.543
541.76	60.261
542.10	59.107
542.44	58.709
542.78	60.888
543.12	59.952
543.46	59.524
543.80	59.652
544.14	59.306
544.48	60.165
544.82	59.785
545.16	60.465
545.50	60.995
545.84	60.563
546.18	60.802
546.52	61.529
546.86	58.742
547.20	61.387
547.54	58.801
547.88	60.880
548.22	60.409
548.56	60.269
548.90	60.239
549.24	61.824
549.58	58.927
549.92	61.798
550.26	60.129
550.60	59.541
550.94	60.414
551.28	59.670
551.62	62.197
551.96	61.294
552.30	60.867
552.64	60.423
552.98	61.260
553.32	62.058
553.66	60.965
554.00	61.286
554.34	60.425
554.68	61.201
555.02	61.104
555.36	61.473
555.69	59.129
556.03	59.836
556.37	60.826
556.71	60.495
557.05	60.958
557.39	60.119
557.73	62.153
558.07	61.457
558.41	60.997
558.75	60.176
559.08	60.334
559.42	59.877
559.76	61.262
560.10	59.946
560.44	60.620
560.78	60.812
561.12	59.791
561.45	60.280
561.79	59.646
562.13	60.752
562.47	59.864
562.81	60.506
563.15	60.038
563.48	59.291
563.82	60.218
564.16	59.358
564.50	58.999
564.84	59.174
565.17	59.529
565.51	58.746
565.85	60.511
566.19	59.620
566.52	58.689
566.86	59.479
567.20	57.096
567.54	58.683
567.88	58.410
568.21	58.547
568.55	57.986
568.89	57.694
569.23	56.907
569.56	55.569
569.90	56.023
570.24	55.447
570.57	55.965
570.91	55.175
571.25	54.151
571.59	54.745
571.92	54.984
572.26	54.526
572.60	54.136
572.93	54.161
573.27	54.510
573.61	54.076
573.95	53.581
574.28	52.581
574.62	53.138
574.96	52.338
575.29	52.875
575.63	52.945
575.97	52.623
576.30	52.628
576.64	53.042
576.98	51.982
577.31	52.475
577.65	53.302
577.98	51.657
578.32	52.032
578.66	52.167
578.99	51.915
579.33	53.179
579.67	52.471
580.00	52.192
580.34	51.942
580.67	51.942
581.01	52.272
581.35	51.335
581.68	51.535
582.02	51.808
582.35	53.223
582.69	53.028
583.02	53.485
583.36	53.153
583.70	52.829
584.03	52.772
584.37	52.456
584.70	52.396
585.04	51.035
585.37	52.143
585.71	51.909
586.04	52.422
586.38	53.227
586.72	52.595
587.05	52.929
587.39	53.428
587.72	53.828
588.06	53.143
588.39	53.224
588.73	53.333
589.06	53.837
589.40	54.333
589.73	54.145
590.07	54.542
590.40	53.719
590.73	54.719
591.07	55.138
591.40	54.393
591.74	54.332
592.07	54.202
592.41	53.470
592.74	53.177
593.08	53.790
593.41	54.622
593.75	54.540
594.08	54.377
594.41	55.128
594.75	53.603
595.08	54.071
595.42	54.091
595.75	54.085
596.09	54.897
596.42	54.927
596.75	54.689
597.09	55.515
597.42	54.231
597.75	55.076
598.09	54.881
598.42	54.805
598.76	53.764
599.09	54.219
599.42	53.470
599.76	54.374
600.09	54.354
600.42	53.687
600.76	53.930
601.09	52.871
601.42	54.308
601.76	53.724
602.09	53.896
602.42	53.035
602.76	53.542
603.09	54.001
603.42	53.829
603.76	53.735
604.09	54.613
604.42	54.569
604.76	53.234
605.09	54.248
605.42	53.947
605.75	54.538
606.09	54.125
606.42	52.864
606.75	53.111
607.09	53.456
607.42	53.834
607.75	53.419
608.08	53.197
608.42	54.131
608.75	54.104
609.08	53.565
609.41	55.007
609.75	54.509
610.08	54.881
610.41	53.993
610.74	54.454
611.07	54.352
611.41	55.291
611.74	55.935
612.07	54.885
612.40	54.563
612.73	55.501
613.07	54.230
613.40	55.390
613.73	54.502
614.06	55.986
614.39	54.762
614.72	53.518
615.06	53.946
615.39	54.036
615.72	54.360
616.05	54.590
616.38	55.802
616.71	55.172
617.05	54.047
617.38	54.896
617.71	54.968
618.04	56.179
618.37	55.683
618.70	56.618
619.03	56.033
619.36	56.104
619.69	56.887
620.03	56.685
620.36	56.503
620.69	55.336
621.02	56.824
621.35	58.853
621.68	58.930
622.01	57.295
622.34	57.601
622.67	58.900
623.00	55.466
623.33	57.332
623.66	57.523
623.99	56.682
624.32	57.570
624.65	55.985
624.99	57.737
625.32	57.544
625.65	57.047
625.98	56.339
626.31	56.768
626.64	57.070
626.97	58.665
627.30	57.024
627.63	57.839
627.96	57.508
628.29	57.743
628.62	58.018
628.95	58.808
629.28	59.048
629.61	57.239
629.94	56.485
630.26	57.627
630.59	57.945
630.92	59.394
631.25	60.197
631.58	60.264
