SpectraSuite Data File
++++++++++++++++++++++++++++++++++++
Date: Thu May 14 14:48:33 PDT 2015
User: schluterlab
Dark Spectrum Present: Yes
Reference Spectrum Present: Yes
Number of Sampled Component Spectra: 1
Spectrometers: USB2E3373
Integration Time (usec): 3000 (USB2E3373)
Spectra Averaged: 3 (USB2E3373)
Boxcar Smoothing: 0 (USB2E3373)
Correct for Electrical Dark: No (USB2E3373)
Strobe/Lamp Enabled: No (USB2E3373)
Correct for Detector Non-linearity: No (USB2E3373)
Correct for Stray Light: No (USB2E3373)
Number of Pixels in Processed Spectrum: 2048
>>>>>Begin Processed Spectral Data<<<<<
178.53	0.000
178.91	142.857
179.29	-400.000
179.67	-1000.000
180.04	114.286
180.42	50.000
180.80	200.000
181.18	-700.000
181.56	0.000
181.94	100.000
182.31	-150.000
182.69	66.667
183.07	-300.000
183.45	450.000
183.83	-16.667
184.20	-100.000
184.58	500.000
184.96	-175.000
185.34	-22.222
185.72	60.000
186.09	155.556
186.47	450.000
186.85	240.000
187.23	-33.333
187.61	-900.000
187.98	160.000
188.36	300.000
188.74	-225.000
189.12	133.333
189.49	75.000
189.87	-125.000
190.25	77.778
190.63	-140.000
191.00	-66.667
191.38	0.000
191.76	-325.000
192.14	-183.333
192.51	550.000
192.89	33.333
193.27	0.000
193.65	-14.286
194.02	-1100.000
194.40	42.857
194.78	100.000
195.15	0.000
195.53	-81.818
195.91	0.000
196.29	-300.000
196.66	53.846
197.04	100.000
197.42	-85.714
197.79	-150.000
198.17	-87.500
198.55	-71.429
198.92	-55.556
199.30	-75.000
199.68	9.091
200.05	35.714
200.43	-400.000
200.81	42.857
201.18	0.000
201.56	166.667
201.94	0.000
202.31	466.667
202.69	-122.222
203.07	-100.000
203.44	-44.444
203.82	-75.000
204.19	50.000
204.57	-133.333
204.95	-62.500
205.32	-800.000
205.70	175.000
206.08	-133.333
206.45	33.333
206.83	100.000
207.20	116.667
207.58	-140.000
207.96	-133.333
208.33	200.000
208.71	25.000
209.08	116.667
209.46	0.000
209.84	200.000
210.21	50.000
210.59	50.000
210.96	233.333
211.34	-50.000
211.71	-25.000
212.09	-100.000
212.46	0.000
212.84	1250.000
213.22	-240.000
213.59	0.000
213.97	-40.000
214.34	0.000
214.72	133.333
215.09	-250.000
215.47	0.000
215.84	71.429
216.22	400.000
216.59	20.000
216.97	-200.000
217.34	-75.000
217.72	0.000
218.09	-125.000
218.47	-100.000
218.84	0.000
219.22	160.000
219.59	-23.529
219.97	30.000
220.34	550.000
220.72	-66.667
221.09	53.846
221.47	33.333
221.84	-40.000
222.22	-100.000
222.59	0.000
222.97	0.000
223.34	-200.000
223.72	-300.000
224.09	-50.000
224.46	-300.000
224.84	-60.000
225.21	-57.143
225.59	-100.000
225.96	-150.000
226.34	11.538
226.71	183.333
227.08	100.000
227.46	26.667
227.83	-100.000
228.21	31.579
228.58	-12.500
228.95	350.000
229.33	8.333
229.70	30.000
230.08	0.000
230.45	80.000
230.82	100.000
231.20	-21.429
231.57	-16.667
231.95	-36.364
232.32	-9.091
232.69	20.000
233.07	-75.000
233.44	5.882
233.81	40.000
234.19	77.778
234.56	68.182
234.93	20.690
235.31	31.579
235.68	-5.556
236.05	-35.000
236.43	96.154
236.80	76.000
237.17	40.741
237.55	51.515
237.92	90.000
238.29	25.806
238.67	15.909
239.04	41.667
239.41	28.571
239.79	17.391
240.16	18.519
240.53	50.000
240.91	9.804
241.28	39.344
241.65	34.328
242.02	39.189
242.40	47.692
242.77	44.000
243.14	36.585
243.51	42.105
243.89	28.205
244.26	30.693
244.63	50.000
245.00	37.383
245.38	30.702
245.75	23.009
246.12	42.063
246.49	31.783
246.87	38.571
247.24	45.695
247.61	44.737
247.98	49.664
248.36	37.654
248.73	33.742
249.10	39.344
249.47	46.269
249.84	44.503
250.22	40.933
250.59	42.778
250.96	45.000
251.33	38.776
251.70	39.744
252.08	38.750
252.45	41.393
252.82	43.388
253.19	35.547
253.56	43.346
253.94	40.769
254.31	40.909
254.68	44.755
255.05	41.694
255.42	40.476
255.79	40.777
256.16	40.728
256.54	43.046
256.91	41.967
257.28	42.951
257.65	41.083
258.02	38.348
258.39	37.892
258.76	42.202
259.14	47.989
259.51	38.905
259.88	45.326
260.25	41.667
260.62	42.740
260.99	44.262
261.36	43.164
261.73	43.236
262.10	40.659
262.47	46.113
262.85	44.697
263.22	41.299
263.59	36.053
263.96	41.176
264.33	42.967
264.70	44.198
265.07	44.153
265.44	42.177
265.81	41.667
266.18	42.857
266.55	39.062
266.92	41.913
267.29	42.888
267.66	43.016
268.03	44.323
268.40	39.666
268.77	44.191
269.14	40.529
269.51	42.105
269.88	42.418
270.25	42.254
270.62	42.827
270.99	44.242
271.36	40.990
271.73	41.061
272.10	42.485
272.47	41.283
272.84	41.968
273.21	41.283
273.58	39.516
273.95	37.885
274.32	40.875
274.69	39.458
275.06	42.308
275.43	37.893
275.80	40.917
276.17	40.370
276.54	38.806
276.91	40.787
277.28	41.230
277.65	41.472
278.02	40.625
278.39	38.043
278.76	39.192
279.13	40.957
279.50	42.096
279.87	37.209
280.23	38.556
280.60	39.153
280.97	38.651
281.34	41.426
281.71	40.102
282.08	37.874
282.45	39.116
282.82	38.462
283.19	37.964
283.56	38.852
283.92	38.138
284.29	40.442
284.66	39.573
285.03	35.577
285.40	39.413
285.77	39.009
286.14	39.542
286.51	38.661
286.87	38.231
287.24	38.404
287.61	35.874
287.98	37.915
288.35	34.615
288.72	38.609
289.08	37.628
289.45	35.651
289.82	35.090
290.19	36.494
290.56	38.169
290.93	35.949
291.29	36.226
291.66	34.435
292.03	35.007
292.40	35.102
292.77	34.232
293.13	33.288
293.50	32.194
293.87	32.215
294.24	34.267
294.60	32.743
294.97	30.067
295.34	33.931
295.71	30.265
296.08	32.300
296.44	31.495
296.81	30.938
297.18	30.760
297.55	31.250
297.91	30.130
298.28	30.213
298.65	28.656
299.02	30.579
299.38	30.206
299.75	29.439
300.12	29.861
300.48	29.954
300.85	29.921
301.22	29.306
301.59	28.881
301.95	29.153
302.32	28.556
302.69	28.697
303.05	29.924
303.42	30.044
303.79	29.167
304.15	28.181
304.52	30.338
304.89	28.063
305.25	28.054
305.62	28.213
305.99	27.732
306.35	29.637
306.72	28.025
307.09	27.513
307.45	27.640
307.82	28.153
308.19	26.034
308.55	28.158
308.92	27.653
309.29	28.065
309.65	27.583
310.02	26.634
310.38	27.362
310.75	27.573
311.12	27.709
311.48	27.370
311.85	27.635
312.22	28.083
312.58	27.418
312.95	27.151
313.31	27.010
313.68	27.106
314.05	28.636
314.41	28.689
314.78	26.703
315.14	27.132
315.51	28.163
315.87	27.363
316.24	26.027
316.61	27.176
316.97	25.701
317.34	26.984
317.70	28.035
318.07	26.896
318.43	26.190
318.80	27.174
319.16	27.468
319.53	25.021
319.89	26.293
320.26	27.402
320.62	25.975
320.99	26.685
321.35	26.895
321.72	28.000
322.08	27.051
322.45	26.468
322.81	26.354
323.18	26.372
323.54	26.207
323.91	26.601
324.27	26.936
324.64	26.532
325.00	25.207
325.37	26.781
325.73	27.190
326.10	26.764
326.46	28.257
326.83	26.741
327.19	26.929
327.56	26.798
327.92	25.728
328.29	27.581
328.65	25.628
329.01	27.073
329.38	26.369
329.74	26.199
330.11	25.599
330.47	25.274
330.84	25.323
331.20	27.750
331.56	26.083
331.93	26.527
332.29	26.864
332.66	26.163
333.02	26.968
333.38	26.091
333.75	26.263
334.11	26.606
334.48	26.485
334.84	26.253
335.20	26.113
335.57	27.403
335.93	26.033
336.29	24.958
336.66	26.493
337.02	25.502
337.38	25.595
337.75	24.215
338.11	26.325
338.47	25.145
338.84	25.719
339.20	25.695
339.56	24.959
339.93	25.698
340.29	25.523
340.65	24.655
341.02	25.858
341.38	25.384
341.74	26.554
342.11	25.422
342.47	24.543
342.83	25.845
343.20	25.184
343.56	25.341
343.92	24.660
344.28	24.688
344.65	26.667
345.01	26.677
345.37	24.572
345.73	23.772
346.10	25.585
346.46	24.842
346.82	25.019
347.19	24.828
347.55	24.810
347.91	25.409
348.27	24.279
348.63	24.981
349.00	23.490
349.36	24.238
349.72	24.702
350.08	26.152
350.45	24.487
350.81	24.887
351.17	24.361
351.53	25.625
351.89	24.753
352.26	24.552
352.62	23.582
352.98	24.504
353.34	23.152
353.70	24.884
354.07	24.888
354.43	25.209
354.79	24.159
355.15	25.092
355.51	24.708
355.87	23.411
356.24	24.106
356.60	23.060
356.96	22.535
357.32	23.941
357.68	23.426
358.04	23.653
358.40	23.731
358.77	23.392
359.13	24.225
359.49	22.230
359.85	24.003
360.21	23.314
360.57	23.475
360.93	22.920
361.29	23.860
361.66	22.810
362.02	24.356
362.38	23.682
362.74	23.115
363.10	24.278
363.46	23.476
363.82	24.077
364.18	23.786
364.54	23.582
364.90	24.415
365.26	22.966
365.62	23.933
365.98	21.511
366.35	23.423
366.71	24.286
367.07	24.154
367.43	23.506
367.79	23.424
368.15	23.545
368.51	23.748
368.87	23.841
369.23	23.333
369.59	23.907
369.95	24.273
370.31	23.903
370.67	22.902
371.03	23.269
371.39	22.565
371.75	24.278
372.11	23.171
372.47	23.900
372.83	22.840
373.19	23.349
373.55	23.374
373.91	23.177
374.27	22.316
374.63	23.681
374.99	22.679
375.35	23.896
375.71	23.161
376.07	22.724
376.42	22.418
376.78	24.114
377.14	22.208
377.50	22.770
377.86	23.337
378.22	23.413
378.58	24.138
378.94	22.887
379.30	23.199
379.66	23.457
380.02	22.966
380.38	23.675
380.74	22.761
381.09	22.938
381.45	22.500
381.81	23.712
382.17	24.109
382.53	22.924
382.89	23.476
383.25	22.685
383.61	21.991
383.97	22.379
384.32	23.266
384.68	22.332
385.04	23.308
385.40	23.394
385.76	24.150
386.12	23.459
386.48	23.118
386.83	23.719
387.19	23.349
387.55	22.535
387.91	23.288
388.27	23.095
388.62	22.394
388.98	23.407
389.34	23.512
389.70	23.010
390.06	22.380
390.42	22.289
390.77	22.878
391.13	22.711
391.49	22.283
391.85	22.970
392.20	22.657
392.56	23.686
392.92	22.628
393.28	22.886
393.64	23.240
393.99	23.068
394.35	23.773
394.71	23.533
395.07	22.096
395.42	22.787
395.78	22.730
396.14	22.460
396.50	22.268
396.85	22.898
397.21	22.308
397.57	22.615
397.92	22.967
398.28	22.216
398.64	22.654
399.00	23.089
399.35	23.351
399.71	22.120
400.07	22.965
400.42	23.050
400.78	21.933
401.14	21.912
401.49	23.024
401.85	23.198
402.21	22.538
402.57	23.357
402.92	22.281
403.28	22.775
403.63	21.778
403.99	22.862
404.35	22.229
404.70	23.003
405.06	22.065
405.42	23.068
405.77	22.846
406.13	22.798
406.49	22.128
406.84	23.435
407.20	22.862
407.55	22.290
407.91	21.999
408.27	22.792
408.62	22.280
408.98	21.822
409.34	22.170
409.69	22.991
410.05	22.802
410.40	22.622
410.76	22.434
411.11	22.268
411.47	22.604
411.83	22.516
412.18	22.169
412.54	23.118
412.89	22.061
413.25	21.953
413.60	21.769
413.96	22.844
414.31	22.436
414.67	22.481
415.03	21.600
415.38	23.266
415.74	22.419
416.09	22.085
416.45	21.979
416.80	21.726
417.16	22.605
417.51	22.540
417.87	21.275
418.22	23.114
418.58	22.243
418.93	22.235
419.29	21.887
419.64	22.509
420.00	21.662
420.35	22.179
420.71	21.941
421.06	21.852
421.42	21.216
421.77	21.594
422.12	22.093
422.48	22.325
422.83	22.673
423.19	22.122
423.54	23.285
423.90	21.314
424.25	22.507
424.61	21.584
424.96	22.350
425.31	22.558
425.67	22.115
426.02	21.915
426.38	21.871
426.73	21.875
427.09	22.318
427.44	21.518
427.79	21.835
428.15	21.518
428.50	21.742
428.85	21.699
429.21	22.713
429.56	21.866
429.92	21.818
430.27	22.747
430.62	22.667
430.98	22.282
431.33	21.896
431.68	21.983
432.04	21.635
432.39	21.371
432.74	21.804
433.10	22.012
433.45	21.126
433.80	22.586
434.16	22.262
434.51	22.713
434.86	22.476
435.22	22.582
435.57	22.642
435.92	22.259
436.28	22.412
436.63	22.010
436.98	21.846
437.34	22.943
437.69	22.124
438.04	21.840
438.39	21.597
438.75	22.302
439.10	22.146
439.45	22.974
439.81	22.599
440.16	21.394
440.51	22.241
440.86	22.790
441.22	22.454
441.57	22.799
441.92	21.872
442.27	23.283
442.63	22.603
442.98	22.252
443.33	22.567
443.68	22.498
444.03	23.095
444.39	22.330
444.74	22.460
445.09	22.352
445.44	22.655
445.79	22.941
446.15	22.816
446.50	22.377
446.85	22.471
447.20	22.485
447.55	22.646
447.91	21.728
448.26	21.670
448.61	21.892
448.96	22.318
449.31	22.057
449.66	22.277
450.02	22.521
450.37	22.643
450.72	21.367
451.07	22.210
451.42	22.068
451.77	22.012
452.12	22.348
452.47	22.757
452.83	22.579
453.18	21.483
453.53	21.597
453.88	21.535
454.23	22.881
454.58	22.461
454.93	22.087
455.28	22.637
455.63	22.001
455.98	22.235
456.34	22.261
456.69	21.282
457.04	21.513
457.39	21.508
457.74	21.812
458.09	21.691
458.44	21.875
458.79	21.454
459.14	21.814
459.49	22.354
459.84	22.088
460.19	21.766
460.54	21.806
460.89	21.863
461.24	21.552
461.59	22.579
461.94	21.335
462.29	21.501
462.64	21.726
462.99	21.469
463.34	21.739
463.69	21.571
464.04	22.235
464.39	21.917
464.74	21.152
465.09	21.742
465.44	22.049
465.79	21.576
466.14	22.095
466.49	21.947
466.84	22.645
467.19	21.792
467.54	20.740
467.89	22.184
468.24	21.053
468.59	21.714
468.94	20.979
469.29	20.576
469.64	20.534
469.99	21.033
470.34	21.535
470.68	21.805
471.03	20.629
471.38	21.321
471.73	20.806
472.08	20.685
472.43	21.192
472.78	20.781
473.13	21.555
473.48	20.604
473.83	21.068
474.17	19.871
474.52	20.686
474.87	20.543
475.22	21.746
475.57	21.703
475.92	21.553
476.27	20.714
476.61	21.028
476.96	20.490
477.31	21.238
477.66	21.721
478.01	20.895
478.36	21.735
478.70	21.182
479.05	22.035
479.40	21.323
479.75	21.518
480.10	21.175
480.45	21.194
480.79	21.678
481.14	21.324
481.49	21.081
481.84	21.410
482.19	21.849
482.53	21.819
482.88	21.622
483.23	21.254
483.58	20.873
483.92	20.567
484.27	20.364
484.62	20.462
484.97	21.267
485.31	21.436
485.66	21.091
486.01	22.253
486.36	23.251
486.70	24.021
487.05	23.693
487.40	22.754
487.75	21.399
488.09	21.781
488.44	20.715
488.79	20.371
489.13	20.601
489.48	20.233
489.83	19.960
490.17	19.725
490.52	19.540
490.87	20.262
491.22	20.017
491.56	19.923
491.91	20.454
492.26	20.164
492.60	19.720
492.95	20.009
493.30	20.350
493.64	20.456
493.99	19.386
494.34	20.122
494.68	20.214
495.03	20.749
495.37	20.107
495.72	20.181
496.07	20.026
496.41	19.906
496.76	21.018
497.11	20.594
497.45	20.069
497.80	20.391
498.14	19.955
498.49	19.945
498.84	20.430
499.18	19.973
499.53	20.717
499.87	20.659
500.22	20.392
500.56	20.108
500.91	20.778
501.26	20.500
501.60	20.460
501.95	21.233
502.29	21.194
502.64	20.638
502.98	20.190
503.33	20.086
503.67	19.538
504.02	20.315
504.36	21.090
504.71	20.395
505.06	19.691
505.40	19.835
505.75	20.128
506.09	20.442
506.44	20.241
506.78	20.046
507.13	19.963
507.47	19.896
507.82	20.170
508.16	19.981
508.51	19.362
508.85	20.076
509.19	20.559
509.54	20.653
509.88	19.961
510.23	20.204
510.57	20.396
510.92	19.739
511.26	18.951
511.61	18.831
511.95	19.619
512.30	19.596
512.64	19.740
512.98	19.410
513.33	19.556
513.67	19.837
514.02	19.673
514.36	19.130
514.70	19.844
515.05	20.334
515.39	19.790
515.74	20.201
516.08	19.704
516.42	20.094
516.77	20.032
517.11	19.030
517.46	19.883
517.80	20.310
518.14	19.532
518.49	18.872
518.83	18.999
519.17	18.955
519.52	18.763
519.86	19.219
520.20	19.276
520.55	19.058
520.89	18.131
521.23	19.151
521.58	19.266
521.92	19.150
522.26	18.270
522.61	18.808
522.95	19.319
523.29	18.908
523.64	18.330
523.98	19.452
524.32	19.370
524.66	19.522
525.01	18.516
525.35	18.610
525.69	18.271
526.04	19.346
526.38	19.080
526.72	18.916
527.06	18.651
527.41	18.717
527.75	19.181
528.09	19.126
528.43	18.532
528.78	19.711
529.12	19.037
529.46	18.943
529.80	19.336
530.15	19.594
530.49	19.276
530.83	18.713
531.17	18.877
531.51	18.773
531.86	19.050
532.20	20.122
532.54	18.193
532.88	18.242
533.22	19.505
533.57	19.504
533.91	19.809
534.25	19.616
534.59	20.000
534.93	18.732
535.27	19.493
535.62	19.784
535.96	19.291
536.30	19.800
536.64	18.979
536.98	19.496
537.32	18.889
537.66	19.089
538.01	18.792
538.35	19.184
538.69	19.411
539.03	19.559
539.37	19.729
539.71	20.420
540.05	19.544
540.39	18.826
540.73	19.247
541.07	19.681
541.42	18.488
541.76	19.039
542.10	19.964
542.44	19.123
542.78	19.221
543.12	20.203
543.46	19.658
543.80	19.305
544.14	19.569
544.48	19.385
544.82	19.629
545.16	18.784
545.50	19.772
545.84	18.187
546.18	20.062
546.52	19.490
546.86	19.811
547.20	19.656
547.54	19.600
547.88	19.108
548.22	19.474
548.56	20.363
548.90	19.522
549.24	19.574
549.58	18.864
549.92	19.643
550.26	18.641
550.60	18.953
550.94	20.116
551.28	20.198
551.62	19.407
551.96	19.288
552.30	19.885
552.64	19.726
552.98	19.588
553.32	20.257
553.66	19.550
554.00	20.177
554.34	19.369
554.68	19.755
555.02	20.039
555.36	20.381
555.69	19.539
556.03	19.231
556.37	20.401
556.71	20.672
557.05	19.169
557.39	19.044
557.73	20.079
558.07	18.874
558.41	20.266
558.75	19.202
559.08	19.694
559.42	19.684
559.76	19.878
560.10	19.357
560.44	19.393
560.78	20.250
561.12	20.690
561.45	20.073
561.79	19.902
562.13	20.333
562.47	19.236
562.81	18.797
563.15	20.455
563.48	20.261
563.82	19.770
564.16	19.322
564.50	20.322
564.84	20.236
565.17	20.235
565.51	20.311
565.85	20.903
566.19	19.758
566.52	20.480
566.86	19.694
567.20	19.467
567.54	20.712
567.88	21.254
568.21	20.850
568.55	21.583
568.89	21.289
569.23	20.955
569.56	22.040
569.90	22.096
570.24	23.103
570.57	22.482
570.91	22.168
571.25	22.563
571.59	23.184
571.92	22.948
572.26	22.869
572.60	22.577
572.93	22.182
573.27	22.422
573.61	22.472
573.95	22.748
574.28	23.102
574.62	22.647
574.96	22.894
575.29	22.648
575.63	22.915
575.97	23.329
576.30	22.058
576.64	22.524
576.98	22.528
577.31	22.930
577.65	24.288
577.98	23.927
578.32	23.166
578.66	23.596
578.99	22.711
579.33	22.743
579.67	22.643
580.00	22.837
580.34	22.928
580.67	22.330
581.01	22.696
581.35	23.553
581.68	23.407
582.02	23.355
582.35	24.367
582.69	24.051
583.02	23.155
583.36	22.612
583.70	23.086
584.03	22.606
584.37	22.365
584.70	22.518
585.04	22.483
585.37	23.354
585.71	23.107
586.04	23.162
586.38	23.143
586.72	22.738
587.05	22.077
587.39	22.762
587.72	23.158
588.06	23.283
588.39	23.226
588.73	22.328
589.06	22.686
589.40	22.895
589.73	22.044
590.07	21.983
590.40	21.974
590.73	22.163
591.07	22.040
591.40	22.006
591.74	21.065
592.07	21.559
592.41	21.924
592.74	22.151
593.08	22.771
593.41	24.205
593.75	23.793
594.08	23.023
594.41	23.397
594.75	22.517
595.08	22.443
595.42	23.182
595.75	22.893
596.09	23.077
596.42	22.501
596.75	22.038
597.09	23.071
597.42	22.169
597.75	22.148
598.09	22.738
598.42	22.155
598.76	21.895
599.09	22.855
599.42	22.963
599.76	22.450
600.09	22.823
600.42	23.056
600.76	22.820
601.09	22.702
601.42	22.073
601.76	23.000
602.09	22.123
602.42	21.701
602.76	22.546
603.09	23.054
603.42	22.724
603.76	22.798
604.09	23.456
604.42	22.862
604.76	22.222
605.09	22.856
605.42	22.209
605.75	22.038
606.09	22.807
606.42	22.510
606.75	22.001
607.09	21.774
607.42	22.389
607.75	22.118
608.08	22.691
608.42	22.007
608.75	22.015
609.08	21.435
609.41	21.747
609.75	20.982
610.08	22.164
610.41	22.260
610.74	22.017
611.07	21.892
611.41	22.108
611.74	21.801
612.07	22.066
612.40	21.673
612.73	22.103
613.07	21.516
613.40	22.040
613.73	21.618
614.06	22.130
614.39	21.040
614.72	21.106
615.06	21.752
615.39	21.266
615.72	22.180
616.05	21.904
616.38	22.452
616.71	21.473
617.05	20.767
617.38	21.616
617.71	21.004
618.04	20.831
618.37	22.514
618.70	21.663
619.03	20.609
619.36	20.592
619.69	20.564
620.03	20.841
620.36	20.982
620.69	21.160
621.02	20.866
621.35	20.319
621.68	20.174
622.01	20.071
622.34	19.526
622.67	20.687
623.00	18.758
623.33	20.637
623.66	20.623
623.99	20.803
624.32	21.507
624.65	21.042
624.99	21.066
625.32	21.228
625.65	20.836
625.98	20.271
626.31	20.340
626.64	20.513
626.97	19.805
627.30	18.603
627.63	19.505
627.96	20.721
628.29	19.144
628.62	18.640
628.95	19.018
629.28	18.777
629.61	19.192
629.94	18.494
630.26	18.644
630.59	19.085
630.92	18.095
631.25	19.767
631.58	19.021
631.91	18.838
632.24	19.597
632.57	19.260
632.90	19.157
633.23	17.347
633.56	17.857
633.89	17.252
