SpectraSuite Data File
++++++++++++++++++++++++++++++++++++
Date: Thu May 14 14:36:16 PDT 2015
User: schluterlab
Dark Spectrum Present: Yes
Reference Spectrum Present: Yes
Number of Sampled Component Spectra: 1
Spectrometers: USB2E3373
Integration Time (usec): 3000 (USB2E3373)
Spectra Averaged: 3 (USB2E3373)
Boxcar Smoothing: 0 (USB2E3373)
Correct for Electrical Dark: No (USB2E3373)
Strobe/Lamp Enabled: No (USB2E3373)
Correct for Detector Non-linearity: No (USB2E3373)
Correct for Stray Light: No (USB2E3373)
Number of Pixels in Processed Spectrum: 2048
>>>>>Begin Processed Spectral Data<<<<<
178.53	0.000
178.91	-342.857
179.29	1300.000
179.67	300.000
180.04	14.286
180.42	-190.000
180.80	-140.000
181.18	1600.000
181.56	1500.000
181.94	-450.000
182.31	400.000
182.69	-633.333
183.07	900.000
183.45	-450.000
183.83	483.333
184.20	733.333
184.58	-1800.000
184.96	175.000
185.34	222.222
185.72	480.000
186.09	-133.333
186.47	-600.000
186.85	-0.000
187.23	133.333
187.61	900.000
187.98	-360.000
188.36	-175.000
188.74	575.000
189.12	833.333
189.49	162.500
189.87	150.000
190.25	222.222
190.63	400.000
191.00	122.222
191.38	0.000
191.76	225.000
192.14	333.333
192.51	-1000.000
192.89	350.000
193.27	0.000
193.65	285.714
194.02	700.000
194.40	314.286
194.78	-200.000
195.15	0.000
195.53	118.182
195.91	0.000
196.29	350.000
196.66	161.538
197.04	1500.000
197.42	171.429
197.79	900.000
198.17	237.500
198.55	228.571
198.92	211.111
199.30	87.500
199.68	181.818
200.05	214.286
200.43	400.000
200.81	-171.429
201.18	0.000
201.56	-122.222
201.94	0.000
202.31	-466.667
202.69	33.333
203.07	-1900.000
203.44	288.889
203.82	425.000
204.19	125.000
204.57	283.333
204.95	287.500
205.32	1700.000
205.70	-500.000
206.08	250.000
206.45	316.667
206.83	-180.000
207.20	250.000
207.58	200.000
207.96	300.000
208.33	250.000
208.71	-100.000
209.08	433.333
209.46	0.000
209.84	-166.667
210.21	-500.000
210.59	-700.000
210.96	-366.667
211.34	500.000
211.71	275.000
212.09	1300.000
212.46	0.000
212.84	-550.000
213.22	220.000
213.59	325.000
213.97	190.000
214.34	700.000
214.72	-266.667
215.09	500.000
215.47	0.000
215.84	-200.000
216.22	-650.000
216.59	300.000
216.97	420.000
217.34	625.000
217.72	175.000
218.09	375.000
218.47	425.000
218.84	0.000
219.22	-240.000
219.59	164.706
219.97	65.000
220.34	-200.000
220.72	144.444
221.09	184.615
221.47	433.333
221.84	220.000
222.22	242.857
222.59	0.000
222.97	262.500
223.34	180.000
223.72	1100.000
224.09	275.000
224.46	400.000
224.84	300.000
225.21	285.714
225.59	350.000
225.96	500.000
226.34	69.231
226.71	-83.333
227.08	500.000
227.46	113.333
227.83	425.000
228.21	126.316
228.58	-112.500
228.95	-750.000
229.33	183.333
229.70	200.000
230.08	147.368
230.45	-30.000
230.82	633.333
231.20	200.000
231.57	158.333
231.95	145.455
232.32	172.727
232.69	155.000
233.07	525.000
233.44	152.941
233.81	150.000
234.19	144.444
234.56	118.182
234.93	68.966
235.31	110.526
235.68	116.667
236.05	70.000
236.43	126.923
236.80	128.000
237.17	44.444
237.55	66.667
237.92	90.000
238.29	74.194
238.67	63.636
239.04	63.889
239.41	28.571
239.79	39.130
240.16	38.889
240.53	28.261
240.91	21.569
241.28	29.508
241.65	38.806
242.02	44.595
242.40	29.231
242.77	26.667
243.14	17.073
243.51	10.526
243.89	17.949
244.26	18.812
244.63	23.529
245.00	22.430
245.38	21.053
245.75	4.425
246.12	15.873
246.49	13.178
246.87	20.714
247.24	18.543
247.61	20.395
247.98	11.409
248.36	12.346
248.73	13.497
249.10	14.208
249.47	18.408
249.84	17.277
250.22	9.845
250.59	16.667
250.96	15.455
251.33	9.184
251.70	14.103
252.08	17.083
252.45	15.164
252.82	11.570
253.19	11.328
253.56	15.209
253.94	11.154
254.31	12.879
254.68	15.734
255.05	11.075
255.42	10.544
255.79	12.621
256.16	11.589
256.54	9.272
256.91	13.770
257.28	9.508
257.65	9.873
258.02	6.195
258.39	10.541
258.76	15.902
259.14	12.069
259.51	12.680
259.88	8.499
260.25	12.500
260.62	8.219
260.99	12.842
261.36	13.941
261.73	8.488
262.10	7.967
262.47	9.920
262.85	12.374
263.22	9.351
263.59	6.316
263.96	10.997
264.33	6.905
264.70	9.630
265.07	10.979
265.44	11.565
265.81	8.565
266.18	10.884
266.55	9.152
266.92	8.200
267.29	10.066
267.66	9.091
268.03	11.354
268.40	9.186
268.77	7.289
269.14	8.370
269.51	10.965
269.88	9.836
270.25	11.469
270.62	9.705
270.99	9.293
271.36	11.683
271.73	11.198
272.10	9.218
272.47	8.617
272.84	8.635
273.21	10.220
273.58	10.887
273.95	6.538
274.32	9.506
274.69	7.930
275.06	10.256
275.43	8.318
275.80	9.171
276.17	7.963
276.54	10.634
276.91	7.692
277.28	8.137
277.65	8.797
278.02	9.191
278.39	8.696
278.76	8.084
279.13	9.220
279.50	9.278
279.87	8.587
280.23	5.810
280.60	10.169
280.97	9.046
281.34	7.980
281.71	8.629
282.08	7.309
282.45	9.165
282.82	7.535
283.19	6.624
283.56	9.180
283.92	8.859
284.29	9.005
284.66	9.524
285.03	6.571
285.40	9.583
285.77	6.347
286.14	8.550
286.51	7.306
286.87	7.109
287.24	7.831
287.61	9.417
287.98	7.100
288.35	9.024
288.72	7.396
289.08	8.346
289.45	6.509
289.82	6.325
290.19	7.759
290.56	8.592
290.93	7.275
291.29	7.163
291.66	7.989
292.03	6.920
292.40	9.116
292.77	8.086
293.13	6.766
293.50	6.045
293.87	7.785
294.24	7.600
294.60	8.217
294.97	6.040
295.34	8.835
295.71	6.179
296.08	7.494
296.44	7.475
296.81	6.943
297.18	7.721
297.55	8.608
297.91	6.880
298.28	5.213
298.65	6.659
299.02	6.730
299.38	7.094
299.75	6.659
300.12	5.903
300.48	7.488
300.85	5.962
301.22	6.600
301.59	7.192
301.95	6.780
302.32	7.111
302.69	7.119
303.05	6.420
303.42	5.654
303.79	6.354
304.15	6.309
304.52	6.131
304.89	6.387
305.25	7.350
305.62	6.792
305.99	6.082
306.35	5.746
306.72	6.412
307.09	6.497
307.45	6.004
307.82	6.862
308.19	7.164
308.55	7.232
308.92	6.719
309.29	7.375
309.65	7.115
310.02	5.644
310.38	6.496
310.75	6.699
311.12	6.520
311.48	6.647
311.85	7.217
312.22	6.357
312.58	6.573
312.95	7.266
313.31	7.678
313.68	7.234
314.05	7.769
314.41	7.559
314.78	6.903
315.14	8.258
315.51	7.664
315.87	8.011
316.24	8.311
316.61	7.016
316.97	6.335
317.34	7.055
317.70	7.598
318.07	6.173
318.43	7.993
318.80	8.612
319.16	6.781
319.53	6.512
319.89	5.872
320.26	7.473
320.62	6.738
320.99	7.849
321.35	6.747
321.72	8.000
322.08	6.853
322.45	6.775
322.81	6.679
323.18	7.611
323.54	7.500
323.91	7.918
324.27	7.573
324.64	9.068
325.00	7.463
325.37	9.173
325.73	8.843
326.10	8.354
326.46	8.388
326.83	9.448
327.19	7.953
327.56	8.379
327.92	7.238
328.29	8.710
328.65	8.710
329.01	8.629
329.38	8.340
329.74	8.818
330.11	9.075
330.47	7.919
330.84	8.613
331.20	10.167
331.56	9.272
331.93	9.456
332.29	9.153
332.66	9.385
333.02	9.129
333.38	9.144
333.75	9.512
334.11	10.092
334.48	10.314
334.84	9.941
335.20	9.152
335.57	9.696
335.93	10.000
336.29	8.985
336.66	9.588
337.02	9.615
337.38	9.694
337.75	8.430
338.11	9.924
338.47	9.760
338.84	9.306
339.20	8.677
339.56	9.143
339.93	10.263
340.29	9.823
340.65	9.327
341.02	10.535
341.38	10.752
341.74	9.282
342.11	9.895
342.47	8.499
342.83	9.742
343.20	9.076
343.56	10.666
343.92	9.688
344.28	9.453
344.65	9.922
345.01	10.062
345.37	9.176
345.73	9.197
346.10	9.516
346.46	9.810
346.82	9.438
347.19	9.167
347.55	10.015
347.91	9.510
348.27	8.953
348.63	10.053
349.00	9.843
349.36	9.665
349.72	9.896
350.08	10.624
350.45	9.278
350.81	9.276
351.17	9.098
351.53	9.856
351.89	10.251
352.26	8.731
352.62	10.373
352.98	9.695
353.34	8.588
353.70	8.937
354.07	8.867
354.43	9.871
354.79	8.527
355.15	9.272
355.51	9.576
355.87	9.424
356.24	9.354
356.60	9.239
356.96	10.304
357.32	9.665
357.68	8.858
358.04	9.132
358.40	9.179
358.77	9.503
359.13	8.272
359.49	8.922
359.85	9.282
360.21	9.756
360.57	9.835
360.93	9.309
361.29	10.035
361.66	9.631
362.02	9.464
362.38	9.838
362.74	9.288
363.10	11.004
363.46	9.280
363.82	9.020
364.18	9.500
364.54	9.820
364.90	8.829
365.26	9.034
365.62	10.200
365.98	9.598
366.35	10.067
366.71	9.864
367.07	8.728
367.43	9.915
367.79	10.153
368.15	10.033
368.51	9.675
368.87	9.863
369.23	9.467
369.59	9.836
369.95	9.939
370.31	9.723
370.67	10.041
371.03	9.765
371.39	9.066
371.75	9.078
372.11	10.298
372.47	10.088
372.83	11.257
373.19	9.940
373.55	9.079
373.91	9.611
374.27	10.608
374.63	10.825
374.99	9.549
375.35	10.390
375.71	10.258
376.07	10.394
376.42	10.202
376.78	10.441
377.14	9.919
377.50	10.247
377.86	10.099
378.22	10.838
378.58	10.048
378.94	10.446
379.30	10.135
379.66	10.053
380.02	9.752
380.38	10.599
380.74	9.465
381.09	10.221
381.45	11.080
381.81	11.651
382.17	10.926
382.53	10.175
382.89	10.892
383.25	10.492
383.61	10.069
383.97	10.012
384.32	11.184
384.68	10.151
385.04	11.857
385.40	10.194
385.76	11.430
386.12	11.789
386.48	11.118
386.83	11.144
387.19	10.371
387.55	10.563
387.91	10.445
388.27	11.605
388.62	11.798
388.98	10.716
389.34	11.727
389.70	11.621
390.06	10.835
390.42	10.602
390.77	11.318
391.13	11.209
391.49	11.655
391.85	11.212
392.20	11.329
392.56	12.109
392.92	11.832
393.28	11.001
393.64	10.335
393.99	12.435
394.35	12.091
394.71	12.096
395.07	11.257
395.42	11.536
395.78	11.639
396.14	12.834
396.50	11.639
396.85	11.688
397.21	12.189
397.57	11.896
397.92	12.085
398.28	11.570
398.64	11.327
399.00	11.571
399.35	11.623
399.71	10.978
400.07	11.623
400.42	11.700
400.78	11.863
401.14	11.497
401.49	11.029
401.85	11.163
402.21	11.530
402.57	12.441
402.92	11.702
403.28	12.178
403.63	11.217
403.99	11.164
404.35	11.313
404.70	12.408
405.06	11.630
405.42	12.061
405.77	11.559
406.13	12.588
406.49	11.768
406.84	11.801
407.20	12.186
407.55	11.024
407.91	11.565
408.27	11.249
408.62	11.635
408.98	11.027
409.34	10.850
409.69	11.681
410.05	12.075
410.40	12.297
410.76	11.441
411.11	10.579
411.47	11.978
411.83	12.640
412.18	11.687
412.54	12.448
412.89	11.816
413.25	11.400
413.60	11.258
413.96	12.354
414.31	11.841
414.67	12.224
415.03	11.631
415.38	11.791
415.74	11.912
416.09	12.338
416.45	12.336
416.80	11.812
417.16	11.814
417.51	11.706
417.87	12.385
418.22	12.275
418.58	12.020
418.93	12.980
419.29	12.700
419.64	11.705
420.00	11.810
420.35	11.847
420.71	12.407
421.06	12.018
421.42	12.787
421.77	11.847
422.12	12.896
422.48	12.186
422.83	13.198
423.19	11.989
423.54	12.555
423.90	12.093
424.25	12.480
424.61	11.596
424.96	12.411
425.31	12.898
425.67	11.755
426.02	12.120
426.38	11.883
426.73	11.942
427.09	13.033
427.44	11.797
427.79	12.327
428.15	11.872
428.50	11.910
428.85	12.055
429.21	12.287
429.56	11.895
429.92	12.383
430.27	12.241
430.62	11.920
430.98	11.510
431.33	11.681
431.68	11.542
432.04	12.544
432.39	12.051
432.74	12.329
433.10	13.034
433.45	12.207
433.80	11.749
434.16	12.552
434.51	11.768
434.86	12.106
435.22	12.540
435.57	13.031
435.92	12.577
436.28	12.685
436.63	11.961
436.98	12.131
437.34	12.063
437.69	11.337
438.04	12.163
438.39	13.096
438.75	11.566
439.10	12.104
439.45	12.745
439.81	12.599
440.16	12.279
440.51	13.378
440.86	12.674
441.22	12.969
441.57	12.212
441.92	11.930
442.27	12.626
442.63	12.270
442.98	12.220
443.33	12.678
443.68	12.587
444.03	12.841
444.39	12.760
444.74	12.557
445.09	12.519
445.44	12.592
445.79	12.644
446.15	12.487
446.50	12.506
446.85	12.889
447.20	12.718
447.55	12.814
447.91	11.780
448.26	12.474
448.61	12.434
448.96	13.251
449.31	12.460
449.66	12.146
450.02	12.553
450.37	13.426
450.72	12.487
451.07	12.927
451.42	12.189
451.77	12.396
452.12	12.359
452.47	12.240
452.83	12.725
453.18	12.434
453.53	12.407
453.88	12.811
454.23	13.164
454.58	12.943
454.93	12.864
455.28	12.763
455.63	12.791
455.98	13.408
456.34	12.721
456.69	13.404
457.04	11.820
457.39	12.472
457.74	12.919
458.09	12.466
458.44	13.200
458.79	12.429
459.14	13.110
459.49	12.168
459.84	13.116
460.19	12.271
460.54	12.947
460.89	13.129
461.24	11.954
461.59	13.226
461.94	12.094
462.29	12.542
462.64	12.975
462.99	13.559
463.34	12.979
463.69	13.658
464.04	12.729
464.39	13.117
464.74	13.056
465.09	12.226
465.44	12.446
465.79	12.850
466.14	12.715
466.49	12.263
466.84	12.507
467.19	12.370
467.54	12.280
467.89	12.299
468.24	12.742
468.59	12.391
468.94	12.005
469.29	13.257
469.64	13.032
469.99	12.556
470.34	12.562
470.68	13.124
471.03	13.360
471.38	12.165
471.73	12.939
472.08	12.754
472.43	12.944
472.78	12.720
473.13	12.200
473.48	12.689
473.83	13.291
474.17	12.603
474.52	13.169
474.87	13.289
475.22	13.183
475.57	12.825
475.92	12.942
476.27	12.833
476.61	12.357
476.96	11.887
477.31	12.277
477.66	13.379
478.01	12.608
478.36	12.562
478.70	12.562
479.05	12.526
479.40	12.340
479.75	12.392
480.10	12.269
480.45	12.489
480.79	12.698
481.14	11.949
481.49	12.176
481.84	12.663
482.19	12.215
482.53	13.118
482.88	13.336
483.23	12.539
483.58	12.314
483.92	12.012
484.27	12.659
484.62	11.881
484.97	12.442
485.31	12.249
485.66	11.693
486.01	10.619
486.36	10.807
486.70	11.368
487.05	12.084
487.40	12.213
487.75	12.519
488.09	12.595
488.44	12.824
488.79	13.086
489.13	12.817
489.48	12.194
489.83	12.153
490.17	12.070
490.52	12.603
490.87	12.056
491.22	12.305
491.56	12.585
491.91	12.647
492.26	12.592
492.60	12.593
492.95	13.076
493.30	12.416
493.64	12.177
493.99	12.193
494.34	12.456
494.68	11.949
495.03	12.247
495.37	12.561
495.72	11.973
496.07	12.621
496.41	11.626
496.76	11.927
497.11	12.059
497.45	11.955
497.80	12.750
498.14	11.973
498.49	12.454
498.84	12.477
499.18	12.236
499.53	12.287
499.87	13.099
500.22	11.665
500.56	11.786
500.91	12.723
501.26	12.318
501.60	11.843
501.95	12.505
502.29	12.374
502.64	12.812
502.98	12.123
503.33	12.311
503.67	11.819
504.02	12.434
504.36	12.735
504.71	12.494
505.06	12.051
505.40	12.294
505.75	12.568
506.09	12.891
506.44	12.163
506.78	12.890
507.13	12.633
507.47	13.453
507.82	12.784
508.16	12.667
508.51	12.330
508.85	12.282
509.19	12.364
509.54	12.968
509.88	12.239
510.23	12.773
510.57	13.291
510.92	12.482
511.26	12.266
511.61	11.782
511.95	12.787
512.30	12.802
512.64	11.844
512.98	12.556
513.33	13.558
513.67	12.086
514.02	12.979
514.36	12.839
514.70	12.344
515.05	13.764
515.39	12.441
515.74	13.097
516.08	12.837
516.42	13.344
516.77	12.618
517.11	12.481
517.46	13.150
517.80	12.881
518.14	13.221
518.49	13.015
518.83	12.720
519.17	12.763
519.52	12.788
519.86	13.094
520.20	12.460
520.55	13.143
520.89	12.218
521.23	12.786
521.58	13.107
521.92	12.578
522.26	12.543
522.61	13.137
522.95	12.860
523.29	12.529
523.64	12.836
523.98	13.862
524.32	13.123
524.66	12.749
525.01	13.137
525.35	13.096
525.69	12.935
526.04	12.572
526.38	13.161
526.72	13.264
527.06	13.079
527.41	12.653
527.75	13.717
528.09	12.751
528.43	12.848
528.78	13.237
529.12	12.500
529.46	13.210
529.80	12.071
530.15	12.870
530.49	12.278
530.83	12.928
531.17	12.724
531.51	13.117
531.86	13.462
532.20	13.110
532.54	12.627
532.88	12.727
533.22	13.671
533.57	12.579
533.91	13.187
534.25	12.267
534.59	12.931
534.93	12.677
535.27	13.014
535.62	13.872
535.96	12.609
536.30	12.691
536.64	13.754
536.98	13.653
537.32	13.519
537.66	13.724
538.01	12.508
538.35	12.972
538.69	12.500
539.03	12.692
539.37	12.898
539.71	12.973
540.05	12.770
540.39	13.142
540.73	12.750
541.07	12.630
541.42	12.286
541.76	12.515
542.10	12.364
542.44	12.728
542.78	13.321
543.12	12.872
543.46	12.454
543.80	12.590
544.14	13.106
544.48	12.825
544.82	13.226
545.16	12.761
545.50	12.522
545.84	12.370
546.18	14.074
546.52	12.675
546.86	13.459
547.20	12.913
547.54	13.233
547.88	13.140
548.22	12.924
548.56	13.049
548.90	13.194
549.24	12.705
549.58	12.997
549.92	14.031
550.26	12.945
550.60	13.019
550.94	13.325
551.28	13.333
551.62	13.747
551.96	13.074
552.30	13.193
552.64	12.819
552.98	13.163
553.32	12.540
553.66	12.926
554.00	13.115
554.34	12.355
554.68	13.299
555.02	13.075
555.36	13.609
555.69	13.581
556.03	12.673
556.37	13.392
556.71	12.429
557.05	13.291
557.39	11.878
557.73	12.616
558.07	12.715
558.41	14.219
558.75	12.847
559.08	12.874
559.42	13.169
559.76	13.908
560.10	13.798
560.44	12.335
560.78	13.000
561.12	12.438
561.45	13.139
561.79	12.943
562.13	13.802
562.47	12.762
562.81	13.228
563.15	13.131
563.48	13.114
563.82	12.636
564.16	12.296
564.50	11.919
564.84	12.448
565.17	13.176
565.51	12.140
565.85	12.589
566.19	12.442
566.52	13.049
566.86	13.299
567.20	12.181
567.54	11.418
567.88	12.487
568.21	12.154
568.55	11.942
568.89	12.574
569.23	11.660
569.56	11.841
569.90	11.226
570.24	11.164
570.57	10.904
570.91	11.268
571.25	11.426
571.59	11.662
571.92	11.274
572.26	11.435
572.60	11.794
572.93	11.996
573.27	11.492
573.61	11.514
573.95	11.338
574.28	11.236
574.62	10.937
574.96	11.028
575.29	11.016
575.63	11.458
575.97	11.593
576.30	11.424
576.64	11.143
576.98	11.367
577.31	11.454
577.65	11.246
577.98	11.050
578.32	11.068
578.66	10.931
578.99	11.079
579.33	11.427
579.67	11.287
580.00	11.463
580.34	11.606
580.67	11.364
581.01	11.402
581.35	11.046
581.68	11.109
582.02	10.863
582.35	11.049
582.69	11.033
583.02	11.325
583.36	11.768
583.70	12.088
584.03	11.687
584.37	11.849
584.70	11.491
585.04	11.393
585.37	11.180
585.71	11.046
586.04	11.317
586.38	11.444
586.72	11.181
587.05	11.051
587.39	11.070
587.72	11.172
588.06	11.823
588.39	11.476
588.73	11.561
589.06	11.597
589.40	11.985
589.73	11.729
590.07	11.870
590.40	12.035
590.73	11.700
591.07	12.472
591.40	11.936
591.74	11.407
592.07	12.302
592.41	11.830
592.74	11.857
593.08	11.624
593.41	10.965
593.75	11.695
594.08	11.572
594.41	11.635
594.75	12.189
595.08	11.272
595.42	11.851
595.75	11.721
596.09	12.403
596.42	12.254
596.75	12.428
597.09	12.444
597.42	12.038
597.75	11.917
598.09	12.222
598.42	12.384
598.76	11.502
599.09	11.107
599.42	10.962
599.76	11.324
600.09	11.979
600.42	12.112
600.76	11.625
601.09	11.650
601.42	11.740
601.76	11.414
602.09	11.615
602.42	11.923
602.76	11.808
603.09	12.261
603.42	11.886
603.76	11.276
604.09	12.065
604.42	11.853
604.76	11.454
605.09	11.927
605.42	11.683
605.75	11.962
606.09	11.161
606.42	11.310
606.75	11.432
607.09	10.868
607.42	11.522
607.75	11.958
608.08	11.957
608.42	11.568
608.75	12.189
609.08	11.800
609.41	11.866
609.75	11.741
610.08	12.401
610.41	11.342
610.74	11.471
611.07	12.256
611.41	12.377
611.74	12.240
612.07	12.436
612.40	11.882
612.73	12.225
613.07	12.469
613.40	12.464
613.73	11.651
614.06	12.414
614.39	12.002
614.72	11.596
615.06	12.608
615.39	11.938
615.72	11.801
616.05	12.093
616.38	12.008
616.71	12.905
617.05	11.235
617.38	13.269
617.71	12.311
618.04	11.873
618.37	12.732
618.70	12.443
619.03	12.724
619.36	13.132
619.69	12.812
620.03	12.806
620.36	11.902
620.69	11.845
621.02	12.664
621.35	12.990
621.68	13.521
622.01	13.167
622.34	11.925
622.67	12.921
623.00	11.404
623.33	12.674
623.66	13.489
623.99	12.706
624.32	13.515
624.65	11.133
624.99	12.484
625.32	13.521
625.65	12.812
625.98	11.864
626.31	12.544
626.64	13.626
626.97	11.928
627.30	12.528
627.63	12.528
627.96	13.288
628.29	14.241
628.62	12.678
628.95	12.883
629.28	12.234
629.61	13.384
629.94	12.469
630.26	12.797
630.59	13.731
630.92	12.554
631.25	13.775
631.58	14.218
631.91	13.590
632.24	12.968
632.57	13.378
632.90	13.240
633.23	14.490
633.56	14.184
633.89	13.017
634.22	14.241
634.55	13.152
634.88	14.610
635.20	14.962
635.53	14.124
635.86	14.193
636.19	14.422
636.52	12.869
636.85	13.177
637.18	13.098
637.51	12.258
637.83	15.504
638.16	13.825
638.49	13.967
638.82	14.092
