SpectraSuite Data File
++++++++++++++++++++++++++++++++++++
Date: Thu May 14 15:16:15 PDT 2015
User: schluterlab
Dark Spectrum Present: Yes
Reference Spectrum Present: Yes
Number of Sampled Component Spectra: 1
Spectrometers: USB2E3373
Integration Time (usec): 3000 (USB2E3373)
Spectra Averaged: 3 (USB2E3373)
Boxcar Smoothing: 0 (USB2E3373)
Correct for Electrical Dark: No (USB2E3373)
Strobe/Lamp Enabled: No (USB2E3373)
Correct for Detector Non-linearity: No (USB2E3373)
Correct for Stray Light: No (USB2E3373)
Number of Pixels in Processed Spectrum: 2048
>>>>>Begin Processed Spectral Data<<<<<
178.53	0.000
178.91	528.571
179.29	-4600.000
179.67	-3300.000
180.04	442.857
180.42	440.000
180.80	860.000
181.18	-4300.000
181.56	-3500.000
181.94	1100.000
182.31	-950.000
182.69	1166.667
183.07	-2150.000
183.45	1200.000
183.83	-650.000
184.20	-1266.667
184.58	4200.000
184.96	-1125.000
185.34	-466.667
185.72	-740.000
186.09	466.667
186.47	2200.000
186.85	900.000
187.23	-511.111
187.61	-5300.000
187.98	860.000
188.36	1025.000
188.74	-1025.000
189.12	-1433.333
189.49	-200.000
189.87	-512.500
190.25	-344.444
190.63	-700.000
191.00	-444.444
191.38	0.000
191.76	-1075.000
192.14	-700.000
192.51	1750.000
192.89	-583.333
193.27	0.000
193.65	-628.571
194.02	-5100.000
194.40	-542.857
194.78	571.429
195.15	0.000
195.53	-381.818
195.91	0.000
196.29	-850.000
196.66	-284.615
197.04	-4100.000
197.42	-571.429
197.79	-1950.000
198.17	-487.500
198.55	-557.143
198.92	-400.000
199.30	-512.500
199.68	-218.182
200.05	-235.714
200.43	-2200.000
200.81	671.429
201.18	0.000
201.56	600.000
201.94	0.000
202.31	1733.333
202.69	-388.889
203.07	3200.000
203.44	-477.778
203.82	-775.000
204.19	-283.333
204.57	-683.333
204.95	-475.000
205.32	-3500.000
205.70	875.000
206.08	-666.667
206.45	-466.667
206.83	780.000
207.20	-566.667
207.58	-980.000
207.96	-816.667
208.33	-550.000
208.71	341.667
209.08	-533.333
209.46	0.000
209.84	766.667
210.21	1750.000
210.59	2050.000
210.96	1400.000
211.34	-975.000
211.71	-475.000
212.09	-4400.000
212.46	0.000
212.84	2500.000
213.22	-920.000
213.59	-900.000
213.97	-360.000
214.34	-1233.333
214.72	750.000
215.09	-1075.000
215.47	0.000
215.84	514.286
216.22	2300.000
216.59	-760.000
216.97	-720.000
217.34	-850.000
217.72	-412.500
218.09	-1050.000
218.47	-1050.000
218.84	0.000
219.22	720.000
219.59	-194.118
219.97	-195.000
220.34	2200.000
220.72	-466.667
221.09	-223.077
221.47	-1266.667
221.84	-400.000
222.22	-514.286
222.59	0.000
222.97	-425.000
223.34	-880.000
223.72	-4300.000
224.09	-975.000
224.46	-1050.000
224.84	-780.000
225.21	-457.143
225.59	-1300.000
225.96	-1025.000
226.34	-115.385
226.71	766.667
227.08	-1800.000
227.46	-220.000
227.83	-950.000
228.21	-200.000
228.58	562.500
228.95	2150.000
229.33	-283.333
229.70	-320.000
230.08	-126.316
230.45	500.000
230.82	-1166.667
231.20	-257.143
231.57	-300.000
231.95	-345.455
232.32	-363.636
232.69	-145.000
233.07	-775.000
233.44	-194.118
233.81	-390.000
234.19	-122.222
234.56	-163.636
234.93	-89.655
235.31	-178.947
235.68	-238.889
236.05	-215.000
236.43	-88.462
236.80	-92.000
237.17	-125.926
237.55	-75.758
237.92	-440.000
238.29	-93.548
238.67	-61.364
239.04	-83.333
239.41	-69.048
239.79	-41.304
240.16	-31.481
240.53	-41.304
240.91	-45.098
241.28	-21.311
241.65	-19.403
242.02	-20.270
242.40	-36.923
242.77	-14.667
243.14	-26.829
243.51	-13.158
243.89	-3.846
244.26	1.980
244.63	10.784
245.00	7.477
245.38	6.140
245.75	-11.504
246.12	4.762
246.49	6.977
246.87	12.857
247.24	12.583
247.61	15.789
247.98	11.409
248.36	14.815
248.73	14.110
249.10	10.383
249.47	21.393
249.84	26.702
250.22	19.171
250.59	23.889
250.96	24.545
251.33	20.408
251.70	18.376
252.08	26.667
252.45	20.902
252.82	23.554
253.19	21.484
253.56	32.319
253.94	21.923
254.31	28.030
254.68	30.420
255.05	28.990
255.42	24.830
255.79	28.155
256.16	27.815
256.54	26.490
256.91	32.787
257.28	28.525
257.65	27.707
258.02	28.024
258.39	27.350
258.76	32.722
259.14	33.046
259.51	31.988
259.88	29.178
260.25	26.111
260.62	31.781
260.99	34.973
261.36	32.976
261.73	27.321
262.10	32.967
262.47	31.367
262.85	33.838
263.22	28.831
263.59	27.368
263.96	30.179
264.33	30.179
264.70	30.864
265.07	35.084
265.44	30.385
265.81	30.787
266.18	33.560
266.55	31.250
266.92	32.118
267.29	35.011
267.66	31.264
268.03	33.406
268.40	32.359
268.77	34.624
269.14	28.634
269.51	32.895
269.88	35.861
270.25	33.602
270.62	33.544
270.99	34.747
271.36	30.693
271.73	32.613
272.10	32.265
272.47	32.265
272.84	31.325
273.21	33.467
273.58	34.073
273.95	29.231
274.32	31.179
274.69	29.981
275.06	32.601
275.43	31.793
275.80	33.510
276.17	30.926
276.54	28.545
276.91	32.200
277.28	33.816
277.65	31.239
278.02	31.434
278.39	33.877
278.76	30.931
279.13	34.220
279.50	32.302
279.87	30.233
280.23	31.690
280.60	32.203
280.97	32.730
281.34	32.767
281.71	32.995
282.08	29.900
282.45	31.097
282.82	32.182
283.19	29.402
283.56	31.967
283.92	32.432
284.29	33.175
284.66	31.527
285.03	27.404
285.40	29.675
285.77	33.282
286.14	31.145
286.51	30.289
286.87	30.648
287.24	30.120
287.61	31.091
287.98	26.435
288.35	31.065
288.72	32.249
289.08	30.161
289.45	28.994
289.82	31.024
290.19	29.023
290.56	29.859
290.93	29.672
291.29	29.477
291.66	27.135
292.03	28.358
292.40	31.429
292.77	27.898
293.13	26.658
293.50	26.675
293.87	25.772
294.24	29.333
294.60	25.790
294.97	27.248
295.34	26.889
295.71	27.364
296.08	25.581
296.44	26.471
296.81	24.604
297.18	26.027
297.55	26.061
297.91	25.030
298.28	25.948
298.65	25.446
299.02	25.384
299.38	25.858
299.75	23.949
300.12	24.769
300.48	24.654
300.85	23.397
301.22	25.168
301.59	22.260
301.95	23.390
302.32	25.444
302.69	24.096
303.05	24.157
303.42	23.836
303.79	23.021
304.15	25.026
304.52	22.939
304.89	23.874
305.25	24.224
305.62	22.780
305.99	23.608
306.35	22.883
306.72	23.992
307.09	23.858
307.45	23.395
307.82	22.906
308.19	23.613
308.55	23.144
308.92	22.395
309.29	21.839
309.65	22.125
310.02	24.257
310.38	22.441
310.75	23.592
311.12	23.202
311.48	21.310
311.85	21.368
312.22	22.106
312.58	23.662
312.95	21.606
313.31	23.126
313.68	22.070
314.05	23.306
314.41	23.133
314.78	22.343
315.14	24.592
315.51	22.068
315.87	22.502
316.24	22.100
316.61	24.423
316.97	22.624
317.34	22.840
317.70	22.882
318.07	23.369
318.43	22.109
318.80	22.826
319.16	22.060
319.53	22.622
319.89	22.086
320.26	21.619
320.62	22.518
320.99	21.053
321.35	20.980
321.72	23.721
322.08	21.461
322.45	22.674
322.81	22.744
323.18	22.478
323.54	22.586
323.91	23.577
324.27	22.203
324.64	22.502
325.00	22.139
325.37	22.031
325.73	22.645
326.10	22.628
326.46	22.883
326.83	23.058
327.19	23.307
327.56	22.925
327.92	22.109
328.29	21.532
328.65	23.534
329.01	21.912
329.38	22.578
329.74	25.000
330.11	22.089
330.47	23.336
330.84	22.825
331.20	22.333
331.56	22.270
331.93	22.678
332.29	23.390
332.66	23.007
333.02	22.697
333.38	22.819
333.75	23.064
334.11	22.519
334.48	23.102
334.84	22.770
335.20	21.579
335.57	23.524
335.93	22.149
336.29	20.466
336.66	22.204
337.02	21.405
337.38	21.684
337.75	22.314
338.11	20.942
338.47	22.084
338.84	21.489
339.20	20.303
339.56	20.675
339.93	22.085
340.29	21.820
340.65	20.195
341.02	21.868
341.38	22.635
341.74	21.711
342.11	22.285
342.47	20.969
342.83	22.464
343.20	23.058
343.56	21.973
343.92	21.537
344.28	22.422
344.65	20.698
345.01	21.763
345.37	21.073
345.73	20.031
346.10	21.763
346.46	21.519
346.82	22.172
347.19	20.856
347.55	21.017
347.91	21.322
348.27	21.320
348.63	21.554
349.00	20.358
349.36	20.818
349.72	21.354
350.08	20.282
350.45	20.837
350.81	21.870
351.17	21.053
351.53	21.456
351.89	21.412
352.26	19.851
352.62	21.567
352.98	20.992
353.34	19.716
353.70	20.493
354.07	21.610
354.43	21.109
354.79	20.344
355.15	21.560
355.51	22.003
355.87	20.120
356.24	20.380
356.60	20.473
356.96	21.127
357.32	19.703
357.68	20.717
358.04	19.835
358.40	20.000
358.77	20.980
359.13	20.679
359.49	19.777
359.85	21.392
360.21	20.230
360.57	20.603
360.93	20.240
361.29	19.930
361.66	18.972
362.02	21.225
362.38	20.661
362.74	20.251
363.10	21.114
363.46	20.845
363.82	19.105
364.18	20.197
364.54	20.401
364.90	20.067
365.26	21.241
365.62	20.400
365.98	19.741
366.35	19.530
366.71	20.204
367.07	20.365
367.43	20.289
367.79	19.774
368.15	20.803
368.51	20.027
368.87	21.359
369.23	20.400
369.59	20.355
369.95	21.366
370.31	20.189
370.67	20.083
371.03	20.360
371.39	19.812
371.75	20.358
372.11	19.648
372.47	19.431
372.83	21.335
373.19	20.147
373.55	19.783
373.91	19.223
374.27	19.922
374.63	20.162
374.99	20.093
375.35	20.714
375.71	19.548
376.07	20.658
376.42	19.144
376.78	19.640
377.14	20.150
377.50	21.189
377.86	20.751
378.22	21.018
378.58	20.511
378.94	20.129
379.30	20.387
379.66	20.635
380.02	20.658
380.38	21.313
380.74	20.451
381.09	21.080
381.45	20.852
381.81	21.194
382.17	20.843
382.53	19.883
382.89	20.880
383.25	20.457
383.61	20.139
383.97	20.612
384.32	21.232
384.68	20.244
385.04	21.110
385.40	21.273
385.76	20.926
386.12	21.125
386.48	20.941
386.83	22.288
387.19	20.684
387.55	20.716
387.91	20.662
388.27	21.767
388.62	21.306
388.98	20.699
389.34	21.273
389.70	21.209
390.06	21.551
390.42	20.602
390.77	22.276
391.13	21.185
391.49	21.075
391.85	20.182
392.20	21.115
392.56	20.673
392.92	21.156
393.28	21.780
393.64	20.782
393.99	21.964
394.35	21.554
394.71	21.497
395.07	20.180
395.42	21.074
395.78	22.669
396.14	20.974
396.50	21.378
396.85	21.169
397.21	21.361
397.57	21.378
397.92	21.764
398.28	21.510
398.64	21.339
399.00	20.733
399.35	21.309
399.71	22.120
400.07	21.954
400.42	21.478
400.78	21.586
401.14	21.172
401.49	21.944
401.85	21.860
402.21	21.900
402.57	22.183
402.92	22.104
403.28	21.253
403.63	21.002
403.99	21.318
404.35	21.660
404.70	21.416
405.06	21.196
405.42	21.838
405.77	22.028
406.13	21.178
406.49	21.734
406.84	21.717
407.20	21.073
407.55	20.654
407.91	22.062
408.27	21.084
408.62	21.001
408.98	21.010
409.34	20.293
409.69	21.384
410.05	21.923
410.40	21.810
410.76	21.425
411.11	21.917
411.47	21.376
411.83	21.282
412.18	22.108
412.54	21.340
412.89	21.828
413.25	21.670
413.60	21.769
413.96	22.611
414.31	21.643
414.67	21.646
415.03	20.677
415.38	21.879
415.74	21.319
416.09	21.221
416.45	21.039
416.80	21.053
417.16	20.690
417.51	20.922
417.87	20.294
418.22	20.778
418.58	21.561
418.93	22.061
419.29	21.640
419.64	21.068
420.00	20.534
420.35	21.898
420.71	21.597
421.06	21.507
421.42	21.502
421.77	20.355
422.12	20.877
422.48	21.813
422.83	21.632
423.19	21.698
423.54	22.069
423.90	20.762
424.25	22.240
424.61	20.379
424.96	22.021
425.31	21.709
425.67	21.685
426.02	21.251
426.38	22.044
426.73	21.540
427.09	22.203
427.44	21.354
427.79	21.172
428.15	21.747
428.50	21.236
428.85	21.010
429.21	22.181
429.56	21.372
429.92	20.835
430.27	21.639
430.62	21.495
430.98	21.397
431.33	21.457
431.68	20.642
432.04	21.686
432.39	21.050
432.74	20.776
433.10	21.255
433.45	20.792
433.80	20.440
434.16	20.816
434.51	21.737
434.86	22.313
435.22	21.838
435.57	21.698
435.92	20.812
436.28	21.217
436.63	22.447
436.98	21.095
437.34	21.026
437.69	21.244
438.04	21.470
438.39	20.793
438.75	21.804
439.10	21.776
439.45	21.129
439.81	20.113
440.16	20.590
440.51	21.683
440.86	20.400
441.22	20.632
441.57	21.384
441.92	20.708
442.27	21.869
442.63	21.759
442.98	21.185
443.33	21.883
443.68	21.952
444.03	21.402
444.39	22.053
444.74	21.184
445.09	21.338
445.44	22.392
445.79	21.887
446.15	21.891
446.50	20.982
446.85	21.595
447.20	21.132
447.55	21.810
447.91	20.995
448.26	20.190
448.61	20.723
448.96	21.459
449.31	20.308
449.66	20.207
450.02	21.150
450.37	21.524
450.72	21.259
451.07	20.615
451.42	21.548
451.77	21.345
452.12	21.106
452.47	21.034
452.83	21.396
453.18	21.483
453.53	20.678
453.88	21.149
454.23	20.734
454.58	21.242
454.93	20.874
455.28	20.409
455.63	20.750
455.98	20.950
456.34	21.319
456.69	20.870
457.04	19.681
457.39	20.732
457.74	20.861
458.09	19.879
458.44	21.121
458.79	20.474
459.14	20.713
459.49	20.656
459.84	21.144
460.19	20.655
460.54	20.613
460.89	20.858
461.24	20.402
461.59	21.970
461.94	18.825
462.29	19.821
462.64	20.700
462.99	20.151
463.34	20.247
463.69	20.516
464.04	20.734
464.39	20.796
464.74	20.296
465.09	20.877
465.44	20.547
465.79	20.888
466.14	20.688
466.49	20.579
466.84	21.047
467.19	19.827
467.54	19.506
467.89	20.287
468.24	19.834
468.59	19.108
468.94	19.347
469.29	19.556
469.64	19.835
469.99	20.586
470.34	19.616
470.68	20.984
471.03	20.105
471.38	18.574
471.73	18.986
472.08	19.797
472.43	19.205
472.78	20.844
473.13	19.406
473.48	19.758
473.83	20.604
474.17	19.402
474.52	19.062
474.87	20.764
475.22	20.732
475.57	19.367
475.92	20.010
476.27	19.755
476.61	20.093
476.96	19.760
477.31	20.743
477.66	21.144
478.01	19.929
478.36	19.691
478.70	20.246
479.05	20.092
479.40	20.286
479.75	20.797
480.10	19.991
480.45	20.602
480.79	20.544
481.14	20.175
481.49	19.582
481.84	20.757
482.19	20.516
482.53	21.644
482.88	20.691
483.23	21.076
483.58	19.869
483.92	19.725
484.27	20.322
484.62	20.173
484.97	20.412
485.31	20.275
485.66	19.093
486.01	20.018
486.36	21.598
486.70	23.410
487.05	24.168
487.40	23.915
487.75	22.977
488.09	22.429
488.44	21.239
488.79	21.113
489.13	20.094
489.48	19.573
489.83	19.517
490.17	19.887
490.52	19.499
490.87	20.770
491.22	19.627
491.56	19.710
491.91	20.235
492.26	20.381
492.60	19.458
492.95	19.833
493.30	19.632
493.64	20.499
493.99	19.868
494.34	19.599
494.68	19.529
495.03	19.780
495.37	19.973
495.72	19.909
496.07	20.158
496.41	19.348
496.76	19.600
497.11	19.788
497.45	19.594
497.80	19.769
498.14	19.955
498.49	19.577
498.84	19.653
499.18	20.153
499.53	19.552
499.87	19.253
500.22	18.967
500.56	19.928
500.91	20.092
501.26	20.818
501.60	19.797
501.95	19.149
502.29	19.921
502.64	20.070
502.98	20.492
503.33	19.957
503.67	20.105
504.02	19.308
504.36	20.375
504.71	19.798
505.06	20.009
505.40	19.744
505.75	19.945
506.09	19.521
506.44	20.381
506.78	20.092
507.13	20.009
507.47	19.943
507.82	19.223
508.16	18.834
508.51	19.175
508.85	19.367
509.19	19.138
509.54	19.356
509.88	20.107
510.23	19.961
510.57	19.720
510.92	19.884
511.26	19.336
511.61	18.590
511.95	18.692
512.30	19.301
512.64	19.090
512.98	19.160
513.33	19.254
513.67	19.378
514.02	19.417
514.36	20.000
514.70	19.323
515.05	19.917
515.39	18.898
515.74	19.035
516.08	19.440
516.42	19.414
516.77	18.770
517.11	19.030
517.46	19.777
517.80	19.081
518.14	19.423
518.49	18.926
518.83	18.999
519.17	18.901
519.52	18.449
519.86	18.585
520.20	19.223
520.55	18.894
520.89	19.369
521.23	18.872
521.58	19.096
521.92	18.810
522.26	18.614
522.61	19.039
522.95	19.089
523.29	18.563
523.64	18.442
523.98	19.624
524.32	19.083
524.66	18.953
525.01	18.630
525.35	18.725
525.69	18.503
526.04	18.427
526.38	18.851
526.72	18.685
527.06	19.062
527.41	19.184
527.75	19.477
528.09	19.303
528.43	18.769
528.78	17.688
529.12	19.209
529.46	18.831
529.80	18.421
530.15	19.188
530.49	18.387
530.83	19.599
531.17	18.638
531.51	18.652
531.86	18.389
532.20	19.634
532.54	18.911
532.88	18.424
533.22	18.680
533.57	19.388
533.91	19.248
534.25	19.616
534.59	18.966
534.93	19.185
535.27	18.930
535.62	18.988
535.96	19.524
536.30	18.978
536.64	19.219
536.98	19.496
537.32	20.000
537.66	19.214
538.01	19.154
538.35	18.819
538.69	19.231
539.03	19.436
539.37	19.081
539.71	18.498
540.05	19.245
540.39	18.337
540.73	18.640
541.07	18.639
541.42	18.606
541.76	17.972
542.10	18.034
542.44	19.184
542.78	19.161
543.12	19.190
543.46	19.048
543.80	18.585
544.14	18.671
544.48	19.681
544.82	19.090
545.16	19.201
545.50	18.993
545.84	18.371
546.18	19.877
546.52	18.790
546.86	19.182
547.20	19.338
547.54	18.352
547.88	18.143
548.22	18.713
548.56	20.070
548.90	19.403
549.24	19.392
549.58	19.180
549.92	18.941
550.26	19.417
550.60	18.826
550.94	18.693
551.28	19.076
551.62	19.609
551.96	19.676
552.30	18.866
552.64	19.664
552.98	18.403
553.32	19.421
553.66	18.714
554.00	18.916
554.34	18.919
554.68	18.915
555.02	18.003
555.36	19.329
555.69	17.745
556.03	19.105
556.37	19.337
556.71	19.150
557.05	18.403
557.39	18.978
557.73	19.022
558.07	17.947
558.41	19.003
558.75	18.256
559.08	19.415
559.42	17.627
559.76	18.521
560.10	18.687
560.44	19.129
560.78	19.688
561.12	18.966
561.45	18.552
561.79	18.803
562.13	19.778
562.47	17.633
562.81	18.797
563.15	18.624
563.48	19.391
563.82	19.105
564.16	17.989
564.50	18.236
564.84	19.174
565.17	19.176
565.51	19.045
565.85	19.181
566.19	17.857
566.52	18.841
566.86	19.298
567.20	18.869
567.54	19.278
567.88	20.387
568.21	20.702
568.55	19.712
568.89	19.927
569.23	20.870
569.56	20.633
569.90	21.098
570.24	21.821
570.57	21.841
570.91	21.188
571.25	21.955
571.59	22.405
571.92	22.575
572.26	21.625
572.60	21.813
572.93	22.238
573.27	22.253
573.61	22.525
573.95	21.753
574.28	22.214
574.62	22.192
574.96	21.989
575.29	22.296
575.63	22.453
575.97	22.467
576.30	21.737
576.64	22.071
576.98	22.118
577.31	22.427
577.65	22.286
577.98	22.628
578.32	22.339
578.66	22.691
578.99	22.732
579.33	22.877
579.67	22.371
580.00	21.848
580.34	22.404
580.67	21.845
581.01	22.241
581.35	22.326
581.68	22.538
582.02	22.769
582.35	23.052
582.69	23.469
583.02	23.304
583.36	23.331
583.70	23.222
584.03	21.982
584.37	22.069
584.70	22.200
585.04	21.390
585.37	22.095
585.71	21.920
586.04	22.567
586.38	22.493
586.72	22.336
587.05	22.128
587.39	22.064
587.72	22.201
588.06	22.461
588.39	22.380
588.73	22.249
589.06	21.953
589.40	21.942
589.73	21.626
590.07	21.485
590.40	22.042
590.73	21.421
591.07	20.923
591.40	20.801
591.74	20.986
592.07	20.747
592.41	20.584
592.74	20.554
593.08	21.146
593.41	21.901
593.75	21.925
594.08	22.448
594.41	22.372
594.75	21.754
595.08	21.803
595.42	21.299
595.75	22.054
596.09	22.094
596.42	21.498
596.75	21.883
597.09	21.535
597.42	20.699
597.75	20.659
598.09	20.556
598.42	20.949
598.76	20.634
599.09	20.897
599.42	20.382
599.76	20.964
600.09	21.188
600.42	21.221
600.76	21.631
601.09	21.208
601.42	21.662
601.76	20.931
602.09	21.051
602.42	21.483
602.76	21.439
603.09	20.962
603.42	20.918
603.76	21.106
604.09	21.611
604.42	21.725
604.76	20.852
605.09	21.739
605.42	21.531
605.75	20.769
606.09	20.119
606.42	20.759
606.75	20.390
607.09	20.392
607.42	20.578
607.75	20.633
608.08	20.205
608.42	20.153
608.75	20.605
609.08	21.180
609.41	20.820
609.75	20.313
610.08	20.976
610.41	20.263
610.74	20.630
611.07	19.671
611.41	21.345
611.74	20.554
612.07	20.524
612.40	20.105
612.73	20.587
613.07	19.707
613.40	20.404
613.73	20.270
614.06	20.118
614.39	19.728
614.72	19.893
615.06	19.201
615.39	20.058
615.72	20.379
616.05	20.107
616.38	19.879
616.71	20.376
617.05	19.649
617.38	18.834
617.71	20.572
618.04	19.104
618.37	19.563
618.70	19.344
619.03	18.877
619.36	18.557
619.69	18.706
620.03	18.644
620.36	18.650
620.69	18.816
621.02	19.226
621.35	18.433
621.68	18.366
622.01	18.932
622.34	17.294
622.67	18.557
623.00	17.544
623.33	17.850
623.66	18.677
623.99	18.499
624.32	19.818
624.65	18.855
624.99	19.051
625.32	18.942
625.65	18.341
625.98	18.441
626.31	17.860
626.64	18.828
626.97	17.854
627.30	15.490
627.63	17.629
627.96	17.868
628.29	17.899
628.62	16.289
628.95	16.740
629.28	17.587
629.61	17.172
629.94	16.485
