SpectraSuite Data File
++++++++++++++++++++++++++++++++++++
Date: Thu May 14 14:45:12 PDT 2015
User: schluterlab
Dark Spectrum Present: Yes
Reference Spectrum Present: Yes
Number of Sampled Component Spectra: 1
Spectrometers: USB2E3373
Integration Time (usec): 3000 (USB2E3373)
Spectra Averaged: 3 (USB2E3373)
Boxcar Smoothing: 0 (USB2E3373)
Correct for Electrical Dark: No (USB2E3373)
Strobe/Lamp Enabled: No (USB2E3373)
Correct for Detector Non-linearity: No (USB2E3373)
Correct for Stray Light: No (USB2E3373)
Number of Pixels in Processed Spectrum: 2048
>>>>>Begin Processed Spectral Data<<<<<
178.53	0.000
178.91	114.286
179.29	-1600.000
179.67	-400.000
180.04	78.571
180.42	80.000
180.80	100.000
181.18	100.000
181.56	1000.000
181.94	-0.000
182.31	250.000
182.69	-0.000
183.07	150.000
183.45	25.000
183.83	-66.667
184.20	-233.333
184.58	700.000
184.96	-225.000
185.34	100.000
185.72	120.000
186.09	177.778
186.47	150.000
186.85	80.000
187.23	-122.222
187.61	-600.000
187.98	120.000
188.36	75.000
188.74	175.000
189.12	0.000
189.49	37.500
189.87	0.000
190.25	-11.111
190.63	40.000
191.00	44.444
191.38	0.000
191.76	-50.000
192.14	16.667
192.51	-100.000
192.89	150.000
193.27	0.000
193.65	100.000
194.02	-700.000
194.40	-28.571
194.78	71.429
195.15	0.000
195.53	127.273
195.91	0.000
196.29	-50.000
196.66	-15.385
197.04	-400.000
197.42	-42.857
197.79	0.000
198.17	-62.500
198.55	-42.857
198.92	77.778
199.30	37.500
199.68	0.000
200.05	42.857
200.43	-200.000
200.81	71.429
201.18	0.000
201.56	77.778
201.94	0.000
202.31	-33.333
202.69	44.444
203.07	-500.000
203.44	11.111
203.82	75.000
204.19	66.667
204.57	-16.667
204.95	12.500
205.32	-600.000
205.70	-50.000
206.08	-50.000
206.45	-150.000
206.83	320.000
207.20	100.000
207.58	-140.000
207.96	-100.000
208.33	133.333
208.71	-0.000
209.08	66.667
209.46	0.000
209.84	183.333
210.21	-250.000
210.59	100.000
210.96	33.333
211.34	200.000
211.71	112.500
212.09	-100.000
212.46	0.000
212.84	450.000
213.22	-80.000
213.59	150.000
213.97	-10.000
214.34	-33.333
214.72	100.000
215.09	75.000
215.47	0.000
215.84	-85.714
216.22	150.000
216.59	200.000
216.97	160.000
217.34	25.000
217.72	25.000
218.09	-250.000
218.47	-175.000
218.84	0.000
219.22	-100.000
219.59	35.294
219.97	20.000
220.34	350.000
220.72	-33.333
221.09	23.077
221.47	0.000
221.84	60.000
222.22	-28.571
222.59	0.000
222.97	25.000
223.34	-80.000
223.72	400.000
224.09	100.000
224.46	-75.000
224.84	160.000
225.21	71.429
225.59	-100.000
225.96	75.000
226.34	42.308
226.71	100.000
227.08	-300.000
227.46	66.667
227.83	225.000
228.21	78.947
228.58	-12.500
228.95	50.000
229.33	125.000
229.70	70.000
230.08	136.842
230.45	50.000
230.82	-33.333
231.20	28.571
231.57	58.333
231.95	54.545
232.32	72.727
232.69	70.000
233.07	-75.000
233.44	76.471
233.81	20.000
234.19	44.444
234.56	40.909
234.93	72.414
235.31	94.737
235.68	55.556
236.05	20.000
236.43	100.000
236.80	92.000
237.17	40.741
237.55	18.182
237.92	0.000
238.29	51.613
238.67	25.000
239.04	41.667
239.41	30.952
239.79	58.696
240.16	33.333
240.53	30.435
240.91	39.216
241.28	24.590
241.65	56.716
242.02	35.135
242.40	36.923
242.77	33.333
243.14	37.805
243.51	28.947
243.89	50.000
244.26	51.485
244.63	47.059
245.00	35.514
245.38	35.088
245.75	33.628
246.12	48.413
246.49	37.984
246.87	35.000
247.24	38.411
247.61	45.395
247.98	40.268
248.36	41.358
248.73	33.742
249.10	39.891
249.47	42.289
249.84	42.932
250.22	37.306
250.59	44.444
250.96	41.364
251.33	41.327
251.70	40.171
252.08	37.917
252.45	38.934
252.82	37.190
253.19	40.625
253.56	37.262
253.94	36.154
254.31	44.318
254.68	43.357
255.05	38.436
255.42	35.034
255.79	33.010
256.16	35.430
256.54	43.377
256.91	40.000
257.28	36.721
257.65	40.127
258.02	36.873
258.39	33.903
258.76	40.673
259.14	42.529
259.51	37.464
259.88	35.127
260.25	38.333
260.62	40.822
260.99	39.617
261.36	38.338
261.73	37.666
262.10	39.835
262.47	40.751
262.85	38.384
263.22	35.844
263.59	37.895
263.96	36.061
264.33	36.573
264.70	37.284
265.07	37.709
265.44	38.776
265.81	37.500
266.18	39.229
266.55	36.607
266.92	38.269
267.29	41.357
267.66	34.146
268.03	37.555
268.40	37.161
268.77	37.130
269.14	36.344
269.51	36.842
269.88	39.549
270.25	35.412
270.62	37.342
270.99	36.162
271.36	37.228
271.73	35.560
272.10	38.878
272.47	35.872
272.84	33.735
273.21	36.473
273.58	38.105
273.95	35.769
274.32	33.650
274.69	35.590
275.06	36.630
275.43	33.826
275.80	36.684
276.17	34.630
276.54	34.142
276.91	36.315
277.28	34.901
277.65	34.470
278.02	34.926
278.39	34.964
278.76	36.380
279.13	34.929
279.50	37.285
279.87	36.494
280.23	31.162
280.60	37.288
280.97	34.868
281.34	35.654
281.71	35.702
282.08	33.389
282.45	33.388
282.82	32.496
283.19	33.279
283.56	33.770
283.92	35.435
284.29	34.439
284.66	33.990
285.03	30.929
285.40	34.467
285.77	33.437
286.14	34.046
286.51	33.638
286.87	32.543
287.24	32.982
287.61	34.081
287.98	35.196
288.35	31.953
288.72	34.024
289.08	33.089
289.45	30.917
289.82	33.133
290.19	32.328
290.56	33.099
290.93	33.238
291.29	33.058
291.66	31.543
292.03	30.529
292.40	34.014
292.77	31.402
293.13	31.529
293.50	28.909
293.87	31.678
294.24	32.800
294.60	31.985
294.97	28.456
295.34	30.602
295.71	28.878
296.08	28.165
296.44	30.515
296.81	29.233
297.18	29.888
297.55	31.250
297.91	29.537
298.28	27.962
298.65	28.656
299.02	28.689
299.38	28.833
299.75	27.687
300.12	28.356
300.48	28.802
300.85	29.921
301.22	28.859
301.59	28.653
301.95	28.362
302.32	29.333
302.69	29.244
303.05	27.965
303.42	27.384
303.79	28.229
304.15	28.601
304.52	29.387
304.89	29.424
305.25	27.122
305.62	28.527
305.99	29.072
306.35	29.738
306.72	31.437
307.09	29.848
307.45	29.400
307.82	28.557
308.19	28.860
308.55	30.376
308.92	32.035
309.29	29.502
309.65	30.507
310.02	29.901
310.38	31.890
310.75	30.291
311.12	31.256
311.48	31.085
311.85	31.909
312.22	31.499
312.58	30.423
312.95	31.836
313.31	31.888
313.68	32.967
314.05	32.611
314.41	33.424
314.78	32.970
315.14	32.759
315.51	32.687
315.87	33.933
316.24	33.881
316.61	34.636
316.97	34.480
317.34	35.097
317.70	34.410
318.07	34.744
318.43	34.439
318.80	35.786
319.16	34.936
319.53	34.019
319.89	34.882
320.26	35.943
320.62	35.461
320.99	35.734
321.35	37.061
321.72	37.674
322.08	38.683
322.45	39.657
322.81	40.072
323.18	40.619
323.54	40.172
323.91	41.014
324.27	40.620
324.64	40.974
325.00	40.962
325.37	41.441
325.73	41.901
326.10	41.687
326.46	42.508
326.83	42.274
327.19	42.126
327.56	45.138
327.92	44.296
328.29	42.419
328.65	43.300
329.01	46.531
329.38	44.566
329.74	46.318
330.11	46.832
330.47	44.903
330.84	47.287
331.20	46.583
331.56	48.267
331.93	47.866
332.29	48.390
332.66	48.007
333.02	45.896
333.38	48.322
333.75	48.569
334.11	48.457
334.48	49.010
334.84	50.127
335.20	49.790
335.57	50.169
335.93	48.430
336.29	49.584
336.66	49.033
337.02	49.666
337.38	50.680
337.75	50.248
338.11	50.378
338.47	49.545
338.84	51.354
339.20	49.537
339.56	48.847
339.93	50.903
340.29	48.712
340.65	50.608
341.02	50.678
341.38	51.496
341.74	49.475
342.11	51.408
342.47	48.689
342.83	51.852
343.20	51.922
343.56	51.564
343.92	51.001
344.28	50.781
344.65	50.388
345.01	51.404
345.37	51.788
345.73	51.442
346.10	52.730
346.46	50.949
346.82	51.685
347.19	51.337
347.55	50.303
347.91	51.114
348.27	51.138
348.63	52.780
349.00	50.634
349.36	52.045
349.72	51.488
350.08	51.189
350.45	53.308
350.81	51.056
351.17	50.977
351.53	51.782
351.89	52.999
352.26	53.060
352.62	52.537
352.98	53.206
353.34	53.099
353.70	54.545
354.07	52.459
354.43	52.696
354.79	53.403
355.15	53.274
355.51	53.947
355.87	54.450
356.24	53.308
356.60	51.441
356.96	53.076
357.32	53.606
357.68	53.807
358.04	54.266
358.40	51.940
358.77	52.485
359.13	53.619
359.49	53.011
359.85	55.257
360.21	54.089
360.57	54.271
360.93	53.738
361.29	53.825
361.66	54.019
362.02	55.532
362.38	54.533
362.74	54.399
363.10	54.402
363.46	56.233
363.82	56.037
364.18	56.228
364.54	56.432
364.90	56.054
365.26	55.310
365.62	54.667
365.98	54.527
366.35	54.765
366.71	55.442
367.07	55.074
367.43	55.286
367.79	56.802
368.15	57.592
368.51	55.616
368.87	56.368
369.23	56.333
369.59	56.421
369.95	57.674
370.31	57.664
370.67	57.428
371.03	56.925
371.39	56.347
371.75	57.909
372.11	56.843
372.47	57.752
372.83	57.657
373.19	57.705
373.55	57.927
373.91	57.941
374.27	57.827
374.63	57.713
374.99	58.422
375.35	58.052
375.71	58.065
376.07	59.006
376.42	58.753
376.78	59.913
377.14	58.640
377.50	60.911
377.86	59.236
378.22	59.042
378.58	60.226
378.94	59.742
379.30	59.637
379.66	60.611
380.02	59.665
380.38	61.406
380.74	60.789
381.09	61.324
381.45	60.511
381.81	62.529
382.17	60.748
382.53	60.760
382.89	61.456
383.25	63.951
383.61	60.475
383.97	60.895
384.32	62.201
384.68	61.659
385.04	61.538
385.40	63.995
385.76	64.302
386.12	61.400
386.48	62.824
386.83	63.588
387.19	63.152
387.55	62.911
387.91	63.642
388.27	63.626
388.62	62.314
388.98	63.339
389.34	63.936
389.70	66.066
390.06	64.358
390.42	63.313
390.77	63.817
391.13	63.674
391.49	63.285
391.85	65.212
392.20	64.531
392.56	64.442
392.92	62.923
393.28	65.782
393.64	64.413
393.99	65.311
394.35	66.238
394.71	65.509
395.07	64.910
395.42	65.620
395.78	66.362
396.14	66.964
396.50	65.796
396.85	65.176
397.21	66.450
397.57	66.019
397.92	65.636
398.28	65.562
398.64	66.247
399.00	64.921
399.35	65.550
399.71	65.217
400.07	66.536
400.42	64.843
400.78	65.914
401.14	66.306
401.49	67.425
401.85	66.802
402.21	67.671
402.57	68.075
402.92	66.608
403.28	65.925
403.63	65.871
403.99	65.083
404.35	65.549
404.70	65.326
405.06	65.435
405.42	65.632
405.77	66.630
406.13	66.775
406.49	66.047
406.84	66.039
407.20	66.182
407.55	66.626
407.91	67.442
408.27	65.665
408.62	65.910
408.98	65.990
409.34	66.628
409.69	67.738
410.05	67.057
410.40	67.691
410.76	67.695
411.11	68.673
411.47	67.383
411.83	67.901
412.18	68.614
412.54	67.101
412.89	67.346
413.25	67.833
413.60	68.352
413.96	68.182
414.31	67.195
414.67	68.157
415.03	67.754
415.38	69.798
415.74	67.502
416.09	68.353
416.45	68.065
416.80	67.564
417.16	69.029
417.51	69.614
417.87	68.976
418.22	69.401
418.58	68.649
418.93	69.499
419.29	70.469
419.64	68.607
420.00	69.139
420.35	70.241
420.71	68.868
421.06	69.753
421.42	70.814
421.77	69.682
422.12	69.397
422.48	70.302
422.83	71.522
423.19	71.618
423.54	73.285
423.90	70.790
424.25	70.933
424.61	69.575
424.96	71.334
425.31	72.452
425.67	72.195
426.02	73.160
426.38	72.847
426.73	73.214
427.09	73.991
427.44	73.512
427.79	72.692
428.15	71.804
428.50	73.202
428.85	73.421
429.21	72.713
429.56	74.630
429.92	73.268
430.27	74.699
430.62	74.548
430.98	75.357
431.33	73.705
431.68	74.569
432.04	76.282
432.39	77.022
432.74	75.799
433.10	76.744
433.45	74.861
433.80	75.268
434.16	76.033
434.51	78.006
434.86	77.796
435.22	78.427
435.57	78.066
435.92	77.240
436.28	77.986
436.63	80.229
436.98	76.758
437.34	77.283
437.69	77.325
438.04	77.049
438.39	79.265
438.75	77.975
439.10	80.127
439.45	77.529
439.81	78.588
440.16	77.426
440.51	79.320
440.86	78.099
441.22	78.189
441.57	80.818
441.92	79.389
442.27	80.303
442.63	79.136
442.98	79.616
443.33	80.168
443.68	80.426
444.03	82.220
444.39	80.398
444.74	81.827
445.09	80.639
445.44	82.561
445.79	81.370
446.15	81.603
446.50	81.499
446.85	81.615
447.20	81.335
447.55	80.858
447.91	81.047
448.26	80.867
448.61	81.881
448.96	84.120
449.31	81.548
449.66	82.625
450.02	80.854
450.37	82.365
450.72	83.100
451.07	81.777
451.42	81.745
451.77	82.991
452.12	84.537
452.47	81.937
452.83	83.390
453.18	82.954
453.53	83.802
453.88	81.723
454.23	81.921
454.58	84.156
454.93	84.223
455.28	84.407
455.63	82.092
455.98	83.799
456.34	84.276
456.69	82.187
457.04	85.993
457.39	83.259
457.74	85.515
458.09	83.416
458.44	82.920
458.79	82.465
459.14	83.849
459.49	85.059
459.84	84.313
460.19	84.175
460.54	86.201
460.89	86.024
461.24	84.770
461.59	86.165
461.94	82.886
462.29	85.162
462.64	85.456
462.99	85.122
463.34	86.178
463.69	84.291
464.04	84.491
464.39	86.996
464.74	83.409
465.09	85.755
465.44	86.052
465.79	84.717
466.14	84.158
466.49	84.842
466.84	87.273
467.19	86.069
467.54	84.724
467.89	84.368
468.24	85.873
468.59	84.771
468.94	86.072
469.29	85.483
469.64	86.713
469.99	87.062
470.34	85.582
470.68	88.585
471.03	88.605
471.38	86.789
471.73	87.581
472.08	87.944
472.43	86.574
472.78	87.154
473.13	87.800
473.48	87.976
473.83	87.812
474.17	87.163
474.52	88.094
474.87	87.375
475.22	88.113
475.57	87.279
475.92	86.013
476.27	86.475
476.61	86.812
476.96	87.435
477.31	86.980
477.66	89.349
478.01	87.494
478.36	86.092
478.70	87.833
479.05	88.599
479.40	88.154
479.75	87.656
480.10	87.684
480.45	86.372
480.79	86.621
481.14	88.097
481.49	87.915
481.84	87.554
482.19	88.903
482.53	88.369
482.88	89.411
483.23	88.795
483.58	88.297
483.92	87.057
484.27	88.823
484.62	86.881
484.97	86.820
485.31	87.258
485.66	82.312
486.01	80.739
486.36	83.224
486.70	87.058
487.05	89.659
487.40	89.714
487.75	90.458
488.09	90.392
488.44	88.502
488.79	89.713
489.13	88.776
489.48	87.922
489.83	88.491
490.17	87.282
490.52	86.576
490.87	88.156
491.22	89.948
491.56	88.481
491.91	89.708
492.26	87.581
492.60	88.413
492.95	88.635
493.30	90.094
493.64	89.312
493.99	88.816
494.34	88.981
494.68	88.180
495.03	89.119
495.37	89.392
495.72	88.617
496.07	90.359
496.41	87.902
496.76	90.742
497.11	89.936
497.45	90.160
497.80	89.516
498.14	89.569
498.49	90.028
498.84	91.042
499.18	88.529
499.53	88.834
499.87	88.923
500.22	89.225
500.56	89.609
500.91	89.840
501.26	91.182
501.60	89.792
501.95	91.185
502.29	89.118
502.64	90.861
502.98	87.877
503.33	90.065
503.67	91.191
504.02	90.236
504.36	92.315
504.71	92.559
505.06	90.769
505.40	89.671
505.75	89.936
506.09	89.825
506.44	92.386
506.78	92.431
507.13	90.871
507.47	92.421
507.82	91.525
508.16	92.447
508.51	90.717
508.85	93.340
509.19	92.847
509.54	92.507
509.88	91.841
510.23	92.521
510.57	92.315
510.92	93.372
511.26	91.294
511.61	90.439
511.95	92.728
512.30	92.959
512.64	92.954
512.98	91.296
513.33	92.238
513.67	93.065
514.02	93.919
514.36	94.527
514.70	92.865
515.05	95.464
515.39	93.071
515.74	93.849
516.08	94.083
516.42	94.087
516.77	93.218
517.11	92.367
517.46	95.334
517.80	95.083
518.14	95.321
518.49	95.174
518.83	92.230
519.17	94.076
519.52	93.553
519.86	93.981
520.20	93.557
520.55	94.797
520.89	94.595
521.23	94.082
521.58	95.650
521.92	95.807
522.26	92.554
522.61	95.833
522.95	95.502
523.29	95.862
523.64	95.123
523.98	95.550
524.32	97.077
524.66	96.187
525.01	95.300
525.35	95.060
525.69	94.664
526.04	92.882
526.38	96.379
526.72	94.810
527.06	95.249
527.41	95.160
527.75	96.021
528.09	96.281
528.43	95.441
528.78	93.584
529.12	95.642
529.46	94.266
529.80	95.652
530.15	96.812
530.49	96.560
530.83	95.868
531.17	95.281
531.51	96.811
531.86	96.514
532.20	96.341
532.54	95.093
532.88	95.515
533.22	93.872
533.57	94.230
533.91	92.985
534.25	95.817
534.59	97.874
534.93	95.699
535.27	94.535
535.62	94.201
535.96	96.804
536.30	95.887
536.64	96.096
536.98	97.294
537.32	96.420
537.66	96.818
538.01	94.985
538.35	97.016
538.69	96.394
539.03	97.425
539.37	93.993
539.71	95.015
540.05	95.923
540.39	97.188
540.73	95.386
541.07	97.180
541.42	95.983
541.76	94.662
542.10	96.381
542.44	97.625
542.78	96.350
543.12	96.305
543.46	95.116
543.80	95.504
544.14	95.392
544.48	95.626
544.82	97.606
545.16	97.317
545.50	96.465
545.84	96.571
546.18	98.395
546.52	98.917
546.86	96.101
547.20	98.855
547.54	95.818
547.88	95.841
548.22	95.731
548.56	97.074
548.90	97.134
549.24	97.143
549.58	97.981
549.92	98.597
550.26	97.799
550.60	98.086
550.94	98.448
551.28	97.822
551.62	100.270
551.96	98.252
552.30	96.877
552.64	96.951
552.98	99.314
553.32	100.450
553.66	97.878
554.00	98.108
554.34	97.683
554.68	97.418
555.02	98.489
555.36	99.343
555.69	97.758
556.03	97.163
556.37	98.811
556.71	99.620
557.05	97.636
557.39	99.137
557.73	99.273
558.07	99.536
558.41	100.133
558.75	99.662
559.08	101.531
559.42	101.440
559.76	99.864
560.10	99.062
560.44	98.681
560.78	99.625
561.12	98.461
561.45	98.723
561.79	98.840
562.13	99.754
562.47	96.547
562.81	99.873
563.15	98.232
563.48	99.378
563.82	99.335
564.16	98.789
564.50	98.629
564.84	97.345
565.17	97.706
565.51	98.274
565.85	98.100
566.19	97.523
566.52	98.713
566.86	98.019
567.20	98.586
567.54	98.194
567.88	97.248
568.21	97.332
568.55	96.163
568.89	97.367
569.23	94.001
569.56	95.115
569.90	93.835
570.24	94.334
570.57	93.842
570.91	93.050
571.25	91.640
571.59	92.708
571.92	91.338
572.26	92.324
572.60	92.520
572.93	92.179
573.27	92.863
573.61	91.318
573.95	90.993
574.28	91.007
574.62	91.110
574.96	90.097
575.29	90.350
575.63	90.437
575.97	91.641
576.30	91.266
576.64	91.458
576.98	90.934
577.31	90.473
577.65	91.828
577.98	89.157
578.32	88.730
578.66	90.369
578.99	91.112
579.33	92.419
579.67	92.158
580.00	90.942
580.34	90.663
580.67	90.755
581.01	90.891
581.35	89.207
581.68	88.891
582.02	89.218
582.35	90.990
582.69	91.755
583.02	92.319
583.36	92.750
583.70	93.797
584.03	93.401
584.37	93.829
584.70	91.858
585.04	91.165
585.37	91.184
585.71	91.046
586.04	90.995
586.38	91.295
586.72	92.304
587.05	92.556
587.39	92.895
587.72	92.799
588.06	93.520
588.39	93.453
588.73	93.466
589.06	94.131
589.40	95.083
589.73	94.826
590.07	94.794
590.40	94.760
590.73	96.112
591.07	95.942
591.40	95.762
591.74	96.343
592.07	95.778
592.41	94.558
592.74	92.687
593.08	92.197
593.41	93.992
593.75	93.448
594.08	94.305
594.41	95.032
594.75	94.288
595.08	95.155
595.42	94.643
595.75	93.962
596.09	96.577
596.42	96.489
596.75	96.295
597.09	96.444
597.42	95.113
597.75	95.178
598.09	94.762
598.42	96.341
598.76	93.351
599.09	92.880
599.42	92.089
599.76	93.100
600.09	94.328
600.42	93.961
600.76	94.188
601.09	93.794
601.42	93.786
601.76	93.586
602.09	95.068
602.42	93.675
602.76	94.576
603.09	95.264
603.42	95.701
603.76	93.622
604.09	95.351
604.42	95.523
604.76	94.597
605.09	95.533
605.42	95.455
605.75	94.269
606.09	94.811
606.42	94.309
606.75	93.928
607.09	94.240
607.42	93.796
607.75	94.568
608.08	94.278
608.42	94.075
608.75	94.859
609.08	94.100
609.41	96.030
609.75	96.875
610.08	97.713
610.41	95.922
610.74	95.420
611.07	97.025
611.41	96.099
611.74	97.090
612.07	96.634
612.40	97.148
612.73	98.044
613.07	97.457
613.40	97.209
613.73	95.137
614.06	96.222
614.39	94.947
614.72	94.081
615.06	94.658
615.39	94.442
615.72	95.782
616.05	96.406
616.38	98.285
616.71	97.126
617.05	97.497
617.38	95.185
617.71	96.328
618.04	96.384
618.37	99.235
618.70	98.982
619.03	99.403
619.36	98.890
619.69	97.438
620.03	99.435
620.36	96.564
620.69	98.211
621.02	101.247
621.35	101.742
621.68	102.675
622.01	100.356
622.34	99.651
622.67	100.137
623.00	98.853
623.33	100.332
623.66	100.454
623.99	98.091
624.32	100.780
624.65	97.555
624.99	100.845
625.32	100.588
625.65	100.202
625.98	98.373
626.31	100.638
626.64	100.440
626.97	101.125
627.30	100.683
627.63	100.750
627.96	100.526
628.29	101.012
628.62	101.763
628.95	103.769
629.28	103.653
629.61	101.515
629.94	101.590
630.26	102.034
630.59	102.850
630.92	101.905
631.25	104.204
631.58	105.650
631.91	104.405
632.24	104.611
632.57	103.036
632.90	104.213
633.23	106.327
633.56	106.735
