SpectraSuite Data File
++++++++++++++++++++++++++++++++++++
Date: Thu May 14 14:50:09 PDT 2015
User: schluterlab
Dark Spectrum Present: Yes
Reference Spectrum Present: Yes
Number of Sampled Component Spectra: 1
Spectrometers: USB2E3373
Integration Time (usec): 3000 (USB2E3373)
Spectra Averaged: 3 (USB2E3373)
Boxcar Smoothing: 0 (USB2E3373)
Correct for Electrical Dark: No (USB2E3373)
Strobe/Lamp Enabled: No (USB2E3373)
Correct for Detector Non-linearity: No (USB2E3373)
Correct for Stray Light: No (USB2E3373)
Number of Pixels in Processed Spectrum: 2048
>>>>>Begin Processed Spectral Data<<<<<
178.53	0.000
178.91	57.143
179.29	-1700.000
179.67	-1000.000
180.04	171.429
180.42	110.000
180.80	160.000
181.18	-500.000
181.56	-200.000
181.94	275.000
182.31	-200.000
182.69	400.000
183.07	-450.000
183.45	325.000
183.83	-16.667
184.20	-100.000
184.58	600.000
184.96	-275.000
185.34	-22.222
185.72	100.000
186.09	88.889
186.47	650.000
186.85	360.000
187.23	-77.778
187.61	-1000.000
187.98	140.000
188.36	425.000
188.74	-25.000
189.12	66.667
189.49	-18.750
189.87	-162.500
190.25	-33.333
190.63	-120.000
191.00	-111.111
191.38	0.000
191.76	-175.000
192.14	-133.333
192.51	600.000
192.89	66.667
193.27	0.000
193.65	-71.429
194.02	-1400.000
194.40	28.571
194.78	85.714
195.15	0.000
195.53	-136.364
195.91	0.000
196.29	-200.000
196.66	15.385
197.04	-1200.000
197.42	-85.714
197.79	-150.000
198.17	-125.000
198.55	-71.429
198.92	44.444
199.30	-12.500
199.68	0.000
200.05	-78.571
200.43	-200.000
200.81	185.714
201.18	0.000
201.56	122.222
201.94	0.000
202.31	300.000
202.69	-133.333
203.07	-400.000
203.44	-11.111
203.82	-275.000
204.19	66.667
204.57	-66.667
204.95	-200.000
205.32	0.000
205.70	100.000
206.08	-50.000
206.45	-50.000
206.83	260.000
207.20	16.667
207.58	-60.000
207.96	-133.333
208.33	33.333
208.71	66.667
209.08	216.667
209.46	0.000
209.84	183.333
210.21	50.000
210.59	350.000
210.96	400.000
211.34	0.000
211.71	-137.500
212.09	-1100.000
212.46	0.000
212.84	900.000
213.22	-320.000
213.59	-125.000
213.97	-30.000
214.34	-333.333
214.72	66.667
215.09	-325.000
215.47	0.000
215.84	28.571
216.22	600.000
216.59	-140.000
216.97	40.000
217.34	-50.000
217.72	-25.000
218.09	-275.000
218.47	-75.000
218.84	0.000
219.22	-20.000
219.59	-17.647
219.97	45.000
220.34	500.000
220.72	-44.444
221.09	0.000
221.47	-366.667
221.84	-90.000
222.22	-57.143
222.59	0.000
222.97	-37.500
223.34	-240.000
223.72	-600.000
224.09	-175.000
224.46	-100.000
224.84	40.000
225.21	-114.286
225.59	-200.000
225.96	-175.000
226.34	7.692
226.71	266.667
227.08	-50.000
227.46	-33.333
227.83	-175.000
228.21	21.053
228.58	100.000
228.95	-50.000
229.33	16.667
229.70	-100.000
230.08	31.579
230.45	90.000
230.82	100.000
231.20	7.143
231.57	8.333
231.95	-54.545
232.32	-36.364
232.69	-5.000
233.07	-125.000
233.44	-64.706
233.81	-60.000
234.19	77.778
234.56	31.818
234.93	51.724
235.31	42.105
235.68	38.889
236.05	-55.000
236.43	65.385
236.80	48.000
237.17	44.444
237.55	3.030
237.92	-10.000
238.29	51.613
238.67	38.636
239.04	8.333
239.41	7.143
239.79	26.087
240.16	35.185
240.53	23.913
240.91	13.725
241.28	21.311
241.65	55.224
242.02	36.486
242.40	12.308
242.77	28.000
243.14	31.707
243.51	32.895
243.89	38.462
244.26	37.624
244.63	45.098
245.00	42.056
245.38	47.368
245.75	34.513
246.12	45.238
246.49	34.109
246.87	43.571
247.24	41.060
247.61	39.474
247.98	46.309
248.36	37.654
248.73	38.650
249.10	34.973
249.47	40.796
249.84	41.885
250.22	40.415
250.59	44.444
250.96	42.273
251.33	37.245
251.70	36.325
252.08	39.583
252.45	43.852
252.82	41.322
253.19	37.500
253.56	40.684
253.94	40.000
254.31	41.288
254.68	42.657
255.05	40.717
255.42	39.116
255.79	36.246
256.16	41.391
256.54	39.735
256.91	41.311
257.28	40.000
257.65	39.490
258.02	39.528
258.39	37.607
258.76	44.648
259.14	42.816
259.51	41.787
259.88	37.677
260.25	39.722
260.62	39.452
260.99	44.536
261.36	44.236
261.73	38.992
262.10	40.934
262.47	41.823
262.85	44.444
263.22	38.701
263.59	41.316
263.96	40.921
264.33	39.642
264.70	42.222
265.07	42.482
265.44	44.444
265.81	40.972
266.18	40.590
266.55	43.304
266.92	41.458
267.29	41.138
267.66	42.794
268.03	40.611
268.40	39.248
268.77	40.774
269.14	38.326
269.51	43.202
269.88	42.213
270.25	40.644
270.62	43.038
270.99	40.404
271.36	40.594
271.73	40.864
272.10	41.082
272.47	43.287
272.84	36.345
273.21	40.481
273.58	42.540
273.95	40.962
274.32	38.403
274.69	39.652
275.06	42.491
275.43	38.078
275.80	38.977
276.17	39.444
276.54	40.485
276.91	38.998
277.28	39.964
277.65	40.395
278.02	37.500
278.39	41.486
278.76	36.204
279.13	38.830
279.50	40.206
279.87	37.030
280.23	35.563
280.60	39.492
280.97	39.309
281.34	38.710
281.71	39.932
282.08	37.542
282.45	37.152
282.82	35.950
283.19	37.480
283.56	38.197
283.92	38.589
284.29	38.705
284.66	39.409
285.03	32.853
285.40	38.640
285.77	35.913
286.14	39.695
286.51	37.443
286.87	37.441
287.24	37.952
287.61	36.024
287.98	35.952
288.35	34.911
288.72	35.799
289.08	37.042
289.45	34.763
289.82	35.843
290.19	35.057
290.56	36.056
290.93	35.806
291.29	34.573
291.66	33.058
292.03	32.836
292.40	34.830
292.77	33.827
293.13	35.995
293.50	32.852
293.87	33.691
294.24	34.533
294.60	33.123
294.97	30.604
295.34	32.778
295.71	31.400
296.08	31.654
296.44	31.250
296.81	31.303
297.18	33.250
297.55	32.429
297.91	30.724
298.28	29.976
298.65	31.153
299.02	29.752
299.38	29.977
299.75	29.673
300.12	30.324
300.48	29.378
300.85	29.921
301.22	30.089
301.59	30.822
301.95	28.814
302.32	29.889
302.69	30.340
303.05	29.924
303.42	30.820
303.79	28.646
304.15	29.758
304.52	29.281
304.89	31.309
305.25	29.193
305.62	31.034
305.99	30.206
306.35	29.839
306.72	30.093
307.09	29.848
307.45	29.400
307.82	29.062
308.19	29.667
308.55	30.087
308.92	28.043
309.29	29.789
309.65	29.142
310.02	29.703
310.38	29.626
310.75	30.485
311.12	28.955
311.48	30.010
311.85	30.579
312.22	29.791
312.58	30.610
312.95	29.541
313.31	31.888
313.68	31.319
314.05	31.527
314.41	32.149
314.78	31.244
315.14	30.944
315.51	31.671
315.87	32.223
316.24	31.598
316.61	33.837
316.97	32.851
317.34	31.570
317.70	33.799
318.07	32.804
318.43	32.823
318.80	34.197
319.16	33.820
319.53	32.648
319.89	32.691
320.26	35.765
320.62	33.511
320.99	34.164
321.35	33.919
321.72	35.535
322.08	34.175
322.45	34.327
322.81	35.379
323.18	34.513
323.54	34.741
323.91	36.032
324.27	34.768
324.64	38.035
325.00	37.148
325.37	36.527
325.73	38.760
326.10	37.875
326.46	37.134
326.83	40.833
327.19	38.819
327.56	40.474
327.92	39.890
328.29	40.726
328.65	40.034
329.01	40.778
329.38	41.533
329.74	41.610
330.11	43.836
330.47	41.870
330.84	43.669
331.20	40.500
331.56	42.028
331.93	42.594
332.29	42.881
332.66	42.608
333.02	41.457
333.38	42.198
333.75	41.582
334.11	44.037
334.48	42.409
334.84	43.585
335.20	41.226
335.57	43.002
335.93	43.058
336.29	42.679
336.66	43.818
337.02	41.555
337.38	43.963
337.75	41.488
338.11	43.566
338.47	42.349
338.84	43.401
339.20	41.955
339.56	41.598
339.93	42.118
340.29	42.110
340.65	42.822
341.02	43.256
341.38	43.088
341.74	41.404
342.11	42.237
342.47	42.256
342.83	42.512
343.20	43.009
343.56	43.224
343.92	41.873
344.28	42.344
344.65	43.798
345.01	42.434
345.37	43.468
345.73	42.245
346.10	43.292
346.46	42.405
346.82	42.547
347.19	43.086
347.55	42.944
347.91	41.530
348.27	42.792
348.63	42.650
349.00	43.475
349.36	42.900
349.72	43.080
350.08	42.868
350.45	44.183
350.81	43.439
351.17	42.556
351.53	42.835
351.89	42.141
352.26	43.433
352.62	43.433
352.98	43.435
353.34	41.001
353.70	44.145
354.07	43.070
354.43	43.280
354.79	42.408
355.15	42.752
355.51	43.421
355.87	41.960
356.24	42.966
356.60	43.163
356.96	44.329
357.32	43.048
357.68	43.192
358.04	43.787
358.40	42.612
358.77	43.348
359.13	42.836
359.49	43.346
359.85	43.800
360.21	42.755
360.57	42.426
360.93	44.922
361.29	43.439
361.66	44.967
362.02	45.024
362.38	43.781
362.74	45.531
363.10	45.323
363.46	45.706
363.82	45.099
364.18	45.883
364.54	44.813
364.90	45.686
365.26	45.448
365.62	45.200
365.98	45.882
366.35	45.235
366.71	45.238
367.07	46.211
367.43	45.502
367.79	46.782
368.15	45.686
368.51	45.467
368.87	46.375
369.23	45.067
369.59	47.336
369.95	45.842
370.31	46.928
370.67	47.318
371.03	46.053
371.39	45.937
371.75	47.937
372.11	47.764
372.47	47.326
372.83	47.055
373.19	46.298
373.55	46.003
373.91	46.626
374.27	47.154
374.63	47.158
374.99	47.679
375.35	48.636
375.71	47.419
376.07	46.998
376.42	47.796
376.78	48.726
377.14	47.473
377.50	48.640
377.86	48.461
378.22	49.521
378.58	49.584
378.94	49.002
379.30	48.389
379.66	50.029
380.02	49.106
380.38	50.806
380.74	49.070
381.09	49.768
381.45	49.318
381.81	51.288
382.17	50.356
382.53	49.825
382.89	49.323
383.25	51.524
383.61	51.215
383.97	51.413
384.32	51.495
384.68	49.942
385.04	51.938
385.40	51.679
385.76	52.462
386.12	51.586
386.48	52.647
386.83	52.801
387.19	51.506
387.55	52.700
387.91	53.139
388.27	53.176
388.62	52.405
388.98	51.325
389.34	53.094
389.70	53.399
390.06	53.404
390.42	52.831
390.77	53.402
391.13	52.934
391.49	53.986
391.85	54.606
392.20	54.152
392.56	53.455
392.92	54.417
393.28	55.058
393.64	52.737
393.99	54.561
394.35	54.848
394.71	54.491
395.07	55.868
395.42	53.341
395.78	55.393
396.14	55.437
396.50	55.048
396.85	54.621
397.21	55.266
397.57	55.713
397.92	55.155
398.28	55.242
398.64	55.549
399.00	54.398
399.35	54.974
399.71	55.109
400.07	55.474
400.42	55.471
400.78	55.382
401.14	55.208
401.49	55.998
401.85	56.105
402.21	56.431
402.57	56.573
402.92	55.792
403.28	54.977
403.63	55.072
403.99	56.116
404.35	54.918
404.70	55.411
405.06	55.761
405.42	54.567
405.77	56.489
406.13	55.484
406.49	55.800
406.84	55.346
407.20	54.667
407.55	55.300
407.91	55.688
408.27	54.299
408.62	56.079
408.98	54.614
409.34	55.249
409.69	56.737
410.05	55.510
410.40	56.032
410.76	56.197
411.11	56.341
411.47	55.897
411.83	56.085
412.18	56.325
412.54	55.661
412.89	55.763
413.25	55.982
413.60	55.485
413.96	56.818
414.31	55.524
414.67	56.291
415.03	55.385
415.38	56.683
415.74	56.323
416.09	56.385
416.45	56.043
416.80	55.263
417.16	58.238
417.51	57.410
417.87	57.633
418.22	57.305
418.58	56.691
418.93	58.615
419.29	57.337
419.64	57.743
420.00	57.211
420.35	57.440
420.71	57.783
421.06	57.792
421.42	58.142
421.77	57.781
422.12	57.770
422.48	58.935
422.83	59.419
423.19	59.416
423.54	59.292
423.90	57.869
424.25	60.960
424.61	59.300
424.96	58.265
425.31	59.607
425.67	59.420
426.02	60.487
426.38	59.874
426.73	59.487
427.09	61.822
427.44	59.858
427.79	60.475
428.15	60.674
428.50	61.573
428.85	61.424
429.21	62.819
429.56	61.797
429.92	61.032
430.27	62.217
430.62	62.433
430.98	63.256
431.33	61.388
431.68	62.452
432.04	62.671
432.39	62.721
432.74	63.242
433.10	63.223
433.45	61.817
433.80	61.856
434.16	63.946
434.51	64.132
434.86	65.309
435.22	65.994
435.57	64.446
435.92	65.331
436.28	64.676
436.63	66.466
436.98	64.949
437.34	64.543
437.69	64.447
438.04	64.728
438.39	65.422
438.75	64.859
439.10	65.592
439.45	64.841
439.81	65.763
440.16	65.255
440.51	65.385
440.86	64.647
441.22	65.702
441.57	67.453
441.92	65.761
442.27	67.576
442.63	65.425
442.98	66.222
443.33	65.492
443.68	67.493
444.03	67.827
444.39	66.343
444.74	66.820
445.09	67.410
445.44	67.861
445.79	67.577
446.15	66.804
446.50	66.718
446.85	67.704
447.20	66.876
447.55	67.992
447.91	68.796
448.26	67.759
448.61	67.428
448.96	68.616
449.31	67.709
449.66	68.192
450.02	67.563
450.37	68.514
450.72	68.784
451.07	67.369
451.42	68.977
451.77	67.204
452.12	69.752
452.47	67.974
452.83	69.257
453.18	68.651
453.53	67.835
453.88	67.863
454.23	68.701
454.58	70.575
454.93	68.689
455.28	69.296
455.63	68.732
455.98	69.553
456.34	68.669
456.69	68.548
457.04	70.331
457.39	69.900
457.74	70.022
458.09	70.071
458.44	69.504
458.79	68.953
459.14	69.061
459.49	69.892
459.84	70.567
460.19	68.018
460.54	70.074
460.89	70.513
461.24	70.517
461.59	70.227
461.94	67.941
462.29	70.493
462.64	68.497
462.99	69.429
463.34	69.630
463.69	69.285
464.04	71.206
464.39	69.507
464.74	69.441
465.09	70.127
465.44	70.172
465.79	69.487
466.14	68.734
466.49	69.737
466.84	71.515
467.19	70.289
467.54	69.095
467.89	70.345
468.24	69.695
468.59	69.311
468.94	69.580
469.29	70.066
469.64	69.358
469.99	71.574
470.34	69.431
470.68	72.386
471.03	71.644
471.38	70.831
471.73	71.001
472.08	71.447
472.43	72.065
472.78	71.033
473.13	71.302
473.48	71.360
473.83	70.400
474.17	71.102
474.52	71.076
474.87	69.712
475.22	69.972
475.57	70.665
475.92	69.836
476.27	70.181
476.61	69.938
476.96	70.386
477.31	71.040
477.66	70.829
478.01	71.225
478.36	69.541
478.70	71.084
479.05	72.648
479.40	71.422
479.75	71.422
480.10	70.346
480.45	70.784
480.79	70.522
481.14	71.048
481.49	71.286
481.84	70.888
482.19	72.129
482.53	71.141
482.88	71.245
483.23	70.431
483.58	70.524
483.92	69.814
484.27	70.195
484.62	70.008
484.97	69.712
485.31	68.321
485.66	66.325
486.01	65.245
486.36	67.932
486.70	70.520
487.05	71.890
487.40	70.072
487.75	68.092
488.09	68.780
488.44	68.095
488.79	68.769
489.13	68.284
489.48	69.320
489.83	68.692
490.17	70.028
490.52	69.828
490.87	69.205
491.22	71.317
491.56	69.369
491.91	70.345
492.26	69.364
492.60	71.185
492.95	69.987
493.30	70.282
493.64	71.967
493.99	70.395
494.34	69.904
494.68	70.150
495.03	70.749
495.37	70.972
495.72	69.796
496.07	70.684
496.41	69.841
496.76	70.892
497.11	71.592
497.45	71.990
497.80	70.280
498.14	70.658
498.49	70.267
498.84	71.892
499.18	71.300
499.53	70.897
499.87	70.681
500.22	71.282
500.56	70.760
500.91	71.533
501.26	72.000
501.60	70.614
501.95	70.473
502.29	70.470
502.64	71.753
502.98	69.629
503.33	70.324
503.67	69.996
504.02	69.571
504.36	71.090
504.71	72.164
505.06	69.804
505.40	71.389
505.75	70.719
506.09	70.120
506.44	72.331
506.78	71.055
507.13	71.000
507.47	71.104
507.82	72.064
508.16	72.084
508.51	71.871
508.85	71.705
509.19	72.572
509.54	71.758
509.88	71.734
510.23	72.705
510.57	71.919
510.92	71.795
511.26	71.573
511.61	70.449
511.95	73.011
512.30	73.166
512.64	71.864
512.98	71.336
513.33	72.883
513.67	72.871
514.02	73.071
514.36	72.788
514.70	73.698
515.05	74.870
515.39	72.546
515.74	73.065
516.08	73.111
516.42	74.568
516.77	73.712
517.11	72.047
517.46	73.489
517.80	73.811
518.14	73.885
518.49	73.373
518.83	72.751
519.17	73.775
519.52	72.379
519.86	72.070
520.20	73.642
520.55	73.165
520.89	73.029
521.23	72.697
521.58	73.390
521.92	73.541
522.26	73.196
522.61	75.231
522.95	74.221
523.29	74.080
523.64	74.271
523.98	74.558
524.32	75.874
524.66	74.104
525.01	73.613
525.35	73.866
525.69	73.318
526.04	72.445
526.38	74.425
526.72	73.068
527.06	73.959
527.41	72.828
527.75	74.406
528.09	74.675
528.43	73.712
528.78	72.832
529.12	73.567
529.46	72.344
529.80	73.799
530.15	73.971
530.49	74.259
530.83	74.026
531.17	72.640
531.51	74.609
531.86	74.339
532.20	74.939
532.54	72.711
532.88	73.212
533.22	73.129
533.57	72.014
533.91	71.773
534.25	72.583
534.59	71.264
534.93	72.326
535.27	72.845
535.62	73.962
535.96	72.574
536.30	73.561
536.64	72.553
536.98	73.247
537.32	72.901
537.66	73.238
538.01	71.964
538.35	72.473
538.69	72.296
539.03	73.452
539.37	72.261
539.71	72.733
540.05	71.283
540.39	72.922
540.73	72.192
541.07	72.410
541.42	71.707
541.76	72.420
542.10	72.256
542.44	71.559
542.78	71.959
543.12	70.501
543.46	71.917
543.80	70.803
544.14	72.412
544.48	71.690
544.82	72.890
545.16	71.616
545.50	71.660
545.84	71.219
546.18	73.272
546.52	71.146
546.86	71.635
547.20	71.819
547.54	71.973
547.88	71.609
548.22	70.702
548.56	71.738
548.90	72.478
549.24	71.489
549.58	71.104
549.92	72.130
550.26	72.557
550.60	71.219
550.94	71.604
551.28	72.013
551.62	72.709
551.96	71.715
552.30	72.913
552.64	72.309
552.98	72.614
553.32	74.534
553.66	71.447
554.00	71.879
554.34	72.523
554.68	70.884
555.02	72.339
555.36	72.715
555.69	71.044
556.03	71.059
556.37	70.839
556.71	71.592
557.05	71.310
557.39	71.400
557.73	71.797
558.07	71.854
558.41	72.226
558.75	72.279
559.08	73.556
559.42	71.811
559.76	71.235
560.10	71.735
560.44	72.955
560.78	72.875
561.12	73.153
561.45	72.810
561.79	71.856
562.13	71.842
562.47	69.914
562.81	71.899
563.15	70.391
563.48	71.908
563.82	70.556
564.16	70.866
564.50	69.249
564.84	70.206
565.17	70.882
565.51	68.930
565.85	71.615
566.19	69.988
566.52	73.259
566.86	71.251
567.20	69.005
567.54	69.888
567.88	71.407
568.21	70.553
568.55	69.065
568.89	69.224
569.23	68.441
569.56	68.230
569.90	68.033
570.24	68.196
570.57	66.902
570.91	67.330
571.25	66.358
571.59	66.797
571.92	66.045
572.26	66.543
572.60	66.667
572.93	65.767
573.27	65.608
573.61	65.008
573.95	64.312
574.28	64.915
574.62	65.530
574.96	64.380
575.29	64.089
575.63	64.611
575.97	64.910
576.30	64.125
576.64	64.018
576.98	64.191
577.31	64.849
577.65	64.693
577.98	64.759
578.32	63.872
578.66	63.475
578.99	64.039
579.33	64.117
579.67	63.441
580.00	63.273
580.34	63.809
580.67	62.974
581.01	64.042
581.35	63.647
581.68	63.194
582.02	63.860
582.35	64.173
582.69	64.677
583.02	64.605
583.36	64.428
583.70	63.667
584.03	63.619
584.37	64.330
584.70	62.763
585.04	62.916
585.37	63.522
585.71	63.646
586.04	63.474
586.38	64.044
586.72	63.650
587.05	65.183
587.39	64.597
587.72	65.144
588.06	64.845
588.39	64.078
588.73	64.444
589.06	65.124
589.40	65.980
589.73	64.557
590.07	65.816
590.40	65.855
590.73	66.066
591.07	66.530
591.40	65.202
591.74	65.938
592.07	66.585
592.41	65.852
592.74	65.708
593.08	65.414
593.41	66.958
593.75	65.345
594.08	66.707
594.41	65.801
594.75	65.327
595.08	66.050
595.42	66.396
595.75	65.386
596.09	65.842
596.42	65.711
596.75	66.499
597.09	65.657
597.42	65.435
597.75	65.269
598.09	66.071
598.42	66.506
598.76	65.380
599.09	65.575
599.42	64.331
599.76	65.038
600.09	65.465
600.42	65.465
600.76	65.357
601.09	64.587
601.42	64.367
601.76	65.241
602.09	64.939
602.42	64.268
602.76	65.904
603.09	65.198
603.42	66.944
603.76	65.574
604.09	66.359
604.42	65.248
604.76	64.574
605.09	64.978
605.42	65.311
605.75	65.385
606.09	64.502
606.42	63.517
606.75	64.618
607.09	65.015
607.42	65.318
607.75	64.830
608.08	65.075
608.42	64.006
608.75	64.635
609.08	65.323
609.41	65.549
609.75	65.759
610.08	66.623
610.41	64.911
610.74	64.874
611.07	65.409
611.41	65.830
611.74	66.651
612.07	66.433
612.40	66.302
612.73	67.286
613.07	66.259
613.40	66.651
613.73	66.105
614.06	65.996
614.39	65.258
614.72	65.405
615.06	65.881
615.39	65.152
615.72	66.161
616.05	65.857
616.38	66.044
616.71	65.204
617.05	64.803
617.38	65.383
617.71	66.145
618.04	66.379
618.37	67.541
618.70	68.213
619.03	68.041
619.36	66.584
619.69	68.225
620.03	67.043
620.36	67.117
620.69	68.106
621.02	66.798
621.35	71.118
621.68	68.908
622.01	67.829
622.34	68.759
622.67	67.423
623.00	66.802
623.33	69.144
623.66	67.834
623.99	66.886
624.32	67.316
624.65	68.018
624.99	68.791
625.32	68.191
625.65	68.847
625.98	66.915
626.31	69.242
626.64	68.571
626.97	69.017
627.30	67.578
627.63	67.592
627.96	68.544
628.29	68.405
628.62	68.682
628.95	70.289
629.28	69.839
629.61	70.202
629.94	70.293
630.26	70.424
630.59	69.862
630.92	69.870
631.25	69.499
631.58	69.962
631.91	71.884
632.24	72.719
632.57	71.157
632.90	72.116
633.23	71.327
633.56	69.592
