SpectraSuite Data File
++++++++++++++++++++++++++++++++++++
Date: Thu May 14 14:54:52 PDT 2015
User: schluterlab
Dark Spectrum Present: Yes
Reference Spectrum Present: Yes
Number of Sampled Component Spectra: 1
Spectrometers: USB2E3373
Integration Time (usec): 3000 (USB2E3373)
Spectra Averaged: 3 (USB2E3373)
Boxcar Smoothing: 0 (USB2E3373)
Correct for Electrical Dark: No (USB2E3373)
Strobe/Lamp Enabled: No (USB2E3373)
Correct for Detector Non-linearity: No (USB2E3373)
Correct for Stray Light: No (USB2E3373)
Number of Pixels in Processed Spectrum: 2048
>>>>>Begin Processed Spectral Data<<<<<
178.53	0.000
178.91	242.857
179.29	-2800.000
179.67	-1600.000
180.04	171.429
180.42	150.000
180.80	240.000
181.18	-1700.000
181.56	-2000.000
181.94	375.000
182.31	-375.000
182.69	633.333
183.07	-650.000
183.45	300.000
183.83	-300.000
184.20	-433.333
184.58	1000.000
184.96	-350.000
185.34	-155.556
185.72	-260.000
186.09	300.000
186.47	850.000
186.85	360.000
187.23	-111.111
187.61	-2400.000
187.98	240.000
188.36	375.000
188.74	-575.000
189.12	-166.667
189.49	-62.500
189.87	-200.000
190.25	-88.889
190.63	-160.000
191.00	-233.333
191.38	0.000
191.76	-450.000
192.14	-200.000
192.51	500.000
192.89	-266.667
193.27	0.000
193.65	-85.714
194.02	-2100.000
194.40	-128.571
194.78	342.857
195.15	0.000
195.53	-90.909
195.91	0.000
196.29	-275.000
196.66	-69.231
197.04	-2400.000
197.42	-200.000
197.79	-200.000
198.17	-225.000
198.55	-214.286
198.92	-100.000
199.30	-187.500
199.68	-72.727
200.05	-71.429
200.43	-1000.000
200.81	328.571
201.18	0.000
201.56	311.111
201.94	0.000
202.31	433.333
202.69	-188.889
203.07	1200.000
203.44	-144.444
203.82	-575.000
204.19	-91.667
204.57	-350.000
204.95	-150.000
205.32	-2200.000
205.70	250.000
206.08	-166.667
206.45	-250.000
206.83	640.000
207.20	-216.667
207.58	-360.000
207.96	-450.000
208.33	-183.333
208.71	116.667
209.08	-133.333
209.46	0.000
209.84	466.667
210.21	750.000
210.59	550.000
210.96	566.667
211.34	-75.000
211.71	-162.500
212.09	-1800.000
212.46	0.000
212.84	1150.000
213.22	-540.000
213.59	-350.000
213.97	-120.000
214.34	-500.000
214.72	400.000
215.09	-200.000
215.47	0.000
215.84	314.286
216.22	1100.000
216.59	-420.000
216.97	-320.000
217.34	-525.000
217.72	-112.500
218.09	-400.000
218.47	-275.000
218.84	0.000
219.22	220.000
219.59	-64.706
219.97	-70.000
220.34	1000.000
220.72	-222.222
221.09	-69.231
221.47	-533.333
221.84	-140.000
222.22	-428.571
222.59	0.000
222.97	-175.000
223.34	-440.000
223.72	-1100.000
224.09	-250.000
224.46	-225.000
224.84	-260.000
225.21	-257.143
225.59	-525.000
225.96	-300.000
226.34	-26.923
226.71	366.667
227.08	-500.000
227.46	-46.667
227.83	-475.000
228.21	-36.842
228.58	237.500
228.95	1350.000
229.33	-83.333
229.70	-120.000
230.08	-26.316
230.45	180.000
230.82	-533.333
231.20	-64.286
231.57	-41.667
231.95	-154.545
232.32	-109.091
232.69	-45.000
233.07	-225.000
233.44	-58.824
233.81	-150.000
234.19	-38.889
234.56	-63.636
234.93	-24.138
235.31	-89.474
235.68	-88.889
236.05	-115.000
236.43	-11.538
236.80	0.000
237.17	-48.148
237.55	-51.515
237.92	-170.000
238.29	-35.484
238.67	-29.545
239.04	-41.667
239.41	-38.095
239.79	-43.478
240.16	-18.519
240.53	-19.565
240.91	-27.451
241.28	-24.590
241.65	-14.925
242.02	-6.757
242.40	-24.615
242.77	-18.667
243.14	-20.732
243.51	-19.737
243.89	-30.769
244.26	-13.861
244.63	-3.922
245.00	-6.542
245.38	-16.667
245.75	-21.239
246.12	-7.143
246.49	-10.078
246.87	-8.571
247.24	-6.623
247.61	-1.974
247.98	-5.369
248.36	-9.877
248.73	-6.748
249.10	0.000
249.47	1.493
249.84	-2.094
250.22	-4.663
250.59	-9.444
250.96	-1.364
251.33	-7.653
251.70	-6.410
252.08	-2.917
252.45	-1.639
252.82	-4.545
253.19	-5.078
253.56	-1.901
253.94	-4.615
254.31	-2.652
254.68	-2.797
255.05	0.651
255.42	-5.102
255.79	-3.883
256.16	-6.954
256.54	-4.305
256.91	-2.623
257.28	-4.262
257.65	-5.414
258.02	-6.490
258.39	0.000
258.76	-1.223
259.14	-0.862
259.51	-1.441
259.88	-3.116
260.25	-3.333
260.62	-1.370
260.99	1.093
261.36	-0.268
261.73	-3.183
262.10	-4.945
262.47	-1.877
262.85	1.010
263.22	-4.416
263.59	-3.947
263.96	-0.767
264.33	-3.581
264.70	0.494
265.07	-0.239
265.44	1.587
265.81	-1.620
266.18	-0.227
266.55	-1.786
266.92	-5.695
267.29	-0.219
267.66	-2.217
268.03	-1.747
268.40	-1.879
268.77	-3.189
269.14	-1.762
269.51	-1.974
269.88	0.000
270.25	0.805
270.62	-1.477
270.99	0.404
271.36	1.782
271.73	-1.572
272.10	-1.603
272.47	-3.006
272.84	-4.016
273.21	-1.202
273.58	0.000
273.95	-3.077
274.32	-2.281
274.69	-2.321
275.06	-0.549
275.43	-1.294
275.80	1.940
276.17	-1.852
276.54	-1.119
276.91	-2.326
277.28	-0.542
277.65	0.898
278.02	-1.103
278.39	-2.717
278.76	-3.691
279.13	-1.418
279.50	-0.859
279.87	-0.537
280.23	-3.169
280.60	-0.169
280.97	0.987
281.34	-0.509
281.71	1.015
282.08	0.000
282.45	-2.782
282.82	-1.099
283.19	-3.069
283.56	-3.115
283.92	0.450
284.29	-0.474
284.66	-0.328
285.03	-1.282
285.40	-0.464
285.77	-2.012
286.14	-0.305
286.51	-0.304
286.87	0.000
287.24	-0.904
287.61	-0.448
287.98	-1.057
288.35	-0.740
288.72	-1.183
289.08	1.171
289.45	0.000
289.82	-1.054
290.19	-1.149
290.56	-0.282
290.93	-1.284
291.29	-0.826
291.66	-1.102
292.03	-2.307
292.40	1.361
292.77	-0.809
293.13	0.271
293.50	-0.657
293.87	-0.671
294.24	-0.267
294.60	-0.506
294.97	-2.282
295.34	0.768
295.71	-1.387
296.08	-1.550
296.44	-0.368
296.81	-0.244
297.18	-1.370
297.55	-0.708
297.91	-0.356
298.28	-0.711
298.65	-0.476
299.02	-1.417
299.38	0.343
299.75	0.234
300.12	-0.463
300.48	-0.806
300.85	-0.562
301.22	1.342
301.59	-0.342
301.95	-0.678
302.32	1.000
302.69	-0.219
303.05	-0.544
303.42	-0.554
303.79	-0.208
304.15	0.736
304.52	-0.740
304.89	0.524
305.25	-0.311
305.62	-0.836
305.99	-0.103
306.35	0.101
306.72	0.724
307.09	-0.406
307.45	-0.414
307.82	0.101
308.19	0.404
308.55	0.964
308.92	-0.487
309.29	-0.575
309.65	-0.390
310.02	-0.099
310.38	0.295
310.75	0.097
311.12	1.534
311.48	-0.196
311.85	-0.475
312.22	0.190
312.58	0.751
312.95	0.382
313.31	1.897
313.68	0.641
314.05	1.897
314.41	1.730
314.78	0.817
315.14	1.724
315.51	1.847
315.87	2.160
316.24	2.009
316.61	2.309
316.97	1.267
317.34	1.323
317.70	1.834
318.07	1.940
318.43	2.721
318.80	3.763
319.16	1.888
319.53	2.485
319.89	2.454
320.26	3.292
320.62	2.128
320.99	2.770
321.35	2.495
321.72	3.349
322.08	3.156
322.45	3.252
322.81	3.610
323.18	3.894
323.54	3.621
323.91	3.648
324.27	2.754
324.64	4.450
325.00	3.317
325.37	3.849
325.73	4.711
326.10	4.785
326.46	5.049
326.83	5.685
327.19	4.409
327.56	6.245
327.92	4.485
328.29	5.806
328.65	4.690
329.01	3.807
329.38	5.644
329.74	6.592
330.11	6.764
330.47	5.813
330.84	4.996
331.20	6.750
331.56	5.373
331.93	6.695
332.29	5.339
332.66	5.814
333.02	6.533
333.38	4.866
333.75	6.229
334.11	5.755
334.48	7.096
334.84	5.947
335.20	6.969
335.57	6.155
335.93	7.273
336.29	5.491
336.66	6.224
337.02	6.689
337.38	6.718
337.75	6.446
338.11	7.317
338.47	7.279
338.84	6.261
339.20	6.318
339.56	5.437
339.93	6.568
340.29	6.683
340.65	7.218
341.02	7.183
341.38	6.710
341.74	6.376
342.11	7.562
342.47	5.719
342.83	6.924
343.20	6.378
343.56	7.618
343.92	7.606
344.28	6.719
344.65	7.054
345.01	6.240
345.37	6.610
345.73	6.625
346.10	7.176
346.46	6.329
346.82	7.416
347.19	6.875
347.55	7.739
347.91	6.909
348.27	6.904
348.63	7.388
349.00	6.637
349.36	6.766
349.72	7.143
350.08	7.801
350.45	7.376
350.81	6.033
351.17	7.293
351.53	7.809
351.89	6.986
352.26	7.612
352.62	6.866
352.98	6.336
353.34	6.423
353.70	7.242
354.07	8.197
354.43	7.289
354.79	6.582
355.15	7.285
355.51	7.237
355.87	7.180
356.24	7.833
356.60	6.800
356.96	7.265
357.32	6.989
357.68	6.808
358.04	6.138
358.40	6.791
358.77	7.895
359.13	6.499
359.49	6.097
359.85	7.469
360.21	7.819
360.57	6.389
360.93	6.770
361.29	7.368
361.66	7.386
362.02	8.699
362.38	8.011
362.74	7.263
363.10	7.772
363.46	5.956
363.82	7.244
364.18	7.389
364.54	7.884
364.90	7.090
365.26	7.172
365.62	8.600
365.98	7.556
366.35	7.919
366.71	7.415
367.07	7.713
367.43	7.748
367.79	8.162
368.15	8.094
368.51	7.916
368.87	8.426
369.23	7.667
369.59	8.128
369.95	8.114
370.31	8.238
370.67	7.703
371.03	8.033
371.39	7.723
371.75	7.634
372.11	8.130
372.47	7.244
372.83	8.639
373.19	7.738
373.55	7.995
373.91	8.112
374.27	7.891
374.63	8.322
374.99	8.024
375.35	8.766
375.71	8.452
376.07	8.780
376.42	9.257
376.78	9.074
377.14	9.295
377.50	9.298
377.86	8.621
378.22	9.222
378.58	9.691
378.94	8.392
379.30	8.905
379.66	9.289
380.02	8.944
380.38	8.698
380.74	9.352
381.09	9.233
381.45	9.943
381.81	10.187
382.17	9.917
382.53	9.532
382.89	10.045
383.25	9.906
383.61	9.144
383.97	10.130
384.32	9.689
384.68	9.223
385.04	9.485
385.40	10.843
385.76	10.082
386.12	9.934
386.48	9.882
386.83	9.774
387.19	10.255
387.55	10.094
387.91	10.046
388.27	10.566
388.62	10.653
388.98	10.886
389.34	10.489
389.70	10.110
390.06	10.302
390.42	10.482
390.77	10.596
391.13	10.857
391.49	10.447
391.85	10.182
392.20	10.439
392.56	11.754
392.92	10.523
393.28	10.835
393.64	10.112
393.99	10.924
394.35	10.514
394.71	10.958
395.07	10.778
395.42	11.079
395.78	11.639
396.14	11.230
396.50	10.808
396.85	10.733
397.21	10.592
397.57	12.132
397.92	11.283
398.28	11.244
398.64	10.355
399.00	11.414
399.35	10.576
399.71	10.870
400.07	10.668
400.42	11.583
400.78	10.764
401.14	11.668
401.49	10.460
401.85	10.581
402.21	11.587
402.57	10.915
402.92	11.229
403.28	10.714
403.63	10.800
403.99	11.045
404.35	11.370
404.70	10.878
405.06	11.250
405.42	10.773
405.77	11.178
406.13	10.697
406.49	11.655
406.84	11.634
407.20	11.235
407.55	10.963
407.91	11.502
408.27	11.896
408.62	11.402
408.98	11.143
409.34	10.323
409.69	11.619
410.05	12.485
410.40	11.427
410.76	11.329
411.11	11.864
411.47	11.548
411.83	11.993
412.18	11.325
412.54	11.203
412.89	12.224
413.25	11.512
413.60	11.947
413.96	11.247
414.31	11.218
414.67	12.045
415.03	12.185
415.38	11.160
415.74	11.668
416.09	11.721
416.45	12.085
416.80	11.261
417.16	11.175
417.51	11.146
417.87	11.956
418.22	11.437
418.58	11.710
418.93	13.097
419.29	11.282
419.64	11.345
420.00	11.157
420.35	11.510
420.71	10.741
421.06	11.098
421.42	12.271
421.77	10.555
422.12	12.156
422.48	11.572
422.83	12.486
423.19	11.459
423.54	11.726
423.90	11.320
424.25	11.947
424.61	10.276
424.96	12.081
425.31	12.633
425.67	12.131
426.02	11.843
426.38	11.596
426.73	11.384
427.09	12.918
427.44	12.343
427.79	11.553
428.15	10.845
428.50	12.303
428.85	11.883
429.21	13.191
429.56	12.192
429.92	12.432
430.27	12.337
430.62	12.555
430.98	12.395
431.33	11.828
431.68	12.117
432.04	11.833
432.39	12.051
432.74	12.272
433.10	12.385
433.45	11.371
433.80	12.607
434.16	12.707
434.51	12.744
434.86	12.649
435.22	12.859
435.57	12.382
435.92	12.855
436.28	12.116
436.63	12.125
436.98	11.702
437.34	12.796
437.69	12.603
438.04	12.374
438.39	12.579
438.75	11.621
439.10	13.002
439.45	13.248
439.81	12.768
440.16	12.547
440.51	12.375
440.86	12.563
441.22	12.540
441.57	12.317
441.92	13.191
442.27	13.182
442.63	12.866
442.98	12.540
443.33	13.204
443.68	13.330
444.03	13.452
444.39	13.407
444.74	13.425
445.09	12.823
445.44	13.277
445.79	13.266
446.15	13.104
446.50	12.661
446.85	13.862
447.20	13.008
447.55	13.285
447.91	12.723
448.26	13.055
448.61	12.965
448.96	13.841
449.31	12.619
449.66	12.963
450.02	13.555
450.37	13.426
450.72	12.648
451.07	13.326
451.42	12.363
451.77	12.840
452.12	13.431
452.47	13.012
452.83	13.232
453.18	13.076
453.53	12.866
453.88	12.811
454.23	12.938
454.58	12.826
454.93	12.075
455.28	12.523
455.63	12.791
455.98	13.184
456.34	13.133
456.69	12.992
457.04	12.884
457.39	13.137
457.74	12.975
458.09	12.795
458.44	13.308
458.79	13.203
459.14	12.795
459.49	12.903
459.84	13.484
460.19	13.048
460.54	13.629
460.89	13.393
461.24	12.586
461.59	14.333
461.94	12.721
462.29	13.326
462.64	13.096
462.99	13.308
463.34	12.654
463.69	13.834
464.04	13.285
464.39	13.677
464.74	12.771
465.09	13.264
465.44	13.680
465.79	13.273
466.14	13.757
466.49	14.263
466.84	13.719
467.19	13.410
467.54	12.515
467.89	12.816
468.24	12.798
468.59	11.986
468.94	13.520
469.29	13.077
469.64	13.541
469.99	12.620
470.34	12.933
470.68	12.782
471.03	13.556
471.38	12.492
471.73	12.744
472.08	12.246
472.43	14.028
472.78	13.665
473.13	12.453
473.48	12.508
473.83	13.233
474.17	13.423
474.52	13.229
474.87	12.680
475.22	13.690
475.57	13.292
475.92	13.390
476.27	13.525
476.61	12.773
476.96	12.982
477.31	13.020
477.66	14.008
478.01	13.371
478.36	13.310
478.70	13.202
479.05	14.059
479.40	12.981
479.75	13.785
480.10	13.690
480.45	13.263
480.79	13.560
481.14	13.235
481.49	12.631
481.84	13.621
482.19	13.376
482.53	13.686
482.88	13.912
483.23	13.428
483.58	13.450
483.92	12.456
484.27	13.633
484.62	13.779
484.97	13.764
485.31	12.918
485.66	12.557
486.01	12.872
486.36	13.409
486.70	14.724
487.05	14.560
487.40	14.279
487.75	14.224
488.09	14.117
488.44	13.718
488.79	13.491
489.13	12.962
489.48	13.126
489.83	13.159
490.17	12.920
490.52	12.890
490.87	13.240
491.22	13.562
491.56	13.951
491.91	13.214
492.26	13.154
492.60	13.249
492.95	13.471
493.30	13.043
493.64	13.141
493.99	12.851
494.34	12.936
494.68	13.319
495.03	13.216
495.37	13.582
495.72	13.696
496.07	13.365
496.41	12.870
496.76	13.178
497.11	12.696
497.45	13.552
497.80	13.861
498.14	13.061
498.49	12.960
498.84	13.665
499.18	13.360
499.53	13.274
499.87	13.626
500.22	13.179
500.56	12.955
500.91	13.181
501.26	13.773
501.60	12.771
501.95	13.982
502.29	12.813
502.64	12.943
502.98	13.589
503.33	13.045
503.67	12.952
504.02	13.573
504.36	13.807
504.71	13.229
505.06	13.324
505.40	13.026
505.75	13.616
506.09	13.029
506.44	13.788
506.78	13.486
507.13	13.601
507.47	13.359
507.82	13.163
508.16	13.862
508.51	13.643
508.85	12.848
509.19	13.264
509.54	13.305
509.88	12.676
510.23	13.842
510.57	14.065
510.92	12.966
511.26	13.709
511.61	13.230
511.95	13.324
512.30	13.294
512.64	12.944
512.98	13.607
513.33	14.012
513.67	13.666
514.02	13.132
514.36	13.760
514.70	13.906
515.05	13.712
515.39	13.281
515.74	13.998
516.08	12.731
516.42	13.919
516.77	13.249
517.11	13.357
517.46	13.097
517.80	13.843
518.14	13.493
518.49	13.991
518.83	13.092
519.17	13.247
519.52	14.256
519.86	14.150
520.20	13.419
520.55	13.636
520.89	13.514
521.23	13.400
521.58	13.107
521.92	13.881
522.26	13.058
522.61	13.542
522.95	13.437
523.29	13.161
523.64	13.621
523.98	13.634
524.32	14.097
524.66	13.887
525.01	13.703
525.35	13.728
525.69	13.225
526.04	13.203
526.38	13.563
526.72	13.610
527.06	13.431
527.41	13.761
527.75	13.420
528.09	14.050
528.43	13.203
528.78	12.948
529.12	13.188
529.46	12.872
529.80	13.101
530.15	13.507
530.49	14.057
530.83	13.105
531.17	13.142
531.51	13.718
531.86	14.363
532.20	14.146
532.54	12.687
532.88	13.152
533.22	13.848
533.57	14.484
533.91	13.749
534.25	14.019
534.59	13.966
534.93	13.413
535.27	13.690
535.62	14.838
535.96	14.003
536.30	13.514
536.64	14.054
536.98	13.961
537.32	13.889
537.66	13.100
538.01	13.051
538.35	12.850
538.69	12.740
539.03	14.163
539.37	14.016
539.71	14.114
540.05	13.669
540.39	13.386
540.73	13.054
541.07	13.918
541.42	13.940
541.76	13.167
542.10	13.329
542.44	12.911
542.78	14.234
543.12	13.349
543.46	12.882
543.80	12.050
544.14	13.046
544.48	13.889
544.82	14.363
545.16	13.655
545.50	14.500
545.84	13.472
546.18	14.568
546.52	13.439
546.86	13.145
547.20	13.677
547.54	12.859
547.88	14.045
548.22	13.158
548.56	13.517
548.90	13.672
549.24	13.799
549.58	14.006
549.92	13.520
550.26	14.110
550.60	14.040
550.94	13.454
551.28	12.871
551.62	14.353
551.96	13.074
552.30	14.595
552.64	13.939
552.98	13.350
553.32	14.341
553.66	13.248
554.00	14.313
554.34	13.449
554.68	13.557
555.02	13.666
555.36	13.346
555.69	12.492
556.03	12.863
556.37	13.454
556.71	13.951
557.05	14.185
557.39	14.001
557.73	13.012
558.07	13.576
558.41	14.020
558.75	13.725
559.08	13.431
559.42	13.237
559.76	13.365
560.10	12.726
560.44	13.456
560.78	13.250
561.12	13.608
561.45	13.260
561.79	13.675
562.13	13.678
562.47	12.700
562.81	13.924
563.15	13.384
563.48	13.424
563.82	13.543
564.16	13.083
564.50	13.588
564.84	12.802
565.17	13.824
565.51	13.119
565.85	13.480
566.19	13.940
566.52	12.815
566.86	12.960
567.20	12.398
567.54	13.383
567.88	13.710
568.21	14.032
568.55	14.053
568.89	14.253
569.23	14.195
569.56	13.091
569.90	13.863
570.24	13.862
570.57	13.470
570.91	13.748
571.25	13.653
571.59	13.944
571.92	13.993
572.26	13.684
572.60	13.650
572.93	13.832
573.27	13.824
573.61	13.737
573.95	13.717
574.28	13.712
574.62	13.392
574.96	13.255
575.29	13.241
575.63	13.860
575.97	13.940
576.30	13.842
576.64	13.577
576.98	13.690
577.31	13.754
577.65	13.970
577.98	13.893
578.32	14.028
578.66	13.777
578.99	13.516
579.33	13.895
579.67	13.690
580.00	13.621
580.34	13.547
580.67	13.394
581.01	13.739
581.35	13.832
581.68	13.789
582.02	13.502
582.35	13.713
582.69	14.112
583.02	13.960
583.36	13.945
583.70	13.792
584.03	13.799
584.37	13.676
584.70	13.350
585.04	13.625
585.37	13.610
585.71	13.657
586.04	13.650
586.38	13.649
586.72	13.587
587.05	13.610
587.39	13.987
587.72	13.756
588.06	13.322
588.39	13.617
588.73	13.228
589.06	13.939
589.40	13.553
589.73	13.335
590.07	13.760
590.40	13.421
590.73	13.856
591.07	13.775
591.40	13.064
591.74	13.593
592.07	14.007
592.41	13.131
592.74	13.170
593.08	13.567
593.41	13.619
593.75	13.621
594.08	13.844
594.41	14.071
594.75	13.783
595.08	13.257
595.42	13.766
595.75	13.949
596.09	13.589
596.42	13.938
596.75	13.856
597.09	13.616
597.42	13.190
597.75	13.524
598.09	13.889
598.42	14.154
598.76	13.183
599.09	13.670
599.42	13.745
599.76	13.272
600.09	13.780
600.42	13.547
600.76	13.738
601.09	14.006
601.42	13.697
601.76	13.828
602.09	13.045
602.42	13.232
602.76	13.321
603.09	14.023
603.42	13.837
603.76	13.566
604.09	13.946
604.42	13.872
604.76	13.242
605.09	13.642
605.42	14.274
605.75	12.962
606.09	13.699
606.42	13.389
606.75	13.456
607.09	12.942
607.42	13.025
607.75	13.873
608.08	13.023
608.42	13.301
608.75	14.096
609.08	12.946
609.41	13.807
609.75	12.946
610.08	13.896
610.41	13.339
610.74	13.403
611.07	12.966
611.41	13.498
611.74	13.672
612.07	13.978
612.40	13.783
612.73	13.741
613.07	13.643
613.40	13.859
613.73	12.903
614.06	13.543
614.39	13.411
614.72	13.343
615.06	13.186
615.39	13.243
615.72	13.602
616.05	13.356
616.38	13.774
616.71	13.375
617.05	13.046
617.38	13.911
617.71	13.715
618.04	13.114
618.37	13.880
618.70	13.631
619.03	12.366
619.36	12.885
619.69	13.004
620.03	13.748
620.36	13.558
620.69	12.955
621.02	13.648
621.35	13.861
621.68	14.100
622.01	13.737
622.34	12.413
622.67	12.646
623.00	12.483
623.33	13.205
623.66	12.970
623.99	13.101
624.32	14.425
624.65	13.256
624.99	13.069
625.32	13.521
625.65	13.823
625.98	13.085
626.31	12.828
626.64	12.894
626.97	13.728
627.30	12.680
627.63	12.528
627.96	14.339
628.29	13.463
628.62	12.846
628.95	13.672
629.28	12.999
629.61	13.300
629.94	12.385
630.26	12.373
630.59	12.090
630.92	12.035
631.25	13.596
631.58	12.900
631.91	12.090
632.24	13.064
632.57	13.567
632.90	12.538
633.23	13.571
633.56	12.347
633.89	12.707
634.22	12.682
634.55	13.674
634.88	12.013
635.20	13.348
635.53	12.881
635.86	12.676
636.19	13.680
