SpectraSuite Data File
++++++++++++++++++++++++++++++++++++
Date: Thu May 14 15:04:14 PDT 2015
User: schluterlab
Dark Spectrum Present: Yes
Reference Spectrum Present: Yes
Number of Sampled Component Spectra: 1
Spectrometers: USB2E3373
Integration Time (usec): 3000 (USB2E3373)
Spectra Averaged: 3 (USB2E3373)
Boxcar Smoothing: 0 (USB2E3373)
Correct for Electrical Dark: No (USB2E3373)
Strobe/Lamp Enabled: No (USB2E3373)
Correct for Detector Non-linearity: No (USB2E3373)
Correct for Stray Light: No (USB2E3373)
Number of Pixels in Processed Spectrum: 2048
>>>>>Begin Processed Spectral Data<<<<<
178.53	0.000
178.91	385.714
179.29	-3800.000
179.67	-2300.000
180.04	278.571
180.42	270.000
180.80	560.000
181.18	-2400.000
181.56	-2100.000
181.94	550.000
182.31	-425.000
182.69	766.667
183.07	-950.000
183.45	725.000
183.83	-416.667
184.20	-666.667
184.58	2400.000
184.96	-700.000
185.34	-222.222
185.72	-300.000
186.09	400.000
186.47	1200.000
186.85	640.000
187.23	-277.778
187.61	-2800.000
187.98	580.000
188.36	725.000
188.74	-650.000
189.12	-500.000
189.49	-106.250
189.87	-387.500
190.25	-366.667
190.63	-340.000
191.00	-333.333
191.38	0.000
191.76	-825.000
192.14	-466.667
192.51	1550.000
192.89	-316.667
193.27	0.000
193.65	-371.429
194.02	-3300.000
194.40	-285.714
194.78	471.429
195.15	0.000
195.53	-109.091
195.91	0.000
196.29	-650.000
196.66	-207.692
197.04	-1700.000
197.42	-400.000
197.79	-1250.000
198.17	-425.000
198.55	-442.857
198.92	-255.556
199.30	-337.500
199.68	-209.091
200.05	-171.429
200.43	-1450.000
200.81	600.000
201.18	0.000
201.56	355.556
201.94	0.000
202.31	900.000
202.69	-322.222
203.07	1900.000
203.44	-266.667
203.82	-700.000
204.19	-191.667
204.57	-466.667
204.95	-375.000
205.32	-2600.000
205.70	650.000
206.08	-266.667
206.45	-416.667
206.83	660.000
207.20	-350.000
207.58	-680.000
207.96	-366.667
208.33	-316.667
208.71	250.000
209.08	-366.667
209.46	0.000
209.84	566.667
210.21	1200.000
210.59	1000.000
210.96	1000.000
211.34	-450.000
211.71	-237.500
212.09	-2100.000
212.46	0.000
212.84	1750.000
213.22	-600.000
213.59	-775.000
213.97	-210.000
214.34	-800.000
214.72	433.333
215.09	-750.000
215.47	0.000
215.84	300.000
216.22	1750.000
216.59	-460.000
216.97	-540.000
217.34	-600.000
217.72	-237.500
218.09	-675.000
218.47	-575.000
218.84	0.000
219.22	520.000
219.59	-76.471
219.97	-130.000
220.34	1600.000
220.72	-333.333
221.09	-107.692
221.47	-633.333
221.84	-210.000
222.22	-357.143
222.59	0.000
222.97	-212.500
223.34	-460.000
223.72	-1600.000
224.09	-750.000
224.46	-650.000
224.84	-340.000
225.21	-442.857
225.59	-750.000
225.96	-675.000
226.34	-73.077
226.71	500.000
227.08	-1450.000
227.46	-140.000
227.83	-675.000
228.21	-73.684
228.58	375.000
228.95	1150.000
229.33	-175.000
229.70	-250.000
230.08	-94.737
230.45	310.000
230.82	-666.667
231.20	-157.143
231.57	-166.667
231.95	-245.455
232.32	-163.636
232.69	-120.000
233.07	-475.000
233.44	-129.412
233.81	-200.000
234.19	-88.889
234.56	-81.818
234.93	-68.966
235.31	-105.263
235.68	-77.778
236.05	-150.000
236.43	-15.385
236.80	-20.000
237.17	-74.074
237.55	-66.667
237.92	-280.000
238.29	-74.194
238.67	-59.091
239.04	-63.889
239.41	-61.905
239.79	-23.913
240.16	-38.889
240.53	-58.696
240.91	-76.471
241.28	-34.426
241.65	-26.866
242.02	-20.270
242.40	-47.692
242.77	-26.667
243.14	-26.829
243.51	-42.105
243.89	-29.487
244.26	-23.762
244.63	-33.333
245.00	-16.822
245.38	-25.439
245.75	-27.434
246.12	-14.286
246.49	-17.829
246.87	-9.286
247.24	-9.934
247.61	-9.868
247.98	-18.792
248.36	-13.580
248.73	-15.337
249.10	-13.115
249.47	-7.960
249.84	-6.806
250.22	-10.881
250.59	-16.667
250.96	-7.727
251.33	-13.265
251.70	-7.265
252.08	-8.333
252.45	-9.836
252.82	-9.504
253.19	-12.109
253.56	-5.703
253.94	-10.000
254.31	-11.364
254.68	-4.196
255.05	-4.560
255.42	-5.782
255.79	-8.414
256.16	-8.940
256.54	-8.278
256.91	-4.918
257.28	-5.246
257.65	-9.554
258.02	-7.375
258.39	-3.704
258.76	-3.364
259.14	-6.034
259.51	-6.628
259.88	-6.799
260.25	-5.556
260.62	-4.110
260.99	-1.366
261.36	-2.413
261.73	-6.631
262.10	-6.868
262.47	-7.239
262.85	-4.545
263.22	-7.273
263.59	-7.895
263.96	-4.092
264.33	-3.836
264.70	-6.420
265.07	-1.671
265.44	-1.134
265.81	-3.472
266.18	-2.721
266.55	-6.250
266.92	-7.745
267.29	-2.845
267.66	-4.435
268.03	-3.712
268.40	-3.758
268.77	-7.289
269.14	-6.167
269.51	-3.070
269.88	-2.869
270.25	-3.823
270.62	-1.688
270.99	0.000
271.36	-0.792
271.73	-3.929
272.10	-3.206
272.47	-5.010
272.84	-2.610
273.21	-4.810
273.58	-3.427
273.95	-3.462
274.32	-6.274
274.69	-4.642
275.06	-2.564
275.43	-5.730
275.80	-2.469
276.17	-4.444
276.54	-3.918
276.91	-3.757
277.28	-2.351
277.65	-2.334
278.02	-2.390
278.39	-3.080
278.76	-3.691
279.13	-1.418
279.50	-1.546
279.87	-2.504
280.23	-5.458
280.60	-4.237
280.97	-1.480
281.34	-4.584
281.71	-3.046
282.08	-2.658
282.45	-4.092
282.82	-2.512
283.19	-4.362
283.56	-3.443
283.92	-0.450
284.29	-1.896
284.66	-3.120
285.03	-4.968
285.40	-1.236
285.77	-4.799
286.14	-1.679
286.51	-2.283
286.87	-3.791
287.24	-3.163
287.61	-3.288
287.98	-3.776
288.35	-3.846
288.72	-3.846
289.08	-1.464
289.45	-2.367
289.82	-2.711
290.19	-3.017
290.56	-1.549
290.93	-2.568
291.29	-2.066
291.66	-2.755
292.03	-2.442
292.40	-0.544
292.77	-2.695
293.13	-1.759
293.50	-3.417
293.87	-2.550
294.24	-1.733
294.60	-1.770
294.97	-3.624
295.34	-1.921
295.71	-2.774
296.08	-2.067
296.44	-2.574
296.81	-2.436
297.18	-2.615
297.55	-2.358
297.91	-0.949
298.28	-3.199
298.65	-1.427
299.02	-1.181
299.38	-0.801
299.75	-1.519
300.12	-2.546
300.48	-1.152
300.85	-1.350
301.22	-1.007
301.59	-1.941
301.95	-3.164
302.32	-1.444
302.69	-1.643
303.05	-0.979
303.42	-0.887
303.79	-0.417
304.15	-0.631
304.52	-1.480
304.89	-0.733
305.25	-1.242
305.62	-2.194
305.99	-1.134
306.35	-1.512
306.72	-1.138
307.09	-2.234
307.45	-0.725
307.82	-2.523
308.19	-1.816
308.55	0.000
308.92	-1.168
309.29	-1.054
309.65	-0.780
310.02	-0.396
310.38	-0.591
310.75	0.291
311.12	-0.384
311.48	-0.587
311.85	0.000
312.22	-0.380
312.58	-0.282
312.95	-0.574
313.31	0.090
313.68	0.733
314.05	0.723
314.41	1.730
314.78	1.090
315.14	0.817
315.51	1.108
315.87	0.450
316.24	1.644
316.61	1.155
316.97	1.267
317.34	1.323
317.70	2.358
318.07	0.441
318.43	1.276
318.80	3.428
319.16	2.146
319.53	0.686
319.89	1.227
320.26	1.423
320.62	2.039
320.99	2.955
321.35	1.664
321.72	3.814
322.08	2.615
322.45	2.891
322.81	2.708
323.18	3.451
323.54	3.017
323.91	3.648
324.27	3.270
324.64	4.114
325.00	4.146
325.37	4.095
325.73	4.050
326.10	5.272
326.46	5.049
326.83	5.284
327.19	4.646
327.56	5.692
327.92	4.170
328.29	4.435
328.65	5.360
329.01	6.176
329.38	5.223
329.74	5.736
330.11	6.592
330.47	6.992
330.84	4.651
331.20	7.083
331.56	4.679
331.93	6.444
332.29	6.864
332.66	7.226
333.02	5.779
333.38	6.544
333.75	5.219
334.11	6.255
334.48	6.271
334.84	6.202
335.20	6.129
335.57	7.841
335.93	6.364
336.29	6.323
336.66	5.719
337.02	6.940
337.38	6.973
337.75	6.529
338.11	5.803
338.47	6.782
338.84	5.838
339.20	5.813
339.56	6.343
339.93	6.322
340.29	7.246
340.65	6.488
341.02	7.741
341.38	7.518
341.74	5.408
342.11	6.758
342.47	6.751
342.83	7.005
343.20	7.114
343.56	6.014
343.92	6.805
344.28	7.109
344.65	7.519
345.01	7.020
345.37	7.387
345.73	6.391
346.10	6.708
346.46	6.013
346.82	6.667
347.19	6.799
347.55	7.056
347.91	6.984
348.27	6.373
348.63	7.312
349.00	6.562
349.36	6.766
349.72	6.473
350.08	7.355
350.45	6.616
350.81	6.033
351.17	6.842
351.53	7.051
351.89	8.049
352.26	6.194
352.62	8.433
352.98	6.336
353.34	7.543
353.70	6.240
354.07	7.004
354.43	6.454
354.79	6.881
355.15	7.726
355.51	7.456
355.87	6.881
356.24	6.464
356.60	6.948
356.96	6.672
357.32	7.361
357.68	6.881
358.04	6.362
358.40	7.015
358.77	7.456
359.13	6.499
359.49	6.691
359.85	6.962
360.21	7.174
360.57	7.322
360.93	7.405
361.29	7.439
361.66	6.662
362.02	8.212
362.38	7.660
362.74	7.612
363.10	7.840
363.46	7.133
363.82	6.960
364.18	7.811
364.54	8.437
364.90	7.826
365.26	7.172
365.62	8.733
365.98	8.509
366.35	7.651
366.71	8.367
367.07	8.593
367.43	8.667
367.79	8.825
368.15	8.829
368.51	8.457
368.87	8.687
369.23	8.200
369.59	8.470
369.95	8.181
370.31	8.980
370.67	8.872
371.03	8.310
371.39	7.925
371.75	9.078
372.11	9.282
372.47	8.802
372.83	9.424
373.19	9.940
373.55	8.401
373.91	8.998
374.27	9.379
374.63	9.608
374.99	9.218
375.35	9.740
375.71	8.710
376.07	9.361
376.42	9.383
376.78	10.566
377.14	9.108
377.50	10.563
377.86	10.160
378.22	11.138
378.58	10.523
378.94	10.974
379.30	10.076
379.66	10.406
380.02	9.810
380.38	11.290
380.74	11.042
381.09	11.208
381.45	11.591
381.81	11.944
382.17	11.223
382.53	11.170
382.89	11.343
383.25	11.606
383.61	11.690
383.97	12.367
384.32	12.380
384.68	11.021
385.04	12.724
385.40	12.964
385.76	12.661
386.12	11.730
386.48	12.471
386.83	13.111
387.19	11.761
387.55	11.796
387.91	12.100
388.27	12.587
388.62	12.371
388.98	11.957
389.34	12.846
389.70	12.609
390.06	13.144
390.42	14.217
390.77	13.486
391.13	13.439
391.49	13.889
391.85	13.394
392.20	13.523
392.56	13.822
392.92	13.686
393.28	13.875
393.64	13.296
393.99	14.236
394.35	13.843
394.71	14.012
395.07	12.874
395.42	13.535
395.78	14.442
396.14	14.320
396.50	13.005
396.85	13.894
397.21	14.024
397.57	14.193
397.92	13.860
398.28	12.982
398.64	13.787
399.00	14.241
399.35	14.555
399.71	14.402
400.07	14.318
400.42	14.435
400.78	14.120
401.14	15.139
401.49	14.156
401.85	13.547
402.21	14.890
402.57	15.082
402.92	14.775
403.28	14.052
403.63	14.320
403.99	14.846
404.35	14.952
404.70	14.334
405.06	14.130
405.42	14.169
405.77	15.376
406.13	14.911
406.49	14.583
406.84	14.294
407.20	14.645
407.55	14.355
407.91	14.519
408.27	14.723
408.62	14.485
408.98	14.974
409.34	13.314
409.69	14.462
410.05	14.244
410.40	15.197
410.76	14.863
411.11	14.787
411.47	15.418
411.83	15.226
412.18	14.880
412.54	15.531
412.89	14.203
413.25	15.463
413.60	14.762
413.96	14.744
414.31	14.448
414.67	14.908
415.03	14.031
415.38	13.934
415.74	14.661
416.09	14.991
416.45	14.277
416.80	13.953
417.16	14.176
417.51	14.695
417.87	14.838
418.22	15.030
418.58	15.056
418.93	15.425
419.29	15.166
419.64	14.886
420.00	14.421
420.35	14.430
420.71	14.877
421.06	14.951
421.42	14.736
421.77	14.755
422.12	15.011
422.48	14.798
422.83	16.046
423.19	15.013
423.54	15.265
423.90	15.240
424.25	15.360
424.61	14.811
424.96	15.157
425.31	15.817
425.67	14.922
426.02	14.555
426.38	15.385
426.73	14.900
427.09	15.686
427.44	14.855
427.79	15.865
428.15	15.297
428.50	15.112
428.85	15.098
429.21	16.011
429.56	15.252
429.92	14.791
430.27	15.373
430.62	15.584
430.98	15.199
431.33	15.591
431.68	15.613
432.04	15.693
432.39	15.801
432.74	14.726
433.10	15.955
433.45	15.385
433.80	15.880
434.16	16.426
434.51	15.776
434.86	16.395
435.22	16.419
435.57	15.743
435.92	16.861
436.28	15.131
436.63	15.729
436.98	15.459
437.34	16.460
437.69	15.520
438.04	15.547
438.39	15.393
438.75	15.219
439.10	16.860
439.45	15.595
439.81	15.141
440.16	15.818
440.51	16.667
440.86	15.064
441.22	15.380
441.57	16.352
441.92	16.343
442.27	16.768
442.63	16.642
442.98	15.955
443.33	16.465
443.68	16.799
444.03	16.980
444.39	16.782
444.74	16.641
445.09	16.168
445.44	16.438
445.79	16.475
446.15	16.804
446.50	16.176
446.85	17.072
447.20	16.779
447.55	16.893
447.91	17.277
448.26	16.279
448.61	17.269
448.96	17.114
449.31	16.278
449.66	16.285
450.02	16.086
450.37	15.717
450.72	16.685
451.07	16.458
451.42	15.945
451.77	16.009
452.12	16.309
452.47	16.162
452.83	16.216
453.18	16.637
453.53	15.566
453.88	16.289
454.23	16.328
454.58	17.411
454.93	15.716
455.28	15.894
455.63	16.771
455.98	16.592
456.34	16.490
456.69	15.814
457.04	16.194
457.39	16.463
457.74	17.058
458.09	16.584
458.44	17.241
458.79	16.142
459.14	16.099
459.49	16.129
459.84	17.104
460.19	15.713
460.54	16.014
460.89	16.834
461.24	15.977
461.59	16.436
461.94	15.687
462.29	16.237
462.64	15.691
462.99	16.259
463.34	17.002
463.69	16.295
464.04	17.009
464.39	16.424
464.74	16.249
465.09	16.494
465.44	16.416
465.79	17.028
466.14	16.363
466.49	16.632
466.84	16.474
467.19	16.821
467.54	16.980
467.89	15.977
468.24	17.064
468.59	16.271
468.94	16.608
469.29	15.777
469.64	17.546
469.99	15.997
470.34	16.955
470.68	15.858
471.03	15.717
471.38	16.678
471.73	15.345
472.08	16.434
472.43	16.496
472.78	16.499
473.13	17.573
473.48	17.462
473.83	16.309
474.17	17.116
474.52	16.115
474.87	16.888
475.22	17.408
475.57	16.615
475.92	17.073
476.27	16.773
476.61	16.978
476.96	17.153
477.31	16.188
477.66	16.842
478.01	17.641
478.36	16.351
478.70	16.946
479.05	17.178
479.40	17.029
479.75	17.579
480.10	17.338
480.45	16.727
480.79	18.231
481.14	17.601
481.49	17.310
481.84	18.277
482.19	17.032
482.53	17.534
482.88	17.856
483.23	17.208
483.58	17.205
483.92	16.578
484.27	17.231
484.62	16.997
484.97	17.068
485.31	16.825
485.66	16.284
486.01	16.916
486.36	17.848
486.70	18.690
487.05	19.414
487.40	18.342
487.75	17.863
488.09	17.751
488.44	17.324
488.79	17.572
489.13	16.836
489.48	16.466
489.83	16.579
490.17	16.606
490.52	16.544
490.87	16.836
491.22	17.028
491.56	17.108
491.91	17.183
492.26	17.265
492.60	17.534
492.95	17.683
493.30	17.346
493.64	16.820
493.99	16.667
494.34	17.030
494.68	16.959
495.03	17.093
495.37	16.689
495.72	16.599
496.07	17.178
496.41	16.431
496.76	16.722
497.11	17.240
497.45	17.091
497.80	17.326
498.14	17.642
498.49	16.406
498.84	16.956
499.18	17.454
499.53	17.668
499.87	17.231
500.22	15.895
500.56	17.274
500.91	17.162
501.26	17.182
501.60	16.394
501.95	17.282
502.29	17.508
502.64	17.184
502.98	17.903
503.33	17.149
503.67	17.183
504.02	16.944
504.36	17.337
504.71	17.501
505.06	17.326
505.40	17.276
505.75	17.486
506.09	17.864
506.44	17.827
506.78	17.706
507.13	17.520
507.47	17.480
507.82	16.903
508.16	16.826
508.51	17.534
508.85	17.525
509.19	18.096
509.54	18.204
509.88	17.581
510.23	17.776
510.57	18.221
510.92	18.094
511.26	16.498
511.61	16.948
511.95	17.472
512.30	17.873
512.64	17.241
512.98	17.459
513.33	18.750
513.67	17.491
514.02	18.344
514.36	18.210
514.70	17.656
515.05	17.675
515.39	18.163
515.74	18.240
516.08	18.119
516.42	18.629
516.77	18.297
517.11	17.741
517.46	17.603
517.80	18.386
518.14	18.390
518.49	17.625
518.83	17.669
519.17	17.555
519.52	17.820
519.86	18.268
520.20	18.317
520.55	17.306
520.89	18.300
521.23	18.202
521.58	18.757
521.92	18.300
522.26	17.698
522.61	18.981
522.95	18.108
523.29	18.851
523.64	18.610
523.98	18.254
524.32	18.625
524.66	18.611
525.01	17.894
525.35	18.208
525.69	17.923
526.04	17.796
526.38	17.816
526.72	18.512
527.06	19.003
527.41	18.367
527.75	18.468
528.09	18.300
528.43	17.466
528.78	18.497
529.12	18.291
529.46	18.437
529.80	19.222
530.15	19.188
530.49	17.497
530.83	19.008
531.17	17.861
531.51	19.073
531.86	18.990
532.20	18.476
532.54	18.552
532.88	18.364
533.22	19.034
533.57	18.465
533.91	18.799
534.25	19.333
534.59	18.908
534.93	18.506
535.27	18.930
535.62	18.476
535.96	18.478
536.30	18.978
536.64	19.039
536.98	19.742
537.32	19.198
537.66	17.966
538.01	18.550
538.35	17.844
538.69	18.450
539.03	18.087
539.37	18.963
539.71	19.580
540.05	18.945
540.39	17.665
540.73	17.547
541.07	19.313
541.42	18.665
541.76	18.327
542.10	17.672
542.44	18.027
542.78	19.282
543.12	18.057
543.46	18.132
543.80	18.345
544.14	18.013
544.48	18.794
544.82	18.731
545.16	18.485
545.50	18.095
545.84	17.759
546.18	19.198
546.52	18.217
546.86	18.553
547.20	19.275
547.54	17.853
547.88	18.505
548.22	17.895
548.56	18.198
548.90	18.030
549.24	17.690
549.58	18.233
549.92	18.240
550.26	19.029
550.60	18.634
550.94	18.952
551.28	18.680
551.62	18.935
551.96	18.641
552.30	18.419
552.64	18.668
552.98	18.465
553.32	18.328
553.66	19.293
554.00	17.844
554.34	18.597
554.68	17.883
555.02	18.528
555.36	18.738
555.69	17.937
556.03	18.537
556.37	18.648
556.71	18.706
557.05	18.658
557.39	18.315
557.73	18.692
558.07	18.079
558.41	19.070
558.75	18.188
559.08	17.676
559.42	18.999
559.76	17.503
560.10	18.419
560.44	18.272
560.78	18.938
561.12	18.473
561.45	19.343
561.79	19.170
562.13	19.717
562.47	18.681
562.81	18.038
563.15	18.813
563.48	18.334
563.82	18.198
564.16	17.929
564.50	17.878
564.84	18.407
565.17	18.765
565.51	18.757
565.85	17.637
566.19	18.836
566.52	18.315
566.86	19.242
567.20	17.401
567.54	19.065
567.88	19.011
568.21	18.775
568.55	18.849
568.89	18.793
569.23	19.096
569.56	19.304
569.90	19.173
570.24	19.460
570.57	19.275
570.91	18.402
571.25	19.381
571.59	19.371
571.92	19.403
572.26	19.719
572.60	19.055
572.93	19.399
573.27	18.994
573.61	19.322
573.95	19.131
574.28	19.575
574.62	19.009
574.96	18.725
575.29	19.123
575.63	19.242
575.97	19.329
576.30	18.875
576.64	19.065
576.98	19.271
577.31	19.185
577.65	19.170
577.98	19.541
578.32	18.882
578.66	19.582
578.99	19.005
579.33	19.364
579.67	19.356
580.00	18.791
580.34	19.284
580.67	18.733
581.01	19.494
581.35	19.131
581.68	19.113
582.02	19.463
582.35	20.059
582.69	19.483
583.02	19.081
583.36	19.183
583.70	18.814
584.03	18.838
584.37	19.230
584.70	18.631
585.04	18.554
585.37	19.046
585.71	18.835
586.04	19.397
586.38	19.522
586.72	19.253
587.05	18.752
587.39	18.848
587.72	19.139
588.06	18.980
588.39	19.393
588.73	18.386
589.06	19.216
589.40	18.101
589.73	18.605
590.07	19.032
590.40	19.101
590.73	18.699
591.07	18.764
591.40	18.546
591.74	18.641
592.07	19.001
592.41	18.573
592.74	17.962
593.08	19.045
593.41	19.335
593.75	19.282
594.08	19.509
594.41	19.006
594.75	18.665
595.08	18.607
595.42	18.896
595.75	19.083
596.09	19.349
596.42	18.703
596.75	19.182
597.09	18.869
597.42	18.395
597.75	18.816
598.09	19.048
598.42	18.014
598.76	18.609
599.09	18.583
599.42	18.471
599.76	18.851
600.09	18.552
600.42	18.852
600.76	18.890
601.09	18.387
601.42	18.400
601.76	18.276
602.09	18.763
602.42	18.720
602.76	18.598
603.09	18.502
603.42	19.039
603.76	18.182
604.09	19.233
604.42	19.046
604.76	18.417
605.09	18.748
605.42	18.501
605.75	18.154
606.09	18.328
606.42	18.169
606.75	18.291
607.09	18.088
607.42	18.304
607.75	18.367
608.08	18.508
608.42	18.622
608.75	18.491
609.08	17.742
609.41	18.615
609.75	18.348
610.08	19.173
610.41	18.012
610.74	18.235
611.07	18.872
611.41	19.238
611.74	19.353
612.07	17.298
612.40	18.394
612.73	17.995
613.07	17.848
613.40	18.142
613.73	17.814
614.06	18.204
614.39	17.833
614.72	18.147
615.06	18.046
615.39	17.980
615.72	18.578
616.05	18.698
616.38	18.416
616.71	17.921
617.05	17.785
617.38	18.352
617.71	18.521
618.04	18.780
618.37	18.689
618.70	18.439
619.03	17.802
619.36	18.619
619.69	18.065
620.03	17.640
620.36	17.423
620.69	17.952
621.02	17.979
621.35	18.868
621.68	17.643
622.01	16.726
622.34	16.946
622.67	18.076
623.00	17.274
623.33	18.514
623.66	17.510
623.99	17.512
624.32	18.843
624.65	18.082
624.99	18.140
625.32	18.158
625.65	17.937
625.98	17.966
626.31	17.789
626.64	17.582
626.97	18.230
627.30	17.236
627.63	17.029
627.96	18.318
628.29	16.965
628.62	16.373
628.95	18.493
629.28	17.162
629.61	17.761
629.94	18.075
630.26	16.780
630.59	16.839
630.92	16.537
631.25	17.174
631.58	18.832
631.91	17.151
632.24	17.963
632.57	16.509
632.90	17.452
633.23	16.633
633.56	17.551
633.89	16.219
634.22	16.320
