SpectraSuite Data File
++++++++++++++++++++++++++++++++++++
Date: Thu May 14 14:58:46 PDT 2015
User: schluterlab
Dark Spectrum Present: Yes
Reference Spectrum Present: Yes
Number of Sampled Component Spectra: 1
Spectrometers: USB2E3373
Integration Time (usec): 3000 (USB2E3373)
Spectra Averaged: 3 (USB2E3373)
Boxcar Smoothing: 0 (USB2E3373)
Correct for Electrical Dark: No (USB2E3373)
Strobe/Lamp Enabled: No (USB2E3373)
Correct for Detector Non-linearity: No (USB2E3373)
Correct for Stray Light: No (USB2E3373)
Number of Pixels in Processed Spectrum: 2048
>>>>>Begin Processed Spectral Data<<<<<
178.53	0.000
178.91	328.571
179.29	-2700.000
179.67	-2000.000
180.04	235.714
180.42	190.000
180.80	420.000
181.18	-2200.000
181.56	-1300.000
181.94	550.000
182.31	-525.000
182.69	833.333
183.07	-750.000
183.45	625.000
183.83	-266.667
184.20	-433.333
184.58	2500.000
184.96	-450.000
185.34	-222.222
185.72	-340.000
186.09	255.556
186.47	1150.000
186.85	600.000
187.23	-344.444
187.61	-3400.000
187.98	320.000
188.36	725.000
188.74	-500.000
189.12	-433.333
189.49	-106.250
189.87	-300.000
190.25	-233.333
190.63	-360.000
191.00	-266.667
191.38	0.000
191.76	-775.000
192.14	-300.000
192.51	1000.000
192.89	-316.667
193.27	0.000
193.65	-271.429
194.02	-1800.000
194.40	-242.857
194.78	285.714
195.15	0.000
195.53	-200.000
195.91	0.000
196.29	-550.000
196.66	-161.538
197.04	-1800.000
197.42	-271.429
197.79	-1150.000
198.17	-350.000
198.55	-428.571
198.92	-100.000
199.30	-275.000
199.68	-154.545
200.05	-78.571
200.43	-950.000
200.81	442.857
201.18	0.000
201.56	344.444
201.94	0.000
202.31	900.000
202.69	-222.222
203.07	2400.000
203.44	-155.556
203.82	-625.000
204.19	-166.667
204.57	-333.333
204.95	-250.000
205.32	-1600.000
205.70	750.000
206.08	-300.000
206.45	-333.333
206.83	760.000
207.20	-266.667
207.58	-460.000
207.96	-350.000
208.33	-300.000
208.71	141.667
209.08	-300.000
209.46	0.000
209.84	466.667
210.21	1150.000
210.59	700.000
210.96	1000.000
211.34	-400.000
211.71	-250.000
212.09	-2900.000
212.46	0.000
212.84	1550.000
213.22	-520.000
213.59	-500.000
213.97	-170.000
214.34	-500.000
214.72	383.333
215.09	-600.000
215.47	0.000
215.84	357.143
216.22	1900.000
216.59	-280.000
216.97	-480.000
217.34	-550.000
217.72	-275.000
218.09	-475.000
218.47	-625.000
218.84	0.000
219.22	500.000
219.59	-117.647
219.97	-110.000
220.34	1500.000
220.72	-277.778
221.09	-107.692
221.47	-900.000
221.84	-230.000
222.22	-428.571
222.59	0.000
222.97	-312.500
223.34	-300.000
223.72	-2300.000
224.09	-550.000
224.46	-525.000
224.84	-220.000
225.21	-328.571
225.59	-775.000
225.96	-550.000
226.34	-65.385
226.71	333.333
227.08	-950.000
227.46	-113.333
227.83	-725.000
228.21	-73.684
228.58	287.500
228.95	1450.000
229.33	-141.667
229.70	-230.000
230.08	-15.789
230.45	250.000
230.82	-366.667
231.20	-100.000
231.57	-58.333
231.95	-200.000
232.32	-109.091
232.69	-35.000
233.07	-250.000
233.44	-58.824
233.81	-270.000
234.19	-22.222
234.56	-59.091
234.93	-24.138
235.31	-21.053
235.68	-38.889
236.05	-90.000
236.43	-34.615
236.80	4.000
237.17	-48.148
237.55	-45.455
237.92	-250.000
238.29	-29.032
238.67	0.000
239.04	-11.111
239.41	-30.952
239.79	-17.391
240.16	-18.519
240.53	-6.522
240.91	-11.765
241.28	1.639
241.65	19.403
242.02	6.757
242.40	-10.769
242.77	2.667
243.14	-1.220
243.51	1.316
243.89	10.256
244.26	16.832
244.63	20.588
245.00	17.757
245.38	10.526
245.75	6.195
246.12	19.048
246.49	10.853
246.87	22.857
247.24	22.517
247.61	23.026
247.98	18.792
248.36	14.198
248.73	21.472
249.10	14.754
249.47	27.363
249.84	28.272
250.22	18.653
250.59	21.667
250.96	27.273
251.33	24.490
251.70	23.077
252.08	24.167
252.45	28.279
252.82	23.554
253.19	23.828
253.56	24.715
253.94	21.154
254.31	25.379
254.68	27.622
255.05	26.384
255.42	21.088
255.79	25.566
256.16	26.821
256.54	25.166
256.91	31.475
257.28	22.623
257.65	25.478
258.02	25.074
258.39	29.060
258.76	28.746
259.14	27.011
259.51	29.395
259.88	26.062
260.25	28.611
260.62	29.315
260.99	31.694
261.36	29.491
261.73	27.586
262.10	29.396
262.47	31.099
262.85	30.808
263.22	30.130
263.59	27.105
263.96	30.435
264.33	29.156
264.70	29.630
265.07	31.504
265.44	33.333
265.81	29.861
266.18	28.798
266.55	29.464
266.92	27.563
267.29	32.385
267.66	29.712
268.03	31.223
268.40	25.887
268.77	28.474
269.14	28.634
269.51	26.535
269.88	32.787
270.25	29.577
270.62	29.536
270.99	32.929
271.36	30.495
271.73	28.880
272.10	31.663
272.47	30.261
272.84	28.715
273.21	28.657
273.58	30.040
273.95	28.462
274.32	26.426
274.69	31.528
275.06	30.403
275.43	27.172
275.80	28.571
276.17	27.037
276.54	27.612
276.91	28.801
277.28	29.295
277.65	29.443
278.02	30.882
278.39	29.710
278.76	27.768
279.13	28.191
279.50	28.522
279.87	28.086
280.23	26.761
280.60	28.475
280.97	27.467
281.34	29.372
281.71	30.795
282.08	28.738
282.45	27.823
282.82	27.002
283.19	28.433
283.56	28.689
283.92	29.279
284.29	31.438
284.66	30.378
285.03	26.282
285.40	27.357
285.77	27.554
286.14	27.023
286.51	28.767
286.87	27.330
287.24	29.217
287.61	25.561
287.98	27.492
288.35	29.586
288.72	26.923
289.08	26.501
289.45	27.219
289.82	26.657
290.19	25.862
290.56	26.901
290.93	25.963
291.29	26.033
291.66	25.758
292.03	26.052
292.40	26.395
292.77	24.124
293.13	23.139
293.50	24.310
293.87	24.430
294.24	26.133
294.60	26.549
294.97	23.221
295.34	24.712
295.71	22.446
296.08	23.385
296.44	22.549
296.81	23.264
297.18	22.167
297.55	22.524
297.91	24.318
298.28	22.749
298.65	23.662
299.02	20.897
299.38	22.197
299.75	22.664
300.12	21.991
300.48	22.235
300.85	21.935
301.22	22.595
301.59	22.489
301.95	21.695
302.32	22.889
302.69	22.673
303.05	21.763
303.42	22.506
303.79	20.625
304.15	20.294
304.52	21.036
304.89	21.152
305.25	22.464
305.62	21.735
305.99	21.856
306.35	21.371
306.72	20.786
307.09	21.015
307.45	19.979
307.82	20.686
308.19	20.081
308.55	21.601
308.92	19.766
309.29	19.636
309.65	20.078
310.02	20.000
310.38	20.768
310.75	19.709
311.12	21.477
311.48	20.723
311.85	19.468
312.22	20.114
312.58	20.282
312.95	19.885
313.31	19.964
313.68	19.597
314.05	22.855
314.41	21.038
314.78	19.528
315.14	19.782
315.51	19.575
315.87	19.082
316.24	20.274
316.61	19.805
316.97	19.457
317.34	20.370
317.70	21.048
318.07	20.988
318.43	19.473
318.80	20.903
319.16	20.000
319.53	18.937
319.89	20.596
320.26	20.374
320.62	19.770
320.99	20.683
321.35	19.778
321.72	20.186
322.08	19.928
322.45	20.145
322.81	20.668
323.18	20.354
323.54	20.259
323.91	19.840
324.27	20.396
324.64	21.998
325.00	18.988
325.37	21.048
325.73	20.413
326.10	20.114
326.46	20.765
326.83	19.856
327.19	20.315
327.56	20.316
327.92	18.804
328.29	18.952
328.65	19.263
329.01	19.966
329.38	20.977
329.74	21.062
330.11	20.548
330.47	19.714
330.84	21.361
331.20	19.750
331.56	19.931
331.93	20.000
332.29	20.678
332.66	19.186
333.02	18.760
333.38	20.050
333.75	19.360
334.11	20.601
334.48	20.050
334.84	21.325
335.20	19.731
335.57	20.911
335.93	19.917
336.29	18.885
336.66	20.101
337.02	20.987
337.38	19.643
337.75	18.843
338.11	20.690
338.47	19.851
338.84	19.120
339.20	18.787
339.56	19.440
339.93	19.622
340.29	19.163
340.65	19.384
341.02	20.112
341.38	20.614
341.74	19.290
342.11	20.274
342.47	18.904
342.83	20.048
343.20	18.724
343.56	18.444
343.92	19.696
344.28	19.375
344.65	20.000
345.01	19.579
345.37	18.818
345.73	18.550
346.10	19.423
346.46	19.225
346.82	19.850
347.19	20.015
347.55	19.499
347.91	19.465
348.27	18.892
348.63	19.269
349.00	18.046
349.36	19.628
349.72	18.824
350.08	18.945
350.45	18.479
350.81	19.231
351.17	18.346
351.53	19.105
351.89	18.831
352.26	19.030
352.62	18.806
352.98	17.481
353.34	17.999
353.70	17.720
354.07	19.300
354.43	17.768
354.79	18.624
355.15	18.911
355.51	18.348
355.87	18.025
356.24	18.859
356.60	18.921
356.96	18.977
357.32	18.141
357.68	17.862
358.04	17.814
358.40	18.060
358.77	17.690
359.13	18.538
359.49	17.695
359.85	18.564
360.21	18.293
360.57	18.162
360.93	17.560
361.29	18.035
361.66	18.827
362.02	19.068
362.38	18.131
362.74	17.318
363.10	18.569
363.46	18.213
363.82	18.537
364.18	16.890
364.54	18.257
364.90	18.930
365.26	17.793
365.62	19.000
365.98	18.244
366.35	18.054
366.71	17.687
367.07	17.659
367.43	18.385
367.79	17.916
368.15	18.729
368.51	17.997
368.87	17.701
369.23	18.133
369.59	19.126
369.95	17.444
370.31	18.974
370.67	18.363
371.03	17.867
371.39	18.334
371.75	17.882
372.11	16.938
372.47	18.009
372.83	18.586
373.19	17.945
373.55	17.547
373.91	17.860
374.27	17.853
374.63	17.997
374.99	18.103
375.35	18.182
375.71	17.742
376.07	17.431
376.42	17.947
376.78	18.210
377.14	17.654
377.50	18.406
377.86	18.411
378.22	17.904
378.58	17.836
378.94	18.134
379.30	18.043
379.66	18.989
380.02	18.061
380.38	18.721
380.74	17.746
381.09	18.002
381.45	19.034
381.81	17.447
382.17	17.637
382.53	17.953
382.89	18.115
383.25	18.171
383.61	17.650
383.97	18.198
384.32	18.840
384.68	18.619
385.04	18.913
385.40	18.680
385.76	19.402
386.12	18.312
386.48	18.412
386.83	19.130
387.19	18.714
387.55	18.310
387.91	17.580
388.27	18.072
388.62	18.213
388.98	17.879
389.34	17.973
389.70	18.768
390.06	18.176
390.42	18.494
390.77	18.724
391.13	17.430
391.49	18.056
391.85	18.424
392.20	18.802
392.56	18.193
392.92	19.357
393.28	18.297
393.64	18.715
393.99	18.942
394.35	19.451
394.71	18.802
395.07	17.485
395.42	18.332
395.78	19.378
396.14	19.548
396.50	17.874
396.85	18.903
397.21	17.988
397.57	18.551
397.92	18.499
398.28	18.305
398.64	19.565
399.00	17.958
399.35	18.063
399.71	18.424
400.07	17.911
400.42	18.976
400.78	18.171
401.14	17.985
401.49	18.647
401.85	18.198
402.21	18.482
402.57	18.486
402.92	18.144
403.28	17.389
403.63	16.945
403.99	18.349
404.35	18.704
404.70	18.527
405.06	17.880
405.42	17.857
405.77	18.866
406.13	18.747
406.49	18.750
406.84	19.003
407.20	18.334
407.55	17.747
407.91	18.668
408.27	18.021
408.62	18.266
408.98	18.108
409.34	17.419
409.69	18.480
410.05	18.171
410.40	18.619
410.76	18.059
411.11	18.118
411.47	18.980
411.83	18.107
412.18	18.675
412.54	17.724
412.89	18.685
413.25	17.946
413.60	17.863
413.96	18.124
414.31	18.357
414.67	18.426
415.03	18.523
415.38	17.654
415.74	18.815
416.09	17.705
416.45	18.159
416.80	18.115
417.16	17.688
417.51	18.369
417.87	18.210
418.22	18.204
418.58	17.844
418.93	18.510
419.29	18.619
419.64	18.848
420.00	18.042
420.35	18.248
420.71	17.576
421.06	17.596
421.42	18.463
421.77	17.771
422.12	18.446
422.48	18.382
422.83	18.018
423.19	18.462
423.54	18.916
423.90	17.670
424.25	19.147
424.61	18.485
424.96	18.671
425.31	19.108
425.67	17.660
426.02	18.262
426.38	18.197
426.73	18.025
427.09	18.570
427.44	17.313
427.79	18.076
428.15	17.580
428.50	18.202
428.85	18.255
429.21	19.628
429.56	18.115
429.92	17.740
430.27	18.602
430.62	18.026
430.98	18.396
431.33	17.400
431.68	17.912
432.04	19.096
432.39	17.836
432.74	17.466
433.10	18.442
433.45	18.395
433.80	18.079
434.16	18.182
434.51	18.654
434.86	19.273
435.22	18.916
435.57	17.925
435.92	18.420
436.28	18.316
436.63	18.023
436.98	18.411
437.34	18.151
437.69	18.822
438.04	18.244
438.39	18.036
438.75	18.152
439.10	19.239
439.45	18.278
439.81	17.910
440.16	17.962
440.51	18.450
440.86	17.287
441.22	18.917
441.57	18.396
441.92	18.089
442.27	18.535
442.63	18.977
442.98	18.250
443.33	19.358
443.68	18.583
444.03	19.050
444.39	18.816
444.74	19.142
445.09	17.739
445.44	19.125
445.79	18.103
446.15	18.037
446.50	17.778
446.85	18.677
447.20	18.617
447.55	18.672
447.91	17.749
448.26	18.340
448.61	18.013
448.96	18.938
449.31	19.088
449.66	18.028
450.02	18.143
450.37	19.073
450.72	18.138
451.07	18.166
451.42	17.562
451.77	17.843
452.12	17.777
452.47	18.479
452.83	18.525
453.18	18.155
453.53	18.495
453.88	18.388
454.23	17.062
454.58	18.630
454.93	18.143
455.28	18.543
455.63	18.420
455.98	18.659
456.34	17.845
456.69	17.989
457.04	18.322
457.39	18.459
457.74	18.233
458.09	17.079
458.44	18.373
458.79	17.793
459.14	18.668
459.49	18.110
459.84	18.835
460.19	17.934
460.54	18.512
460.89	19.217
461.24	18.103
461.59	18.539
461.94	17.855
462.29	17.861
462.64	17.562
462.99	17.263
463.34	17.975
463.69	18.230
464.04	18.788
464.39	18.890
464.74	17.560
465.09	18.512
465.44	18.026
465.79	18.509
466.14	18.134
466.49	18.526
466.84	17.906
467.19	18.439
467.54	17.744
467.89	18.218
468.24	18.338
468.59	17.024
468.94	17.249
469.29	17.516
469.64	17.546
469.99	17.208
470.34	17.698
470.68	18.319
471.03	17.092
471.38	17.266
471.73	17.750
472.08	17.005
472.43	18.784
472.78	17.506
473.13	17.826
473.48	17.764
473.83	17.934
474.17	17.702
474.52	17.559
474.87	17.553
475.22	18.141
475.57	18.017
475.92	18.069
476.27	17.838
476.61	17.497
476.96	17.779
477.31	18.515
477.66	18.311
478.01	18.048
478.36	17.348
478.70	17.537
479.05	18.507
479.40	18.016
479.75	18.636
480.10	17.527
480.45	17.821
480.79	18.503
481.14	18.336
481.49	18.083
481.84	17.929
482.19	18.366
482.53	18.190
482.88	18.121
483.23	18.230
483.58	17.511
483.92	17.642
484.27	17.570
484.62	17.657
484.97	18.351
485.31	18.022
485.66	17.067
486.01	18.375
486.36	18.858
486.70	20.055
487.05	20.107
487.40	19.480
487.75	18.473
488.09	18.287
488.44	17.602
488.79	18.415
489.13	17.524
489.48	17.126
489.83	17.264
490.17	17.335
490.52	17.323
490.87	17.809
491.22	17.764
491.56	17.662
491.91	18.360
492.26	17.525
492.60	17.403
492.95	17.376
493.30	18.019
493.64	18.441
493.99	18.114
494.34	17.291
494.68	17.901
495.03	18.062
495.37	18.198
495.72	17.188
496.07	17.660
496.41	17.804
496.76	17.848
497.11	18.004
497.45	17.307
497.80	17.414
498.14	17.914
498.49	17.785
498.84	17.550
499.18	17.589
499.53	17.758
499.87	18.198
500.22	17.053
500.56	17.409
500.91	17.803
501.26	17.091
501.60	17.897
501.95	17.716
502.29	17.727
502.64	18.102
502.98	17.817
503.33	17.581
503.67	17.750
504.02	17.469
504.36	17.962
504.71	17.593
505.06	17.190
505.40	17.139
505.75	16.985
506.09	18.002
506.44	17.224
506.78	17.661
507.13	17.381
507.47	17.811
507.82	17.661
508.16	17.017
508.51	17.206
508.85	17.289
509.19	16.769
509.54	17.915
509.88	17.727
510.23	17.339
510.57	18.076
510.92	17.610
511.26	16.739
511.61	17.286
511.95	17.814
512.30	17.774
512.64	16.192
512.98	17.209
513.33	17.893
513.67	17.287
514.02	17.782
514.36	17.903
514.70	17.552
515.05	17.727
515.39	16.640
515.74	17.285
516.08	17.327
516.42	18.472
516.77	16.667
517.11	17.380
517.46	17.603
517.80	17.210
518.14	18.172
518.49	17.191
518.83	16.924
519.17	17.340
519.52	17.138
519.86	17.582
520.20	17.306
520.55	17.141
520.89	17.342
521.23	16.415
521.58	17.119
521.92	16.884
522.26	17.526
522.61	16.551
522.95	17.070
523.29	17.874
523.64	16.928
523.98	16.714
524.32	18.281
524.66	16.961
525.01	17.384
525.35	16.944
525.69	16.299
526.04	17.049
526.38	17.299
526.72	17.820
527.06	17.947
527.41	17.434
527.75	17.458
528.09	16.411
528.43	16.933
528.78	16.416
529.12	16.628
529.46	17.313
529.80	17.334
530.15	17.159
530.49	16.726
530.83	17.237
531.17	17.682
531.51	17.389
531.86	16.947
532.20	17.195
532.54	18.013
532.88	17.636
533.22	17.619
533.57	17.773
533.91	17.789
534.25	17.354
534.59	16.724
534.93	17.148
535.27	17.127
535.62	17.624
535.96	17.199
536.30	17.156
536.64	17.477
536.98	16.728
537.32	17.469
537.66	16.157
538.01	16.254
538.35	17.844
538.69	17.067
539.03	17.597
539.37	17.138
539.71	17.417
540.05	17.686
540.39	16.381
540.73	16.211
541.07	17.167
541.42	16.893
541.76	16.311
542.10	17.491
542.44	16.322
542.78	17.032
543.12	17.640
543.46	16.300
543.80	16.607
544.14	16.996
544.48	17.139
544.82	17.175
545.16	17.352
545.50	17.196
545.84	16.534
546.18	17.099
546.52	17.134
546.86	17.421
547.20	16.730
547.54	17.978
547.88	16.637
548.22	16.667
548.56	16.910
548.90	17.134
549.24	16.900
549.58	16.845
549.92	17.474
550.26	16.828
550.60	17.358
550.94	17.076
551.28	16.106
551.62	16.442
551.96	16.440
552.30	17.463
552.64	17.237
552.98	17.093
553.32	16.720
553.66	17.363
554.00	17.339
554.34	17.246
554.68	16.139
555.02	16.689
555.36	16.634
555.69	16.015
556.03	17.465
556.37	18.148
556.71	17.185
557.05	17.572
557.39	16.125
557.73	17.768
558.07	16.358
558.41	16.877
558.75	17.241
559.08	16.145
559.42	16.667
559.76	16.757
560.10	17.482
560.44	17.282
560.78	17.000
561.12	16.933
561.45	17.457
561.79	17.949
562.13	18.053
562.47	16.091
562.81	17.025
563.15	16.667
563.48	17.340
563.82	16.868
564.16	16.596
564.50	17.104
564.84	16.991
565.17	17.824
565.51	16.743
565.85	16.924
566.19	16.820
566.52	16.676
566.86	16.808
567.20	17.401
567.54	18.109
567.88	17.737
568.21	17.984
568.55	17.122
568.89	18.112
569.23	17.871
569.56	17.859
569.90	18.318
570.24	18.853
570.57	18.634
570.91	18.922
571.25	18.774
571.59	19.315
571.92	18.603
572.26	18.581
572.60	18.646
572.93	18.759
573.27	18.404
573.61	18.740
573.95	18.281
574.28	18.641
574.62	18.372
574.96	18.416
575.29	18.154
575.63	18.411
575.97	19.114
576.30	18.554
576.64	17.943
576.98	18.178
577.31	18.682
577.65	18.964
577.98	18.901
578.32	18.809
578.66	18.639
578.99	18.759
579.33	18.475
579.67	18.314
580.00	18.611
580.34	18.346
580.67	18.292
581.01	18.412
581.35	18.664
581.68	18.776
582.02	19.365
582.35	19.599
582.69	19.244
583.02	18.688
583.36	19.203
583.70	18.178
584.03	18.095
584.37	18.218
584.70	17.775
585.04	18.089
585.37	18.736
585.71	18.619
586.04	18.758
586.38	18.733
586.72	18.576
587.05	18.317
587.39	18.923
587.72	18.589
588.06	18.762
588.39	18.944
588.73	18.228
589.06	18.313
589.40	18.470
589.73	18.091
590.07	18.236
590.40	18.695
590.73	17.851
591.07	18.131
591.40	17.924
591.74	17.846
592.07	18.067
592.41	17.902
592.74	17.998
593.08	18.758
593.41	19.014
593.75	18.908
594.08	18.964
594.41	18.878
594.75	18.399
595.08	17.867
595.42	17.792
595.75	18.696
596.09	18.502
596.42	18.166
596.75	18.101
597.09	18.141
597.42	17.839
597.75	17.758
598.09	17.540
598.42	18.496
598.76	17.845
599.09	18.370
599.42	18.237
599.76	17.729
600.09	18.318
600.42	18.652
600.76	18.659
601.09	17.922
601.42	18.126
601.76	17.966
602.09	17.727
602.42	17.557
602.76	17.491
603.09	18.319
603.42	18.280
603.76	18.111
604.09	18.488
604.42	18.055
604.76	18.189
605.09	17.750
605.42	17.982
605.75	17.846
606.09	17.842
606.42	17.621
606.75	17.241
607.09	17.358
607.42	17.534
607.75	18.406
608.08	17.601
608.42	18.178
608.75	18.076
609.08	17.063
609.41	17.689
609.75	17.232
610.08	17.986
610.41	17.205
610.74	17.395
611.07	17.673
611.41	17.758
611.74	18.245
612.07	17.438
612.40	17.633
612.73	17.017
613.07	17.457
613.40	17.757
613.73	17.044
614.06	17.419
614.39	17.590
614.72	16.254
615.06	16.987
615.39	17.400
615.72	18.152
616.05	18.504
616.38	18.214
616.71	16.928
617.05	16.880
617.38	17.496
617.71	17.657
618.04	17.809
618.37	17.377
618.70	17.195
619.03	16.428
619.36	15.845
619.69	16.336
620.03	16.698
620.36	16.380
620.69	16.225
621.02	16.076
621.35	16.401
621.68	16.775
622.01	16.157
622.34	17.085
622.67	16.701
623.00	15.992
623.33	17.386
623.66	17.056
623.99	16.656
624.32	18.259
624.65	16.345
624.99	16.255
625.32	17.244
625.65	18.139
625.98	16.136
626.31	16.584
626.64	16.777
626.97	14.929
627.30	15.262
627.63	15.454
627.96	16.066
628.29	15.720
628.62	15.953
628.95	15.425
629.28	14.783
629.61	17.003
629.94	15.314
630.26	14.915
630.59	15.630
630.92	13.853
