SpectraSuite Data File
++++++++++++++++++++++++++++++++++++
Date: Thu May 14 14:45:23 PDT 2015
User: schluterlab
Dark Spectrum Present: Yes
Reference Spectrum Present: Yes
Number of Sampled Component Spectra: 1
Spectrometers: USB2E3373
Integration Time (usec): 3000 (USB2E3373)
Spectra Averaged: 3 (USB2E3373)
Boxcar Smoothing: 0 (USB2E3373)
Correct for Electrical Dark: No (USB2E3373)
Strobe/Lamp Enabled: No (USB2E3373)
Correct for Detector Non-linearity: No (USB2E3373)
Correct for Stray Light: No (USB2E3373)
Number of Pixels in Processed Spectrum: 2048
>>>>>Begin Processed Spectral Data<<<<<
178.53	0.000
178.91	71.429
179.29	-800.000
179.67	0.000
180.04	135.714
180.42	-0.000
180.80	-60.000
181.18	-400.000
181.56	600.000
181.94	175.000
182.31	50.000
182.69	33.333
183.07	-350.000
183.45	-100.000
183.83	-50.000
184.20	100.000
184.58	-500.000
184.96	-125.000
185.34	-33.333
185.72	100.000
186.09	33.333
186.47	400.000
186.85	380.000
187.23	-144.444
187.61	-500.000
187.98	100.000
188.36	200.000
188.74	50.000
189.12	233.333
189.49	25.000
189.87	-62.500
190.25	-11.111
190.63	200.000
191.00	55.556
191.38	0.000
191.76	0.000
192.14	0.000
192.51	500.000
192.89	-50.000
193.27	0.000
193.65	0.000
194.02	-600.000
194.40	-57.143
194.78	-28.571
195.15	0.000
195.53	0.000
195.91	0.000
196.29	200.000
196.66	38.462
197.04	-400.000
197.42	-114.286
197.79	-300.000
198.17	25.000
198.55	-28.571
198.92	-11.111
199.30	-25.000
199.68	0.000
200.05	42.857
200.43	-50.000
200.81	128.571
201.18	0.000
201.56	133.333
201.94	0.000
202.31	266.667
202.69	11.111
203.07	-400.000
203.44	66.667
203.82	0.000
204.19	-25.000
204.57	-150.000
204.95	-25.000
205.32	0.000
205.70	-225.000
206.08	16.667
206.45	50.000
206.83	420.000
207.20	-16.667
207.58	-200.000
207.96	-166.667
208.33	83.333
208.71	116.667
209.08	0.000
209.46	0.000
209.84	83.333
210.21	300.000
210.59	150.000
210.96	100.000
211.34	25.000
211.71	37.500
212.09	-1300.000
212.46	0.000
212.84	650.000
213.22	-100.000
213.59	0.000
213.97	20.000
214.34	0.000
214.72	-0.000
215.09	-50.000
215.47	0.000
215.84	-14.286
216.22	550.000
216.59	160.000
216.97	-200.000
217.34	-75.000
217.72	100.000
218.09	-50.000
218.47	-125.000
218.84	0.000
219.22	-100.000
219.59	-5.882
219.97	20.000
220.34	400.000
220.72	22.222
221.09	84.615
221.47	-33.333
221.84	30.000
222.22	-185.714
222.59	0.000
222.97	125.000
223.34	0.000
223.72	-700.000
224.09	-350.000
224.46	-175.000
224.84	280.000
225.21	-57.143
225.59	-100.000
225.96	150.000
226.34	15.385
226.71	166.667
227.08	-100.000
227.46	-6.667
227.83	175.000
228.21	36.842
228.58	37.500
228.95	100.000
229.33	50.000
229.70	20.000
230.08	36.842
230.45	100.000
230.82	-33.333
231.20	14.286
231.57	25.000
231.95	-18.182
232.32	90.909
232.69	20.000
233.07	125.000
233.44	0.000
233.81	-60.000
234.19	27.778
234.56	36.364
234.93	6.897
235.31	10.526
235.68	33.333
236.05	-60.000
236.43	26.923
236.80	52.000
237.17	14.815
237.55	15.152
237.92	-50.000
238.29	3.226
238.67	0.000
239.04	-5.556
239.41	2.381
239.79	15.217
240.16	24.074
240.53	19.565
240.91	-13.725
241.28	13.115
241.65	1.493
242.02	9.459
242.40	12.308
242.77	-1.333
243.14	2.439
243.51	-2.632
243.89	-7.692
244.26	3.960
244.63	6.863
245.00	5.607
245.38	-0.877
245.75	-10.619
246.12	9.524
246.49	4.651
246.87	5.714
247.24	9.934
247.61	6.579
247.98	5.369
248.36	2.469
248.73	0.000
249.10	1.639
249.47	5.473
249.84	7.330
250.22	3.109
250.59	-1.667
250.96	2.273
251.33	-4.592
251.70	4.701
252.08	5.833
252.45	3.689
252.82	3.306
253.19	2.344
253.56	4.183
253.94	3.462
254.31	3.030
254.68	7.692
255.05	8.469
255.42	1.701
255.79	3.236
256.16	4.636
256.54	2.980
256.91	6.230
257.28	6.885
257.65	0.318
258.02	-0.590
258.39	3.704
258.76	4.893
259.14	6.609
259.51	2.882
259.88	4.533
260.25	3.611
260.62	6.027
260.99	6.831
261.36	6.702
261.73	2.122
262.10	3.297
262.47	1.877
262.85	7.071
263.22	3.117
263.59	0.000
263.96	5.115
264.33	1.279
264.70	4.938
265.07	6.683
265.44	6.122
265.81	1.389
266.18	3.855
266.55	6.250
266.92	2.278
267.29	4.158
267.66	3.104
268.03	4.367
268.40	6.054
268.77	1.367
269.14	1.101
269.51	3.509
269.88	6.967
270.25	6.036
270.62	4.219
270.99	6.061
271.36	5.149
271.73	4.715
272.10	5.411
272.47	3.407
272.84	6.426
273.21	4.409
273.58	4.234
273.95	2.500
274.32	3.422
274.69	3.482
275.06	3.846
275.43	3.697
275.80	4.586
276.17	3.333
276.54	3.358
276.91	3.041
277.28	4.882
277.65	3.232
278.02	4.044
278.39	4.710
278.76	3.163
279.13	2.482
279.50	4.639
279.87	5.903
280.23	1.585
280.60	4.746
280.97	4.276
281.34	3.565
281.71	5.076
282.08	3.821
282.45	3.437
282.82	2.983
283.19	2.262
283.56	3.279
283.92	4.505
284.29	7.109
284.66	4.926
285.03	2.564
285.40	5.100
285.77	2.477
286.14	4.885
286.51	2.892
286.87	4.107
287.24	4.217
287.61	4.634
287.98	3.776
288.35	4.142
288.72	4.142
289.08	4.685
289.45	4.142
289.82	3.012
290.19	4.454
290.56	4.930
290.93	4.422
291.29	4.545
291.66	4.408
292.03	2.985
292.40	4.490
292.77	3.774
293.13	3.383
293.50	4.205
293.87	3.356
294.24	4.933
294.60	4.298
294.97	3.624
295.34	5.506
295.71	4.414
296.08	3.876
296.44	4.412
296.81	4.141
297.18	4.483
297.55	3.892
297.91	3.559
298.28	3.555
298.65	4.043
299.02	4.604
299.38	5.606
299.75	3.972
300.12	3.819
300.48	4.378
300.85	4.724
301.22	3.691
301.59	3.767
301.95	4.294
302.32	4.667
302.69	3.614
303.05	5.332
303.42	4.878
303.79	3.854
304.15	5.678
304.52	2.643
304.89	4.398
305.25	5.487
305.62	6.061
305.99	4.536
306.35	4.234
306.72	4.343
307.09	3.756
307.45	5.590
307.82	5.045
308.19	5.449
308.55	5.400
308.92	6.037
309.29	5.268
309.65	4.678
310.02	4.455
310.38	5.315
310.75	5.437
311.12	6.136
311.48	4.106
311.85	5.888
312.22	5.882
312.58	6.573
312.95	6.405
313.31	6.504
313.68	7.692
314.05	7.317
314.41	7.832
314.78	6.994
315.14	7.804
315.51	7.110
315.87	8.011
316.24	8.128
316.61	8.792
316.97	7.240
317.34	7.407
317.70	9.345
318.07	8.818
318.43	9.439
318.80	10.702
319.16	8.927
319.53	8.655
319.89	9.904
320.26	9.875
320.62	10.638
320.99	10.803
321.35	11.091
321.72	10.605
322.08	9.829
322.45	12.105
322.81	11.552
323.18	11.770
323.54	11.983
323.91	12.544
324.27	12.478
324.64	11.839
325.00	12.769
325.37	13.350
325.73	15.455
326.10	14.599
326.46	14.821
326.83	15.612
327.19	15.591
327.56	15.099
327.92	14.792
328.29	14.919
328.65	15.662
329.01	15.313
329.38	15.586
329.74	17.637
330.11	16.781
330.47	16.765
330.84	15.848
331.20	17.167
331.56	17.418
331.93	16.485
332.29	18.051
332.66	16.279
333.02	16.667
333.38	17.366
333.75	15.488
334.11	18.182
334.48	17.574
334.84	17.417
335.20	16.373
335.57	18.044
335.93	18.017
336.29	16.889
336.66	16.737
337.02	17.475
337.38	17.517
337.75	16.033
338.11	17.662
338.47	17.204
338.84	16.413
339.20	15.922
339.56	16.804
339.93	17.570
340.29	17.311
340.65	16.626
341.02	17.398
341.38	18.270
341.74	16.949
342.11	17.780
342.47	15.965
342.83	17.230
343.20	16.844
343.56	16.921
343.92	16.813
344.28	16.562
344.65	17.519
345.01	15.757
345.37	15.708
345.73	17.459
346.10	16.849
346.46	16.930
346.82	16.554
347.19	17.189
347.55	16.464
347.91	17.311
348.27	16.161
348.63	16.451
349.00	15.735
349.36	16.803
349.72	16.295
350.08	16.270
350.45	16.350
350.81	16.440
351.17	16.316
351.53	16.603
351.89	17.616
352.26	17.090
352.62	17.164
352.98	15.954
353.34	15.683
353.70	16.102
354.07	16.617
354.43	17.084
354.79	16.530
355.15	16.336
355.51	17.398
355.87	16.978
356.24	17.567
356.60	15.373
356.96	16.308
357.32	15.688
357.68	16.325
358.04	16.018
358.40	16.567
358.77	16.740
359.13	16.470
359.49	15.539
359.85	16.389
360.21	16.643
360.57	16.368
360.93	16.784
361.29	16.702
361.66	15.351
362.02	16.980
362.38	16.163
362.74	16.830
363.10	17.194
363.46	17.105
363.82	16.548
364.18	16.538
364.54	16.598
364.90	16.856
365.26	16.621
365.62	17.200
365.98	16.133
366.35	16.577
366.71	17.551
367.07	16.915
367.43	17.203
367.79	17.253
368.15	17.659
368.51	16.915
368.87	16.917
369.23	17.333
369.59	17.418
369.95	17.039
370.31	17.353
370.67	17.744
371.03	17.798
371.39	17.663
371.75	17.882
372.11	17.276
372.47	18.009
372.83	18.194
373.19	17.945
373.55	17.547
373.91	17.996
374.27	17.853
374.63	18.200
374.99	18.568
375.35	19.026
375.71	17.290
376.07	18.657
376.42	18.451
376.78	18.956
377.14	18.465
377.50	18.027
377.86	19.089
378.22	19.341
378.58	19.084
378.94	19.014
379.30	18.981
379.66	19.106
380.02	18.696
380.38	18.952
380.74	19.211
381.09	18.873
381.45	19.205
381.81	19.789
382.17	18.884
382.53	18.947
382.89	19.244
383.25	19.402
383.61	19.097
383.97	18.963
384.32	20.813
384.68	19.374
385.04	20.243
385.40	20.212
385.76	20.281
386.12	20.527
386.48	20.941
386.83	20.560
387.19	19.699
387.55	20.070
387.91	20.548
388.27	21.305
388.62	20.275
388.98	19.966
389.34	20.448
389.70	20.686
390.06	20.485
390.42	20.904
390.77	21.915
391.13	20.305
391.49	21.377
391.85	20.364
392.20	20.700
392.56	21.737
392.92	20.992
393.28	20.619
393.64	21.061
393.99	21.615
394.35	21.787
394.71	21.976
395.07	20.299
395.42	21.531
395.78	22.852
396.14	21.509
396.50	22.090
396.85	21.944
397.21	21.006
397.57	21.614
397.92	21.478
398.28	20.750
398.64	20.995
399.00	21.309
399.35	22.251
399.71	20.815
400.07	21.449
400.42	21.711
400.78	21.354
401.14	21.742
401.49	22.229
401.85	22.674
402.21	22.769
402.57	21.948
402.92	21.454
403.28	21.604
403.63	21.778
403.99	21.496
404.35	22.740
404.70	21.756
405.06	22.011
405.42	22.190
405.77	22.137
406.13	21.988
406.49	21.453
406.84	21.828
407.20	21.353
407.55	21.866
407.91	22.250
408.27	22.261
408.62	22.280
408.98	21.880
409.34	20.997
409.69	22.126
410.05	22.919
410.40	22.042
410.76	22.378
411.11	23.378
411.47	23.157
411.83	22.751
412.18	23.012
412.54	22.229
412.89	23.283
413.25	22.235
413.60	22.286
413.96	23.660
414.31	22.380
414.67	22.958
415.03	23.323
415.38	23.455
415.74	22.297
416.09	23.319
416.45	22.918
416.80	23.745
417.16	23.946
417.51	23.724
417.87	23.973
418.22	23.353
418.58	22.677
418.93	24.680
419.29	23.613
419.64	24.550
420.00	24.154
420.35	23.751
420.71	23.262
421.06	23.462
421.42	24.484
421.77	23.048
422.12	23.837
422.48	23.861
422.83	24.644
423.19	24.562
423.54	24.945
423.90	24.186
424.25	24.373
424.61	24.053
424.96	24.492
425.31	24.735
425.67	24.799
426.02	24.184
426.38	25.201
426.73	24.554
427.09	25.779
427.44	24.304
427.79	24.876
428.15	24.886
428.50	24.944
428.85	25.545
429.21	26.011
429.56	24.827
429.92	25.012
430.27	24.819
430.62	25.550
430.98	25.627
431.33	24.927
431.68	25.527
432.04	26.206
432.39	25.710
432.74	25.799
433.10	26.663
433.45	24.861
433.80	25.429
434.16	26.188
434.51	26.927
434.86	26.547
435.22	26.621
435.57	27.300
435.92	26.822
436.28	27.361
436.63	27.362
436.98	25.604
437.34	27.283
437.69	26.857
438.04	27.023
438.39	26.479
438.75	25.844
439.10	27.273
439.45	27.222
439.81	26.836
440.16	26.488
440.51	27.759
440.86	26.237
441.22	26.474
441.57	26.677
441.92	27.255
442.27	27.677
442.63	27.173
442.98	28.122
443.33	26.618
443.68	27.304
444.03	27.375
444.39	27.277
444.74	27.667
445.09	27.116
445.44	28.504
445.79	27.826
446.15	28.160
446.50	27.183
446.85	27.918
447.20	28.530
447.55	28.190
447.91	27.330
448.26	27.431
448.61	27.736
448.96	28.648
449.31	27.996
449.66	27.941
450.02	26.741
450.37	27.491
450.72	27.772
451.07	28.360
451.42	27.210
451.77	27.738
452.12	28.386
452.47	27.035
452.83	28.266
453.18	27.729
453.53	27.455
453.88	27.499
454.23	28.418
454.58	28.497
454.93	28.095
455.28	28.477
455.63	27.857
455.98	27.989
456.34	28.681
456.69	28.101
457.04	27.719
457.39	28.825
457.74	28.020
458.09	28.501
458.44	28.341
458.79	27.849
459.14	28.474
459.49	28.297
459.84	28.541
460.19	27.873
460.54	28.563
460.89	28.057
461.24	27.816
461.59	28.334
461.94	27.496
462.29	28.331
462.64	27.097
462.99	27.433
463.34	29.591
463.69	27.491
464.04	28.683
464.39	28.643
464.74	28.620
465.09	27.970
465.44	28.433
465.79	28.239
466.14	27.358
466.49	28.316
466.84	28.320
467.19	28.208
467.54	27.086
467.89	26.839
468.24	27.867
468.59	27.504
468.94	27.448
469.29	28.074
469.64	27.591
469.99	28.681
470.34	27.166
470.68	27.614
471.03	29.470
471.38	27.861
471.73	27.958
472.08	27.665
472.43	28.838
472.78	27.645
473.13	28.192
473.48	28.157
473.83	27.916
474.17	27.843
474.52	28.563
474.87	27.962
475.22	27.662
475.57	27.155
475.92	28.223
476.27	27.210
476.61	27.466
476.96	27.737
477.31	27.129
477.66	28.332
478.01	27.097
478.36	26.869
478.70	27.931
479.05	28.272
479.40	26.703
479.75	27.618
480.10	26.954
480.45	27.894
480.79	27.619
481.14	27.803
481.49	27.169
481.84	26.849
482.19	28.086
482.53	27.853
482.88	27.780
483.23	26.278
483.58	27.904
483.92	26.507
484.27	27.519
484.62	27.021
484.97	27.022
485.31	27.138
485.66	25.115
486.01	24.635
486.36	25.547
486.70	26.846
487.05	27.219
487.40	27.003
487.75	26.590
488.09	26.881
488.44	26.973
488.79	27.622
489.13	26.647
489.48	26.369
489.83	26.519
490.17	26.934
490.52	26.806
490.87	26.819
491.22	26.083
491.56	26.067
491.91	27.213
492.26	26.742
492.60	26.804
492.95	26.722
493.30	26.714
493.64	26.237
493.99	26.360
494.34	26.002
494.68	26.338
495.03	26.740
495.37	26.676
495.72	26.440
496.07	26.512
496.41	26.126
496.76	26.105
497.11	26.667
497.45	25.550
497.80	26.433
498.14	25.896
498.49	25.414
498.84	26.645
499.18	25.281
499.53	26.188
499.87	26.374
500.22	25.646
500.56	26.136
500.91	25.995
501.26	26.773
501.60	26.072
501.95	26.227
502.29	25.406
502.64	26.104
502.98	25.324
503.33	25.659
503.67	25.425
504.02	25.088
504.36	25.737
504.71	25.402
505.06	25.648
505.40	25.366
505.75	25.410
506.09	26.197
506.44	25.859
506.78	25.596
507.13	25.403
507.47	25.628
507.82	25.900
508.16	24.665
508.51	24.895
508.85	24.846
509.19	25.391
509.54	25.600
509.88	25.449
510.23	25.401
510.57	25.520
510.92	25.689
511.26	24.916
511.61	24.529
511.95	24.402
512.30	25.258
512.64	23.738
512.98	25.413
513.33	24.597
513.67	25.293
514.02	24.987
514.36	24.297
514.70	25.156
515.05	24.609
515.39	24.829
515.74	25.345
516.08	25.357
516.42	25.903
516.77	25.184
517.11	24.342
517.46	24.708
517.80	24.906
518.14	25.354
518.49	24.349
518.83	23.789
519.17	24.179
519.52	23.952
519.86	24.076
520.20	25.133
520.55	24.151
520.89	25.394
521.23	24.456
521.58	24.463
521.92	23.853
522.26	23.711
522.61	24.363
522.95	24.683
523.29	23.448
523.64	23.823
523.98	24.472
524.32	24.871
524.66	24.474
525.01	23.556
525.35	23.894
525.69	23.144
526.04	23.536
526.38	24.080
526.72	24.221
527.06	23.167
527.41	23.440
527.75	23.278
528.09	24.970
528.43	23.446
528.78	22.659
529.12	23.681
529.46	22.597
529.80	22.712
530.15	23.652
530.49	22.361
530.83	23.613
531.17	23.297
531.51	22.924
531.86	23.738
532.20	24.146
532.54	23.639
532.88	22.848
533.22	22.864
533.57	23.139
533.91	22.896
534.25	23.007
534.59	22.931
534.93	22.524
535.27	22.704
535.62	24.105
535.96	23.475
536.30	22.503
536.64	23.063
536.98	21.710
537.32	22.778
537.66	22.895
538.01	21.934
538.35	22.168
538.69	22.055
539.03	22.440
539.37	22.850
539.71	22.222
540.05	21.643
540.39	21.577
540.73	21.554
541.07	22.256
541.42	21.205
541.76	20.700
542.10	21.894
542.44	21.559
542.78	22.141
543.12	21.573
543.46	21.306
543.80	20.923
544.14	21.424
544.48	22.222
544.82	22.202
545.16	20.692
545.50	20.791
545.84	21.433
546.18	22.284
546.52	21.210
546.86	20.881
547.20	21.247
547.54	20.162
547.88	20.735
548.22	20.409
548.56	20.831
548.90	20.716
549.24	21.398
549.58	20.883
549.92	20.408
550.26	20.971
550.60	20.613
550.94	21.022
551.28	20.066
551.62	21.294
551.96	19.094
552.30	21.033
552.64	20.348
552.98	20.087
553.32	21.672
553.66	20.386
554.00	19.735
554.34	20.077
554.68	20.852
555.02	19.711
555.36	20.053
555.69	18.322
556.03	19.420
556.37	19.712
556.71	19.784
557.05	19.297
557.39	19.177
557.73	19.947
558.07	19.801
558.41	20.133
558.75	18.999
559.08	19.694
559.42	19.067
559.76	20.421
560.10	20.027
560.44	19.525
560.78	19.688
561.12	19.643
561.45	19.100
561.79	19.170
562.13	18.731
562.47	18.866
562.81	18.987
563.15	19.634
563.48	18.956
563.82	18.138
564.16	18.231
564.50	18.355
564.84	18.702
565.17	18.000
565.51	18.930
565.85	18.527
566.19	18.491
566.52	18.607
566.86	17.883
567.20	17.836
567.54	17.897
567.88	17.941
568.21	17.589
568.55	17.170
568.89	18.066
569.23	16.646
569.56	17.116
569.90	16.750
570.24	17.605
570.57	17.351
570.91	16.932
571.25	16.662
571.59	17.117
571.92	16.551
572.26	16.490
572.60	16.380
572.93	17.200
573.27	16.381
573.61	16.278
573.95	16.048
574.28	16.001
574.62	16.166
574.96	15.902
575.29	15.796
575.63	16.078
575.97	16.551
576.30	15.988
576.64	15.843
576.98	15.718
577.31	15.922
577.65	16.034
577.98	15.870
578.32	15.591
578.66	15.624
578.99	15.605
579.33	16.096
579.67	15.277
580.00	15.801
580.34	15.860
580.67	15.291
581.01	15.621
581.35	15.040
581.68	15.102
582.02	15.081
582.35	15.357
582.69	15.241
583.02	15.941
583.36	15.527
583.70	15.587
584.03	15.263
584.37	15.453
584.70	15.037
585.04	14.880
585.37	15.002
585.71	14.995
586.04	15.236
586.38	15.181
586.72	15.117
587.05	15.068
587.39	15.108
587.72	15.287
588.06	15.401
588.39	15.210
588.73	14.815
589.06	14.757
589.40	15.458
589.73	14.814
590.07	15.153
590.40	15.483
590.73	14.528
591.07	15.413
591.40	15.280
591.74	14.547
592.07	15.388
592.41	14.432
592.74	14.306
593.08	14.904
593.41	14.523
593.75	14.224
594.08	14.662
594.41	14.647
594.75	14.347
595.08	14.065
595.42	14.383
595.75	14.078
596.09	14.978
596.42	14.224
596.75	14.782
597.09	14.788
597.42	14.700
597.75	14.622
598.09	14.563
598.42	15.159
598.76	13.412
599.09	14.098
599.42	14.214
599.76	13.833
600.09	14.281
600.42	13.981
600.76	13.507
601.09	14.205
601.42	13.869
601.76	13.828
602.09	13.831
602.42	14.140
602.76	13.801
603.09	13.913
603.42	14.053
603.76	14.059
604.09	14.194
604.42	14.239
604.76	13.775
605.09	13.801
605.42	13.557
605.75	13.500
606.09	13.177
606.42	13.243
606.75	13.006
607.09	12.865
607.42	12.794
607.75	13.716
608.08	13.654
608.42	13.704
608.75	13.723
609.08	13.073
609.41	13.939
609.75	13.393
610.08	13.940
610.41	13.339
610.74	13.445
611.07	12.789
611.41	13.318
611.74	13.811
612.07	13.511
612.40	13.451
612.73	13.692
613.07	13.496
613.40	13.859
613.73	13.866
614.06	12.905
614.39	13.168
614.72	13.683
615.06	12.993
615.39	13.243
615.72	13.460
616.05	12.482
616.38	13.068
616.71	13.271
617.05	12.247
617.38	13.216
617.71	13.337
618.04	13.060
618.37	13.880
618.70	12.952
619.03	12.724
619.36	12.947
619.69	12.940
620.03	13.057
620.36	13.190
620.69	12.338
621.02	13.123
621.35	13.353
621.68	13.521
622.01	14.377
622.34	11.785
622.67	12.302
623.00	11.336
623.33	12.940
623.66	13.489
623.99	12.903
624.32	13.450
624.65	12.934
624.99	12.614
625.32	12.737
625.65	13.351
625.98	12.542
626.31	12.899
626.64	13.480
626.97	12.753
627.30	12.301
627.63	12.303
627.96	14.114
628.29	13.307
628.62	12.762
628.95	13.848
629.28	12.574
629.61	13.131
629.94	11.715
630.26	12.119
630.59	13.644
630.92	11.602
631.25	12.075
631.58	11.959
631.91	11.809
632.24	12.488
632.57	12.524
632.90	11.936
633.23	12.551
633.56	13.061
633.89	11.880
634.22	12.266
634.55	13.987
634.88	13.528
635.20	12.487
635.53	13.107
635.86	12.676
636.19	13.468
636.52	12.025
636.85	11.747
637.18	12.370
637.51	12.151
637.83	12.735
638.16	12.097
638.49	11.972
638.82	12.514
639.15	13.058
