SpectraSuite Data File
++++++++++++++++++++++++++++++++++++
Date: Thu May 14 14:31:24 PDT 2015
User: schluterlab
Dark Spectrum Present: Yes
Reference Spectrum Present: Yes
Number of Sampled Component Spectra: 1
Spectrometers: USB2E3373
Integration Time (usec): 3000 (USB2E3373)
Spectra Averaged: 3 (USB2E3373)
Boxcar Smoothing: 0 (USB2E3373)
Correct for Electrical Dark: No (USB2E3373)
Strobe/Lamp Enabled: No (USB2E3373)
Correct for Detector Non-linearity: No (USB2E3373)
Correct for Stray Light: No (USB2E3373)
Number of Pixels in Processed Spectrum: 2048
>>>>>Begin Processed Spectral Data<<<<<
178.53	0.000
178.91	-214.286
179.29	900.000
179.67	1500.000
180.04	21.429
180.42	-140.000
180.80	-180.000
181.18	1400.000
181.56	2200.000
181.94	-375.000
182.31	325.000
182.69	-666.667
183.07	1300.000
183.45	-575.000
183.83	266.667
184.20	800.000
184.58	-1800.000
184.96	375.000
185.34	177.778
185.72	560.000
186.09	-77.778
186.47	-600.000
186.85	-200.000
187.23	166.667
187.61	1600.000
187.98	-300.000
188.36	-75.000
188.74	650.000
189.12	633.333
189.49	162.500
189.87	262.500
190.25	233.333
190.63	360.000
191.00	133.333
191.38	0.000
191.76	325.000
192.14	283.333
192.51	-750.000
192.89	333.333
193.27	0.000
193.65	214.286
194.02	500.000
194.40	285.714
194.78	-114.286
195.15	0.000
195.53	200.000
195.91	0.000
196.29	525.000
196.66	153.846
197.04	1300.000
197.42	185.714
197.79	1350.000
198.17	137.500
198.55	342.857
198.92	166.667
199.30	100.000
199.68	154.545
200.05	135.714
200.43	200.000
200.81	-128.571
201.18	0.000
201.56	-88.889
201.94	0.000
202.31	-733.333
202.69	11.111
203.07	-2600.000
203.44	266.667
203.82	475.000
204.19	150.000
204.57	216.667
204.95	212.500
205.32	1600.000
205.70	-250.000
206.08	283.333
206.45	266.667
206.83	-180.000
207.20	250.000
207.58	160.000
207.96	416.667
208.33	300.000
208.71	-91.667
209.08	466.667
209.46	0.000
209.84	-266.667
210.21	-1100.000
210.59	-750.000
210.96	-566.667
211.34	400.000
211.71	225.000
212.09	1500.000
212.46	0.000
212.84	-100.000
213.22	120.000
213.59	275.000
213.97	180.000
214.34	500.000
214.72	-183.333
215.09	250.000
215.47	0.000
215.84	-185.714
216.22	-700.000
216.59	500.000
216.97	400.000
217.34	475.000
217.72	187.500
218.09	400.000
218.47	175.000
218.84	0.000
219.22	-500.000
219.59	88.235
219.97	90.000
220.34	-250.000
220.72	211.111
221.09	192.308
221.47	533.333
221.84	180.000
222.22	300.000
222.59	0.000
222.97	337.500
223.34	320.000
223.72	2000.000
224.09	425.000
224.46	150.000
224.84	480.000
225.21	185.714
225.59	475.000
225.96	225.000
226.34	84.615
226.71	-166.667
227.08	550.000
227.46	120.000
227.83	450.000
228.21	131.579
228.58	-112.500
228.95	-150.000
229.33	225.000
229.70	200.000
230.08	131.579
230.45	-90.000
230.82	533.333
231.20	135.714
231.57	233.333
231.95	218.182
232.32	190.909
232.69	95.000
233.07	550.000
233.44	123.529
233.81	110.000
234.19	144.444
234.56	100.000
234.93	103.448
235.31	121.053
235.68	127.778
236.05	30.000
236.43	80.769
236.80	128.000
237.17	74.074
237.55	69.697
237.92	160.000
238.29	58.065
238.67	56.818
239.04	55.556
239.41	33.333
239.79	52.174
240.16	68.519
240.53	39.130
240.91	31.373
241.28	24.590
241.65	43.284
242.02	44.595
242.40	56.923
242.77	34.667
243.14	29.268
243.51	31.579
243.89	33.333
244.26	46.535
244.63	35.294
245.00	31.776
245.38	22.807
245.75	28.319
246.12	33.333
246.49	24.806
246.87	31.429
247.24	30.464
247.61	28.947
247.98	33.557
248.36	26.543
248.73	29.448
249.10	30.601
249.47	27.861
249.84	30.890
250.22	22.798
250.59	28.889
250.96	25.455
251.33	24.490
251.70	25.641
252.08	25.417
252.45	24.590
252.82	24.380
253.19	22.266
253.56	24.335
253.94	23.846
254.31	23.864
254.68	26.573
255.05	25.081
255.42	19.048
255.79	22.330
256.16	19.536
256.54	19.868
256.91	25.246
257.28	22.295
257.65	22.611
258.02	19.764
258.39	23.362
258.76	25.382
259.14	22.989
259.51	22.190
259.88	21.530
260.25	23.333
260.62	24.932
260.99	24.044
261.36	24.397
261.73	19.629
262.10	19.780
262.47	22.252
262.85	26.263
263.22	22.338
263.59	21.579
263.96	23.274
264.33	20.460
264.70	23.704
265.07	21.002
265.44	24.036
265.81	22.222
266.18	21.995
266.55	24.330
266.92	18.907
267.29	23.632
267.66	19.069
268.03	23.144
268.40	21.712
268.77	20.046
269.14	18.282
269.51	21.711
269.88	23.156
270.25	19.920
270.62	21.308
270.99	24.040
271.36	23.168
271.73	21.022
272.10	18.838
272.47	20.441
272.84	22.892
273.21	20.040
273.58	21.169
273.95	19.808
274.32	18.061
274.69	19.342
275.06	22.344
275.43	19.039
275.80	19.929
276.17	18.704
276.54	19.963
276.91	21.467
277.28	21.519
277.65	18.851
278.02	20.404
278.39	19.022
278.76	18.981
279.13	19.326
279.50	19.759
279.87	18.247
280.23	16.901
280.60	20.678
280.97	20.888
281.34	20.204
281.71	20.474
282.08	18.771
282.45	19.476
282.82	20.094
283.19	20.032
283.56	19.180
283.92	20.571
284.29	21.801
284.66	21.346
285.03	18.750
285.40	19.011
285.77	17.028
286.14	20.153
286.51	17.808
286.87	19.905
287.24	18.223
287.61	18.236
287.98	18.278
288.35	18.787
288.72	18.935
289.08	20.059
289.45	18.343
289.82	20.181
290.19	18.247
290.56	19.577
290.93	19.544
291.29	16.942
291.66	17.631
292.03	16.825
292.40	18.639
292.77	16.307
293.13	18.809
293.50	17.346
293.87	17.718
294.24	20.267
294.60	17.573
294.97	17.181
295.34	18.822
295.71	15.763
296.08	19.121
296.44	17.647
296.81	18.270
297.18	18.680
297.55	18.514
297.91	17.675
298.28	15.403
298.65	18.193
299.02	17.710
299.38	18.078
299.75	17.991
300.12	17.130
300.48	16.590
300.85	18.110
301.22	18.792
301.59	17.466
301.95	18.644
302.32	18.111
302.69	18.401
303.05	19.151
303.42	17.517
303.79	17.604
304.15	17.455
304.52	17.653
304.89	18.639
305.25	18.012
305.62	18.600
305.99	18.969
306.35	18.548
306.72	18.925
307.09	18.274
307.45	19.151
307.82	18.264
308.19	19.677
308.55	19.961
308.92	18.793
309.29	19.636
309.65	16.862
310.02	18.911
310.38	19.488
310.75	20.971
311.12	21.189
311.48	20.235
311.85	19.848
312.22	20.493
312.58	20.563
312.95	20.459
313.31	20.958
313.68	22.344
314.05	21.861
314.41	22.131
314.78	21.798
315.14	21.779
315.51	22.622
315.87	23.222
316.24	23.105
316.61	23.091
316.97	23.167
317.34	22.928
317.70	24.279
318.07	23.898
318.43	23.810
318.80	24.498
319.16	24.721
319.53	24.079
319.89	23.663
320.26	25.890
320.62	24.645
320.99	24.746
321.35	26.340
321.72	26.047
322.08	26.420
322.45	26.920
322.81	27.888
323.18	27.699
323.54	27.672
323.91	29.448
324.27	28.141
324.64	28.883
325.00	28.607
325.37	30.385
325.73	31.240
326.10	30.981
326.46	31.840
326.83	32.586
327.19	30.866
327.56	33.123
327.92	32.101
328.29	32.177
328.65	32.663
329.01	34.433
329.38	32.856
329.74	34.161
330.11	35.103
330.47	35.889
330.84	35.314
331.20	36.000
331.56	36.568
331.93	35.900
332.29	36.610
332.66	35.880
333.02	34.841
333.38	35.906
333.75	35.017
334.11	35.696
334.48	36.799
334.84	36.619
335.20	35.348
335.57	36.509
335.93	35.041
336.29	35.524
336.66	37.426
337.02	34.699
337.38	37.245
337.75	35.372
338.11	36.165
338.47	36.807
338.84	35.871
339.20	35.720
339.56	36.161
339.93	35.961
340.29	34.863
340.65	35.442
341.02	35.435
341.38	35.893
341.74	34.140
342.11	36.122
342.47	35.743
342.83	36.071
343.20	35.568
343.56	36.167
343.92	36.829
344.28	35.703
344.65	35.814
345.01	33.541
345.37	36.392
345.73	35.308
346.10	34.867
346.46	34.968
346.82	35.431
347.19	34.989
347.55	34.370
347.91	35.661
348.27	36.115
348.63	35.263
349.00	34.303
349.36	35.613
349.72	35.417
350.08	34.993
350.45	34.144
350.81	34.314
351.17	36.015
351.53	36.543
351.89	35.383
352.26	35.672
352.62	34.104
352.98	36.641
353.34	34.802
353.70	35.131
354.07	34.948
354.43	35.459
354.79	35.228
355.15	35.099
355.51	35.819
355.87	34.480
356.24	35.817
356.60	34.146
356.96	35.360
357.32	35.019
357.68	34.846
358.04	35.105
358.40	34.627
358.77	35.234
359.13	36.115
359.49	34.647
359.85	35.098
360.21	34.433
360.57	35.607
360.93	34.908
361.29	35.368
361.66	35.554
362.02	35.630
362.38	36.051
362.74	34.916
363.10	35.695
363.46	35.526
363.82	35.511
364.18	34.905
364.54	34.716
364.90	35.786
365.26	36.345
365.62	35.400
365.98	36.760
366.35	35.369
366.71	36.259
367.07	36.333
367.43	36.507
367.79	36.961
368.15	36.789
368.51	36.942
368.87	36.055
369.23	36.800
369.59	36.749
369.95	36.714
370.31	35.989
370.67	36.933
371.03	36.496
371.39	35.393
371.75	37.964
372.11	36.314
372.47	37.373
372.83	37.369
373.19	36.291
373.55	37.602
373.91	36.264
374.27	36.093
374.63	37.483
374.99	36.936
375.35	37.403
375.71	36.194
376.07	38.089
376.42	36.713
376.78	37.477
377.14	37.056
377.50	37.381
377.86	37.869
378.22	38.563
378.58	39.239
378.94	38.204
379.30	37.493
379.66	38.683
380.02	38.373
380.38	37.846
380.74	38.085
381.09	38.908
381.45	39.034
381.81	38.993
382.17	38.302
382.53	38.889
382.89	38.995
383.25	40.328
383.61	38.426
383.97	38.339
384.32	38.696
384.68	39.037
385.04	39.445
385.40	40.071
385.76	38.980
386.12	39.916
386.48	39.118
386.83	40.286
387.19	40.962
387.55	38.967
387.91	39.326
388.27	39.030
388.62	39.633
388.98	39.876
389.34	40.130
389.70	39.396
390.06	40.083
390.42	40.663
390.77	41.541
391.13	39.378
391.49	40.399
391.85	40.606
392.20	39.620
392.56	40.638
392.92	41.221
393.28	41.570
393.64	39.832
393.99	41.023
394.35	41.647
394.71	40.778
395.07	39.581
395.42	40.434
395.78	40.890
396.14	41.771
396.50	41.508
396.85	40.906
397.21	41.243
397.57	41.166
397.92	41.294
398.28	40.359
398.64	40.160
399.00	39.791
399.35	40.000
399.71	40.924
400.07	40.820
400.42	40.629
400.78	41.088
401.14	41.377
401.49	40.875
401.85	40.698
402.21	41.657
402.57	40.962
402.92	41.903
403.28	40.164
403.63	42.243
403.99	41.449
404.35	41.785
404.70	40.680
405.06	40.924
405.42	42.155
405.77	42.475
406.13	41.761
406.49	41.836
406.84	40.886
407.20	41.643
407.55	41.853
407.91	41.672
408.27	42.638
408.62	40.780
408.98	42.310
409.34	41.349
409.69	42.892
410.05	42.556
410.40	43.619
410.76	42.793
411.11	43.425
411.47	42.813
411.83	43.092
412.18	44.036
412.54	42.620
412.89	43.015
413.25	43.849
413.60	43.194
413.96	43.648
414.31	41.473
414.67	42.278
415.03	42.277
415.38	43.947
415.74	43.372
416.09	44.170
416.45	43.269
416.80	43.513
417.16	44.828
417.51	42.902
417.87	44.390
418.22	44.850
418.58	44.238
418.93	44.121
419.29	44.390
419.64	43.517
420.00	43.917
420.35	43.459
420.71	44.974
421.06	45.256
421.42	45.872
421.77	43.942
422.12	44.292
422.48	45.059
422.83	43.647
423.19	44.668
423.54	45.631
423.90	45.555
424.25	47.467
424.61	45.408
424.96	45.634
425.31	45.701
425.67	45.679
426.02	46.265
426.38	46.326
426.73	46.652
427.09	46.424
427.44	46.477
427.79	46.324
428.15	46.347
428.50	47.584
428.85	46.785
429.21	47.234
429.56	47.335
429.92	47.617
430.27	47.229
430.62	47.777
430.98	47.418
431.33	47.507
431.68	46.695
432.04	48.502
432.39	48.099
432.74	48.059
433.10	49.432
433.45	49.052
433.80	48.176
434.16	48.605
434.51	48.150
434.86	49.566
435.22	50.106
435.57	50.295
435.92	49.583
436.28	50.739
436.63	50.737
436.98	49.758
437.34	49.775
437.69	49.202
438.04	50.661
438.39	49.799
438.75	50.304
439.10	50.317
439.45	49.581
439.81	50.960
440.16	50.027
440.51	50.892
440.86	49.972
441.22	50.857
441.57	51.939
441.92	50.679
442.27	51.111
442.63	51.664
442.98	51.441
443.33	50.395
443.68	51.189
444.03	52.446
444.39	50.763
444.74	52.986
445.09	51.343
445.44	52.687
445.79	51.485
446.15	52.055
446.50	51.473
446.85	52.675
447.20	52.901
447.55	53.190
447.91	51.937
448.26	52.960
448.61	52.550
448.96	54.560
449.31	52.492
449.66	53.922
450.02	52.954
450.37	53.170
450.72	53.068
451.07	54.385
451.42	51.935
451.77	53.585
452.12	54.176
452.47	52.763
452.83	55.124
453.18	53.065
453.53	53.647
453.88	53.396
454.23	55.537
454.58	55.136
454.93	53.762
455.28	54.425
455.63	54.065
455.98	54.358
456.34	54.299
456.69	54.791
457.04	55.556
457.39	54.823
457.74	56.879
458.09	54.750
458.44	55.172
458.79	54.255
459.14	55.165
459.49	55.857
459.84	54.040
460.19	54.359
460.54	55.991
460.89	55.691
461.24	54.655
461.59	55.506
461.94	54.079
462.29	55.487
462.64	55.160
462.99	57.250
463.34	56.392
463.69	55.334
464.04	55.976
464.39	55.325
464.74	55.872
465.09	55.190
465.44	56.009
465.79	54.892
466.14	54.924
466.49	54.632
466.84	55.647
467.19	54.913
467.54	54.348
467.89	54.828
468.24	55.900
468.59	55.124
468.94	55.420
469.29	54.409
469.64	55.944
469.99	57.425
470.34	56.559
470.68	57.075
471.03	57.236
471.38	56.311
471.73	58.062
472.08	57.741
472.43	56.773
472.78	57.242
473.13	56.195
473.48	56.798
473.83	56.529
474.17	57.386
474.52	57.486
474.87	57.641
475.22	57.352
475.57	56.646
475.92	55.600
476.27	55.804
476.61	56.490
476.96	55.422
477.31	56.980
477.66	57.503
478.01	56.126
478.36	55.334
478.70	57.143
479.05	57.157
479.40	56.466
479.75	56.292
480.10	57.035
480.45	55.652
480.79	56.145
481.14	56.480
481.49	56.111
481.84	56.919
482.19	57.075
482.53	55.969
482.88	56.447
483.23	57.359
483.58	56.725
483.92	55.984
484.27	55.546
484.62	56.353
484.97	56.415
485.31	55.509
485.66	54.631
486.01	53.001
486.36	52.717
486.70	53.452
487.05	53.625
487.40	54.214
487.75	55.547
488.09	56.100
488.44	55.734
488.79	57.099
489.13	56.988
489.48	57.320
489.83	55.775
490.17	56.379
490.52	55.952
490.87	57.234
491.22	57.582
491.56	56.698
491.91	56.869
492.26	56.815
492.60	57.411
492.95	57.306
493.30	56.432
493.64	57.381
493.99	56.623
494.34	56.707
494.68	56.103
495.03	56.167
495.37	56.902
495.72	56.780
496.07	57.143
496.41	56.242
496.76	57.798
497.11	57.113
497.45	57.229
497.80	57.441
498.14	56.961
498.49	57.261
498.84	57.084
499.18	57.580
499.53	56.413
499.87	57.011
500.22	56.589
500.56	56.950
500.91	57.849
501.26	57.636
501.60	56.783
501.95	56.839
502.29	57.218
502.64	56.362
502.98	55.781
503.33	56.674
503.67	56.563
504.02	56.918
504.36	57.507
504.71	57.510
505.06	57.026
505.40	56.947
505.75	57.468
506.09	57.182
506.44	57.753
506.78	57.890
507.13	57.861
507.47	57.603
507.82	56.913
508.16	58.317
508.51	56.681
508.85	58.668
509.19	57.840
509.54	57.349
509.88	58.038
510.23	57.989
510.57	58.531
510.92	57.088
511.26	57.239
511.61	57.315
511.95	56.857
512.30	57.706
512.64	56.672
512.98	57.379
513.33	58.317
513.67	57.828
514.02	58.099
514.36	58.261
514.70	58.958
515.05	57.821
515.39	58.058
515.74	58.271
516.08	58.690
516.42	58.765
516.77	58.412
517.11	57.401
517.46	58.643
517.80	59.487
518.14	59.467
518.49	58.243
518.83	57.903
519.17	57.243
519.52	57.495
519.86	57.867
520.20	57.987
520.55	57.284
520.89	58.671
521.23	58.906
521.58	58.136
521.92	59.547
522.26	59.107
522.61	59.491
522.95	58.247
523.29	58.333
523.64	56.670
523.98	58.871
524.32	59.255
524.66	60.046
525.01	57.135
525.35	56.289
525.69	58.469
526.04	57.405
526.38	57.931
526.72	58.016
527.06	58.592
527.41	58.484
527.75	59.323
528.09	57.497
528.43	57.963
528.78	57.110
529.12	57.798
529.46	57.111
529.80	57.437
530.15	57.623
530.49	57.592
530.83	57.851
531.17	59.319
531.51	57.341
531.86	58.413
532.20	58.110
532.54	56.314
532.88	58.121
533.22	56.924
533.57	56.838
533.91	56.566
534.25	56.586
534.59	56.667
534.93	57.272
535.27	57.465
535.62	57.192
535.96	57.699
536.30	57.403
536.64	57.958
536.98	57.442
537.32	57.840
537.66	58.578
538.01	56.495
538.35	55.725
538.69	57.572
539.03	58.124
539.37	56.714
539.71	56.697
540.05	57.194
540.39	56.540
540.73	55.798
541.07	56.530
541.42	56.291
541.76	55.279
542.10	56.454
542.44	56.395
542.78	56.326
543.12	56.377
543.46	56.410
543.80	55.036
544.14	55.655
544.48	55.319
544.82	57.630
545.16	55.635
545.50	55.482
545.84	55.971
546.18	56.914
546.52	57.389
546.86	56.038
547.20	55.662
547.54	55.368
547.88	54.913
548.22	55.380
548.56	54.593
548.90	55.821
549.24	55.076
549.58	54.259
549.92	55.676
550.26	55.858
550.60	55.520
550.94	55.692
551.28	55.776
551.62	56.941
551.96	55.534
552.30	55.194
552.64	54.325
552.98	55.271
553.32	55.756
553.66	56.656
554.00	55.296
554.34	54.247
554.68	54.035
555.02	55.716
555.36	56.147
555.69	53.427
556.03	54.288
556.37	55.695
556.71	55.422
557.05	55.016
557.39	53.550
557.73	56.143
558.07	55.033
558.41	55.548
558.75	55.849
559.08	55.811
559.42	55.487
559.76	55.224
560.10	55.660
560.44	55.079
560.78	54.312
561.12	55.296
561.45	54.440
561.79	54.335
562.13	55.145
562.47	53.083
562.81	53.671
563.15	53.409
563.48	54.133
563.82	53.869
564.16	54.512
564.50	52.622
564.84	53.333
565.17	52.882
565.51	53.165
565.85	53.919
566.19	53.341
566.52	53.423
566.86	52.971
567.20	52.746
567.54	52.629
567.88	52.396
568.21	52.223
568.55	51.607
568.89	52.065
569.23	51.204
569.56	50.528
569.90	50.107
570.24	50.624
570.57	49.487
570.91	48.408
571.25	49.060
571.59	48.539
571.92	48.374
572.26	48.624
572.60	48.485
572.93	49.346
573.27	48.834
573.61	47.856
573.95	47.706
574.28	47.372
574.62	47.249
574.96	47.287
575.29	47.235
575.63	46.985
575.97	47.449
576.30	47.323
576.64	47.483
576.98	47.608
577.31	48.095
577.65	47.379
577.98	46.969
578.32	46.277
578.66	46.099
578.99	47.164
579.33	47.443
579.67	47.076
580.00	47.224
580.34	47.339
580.67	46.403
581.01	46.820
581.35	46.581
581.68	46.477
582.02	45.521
582.35	46.005
582.69	46.425
583.02	46.085
583.36	46.663
583.70	47.603
584.03	47.300
584.37	48.112
584.70	47.164
585.04	46.547
585.37	46.553
585.71	46.516
586.04	46.191
586.38	46.193
586.72	46.453
587.05	46.969
587.39	46.647
587.72	46.866
588.06	46.035
588.39	46.776
588.73	46.270
589.06	47.348
589.40	48.648
589.73	46.979
590.07	47.480
590.40	47.938
590.73	48.038
591.07	48.250
591.40	47.512
591.74	48.211
592.07	47.868
592.41	47.595
592.74	46.539
593.08	47.102
593.41	46.165
593.75	46.092
594.08	46.774
594.41	46.378
594.75	45.998
595.08	46.097
595.42	46.429
595.75	46.464
596.09	47.679
596.42	47.367
596.75	48.051
597.09	47.838
597.42	47.040
597.75	47.276
598.09	46.032
598.42	47.165
598.76	45.739
599.09	46.422
599.42	45.592
599.76	44.635
600.09	46.246
600.42	44.845
600.76	45.476
601.09	45.934
601.42	45.863
601.76	46.034
602.09	46.569
602.42	45.620
602.76	45.830
603.09	46.880
603.42	45.592
603.76	45.701
604.09	46.593
604.42	46.752
604.76	45.205
605.09	46.590
605.42	46.691
605.75	46.115
606.09	44.793
606.42	45.385
606.75	45.765
607.09	44.739
607.42	44.663
607.75	44.939
608.08	45.264
608.42	45.667
608.75	45.688
609.08	44.694
609.41	46.405
609.75	45.938
610.08	46.438
610.41	45.497
610.74	45.126
611.07	46.314
611.41	47.265
611.74	47.021
612.07	45.816
612.40	45.817
612.73	46.553
613.07	46.699
613.40	46.150
613.73	46.172
614.06	46.026
614.39	45.773
614.72	45.463
615.06	44.755
615.39	44.853
615.72	45.213
616.05	44.585
616.38	45.560
616.71	46.865
617.05	46.006
617.38	45.532
617.71	45.788
618.04	46.951
618.37	46.557
618.70	48.247
619.03	46.177
619.36	46.732
619.69	46.637
620.03	46.453
620.36	46.380
620.69	46.823
621.02	47.047
621.35	48.839
621.68	47.578
622.01	47.117
622.34	46.165
622.67	47.835
623.00	45.816
623.33	47.644
623.66	46.044
623.99	44.503
624.32	46.654
624.65	44.981
624.99	48.114
625.32	47.355
625.65	47.606
625.98	46.373
626.31	47.626
626.64	46.740
626.97	46.362
627.30	46.166
627.63	45.761
627.96	47.372
628.29	48.093
628.62	49.118
628.95	48.203
629.28	47.239
629.61	47.391
629.94	46.444
630.26	47.881
630.59	47.064
630.92	48.571
631.25	48.211
631.58	49.623
631.91	49.016
632.24	48.319
632.57	48.767
632.90	49.448
