SpectraSuite Data File
++++++++++++++++++++++++++++++++++++
Date: Thu May 14 14:45:09 PDT 2015
User: schluterlab
Dark Spectrum Present: Yes
Reference Spectrum Present: Yes
Number of Sampled Component Spectra: 1
Spectrometers: USB2E3373
Integration Time (usec): 3000 (USB2E3373)
Spectra Averaged: 3 (USB2E3373)
Boxcar Smoothing: 0 (USB2E3373)
Correct for Electrical Dark: No (USB2E3373)
Strobe/Lamp Enabled: No (USB2E3373)
Correct for Detector Non-linearity: No (USB2E3373)
Correct for Stray Light: No (USB2E3373)
Number of Pixels in Processed Spectrum: 2048
>>>>>Begin Processed Spectral Data<<<<<
178.53	0.000
178.91	-28.571
179.29	-600.000
179.67	-900.000
180.04	157.143
180.42	30.000
180.80	140.000
181.18	0.000
181.56	1100.000
181.94	100.000
182.31	-50.000
182.69	66.667
183.07	250.000
183.45	25.000
183.83	33.333
184.20	33.333
184.58	-500.000
184.96	-400.000
185.34	-44.444
185.72	100.000
186.09	77.778
186.47	-0.000
186.85	120.000
187.23	-111.111
187.61	-1000.000
187.98	-60.000
188.36	125.000
188.74	-275.000
189.12	133.333
189.49	50.000
189.87	-87.500
190.25	44.444
190.63	120.000
191.00	-88.889
191.38	0.000
191.76	200.000
192.14	0.000
192.51	-300.000
192.89	233.333
193.27	0.000
193.65	14.286
194.02	-100.000
194.40	-28.571
194.78	100.000
195.15	0.000
195.53	45.455
195.91	0.000
196.29	225.000
196.66	7.692
197.04	-500.000
197.42	14.286
197.79	-350.000
198.17	112.500
198.55	114.286
198.92	144.444
199.30	12.500
199.68	45.455
200.05	92.857
200.43	-700.000
200.81	85.714
201.18	0.000
201.56	100.000
201.94	0.000
202.31	400.000
202.69	0.000
203.07	-200.000
203.44	33.333
203.82	-200.000
204.19	25.000
204.57	116.667
204.95	-25.000
205.32	-500.000
205.70	175.000
206.08	-50.000
206.45	33.333
206.83	240.000
207.20	100.000
207.58	120.000
207.96	0.000
208.33	283.333
208.71	-41.667
209.08	200.000
209.46	0.000
209.84	66.667
210.21	-50.000
210.59	-550.000
210.96	-100.000
211.34	150.000
211.71	25.000
212.09	-500.000
212.46	0.000
212.84	600.000
213.22	-180.000
213.59	-25.000
213.97	100.000
214.34	0.000
214.72	33.333
215.09	0.000
215.47	0.000
215.84	-14.286
216.22	100.000
216.59	100.000
216.97	80.000
217.34	200.000
217.72	175.000
218.09	-25.000
218.47	-175.000
218.84	0.000
219.22	-60.000
219.59	-11.765
219.97	0.000
220.34	600.000
220.72	22.222
221.09	84.615
221.47	233.333
221.84	-10.000
222.22	-85.714
222.59	0.000
222.97	-12.500
223.34	-80.000
223.72	-100.000
224.09	-100.000
224.46	75.000
224.84	140.000
225.21	-100.000
225.59	-250.000
225.96	125.000
226.34	57.692
226.71	300.000
227.08	-50.000
227.46	40.000
227.83	175.000
228.21	52.632
228.58	-0.000
228.95	-150.000
229.33	75.000
229.70	130.000
230.08	100.000
230.45	-50.000
230.82	233.333
231.20	50.000
231.57	66.667
231.95	-45.455
232.32	63.636
232.69	5.000
233.07	0.000
233.44	47.059
233.81	100.000
234.19	94.444
234.56	50.000
234.93	41.379
235.31	63.158
235.68	50.000
236.05	-30.000
236.43	69.231
236.80	48.000
237.17	51.852
237.55	60.606
237.92	80.000
238.29	38.710
238.67	18.182
239.04	19.444
239.41	54.762
239.79	28.261
240.16	40.741
240.53	41.304
240.91	27.451
241.28	37.705
241.65	29.851
242.02	48.649
242.40	38.462
242.77	44.000
243.14	39.024
243.51	28.947
243.89	35.897
244.26	54.455
244.63	47.059
245.00	43.925
245.38	35.965
245.75	25.664
246.12	53.968
246.49	46.512
246.87	43.571
247.24	42.384
247.61	43.421
247.98	44.295
248.36	40.123
248.73	41.104
249.10	36.612
249.47	42.786
249.84	42.408
250.22	40.415
250.59	51.111
250.96	41.818
251.33	38.776
251.70	39.744
252.08	35.000
252.45	38.934
252.82	39.669
253.19	36.719
253.56	41.825
253.94	34.231
254.31	45.076
254.68	46.154
255.05	39.739
255.42	37.415
255.79	38.511
256.16	40.397
256.54	37.748
256.91	39.672
257.28	38.689
257.65	38.217
258.02	36.578
258.39	39.886
258.76	41.896
259.14	40.805
259.51	40.058
259.88	37.394
260.25	39.722
260.62	40.548
260.99	45.355
261.36	41.287
261.73	38.992
262.10	40.659
262.47	40.483
262.85	41.667
263.22	37.662
263.59	33.421
263.96	38.363
264.33	40.409
264.70	36.790
265.07	35.800
265.44	42.177
265.81	39.120
266.18	39.229
266.55	38.616
266.92	38.497
267.29	39.387
267.66	39.468
268.03	39.956
268.40	37.578
268.77	36.219
269.14	40.749
269.51	38.158
269.88	37.910
270.25	37.626
270.62	39.241
270.99	39.798
271.36	39.406
271.73	34.971
272.10	39.279
272.47	40.080
272.84	36.948
273.21	37.475
273.58	36.290
273.95	40.962
274.32	33.840
274.69	38.298
275.06	37.729
275.43	35.490
275.80	37.213
276.17	36.667
276.54	37.687
276.91	36.494
277.28	38.517
277.65	35.009
278.02	34.743
278.39	40.036
278.76	37.258
279.13	36.879
279.50	36.254
279.87	37.746
280.23	35.563
280.60	35.593
280.97	36.678
281.34	37.351
281.71	37.394
282.08	34.551
282.45	35.352
282.82	35.479
283.19	34.410
283.56	36.721
283.92	36.486
284.29	37.441
284.66	35.632
285.03	35.096
285.40	35.394
285.77	34.056
286.14	34.656
286.51	33.790
286.87	33.649
287.24	35.994
287.61	34.828
287.98	34.290
288.35	34.467
288.72	34.320
289.08	34.553
289.45	32.988
289.82	34.036
290.19	32.902
290.56	32.254
290.93	35.235
291.29	34.022
291.66	32.369
292.03	30.393
292.40	35.102
292.77	31.132
293.13	33.153
293.50	31.275
293.87	31.544
294.24	32.267
294.60	31.353
294.97	29.128
295.34	31.626
295.71	29.382
296.08	30.103
296.44	31.005
296.81	29.720
297.18	30.884
297.55	29.599
297.91	30.012
298.28	30.213
298.65	29.608
299.02	29.870
299.38	29.977
299.75	29.322
300.12	27.315
300.48	29.263
300.85	29.696
301.22	29.754
301.59	29.452
301.95	29.379
302.32	31.000
302.69	28.368
303.05	29.162
303.42	29.157
303.79	28.854
304.15	30.915
304.52	29.598
304.89	28.796
305.25	28.986
305.62	27.900
305.99	29.072
306.35	28.226
306.72	30.403
307.09	29.137
307.45	30.124
307.82	28.355
308.19	30.474
308.55	29.990
308.92	30.769
309.29	28.640
309.65	29.435
310.02	29.703
310.38	30.610
310.75	30.874
311.12	31.640
311.48	30.499
311.85	31.244
312.22	31.025
312.58	30.704
312.95	31.071
313.31	30.985
313.68	30.861
314.05	30.623
314.41	31.603
314.78	31.698
315.14	31.397
315.51	32.410
315.87	32.313
316.24	32.329
316.61	32.771
316.97	32.941
317.34	33.333
317.70	34.847
318.07	33.862
318.43	33.588
318.80	33.361
319.16	33.734
319.53	33.162
319.89	34.531
320.26	34.431
320.62	34.840
320.99	34.349
321.35	35.028
321.72	36.744
322.08	36.249
322.45	37.850
322.81	37.365
323.18	37.434
323.54	38.103
323.91	37.900
324.27	37.780
324.64	38.791
325.00	37.231
325.37	37.674
325.73	39.504
326.10	37.875
326.46	40.879
326.83	40.192
327.19	40.000
327.56	40.000
327.92	39.969
328.29	41.210
328.65	41.122
329.01	41.286
329.38	41.533
329.74	42.038
330.11	42.038
330.47	41.618
330.84	41.947
331.20	43.167
331.56	42.808
331.93	42.092
332.29	45.000
332.66	41.944
333.02	43.132
333.38	43.792
333.75	44.697
334.11	42.869
334.48	43.894
334.84	45.200
335.20	42.317
335.57	44.857
335.93	43.802
336.29	42.512
336.66	43.818
337.02	44.649
337.38	45.578
337.75	44.959
338.11	45.416
338.47	44.996
338.84	44.585
339.20	45.409
339.56	44.152
339.93	43.842
340.29	43.639
340.65	44.931
341.02	45.012
341.38	46.160
341.74	43.987
342.11	45.455
342.47	43.765
342.83	47.343
343.20	46.361
343.56	44.667
343.92	45.637
344.28	44.453
344.65	44.574
345.01	45.398
345.37	46.501
345.73	44.115
346.10	45.710
346.46	45.886
346.82	45.543
347.19	45.302
347.55	44.158
347.91	45.542
348.27	44.689
348.63	44.783
349.00	43.699
349.36	44.758
349.72	45.238
350.08	46.360
350.45	45.323
350.81	46.606
351.17	45.639
351.53	45.868
351.89	46.849
352.26	47.090
352.62	45.299
352.98	45.802
353.34	44.586
353.70	46.533
354.07	45.156
354.43	46.545
354.79	46.298
355.15	44.739
355.51	46.491
355.87	45.849
356.24	46.768
356.60	46.120
356.96	46.182
357.32	45.428
357.68	46.047
358.04	46.856
358.40	46.493
358.77	45.175
359.13	45.569
359.49	45.725
359.85	47.208
360.21	46.485
360.57	46.016
360.93	46.544
361.29	46.035
361.66	47.285
362.02	47.947
362.38	47.365
362.74	46.718
363.10	47.868
363.46	46.607
363.82	48.153
364.18	47.572
364.54	48.133
364.90	47.224
365.26	48.000
365.62	47.533
365.98	46.767
366.35	47.584
366.71	47.415
367.07	48.376
367.43	47.669
367.79	48.441
368.15	50.167
368.51	47.970
368.87	47.747
369.23	47.133
369.59	48.087
369.95	48.276
370.31	48.548
370.67	49.519
371.03	47.715
371.39	47.079
371.75	48.074
372.11	48.780
372.47	48.477
372.83	48.560
373.19	47.498
373.55	48.509
373.91	49.012
374.27	49.483
374.63	49.729
374.99	49.867
375.35	50.325
375.71	49.419
376.07	50.807
376.42	48.363
376.78	50.653
377.14	48.721
377.50	50.285
377.86	49.138
378.22	49.820
378.58	50.357
378.94	50.411
379.30	50.498
379.66	50.676
380.02	50.548
380.38	51.555
380.74	51.549
381.09	51.510
381.45	51.477
381.81	51.932
382.17	52.257
382.53	52.281
382.89	50.677
383.25	52.403
383.61	52.141
383.97	50.530
384.32	52.751
384.68	51.160
385.04	52.053
385.40	52.269
385.76	53.341
386.12	51.466
386.48	53.529
386.83	53.874
387.19	52.665
387.55	52.171
387.91	53.995
388.27	53.349
388.62	53.207
388.98	50.931
389.34	52.445
389.70	53.980
390.06	52.694
390.42	52.530
390.77	54.545
391.13	52.876
391.49	53.080
391.85	53.818
392.20	54.508
392.56	53.219
392.92	53.272
393.28	54.450
393.64	54.078
393.99	54.968
394.35	54.030
394.71	54.970
395.07	54.611
395.42	54.426
395.78	55.515
396.14	54.486
396.50	55.166
396.85	53.846
397.21	52.959
397.57	53.946
397.92	55.212
398.28	54.536
398.64	53.719
399.00	53.665
399.35	54.869
399.71	55.054
400.07	54.745
400.42	55.355
400.78	55.150
401.14	54.240
401.49	55.543
401.85	53.953
402.21	56.315
402.57	56.279
402.92	55.378
403.28	54.918
403.63	55.251
403.99	54.454
404.35	55.088
404.70	54.108
405.06	54.185
405.42	54.567
405.77	55.016
406.13	54.457
406.49	56.025
406.84	55.180
407.20	54.220
407.55	55.179
407.91	56.505
408.27	54.064
408.62	55.614
408.98	55.020
409.34	55.601
409.69	55.748
410.05	54.572
410.40	55.162
410.76	56.029
411.11	55.523
411.47	55.897
411.83	56.379
412.18	56.506
412.54	54.772
412.89	55.122
413.25	56.208
413.60	55.658
413.96	56.061
414.31	54.731
414.67	55.516
415.03	55.323
415.38	56.936
415.74	55.834
416.09	56.878
416.45	55.479
416.80	56.487
417.16	57.024
417.51	56.912
417.87	57.020
418.22	56.886
418.58	57.063
418.93	56.927
419.29	58.385
419.64	56.062
420.00	56.677
420.35	57.327
420.71	57.783
421.06	55.779
421.42	58.200
421.77	56.866
422.12	57.188
422.48	57.092
422.83	58.543
423.19	58.302
423.54	59.845
423.90	58.642
424.25	59.627
424.61	56.889
424.96	58.265
425.31	59.076
425.67	58.991
426.02	59.878
426.38	59.127
426.73	60.938
427.09	60.496
427.44	59.858
427.79	59.701
428.15	59.703
428.50	60.056
428.85	59.587
429.21	60.479
429.56	61.254
429.92	59.410
430.27	61.157
430.62	61.309
430.98	60.698
431.33	60.802
431.68	60.441
432.04	61.910
432.39	61.650
432.74	61.244
433.10	62.412
433.45	61.817
433.80	62.071
434.16	61.880
434.51	62.847
434.86	64.712
435.22	64.134
435.57	64.151
435.92	63.884
436.28	63.652
436.63	65.429
436.98	62.856
437.34	63.867
437.69	64.667
438.04	64.093
438.39	64.618
438.75	63.863
439.10	65.328
439.45	64.841
439.81	64.576
440.16	65.362
440.51	64.716
440.86	64.536
441.22	64.309
441.57	66.509
441.92	65.179
442.27	65.909
442.63	65.425
442.98	66.702
443.33	66.491
443.68	65.857
444.03	67.074
444.39	66.898
444.74	67.177
445.09	65.484
445.44	66.228
445.79	67.146
446.15	68.037
446.50	66.512
446.85	67.072
447.20	67.215
447.55	66.946
447.91	67.539
448.26	66.702
448.61	68.385
448.96	69.528
449.31	67.869
449.66	67.919
450.02	68.618
450.37	67.981
450.72	69.107
451.07	70.216
451.42	68.400
451.77	68.872
452.12	70.485
452.47	70.232
452.83	70.495
453.18	67.484
453.53	69.385
453.88	68.636
454.23	69.831
454.58	69.820
454.93	69.235
455.28	70.981
455.63	70.665
455.98	70.503
456.34	70.141
456.69	70.194
457.04	71.277
457.39	70.621
457.74	70.805
458.09	70.511
458.44	71.013
458.79	69.985
459.14	70.582
459.49	72.835
459.84	71.773
460.19	70.683
460.54	72.061
460.89	73.637
461.24	71.839
461.59	72.219
461.94	71.363
462.29	72.676
462.64	72.722
462.99	73.384
463.34	72.680
463.69	70.164
464.04	72.040
464.39	71.525
464.74	71.494
465.09	72.376
465.44	72.371
465.79	72.448
466.14	70.193
466.49	72.579
466.84	72.672
467.19	71.792
467.54	70.975
467.89	73.333
468.24	73.186
468.59	72.727
468.94	72.494
469.29	71.926
469.64	73.808
469.99	74.697
470.34	72.958
470.68	74.504
471.03	74.787
471.38	75.278
471.73	75.228
472.08	75.381
472.43	76.039
472.78	75.063
473.13	75.727
473.48	74.502
473.83	74.869
474.17	74.736
474.52	75.045
474.87	74.751
475.22	75.099
475.57	74.559
475.92	74.415
476.27	74.920
476.61	74.195
476.96	74.088
477.31	74.455
477.66	77.545
478.01	74.987
478.36	74.177
478.70	75.468
479.05	75.920
479.40	74.975
479.75	75.360
480.10	75.178
480.45	75.342
480.79	74.785
481.14	75.000
481.49	76.102
481.84	76.197
482.19	74.925
482.53	76.869
482.88	76.961
483.23	76.968
483.58	76.507
483.92	75.000
484.27	76.461
484.62	75.660
484.97	75.000
485.31	73.249
485.66	69.916
486.01	68.864
486.36	70.121
486.70	73.170
487.05	75.654
487.40	75.830
487.75	76.616
488.09	76.219
488.44	75.524
488.79	75.987
489.13	76.575
489.48	75.573
489.83	75.976
490.17	76.063
490.52	76.437
490.87	77.453
491.22	78.336
491.56	77.346
491.91	77.410
492.26	77.412
492.60	76.651
492.95	77.271
493.30	78.306
493.64	78.756
493.99	77.193
494.34	76.611
494.68	78.030
495.03	78.502
495.37	78.518
495.72	78.367
496.07	78.528
496.41	78.464
496.76	78.232
497.11	77.240
497.45	79.068
497.80	78.987
498.14	78.503
498.49	79.458
498.84	79.388
499.18	78.453
499.53	78.430
499.87	78.989
500.22	77.471
500.56	79.712
500.91	79.771
501.26	80.455
501.60	78.966
501.95	79.679
502.29	79.026
502.64	78.400
502.98	77.049
503.33	78.963
503.67	78.413
504.02	78.853
504.36	79.982
504.71	81.534
505.06	79.854
505.40	80.073
505.75	80.146
506.09	78.775
506.44	81.012
506.78	80.780
507.13	80.406
507.47	80.009
507.82	80.492
508.16	80.641
508.51	80.263
508.85	80.302
509.19	80.531
509.54	80.836
509.88	80.962
510.23	81.302
510.57	81.489
510.92	82.390
511.26	81.145
511.61	80.010
511.95	81.259
512.30	82.619
512.64	79.910
512.98	82.341
513.33	81.502
513.67	81.948
514.02	82.933
514.36	83.171
514.70	83.073
515.05	83.472
515.39	82.835
515.74	84.411
516.08	82.937
516.42	82.418
516.77	83.754
517.11	82.775
517.46	83.563
517.80	83.699
518.14	85.365
518.49	84.761
518.83	83.129
519.17	82.768
519.52	82.704
519.86	82.629
520.20	82.002
520.55	84.392
520.89	84.797
521.23	84.534
521.58	85.254
521.92	86.232
522.26	83.391
522.61	86.227
522.95	85.467
523.29	86.437
523.64	84.922
523.98	85.054
524.32	86.246
524.66	85.999
525.01	84.202
525.35	83.688
525.69	83.933
526.04	84.328
526.38	85.575
526.72	85.467
527.06	85.806
527.41	84.548
527.75	86.817
528.09	85.419
528.43	85.554
528.78	85.434
529.12	85.436
529.46	84.373
529.80	85.812
530.15	85.449
530.49	85.291
530.83	86.068
531.17	86.858
531.51	86.161
531.86	85.216
532.20	86.341
532.54	85.398
532.88	83.939
533.22	84.738
533.57	83.555
533.91	84.007
534.25	84.681
534.59	85.460
534.93	85.399
535.27	83.831
535.62	85.276
535.96	85.415
536.30	84.900
536.64	87.207
536.98	87.146
537.32	85.370
537.66	86.338
538.01	83.807
538.35	85.445
538.69	84.976
539.03	86.511
539.37	83.451
539.71	85.105
540.05	87.110
540.39	84.902
540.73	84.639
541.07	85.592
541.42	83.934
541.76	84.757
542.10	84.680
542.44	84.531
542.78	84.307
543.12	84.803
543.46	84.982
543.80	84.293
544.14	84.740
544.48	85.520
544.82	86.236
545.16	83.900
545.50	84.362
545.84	85.487
546.18	84.691
546.52	86.497
546.86	84.654
547.20	86.896
547.54	84.020
547.88	84.750
548.22	83.275
548.56	84.786
548.90	87.104
549.24	86.505
549.58	86.183
549.92	85.969
550.26	87.832
550.60	83.089
550.94	87.063
551.28	84.950
551.62	89.623
551.96	84.595
552.30	87.126
552.64	85.190
552.98	87.087
553.32	88.939
553.66	87.717
554.00	86.255
554.34	86.937
554.68	84.248
555.02	86.597
555.36	87.574
555.69	84.881
556.03	86.507
556.37	87.422
556.71	87.064
557.05	86.134
557.39	87.459
557.73	88.045
558.07	87.020
558.41	88.040
558.75	87.424
559.08	89.422
559.42	87.791
559.76	86.499
560.10	86.336
560.44	86.214
560.78	86.125
561.12	86.823
561.45	86.983
561.79	86.935
562.13	85.767
562.47	86.806
562.81	87.215
563.15	86.806
563.48	86.948
563.82	86.397
564.16	85.584
564.50	86.353
564.84	86.844
565.17	85.647
565.51	84.638
565.85	88.124
566.19	84.562
566.52	85.313
566.86	86.531
567.20	83.361
567.54	84.440
567.88	85.270
568.21	84.091
568.55	82.254
568.89	83.159
569.23	81.707
569.56	80.813
569.90	80.007
570.24	79.629
570.57	79.891
570.91	78.016
571.25	77.668
571.59	77.178
571.92	78.065
572.26	77.448
572.60	77.914
572.93	77.818
573.27	78.028
573.61	77.184
573.95	76.305
574.28	76.407
574.62	76.671
574.96	75.430
575.29	75.281
575.63	76.184
575.97	76.216
576.30	75.154
576.64	75.758
576.98	75.581
577.31	75.756
577.65	75.712
577.98	74.831
578.32	74.297
578.66	74.632
578.99	75.220
579.33	76.745
579.67	76.043
580.00	75.612
580.34	75.458
580.67	75.706
581.01	75.379
581.35	74.031
581.68	73.700
582.02	73.730
582.35	75.255
582.69	75.385
583.02	75.799
583.36	76.073
583.70	78.096
584.03	77.514
584.37	77.759
584.70	76.846
585.04	75.610
585.37	74.724
585.71	75.469
586.04	75.495
586.38	76.486
586.72	76.736
587.05	77.565
587.39	77.661
587.72	77.321
588.06	76.741
588.39	77.172
588.73	77.487
589.06	78.753
589.40	80.670
589.73	78.792
590.07	80.338
590.40	78.769
590.73	80.028
591.07	81.534
591.40	81.493
591.74	80.326
592.07	80.877
592.41	79.968
592.74	78.630
593.08	77.484
593.41	78.099
593.75	77.414
594.08	78.885
594.41	79.103
594.75	78.147
595.08	79.913
595.42	79.805
595.75	78.947
596.09	80.583
596.42	80.903
596.75	80.702
597.09	81.374
597.42	81.248
597.75	79.851
598.09	80.040
598.42	81.544
598.76	79.213
599.09	78.640
599.42	77.003
599.76	77.682
600.09	78.478
600.42	78.178
600.76	78.699
601.09	78.261
601.42	77.686
601.76	79.069
602.09	79.485
602.42	78.662
602.76	79.557
603.09	79.883
603.42	80.383
603.76	79.105
604.09	79.879
604.42	80.404
604.76	79.756
605.09	80.774
605.42	80.542
605.75	79.577
606.09	78.985
606.42	79.095
606.75	79.273
607.09	79.570
607.42	78.574
607.75	79.640
608.08	79.479
608.42	78.718
608.75	81.136
609.08	79.796
609.41	80.679
609.75	81.920
610.08	81.574
610.41	80.841
610.74	79.664
611.07	80.817
611.41	80.807
611.74	81.755
612.07	81.300
612.40	81.702
612.73	82.298
613.07	80.880
613.40	81.424
613.73	82.138
614.06	81.403
614.39	80.709
614.72	79.573
615.06	79.692
615.39	80.039
615.72	80.379
616.05	81.399
616.38	82.644
616.71	82.550
617.05	81.683
617.38	81.862
617.71	81.533
618.04	82.407
618.37	83.060
618.70	83.767
619.03	84.528
619.36	84.402
619.69	84.881
620.03	83.992
620.36	82.883
620.69	85.071
621.02	85.630
621.35	89.768
621.68	88.648
622.01	87.829
622.34	86.123
622.67	85.979
623.00	85.088
623.33	87.259
623.66	85.668
623.99	85.780
624.32	85.055
624.65	84.620
624.99	85.956
625.32	84.585
625.65	86.042
625.98	86.847
626.31	87.597
626.64	87.912
626.97	87.922
627.30	88.003
627.63	86.497
627.96	87.763
628.29	87.004
628.62	89.589
628.95	90.798
629.28	89.295
629.61	89.141
629.94	89.205
630.26	88.475
630.59	88.083
630.92	87.792
631.25	91.503
631.58	92.844
631.91	92.877
632.24	91.643
632.57	91.935
632.90	91.976
633.23	93.061
633.56	92.959
633.89	92.872
634.22	93.451
