SpectraSuite Data File
++++++++++++++++++++++++++++++++++++
Date: Thu May 14 14:39:34 PDT 2015
User: schluterlab
Dark Spectrum Present: Yes
Reference Spectrum Present: Yes
Number of Sampled Component Spectra: 1
Spectrometers: USB2E3373
Integration Time (usec): 3000 (USB2E3373)
Spectra Averaged: 3 (USB2E3373)
Boxcar Smoothing: 0 (USB2E3373)
Correct for Electrical Dark: No (USB2E3373)
Strobe/Lamp Enabled: No (USB2E3373)
Correct for Detector Non-linearity: No (USB2E3373)
Correct for Stray Light: No (USB2E3373)
Number of Pixels in Processed Spectrum: 2048
>>>>>Begin Processed Spectral Data<<<<<
178.53	0.000
178.91	-142.857
179.29	0.000
179.67	300.000
180.04	71.429
180.42	-150.000
180.80	-240.000
181.18	-200.000
181.56	2000.000
181.94	-200.000
182.31	350.000
182.69	-366.667
183.07	700.000
183.45	-75.000
183.83	350.000
184.20	366.667
184.58	-2300.000
184.96	0.000
185.34	55.556
185.72	320.000
186.09	-0.000
186.47	-150.000
186.85	-300.000
187.23	55.556
187.61	400.000
187.98	-160.000
188.36	-100.000
188.74	325.000
189.12	500.000
189.49	181.250
189.87	187.500
190.25	222.222
190.63	440.000
191.00	88.889
191.38	0.000
191.76	325.000
192.14	100.000
192.51	-300.000
192.89	483.333
193.27	0.000
193.65	142.857
194.02	300.000
194.40	200.000
194.78	-14.286
195.15	0.000
195.53	181.818
195.91	0.000
196.29	350.000
196.66	30.769
197.04	1600.000
197.42	142.857
197.79	450.000
198.17	150.000
198.55	228.571
198.92	177.778
199.30	62.500
199.68	127.273
200.05	92.857
200.43	0.000
200.81	57.143
201.18	0.000
201.56	44.444
201.94	0.000
202.31	-300.000
202.69	44.444
203.07	-900.000
203.44	33.333
203.82	325.000
204.19	100.000
204.57	33.333
204.95	225.000
205.32	900.000
205.70	-400.000
206.08	333.333
206.45	200.000
206.83	40.000
207.20	200.000
207.58	120.000
207.96	100.000
208.33	183.333
208.71	-75.000
209.08	366.667
209.46	0.000
209.84	-216.667
210.21	-600.000
210.59	-650.000
210.96	-233.333
211.34	700.000
211.71	150.000
212.09	600.000
212.46	0.000
212.84	-50.000
213.22	60.000
213.59	125.000
213.97	80.000
214.34	533.333
214.72	-66.667
215.09	125.000
215.47	0.000
215.84	-71.429
216.22	-250.000
216.59	260.000
216.97	220.000
217.34	500.000
217.72	125.000
218.09	225.000
218.47	225.000
218.84	0.000
219.22	-280.000
219.59	52.941
219.97	85.000
220.34	-250.000
220.72	122.222
221.09	130.769
221.47	133.333
221.84	140.000
222.22	128.571
222.59	0.000
222.97	125.000
223.34	220.000
223.72	900.000
224.09	75.000
224.46	25.000
224.84	440.000
225.21	28.571
225.59	150.000
225.96	275.000
226.34	92.308
226.71	-83.333
227.08	500.000
227.46	126.667
227.83	450.000
228.21	68.421
228.58	-75.000
228.95	-200.000
229.33	150.000
229.70	180.000
230.08	115.789
230.45	-80.000
230.82	600.000
231.20	64.286
231.57	91.667
231.95	81.818
232.32	200.000
232.69	100.000
233.07	475.000
233.44	117.647
233.81	130.000
234.19	133.333
234.56	100.000
234.93	75.862
235.31	105.263
235.68	83.333
236.05	95.000
236.43	73.077
236.80	116.000
237.17	51.852
237.55	78.788
237.92	150.000
238.29	90.323
238.67	50.000
239.04	55.556
239.41	47.619
239.79	52.174
240.16	38.889
240.53	45.652
240.91	56.863
241.28	54.098
241.65	65.672
242.02	59.459
242.40	46.154
242.77	56.000
243.14	32.927
243.51	44.737
243.89	56.410
244.26	59.406
244.63	49.020
245.00	42.991
245.38	42.105
245.75	37.168
246.12	47.619
246.49	47.287
246.87	47.143
247.24	49.007
247.61	44.737
247.98	50.336
248.36	43.210
248.73	42.945
249.10	40.984
249.47	45.274
249.84	46.597
250.22	46.114
250.59	41.111
250.96	41.818
251.33	42.347
251.70	41.453
252.08	39.167
252.45	40.164
252.82	43.802
253.19	36.719
253.56	38.403
253.94	44.231
254.31	40.152
254.68	39.510
255.05	41.042
255.42	39.796
255.79	38.835
256.16	38.742
256.54	39.735
256.91	42.951
257.28	36.066
257.65	35.350
258.02	35.988
258.39	39.601
258.76	44.343
259.14	42.529
259.51	39.769
259.88	39.660
260.25	41.389
260.62	39.178
260.99	40.164
261.36	43.432
261.73	38.462
262.10	41.484
262.47	42.627
262.85	39.394
263.22	38.961
263.59	36.579
263.96	38.619
264.33	39.130
264.70	37.037
265.07	42.721
265.44	43.537
265.81	37.500
266.18	41.043
266.55	37.277
266.92	37.585
267.29	41.794
267.66	37.694
268.03	39.301
268.40	36.743
268.77	38.041
269.14	38.106
269.51	36.184
269.88	39.344
270.25	36.620
270.62	41.139
270.99	39.798
271.36	38.020
271.73	39.293
272.10	39.479
272.47	39.880
272.84	37.349
273.21	37.876
273.58	37.097
273.95	35.962
274.32	36.882
274.69	35.977
275.06	38.278
275.43	35.675
275.80	37.213
276.17	38.148
276.54	37.127
276.91	36.136
277.28	37.613
277.65	36.445
278.02	35.294
278.39	38.225
278.76	36.028
279.13	35.106
279.50	37.285
279.87	34.526
280.23	34.155
280.60	37.119
280.97	35.197
281.34	36.333
281.71	37.056
282.08	35.216
282.45	35.843
282.82	34.694
283.19	33.764
283.56	37.541
283.92	34.685
284.29	36.493
284.66	36.453
285.03	33.333
285.40	34.930
285.77	32.353
286.14	33.282
286.51	34.551
286.87	35.229
287.24	34.488
287.61	33.782
287.98	32.024
288.35	34.763
288.72	34.467
289.08	33.968
289.45	31.213
289.82	33.434
290.19	33.477
290.56	30.986
290.93	32.382
291.29	32.094
291.66	28.926
292.03	29.579
292.40	31.701
292.77	29.380
293.13	30.853
293.50	29.698
293.87	29.262
294.24	31.600
294.60	28.698
294.97	29.262
295.34	30.602
295.71	27.364
296.08	28.682
296.44	28.431
296.81	27.284
297.18	28.394
297.55	25.943
297.91	27.402
298.28	27.014
298.65	26.992
299.02	26.919
299.38	27.117
299.75	25.117
300.12	26.968
300.48	27.189
300.85	26.659
301.22	25.951
301.59	25.228
301.95	25.198
302.32	28.333
302.69	25.739
303.05	26.768
303.42	26.608
303.79	25.312
304.15	25.342
304.52	25.370
304.89	27.644
305.25	26.915
305.62	26.541
305.99	25.155
306.35	24.899
306.72	26.784
307.09	25.584
307.45	24.845
307.82	25.832
308.19	25.732
308.55	25.169
308.92	24.830
309.29	26.437
309.65	25.634
310.02	27.129
310.38	25.098
310.75	26.019
311.12	26.942
311.48	26.295
311.85	25.356
312.22	25.522
312.58	26.103
312.95	24.283
313.31	26.016
313.68	25.275
314.05	26.016
314.41	26.412
314.78	25.886
315.14	25.771
315.51	26.316
315.87	26.013
316.24	26.941
316.61	26.377
316.97	24.434
317.34	26.190
317.70	26.201
318.07	26.102
318.43	26.786
318.80	27.258
319.16	26.352
319.53	26.564
319.89	26.819
320.26	27.758
320.62	26.773
320.99	27.054
321.35	26.248
321.72	28.558
322.08	27.953
322.45	28.997
322.81	29.422
323.18	27.965
323.54	29.224
323.91	29.715
324.27	29.260
324.64	30.059
325.00	28.939
325.37	29.894
325.73	28.926
326.10	29.521
326.46	30.130
326.83	31.145
327.19	30.394
327.56	31.858
327.92	29.426
328.29	30.081
328.65	30.570
329.01	30.795
329.38	31.592
329.74	33.219
330.11	31.764
330.47	31.676
330.84	31.697
331.20	31.333
331.56	31.802
331.93	33.222
332.29	30.932
332.66	32.060
333.02	30.402
333.38	32.299
333.75	31.734
334.11	32.527
334.48	32.013
334.84	34.240
335.20	31.318
335.57	33.052
335.93	32.314
336.29	32.862
336.66	31.876
337.02	31.605
337.38	34.099
337.75	32.645
338.11	32.296
338.47	32.837
338.84	31.641
339.20	31.340
339.56	32.043
339.93	31.609
340.29	32.126
340.65	31.630
341.02	31.844
341.38	32.175
341.74	31.638
342.11	32.904
342.47	30.977
342.83	32.770
343.20	31.807
343.56	31.516
343.92	33.147
344.28	32.344
344.65	32.946
345.01	32.215
345.37	31.882
345.73	31.723
346.10	33.229
346.46	32.674
346.82	31.760
347.19	31.474
347.55	32.777
347.91	31.649
348.27	32.625
348.63	32.521
349.00	31.842
349.36	32.045
349.72	31.845
350.08	32.318
350.45	32.471
350.81	31.448
351.17	32.632
351.53	31.842
351.89	31.663
352.26	31.791
352.62	30.448
352.98	32.061
353.34	30.844
353.70	31.895
354.07	32.638
354.43	32.118
354.79	31.713
355.15	30.979
355.51	31.871
355.87	32.087
356.24	33.536
356.60	30.525
356.96	31.208
357.32	30.706
357.68	30.600
358.04	31.662
358.40	32.090
358.77	31.433
359.13	31.610
359.49	30.558
359.85	32.705
360.21	31.420
360.57	32.304
360.93	32.370
361.29	31.860
361.66	32.802
362.02	32.498
362.38	32.888
362.74	32.402
363.10	31.843
363.46	32.548
363.82	31.605
364.18	32.583
364.54	33.402
364.90	32.843
365.26	33.034
365.62	32.667
365.98	32.335
366.35	32.550
366.71	32.585
367.07	33.627
367.43	32.961
367.79	33.776
368.15	33.445
368.51	32.476
368.87	32.528
369.23	32.467
369.59	32.240
369.95	32.184
370.31	32.951
370.67	32.806
371.03	32.756
371.39	31.699
371.75	32.531
372.11	32.114
372.47	33.243
372.83	33.181
373.19	32.755
373.55	32.859
373.91	32.788
374.27	32.730
374.63	33.694
374.99	32.427
375.35	33.636
375.71	33.161
376.07	32.537
376.42	32.746
376.78	33.313
377.14	33.749
377.50	34.219
377.86	34.606
378.22	33.832
378.58	33.769
378.94	33.744
379.30	33.568
379.66	34.450
380.02	34.564
380.38	33.986
380.74	34.366
381.09	35.250
381.45	34.432
381.81	35.363
382.17	35.095
382.53	34.795
382.89	33.973
383.25	34.701
383.61	34.028
383.97	34.629
384.32	35.347
384.68	34.281
385.04	34.239
385.40	35.298
385.76	35.580
386.12	35.308
386.48	35.176
386.83	36.830
387.19	35.110
387.55	34.742
387.91	34.532
388.27	36.605
388.62	34.937
388.98	35.138
389.34	35.887
389.70	36.084
390.06	34.340
390.42	34.458
390.77	36.183
391.13	35.035
391.49	35.749
391.85	35.030
392.20	36.477
392.56	36.740
392.92	36.150
393.28	36.263
393.64	36.816
393.99	36.084
394.35	36.390
394.71	36.407
395.07	36.347
395.42	35.637
395.78	37.477
396.14	36.898
396.50	35.392
396.85	35.361
397.21	36.036
397.57	36.514
397.92	35.281
398.28	35.361
398.64	35.011
399.00	34.450
399.35	35.183
399.71	36.141
400.07	36.103
400.42	36.438
400.78	36.458
401.14	35.344
401.49	35.361
401.85	36.744
402.21	35.689
402.57	36.854
402.92	35.225
403.28	35.480
403.63	34.189
403.99	35.748
404.35	34.167
404.70	35.354
405.06	34.457
405.42	35.129
405.77	35.932
406.13	36.305
406.49	36.261
406.84	35.845
407.20	35.103
407.55	35.312
407.91	35.135
408.27	35.453
408.62	35.777
408.98	34.881
409.34	34.897
409.69	36.218
410.05	35.932
410.40	35.731
410.76	34.717
411.11	35.827
411.47	35.504
411.83	35.391
412.18	35.000
412.54	35.685
412.89	35.215
413.25	35.158
413.60	34.693
413.96	35.431
414.31	35.014
414.67	34.884
415.03	34.954
415.38	36.381
415.74	35.614
416.09	36.459
416.45	35.504
416.80	35.251
417.16	36.590
417.51	35.243
417.87	35.684
418.22	35.389
418.58	35.316
418.93	35.739
419.29	35.203
419.64	34.094
420.00	34.837
420.35	35.879
420.71	36.244
421.06	35.193
421.42	35.436
421.77	35.864
422.12	35.254
422.48	35.586
422.83	37.021
423.19	35.756
423.54	37.389
423.90	35.560
424.25	36.427
424.61	36.165
424.96	36.628
425.31	37.367
425.67	36.608
426.02	36.691
426.38	37.141
426.73	37.109
427.09	37.601
427.44	37.247
427.79	37.424
428.15	36.644
428.50	36.910
428.85	36.510
429.21	37.340
429.56	36.821
429.92	36.708
430.27	37.542
430.62	37.469
430.98	37.678
431.33	37.048
431.68	36.111
432.04	37.329
432.39	38.779
432.74	37.957
433.10	38.724
433.45	37.904
433.80	38.251
434.16	39.256
434.51	38.695
434.86	39.305
435.22	38.895
435.57	39.858
435.92	38.676
436.28	38.680
436.63	40.852
436.98	39.023
437.34	39.797
437.69	38.525
438.04	39.238
438.39	39.115
438.75	40.841
439.10	40.063
439.45	40.302
439.81	40.056
440.16	39.786
440.51	40.301
440.86	40.800
441.22	40.943
441.57	40.985
441.92	41.659
442.27	41.919
442.63	42.126
442.98	41.782
443.33	41.557
443.68	42.270
444.03	42.333
444.39	42.164
444.74	42.624
445.09	41.662
445.44	43.203
445.79	42.720
446.15	41.572
446.50	42.636
446.85	43.239
447.20	41.925
447.55	43.305
447.91	43.403
448.26	42.653
448.61	43.624
448.96	44.313
449.31	43.690
449.66	42.974
450.02	43.618
450.37	45.125
450.72	44.887
451.07	43.850
451.42	42.750
451.77	43.913
452.12	45.203
452.47	44.385
452.83	45.158
453.18	43.666
453.53	44.859
453.88	44.451
454.23	44.294
454.58	44.748
454.93	45.328
455.28	45.093
455.63	44.684
455.98	44.525
456.34	45.583
456.69	45.091
457.04	46.868
457.39	46.508
457.74	45.022
458.09	44.920
458.44	45.905
458.79	44.250
459.14	45.779
459.49	45.557
459.84	45.960
460.19	45.697
460.54	47.132
460.89	45.527
461.24	45.575
461.59	46.818
461.94	45.009
462.29	46.697
462.64	45.987
462.99	46.704
463.34	47.631
463.69	45.369
464.04	46.637
464.39	46.749
464.74	45.838
465.09	46.597
465.44	46.298
465.79	46.483
466.14	46.743
466.49	46.789
466.84	46.556
467.19	46.879
467.54	46.475
467.89	46.839
468.24	47.812
468.59	47.134
468.94	46.795
469.29	46.911
469.64	47.552
469.99	48.311
470.34	47.896
470.68	48.599
471.03	48.134
471.38	48.986
471.73	48.700
472.08	47.843
472.43	47.441
472.78	48.300
473.13	47.914
473.48	47.674
473.83	48.752
474.17	47.245
474.52	49.068
474.87	47.342
475.22	47.775
475.57	47.456
475.92	47.038
476.27	47.018
476.61	47.144
476.96	47.289
477.31	48.069
477.66	50.052
478.01	47.687
478.36	47.458
478.70	49.310
479.05	48.415
479.40	48.865
479.75	47.791
480.10	47.703
480.45	47.995
480.79	47.846
481.14	48.575
481.49	47.796
481.84	47.998
482.19	47.742
482.53	48.579
482.88	49.047
483.23	48.644
483.58	48.253
483.92	48.183
484.27	47.883
484.62	47.607
484.97	47.473
485.31	46.920
485.66	44.748
486.01	43.786
486.36	44.512
486.70	45.954
487.05	47.385
487.40	47.992
487.75	48.422
488.09	48.577
488.44	48.674
488.79	49.410
489.13	48.335
489.48	47.767
489.83	47.968
490.17	48.441
490.52	47.003
490.87	48.731
491.22	47.747
491.56	48.507
491.91	48.844
492.26	49.243
492.60	48.491
492.95	48.047
493.30	48.454
493.64	49.190
493.99	47.719
494.34	49.172
494.68	48.865
495.03	48.855
495.37	48.735
495.72	49.524
496.07	49.080
496.41	49.163
496.76	48.791
497.11	49.639
497.45	48.856
497.80	49.933
498.14	49.025
498.49	49.770
498.84	50.320
499.18	48.898
499.53	49.955
499.87	49.319
500.22	49.644
500.56	49.618
500.91	49.336
501.26	50.091
501.60	49.227
501.95	49.848
502.29	50.110
502.64	50.415
502.98	48.921
503.33	48.726
503.67	49.150
504.02	49.650
504.36	51.296
504.71	50.896
505.06	49.841
505.40	49.909
505.75	49.590
506.09	50.921
506.44	50.232
506.78	50.092
507.13	50.669
507.47	50.261
507.82	50.852
508.16	50.287
508.51	50.258
508.85	50.449
509.19	51.161
509.54	50.817
509.88	50.073
510.23	51.481
510.57	52.247
510.92	50.943
511.26	50.649
511.61	50.893
511.95	50.415
512.30	51.600
512.64	51.324
512.98	51.326
513.33	52.621
513.67	51.198
514.02	51.916
514.36	52.276
514.70	52.552
515.05	52.763
515.39	51.076
515.74	52.492
516.08	50.924
516.42	52.067
516.77	51.577
517.11	50.490
517.46	52.651
517.80	52.378
518.14	53.536
518.49	52.440
518.83	51.570
519.17	51.104
519.52	51.468
519.86	52.957
520.20	52.503
520.55	52.629
520.89	52.872
521.23	53.043
521.58	53.220
521.92	53.371
522.26	53.379
522.61	54.282
522.95	51.557
523.29	53.276
523.64	53.419
523.98	53.908
524.32	54.785
524.66	53.386
525.01	52.888
525.35	52.728
525.69	53.248
526.04	53.042
526.38	53.391
526.72	53.518
527.06	52.551
527.41	53.411
527.75	53.860
528.09	54.073
528.43	52.753
528.78	52.890
529.12	52.294
529.46	52.501
529.80	52.632
530.15	53.623
530.49	53.144
530.83	53.011
531.17	52.927
531.51	53.430
531.86	53.606
532.20	53.232
532.54	53.321
532.88	53.879
533.22	53.270
533.57	52.048
533.91	52.637
534.25	51.498
534.59	53.218
534.93	52.632
535.27	52.958
535.62	54.008
535.96	53.399
536.30	52.350
536.64	52.492
536.98	53.629
537.32	53.272
537.66	53.587
538.01	52.205
538.35	52.862
538.69	51.683
539.03	53.587
539.37	51.296
539.71	52.613
540.05	53.537
540.39	52.323
540.73	51.791
541.07	53.771
541.42	52.274
541.76	52.313
542.10	53.136
542.44	52.862
542.78	52.859
543.12	51.311
543.46	51.160
543.80	51.679
544.14	51.406
544.48	53.605
544.82	52.663
545.16	53.011
545.50	52.546
545.84	52.480
546.18	53.148
546.52	53.121
546.86	51.887
547.20	54.326
547.54	52.497
547.88	52.019
548.22	51.404
548.56	52.428
548.90	52.836
549.24	53.009
549.58	52.871
549.92	52.360
550.26	53.204
550.60	52.585
550.94	53.687
551.28	52.409
551.62	53.841
551.96	51.974
552.30	52.900
552.64	53.454
552.98	53.649
553.32	52.347
553.66	53.955
554.00	53.657
554.34	52.960
554.68	53.583
555.02	54.139
555.36	53.715
555.69	52.723
556.03	52.648
556.37	52.753
556.71	53.583
557.05	53.546
557.39	54.280
557.73	53.369
558.07	54.437
558.41	55.681
558.75	54.632
559.08	54.836
559.42	53.978
559.76	53.935
560.10	55.459
560.44	54.288
560.78	54.750
561.12	52.340
561.45	53.467
561.79	54.151
562.13	54.405
562.47	51.788
562.81	54.051
563.15	53.662
563.48	54.382
563.82	53.809
564.16	52.938
564.50	52.920
564.84	52.979
565.17	52.882
565.51	52.071
565.85	52.969
566.19	53.226
566.52	52.194
566.86	53.311
567.20	51.876
567.54	52.894
567.88	52.650
568.21	52.273
568.55	52.566
568.89	51.929
569.23	49.725
569.56	50.098
569.90	49.929
570.24	49.241
570.57	49.551
570.91	48.959
571.25	48.481
571.59	48.873
571.92	47.441
572.26	48.624
572.60	49.495
572.93	49.262
573.27	49.340
573.61	48.703
573.95	48.240
574.28	48.540
574.62	47.908
574.96	46.802
575.29	47.081
575.63	47.540
575.97	48.024
576.30	47.298
576.64	47.769
576.98	47.813
577.31	47.722
577.65	47.668
577.98	46.800
578.32	46.920
578.66	46.796
578.99	47.737
579.33	47.643
579.67	48.119
580.00	47.786
580.34	48.037
580.67	48.147
581.01	47.988
581.35	47.302
581.68	47.134
582.02	47.215
582.35	48.027
582.69	48.580
583.02	48.383
583.36	48.490
583.70	48.557
584.03	49.604
584.37	49.494
584.70	49.120
585.04	47.547
585.37	47.967
585.71	47.681
586.04	48.129
586.38	48.213
586.72	48.709
587.05	49.194
587.39	48.891
587.72	49.402
588.06	49.202
588.39	49.539
588.73	49.153
589.06	49.605
589.40	51.076
589.73	51.060
590.07	50.497
590.40	50.744
590.73	51.396
591.07	51.936
591.40	50.505
591.74	52.067
592.07	51.279
592.41	51.262
592.74	50.089
593.08	50.828
593.41	49.927
593.75	50.144
594.08	50.742
594.41	51.026
594.75	50.581
595.08	51.716
595.42	51.396
595.75	50.274
596.09	51.576
596.42	51.774
596.75	52.026
597.09	52.040
597.42	51.609
597.75	51.039
598.09	52.143
598.42	52.955
598.76	51.357
599.09	50.338
599.42	49.883
599.76	49.719
600.09	50.817
600.42	50.450
600.76	50.727
601.09	50.448
601.42	50.704
601.76	51.103
602.09	50.822
602.42	51.981
602.76	51.218
603.09	51.065
603.42	51.445
603.76	50.775
604.09	50.745
604.42	51.560
604.76	51.522
605.09	52.254
605.42	52.153
605.75	51.615
606.09	51.101
606.42	49.909
606.75	50.300
607.09	50.576
607.42	51.175
607.75	52.208
608.08	51.302
608.42	50.584
608.75	50.705
609.08	51.486
609.41	52.316
609.75	52.545
610.08	52.507
610.41	51.444
610.74	51.387
611.07	53.153
611.41	53.857
611.74	52.841
612.07	53.202
612.40	52.757
612.73	53.496
613.07	53.496
613.40	53.321
613.73	52.913
614.06	54.416
614.39	51.846
614.72	52.111
615.06	52.695
615.39	51.861
615.72	51.754
616.05	52.501
616.38	53.683
616.71	53.553
617.05	52.929
617.38	53.665
617.71	53.672
618.04	53.751
618.37	53.497
618.70	54.186
619.03	53.763
619.36	56.289
619.69	55.413
620.03	55.304
620.36	53.558
620.69	54.349
621.02	55.971
621.35	58.055
621.68	56.182
622.01	56.370
622.34	55.370
622.67	55.808
623.00	55.128
623.33	55.939
623.66	56.420
623.99	53.851
624.32	55.036
624.65	54.183
624.99	55.982
625.32	54.801
625.65	56.035
625.98	54.915
626.31	57.690
626.64	56.264
626.97	56.414
627.30	57.935
627.63	55.964
627.96	56.832
628.29	57.043
628.62	57.767
628.95	58.633
629.28	58.369
629.61	58.081
629.94	57.573
630.26	57.458
630.59	56.908
630.92	56.364
631.25	57.961
631.58	61.111
631.91	59.981
632.24	59.462
632.57	57.306
632.90	61.284
633.23	59.490
633.56	59.286
633.89	59.194
