SpectraSuite Data File
++++++++++++++++++++++++++++++++++++
Date: Thu May 14 15:03:46 PDT 2015
User: schluterlab
Dark Spectrum Present: Yes
Reference Spectrum Present: Yes
Number of Sampled Component Spectra: 1
Spectrometers: USB2E3373
Integration Time (usec): 3000 (USB2E3373)
Spectra Averaged: 3 (USB2E3373)
Boxcar Smoothing: 0 (USB2E3373)
Correct for Electrical Dark: No (USB2E3373)
Strobe/Lamp Enabled: No (USB2E3373)
Correct for Detector Non-linearity: No (USB2E3373)
Correct for Stray Light: No (USB2E3373)
Number of Pixels in Processed Spectrum: 2048
>>>>>Begin Processed Spectral Data<<<<<
178.53	0.000
178.91	342.857
179.29	-2700.000
179.67	-2400.000
180.04	264.286
180.42	260.000
180.80	760.000
181.18	-2600.000
181.56	-700.000
181.94	700.000
182.31	-550.000
182.69	700.000
183.07	-750.000
183.45	575.000
183.83	-366.667
184.20	-833.333
184.58	1900.000
184.96	-600.000
185.34	-233.333
185.72	-440.000
186.09	444.444
186.47	1450.000
186.85	720.000
187.23	-333.333
187.61	-2600.000
187.98	440.000
188.36	625.000
188.74	-625.000
189.12	-866.667
189.49	-100.000
189.87	-275.000
190.25	-155.556
190.63	-420.000
191.00	-300.000
191.38	0.000
191.76	-725.000
192.14	-333.333
192.51	1350.000
192.89	-366.667
193.27	0.000
193.65	-414.286
194.02	-3900.000
194.40	-371.429
194.78	371.429
195.15	0.000
195.53	-172.727
195.91	0.000
196.29	-625.000
196.66	-238.462
197.04	-2900.000
197.42	-400.000
197.79	-1200.000
198.17	-375.000
198.55	-457.143
198.92	-233.333
199.30	-312.500
199.68	-172.727
200.05	-128.571
200.43	-1150.000
200.81	414.286
201.18	0.000
201.56	344.444
201.94	0.000
202.31	933.333
202.69	-200.000
203.07	2400.000
203.44	-277.778
203.82	-675.000
204.19	-183.333
204.57	-433.333
204.95	-287.500
205.32	-2100.000
205.70	700.000
206.08	-466.667
206.45	-283.333
206.83	680.000
207.20	-400.000
207.58	-540.000
207.96	-433.333
208.33	-316.667
208.71	208.333
209.08	-200.000
209.46	0.000
209.84	416.667
210.21	1150.000
210.59	1100.000
210.96	1033.333
211.34	-375.000
211.71	-275.000
212.09	-2800.000
212.46	0.000
212.84	1600.000
213.22	-560.000
213.59	-425.000
213.97	-150.000
214.34	-866.667
214.72	383.333
215.09	-650.000
215.47	0.000
215.84	485.714
216.22	1700.000
216.59	-340.000
216.97	-420.000
217.34	-500.000
217.72	-162.500
218.09	-625.000
218.47	-1000.000
218.84	0.000
219.22	560.000
219.59	-111.765
219.97	-70.000
220.34	1750.000
220.72	-322.222
221.09	-123.077
221.47	-600.000
221.84	-200.000
222.22	-400.000
222.59	0.000
222.97	-312.500
223.34	-460.000
223.72	-1800.000
224.09	-550.000
224.46	-675.000
224.84	-440.000
225.21	-385.714
225.59	-650.000
225.96	-725.000
226.34	-50.000
226.71	450.000
227.08	-1050.000
227.46	-140.000
227.83	-600.000
228.21	-157.895
228.58	362.500
228.95	800.000
229.33	-175.000
229.70	-270.000
230.08	-84.211
230.45	260.000
230.82	-766.667
231.20	-114.286
231.57	-133.333
231.95	-136.364
232.32	-181.818
232.69	-105.000
233.07	-450.000
233.44	-105.882
233.81	-270.000
234.19	-105.556
234.56	-90.909
234.93	-27.586
235.31	-115.789
235.68	-83.333
236.05	-125.000
236.43	-11.538
236.80	-56.000
237.17	-81.481
237.55	-78.788
237.92	-310.000
238.29	-35.484
238.67	-61.364
239.04	-72.222
239.41	-47.619
239.79	-50.000
240.16	-42.593
240.53	-52.174
240.91	-60.784
241.28	-42.623
241.65	-23.881
242.02	-18.919
242.40	-55.385
242.77	-32.000
243.14	-36.585
243.51	-46.053
243.89	-35.897
244.26	-14.851
244.63	-17.647
245.00	-22.430
245.38	-21.930
245.75	-31.858
246.12	-17.460
246.49	-23.256
246.87	-18.571
247.24	-12.583
247.61	-17.763
247.98	-16.779
248.36	-11.111
248.73	-17.791
249.10	-12.568
249.47	-6.468
249.84	-4.712
250.22	-13.472
250.59	-15.000
250.96	-6.818
251.33	-14.286
251.70	-6.410
252.08	-5.000
252.45	-8.607
252.82	-11.983
253.19	-12.500
253.56	-8.745
253.94	-10.000
254.31	-9.470
254.68	-1.748
255.05	-1.954
255.42	-9.864
255.79	-9.385
256.16	-5.629
256.54	-9.603
256.91	-4.918
257.28	-7.869
257.65	-8.599
258.02	-10.324
258.39	-6.268
258.76	-3.364
259.14	-6.897
259.51	-6.916
259.88	-8.215
260.25	-6.667
260.62	-6.301
260.99	-3.279
261.36	-5.630
261.73	-7.958
262.10	-9.341
262.47	-4.021
262.85	-1.263
263.22	-7.013
263.59	-9.211
263.96	-5.115
264.33	-6.905
264.70	-4.691
265.07	-2.864
265.44	-1.814
265.81	-4.398
266.18	-6.122
266.55	-4.688
266.92	-7.289
267.29	-2.626
267.66	-6.874
268.03	-5.895
268.40	-3.758
268.77	-7.289
269.14	-8.590
269.51	-4.605
269.88	-3.074
270.25	-2.414
270.62	-3.797
270.99	-1.616
271.36	-3.564
271.73	-3.929
272.10	-1.202
272.47	-3.607
272.84	-5.422
273.21	-2.204
273.58	-5.847
273.95	-4.423
274.32	-4.563
274.69	-5.609
275.06	-2.564
275.43	-4.991
275.80	-2.293
276.17	-5.370
276.54	-3.731
276.91	-2.683
277.28	-3.978
277.65	-2.334
278.02	-3.676
278.39	-2.899
278.76	-5.272
279.13	-4.610
279.50	-1.890
279.87	-3.578
280.23	-6.690
280.60	-1.864
280.97	-2.467
281.34	-4.244
281.71	-1.015
282.08	-3.156
282.45	-4.092
282.82	-4.396
283.19	-4.685
283.56	-3.770
283.92	-1.351
284.29	-0.790
284.66	-2.135
285.03	-5.128
285.40	-3.246
285.77	-4.180
286.14	-1.832
286.51	-2.588
286.87	-4.739
287.24	-2.410
287.61	-4.484
287.98	-3.323
288.35	-3.107
288.72	-2.219
289.08	-1.171
289.45	-4.142
289.82	-2.711
290.19	-2.443
290.56	-0.563
290.93	-4.280
291.29	-3.306
291.66	-3.719
292.03	-2.714
292.40	-2.041
292.77	-3.908
293.13	-2.706
293.50	-3.285
293.87	-2.013
294.24	-2.000
294.60	-1.138
294.97	-4.564
295.34	-1.665
295.71	-3.153
296.08	-3.101
296.44	-3.186
296.81	-2.192
297.18	-2.242
297.55	-3.420
297.91	-2.966
298.28	-3.318
298.65	-2.021
299.02	-3.542
299.38	-2.975
299.75	-3.037
300.12	-2.431
300.48	-3.341
300.85	-1.237
301.22	-2.237
301.59	-2.968
301.95	-2.034
302.32	-2.667
302.69	-2.191
303.05	-1.197
303.42	-2.328
303.79	-2.604
304.15	-1.682
304.52	-2.114
304.89	-2.304
305.25	-1.967
305.62	-2.299
305.99	-2.577
306.35	-2.923
306.72	-1.861
307.09	-3.046
307.45	-1.760
307.82	-1.514
308.19	-2.220
308.55	-1.254
308.92	-2.142
309.29	-1.628
309.65	-1.949
310.02	-2.574
310.38	-2.165
310.75	-2.039
311.12	-1.342
311.48	-1.564
311.85	-2.279
312.22	-1.803
312.58	-1.784
312.95	-2.677
313.31	-2.258
313.68	-1.282
314.05	-1.897
314.41	-1.093
314.78	-1.635
315.14	-1.270
315.51	-2.308
315.87	-0.810
316.24	-0.913
316.61	-0.444
316.97	-1.900
317.34	-1.411
317.70	-1.135
318.07	-2.293
318.43	-0.850
318.80	0.836
319.16	-0.944
319.53	-2.399
319.89	-1.490
320.26	-0.356
320.62	-1.418
320.99	-1.293
321.35	-2.126
321.72	-0.279
322.08	-1.172
322.45	-1.807
322.81	-0.812
323.18	-0.619
323.54	-0.345
323.91	-0.979
324.27	-0.775
324.64	-0.084
325.00	-1.990
325.37	-0.082
325.73	-1.074
326.10	-0.324
326.46	0.000
326.83	-0.400
327.19	-0.709
327.56	-0.474
327.92	-0.236
328.29	-0.968
328.65	-0.838
329.01	-1.184
329.38	-0.253
329.74	-0.685
330.11	0.000
330.47	-1.601
330.84	-1.034
331.20	-0.333
331.56	-1.386
331.93	-0.167
332.29	-0.593
332.66	-0.166
333.02	-1.005
333.38	-0.671
333.75	-0.168
334.11	-0.751
334.48	-0.908
334.84	0.935
335.20	-0.420
335.57	0.506
335.93	-0.413
336.29	-0.250
336.66	-0.925
337.02	0.000
337.38	1.020
337.75	-0.331
338.11	-0.168
338.47	-0.331
338.84	-1.438
339.20	-1.601
339.56	-0.741
339.93	-0.082
340.29	0.161
340.65	-0.568
341.02	-0.239
341.38	-0.081
341.74	-0.484
342.11	-0.322
342.47	-0.874
342.83	-0.725
343.20	-0.164
343.56	-0.160
343.92	-0.080
344.28	-0.391
344.65	0.853
345.01	-0.468
345.37	-0.156
345.73	-0.390
346.10	0.936
346.46	0.158
346.82	0.974
347.19	0.306
347.55	0.303
347.91	0.594
348.27	-0.303
348.63	0.838
349.00	-0.149
349.36	0.074
349.72	-0.298
350.08	0.743
350.45	-0.913
350.81	-0.377
351.17	-0.150
351.53	-0.379
351.89	0.759
352.26	-0.373
352.62	0.224
352.98	-0.382
353.34	-0.523
353.70	-0.385
354.07	0.373
354.43	0.000
354.79	-0.823
355.15	-0.221
355.51	0.292
355.87	-0.524
356.24	0.000
356.60	-0.296
356.96	-0.519
357.32	-0.372
357.68	-1.025
358.04	-0.299
358.40	-0.821
358.77	-0.512
359.13	-1.256
359.49	-1.784
359.85	0.218
360.21	0.143
360.57	-0.431
360.93	0.071
361.29	-0.491
361.66	-0.507
362.02	0.974
362.38	-0.562
362.74	-0.559
363.10	0.688
363.46	-0.208
363.82	0.071
364.18	-0.422
364.54	-0.138
364.90	0.000
365.26	-0.621
365.62	0.333
365.98	0.068
366.35	-0.201
366.71	0.816
367.07	-0.271
367.43	0.591
367.79	0.597
368.15	0.736
368.51	0.338
368.87	0.457
369.23	0.400
369.59	0.205
369.95	0.744
370.31	0.540
370.67	-0.206
371.03	0.623
371.39	0.000
371.75	0.069
372.11	0.407
372.47	0.135
372.83	0.262
373.19	0.267
373.55	0.068
373.91	-0.204
374.27	0.259
374.63	0.068
374.99	0.398
375.35	1.039
375.71	-0.194
376.07	0.065
376.42	0.693
376.78	0.497
377.14	1.185
377.50	-0.253
377.86	1.786
378.22	0.778
378.58	0.713
378.94	0.763
379.30	0.469
379.66	0.882
380.02	0.577
380.38	0.864
380.74	0.676
381.09	0.523
381.45	1.477
381.81	1.112
382.17	1.306
382.53	0.994
382.89	1.185
383.25	0.996
383.61	0.521
383.97	1.119
384.32	0.897
384.68	0.638
385.04	1.562
385.40	1.473
385.76	1.348
386.12	0.838
386.48	2.176
386.83	1.192
387.19	0.811
387.55	0.587
387.91	1.199
388.27	1.848
388.62	1.604
388.98	0.959
389.34	1.355
389.70	1.162
390.06	1.776
390.42	1.084
390.77	1.866
391.13	0.998
391.49	1.812
391.85	0.727
392.20	1.305
392.56	1.595
392.92	2.181
393.28	2.101
393.64	1.341
393.99	2.208
394.35	2.103
394.71	1.557
395.07	1.198
395.42	1.599
395.78	1.767
396.14	1.485
396.50	1.722
396.85	1.610
397.21	1.538
397.57	1.943
397.92	2.176
398.28	1.412
398.64	1.773
399.00	1.099
399.35	2.461
399.71	1.413
400.07	1.909
400.42	1.630
400.78	1.273
401.14	2.390
401.49	1.933
401.85	1.570
402.21	1.622
402.57	1.174
402.92	2.305
403.28	1.112
403.63	0.537
403.99	1.306
404.35	2.047
404.70	2.210
405.06	1.957
405.42	1.698
405.77	1.472
406.13	2.323
406.49	1.520
406.84	1.939
407.20	1.174
407.55	0.909
407.91	1.697
408.27	1.885
408.62	1.513
408.98	1.625
409.34	0.938
409.69	1.545
410.05	2.579
410.40	2.262
410.76	2.187
411.11	1.520
411.47	2.396
411.83	2.116
412.18	1.325
412.54	1.778
412.89	2.212
413.25	1.411
413.60	2.355
413.96	1.107
414.31	1.926
414.67	1.849
415.03	1.785
415.38	1.009
415.74	1.405
416.09	1.851
416.45	1.064
416.80	0.979
417.16	1.724
417.51	1.557
417.87	2.023
418.22	1.198
418.58	2.292
418.93	2.095
419.29	1.295
419.64	1.561
420.00	1.543
420.35	1.909
420.71	2.068
421.06	1.380
421.42	1.089
421.77	1.562
422.12	2.061
422.48	1.843
422.83	2.355
423.19	1.910
423.54	1.825
423.90	1.712
424.25	2.293
424.61	1.033
424.96	1.647
425.31	2.654
425.67	1.771
426.02	1.605
426.38	1.952
426.73	0.949
427.09	2.480
427.44	1.966
427.79	1.714
428.15	1.712
428.50	1.461
428.85	2.239
429.21	2.766
429.56	1.925
429.92	1.474
430.27	2.265
430.62	2.394
430.98	1.722
431.33	1.711
431.68	1.868
432.04	1.778
432.39	1.982
432.74	1.769
433.10	1.568
433.45	1.839
433.80	1.502
434.16	2.273
434.51	2.055
434.86	1.520
435.22	1.753
435.57	1.828
435.92	1.836
436.28	1.877
436.63	1.966
436.98	1.825
437.34	1.917
437.69	2.367
438.04	2.010
438.39	2.700
438.75	1.716
439.10	2.696
439.45	1.733
439.81	1.638
440.16	2.306
440.51	2.620
440.86	1.890
441.22	2.036
441.57	2.254
441.92	2.231
442.27	2.525
442.63	2.136
442.98	2.615
443.33	2.262
443.68	3.122
444.03	3.198
444.39	2.589
444.74	2.552
445.09	2.686
445.44	2.266
445.79	2.395
446.15	2.569
446.50	2.171
446.85	3.064
447.20	3.337
447.55	2.772
447.91	2.094
448.26	2.378
448.61	2.497
448.96	2.521
449.31	2.439
449.66	2.288
450.02	2.743
450.37	3.037
450.72	2.314
451.07	2.392
451.42	2.831
451.77	2.057
452.12	2.765
452.47	2.198
452.83	2.477
453.18	2.393
453.53	1.723
453.88	2.982
454.23	2.825
454.58	3.018
454.93	2.245
455.28	2.468
455.63	2.445
455.98	3.017
456.34	2.945
456.69	2.646
457.04	1.950
457.39	2.882
457.74	2.740
458.09	2.252
458.44	2.856
458.79	3.043
459.14	3.356
459.49	2.773
459.84	2.781
460.19	2.554
460.54	2.328
460.89	2.541
461.24	2.241
461.59	3.154
461.94	1.654
462.29	2.968
462.64	2.293
462.99	2.825
463.34	2.661
463.69	2.814
464.04	3.224
464.39	3.251
464.74	2.509
465.09	2.018
465.44	2.843
465.79	3.437
466.14	3.075
466.49	3.053
466.84	2.755
467.19	3.179
467.54	3.290
467.89	2.356
468.24	3.435
468.59	1.679
468.94	2.273
469.29	2.819
469.64	2.734
469.99	2.613
470.34	1.980
470.68	2.461
471.03	2.620
471.38	3.270
471.73	2.341
472.08	3.173
472.43	3.010
472.78	2.645
473.13	1.960
473.48	3.444
473.83	2.960
474.17	2.989
474.52	2.586
474.87	2.990
475.22	3.437
475.57	3.167
475.92	2.738
476.27	3.514
476.61	3.011
476.96	2.920
477.31	3.069
477.66	3.148
478.01	2.745
478.36	2.841
478.70	3.153
479.05	3.272
479.40	3.110
479.75	3.602
480.10	3.316
480.45	3.008
480.79	3.356
481.14	3.401
481.49	2.272
481.84	4.003
482.19	3.656
482.53	3.105
482.88	3.589
483.23	3.112
483.58	3.188
483.92	3.059
484.27	2.964
484.62	3.053
484.97	3.460
485.31	3.379
485.66	3.430
486.01	3.453
486.36	3.704
486.70	4.110
487.05	3.962
487.40	3.993
487.75	3.817
488.09	3.325
488.44	3.298
488.79	3.811
489.13	3.186
489.48	2.641
489.83	3.421
490.17	2.835
490.52	3.325
490.87	3.384
491.22	2.816
491.56	3.541
491.91	3.663
492.26	3.202
492.60	3.148
492.95	3.466
493.30	3.227
493.64	3.154
493.99	3.377
494.34	3.136
494.68	3.212
495.03	3.040
495.37	3.151
495.72	3.265
496.07	3.199
496.41	3.132
496.76	3.169
497.11	3.270
497.45	2.762
497.80	3.598
498.14	3.265
498.49	3.631
498.84	3.291
499.18	3.149
499.53	3.677
499.87	3.736
500.22	2.404
500.56	3.419
500.91	3.158
501.26	4.000
501.60	2.740
501.95	3.083
502.29	2.984
502.64	3.323
502.98	3.192
503.33	2.894
503.67	2.529
504.02	3.327
504.36	3.530
504.71	3.261
505.06	3.774
505.40	3.108
505.75	3.188
506.09	3.545
506.44	3.203
506.78	3.761
507.13	3.504
507.47	3.553
507.82	3.220
508.16	3.155
508.51	3.188
508.85	3.212
509.19	3.790
509.54	3.650
509.88	3.254
510.23	3.351
510.57	4.302
510.92	2.806
511.26	3.367
511.61	2.897
511.95	3.075
512.30	3.791
512.64	3.048
512.98	3.102
513.33	3.226
513.67	2.805
514.02	3.321
514.36	3.785
514.70	3.073
515.05	3.493
515.39	3.045
515.74	4.030
516.08	2.694
516.42	4.029
516.77	2.892
517.11	3.249
517.46	4.083
517.80	3.688
518.14	3.863
518.49	3.688
518.83	3.193
519.17	2.908
519.52	3.721
519.86	4.118
520.20	3.727
520.55	3.560
520.89	3.378
521.23	3.350
521.58	3.616
521.92	3.683
522.26	2.806
522.61	3.299
522.95	3.287
523.29	2.759
523.64	3.363
523.98	3.708
524.32	3.553
524.66	3.301
525.01	3.058
525.35	2.527
525.69	3.538
526.04	3.272
526.38	3.391
526.72	2.999
527.06	3.226
527.41	3.382
527.75	3.563
528.09	3.542
528.43	3.552
528.78	3.237
529.12	3.326
529.46	2.979
529.80	3.890
530.15	3.652
530.49	3.025
530.83	3.424
531.17	3.166
531.51	2.948
531.86	3.606
532.20	3.537
532.54	3.291
532.88	3.273
533.22	3.830
533.57	3.982
533.91	4.321
534.25	2.996
534.59	3.563
534.93	3.056
535.27	3.549
535.62	4.264
535.96	2.673
536.30	3.114
536.64	3.243
536.98	3.137
537.32	3.519
537.66	2.932
538.01	3.686
538.35	3.106
538.69	3.365
539.03	3.311
539.37	3.946
539.71	3.483
540.05	3.657
540.39	3.056
540.73	3.279
541.07	3.924
541.42	3.426
541.76	2.847
542.10	3.438
542.44	2.801
542.78	3.224
543.12	3.576
543.46	3.968
543.80	3.118
544.14	2.693
544.48	3.546
544.82	3.770
545.16	3.101
545.50	3.775
545.84	3.246
546.18	3.889
546.52	3.248
546.86	3.585
547.20	3.053
547.54	3.184
547.88	3.014
548.22	2.807
548.56	3.394
548.90	2.507
549.24	3.343
549.58	3.028
549.92	3.508
550.26	3.948
550.60	3.255
550.94	3.428
551.28	2.970
551.62	3.437
551.96	3.689
552.30	3.952
552.64	3.298
552.98	3.493
553.32	3.280
553.66	3.408
554.00	3.216
554.34	3.861
554.68	2.970
555.02	3.482
555.36	4.274
555.69	2.947
556.03	3.090
556.37	3.630
556.71	3.107
557.05	3.387
557.39	3.384
557.73	3.501
558.07	3.245
558.41	3.588
558.75	2.907
559.08	3.479
559.42	3.018
559.76	3.664
560.10	3.282
560.44	3.628
560.78	3.875
561.12	3.571
561.45	3.102
561.79	3.785
562.13	3.081
562.47	2.836
562.81	2.911
563.15	2.462
563.48	3.294
563.82	3.023
564.16	2.665
564.50	2.443
564.84	3.717
565.17	3.647
565.51	2.992
565.85	3.385
566.19	3.111
566.52	3.160
566.86	3.169
567.20	3.589
567.54	3.399
567.88	3.364
568.21	4.249
568.55	3.501
568.89	3.677
569.23	3.591
569.56	3.439
569.90	3.920
570.24	3.811
570.57	3.464
570.91	3.246
571.25	3.327
571.59	4.286
571.92	3.385
572.26	3.335
572.60	3.767
572.93	3.869
573.27	3.793
573.61	3.812
573.95	3.933
574.28	3.854
574.62	3.502
574.96	3.463
575.29	3.525
575.63	3.604
575.97	3.904
576.30	3.430
576.64	3.555
576.98	3.576
577.31	3.701
577.65	3.673
577.98	3.671
578.32	3.548
578.66	3.600
578.99	3.502
579.33	3.713
579.67	3.445
580.00	3.461
580.34	4.014
580.67	3.641
581.01	3.678
581.35	3.624
581.68	3.620
582.02	4.007
582.35	4.012
582.69	3.712
583.02	3.756
583.36	3.779
583.70	3.681
584.03	3.600
584.37	3.777
584.70	3.399
585.04	3.697
585.37	3.734
585.71	3.689
586.04	3.743
586.38	3.923
586.72	3.309
587.05	3.274
587.39	3.790
587.72	3.756
588.06	3.965
588.39	4.132
588.73	3.730
589.06	4.063
589.40	3.565
589.73	3.631
590.07	3.680
590.40	4.260
590.73	3.747
591.07	4.021
591.40	3.383
591.74	3.339
592.07	3.613
592.41	2.642
592.74	3.869
593.08	4.172
593.41	4.083
593.75	3.937
594.08	3.847
594.41	3.846
594.75	3.520
595.08	3.432
595.42	3.831
595.75	4.294
596.09	4.033
596.42	3.905
596.75	3.744
597.09	4.081
597.42	3.774
597.75	3.802
598.09	4.206
598.42	4.061
598.76	3.439
599.09	3.738
599.42	3.654
599.76	3.698
600.09	4.071
600.42	4.371
600.76	3.699
601.09	4.016
601.42	3.536
601.76	4.276
602.09	3.717
602.42	3.453
602.76	3.506
603.09	3.451
603.42	3.613
603.76	3.171
604.09	3.903
604.42	4.073
604.76	3.615
605.09	3.909
605.42	3.549
605.75	3.692
606.09	3.695
606.42	3.575
606.75	3.186
607.09	3.456
607.42	3.430
607.75	3.439
608.08	3.788
608.42	3.628
608.75	4.022
609.08	3.693
609.41	3.794
609.75	2.991
610.08	3.606
610.41	3.356
610.74	3.361
611.07	3.242
611.41	3.857
611.74	3.510
612.07	3.647
612.40	2.804
612.73	3.178
613.07	3.276
613.40	3.080
613.73	3.755
614.06	3.435
614.39	3.207
614.72	2.960
615.06	3.657
615.39	2.755
615.72	3.175
616.05	3.448
616.38	3.431
616.71	3.292
617.05	3.408
617.38	3.959
617.71	2.916
618.04	3.670
618.37	3.716
618.70	3.224
619.03	2.927
619.36	2.836
619.69	3.203
620.03	3.202
620.36	3.436
620.69	3.146
621.02	3.018
621.35	3.628
621.68	3.615
622.01	2.918
622.34	2.092
622.67	3.230
623.00	1.822
623.33	2.389
623.66	3.632
623.99	2.502
624.32	4.418
624.65	3.346
624.99	3.121
625.32	3.658
625.65	3.574
625.98	2.508
626.31	3.047
626.64	2.637
626.97	2.251
627.30	1.670
627.63	2.926
627.96	4.054
628.29	2.646
628.62	1.931
628.95	2.103
629.28	1.614
629.61	2.104
629.94	1.757
630.26	1.271
630.59	2.850
630.92	1.905
631.25	3.041
631.58	3.202
631.91	1.125
632.24	1.921
632.57	1.898
632.90	1.003
633.23	3.061
633.56	2.653
633.89	2.066
634.22	2.183
634.55	2.923
634.88	0.758
635.20	1.722
635.53	1.808
635.86	1.842
636.19	3.606
636.52	2.110
636.85	2.451
637.18	2.183
637.51	2.151
637.83	2.547
638.16	2.189
638.49	1.526
638.82	1.466
639.15	1.145
639.48	1.963
639.81	2.194
640.13	2.591
640.46	0.000
640.79	-0.490
641.12	1.988
641.45	0.753
641.77	2.567
642.10	0.262
642.43	3.723
642.76	2.439
643.09	0.548
643.41	-0.140
643.74	1.931
644.07	1.793
644.40	0.990
644.73	1.451
645.05	0.147
645.38	1.007
645.71	0.733
646.04	3.300
646.36	1.168
646.69	1.534
647.02	2.294
647.35	1.374
647.67	2.415
648.00	-0.159
648.33	1.952
