SpectraSuite Data File
++++++++++++++++++++++++++++++++++++
Date: Thu May 14 14:55:04 PDT 2015
User: schluterlab
Dark Spectrum Present: Yes
Reference Spectrum Present: Yes
Number of Sampled Component Spectra: 1
Spectrometers: USB2E3373
Integration Time (usec): 3000 (USB2E3373)
Spectra Averaged: 3 (USB2E3373)
Boxcar Smoothing: 0 (USB2E3373)
Correct for Electrical Dark: No (USB2E3373)
Strobe/Lamp Enabled: No (USB2E3373)
Correct for Detector Non-linearity: No (USB2E3373)
Correct for Stray Light: No (USB2E3373)
Number of Pixels in Processed Spectrum: 2048
>>>>>Begin Processed Spectral Data<<<<<
178.53	0.000
178.91	200.000
179.29	-2200.000
179.67	-1400.000
180.04	221.429
180.42	210.000
180.80	220.000
181.18	-1600.000
181.56	-700.000
181.94	400.000
182.31	-375.000
182.69	433.333
183.07	-350.000
183.45	375.000
183.83	-150.000
184.20	-533.333
184.58	1900.000
184.96	-375.000
185.34	-122.222
185.72	-160.000
186.09	311.111
186.47	650.000
186.85	580.000
187.23	-233.333
187.61	-2300.000
187.98	260.000
188.36	450.000
188.74	-400.000
189.12	-666.667
189.49	-62.500
189.87	-162.500
190.25	-88.889
190.63	-220.000
191.00	-288.889
191.38	0.000
191.76	-325.000
192.14	-366.667
192.51	700.000
192.89	0.000
193.27	0.000
193.65	-271.429
194.02	-1700.000
194.40	-171.429
194.78	271.429
195.15	0.000
195.53	-63.636
195.91	0.000
196.29	-250.000
196.66	-184.615
197.04	-2300.000
197.42	-257.143
197.79	-1000.000
198.17	-137.500
198.55	-257.143
198.92	-88.889
199.30	-187.500
199.68	-145.455
200.05	-50.000
200.43	-1200.000
200.81	400.000
201.18	0.000
201.56	322.222
201.94	0.000
202.31	900.000
202.69	-355.556
203.07	1000.000
203.44	-133.333
203.82	-500.000
204.19	-141.667
204.57	-350.000
204.95	-187.500
205.32	-1800.000
205.70	325.000
206.08	-333.333
206.45	-316.667
206.83	520.000
207.20	-266.667
207.58	-520.000
207.96	-266.667
208.33	-200.000
208.71	158.333
209.08	-283.333
209.46	0.000
209.84	200.000
210.21	550.000
210.59	950.000
210.96	833.333
211.34	-425.000
211.71	-325.000
212.09	-2400.000
212.46	0.000
212.84	1000.000
213.22	-440.000
213.59	-350.000
213.97	-120.000
214.34	-466.667
214.72	383.333
215.09	-525.000
215.47	0.000
215.84	200.000
216.22	1050.000
216.59	-260.000
216.97	-340.000
217.34	-450.000
217.72	-150.000
218.09	-375.000
218.47	-550.000
218.84	0.000
219.22	280.000
219.59	-64.706
219.97	-70.000
220.34	1000.000
220.72	-177.778
221.09	-15.385
221.47	-466.667
221.84	-70.000
222.22	-414.286
222.59	0.000
222.97	-225.000
223.34	-440.000
223.72	-1800.000
224.09	-300.000
224.46	-425.000
224.84	-40.000
225.21	-257.143
225.59	-525.000
225.96	-550.000
226.34	3.846
226.71	283.333
227.08	-500.000
227.46	-100.000
227.83	-250.000
228.21	-42.105
228.58	187.500
228.95	850.000
229.33	-100.000
229.70	-130.000
230.08	-15.789
230.45	260.000
230.82	-133.333
231.20	-121.429
231.57	-33.333
231.95	-72.727
232.32	-81.818
232.69	-80.000
233.07	-350.000
233.44	-82.353
233.81	-250.000
234.19	-44.444
234.56	-77.273
234.93	-3.448
235.31	-52.632
235.68	-61.111
236.05	-95.000
236.43	3.846
236.80	-12.000
237.17	-25.926
237.55	-54.545
237.92	-180.000
238.29	-35.484
238.67	-22.727
239.04	-30.556
239.41	-16.667
239.79	-2.174
240.16	-24.074
240.53	-23.913
240.91	-25.490
241.28	-19.672
241.65	10.448
242.02	-18.919
242.40	-35.385
242.77	-18.667
243.14	-36.585
243.51	-38.158
243.89	-32.051
244.26	-5.941
244.63	-8.824
245.00	-10.280
245.38	-10.526
245.75	-26.549
246.12	-5.556
246.49	-13.953
246.87	-3.571
247.24	-5.298
247.61	-5.263
247.98	-3.356
248.36	-6.790
248.73	-11.656
249.10	-7.650
249.47	-0.498
249.84	0.000
250.22	-9.326
250.59	-10.556
250.96	-2.273
251.33	-14.286
251.70	-2.137
252.08	-6.667
252.45	0.000
252.82	-4.959
253.19	-5.078
253.56	-2.281
253.94	-6.923
254.31	-6.061
254.68	0.350
255.05	-0.651
255.42	-3.401
255.79	-4.207
256.16	-5.629
256.54	-6.623
256.91	-0.328
257.28	-4.262
257.65	-7.962
258.02	-4.720
258.39	-1.425
258.76	1.223
259.14	-0.575
259.51	-2.305
259.88	-3.399
260.25	-4.722
260.62	-0.274
260.99	-1.913
261.36	0.536
261.73	-2.122
262.10	-4.396
262.47	-3.753
262.85	0.758
263.22	-2.597
263.59	-5.000
263.96	0.256
264.33	-4.604
264.70	-2.222
265.07	0.477
265.44	3.401
265.81	-1.389
266.18	-0.454
266.55	-0.670
266.92	-3.189
267.29	-1.969
267.66	-3.769
268.03	-1.965
268.40	0.835
268.77	-4.556
269.14	-4.626
269.51	-1.096
269.88	-0.410
270.25	-0.201
270.62	-1.899
270.99	0.202
271.36	0.990
271.73	-0.786
272.10	-0.200
272.47	-0.802
272.84	-1.406
273.21	-1.603
273.58	-0.605
273.95	-1.731
274.32	-2.852
274.69	-1.161
275.06	-0.183
275.43	-3.327
275.80	-0.353
276.17	-3.519
276.54	-1.679
276.91	-0.716
277.28	-2.351
277.65	-0.898
278.02	-1.287
278.39	-1.630
278.76	-1.406
279.13	-1.241
279.50	0.344
279.87	0.000
280.23	-3.873
280.60	-1.525
280.97	-0.493
281.34	-2.377
281.71	0.677
282.08	-1.661
282.45	-0.818
282.82	0.314
283.19	-2.908
283.56	-2.459
283.92	0.450
284.29	0.000
284.66	0.000
285.03	-2.885
285.40	-0.155
285.77	-1.238
286.14	-0.611
286.51	-0.304
286.87	-1.422
287.24	-1.205
287.61	-1.046
287.98	-2.870
288.35	-1.923
288.72	-1.331
289.08	0.586
289.45	-1.775
289.82	-1.506
290.19	-1.293
290.56	1.268
290.93	-1.427
291.29	0.138
291.66	0.138
292.03	-0.678
292.40	0.136
292.77	0.135
293.13	-0.135
293.50	-1.840
293.87	-0.805
294.24	0.533
294.60	-0.126
294.97	-1.879
295.34	-0.384
295.71	-0.631
296.08	-0.388
296.44	-0.613
296.81	-0.365
297.18	-0.872
297.55	-0.825
297.91	-0.119
298.28	-0.948
298.65	0.951
299.02	-1.181
299.38	-0.458
299.75	0.234
300.12	-1.273
300.48	-0.115
300.85	-0.675
301.22	0.671
301.59	-0.913
301.95	-0.565
302.32	1.222
302.69	0.219
303.05	0.109
303.42	0.111
303.79	0.521
304.15	0.526
304.52	0.106
304.89	-0.105
305.25	-1.035
305.62	-0.104
305.99	0.206
306.35	-0.101
306.72	0.827
307.09	-0.102
307.45	0.414
307.82	0.706
308.19	0.404
308.55	2.122
308.92	0.000
309.29	0.287
309.65	-0.487
310.02	-0.396
310.38	0.394
310.75	1.165
311.12	1.438
311.48	-0.391
311.85	0.950
312.22	0.474
312.58	1.221
312.95	0.478
313.31	2.168
313.68	1.923
314.05	2.529
314.41	1.821
314.78	2.180
315.14	1.724
315.51	1.200
315.87	3.240
316.24	2.283
316.61	3.197
316.97	2.172
317.34	2.381
317.70	2.882
318.07	2.910
318.43	3.486
318.80	4.348
319.16	3.777
319.53	2.399
319.89	3.769
320.26	4.093
320.62	3.280
320.99	4.432
321.35	3.974
321.72	4.465
322.08	4.328
322.45	4.517
322.81	3.700
323.18	4.425
323.54	4.828
323.91	4.893
324.27	5.938
324.64	5.458
325.00	5.556
325.37	5.569
325.73	6.281
326.10	6.650
326.46	6.759
326.83	6.725
327.19	6.535
327.56	7.273
327.92	7.160
328.29	7.016
328.65	6.616
329.01	6.768
329.38	8.340
329.74	7.363
330.11	6.678
330.47	8.088
330.84	8.958
331.20	7.667
331.56	8.146
331.93	9.038
332.29	7.881
332.66	9.718
333.02	8.961
333.38	9.648
333.75	7.912
334.11	9.341
334.48	9.653
334.84	8.411
335.20	8.312
335.57	9.275
335.93	9.504
336.29	8.403
336.66	8.242
337.02	9.365
337.38	9.779
337.75	8.430
338.11	9.420
338.47	9.595
338.84	8.714
339.20	8.256
339.56	8.979
339.93	8.374
340.29	9.259
340.65	8.840
341.02	10.535
341.38	9.378
341.74	8.475
342.11	10.056
342.47	9.373
342.83	10.628
343.20	8.913
343.56	9.142
343.92	9.287
344.28	9.844
344.65	10.620
345.01	9.984
345.37	10.109
345.73	8.574
346.10	10.920
346.46	8.623
346.82	10.487
347.19	9.244
347.55	10.395
347.91	9.435
348.27	9.256
348.63	10.206
349.00	10.664
349.36	10.037
349.72	9.375
350.08	10.475
350.45	9.278
350.81	9.804
351.17	10.150
351.53	9.553
351.89	10.251
352.26	9.925
352.62	10.299
352.98	9.542
353.34	9.783
353.70	11.017
354.07	10.581
354.43	10.706
354.79	10.696
355.15	10.375
355.51	11.623
355.87	10.172
356.24	11.027
356.60	10.569
356.96	10.675
357.32	10.037
357.68	9.444
358.04	10.254
358.40	10.522
358.77	10.965
359.13	10.340
359.49	10.409
359.85	10.732
360.21	10.043
360.57	10.266
360.93	9.803
361.29	11.298
361.66	11.296
362.02	11.900
362.38	11.033
362.74	10.335
363.10	10.935
363.46	11.219
363.82	11.577
364.18	11.330
364.54	11.618
364.90	10.903
365.26	10.621
365.62	11.733
365.98	10.279
366.35	11.544
366.71	12.313
367.07	12.382
367.43	11.622
367.79	12.276
368.15	11.304
368.51	11.164
368.87	12.476
369.23	11.733
369.59	12.432
369.95	11.765
370.31	11.344
370.67	11.623
371.03	12.188
371.39	11.686
371.75	11.692
372.11	12.669
372.47	11.578
372.83	12.107
373.19	12.075
373.55	11.382
373.91	10.838
374.27	12.225
374.63	13.329
374.99	11.936
375.35	12.338
375.71	12.710
376.07	12.395
376.42	12.846
376.78	13.238
377.14	13.163
377.50	12.587
377.86	13.732
378.22	13.772
378.58	13.555
378.94	13.322
379.30	13.181
379.66	14.051
380.02	14.253
380.38	14.286
380.74	13.352
381.09	13.240
381.45	13.977
381.81	14.754
382.17	13.420
382.53	13.860
382.89	14.447
383.25	14.068
383.61	13.542
383.97	14.488
384.32	15.251
384.68	13.515
385.04	15.038
385.40	15.203
385.76	16.002
386.12	15.141
386.48	15.294
386.83	15.673
387.19	14.368
387.55	14.319
387.91	15.468
388.27	15.589
388.62	15.636
388.98	16.187
389.34	16.205
389.70	16.270
390.06	15.749
390.42	16.265
390.77	15.713
391.13	17.254
391.49	16.184
391.85	15.152
392.20	16.311
392.56	16.125
392.92	16.630
393.28	16.197
393.64	16.536
393.99	16.909
394.35	16.472
394.71	16.407
395.07	15.868
395.42	16.790
395.78	16.575
396.14	16.875
396.50	16.568
396.85	16.816
397.21	16.923
397.57	16.196
397.92	16.896
398.28	16.784
398.64	16.934
399.00	16.230
399.35	17.277
399.71	16.793
400.07	17.238
400.42	16.764
400.78	16.551
401.14	17.188
401.49	17.453
401.85	16.570
402.21	17.671
402.57	17.782
402.92	16.726
403.28	17.037
403.63	16.587
403.99	16.924
404.35	16.771
404.70	16.884
405.06	16.902
405.42	16.920
405.77	17.721
406.13	16.856
406.49	17.399
406.84	17.230
407.20	17.272
407.55	16.596
407.91	16.091
408.27	16.726
408.62	17.161
408.98	17.411
409.34	16.891
409.69	17.367
410.05	17.233
410.40	17.169
410.76	17.443
411.11	18.177
411.47	17.383
411.83	17.989
412.18	17.831
412.54	16.894
412.89	18.044
413.25	17.381
413.60	16.715
413.96	16.841
414.31	16.374
414.67	18.068
415.03	17.292
415.38	17.024
415.74	17.776
416.09	17.273
416.45	16.969
416.80	16.646
417.16	17.752
417.51	17.435
417.87	16.983
418.22	17.485
418.58	16.605
418.93	18.044
419.29	18.249
419.64	17.527
420.00	18.279
420.35	17.799
420.71	17.289
421.06	17.826
421.42	17.546
421.77	17.124
422.12	17.600
422.48	17.665
422.83	18.949
423.19	17.931
423.54	18.197
423.90	18.388
424.25	18.613
424.61	17.451
424.96	17.573
425.31	18.896
425.67	17.821
426.02	17.709
426.38	17.738
426.73	17.690
427.09	19.204
427.44	17.914
427.79	18.242
428.15	18.379
428.50	18.202
428.85	17.853
429.21	19.521
429.56	18.312
429.92	17.985
430.27	18.602
430.62	19.101
430.98	19.036
431.33	18.719
431.68	18.199
432.04	18.334
432.39	18.800
432.74	19.235
433.10	18.280
433.45	19.342
433.80	18.938
434.16	19.318
434.51	19.681
434.86	19.164
435.22	19.660
435.57	19.399
435.92	19.032
436.28	19.283
436.63	19.607
436.98	19.055
437.34	19.278
437.69	18.712
438.04	19.566
438.39	19.701
438.75	18.871
439.10	20.137
439.45	19.620
439.81	19.153
440.16	19.893
440.51	19.621
440.86	19.400
441.22	19.346
441.57	20.283
441.92	19.981
442.27	19.899
442.63	20.070
442.98	20.064
443.33	20.673
443.68	20.664
444.03	20.367
444.39	20.065
444.74	20.827
445.09	20.628
445.44	19.968
445.79	20.115
446.15	20.915
446.50	20.155
446.85	20.379
447.20	21.083
447.55	20.450
447.91	19.581
448.26	20.402
448.61	20.670
448.96	21.727
449.31	20.520
449.66	19.826
450.02	20.781
450.37	21.364
450.72	20.237
451.07	20.729
451.42	20.739
451.77	19.400
452.12	20.767
452.47	19.905
452.83	20.777
453.18	21.133
453.53	20.391
453.88	20.872
454.23	20.565
454.58	20.429
454.93	20.206
455.28	21.312
455.63	20.409
455.98	20.894
456.34	20.259
456.69	20.752
457.04	20.922
457.39	20.565
457.74	20.582
458.09	20.154
458.44	21.282
458.79	20.629
459.14	21.028
459.49	20.600
459.84	21.721
460.19	20.600
460.54	21.408
460.89	20.699
461.24	20.345
461.59	21.251
461.94	20.764
462.29	21.445
462.64	21.062
462.99	20.841
463.34	21.674
463.69	20.574
464.04	21.456
464.39	21.581
464.74	20.981
465.09	20.704
465.44	21.137
465.79	22.263
466.14	21.261
466.49	22.053
466.84	21.818
467.19	21.503
467.54	21.915
467.89	20.517
468.24	21.884
468.59	20.208
468.94	20.396
469.29	20.996
469.64	20.788
469.99	21.096
470.34	20.606
470.68	21.394
471.03	21.022
471.38	22.171
471.73	20.871
472.08	21.701
472.43	21.433
472.78	22.544
473.13	21.365
473.48	21.813
473.83	21.648
474.17	21.102
474.52	21.287
474.87	21.816
475.22	21.690
475.57	22.170
475.92	22.051
476.27	21.406
476.61	21.391
476.96	21.376
477.31	22.475
477.66	23.033
478.01	22.166
478.36	21.236
478.70	21.724
479.05	22.239
479.40	22.261
479.75	22.430
480.10	21.933
480.45	22.516
480.79	22.041
481.14	22.289
481.49	21.990
481.84	21.932
482.19	23.183
482.53	22.519
482.88	23.084
483.23	22.232
483.58	21.834
483.92	21.853
484.27	22.735
484.62	22.030
484.97	22.278
485.31	22.034
485.66	20.767
486.01	21.404
486.36	22.180
486.70	23.443
487.05	23.673
487.40	23.172
487.75	22.621
488.09	22.006
488.44	21.578
488.79	21.788
489.13	22.158
489.48	21.786
489.83	22.133
490.17	21.426
490.52	21.880
490.87	21.574
491.22	22.227
491.56	21.843
491.91	22.416
492.26	22.371
492.60	22.519
492.95	22.685
493.30	22.905
493.64	22.602
493.99	21.974
494.34	22.387
494.68	22.184
495.03	23.128
495.37	22.503
495.72	22.404
496.07	22.656
496.41	22.480
496.76	22.560
497.11	23.015
497.45	23.177
497.80	22.390
498.14	22.268
498.49	22.886
498.84	21.846
499.18	22.312
499.53	23.094
499.87	22.637
500.22	22.217
500.56	22.762
500.91	23.570
501.26	22.773
501.60	22.139
501.95	23.144
502.29	23.300
502.64	22.519
502.98	22.994
503.33	22.549
503.67	22.329
504.02	22.504
504.36	23.369
504.71	22.646
505.06	23.010
505.40	23.172
505.75	22.723
506.09	22.974
506.44	23.259
506.78	24.450
507.13	23.190
507.47	23.828
507.82	22.775
508.16	23.279
508.51	22.738
508.85	23.240
509.19	23.401
509.54	23.247
509.88	23.507
510.23	23.992
510.57	23.973
510.92	23.996
511.26	23.184
511.61	23.563
511.95	23.133
512.30	24.077
512.64	23.538
512.98	23.212
513.33	23.790
513.67	24.018
514.02	23.505
514.36	23.836
514.70	23.802
515.05	24.557
515.39	23.622
515.74	24.867
516.08	23.613
516.42	24.437
516.77	23.922
517.11	24.446
517.46	24.072
517.80	25.067
518.14	25.517
518.49	24.295
518.83	24.162
519.17	24.071
519.52	25.105
519.86	24.182
520.20	24.814
520.55	24.096
520.89	24.606
521.23	24.623
521.58	24.181
521.92	24.873
522.26	24.685
522.61	25.174
522.95	24.048
523.29	25.287
523.64	24.439
523.98	25.385
524.32	25.215
524.66	25.498
525.01	25.085
525.35	25.043
525.69	24.420
526.04	24.225
526.38	24.943
526.72	24.567
527.06	25.103
527.41	24.781
527.75	25.119
528.09	24.911
528.43	24.156
528.78	25.087
529.12	24.656
529.46	25.126
529.80	24.428
530.15	24.696
530.49	24.733
530.83	24.675
531.17	24.552
531.51	24.489
531.86	25.421
532.20	24.939
532.54	24.057
532.88	25.152
533.22	25.339
533.57	24.870
533.91	25.140
534.25	25.777
534.59	25.402
534.93	24.335
535.27	24.113
535.62	25.810
535.96	25.799
536.30	25.029
536.64	25.946
536.98	25.892
537.32	25.185
537.66	25.577
538.01	24.955
538.35	24.848
538.69	24.639
539.03	26.180
539.37	25.206
539.71	25.405
540.05	24.700
540.39	24.389
540.73	25.440
541.07	24.893
541.42	24.690
541.76	24.140
542.10	26.297
542.44	24.117
542.78	24.939
543.12	26.043
543.46	25.641
543.80	25.540
544.14	24.656
544.48	25.709
544.82	25.972
545.16	25.045
545.50	25.105
545.84	25.842
546.18	25.247
546.52	26.752
546.86	26.164
547.20	25.763
547.54	24.095
547.88	24.533
548.22	25.263
548.56	25.453
548.90	25.552
549.24	26.140
549.58	24.669
549.92	25.000
550.26	25.825
550.60	24.569
550.94	26.067
551.28	25.611
551.62	25.876
551.96	24.854
552.30	25.749
552.64	25.887
552.98	25.702
553.32	27.138
553.66	25.273
554.00	25.599
554.34	26.126
554.68	26.275
555.02	26.216
555.36	26.759
555.69	25.048
556.03	26.356
556.37	26.658
556.71	26.189
557.05	25.751
557.39	26.277
557.73	25.297
558.07	25.828
558.41	26.113
558.75	25.287
559.08	26.722
559.42	25.446
559.76	26.526
560.10	25.117
560.44	25.989
560.78	26.937
561.12	25.369
561.45	25.730
561.79	26.007
562.13	26.617
562.47	25.586
562.81	26.709
563.15	26.389
563.48	25.606
563.82	25.514
564.16	24.894
564.50	25.626
564.84	25.369
565.17	26.294
565.51	25.086
565.85	26.544
566.19	24.424
566.52	26.039
566.86	25.750
567.20	25.340
567.54	25.332
567.88	25.943
568.21	25.445
568.55	25.516
568.89	26.010
569.23	25.518
569.56	25.869
569.90	26.408
570.24	25.936
570.57	25.529
570.91	25.444
571.25	25.687
571.59	26.301
571.92	25.853
572.26	25.675
572.60	25.171
572.93	25.355
573.27	25.400
573.61	25.119
573.95	25.395
574.28	25.274
574.62	25.216
574.96	24.813
575.29	24.851
575.63	25.318
575.97	25.509
576.30	24.426
576.64	25.245
576.98	25.467
577.31	25.296
577.65	25.588
577.98	25.019
578.32	24.949
578.66	25.405
578.99	25.189
579.33	24.744
579.67	24.796
580.00	25.062
580.34	24.978
580.67	24.448
581.01	24.859
581.35	25.424
581.68	25.111
582.02	25.782
582.35	25.600
582.69	26.155
583.02	25.285
583.36	25.323
583.70	24.426
584.03	24.934
584.37	24.809
584.70	24.548
585.04	24.901
585.37	25.188
585.71	25.674
586.04	25.099
586.38	25.302
586.72	25.069
587.05	25.301
587.39	25.256
587.72	25.813
588.06	25.411
588.39	25.442
588.73	25.450
589.06	25.564
589.40	25.384
589.73	25.643
590.07	25.332
590.40	25.794
590.73	25.133
591.07	26.731
591.40	25.505
591.74	25.437
592.07	26.106
592.41	25.473
592.74	25.453
593.08	26.019
593.41	25.926
593.75	26.034
594.08	26.295
594.41	26.378
594.75	25.639
595.08	25.269
595.42	25.455
595.75	26.090
596.09	26.466
596.42	25.761
596.75	25.125
597.09	25.859
597.42	24.990
597.75	25.911
598.09	26.270
598.42	25.533
598.76	25.220
599.09	25.810
599.42	25.846
599.76	25.289
600.09	26.393
600.42	25.759
600.76	25.561
601.09	25.987
601.42	25.815
601.76	25.103
602.09	25.304
602.42	25.409
602.76	25.609
603.09	25.147
603.42	26.156
603.76	25.687
604.09	26.011
604.42	26.055
604.76	25.114
605.09	25.967
605.42	25.199
605.75	25.154
606.09	25.681
606.42	25.283
606.75	25.825
607.09	25.192
607.42	25.703
607.75	25.596
608.08	25.178
608.42	25.957
608.75	25.498
609.08	24.363
609.41	25.408
609.75	25.625
610.08	26.297
610.41	26.083
610.74	25.126
611.07	26.332
611.41	26.502
611.74	26.374
612.07	26.367
612.40	25.143
612.73	26.406
613.07	25.526
613.40	25.746
613.73	25.662
614.06	26.300
614.39	25.316
614.72	25.425
615.06	25.361
615.39	25.326
615.72	25.640
616.05	26.129
616.38	25.832
616.71	25.967
617.05	25.133
617.38	25.147
617.71	26.188
618.04	26.390
618.37	26.066
618.70	25.792
619.03	26.165
619.36	25.216
619.69	26.393
620.03	25.424
620.36	25.337
620.69	24.800
621.02	26.312
621.35	26.633
621.68	27.332
622.01	25.694
622.34	25.105
622.67	25.636
623.00	25.574
623.33	26.609
623.66	26.654
623.99	26.070
624.32	27.290
624.65	25.804
624.99	26.203
625.32	26.453
625.65	26.433
625.98	26.237
626.31	25.656
626.64	24.908
626.97	25.056
627.30	25.664
627.63	24.231
627.96	27.252
628.29	27.004
628.62	24.853
628.95	26.380
629.28	25.064
629.61	26.599
629.94	25.021
630.26	25.932
630.59	25.820
630.92	25.801
631.25	26.655
631.58	27.401
631.91	25.867
632.24	26.321
632.57	25.901
632.90	26.179
633.23	25.816
633.56	27.143
633.89	25.826
634.22	26.195
