SpectraSuite Data File
++++++++++++++++++++++++++++++++++++
Date: Thu May 14 14:31:18 PDT 2015
User: schluterlab
Dark Spectrum Present: Yes
Reference Spectrum Present: Yes
Number of Sampled Component Spectra: 1
Spectrometers: USB2E3373
Integration Time (usec): 3000 (USB2E3373)
Spectra Averaged: 3 (USB2E3373)
Boxcar Smoothing: 0 (USB2E3373)
Correct for Electrical Dark: No (USB2E3373)
Strobe/Lamp Enabled: No (USB2E3373)
Correct for Detector Non-linearity: No (USB2E3373)
Correct for Stray Light: No (USB2E3373)
Number of Pixels in Processed Spectrum: 2048
>>>>>Begin Processed Spectral Data<<<<<
178.53	0.000
178.91	-128.571
179.29	900.000
179.67	1200.000
180.04	7.143
180.42	-150.000
180.80	-280.000
181.18	1800.000
181.56	2200.000
181.94	-450.000
182.31	700.000
182.69	-733.333
183.07	1350.000
183.45	-400.000
183.83	350.000
184.20	566.667
184.58	-400.000
184.96	225.000
185.34	200.000
185.72	220.000
186.09	-44.444
186.47	-700.000
186.85	-160.000
187.23	44.444
187.61	300.000
187.98	-240.000
188.36	-125.000
188.74	350.000
189.12	633.333
189.49	156.250
189.87	50.000
190.25	266.667
190.63	380.000
191.00	266.667
191.38	0.000
191.76	100.000
192.14	316.667
192.51	-700.000
192.89	350.000
193.27	0.000
193.65	242.857
194.02	200.000
194.40	400.000
194.78	-114.286
195.15	0.000
195.53	154.545
195.91	0.000
196.29	275.000
196.66	130.769
197.04	2400.000
197.42	285.714
197.79	850.000
198.17	87.500
198.55	114.286
198.92	288.889
199.30	175.000
199.68	181.818
200.05	150.000
200.43	650.000
200.81	-128.571
201.18	0.000
201.56	-44.444
201.94	0.000
202.31	-266.667
202.69	211.111
203.07	-1500.000
203.44	177.778
203.82	425.000
204.19	191.667
204.57	150.000
204.95	175.000
205.32	1000.000
205.70	-500.000
206.08	366.667
206.45	150.000
206.83	-120.000
207.20	250.000
207.58	160.000
207.96	166.667
208.33	300.000
208.71	-33.333
209.08	516.667
209.46	0.000
209.84	-150.000
210.21	-700.000
210.59	-800.000
210.96	-100.000
211.34	375.000
211.71	162.500
212.09	1300.000
212.46	0.000
212.84	-350.000
213.22	320.000
213.59	450.000
213.97	260.000
214.34	566.667
214.72	-300.000
215.09	225.000
215.47	0.000
215.84	-328.571
216.22	-300.000
216.59	240.000
216.97	320.000
217.34	425.000
217.72	262.500
218.09	575.000
218.47	475.000
218.84	0.000
219.22	-300.000
219.59	88.235
219.97	125.000
220.34	-800.000
220.72	133.333
221.09	223.077
221.47	700.000
221.84	120.000
222.22	14.286
222.59	0.000
222.97	237.500
223.34	300.000
223.72	1500.000
224.09	150.000
224.46	450.000
224.84	440.000
225.21	285.714
225.59	300.000
225.96	325.000
226.34	80.769
226.71	-166.667
227.08	500.000
227.46	146.667
227.83	750.000
228.21	136.842
228.58	-100.000
228.95	-700.000
229.33	200.000
229.70	190.000
230.08	157.895
230.45	-110.000
230.82	733.333
231.20	121.429
231.57	200.000
231.95	190.909
232.32	227.273
232.69	145.000
233.07	725.000
233.44	147.059
233.81	140.000
234.19	161.111
234.56	136.364
234.93	103.448
235.31	131.579
235.68	144.444
236.05	90.000
236.43	111.538
236.80	136.000
237.17	92.593
237.55	90.909
237.92	200.000
238.29	103.226
238.67	70.455
239.04	66.667
239.41	52.381
239.79	63.043
240.16	51.852
240.53	82.609
240.91	60.784
241.28	60.656
241.65	71.642
242.02	44.595
242.40	60.000
242.77	68.000
243.14	50.000
243.51	23.684
243.89	56.410
244.26	57.426
244.63	54.902
245.00	50.467
245.38	49.123
245.75	34.513
246.12	43.651
246.49	39.535
246.87	40.000
247.24	47.020
247.61	38.816
247.98	42.282
248.36	45.679
248.73	38.650
249.10	42.623
249.47	46.269
249.84	48.168
250.22	37.824
250.59	47.222
250.96	40.909
251.33	34.694
251.70	35.897
252.08	32.917
252.45	40.574
252.82	35.950
253.19	33.203
253.56	39.924
253.94	36.154
254.31	35.227
254.68	38.811
255.05	39.088
255.42	35.714
255.79	32.039
256.16	36.755
256.54	35.430
256.91	37.705
257.28	36.066
257.65	35.350
258.02	29.499
258.39	32.764
258.76	40.367
259.14	37.069
259.51	36.311
259.88	33.144
260.25	32.222
260.62	37.534
260.99	34.153
261.36	36.729
261.73	35.013
262.10	34.341
262.47	36.729
262.85	35.101
263.22	31.429
263.59	32.105
263.96	37.084
264.33	31.458
264.70	33.827
265.07	35.800
265.44	36.281
265.81	34.028
266.18	32.653
266.55	31.250
266.92	33.030
267.29	34.354
267.66	35.477
268.03	33.406
268.40	32.777
268.77	32.574
269.14	30.176
269.51	32.456
269.88	30.943
270.25	30.785
270.62	32.068
270.99	32.727
271.36	32.475
271.73	30.845
272.10	34.269
272.47	32.265
272.84	30.723
273.21	30.661
273.58	30.847
273.95	29.038
274.32	31.369
274.69	30.561
275.06	31.685
275.43	26.802
275.80	31.393
276.17	27.593
276.54	30.224
276.91	29.338
277.28	30.018
277.65	29.982
278.02	29.412
278.39	28.442
278.76	27.241
279.13	30.851
279.50	28.179
279.87	29.338
280.23	27.465
280.60	28.814
280.97	29.441
281.34	30.221
281.71	28.088
282.08	29.402
282.45	28.151
282.82	24.961
283.19	27.302
283.56	27.705
283.92	29.279
284.29	28.594
284.66	28.571
285.03	26.442
285.40	27.821
285.77	27.709
286.14	28.550
286.51	28.463
286.87	25.908
287.24	27.410
287.61	26.457
287.98	26.284
288.35	26.036
288.72	25.592
289.08	27.086
289.45	26.183
289.82	24.096
290.19	26.437
290.56	25.070
290.93	25.535
291.29	24.518
291.66	23.967
292.03	25.373
292.40	26.122
292.77	23.720
293.13	24.493
293.50	23.522
293.87	24.161
294.24	25.200
294.60	23.262
294.97	23.221
295.34	24.200
295.71	22.951
296.08	22.739
296.44	20.833
296.81	23.021
297.18	24.658
297.55	22.288
297.91	20.878
298.28	22.630
298.65	21.403
299.02	23.022
299.38	23.341
299.75	21.729
300.12	22.106
300.48	20.737
300.85	22.385
301.22	22.819
301.59	20.320
301.95	22.147
302.32	21.000
302.69	19.168
303.05	21.436
303.42	21.175
303.79	21.354
304.15	20.820
304.52	20.296
304.89	20.314
305.25	20.807
305.62	20.167
305.99	20.928
306.35	19.960
306.72	22.441
307.09	19.797
307.45	21.222
307.82	20.888
308.19	20.585
308.55	21.697
308.92	22.395
309.29	21.073
309.65	21.345
310.02	20.198
310.38	21.063
310.75	21.068
311.12	21.093
311.48	20.137
311.85	22.222
312.22	19.355
312.58	20.845
312.95	19.312
313.31	21.319
313.68	21.520
314.05	22.313
314.41	21.220
314.78	20.799
315.14	20.962
315.51	20.591
315.87	21.872
316.24	21.553
316.61	20.693
316.97	19.910
317.34	20.547
317.70	22.533
318.07	21.340
318.43	21.684
318.80	23.077
319.16	21.717
319.53	20.137
319.89	20.859
320.26	21.352
320.62	21.188
320.99	20.776
321.35	23.013
321.72	21.116
322.08	21.280
322.45	20.958
322.81	22.653
323.18	20.531
323.54	22.414
323.91	21.441
324.27	21.687
324.64	22.250
325.00	20.730
325.37	21.785
325.73	22.149
326.10	22.303
326.46	21.906
326.83	22.418
327.19	21.260
327.56	21.897
327.92	21.794
328.29	21.210
328.65	20.854
329.01	22.589
329.38	21.735
329.74	21.747
330.11	21.661
330.47	22.325
330.84	22.394
331.20	22.000
331.56	22.097
331.93	22.594
332.29	22.712
332.66	22.259
333.02	21.441
333.38	21.309
333.75	21.801
334.11	22.769
334.48	22.195
334.84	22.090
335.20	21.998
335.57	22.344
335.93	22.314
336.29	22.213
336.66	21.867
337.02	22.910
337.38	21.684
337.75	22.231
338.11	23.381
338.47	22.002
338.84	21.574
339.20	21.567
339.56	21.829
339.93	21.675
340.29	21.095
340.65	21.817
341.02	23.543
341.38	22.312
341.74	21.469
342.11	23.572
342.47	21.128
342.83	22.786
343.20	22.976
343.56	21.251
343.92	21.697
344.28	22.109
344.65	21.860
345.01	22.543
345.37	21.306
345.73	20.889
346.10	21.841
346.46	21.994
346.82	21.798
347.19	23.224
347.55	22.155
347.91	22.808
348.27	21.624
348.63	22.468
349.00	22.073
349.36	21.636
349.72	21.577
350.08	22.734
350.45	22.357
350.81	21.644
351.17	23.083
351.53	22.441
351.89	21.944
352.26	22.239
352.62	22.015
352.98	20.229
353.34	21.135
353.70	22.265
354.07	22.504
354.43	21.109
354.79	21.616
355.15	22.737
355.51	22.515
355.87	20.868
356.24	21.977
356.60	21.656
356.96	21.942
357.32	21.784
357.68	22.108
358.04	21.332
358.40	22.910
358.77	22.222
359.13	21.640
359.49	22.454
359.85	21.827
360.21	21.664
360.57	22.254
360.93	22.567
361.29	22.386
361.66	22.375
362.02	23.382
362.38	22.136
362.74	22.416
363.10	22.902
363.46	22.576
363.82	22.230
364.18	21.464
364.54	22.130
364.90	23.010
365.26	22.828
365.62	22.533
365.98	23.622
366.35	23.154
366.71	24.014
367.07	23.748
367.43	22.390
367.79	23.358
368.15	24.013
368.51	23.748
368.87	22.926
369.23	23.067
369.59	23.087
369.95	23.665
370.31	23.430
370.67	23.384
371.03	23.199
371.39	24.244
371.75	22.971
372.11	23.577
372.47	23.358
372.83	24.804
373.19	23.482
373.55	24.119
373.91	23.040
374.27	24.386
374.63	24.628
374.99	24.867
375.35	24.351
375.71	24.387
376.07	24.080
376.42	24.496
376.78	24.984
377.14	24.704
377.50	25.743
377.86	25.677
378.22	25.090
378.58	25.446
378.94	25.059
379.30	26.011
379.66	25.808
380.02	25.389
380.38	25.979
380.74	26.085
381.09	26.597
381.45	26.023
381.81	27.459
382.17	26.485
382.53	26.550
382.89	27.088
383.25	26.964
383.61	25.579
383.97	26.855
384.32	27.751
384.68	26.508
385.04	28.282
385.40	27.991
385.76	28.429
386.12	27.588
386.48	27.882
386.83	28.665
387.19	28.389
387.55	28.873
387.91	28.881
388.27	29.677
388.62	29.553
388.98	28.708
389.34	30.112
389.70	29.808
390.06	29.544
390.42	29.277
390.77	30.163
391.13	29.930
391.49	30.133
391.85	30.242
392.20	30.190
392.56	30.715
392.92	30.316
393.28	30.514
393.64	29.777
393.99	31.145
394.35	31.776
394.71	31.916
395.07	31.557
395.42	31.182
395.78	32.236
396.14	32.026
396.50	31.354
396.85	31.843
397.21	31.302
397.57	30.860
397.92	33.104
398.28	32.374
398.64	32.265
399.00	31.728
399.35	31.832
399.71	31.576
400.07	32.959
400.42	33.178
400.78	32.812
401.14	33.011
401.49	32.518
401.85	33.256
402.21	33.835
402.57	33.979
402.92	33.688
403.28	33.372
403.63	33.950
403.99	33.789
404.35	34.224
404.70	34.448
405.06	33.750
405.42	34.426
405.77	34.351
406.13	34.738
406.49	33.840
406.84	33.850
407.20	33.371
407.55	33.798
407.91	35.449
408.27	35.100
408.62	35.137
408.98	35.868
409.34	35.308
409.69	35.970
410.05	35.991
410.40	35.441
410.76	35.390
411.11	35.535
411.47	36.548
411.83	36.096
412.18	37.289
412.54	37.582
412.89	35.681
413.25	35.497
413.60	35.095
413.96	35.839
414.31	35.581
414.67	36.017
415.03	35.815
415.38	36.696
415.74	37.141
416.09	37.261
416.45	36.130
416.80	36.291
417.16	36.973
417.51	36.737
417.87	36.726
418.22	37.186
418.58	36.803
418.93	37.835
419.29	37.978
419.64	37.815
420.00	37.448
420.35	37.170
420.71	36.990
421.06	36.573
421.42	37.729
421.77	36.834
422.12	36.469
422.48	36.662
422.83	37.952
423.19	37.188
423.54	38.053
423.90	37.327
424.25	37.973
424.61	37.141
424.96	38.221
425.31	38.482
425.67	39.023
426.02	38.517
426.38	38.921
426.73	39.230
427.09	39.735
427.44	38.558
427.79	38.253
428.15	37.900
428.50	39.101
428.85	38.462
429.21	39.362
429.56	38.944
429.92	38.968
430.27	38.892
430.62	39.424
430.98	39.056
431.33	38.368
431.68	37.644
432.04	39.259
432.39	39.689
432.74	39.326
433.10	39.913
433.45	38.740
433.80	40.182
434.16	39.618
434.51	39.979
434.86	39.577
435.22	40.117
435.57	40.861
435.92	39.789
436.28	40.614
436.63	40.579
436.98	39.882
437.34	40.192
437.69	39.901
438.04	40.032
438.39	39.920
438.75	40.620
439.10	40.539
439.45	39.911
439.81	40.169
440.16	38.981
440.51	41.193
440.86	40.578
441.22	41.801
441.57	42.086
441.92	40.155
442.27	41.212
442.63	40.437
442.98	41.035
443.33	40.663
443.68	40.535
444.03	41.863
444.39	41.331
444.74	41.501
445.09	40.446
445.44	42.466
445.79	42.146
446.15	41.727
446.50	41.240
446.85	41.440
447.20	41.828
447.55	41.736
447.91	41.361
448.26	41.332
448.61	41.977
448.96	41.470
449.31	42.206
449.66	41.503
450.02	42.352
450.37	43.101
450.72	42.680
451.07	41.970
451.42	42.172
451.77	41.801
452.12	42.494
452.47	43.078
452.83	44.257
453.18	42.966
453.53	42.275
453.88	42.573
454.23	43.729
454.58	44.399
454.93	43.568
455.28	44.792
455.63	43.661
455.98	43.911
456.34	43.993
456.69	43.915
457.04	43.558
457.39	43.625
457.74	44.407
458.09	43.767
458.44	44.343
458.79	43.424
459.14	43.262
459.49	45.161
459.84	44.544
460.19	43.642
460.54	44.066
460.89	44.097
461.24	44.138
461.59	44.549
461.94	43.126
462.29	44.681
462.64	45.625
462.99	45.637
463.34	45.036
463.69	45.135
464.04	46.415
464.39	45.404
464.74	45.154
465.09	44.983
465.44	45.815
465.79	44.950
466.14	44.398
466.49	45.211
466.84	44.573
467.19	43.699
467.54	44.418
467.89	45.632
468.24	45.873
468.59	45.339
468.94	45.513
469.29	45.891
469.64	46.535
469.99	45.953
470.34	47.030
470.68	48.667
471.03	47.741
471.38	48.136
471.73	47.269
472.08	48.858
472.43	47.261
472.78	47.544
473.13	47.155
473.48	47.674
473.83	47.882
474.17	47.714
474.52	48.346
474.87	46.622
475.22	48.394
475.57	47.352
475.92	47.586
476.27	47.071
476.61	46.937
476.96	47.810
477.31	47.673
477.66	48.793
478.01	47.687
478.36	46.760
478.70	47.241
479.05	48.466
479.40	49.161
479.75	48.175
480.10	47.892
480.45	48.177
480.79	47.846
481.14	48.208
481.49	47.933
481.84	48.346
482.19	48.602
482.53	48.710
482.88	49.225
483.23	48.199
483.58	48.428
483.92	48.404
484.27	48.518
484.62	48.680
484.97	48.134
485.31	47.870
485.66	46.827
486.01	44.598
486.36	44.069
486.70	44.043
487.05	44.651
487.40	45.972
487.75	46.081
488.09	46.774
488.44	47.318
488.79	48.061
489.13	48.479
489.48	48.000
489.83	48.773
490.17	48.846
490.52	48.974
490.87	49.154
491.22	49.697
491.56	49.360
491.91	50.632
492.26	50.368
492.60	49.016
492.95	49.846
493.30	49.753
493.64	50.460
493.99	50.132
494.34	49.085
494.68	49.936
495.03	50.176
495.37	50.599
495.72	51.338
496.07	51.183
496.41	49.807
496.76	51.418
497.11	50.616
497.45	50.583
497.80	51.311
498.14	50.748
498.49	51.654
498.84	51.691
499.18	51.147
499.53	51.839
499.87	51.560
500.22	51.558
500.56	51.102
500.91	52.128
501.26	52.864
501.60	51.304
501.95	51.194
502.29	52.260
502.64	51.465
502.98	50.863
503.33	51.922
503.67	50.938
504.02	51.839
504.36	51.921
504.71	52.641
505.06	51.387
505.40	52.788
505.75	51.821
506.09	52.993
506.44	53.668
506.78	53.211
507.13	53.204
507.47	53.577
507.82	53.646
508.16	53.776
508.51	52.930
508.85	54.039
509.19	53.529
509.54	53.794
509.88	53.813
510.23	54.638
510.57	54.906
510.92	55.443
511.26	53.968
511.61	53.308
511.95	54.710
512.30	55.194
512.64	54.623
512.98	55.278
513.33	56.401
513.67	55.941
514.02	55.033
514.36	56.317
514.70	55.625
515.05	56.517
515.39	55.853
515.74	57.317
516.08	56.577
516.42	57.561
516.77	57.150
517.11	55.802
517.46	57.476
517.80	57.777
518.14	58.433
518.49	58.189
518.83	57.850
519.17	56.812
519.52	58.071
519.86	57.339
520.20	57.242
520.55	58.598
520.89	58.502
521.23	58.459
521.58	58.927
521.92	58.640
522.26	57.904
522.61	59.549
522.95	59.400
523.29	58.736
523.64	58.128
523.98	60.411
524.32	59.370
524.66	60.501
525.01	58.494
525.35	59.334
525.69	57.831
526.04	58.496
526.38	60.287
526.72	59.054
527.06	59.589
527.41	59.184
527.75	60.036
528.09	60.626
528.43	59.029
528.78	59.249
529.12	58.314
529.46	58.066
529.80	59.840
530.15	59.130
530.49	60.439
530.83	60.035
531.17	58.901
531.51	59.386
531.86	60.877
532.20	60.793
532.54	60.682
532.88	60.364
533.22	59.222
533.57	58.107
533.91	59.259
534.25	58.847
534.59	60.977
534.93	59.819
535.27	58.873
535.62	59.522
535.96	60.314
536.30	59.636
536.64	60.420
536.98	60.701
537.32	60.926
537.66	62.009
538.01	59.517
538.35	58.831
538.69	59.675
539.03	61.006
539.37	58.422
539.71	58.919
540.05	58.753
540.39	58.619
540.73	58.288
541.07	59.595
541.42	59.008
541.76	58.185
542.10	59.288
542.44	60.049
542.78	59.428
543.12	59.416
543.46	59.707
543.80	58.153
544.14	58.648
544.48	60.875
544.82	59.007
545.16	58.378
545.50	58.238
545.84	57.991
546.18	60.988
546.52	59.045
546.86	59.182
547.20	59.987
547.54	59.176
547.88	58.529
548.22	58.070
548.56	58.748
548.90	59.224
549.24	60.182
549.58	60.189
549.92	60.395
550.26	61.230
550.60	60.370
550.94	61.255
551.28	60.528
551.62	61.523
551.96	60.324
552.30	60.867
552.64	59.303
552.98	59.576
553.32	61.415
553.66	60.514
554.00	60.530
554.34	60.039
554.68	59.070
555.02	60.053
555.36	62.788
555.69	59.962
556.03	60.593
556.37	59.262
556.71	60.241
557.05	60.511
557.39	61.248
557.73	61.096
558.07	61.391
558.41	61.196
558.75	61.190
559.08	61.726
559.42	60.151
559.76	59.769
560.10	60.080
560.44	61.412
560.78	60.500
561.12	59.236
561.45	60.036
561.79	60.256
562.13	60.074
562.47	59.186
562.81	60.000
563.15	60.038
563.48	60.224
563.82	59.674
564.16	58.934
564.50	59.356
564.84	57.581
565.17	59.412
565.51	57.710
565.85	60.095
566.19	58.525
566.52	59.567
566.86	58.291
567.20	56.661
567.54	57.515
567.88	57.696
568.21	56.917
568.55	56.547
568.89	56.105
569.23	54.922
569.56	54.513
569.90	53.849
570.24	54.098
570.57	52.726
570.91	52.541
571.25	51.258
571.59	51.406
571.92	51.013
572.26	51.350
572.60	50.969
572.93	51.489
573.27	51.616
573.61	51.906
573.95	51.299
574.28	50.315
574.62	50.819
574.96	49.647
575.29	49.548
575.63	49.619
575.97	50.419
576.30	49.938
576.64	50.465
576.98	49.841
577.31	50.350
577.65	50.413
577.98	49.096
578.32	49.237
578.66	49.529
578.99	49.498
579.33	50.200
579.67	50.113
580.00	49.742
580.34	50.065
580.67	49.735
581.01	50.325
581.35	49.562
581.68	49.423
582.02	48.241
582.35	48.964
582.69	48.991
583.02	49.206
583.36	49.497
583.70	50.193
584.03	49.772
584.37	51.222
584.70	49.902
585.04	49.942
585.37	50.420
585.71	49.924
586.04	49.582
586.38	49.675
586.72	50.163
587.05	50.831
587.39	50.436
587.72	50.526
588.06	49.952
588.39	50.685
588.73	50.053
589.06	51.016
589.40	51.659
589.73	51.639
590.07	52.122
590.40	52.333
590.73	52.245
591.07	52.494
591.40	52.100
591.74	53.140
592.07	53.147
592.41	53.194
592.74	51.438
593.08	51.497
593.41	51.327
593.75	50.718
594.08	50.985
594.41	51.154
594.75	50.482
595.08	51.380
595.42	51.234
595.75	50.533
596.09	51.203
596.42	51.989
596.75	52.374
597.09	52.162
597.42	52.682
597.75	51.705
598.09	52.460
598.42	53.277
598.76	51.357
599.09	51.015
599.42	50.453
599.76	50.512
600.09	50.884
600.42	50.384
600.76	50.462
601.09	50.216
601.42	50.875
601.76	50.897
602.09	51.537
602.42	50.600
602.76	51.365
603.09	51.836
603.42	52.384
603.76	51.163
604.09	52.023
604.42	52.037
604.76	52.359
605.09	52.333
605.42	52.073
605.75	51.192
606.09	50.877
606.42	50.967
606.75	50.825
607.09	50.576
607.42	51.175
607.75	51.387
608.08	50.947
608.42	51.391
608.75	52.032
609.08	52.377
609.41	52.228
609.75	52.411
610.08	52.551
610.41	52.124
610.74	51.134
611.07	52.886
611.41	52.108
611.74	53.256
612.07	53.389
612.40	53.137
612.73	54.181
613.07	53.350
613.40	53.657
613.73	52.335
614.06	52.797
614.39	52.672
614.72	52.159
615.06	52.647
615.39	52.634
615.72	52.844
616.05	52.793
616.38	53.179
616.71	52.821
617.05	53.035
617.38	53.826
617.71	54.320
618.04	54.074
618.37	55.137
618.70	54.977
619.03	55.018
619.36	55.795
619.69	55.862
620.03	55.995
620.36	55.828
620.69	56.385
621.02	56.168
621.35	58.200
621.68	59.002
622.01	56.441
622.34	57.183
622.67	57.251
623.00	56.275
623.33	58.129
623.66	56.420
623.99	56.090
624.32	56.270
624.65	55.598
624.99	57.672
625.32	57.218
625.65	57.249
625.98	55.729
626.31	57.406
626.64	58.168
626.97	57.614
627.30	58.011
627.63	58.140
627.96	58.183
628.29	58.288
628.62	58.774
628.95	60.298
629.28	60.493
629.61	60.269
629.94	59.163
630.26	59.576
630.59	60.104
630.92	58.528
631.25	61.091
631.58	61.864
631.91	63.636
632.24	62.344
632.57	60.626
632.90	62.989
