SpectraSuite Data File
++++++++++++++++++++++++++++++++++++
Date: Thu May 14 14:48:26 PDT 2015
User: schluterlab
Dark Spectrum Present: Yes
Reference Spectrum Present: Yes
Number of Sampled Component Spectra: 1
Spectrometers: USB2E3373
Integration Time (usec): 3000 (USB2E3373)
Spectra Averaged: 3 (USB2E3373)
Boxcar Smoothing: 0 (USB2E3373)
Correct for Electrical Dark: No (USB2E3373)
Strobe/Lamp Enabled: No (USB2E3373)
Correct for Detector Non-linearity: No (USB2E3373)
Correct for Stray Light: No (USB2E3373)
Number of Pixels in Processed Spectrum: 2048
>>>>>Begin Processed Spectral Data<<<<<
178.53	0.000
178.91	71.429
179.29	-1400.000
179.67	-100.000
180.04	121.429
180.42	60.000
180.80	160.000
181.18	-700.000
181.56	800.000
181.94	125.000
182.31	125.000
182.69	166.667
183.07	50.000
183.45	75.000
183.83	66.667
184.20	-66.667
184.58	1200.000
184.96	-200.000
185.34	-77.778
185.72	0.000
186.09	222.222
186.47	800.000
186.85	140.000
187.23	-111.111
187.61	-1300.000
187.98	60.000
188.36	150.000
188.74	-250.000
189.12	-66.667
189.49	-18.750
189.87	-25.000
190.25	0.000
190.63	20.000
191.00	-66.667
191.38	0.000
191.76	-225.000
192.14	-66.667
192.51	200.000
192.89	166.667
193.27	0.000
193.65	-28.571
194.02	-800.000
194.40	28.571
194.78	85.714
195.15	0.000
195.53	54.545
195.91	0.000
196.29	-50.000
196.66	0.000
197.04	-1200.000
197.42	57.143
197.79	-200.000
198.17	25.000
198.55	-57.143
198.92	55.556
199.30	25.000
199.68	-9.091
200.05	7.143
200.43	-50.000
200.81	157.143
201.18	0.000
201.56	188.889
201.94	0.000
202.31	133.333
202.69	-22.222
203.07	300.000
203.44	-11.111
203.82	-25.000
204.19	16.667
204.57	83.333
204.95	-87.500
205.32	-700.000
205.70	100.000
206.08	-33.333
206.45	-66.667
206.83	220.000
207.20	-33.333
207.58	-180.000
207.96	-16.667
208.33	-83.333
208.71	125.000
209.08	-66.667
209.46	0.000
209.84	183.333
210.21	-150.000
210.59	650.000
210.96	333.333
211.34	-100.000
211.71	-125.000
212.09	-800.000
212.46	0.000
212.84	900.000
213.22	-160.000
213.59	-25.000
213.97	30.000
214.34	-166.667
214.72	150.000
215.09	-275.000
215.47	0.000
215.84	14.286
216.22	800.000
216.59	-100.000
216.97	-260.000
217.34	-50.000
217.72	12.500
218.09	-175.000
218.47	-25.000
218.84	0.000
219.22	80.000
219.59	-5.882
219.97	10.000
220.34	850.000
220.72	-55.556
221.09	53.846
221.47	-66.667
221.84	-40.000
222.22	-42.857
222.59	0.000
222.97	62.500
223.34	-120.000
223.72	-500.000
224.09	-175.000
224.46	-100.000
224.84	120.000
225.21	-114.286
225.59	-200.000
225.96	-25.000
226.34	0.000
226.71	200.000
227.08	-650.000
227.46	40.000
227.83	-275.000
228.21	52.632
228.58	100.000
228.95	400.000
229.33	25.000
229.70	-40.000
230.08	21.053
230.45	70.000
230.82	133.333
231.20	-7.143
231.57	-8.333
231.95	-109.091
232.32	18.182
232.69	5.000
233.07	-125.000
233.44	-5.882
233.81	-50.000
234.19	44.444
234.56	-13.636
234.93	-6.897
235.31	15.789
235.68	-16.667
236.05	-45.000
236.43	23.077
236.80	56.000
237.17	25.926
237.55	-9.091
237.92	30.000
238.29	22.581
238.67	36.364
239.04	22.222
239.41	7.143
239.79	17.391
240.16	18.519
240.53	21.739
240.91	25.490
241.28	11.475
241.65	40.299
242.02	32.432
242.40	18.462
242.77	30.667
243.14	24.390
243.51	19.737
243.89	35.897
244.26	27.723
244.63	34.314
245.00	33.645
245.38	26.316
245.75	23.009
246.12	28.571
246.49	26.357
246.87	34.286
247.24	39.735
247.61	30.263
247.98	33.557
248.36	33.333
248.73	26.380
249.10	26.230
249.47	31.841
249.84	31.414
250.22	29.534
250.59	27.222
250.96	30.455
251.33	25.510
251.70	32.906
252.08	33.333
252.45	31.967
252.82	30.579
253.19	29.688
253.56	33.080
253.94	26.923
254.31	28.030
254.68	34.965
255.05	33.225
255.42	30.612
255.79	28.155
256.16	32.119
256.54	27.815
256.91	32.131
257.28	31.803
257.65	30.573
258.02	28.909
258.39	31.054
258.76	33.639
259.14	34.483
259.51	30.836
259.88	31.161
260.25	28.333
260.62	30.411
260.99	37.978
261.36	34.584
261.73	28.912
262.10	31.868
262.47	34.853
262.85	32.071
263.22	32.468
263.59	30.000
263.96	31.714
264.33	30.946
264.70	33.086
265.07	35.084
265.44	34.467
265.81	30.093
266.18	32.880
266.55	30.357
266.92	30.979
267.29	34.792
267.66	30.599
268.03	33.188
268.40	30.689
268.77	30.979
269.14	30.837
269.51	30.921
269.88	30.943
270.25	32.193
270.62	31.435
270.99	30.303
271.36	31.089
271.73	28.684
272.10	30.461
272.47	30.261
272.84	27.309
273.21	31.062
273.58	30.444
273.95	29.231
274.32	29.848
274.69	30.754
275.06	32.784
275.43	30.499
275.80	29.101
276.17	29.630
276.54	30.970
276.91	31.127
277.28	31.284
277.65	31.059
278.02	29.963
278.39	30.978
278.76	30.580
279.13	30.496
279.50	31.959
279.87	29.159
280.23	26.408
280.60	30.169
280.97	29.112
281.34	28.353
281.71	30.795
282.08	29.568
282.45	30.115
282.82	29.670
283.19	27.787
283.56	30.820
283.92	30.330
284.29	29.700
284.66	29.064
285.03	27.724
285.40	26.584
285.77	29.412
286.14	29.618
286.51	28.463
286.87	30.490
287.24	28.765
287.61	28.102
287.98	27.795
288.35	28.550
288.72	28.550
289.08	27.672
289.45	25.740
289.82	26.958
290.19	26.580
290.56	27.465
290.93	25.963
291.29	27.548
291.66	25.620
292.03	27.137
292.40	27.619
292.77	25.202
293.13	25.169
293.50	26.807
293.87	25.906
294.24	25.867
294.60	24.652
294.97	23.221
295.34	25.096
295.71	22.699
296.08	24.677
296.44	24.020
296.81	24.361
297.18	25.031
297.55	22.995
297.91	23.962
298.28	21.682
298.65	22.949
299.02	20.307
299.38	22.197
299.75	22.547
300.12	23.495
300.48	23.387
300.85	22.610
301.22	22.707
301.59	21.347
301.95	22.486
302.32	20.778
302.69	20.920
303.05	21.980
303.42	22.395
303.79	21.042
304.15	21.661
304.52	21.459
304.89	22.408
305.25	20.186
305.62	22.675
305.99	19.485
306.35	20.464
306.72	21.717
307.09	19.492
307.45	21.843
307.82	20.888
308.19	20.686
308.55	21.022
308.92	20.643
309.29	21.456
309.65	21.248
310.02	20.297
310.38	20.177
310.75	21.942
311.12	21.572
311.48	21.310
311.85	21.178
312.22	20.304
312.58	20.751
312.95	20.076
313.31	19.874
313.68	20.879
314.05	19.783
314.41	21.585
314.78	20.073
315.14	20.962
315.51	21.422
315.87	21.152
316.24	20.639
316.61	21.048
316.97	19.548
317.34	19.136
317.70	21.397
318.07	20.194
318.43	19.643
318.80	21.990
319.16	20.601
319.53	19.109
319.89	19.982
320.26	19.751
320.62	19.326
320.99	19.760
321.35	18.854
321.72	20.744
322.08	20.198
322.45	20.777
322.81	19.765
323.18	19.381
323.54	19.655
323.91	20.641
324.27	19.363
324.64	22.082
325.00	19.652
325.37	19.902
325.73	19.421
326.10	20.519
326.46	20.765
326.83	20.176
327.19	18.819
327.56	19.684
327.92	19.119
328.29	19.194
328.65	19.682
329.01	20.135
329.38	19.292
329.74	20.976
330.11	19.606
330.47	20.388
330.84	18.949
331.20	20.000
331.56	20.277
331.93	19.414
332.29	20.169
332.66	19.186
333.02	18.090
333.38	21.560
333.75	21.044
334.11	18.432
334.48	18.729
334.84	20.646
335.20	19.479
335.57	19.477
335.93	19.421
336.29	19.717
336.66	19.680
337.02	20.318
337.38	20.238
337.75	19.752
338.11	20.353
338.47	19.438
338.84	18.866
339.20	18.534
339.56	19.440
339.93	19.458
340.29	19.726
340.65	19.384
341.02	18.755
341.38	20.129
341.74	19.451
342.11	19.147
342.47	18.904
342.83	19.887
343.20	19.951
343.56	19.407
343.92	19.456
344.28	19.062
344.65	20.000
345.01	18.643
345.37	19.907
345.73	17.771
346.10	19.423
346.46	18.829
346.82	19.326
347.19	19.481
347.55	19.044
347.91	18.871
348.27	18.816
348.63	19.497
349.00	18.121
349.36	18.810
349.72	19.717
350.08	19.391
350.45	18.251
350.81	18.401
351.17	19.023
351.53	19.257
351.89	18.451
352.26	18.582
352.62	18.284
352.98	17.863
353.34	17.326
353.70	19.029
354.07	19.374
354.43	18.907
354.79	17.577
355.15	19.132
355.51	18.787
355.87	17.577
356.24	18.175
356.60	18.108
356.96	18.013
357.32	17.770
357.68	17.570
358.04	17.889
358.40	17.015
358.77	18.202
359.13	17.651
359.49	17.993
359.85	17.694
360.21	17.862
360.57	18.306
360.93	17.207
361.29	17.825
361.66	18.899
362.02	18.580
362.38	17.850
362.74	17.947
363.10	18.088
363.46	17.659
363.82	17.898
364.18	17.593
364.54	18.811
364.90	18.060
365.26	17.793
365.62	18.133
365.98	18.244
366.35	17.852
366.71	18.027
367.07	17.118
367.43	18.713
367.79	18.845
368.15	18.127
368.51	17.862
368.87	18.615
369.23	17.400
369.59	17.760
369.95	18.458
370.31	18.096
370.67	17.607
371.03	18.283
371.39	17.596
371.75	17.675
372.11	18.631
372.47	16.588
372.83	18.586
373.19	17.345
373.55	17.818
373.91	17.723
374.27	17.788
374.63	16.779
374.99	17.573
375.35	18.182
375.71	18.000
376.07	17.366
376.42	17.380
376.78	17.899
377.14	17.155
377.50	17.331
377.86	18.042
378.22	18.263
378.58	18.014
378.94	17.958
379.30	17.692
379.66	18.401
380.02	17.369
380.38	17.339
380.74	17.746
381.09	18.177
381.45	18.352
381.81	17.974
382.17	17.458
382.53	17.310
382.89	17.720
383.25	18.171
383.61	17.824
383.97	17.962
384.32	18.182
384.68	17.401
385.04	17.814
385.40	18.503
385.76	18.464
386.12	18.133
386.48	17.647
386.83	18.117
387.19	17.149
387.55	17.430
387.91	17.694
388.27	18.187
388.62	17.698
388.98	16.808
389.34	18.091
389.70	18.187
390.06	17.229
390.42	17.771
390.77	17.941
391.13	17.899
391.49	18.176
391.85	17.091
392.20	17.497
392.56	18.193
392.92	18.321
393.28	18.519
393.64	17.989
393.99	18.536
394.35	18.633
394.71	18.084
395.07	17.605
395.42	17.818
395.78	17.977
396.14	18.895
396.50	17.815
396.85	17.829
397.21	17.929
397.57	18.492
397.92	18.843
398.28	17.165
398.64	17.792
399.00	17.016
399.35	17.801
399.71	17.717
400.07	18.136
400.42	18.102
400.78	17.824
401.14	17.871
401.49	18.192
401.85	18.547
402.21	18.366
402.57	18.134
402.92	18.085
403.28	18.150
403.63	17.840
403.99	17.399
404.35	17.169
404.70	18.074
405.06	17.989
405.42	18.150
405.77	18.593
406.13	18.206
406.49	18.018
406.84	18.726
407.20	17.328
407.55	17.020
407.91	17.913
408.27	17.079
408.62	18.557
408.98	18.514
409.34	16.716
409.69	18.047
410.05	18.054
410.40	19.026
410.76	17.947
411.11	18.703
411.47	19.349
411.83	18.695
412.18	18.434
412.54	18.317
412.89	19.034
413.25	18.172
413.60	17.289
413.96	18.182
414.31	18.697
414.67	17.710
415.03	18.031
415.38	18.852
415.74	18.082
416.09	18.322
416.45	17.658
416.80	16.952
417.16	18.327
417.51	17.995
417.87	17.964
418.22	18.323
418.58	18.030
418.93	18.219
419.29	18.311
419.64	17.287
420.00	17.685
420.35	17.406
420.71	17.921
421.06	17.596
421.42	19.151
421.77	17.501
422.12	18.076
422.48	17.768
422.83	19.387
423.19	18.037
423.54	19.303
423.90	18.498
424.25	18.080
424.61	18.255
424.96	18.616
425.31	18.577
425.67	18.035
426.02	18.262
426.38	17.451
426.73	18.080
427.09	19.031
427.44	17.204
427.79	18.463
428.15	17.409
428.50	17.416
428.85	18.714
429.21	18.883
429.56	17.670
429.92	17.690
430.27	18.169
430.62	18.319
430.98	18.741
431.33	18.328
431.68	17.864
432.04	18.385
432.39	18.050
432.74	17.694
433.10	18.929
433.45	18.060
433.80	17.543
434.16	18.233
434.51	19.065
434.86	18.404
435.22	19.182
435.57	18.514
435.92	17.752
436.28	18.316
436.63	18.788
436.98	18.572
437.34	18.602
437.69	18.107
438.04	17.874
438.39	19.299
438.75	17.654
439.10	19.556
439.45	18.781
439.81	18.588
440.16	19.249
440.51	18.785
440.86	18.232
441.22	18.542
441.57	18.658
441.92	18.574
442.27	18.737
442.63	18.331
442.98	18.783
443.33	18.937
443.68	19.128
444.03	19.944
444.39	18.724
444.74	18.887
445.09	18.753
445.44	18.915
445.79	19.061
446.15	19.219
446.50	18.708
446.85	18.726
447.20	19.101
447.55	18.410
447.91	19.162
448.26	19.080
448.61	18.810
448.96	19.528
449.31	18.664
449.66	18.355
450.02	18.196
450.37	19.073
450.72	18.676
451.07	19.305
451.42	18.371
451.77	18.510
452.12	19.413
452.47	18.598
452.83	19.200
453.18	19.498
453.53	18.553
453.88	18.664
454.23	18.983
454.58	18.630
454.93	18.204
455.28	19.567
455.63	18.818
455.98	19.385
456.34	19.199
456.69	18.871
457.04	18.262
457.39	18.237
457.74	19.575
458.09	18.561
458.44	19.397
458.79	18.051
459.14	18.983
459.49	18.506
459.84	19.203
460.19	18.878
460.54	19.761
460.89	18.793
461.24	17.874
461.59	19.590
461.94	18.654
462.29	19.317
462.64	19.674
462.99	18.205
463.34	18.624
463.69	18.464
464.04	19.288
464.39	18.946
464.74	18.643
465.09	19.839
465.44	18.830
465.79	18.985
466.14	17.770
466.49	18.737
466.84	18.733
467.19	19.653
467.54	18.860
467.89	18.793
468.24	19.058
468.59	18.066
468.94	18.124
469.29	19.076
469.64	18.500
469.99	18.292
470.34	18.626
470.68	19.002
471.03	19.515
471.38	18.640
471.73	18.726
472.08	17.893
472.43	17.821
472.78	18.325
473.13	18.774
473.48	19.335
473.83	19.269
474.17	18.640
474.52	19.002
474.87	19.324
475.22	19.718
475.57	18.744
475.92	18.517
476.27	19.223
476.61	18.069
476.96	18.509
477.31	18.911
477.66	19.098
478.01	19.319
478.36	19.043
478.70	19.310
479.05	19.785
479.40	18.657
479.75	19.116
480.10	19.138
480.45	20.237
480.79	19.229
481.14	18.566
481.49	18.492
481.84	18.930
482.19	19.269
482.53	19.327
482.88	19.362
483.23	18.719
483.58	18.559
483.92	17.775
484.27	18.882
484.62	18.441
484.97	18.663
485.31	18.339
485.66	17.958
486.01	18.098
486.36	18.873
486.70	19.573
487.05	19.948
487.40	19.805
487.75	19.186
488.09	18.963
488.44	18.619
488.79	18.516
489.13	18.682
489.48	18.214
489.83	18.431
490.17	18.064
490.52	18.678
490.87	19.078
491.22	18.631
491.56	18.899
491.91	18.709
492.26	18.563
492.60	19.370
492.95	18.605
493.30	18.377
493.64	19.010
493.99	18.377
494.34	18.641
494.68	18.158
495.03	19.295
495.37	18.731
495.72	18.957
496.07	18.975
496.41	18.318
496.76	19.266
497.11	18.896
497.45	19.076
497.80	19.414
498.14	18.776
498.49	18.750
498.84	18.784
499.18	19.478
499.53	18.430
499.87	19.121
500.22	17.988
500.56	18.578
500.91	18.810
501.26	19.591
501.60	18.604
501.95	19.062
502.29	19.131
502.64	18.846
502.98	18.550
503.33	18.661
503.67	18.447
504.02	18.914
504.36	19.437
504.71	18.741
505.06	18.145
505.40	19.059
505.75	18.807
506.09	19.337
506.44	19.127
506.78	19.862
507.13	19.272
507.47	18.996
507.82	18.466
508.16	19.073
508.51	18.894
508.85	18.942
509.19	19.422
509.54	19.260
509.88	18.941
510.23	18.941
510.57	19.381
510.92	18.965
511.26	18.567
511.61	18.542
511.95	19.180
512.30	19.744
512.64	18.491
512.98	19.110
513.33	19.103
513.67	18.715
514.02	19.673
514.36	18.159
514.70	18.750
515.05	19.030
515.39	18.845
515.74	19.883
516.08	18.700
516.42	19.728
516.77	19.190
517.11	18.618
517.46	19.088
517.80	20.096
518.14	19.967
518.49	19.360
518.83	19.266
519.17	19.063
519.52	19.340
519.86	20.011
520.20	20.341
520.55	18.894
520.89	18.975
521.23	19.319
521.58	19.096
521.92	18.640
522.26	18.671
522.61	20.255
522.95	19.608
523.29	18.736
523.64	18.834
523.98	19.681
524.32	20.057
524.66	19.408
525.01	18.686
525.35	18.897
525.69	18.910
526.04	18.599
526.38	19.598
526.72	18.685
527.06	18.592
527.41	19.475
527.75	19.002
528.09	18.772
528.43	19.124
528.78	18.671
529.12	19.151
529.46	19.056
529.80	19.336
530.15	19.304
530.49	18.861
530.83	19.776
531.17	18.459
531.51	18.652
531.86	19.411
532.20	19.329
532.54	18.911
532.88	19.758
533.22	18.385
533.57	18.580
533.91	19.136
534.25	19.276
534.59	19.655
534.93	18.053
535.27	19.324
535.62	19.727
535.96	19.640
536.30	19.330
536.64	19.219
536.98	19.496
537.32	19.568
537.66	19.276
538.01	19.215
538.35	18.270
538.69	18.389
539.03	19.620
539.37	19.022
539.71	19.279
540.05	19.125
540.39	18.826
540.73	19.065
541.07	19.191
541.42	19.079
541.76	19.158
542.10	19.602
542.44	18.636
542.78	19.586
543.12	19.130
543.46	19.414
543.80	18.825
544.14	18.971
544.48	19.267
544.82	19.689
545.16	19.201
545.50	18.933
545.84	19.106
546.18	19.630
546.52	19.427
546.86	19.308
547.20	19.211
547.54	18.914
547.88	18.807
548.22	18.830
548.56	19.134
548.90	19.224
549.24	19.939
549.58	19.748
549.92	19.643
550.26	19.741
550.60	18.762
550.94	18.435
551.28	19.472
551.62	19.744
551.96	18.511
552.30	20.778
552.64	19.540
552.98	19.464
553.32	19.936
553.66	20.129
554.00	19.357
554.34	19.176
554.68	18.593
555.02	18.988
555.36	19.592
555.69	18.258
556.03	19.672
556.37	19.399
556.71	19.341
557.05	19.872
557.39	19.177
557.73	20.013
558.07	18.874
558.41	19.734
558.75	19.473
559.08	19.972
559.42	18.244
559.76	19.403
560.10	19.290
560.44	19.921
560.78	20.125
561.12	19.828
561.45	19.891
561.79	19.536
562.13	20.148
562.47	19.420
562.81	19.620
563.15	19.066
563.48	19.453
563.82	19.407
564.16	18.958
564.50	19.428
564.84	19.351
565.17	19.059
565.51	18.585
565.85	19.834
566.19	19.240
566.52	19.251
566.86	19.921
567.20	19.902
567.54	18.800
567.88	20.234
568.21	18.676
568.55	18.993
568.89	19.428
569.23	19.349
569.56	18.992
569.90	19.636
570.24	19.696
570.57	19.660
570.91	19.259
571.25	19.468
571.59	19.566
571.92	19.243
572.26	19.349
572.60	19.247
572.93	19.288
573.27	19.556
573.61	19.322
573.95	19.422
574.28	18.851
574.62	18.940
574.96	18.858
575.29	19.277
575.63	19.335
575.97	19.018
576.30	18.604
576.64	19.375
576.98	18.838
577.31	19.623
577.65	19.315
577.98	19.578
578.32	19.140
578.66	19.205
578.99	18.902
579.33	18.942
579.67	19.311
580.00	18.971
580.34	18.957
580.67	18.954
581.01	19.277
581.35	19.345
581.68	18.705
582.02	19.218
582.35	19.418
582.69	19.364
583.02	19.267
583.36	19.039
583.70	19.223
584.03	18.814
584.37	19.205
584.70	18.924
585.04	19.344
585.37	19.532
585.71	19.202
586.04	19.089
586.38	19.127
586.72	19.002
587.05	19.621
587.39	18.998
587.72	19.402
588.06	19.487
588.39	19.144
588.73	19.392
589.06	19.611
589.40	19.299
589.73	19.248
590.07	19.397
590.40	19.675
590.73	19.371
591.07	19.285
591.40	19.440
591.74	19.674
592.07	19.488
592.41	18.770
592.74	18.850
593.08	19.682
593.41	20.122
593.75	19.626
594.08	19.691
594.41	19.583
594.75	19.694
595.08	19.112
595.42	19.416
595.75	19.664
596.09	19.654
596.42	19.706
596.75	19.413
597.09	20.444
597.42	19.666
597.75	19.365
598.09	19.841
598.42	19.461
598.76	19.259
599.09	19.366
599.42	19.779
599.76	19.115
600.09	19.920
600.42	19.286
600.76	19.287
601.09	19.482
601.42	19.224
601.76	18.828
602.09	19.478
602.42	18.757
602.76	19.705
603.09	19.677
603.42	19.220
603.76	19.732
604.09	19.943
604.42	19.853
604.76	19.102
605.09	19.107
605.42	19.298
605.75	19.308
606.09	19.112
606.42	19.117
606.75	18.703
607.09	18.894
607.42	19.268
607.75	19.656
608.08	19.534
608.42	19.065
608.75	19.320
609.08	18.888
609.41	19.232
609.75	19.286
610.08	19.129
610.41	18.862
610.74	19.916
611.07	19.405
611.41	19.372
611.74	19.492
612.07	19.635
612.40	19.677
612.73	19.511
613.07	18.924
613.40	19.490
613.73	18.970
614.06	20.069
614.39	19.242
614.72	19.796
615.06	18.816
615.39	18.318
615.72	19.100
616.05	19.378
616.38	19.879
616.71	19.436
617.05	19.116
617.38	19.476
617.71	19.006
618.04	19.158
618.37	20.000
618.70	19.683
619.03	18.638
619.36	18.681
619.69	19.154
620.03	18.770
620.36	19.080
620.69	19.371
621.02	19.816
621.35	19.231
621.68	19.667
622.01	19.359
622.34	17.503
622.67	18.832
623.00	17.814
623.33	19.376
623.66	19.001
623.99	18.631
624.32	19.428
624.65	19.498
624.99	19.506
625.32	20.640
625.65	19.285
625.98	17.966
626.31	19.206
626.64	20.000
626.97	18.980
627.30	18.679
627.63	19.955
627.96	19.369
628.29	17.977
628.62	19.144
628.95	19.106
629.28	18.437
629.61	19.613
629.94	18.494
630.26	19.237
630.59	18.221
630.92	19.307
631.25	20.215
631.58	18.644
631.91	18.369
632.24	19.116
632.57	19.070
632.90	19.559
633.23	19.184
633.56	18.571
633.89	19.008
