SpectraSuite Data File
++++++++++++++++++++++++++++++++++++
Date: Thu May 14 14:27:04 PDT 2015
User: schluterlab
Dark Spectrum Present: Yes
Reference Spectrum Present: Yes
Number of Sampled Component Spectra: 1
Spectrometers: USB2E3373
Integration Time (usec): 3000 (USB2E3373)
Spectra Averaged: 3 (USB2E3373)
Boxcar Smoothing: 0 (USB2E3373)
Correct for Electrical Dark: No (USB2E3373)
Strobe/Lamp Enabled: No (USB2E3373)
Correct for Detector Non-linearity: No (USB2E3373)
Correct for Stray Light: No (USB2E3373)
Number of Pixels in Processed Spectrum: 2048
>>>>>Begin Processed Spectral Data<<<<<
178.53	0.000
178.91	-257.143
179.29	-200.000
179.67	1500.000
180.04	100.000
180.42	-150.000
180.80	-180.000
181.18	1400.000
181.56	1700.000
181.94	-200.000
182.31	325.000
182.69	-133.333
183.07	1000.000
183.45	-125.000
183.83	216.667
184.20	600.000
184.58	-1500.000
184.96	25.000
185.34	111.111
185.72	280.000
186.09	-33.333
186.47	50.000
186.85	-100.000
187.23	-33.333
187.61	-200.000
187.98	-180.000
188.36	-200.000
188.74	325.000
189.12	466.667
189.49	112.500
189.87	75.000
190.25	66.667
190.63	280.000
191.00	66.667
191.38	0.000
191.76	-25.000
192.14	0.000
192.51	-450.000
192.89	316.667
193.27	0.000
193.65	157.143
194.02	200.000
194.40	242.857
194.78	-157.143
195.15	0.000
195.53	136.364
195.91	0.000
196.29	300.000
196.66	115.385
197.04	700.000
197.42	157.143
197.79	150.000
198.17	50.000
198.55	28.571
198.92	166.667
199.30	50.000
199.68	109.091
200.05	114.286
200.43	200.000
200.81	-71.429
201.18	0.000
201.56	-0.000
201.94	0.000
202.31	-133.333
202.69	44.444
203.07	-1500.000
203.44	155.556
203.82	350.000
204.19	183.333
204.57	200.000
204.95	150.000
205.32	800.000
205.70	-325.000
206.08	300.000
206.45	300.000
206.83	20.000
207.20	233.333
207.58	80.000
207.96	66.667
208.33	216.667
208.71	-50.000
209.08	133.333
209.46	0.000
209.84	66.667
210.21	-500.000
210.59	-500.000
210.96	-500.000
211.34	475.000
211.71	125.000
212.09	600.000
212.46	0.000
212.84	-50.000
213.22	60.000
213.59	325.000
213.97	130.000
214.34	566.667
214.72	-66.667
215.09	200.000
215.47	0.000
215.84	-128.571
216.22	-250.000
216.59	160.000
216.97	-20.000
217.34	425.000
217.72	75.000
218.09	250.000
218.47	125.000
218.84	0.000
219.22	-100.000
219.59	100.000
219.97	60.000
220.34	-250.000
220.72	66.667
221.09	146.154
221.47	633.333
221.84	110.000
222.22	114.286
222.59	0.000
222.97	87.500
223.34	160.000
223.72	800.000
224.09	325.000
224.46	350.000
224.84	160.000
225.21	200.000
225.59	200.000
225.96	375.000
226.34	53.846
226.71	-183.333
227.08	550.000
227.46	126.667
227.83	350.000
228.21	105.263
228.58	-100.000
228.95	-400.000
229.33	125.000
229.70	80.000
230.08	110.526
230.45	80.000
230.82	300.000
231.20	78.571
231.57	158.333
231.95	72.727
232.32	81.818
232.69	70.000
233.07	250.000
233.44	41.176
233.81	100.000
234.19	150.000
234.56	68.182
234.93	58.621
235.31	68.421
235.68	55.556
236.05	15.000
236.43	53.846
236.80	108.000
237.17	70.370
237.55	42.424
237.92	80.000
238.29	67.742
238.67	36.364
239.04	30.556
239.41	28.571
239.79	23.913
240.16	40.741
240.53	28.261
240.91	11.765
241.28	26.230
241.65	29.851
242.02	22.973
242.40	24.615
242.77	20.000
243.14	19.512
243.51	25.000
243.89	15.385
244.26	15.842
244.63	32.353
245.00	18.692
245.38	18.421
245.75	10.619
246.12	14.286
246.49	13.953
246.87	10.000
247.24	14.570
247.61	15.789
247.98	16.107
248.36	10.494
248.73	7.975
249.10	12.022
249.47	12.438
249.84	19.372
250.22	9.845
250.59	12.778
250.96	13.636
251.33	8.163
251.70	12.393
252.08	12.083
252.45	13.525
252.82	9.917
253.19	9.766
253.56	12.167
253.94	10.385
254.31	8.712
254.68	14.685
255.05	13.681
255.42	11.905
255.79	9.061
256.16	9.934
256.54	8.940
256.91	12.459
257.28	10.820
257.65	7.643
258.02	9.735
258.39	6.838
258.76	14.373
259.14	10.920
259.51	10.663
259.88	7.649
260.25	11.389
260.62	10.137
260.99	9.836
261.36	10.724
261.73	9.019
262.10	8.791
262.47	6.971
262.85	12.626
263.22	9.610
263.59	6.053
263.96	10.742
264.33	7.928
264.70	11.111
265.07	12.411
265.44	11.338
265.81	9.028
266.18	9.070
266.55	7.366
266.92	7.517
267.29	10.066
267.66	9.313
268.03	8.734
268.40	7.516
268.77	8.884
269.14	7.709
269.51	9.211
269.88	9.426
270.25	10.060
270.62	9.494
270.99	9.697
271.36	9.901
271.73	7.859
272.10	9.820
272.47	9.419
272.84	8.835
273.21	8.617
273.58	8.468
273.95	7.500
274.32	7.224
274.69	8.317
275.06	10.623
275.43	7.763
275.80	9.700
276.17	7.222
276.54	7.276
276.91	10.376
277.28	9.765
277.65	8.259
278.02	9.007
278.39	7.246
278.76	8.787
279.13	7.270
279.50	9.622
279.87	9.123
280.23	7.394
280.60	8.814
280.97	7.401
281.34	8.149
281.71	8.968
282.08	7.143
282.45	5.565
282.82	7.064
283.19	7.431
283.56	9.672
283.92	8.559
284.29	9.953
284.66	9.360
285.03	6.090
285.40	8.346
285.77	7.276
286.14	8.702
286.51	8.980
286.87	6.161
287.24	7.982
287.61	7.175
287.98	7.704
288.35	8.136
288.72	8.284
289.08	7.906
289.45	6.953
289.82	7.530
290.19	7.471
290.56	7.887
290.93	7.133
291.29	6.749
291.66	8.127
292.03	6.242
292.40	7.619
292.77	7.412
293.13	7.578
293.50	6.045
293.87	7.919
294.24	8.933
294.60	7.838
294.97	7.383
295.34	8.451
295.71	6.810
296.08	8.010
296.44	7.721
296.81	7.065
297.18	6.476
297.55	6.604
297.91	7.117
298.28	6.872
298.65	8.323
299.02	7.320
299.38	9.268
299.75	7.710
300.12	6.597
300.48	7.373
300.85	6.749
301.22	8.277
301.59	7.991
301.95	7.797
302.32	7.778
302.69	6.243
303.05	7.291
303.42	8.647
303.79	6.562
304.15	8.202
304.52	7.717
304.89	6.806
305.25	7.453
305.62	8.150
305.99	7.938
306.35	7.258
306.72	7.342
307.09	7.208
307.45	8.385
307.82	7.871
308.19	7.467
308.55	7.618
308.92	7.205
309.29	8.525
309.65	7.212
310.02	8.218
310.38	8.563
310.75	8.447
311.12	8.533
311.48	8.113
311.85	8.357
312.22	8.539
312.58	8.451
312.95	8.413
313.31	8.040
313.68	8.700
314.05	10.117
314.41	9.472
314.78	8.174
315.14	9.165
315.51	10.065
315.87	9.001
316.24	11.050
316.61	8.970
316.97	8.416
317.34	8.025
317.70	9.520
318.07	9.083
318.43	9.609
318.80	10.619
319.16	10.129
319.53	9.340
319.89	9.202
320.26	10.142
320.62	9.574
320.99	10.711
321.35	10.721
321.72	12.465
322.08	10.640
322.45	11.201
322.81	11.462
323.18	10.796
323.54	11.983
323.91	10.854
324.27	12.909
324.64	12.762
325.00	11.774
325.37	11.876
325.73	12.893
326.10	11.841
326.46	12.704
326.83	13.371
327.19	12.756
327.56	13.360
327.92	12.825
328.29	12.823
328.65	13.149
329.01	13.706
329.38	13.816
329.74	14.726
330.11	14.555
330.47	14.406
330.84	14.212
331.20	15.417
331.56	13.778
331.93	13.724
332.29	15.763
332.66	14.950
333.02	14.405
333.38	15.352
333.75	14.310
334.11	15.930
334.48	16.254
334.84	16.143
335.20	14.526
335.57	15.599
335.93	16.198
336.29	15.973
336.66	15.307
337.02	16.388
337.38	16.922
337.75	14.298
338.11	17.157
338.47	16.046
338.84	16.582
339.20	15.417
339.56	16.145
339.93	16.420
340.29	15.459
340.65	16.302
341.02	16.281
341.38	17.057
341.74	16.546
342.11	16.331
342.47	15.886
342.83	16.264
343.20	16.680
343.56	16.680
343.92	15.452
344.28	16.328
344.65	17.829
345.01	17.083
345.37	15.941
345.73	16.446
346.10	17.083
346.46	15.585
346.82	17.303
347.19	17.341
347.55	17.223
347.91	16.642
348.27	16.540
348.63	17.060
349.00	16.257
349.36	17.323
349.72	17.113
350.08	18.128
350.45	17.186
350.81	15.913
351.17	15.865
351.53	16.528
351.89	16.781
352.26	17.612
352.62	16.716
352.98	17.023
353.34	16.206
353.70	17.257
354.07	16.692
354.43	16.325
354.79	17.053
355.15	17.366
355.51	17.982
355.87	17.053
356.24	18.479
356.60	16.556
356.96	16.976
357.32	17.398
357.68	17.789
358.04	16.692
358.40	17.761
358.77	17.398
359.13	17.208
359.49	17.175
359.85	17.259
360.21	17.504
360.57	17.516
360.93	16.996
361.29	18.316
361.66	18.030
362.02	18.998
362.38	17.147
362.74	18.156
363.10	17.607
363.46	18.975
363.82	17.969
364.18	19.071
364.54	18.119
364.90	18.729
365.26	17.931
365.62	18.933
365.98	18.312
366.35	17.785
366.71	18.912
367.07	18.877
367.43	18.910
367.79	19.774
368.15	19.197
368.51	19.486
368.87	18.289
369.23	18.933
369.59	18.033
369.95	19.135
370.31	18.839
370.67	19.876
371.03	19.945
371.39	18.670
371.75	20.426
372.11	20.528
372.47	19.160
372.83	19.895
373.19	20.013
373.55	19.783
373.91	18.882
374.27	19.405
374.63	20.298
374.99	20.093
375.35	20.325
375.71	19.935
376.07	21.110
376.42	20.781
376.78	19.391
377.14	21.023
377.50	20.367
377.86	21.059
378.22	21.018
378.58	20.987
378.94	20.305
379.30	20.914
379.66	21.634
380.02	21.119
380.38	20.910
380.74	21.127
381.09	21.196
381.45	21.136
381.81	21.838
382.17	22.209
382.53	21.520
382.89	21.896
383.25	22.098
383.61	21.123
383.97	21.614
384.32	22.967
384.68	21.752
385.04	22.672
385.40	22.510
385.76	22.509
386.12	23.040
386.48	21.647
386.83	23.242
387.19	21.900
387.55	22.007
387.91	23.402
388.27	22.748
388.62	22.222
388.98	23.294
389.34	22.923
389.70	22.952
390.06	22.439
390.42	23.554
390.77	24.262
391.13	23.533
391.49	23.188
391.85	23.030
392.20	24.021
392.56	24.040
392.92	23.610
393.28	24.489
393.64	23.017
393.99	24.172
394.35	24.416
394.71	24.251
395.07	23.713
395.42	23.015
395.78	24.254
396.14	23.945
396.50	24.109
396.85	24.150
397.21	24.024
397.57	24.558
397.92	24.341
398.28	22.922
398.64	23.341
399.00	22.461
399.35	23.613
399.71	23.533
400.07	22.852
400.42	23.690
400.78	24.190
401.14	23.335
401.49	23.479
401.85	24.419
402.21	24.160
402.57	24.883
402.92	23.818
403.28	23.829
403.63	23.568
403.99	23.931
404.35	23.991
404.70	24.816
405.06	23.315
405.42	23.595
405.77	24.155
406.13	23.069
406.49	23.761
406.84	24.266
407.20	25.321
407.55	24.470
407.91	24.576
408.27	24.323
408.62	25.073
408.98	24.666
409.34	23.636
409.69	24.536
410.05	24.971
410.40	25.348
410.76	24.341
411.11	24.722
411.47	24.816
411.83	24.809
412.18	24.880
412.54	25.015
412.89	25.495
413.25	24.266
413.60	24.009
413.96	25.233
414.31	24.929
414.67	25.224
415.03	25.046
415.38	25.788
415.74	24.068
416.09	25.540
416.45	24.609
416.80	25.459
417.16	25.990
417.51	24.844
417.87	25.445
418.22	25.629
418.58	25.093
418.93	26.193
419.29	25.832
419.64	25.570
420.00	26.469
420.35	26.053
420.71	27.570
421.06	25.992
421.42	26.606
421.77	26.010
422.12	27.114
422.48	26.882
422.83	27.711
423.19	27.851
423.54	28.263
423.90	27.885
424.25	28.320
424.61	28.129
424.96	28.611
425.31	28.662
425.67	28.234
426.02	28.722
426.38	28.760
426.73	28.906
427.09	29.066
427.44	28.782
427.79	29.519
428.15	29.566
428.50	29.326
428.85	29.908
429.21	30.638
429.56	30.306
429.92	30.123
430.27	30.458
430.62	30.826
430.98	30.103
431.33	31.672
431.68	30.172
432.04	31.894
432.39	31.548
432.74	32.249
433.10	32.450
433.45	32.330
433.80	32.135
434.16	32.128
434.51	32.837
434.86	32.356
435.22	34.219
435.57	33.373
435.92	32.610
436.28	33.788
436.63	34.134
436.98	33.280
437.34	33.878
437.69	33.462
438.04	34.532
438.39	34.406
438.75	34.366
439.10	35.095
439.45	34.489
439.81	34.576
440.16	34.906
440.51	35.619
440.86	34.352
441.22	35.209
441.57	35.325
441.92	35.451
442.27	36.313
442.63	34.575
442.98	36.126
443.33	36.244
443.68	37.066
444.03	36.783
444.39	36.755
444.74	36.856
445.09	35.935
445.44	36.881
445.79	37.117
446.15	36.793
446.50	36.486
446.85	37.111
447.20	37.234
447.55	37.395
447.91	36.492
448.26	37.262
448.61	38.045
448.96	38.948
449.31	38.229
449.66	37.963
450.02	37.869
450.37	39.052
450.72	38.375
451.07	38.098
451.42	38.302
451.77	38.355
452.12	38.995
452.47	40.345
452.83	39.302
453.18	39.054
453.53	39.345
453.88	38.487
454.23	38.531
454.58	39.466
454.93	39.502
455.28	39.795
455.63	39.966
455.98	38.939
456.34	39.635
456.69	39.624
457.04	41.194
457.39	39.302
457.74	41.387
458.09	39.374
458.44	40.894
458.79	39.041
459.14	40.587
459.49	40.747
459.84	40.556
460.19	39.922
460.54	41.170
460.89	40.392
461.24	40.345
461.59	40.343
461.94	40.673
462.29	41.937
462.64	41.159
462.99	40.929
463.34	42.570
463.69	40.797
464.04	41.745
464.39	41.928
464.74	40.992
465.09	41.234
465.44	40.719
465.79	41.671
466.14	40.855
466.49	41.947
466.84	41.763
467.19	41.850
467.54	41.833
467.89	40.632
468.24	41.440
468.59	42.212
468.94	41.783
469.29	41.872
469.64	42.149
469.99	41.555
470.34	41.894
470.68	42.515
471.03	43.026
471.38	42.184
471.73	42.458
472.08	43.655
472.43	42.565
472.78	43.325
473.13	42.668
473.48	43.082
473.83	43.180
474.17	41.852
474.52	43.836
474.87	42.913
475.22	43.775
475.57	43.094
475.92	42.459
476.27	43.770
476.61	42.575
476.96	42.753
477.31	43.366
477.66	43.547
478.01	43.264
478.36	42.273
478.70	43.842
479.05	44.070
479.40	44.571
479.75	43.804
480.10	43.581
480.45	43.163
480.79	44.807
481.14	42.923
481.49	43.707
481.84	42.994
482.19	43.742
482.53	44.250
482.88	44.971
483.23	44.020
483.58	43.668
483.92	43.617
484.27	43.776
484.62	43.688
484.97	44.012
485.31	43.189
485.66	42.425
486.01	40.905
486.36	41.053
486.70	40.687
487.05	41.601
487.40	41.978
487.75	43.944
488.09	43.956
488.44	43.619
488.79	44.013
489.13	44.461
489.48	43.340
489.83	43.823
490.17	43.337
490.52	43.719
490.87	44.036
491.22	44.887
491.56	43.899
491.91	44.701
492.26	45.868
492.60	44.381
492.95	44.142
493.30	43.837
493.64	44.065
493.99	44.825
494.34	44.251
494.68	44.368
495.03	45.154
495.37	44.829
495.72	43.764
496.07	44.654
496.41	43.115
496.76	44.829
497.11	44.798
497.45	44.238
497.80	44.514
498.14	44.717
498.49	44.945
498.84	43.784
499.18	44.714
499.53	43.991
499.87	44.659
500.22	44.212
500.56	45.209
500.91	45.446
501.26	44.727
501.60	44.852
501.95	44.420
502.29	44.537
502.64	45.474
502.98	44.564
503.33	44.233
503.67	44.396
504.02	44.615
504.36	45.398
504.71	45.613
505.06	44.930
505.40	44.059
505.75	44.581
506.09	45.718
506.44	45.775
506.78	45.550
507.13	45.044
507.47	46.329
507.82	45.076
508.16	45.841
508.51	45.148
508.85	46.292
509.19	45.334
509.54	45.965
509.88	44.973
510.23	46.042
510.57	46.641
510.92	45.331
511.26	45.022
511.61	44.568
511.95	46.510
512.30	46.381
512.64	45.927
512.98	45.873
513.33	46.321
513.67	46.456
514.02	46.551
514.36	46.394
514.70	46.406
515.05	46.767
515.39	46.877
515.74	47.031
516.08	46.329
516.42	46.572
516.77	46.583
517.11	45.848
517.46	46.501
517.80	46.553
518.14	47.280
518.49	46.746
518.83	46.142
519.17	45.450
519.52	47.065
519.86	46.251
520.20	45.580
520.55	47.097
520.89	48.198
521.23	46.510
521.58	46.215
521.92	48.272
522.26	47.136
522.61	47.743
522.95	47.751
523.29	47.701
523.64	47.197
523.98	48.545
524.32	48.768
524.66	47.524
525.01	46.433
525.35	47.157
525.69	48.318
526.04	47.819
526.38	47.299
526.72	48.155
527.06	47.683
527.41	48.163
527.75	48.278
528.09	47.757
528.43	47.188
528.78	46.763
529.12	47.248
529.46	46.880
529.80	47.140
530.15	47.420
530.49	47.272
530.83	47.107
531.17	48.566
531.51	47.954
531.86	48.858
532.20	46.768
532.54	47.696
532.88	47.879
533.22	47.201
533.57	47.374
533.91	46.577
534.25	46.410
534.59	47.586
534.93	47.085
535.27	46.141
535.62	47.413
535.96	47.240
536.30	47.650
536.64	47.868
536.98	47.847
537.32	46.852
537.66	48.409
538.01	46.103
538.35	46.102
538.69	47.356
539.03	47.578
539.37	45.819
539.71	46.006
540.05	47.842
540.39	46.883
540.73	46.812
541.07	47.762
541.42	46.426
541.76	46.797
542.10	47.045
542.44	47.381
542.78	47.628
543.12	46.722
543.46	46.398
543.80	46.643
544.14	47.157
544.48	47.400
544.82	46.798
545.16	48.181
545.50	47.454
545.84	46.295
546.18	48.580
546.52	47.643
546.86	47.107
547.20	47.519
547.54	46.754
547.88	46.715
548.22	46.667
548.56	46.870
548.90	46.269
549.24	48.146
549.58	47.192
549.92	47.704
550.26	47.638
550.60	47.415
550.94	46.507
551.28	47.591
551.62	48.046
551.96	47.832
552.30	47.228
552.64	47.169
552.98	47.099
553.32	47.910
553.66	48.103
554.00	47.919
554.34	47.555
554.68	47.579
555.02	46.583
555.36	47.798
555.69	47.277
556.03	47.478
556.37	47.059
556.71	47.622
557.05	47.540
557.39	47.644
557.73	48.217
558.07	48.212
558.41	48.239
558.75	47.803
559.08	49.617
559.42	47.668
559.76	48.100
560.10	47.421
560.44	48.021
560.78	47.750
561.12	47.291
561.45	46.959
561.79	45.665
562.13	47.874
562.47	45.808
562.81	47.468
563.15	47.222
563.48	47.545
563.82	47.944
564.16	47.002
564.50	47.437
564.84	46.962
565.17	47.176
565.51	46.663
565.85	48.456
566.19	46.486
566.52	45.699
566.86	46.972
567.20	44.970
567.54	45.672
567.88	46.024
568.21	45.257
568.55	45.564
568.89	45.983
569.23	44.064
569.56	44.041
569.90	43.086
570.24	43.575
570.57	42.656
570.91	41.794
571.25	41.047
571.59	41.970
571.92	41.604
572.26	41.900
572.60	41.250
572.93	41.887
573.27	42.034
573.61	41.530
573.95	41.831
574.28	41.112
574.62	40.950
574.96	40.693
575.29	40.295
575.63	41.049
575.97	41.365
576.30	41.401
576.64	41.136
576.98	41.321
577.31	41.240
577.65	40.962
577.98	40.399
578.32	39.915
578.66	39.842
578.99	40.508
579.33	40.952
579.67	40.911
580.00	41.245
580.34	41.318
580.67	41.019
581.01	41.194
581.35	40.756
581.68	40.160
582.02	39.902
582.35	41.006
582.69	40.387
583.02	40.721
583.36	40.809
583.70	41.990
584.03	41.565
584.37	42.434
584.70	42.029
585.04	41.037
585.37	40.853
585.71	40.906
586.04	41.480
586.38	40.599
586.72	41.113
587.05	41.878
587.39	41.536
587.72	41.746
588.06	41.755
588.39	42.071
588.73	41.243
589.06	42.946
589.40	43.577
589.73	43.284
590.07	43.336
590.40	43.813
590.73	43.160
591.07	44.006
591.40	43.857
591.74	43.839
592.07	44.580
592.41	43.691
592.74	42.599
593.08	42.739
593.41	42.345
593.75	41.954
594.08	42.442
594.41	42.436
594.75	42.876
595.08	43.069
595.42	43.084
595.75	43.009
596.09	43.443
596.42	43.067
596.75	44.269
597.09	44.929
597.42	43.981
597.75	43.787
598.09	44.603
598.42	44.351
598.76	43.065
599.09	42.079
599.42	41.770
599.76	42.357
600.09	42.676
600.42	42.676
600.76	42.734
601.09	41.852
601.42	42.568
601.76	42.207
602.09	42.995
602.42	43.766
602.76	43.395
603.09	43.833
603.42	42.919
603.76	42.565
604.09	43.400
604.42	43.523
604.76	43.417
605.09	43.757
605.42	43.421
605.75	42.692
606.09	42.889
606.42	42.758
606.75	42.354
607.09	42.396
607.42	43.083
607.75	43.064
608.08	43.331
608.42	43.894
608.75	42.745
609.08	42.699
609.41	43.714
609.75	44.196
610.08	44.195
610.41	43.203
610.74	43.067
611.07	44.405
611.41	44.350
611.74	44.850
612.07	44.367
612.40	45.057
612.73	44.743
613.07	44.303
613.40	44.177
613.73	44.872
614.06	44.063
614.39	43.975
614.72	43.620
615.06	44.129
615.39	44.514
615.72	43.649
616.05	44.342
616.38	44.551
616.71	45.246
617.05	44.622
617.38	45.051
617.71	45.626
618.04	44.522
618.37	45.027
618.70	45.701
619.03	45.938
619.36	46.178
619.69	45.548
620.03	46.014
620.36	45.828
620.69	45.219
621.02	46.982
621.35	48.839
621.68	47.939
622.01	47.117
622.34	47.559
622.67	47.216
623.00	46.491
623.33	46.649
623.66	46.174
623.99	46.083
624.32	47.109
624.65	45.367
624.99	46.229
625.32	47.093
625.65	46.527
625.98	46.508
626.31	46.917
626.64	47.033
626.97	47.112
627.30	47.912
627.63	46.812
627.96	47.748
628.29	47.860
628.62	47.943
628.95	50.657
629.28	48.853
629.61	48.990
629.94	47.950
630.26	48.305
630.59	49.136
630.92	46.580
631.25	50.089
631.58	50.942
631.91	48.266
632.24	50.336
632.57	50.759
632.90	50.853
633.23	51.122
633.56	52.551
633.89	50.207
634.22	51.351
634.55	50.835
634.88	49.134
635.20	50.915
635.53	50.847
635.86	49.404
636.19	51.220
636.52	51.688
636.85	49.132
637.18	50.728
