SpectraSuite Data File
++++++++++++++++++++++++++++++++++++
Date: Thu May 14 14:53:19 PDT 2015
User: schluterlab
Dark Spectrum Present: Yes
Reference Spectrum Present: Yes
Number of Sampled Component Spectra: 1
Spectrometers: USB2E3373
Integration Time (usec): 3000 (USB2E3373)
Spectra Averaged: 3 (USB2E3373)
Boxcar Smoothing: 0 (USB2E3373)
Correct for Electrical Dark: No (USB2E3373)
Strobe/Lamp Enabled: No (USB2E3373)
Correct for Detector Non-linearity: No (USB2E3373)
Correct for Stray Light: No (USB2E3373)
Number of Pixels in Processed Spectrum: 2048
>>>>>Begin Processed Spectral Data<<<<<
178.53	0.000
178.91	242.857
179.29	-2500.000
179.67	-1500.000
180.04	228.571
180.42	130.000
180.80	280.000
181.18	-500.000
181.56	-300.000
181.94	325.000
182.31	-125.000
182.69	366.667
183.07	-350.000
183.45	300.000
183.83	0.000
184.20	-166.667
184.58	300.000
184.96	-225.000
185.34	-100.000
185.72	-60.000
186.09	322.222
186.47	600.000
186.85	400.000
187.23	-211.111
187.61	-2100.000
187.98	240.000
188.36	425.000
188.74	-325.000
189.12	-433.333
189.49	-37.500
189.87	-237.500
190.25	-100.000
190.63	-420.000
191.00	-277.778
191.38	0.000
191.76	-25.000
192.14	-283.333
192.51	800.000
192.89	0.000
193.27	0.000
193.65	-257.143
194.02	-2200.000
194.40	-85.714
194.78	142.857
195.15	0.000
195.53	-90.909
195.91	0.000
196.29	-325.000
196.66	-92.308
197.04	-2000.000
197.42	-300.000
197.79	-700.000
198.17	-162.500
198.55	-200.000
198.92	-77.778
199.30	-150.000
199.68	-45.455
200.05	-42.857
200.43	-950.000
200.81	214.286
201.18	0.000
201.56	211.111
201.94	0.000
202.31	566.667
202.69	-122.222
203.07	1500.000
203.44	-122.222
203.82	-375.000
204.19	-41.667
204.57	-216.667
204.95	-87.500
205.32	-1000.000
205.70	400.000
206.08	-200.000
206.45	0.000
206.83	360.000
207.20	-150.000
207.58	-300.000
207.96	-366.667
208.33	-166.667
208.71	133.333
209.08	-100.000
209.46	0.000
209.84	350.000
210.21	400.000
210.59	350.000
210.96	400.000
211.34	-300.000
211.71	-225.000
212.09	-1700.000
212.46	0.000
212.84	800.000
213.22	-400.000
213.59	-200.000
213.97	-180.000
214.34	-400.000
214.72	166.667
215.09	-500.000
215.47	0.000
215.84	128.571
216.22	1100.000
216.59	-340.000
216.97	-380.000
217.34	-150.000
217.72	-112.500
218.09	-500.000
218.47	-75.000
218.84	0.000
219.22	220.000
219.59	-5.882
219.97	-55.000
220.34	900.000
220.72	-233.333
221.09	-7.692
221.47	-200.000
221.84	-30.000
222.22	-171.429
222.59	0.000
222.97	-100.000
223.34	-260.000
223.72	-1500.000
224.09	-225.000
224.46	-450.000
224.84	40.000
225.21	-200.000
225.59	-325.000
225.96	-275.000
226.34	-19.231
226.71	300.000
227.08	-800.000
227.46	-106.667
227.83	-300.000
228.21	15.789
228.58	187.500
228.95	500.000
229.33	25.000
229.70	-130.000
230.08	21.053
230.45	170.000
230.82	-400.000
231.20	-50.000
231.57	-33.333
231.95	-63.636
232.32	-45.455
232.69	-30.000
233.07	-450.000
233.44	-82.353
233.81	-90.000
234.19	33.333
234.56	-4.545
234.93	0.000
235.31	-31.579
235.68	-38.889
236.05	-35.000
236.43	15.385
236.80	12.000
237.17	-14.815
237.55	9.091
237.92	-70.000
238.29	19.355
238.67	-4.545
239.04	11.111
239.41	-26.190
239.79	13.043
240.16	1.852
240.53	-4.348
240.91	5.882
241.28	3.279
241.65	23.881
242.02	16.216
242.40	15.385
242.77	9.333
243.14	0.000
243.51	5.263
243.89	16.667
244.26	16.832
244.63	25.490
245.00	29.907
245.38	17.544
245.75	7.080
246.12	23.016
246.49	22.481
246.87	26.429
247.24	17.881
247.61	26.316
247.98	21.477
248.36	24.074
248.73	26.380
249.10	24.590
249.47	30.846
249.84	29.319
250.22	31.088
250.59	26.667
250.96	29.545
251.33	26.531
251.70	27.778
252.08	27.083
252.45	27.459
252.82	26.033
253.19	26.172
253.56	29.278
253.94	30.000
254.31	29.545
254.68	33.566
255.05	32.573
255.42	29.252
255.79	27.508
256.16	29.139
256.54	26.490
256.91	29.836
257.28	29.836
257.65	28.025
258.02	28.319
258.39	27.350
258.76	32.110
259.14	32.759
259.51	29.971
259.88	30.028
260.25	25.556
260.62	29.041
260.99	29.235
261.36	29.223
261.73	28.382
262.10	28.846
262.47	29.223
262.85	29.545
263.22	30.909
263.59	28.684
263.96	30.946
264.33	28.133
264.70	30.864
265.07	28.640
265.44	29.252
265.81	28.009
266.18	29.705
266.55	32.589
266.92	31.207
267.29	30.635
267.66	27.938
268.03	26.856
268.40	31.942
268.77	29.613
269.14	28.194
269.51	30.482
269.88	31.148
270.25	30.785
270.62	33.544
270.99	33.131
271.36	30.099
271.73	31.041
272.10	32.866
272.47	30.661
272.84	27.309
273.21	30.060
273.58	31.250
273.95	26.923
274.32	25.856
274.69	27.466
275.06	30.037
275.43	27.542
275.80	29.453
276.17	28.333
276.54	29.478
276.91	29.159
277.28	28.391
277.65	29.982
278.02	33.272
278.39	29.167
278.76	29.525
279.13	29.610
279.50	29.553
279.87	28.980
280.23	25.176
280.60	29.322
280.97	29.276
281.34	29.032
281.71	28.934
282.08	26.080
282.45	27.005
282.82	27.002
283.19	28.756
283.56	28.361
283.92	29.279
284.29	28.436
284.66	28.900
285.03	27.724
285.40	27.666
285.77	28.173
286.14	29.160
286.51	27.549
286.87	27.330
287.24	28.012
287.61	28.251
287.98	26.284
288.35	27.367
288.72	27.071
289.08	27.672
289.45	26.183
289.82	25.904
290.19	27.155
290.56	26.901
290.93	26.676
291.29	25.482
291.66	25.620
292.03	26.187
292.40	27.483
292.77	25.741
293.13	24.493
293.50	22.733
293.87	23.221
294.24	25.867
294.60	23.894
294.97	22.953
295.34	24.840
295.71	23.203
296.08	24.160
296.44	23.407
296.81	23.873
297.18	21.669
297.55	22.288
297.91	22.420
298.28	21.919
298.65	21.403
299.02	21.133
299.38	22.082
299.75	23.131
300.12	21.181
300.48	20.737
300.85	23.060
301.22	23.378
301.59	21.233
301.95	21.243
302.32	22.333
302.69	20.920
303.05	22.089
303.42	20.399
303.79	21.354
304.15	21.767
304.52	20.930
304.89	20.942
305.25	22.257
305.62	20.272
305.99	20.928
306.35	21.774
306.72	22.647
307.09	21.117
307.45	20.704
307.82	21.090
308.19	19.576
308.55	20.540
308.92	21.324
309.29	21.169
309.65	21.637
310.02	20.594
310.38	19.882
310.75	21.748
311.12	20.614
311.48	21.114
311.85	22.127
312.22	20.588
312.58	20.094
312.95	20.937
313.31	19.783
313.68	20.330
314.05	21.229
314.41	20.583
314.78	21.253
315.14	21.506
315.51	20.683
315.87	21.242
316.24	21.553
316.61	21.048
316.97	19.729
317.34	19.489
317.70	21.659
318.07	20.988
318.43	20.153
318.80	21.154
319.16	19.914
319.53	19.794
319.89	20.245
320.26	20.552
320.62	20.213
320.99	19.575
321.35	19.316
321.72	21.209
322.08	20.198
322.45	21.590
322.81	22.022
323.18	20.619
323.54	20.345
323.91	22.153
324.27	19.707
324.64	20.907
325.00	20.232
325.37	20.229
325.73	20.000
326.10	20.276
326.46	21.091
326.83	21.777
327.19	22.205
327.56	20.632
327.92	19.906
328.29	20.081
328.65	19.179
329.01	20.981
329.38	19.714
329.74	19.264
330.11	21.404
330.47	20.303
330.84	20.327
331.20	22.167
331.56	20.711
331.93	21.423
332.29	20.169
332.66	20.764
333.02	20.268
333.38	20.554
333.75	20.034
334.11	20.767
334.48	20.050
334.84	20.136
335.20	20.151
335.57	19.899
335.93	20.909
336.29	18.469
336.66	20.185
337.02	21.405
337.38	19.898
337.75	20.000
338.11	19.765
338.47	20.430
338.84	20.812
339.20	19.798
339.56	19.028
339.93	19.540
340.29	19.807
340.65	19.546
341.02	19.792
341.38	20.372
341.74	19.532
342.11	20.837
342.47	19.301
342.83	20.612
343.20	18.970
343.56	19.567
343.92	19.536
344.28	19.609
344.65	20.853
345.01	19.423
345.37	19.751
345.73	19.018
346.10	20.203
346.46	19.620
346.82	19.251
347.19	19.633
347.55	19.196
347.91	19.614
348.27	19.879
348.63	20.183
349.00	19.239
349.36	19.777
349.72	19.048
350.08	20.282
350.45	19.163
350.81	19.608
351.17	18.571
351.53	20.167
351.89	18.527
352.26	19.552
352.62	17.836
352.98	18.550
353.34	18.745
353.70	20.108
354.07	18.405
354.43	18.983
354.79	19.073
355.15	18.543
355.51	20.102
355.87	19.222
356.24	18.403
356.60	18.625
356.96	19.496
357.32	18.959
357.68	18.521
358.04	18.862
358.40	17.910
358.77	19.006
359.13	17.725
359.49	17.323
359.85	18.637
360.21	19.225
360.57	18.234
360.93	18.265
361.29	18.947
361.66	18.465
362.02	19.485
362.38	18.552
362.74	18.785
363.10	19.257
363.46	19.252
363.82	18.537
364.18	18.227
364.54	18.188
364.90	18.997
365.26	18.138
365.62	19.067
365.98	17.835
366.35	18.188
366.71	18.231
367.07	19.350
367.43	18.253
367.79	18.182
368.15	19.197
368.51	18.133
368.87	19.073
369.23	17.267
369.59	17.418
369.95	17.918
370.31	18.501
370.67	17.813
371.03	17.105
371.39	17.193
371.75	17.538
372.11	18.225
372.47	17.874
372.83	18.455
373.19	18.212
373.55	17.683
373.91	16.428
374.27	17.335
374.63	17.118
374.99	18.302
375.35	18.247
375.71	18.194
376.07	18.657
376.42	17.758
376.78	17.651
377.14	17.405
377.50	17.647
377.86	18.842
378.22	17.605
378.58	18.312
378.94	18.310
379.30	18.161
379.66	17.813
380.02	17.946
380.38	18.203
380.74	18.648
381.09	18.002
381.45	18.239
381.81	18.970
382.17	17.637
382.53	18.480
382.89	17.889
383.25	18.113
383.61	17.940
383.97	18.021
384.32	18.301
384.68	16.531
385.04	17.814
385.40	18.798
385.76	17.819
386.12	17.415
386.48	18.706
386.83	18.117
387.19	17.845
387.55	16.667
387.91	17.580
388.27	17.436
388.62	17.698
388.98	17.315
389.34	17.266
389.70	17.897
390.06	17.880
390.42	17.169
390.77	18.663
391.13	16.843
391.49	18.539
391.85	16.364
392.20	17.853
392.56	18.252
392.92	19.193
393.28	17.910
393.64	17.709
393.99	18.361
394.35	18.516
394.71	17.665
395.07	16.946
395.42	17.761
395.78	17.672
396.14	18.538
396.50	17.102
396.85	17.174
397.21	17.396
397.57	18.433
397.92	17.526
398.28	17.436
398.64	17.162
399.00	16.702
399.35	17.801
399.71	17.880
400.07	17.294
400.42	17.753
400.78	17.593
401.14	17.245
401.49	17.396
401.85	17.093
402.21	17.034
402.57	18.016
402.92	17.612
403.28	16.686
403.63	16.885
403.99	17.637
404.35	17.681
404.70	17.337
405.06	17.554
405.42	17.389
405.77	17.721
406.13	17.666
406.49	17.173
406.84	18.283
407.20	17.552
407.55	16.111
407.91	16.782
408.27	17.432
408.62	17.161
408.98	17.528
409.34	16.305
409.69	16.378
410.05	17.057
410.40	17.691
410.76	16.826
411.11	17.183
411.47	17.690
411.83	17.166
412.18	17.711
412.54	16.953
412.89	17.637
413.25	16.479
413.60	16.829
413.96	17.075
414.31	16.431
414.67	17.829
415.03	16.862
415.38	17.087
415.74	17.288
416.09	16.780
416.45	16.281
416.80	17.075
417.16	16.794
417.51	16.936
417.87	17.351
418.22	17.365
418.58	16.853
418.93	16.531
419.29	16.153
419.64	16.026
420.00	16.795
420.35	17.294
420.71	16.255
421.06	16.676
421.42	17.431
421.77	16.801
422.12	17.125
422.48	16.487
422.83	17.579
423.19	15.756
423.54	17.035
423.90	15.792
424.25	17.387
424.61	16.131
424.96	16.749
425.31	16.507
425.67	17.123
426.02	16.989
426.38	16.418
426.73	16.574
427.09	17.013
427.44	16.821
427.79	16.307
428.15	15.753
428.50	16.067
428.85	16.590
429.21	17.819
429.56	16.041
429.92	16.069
430.27	16.578
430.62	16.805
430.98	16.281
431.33	16.129
431.68	16.667
432.04	16.861
432.39	16.658
432.74	16.153
433.10	16.549
433.45	16.165
433.80	17.167
434.16	17.355
434.51	16.855
434.86	16.667
435.22	17.481
435.57	17.276
435.92	16.583
436.28	15.245
436.63	16.931
436.98	15.888
437.34	16.967
437.69	16.070
438.04	15.918
438.39	16.255
438.75	16.768
439.10	17.336
439.45	16.266
439.81	16.836
440.16	15.710
440.51	16.555
440.86	15.731
441.22	16.452
441.57	15.985
441.92	16.440
442.27	16.566
442.63	16.195
442.98	16.756
443.33	15.886
443.68	16.799
444.03	17.074
444.39	17.013
444.74	17.458
445.09	16.067
445.44	16.860
445.79	16.427
446.15	17.061
446.50	16.331
446.85	16.391
447.20	16.489
447.55	16.579
447.91	16.073
448.26	16.279
448.61	15.887
448.96	17.221
449.31	16.013
449.66	15.850
450.02	16.561
450.37	16.516
450.72	16.254
451.07	16.515
451.42	16.118
451.77	16.398
452.12	17.494
452.47	15.627
452.83	16.441
453.18	15.937
453.53	16.083
453.88	15.737
454.23	16.610
454.58	15.786
454.93	15.534
455.28	16.014
455.63	16.543
455.98	15.922
456.34	16.137
456.69	15.285
457.04	15.603
457.39	15.909
457.74	17.226
458.09	15.980
458.44	16.272
458.79	15.884
459.14	16.413
459.49	16.695
459.84	16.055
460.19	16.047
460.54	16.014
460.89	16.623
461.24	16.322
461.59	16.602
461.94	15.573
462.29	16.237
462.64	15.932
462.99	15.694
463.34	16.937
463.69	15.768
464.04	16.120
464.39	15.919
464.74	16.078
465.09	14.937
465.44	16.094
465.79	16.023
466.14	15.633
466.49	16.421
466.84	16.474
467.19	15.954
467.54	14.982
467.89	16.149
468.24	16.288
468.59	15.576
468.94	15.501
469.29	14.997
469.64	15.194
469.99	16.189
470.34	16.027
470.68	16.336
471.03	15.717
471.38	14.977
471.73	15.410
472.08	16.053
472.43	15.653
472.78	15.743
473.13	15.613
473.48	15.106
473.83	15.554
474.17	15.944
474.52	14.973
474.87	15.836
475.22	15.549
475.57	15.680
475.92	15.331
476.27	16.187
476.61	16.251
476.96	14.651
477.31	15.396
477.66	16.946
478.01	15.557
478.36	15.155
478.70	15.369
479.05	15.951
479.40	15.350
479.75	16.138
480.10	15.680
480.45	14.768
480.79	15.329
481.14	15.487
481.49	15.584
481.84	15.535
482.19	15.656
482.53	16.441
482.88	15.729
483.23	15.696
483.58	15.197
483.92	14.938
484.27	15.665
484.62	15.470
484.97	15.474
485.31	15.663
485.66	14.718
486.01	14.829
486.36	15.353
486.70	16.602
487.05	17.373
487.40	17.599
487.75	17.888
488.09	17.272
488.44	17.047
488.79	16.358
489.13	16.039
489.48	15.223
489.83	15.453
490.17	14.621
490.52	15.805
490.87	15.440
491.22	15.338
491.56	15.316
491.91	14.871
492.26	15.102
492.60	15.435
492.95	15.445
493.30	15.240
493.64	14.717
493.99	15.132
494.34	15.287
494.68	14.946
495.03	15.507
495.37	14.869
495.72	14.830
496.07	14.812
496.41	14.672
496.76	15.304
497.11	14.947
497.45	14.717
497.80	15.371
498.14	15.238
498.49	15.257
498.84	14.945
499.18	15.025
499.53	15.022
499.87	15.516
500.22	14.426
500.56	15.115
500.91	14.783
501.26	15.636
501.60	14.848
501.95	15.371
502.29	14.963
502.64	15.129
502.98	14.840
503.33	14.903
503.67	14.871
504.02	15.499
504.36	15.103
504.71	15.158
505.06	15.280
505.40	15.128
505.75	14.845
506.09	15.101
506.44	15.367
506.78	16.101
507.13	15.168
507.47	15.775
507.82	15.152
508.16	15.296
508.51	14.299
508.85	15.021
509.19	14.827
509.54	15.322
509.88	15.056
510.23	15.444
510.57	15.370
510.92	15.094
511.26	14.622
511.61	14.727
511.95	14.934
512.30	15.017
512.64	15.092
512.98	14.357
513.33	15.373
513.67	14.839
514.02	14.921
514.36	14.629
514.70	14.323
515.05	15.276
515.39	14.751
515.74	15.376
516.08	15.108
516.42	14.390
516.77	14.826
517.11	14.905
517.46	14.528
517.80	14.698
518.14	15.288
518.49	14.100
518.83	14.795
519.17	14.970
519.52	14.780
519.86	15.839
520.20	15.122
520.55	14.458
520.89	14.752
521.23	15.466
521.58	14.802
521.92	14.391
522.26	13.975
522.61	14.583
522.95	14.533
523.29	15.000
523.64	14.574
523.98	15.174
524.32	14.842
524.66	14.855
525.01	14.892
525.35	14.704
525.69	14.907
526.04	14.868
526.38	15.000
526.72	14.187
527.06	14.604
527.41	15.394
527.75	14.846
528.09	14.758
528.43	15.394
528.78	14.740
529.12	14.736
529.46	14.559
529.80	14.188
530.15	15.362
530.49	14.116
530.83	15.289
531.17	14.815
531.51	14.681
531.86	15.445
532.20	15.183
532.54	14.662
532.88	15.455
533.22	14.555
533.57	15.695
533.91	14.983
534.25	15.150
534.59	15.287
534.93	14.997
535.27	15.380
535.62	15.520
535.96	14.991
536.30	14.924
536.64	15.315
536.98	15.683
537.32	15.432
537.66	15.908
538.01	14.683
538.35	14.738
538.69	15.024
539.03	15.389
539.37	15.018
539.71	16.156
540.05	15.707
540.39	14.914
540.73	15.301
541.07	15.267
541.42	15.357
541.76	15.184
542.10	15.078
542.44	15.225
542.78	15.146
543.12	15.554
543.46	14.896
543.80	14.089
544.14	15.440
544.48	15.780
544.82	16.397
545.16	14.908
545.50	14.380
545.84	15.370
546.18	16.049
546.52	15.032
546.86	15.849
547.20	15.204
547.54	14.419
547.88	15.853
548.22	14.561
548.56	15.448
548.90	15.284
549.24	15.198
549.58	15.079
549.92	14.732
550.26	16.246
550.60	15.763
550.94	14.812
551.28	14.785
551.62	15.499
551.96	14.369
552.30	15.488
552.64	15.059
552.98	15.284
553.32	16.334
553.66	15.048
554.00	16.204
554.34	14.801
554.68	15.365
555.02	15.572
555.36	15.450
555.69	13.645
556.03	14.943
556.37	16.646
556.71	15.346
557.05	15.719
557.39	14.930
557.73	14.663
558.07	14.305
558.41	15.017
558.75	14.807
559.08	15.449
559.42	14.883
559.76	16.214
560.10	15.606
560.44	14.380
560.78	15.062
561.12	15.209
561.45	16.302
561.79	14.530
562.13	15.835
562.47	14.488
562.81	14.494
563.15	15.972
563.48	15.538
563.82	15.115
564.16	15.809
564.50	15.673
564.84	15.516
565.17	15.176
565.51	15.362
565.85	15.618
566.19	15.783
566.52	14.745
566.86	15.224
567.20	15.715
567.54	15.826
567.88	15.749
568.21	16.206
568.55	16.835
568.89	16.568
569.23	15.927
569.56	16.100
569.90	16.429
570.24	16.290
570.57	16.453
570.91	16.565
571.25	16.488
571.59	16.977
571.92	17.084
572.26	17.152
572.60	16.790
572.93	17.284
573.27	17.252
573.61	17.205
573.95	17.213
574.28	17.169
574.62	17.758
574.96	16.740
575.29	16.854
575.63	17.279
575.97	17.749
576.30	17.740
576.64	17.013
576.98	17.403
577.31	17.455
577.65	17.623
577.98	17.206
578.32	17.227
578.66	17.622
578.99	17.776
579.33	17.852
579.67	17.611
580.00	17.487
580.34	17.779
580.67	17.498
581.01	17.352
581.35	17.319
581.68	17.356
582.02	16.971
582.35	17.889
582.69	17.824
583.02	18.221
583.36	18.525
583.70	17.860
584.03	17.831
584.37	18.070
584.70	17.042
585.04	17.136
585.37	17.344
585.71	17.260
586.04	17.503
586.38	17.456
586.72	17.172
587.05	17.447
587.39	17.178
587.72	17.584
588.06	17.868
588.39	17.476
588.73	17.196
589.06	17.805
589.40	17.394
589.73	17.674
590.07	17.540
590.40	17.410
590.73	17.321
591.07	17.386
591.40	16.524
591.74	16.932
592.07	17.377
592.41	16.640
592.74	16.507
593.08	16.752
593.41	17.206
593.75	16.897
594.08	17.237
594.41	17.276
594.75	16.871
595.08	16.824
595.42	17.013
595.75	17.501
596.09	17.655
596.42	17.556
596.75	17.985
597.09	17.131
597.42	16.528
597.75	17.327
598.09	17.381
598.42	17.290
598.76	16.699
599.09	16.732
599.42	16.225
599.76	17.035
600.09	17.484
600.42	16.984
600.76	16.942
601.09	16.694
601.42	17.061
601.76	16.931
602.09	17.655
602.42	16.867
602.76	17.196
603.09	17.474
603.42	16.908
603.76	16.984
604.09	17.708
604.42	17.064
604.76	16.324
605.09	16.833
605.42	17.305
605.75	17.385
606.09	16.349
606.42	16.819
606.75	16.604
607.09	16.321
607.42	16.455
607.75	17.311
608.08	16.851
608.42	16.848
608.75	18.076
609.08	16.426
609.41	16.189
609.75	17.098
610.08	17.238
610.41	17.120
610.74	16.807
611.07	16.385
611.41	17.085
611.74	17.413
612.07	16.877
612.40	16.445
612.73	16.919
613.07	16.528
613.40	16.699
613.73	16.129
614.06	16.487
614.39	16.327
614.72	15.866
615.06	16.506
615.39	16.240
615.72	16.351
616.05	16.513
616.38	16.953
616.71	17.346
617.05	16.028
617.38	17.282
617.71	17.063
618.04	16.892
618.37	16.612
618.70	17.251
619.03	15.950
619.36	16.769
619.69	15.567
620.03	16.321
620.36	16.319
620.69	16.533
621.02	16.010
621.35	16.328
621.68	17.281
622.01	15.730
622.34	15.132
622.67	16.632
623.00	14.710
623.33	15.660
623.66	16.148
623.99	15.800
624.32	16.569
624.65	15.894
624.99	15.735
625.32	16.917
625.65	15.779
625.98	15.661
626.31	15.308
626.64	14.872
626.97	15.454
627.30	15.718
627.63	16.054
627.96	16.216
628.29	15.642
628.62	15.365
628.95	15.513
629.28	14.698
629.61	14.646
629.94	14.895
630.26	15.508
630.59	14.940
630.92	14.113
631.25	16.369
631.58	15.066
631.91	14.714
632.24	14.986
