SpectraSuite Data File
++++++++++++++++++++++++++++++++++++
Date: Thu May 14 14:50:25 PDT 2015
User: schluterlab
Dark Spectrum Present: Yes
Reference Spectrum Present: Yes
Number of Sampled Component Spectra: 1
Spectrometers: USB2E3373
Integration Time (usec): 3000 (USB2E3373)
Spectra Averaged: 3 (USB2E3373)
Boxcar Smoothing: 0 (USB2E3373)
Correct for Electrical Dark: No (USB2E3373)
Strobe/Lamp Enabled: No (USB2E3373)
Correct for Detector Non-linearity: No (USB2E3373)
Correct for Stray Light: No (USB2E3373)
Number of Pixels in Processed Spectrum: 2048
>>>>>Begin Processed Spectral Data<<<<<
178.53	0.000
178.91	100.000
179.29	-2000.000
179.67	-1300.000
180.04	142.857
180.42	90.000
180.80	260.000
181.18	-1400.000
181.56	200.000
181.94	375.000
182.31	-50.000
182.69	100.000
183.07	150.000
183.45	175.000
183.83	-150.000
184.20	-166.667
184.58	1200.000
184.96	-325.000
185.34	-66.667
185.72	-140.000
186.09	155.556
186.47	450.000
186.85	240.000
187.23	-88.889
187.61	-1000.000
187.98	280.000
188.36	225.000
188.74	-125.000
189.12	166.667
189.49	68.750
189.87	-75.000
190.25	-44.444
190.63	-40.000
191.00	-44.444
191.38	0.000
191.76	-100.000
192.14	16.667
192.51	350.000
192.89	-33.333
193.27	0.000
193.65	-57.143
194.02	-800.000
194.40	-71.429
194.78	57.143
195.15	0.000
195.53	54.545
195.91	0.000
196.29	-350.000
196.66	15.385
197.04	-900.000
197.42	-114.286
197.79	-250.000
198.17	-100.000
198.55	0.000
198.92	0.000
199.30	-125.000
199.68	0.000
200.05	-50.000
200.43	-700.000
200.81	185.714
201.18	0.000
201.56	244.444
201.94	0.000
202.31	433.333
202.69	-22.222
203.07	-600.000
203.44	-33.333
203.82	-175.000
204.19	58.333
204.57	33.333
204.95	-162.500
205.32	-700.000
205.70	150.000
206.08	-33.333
206.45	-133.333
206.83	300.000
207.20	133.333
207.58	-220.000
207.96	-116.667
208.33	50.000
208.71	83.333
209.08	-50.000
209.46	0.000
209.84	216.667
210.21	200.000
210.59	200.000
210.96	366.667
211.34	-125.000
211.71	-112.500
212.09	-700.000
212.46	0.000
212.84	600.000
213.22	-40.000
213.59	-100.000
213.97	10.000
214.34	-66.667
214.72	133.333
215.09	-75.000
215.47	0.000
215.84	185.714
216.22	550.000
216.59	-100.000
216.97	20.000
217.34	-225.000
217.72	25.000
218.09	-225.000
218.47	-150.000
218.84	0.000
219.22	-60.000
219.59	5.882
219.97	10.000
220.34	600.000
220.72	11.111
221.09	53.846
221.47	233.333
221.84	-70.000
222.22	-214.286
222.59	0.000
222.97	50.000
223.34	0.000
223.72	-800.000
224.09	-75.000
224.46	-375.000
224.84	40.000
225.21	-114.286
225.59	-275.000
225.96	25.000
226.34	-7.692
226.71	150.000
227.08	-50.000
227.46	-53.333
227.83	125.000
228.21	31.579
228.58	187.500
228.95	450.000
229.33	8.333
229.70	-20.000
230.08	73.684
230.45	70.000
230.82	33.333
231.20	-7.143
231.57	50.000
231.95	-9.091
232.32	-27.273
232.69	30.000
233.07	-50.000
233.44	11.765
233.81	0.000
234.19	16.667
234.56	9.091
234.93	41.379
235.31	31.579
235.68	55.556
236.05	-35.000
236.43	46.154
236.80	80.000
237.17	14.815
237.55	-3.030
237.92	20.000
238.29	61.290
238.67	22.727
239.04	55.556
239.41	19.048
239.79	26.087
240.16	29.630
240.53	23.913
240.91	-1.961
241.28	11.475
241.65	50.746
242.02	40.541
242.40	20.000
242.77	29.333
243.14	29.268
243.51	28.947
243.89	21.795
244.26	41.584
244.63	43.137
245.00	32.710
245.38	23.684
245.75	26.549
246.12	34.921
246.49	28.682
246.87	40.714
247.24	32.450
247.61	34.211
247.98	32.886
248.36	35.802
248.73	40.491
249.10	31.148
249.47	33.333
249.84	39.267
250.22	33.679
250.59	36.111
250.96	34.091
251.33	36.735
251.70	35.897
252.08	32.083
252.45	37.295
252.82	38.843
253.19	33.594
253.56	37.262
253.94	33.462
254.31	35.985
254.68	39.161
255.05	35.505
255.42	33.333
255.79	33.010
256.16	36.093
256.54	35.099
256.91	40.984
257.28	35.410
257.65	38.535
258.02	35.398
258.39	35.043
258.76	40.367
259.14	39.655
259.51	39.481
259.88	38.527
260.25	35.833
260.62	37.808
260.99	42.077
261.36	38.874
261.73	39.788
262.10	41.484
262.47	38.338
262.85	38.636
263.22	33.506
263.59	34.474
263.96	37.852
264.33	35.038
264.70	35.802
265.07	38.425
265.44	40.363
265.81	35.185
266.18	38.776
266.55	37.277
266.92	34.852
267.29	38.293
267.66	39.246
268.03	38.646
268.40	36.326
268.77	38.269
269.14	34.361
269.51	37.939
269.88	37.295
270.25	35.010
270.62	37.975
270.99	40.000
271.36	37.228
271.73	39.489
272.10	36.473
272.47	39.078
272.84	35.341
273.21	36.473
273.58	36.290
273.95	35.385
274.32	35.361
274.69	36.944
275.06	35.165
275.43	34.196
275.80	36.861
276.17	33.519
276.54	37.500
276.91	36.136
277.28	37.251
277.65	36.445
278.02	36.765
278.39	36.775
278.76	36.204
279.13	36.170
279.50	35.567
279.87	36.494
280.23	32.218
280.60	35.424
280.97	34.704
281.34	36.842
281.71	38.071
282.08	32.558
282.45	35.516
282.82	34.851
283.19	32.795
283.56	36.721
283.92	36.036
284.29	38.231
284.66	36.617
285.03	32.853
285.40	33.385
285.77	36.533
286.14	36.183
286.51	34.247
286.87	33.017
287.24	33.584
287.61	33.782
287.98	33.837
288.35	31.509
288.72	33.728
289.08	33.968
289.45	32.988
289.82	32.831
290.19	32.471
290.56	34.085
290.93	33.524
291.29	32.231
291.66	33.471
292.03	31.072
292.40	31.837
292.77	28.841
293.13	31.258
293.50	29.041
293.87	30.470
294.24	31.867
294.60	29.330
294.97	27.114
295.34	29.706
295.71	28.752
296.08	27.907
296.44	29.289
296.81	27.284
297.18	28.643
297.55	29.127
297.91	28.470
298.28	27.844
298.65	26.159
299.02	27.155
299.38	28.032
299.75	26.636
300.12	27.315
300.48	27.765
300.85	26.772
301.22	27.293
301.59	27.055
301.95	27.684
302.32	27.444
302.69	27.382
303.05	26.986
303.42	27.384
303.79	26.771
304.15	27.445
304.52	27.061
304.89	25.969
305.25	25.673
305.62	26.437
305.99	26.598
306.35	25.806
306.72	26.577
307.09	26.193
307.45	27.019
307.82	25.429
308.19	24.723
308.55	26.230
308.92	25.122
309.29	25.575
309.65	26.316
310.02	24.950
310.38	25.098
310.75	26.893
311.12	27.325
311.48	26.393
311.85	27.445
312.22	26.660
312.58	26.667
312.95	26.099
313.31	26.378
313.68	26.557
314.05	27.552
314.41	28.233
314.78	27.520
315.14	29.038
315.51	27.886
315.87	28.353
316.24	30.046
316.61	29.663
316.97	28.326
317.34	28.483
317.70	31.179
318.07	30.864
318.43	30.782
318.80	30.435
319.16	30.558
319.53	29.049
319.89	30.149
320.26	32.651
320.62	31.294
320.99	33.426
321.35	31.701
321.72	34.419
322.08	33.904
322.45	33.966
322.81	35.560
323.18	36.106
323.54	35.431
323.91	38.167
324.27	36.575
324.64	37.280
325.00	37.645
325.37	39.476
325.73	40.248
326.10	41.525
326.46	43.160
326.83	43.955
327.19	43.858
327.56	44.664
327.92	45.004
328.29	45.645
328.65	47.822
329.01	48.562
329.38	49.452
329.74	49.229
330.11	49.315
330.47	49.452
330.84	50.732
331.20	52.500
331.56	52.513
331.93	52.218
332.29	54.407
332.66	52.907
333.02	51.508
333.38	54.530
333.75	54.293
334.11	56.214
334.48	55.611
334.84	57.179
335.20	57.431
335.57	57.083
335.93	55.372
336.29	55.491
336.66	58.116
337.02	57.609
337.38	58.163
337.75	55.702
338.11	59.041
338.47	57.899
338.84	58.545
339.20	56.613
339.56	56.672
339.93	58.292
340.29	57.729
340.65	58.313
341.02	57.143
341.38	59.095
341.74	58.354
342.11	59.131
342.47	58.618
342.83	59.823
343.20	58.708
343.56	60.465
343.92	59.247
344.28	58.594
344.65	58.140
345.01	59.282
345.37	60.420
345.73	58.379
346.10	60.374
346.46	59.177
346.82	58.502
347.19	59.740
347.55	58.877
347.91	59.287
348.27	59.408
348.63	59.406
349.00	56.898
349.36	58.959
349.72	57.887
350.08	58.172
350.45	59.620
350.81	58.824
351.17	58.947
351.53	60.652
351.89	59.757
352.26	59.776
352.62	60.075
352.98	60.305
353.34	59.447
353.70	61.787
354.07	59.538
354.43	60.668
354.79	60.733
355.15	60.338
355.51	60.673
355.87	59.088
356.24	61.673
356.60	59.276
356.96	61.675
357.32	59.851
357.68	61.054
358.04	60.853
358.40	60.522
358.77	61.769
359.13	62.038
359.49	61.115
359.85	61.494
360.21	61.191
360.57	59.368
360.93	61.213
361.29	61.825
361.66	61.912
362.02	63.744
362.38	60.787
362.74	63.128
363.10	62.105
363.46	63.019
363.82	62.358
364.18	63.265
364.54	62.379
364.90	62.475
365.26	63.655
365.62	61.800
365.98	63.172
366.35	62.953
366.71	64.286
367.07	62.652
367.43	62.443
367.79	64.167
368.15	64.682
368.51	64.141
368.87	62.704
369.23	63.533
369.59	64.481
369.95	64.300
370.31	65.969
370.67	63.893
371.03	65.305
371.39	63.667
371.75	66.437
372.11	65.379
372.47	65.674
372.83	64.594
373.19	65.510
373.55	65.244
373.91	64.622
374.27	65.265
374.63	68.200
374.99	64.987
375.35	66.818
375.71	66.968
376.07	67.786
376.42	67.003
376.78	65.879
377.14	65.876
377.50	68.817
377.86	67.611
378.22	68.862
378.58	69.144
378.94	68.192
379.30	68.483
379.66	69.900
380.02	69.533
380.38	71.544
380.74	70.479
381.09	71.080
381.45	69.773
381.81	72.073
382.17	70.309
382.53	70.468
382.89	69.808
383.25	72.098
383.61	71.528
383.97	72.792
384.32	73.266
384.68	72.970
385.04	73.453
385.40	73.836
385.76	74.091
386.12	72.352
386.48	72.647
386.83	74.851
387.19	73.986
387.55	74.413
387.91	75.114
388.27	75.404
388.62	73.024
388.98	74.506
389.34	74.838
389.70	75.770
390.06	75.666
390.42	74.036
390.77	75.978
391.13	74.648
391.49	75.966
391.85	75.576
392.20	76.335
392.56	76.078
392.92	75.409
393.28	75.180
393.64	76.536
393.99	76.525
394.35	78.271
394.71	77.725
395.07	75.509
395.42	74.872
395.78	78.550
396.14	77.243
396.50	77.078
396.85	75.909
397.21	76.686
397.57	77.326
397.92	77.549
398.28	76.100
398.64	76.087
399.00	75.288
399.35	77.016
399.71	76.793
400.07	78.271
400.42	78.114
400.78	77.083
401.14	76.722
401.49	78.511
401.85	77.209
402.21	78.331
402.57	78.697
402.92	76.950
403.28	76.112
403.63	77.387
403.99	76.425
404.35	74.702
404.70	77.450
405.06	75.435
405.42	76.932
405.77	77.372
406.13	75.905
406.49	76.858
406.84	76.454
407.20	76.523
407.55	76.741
407.91	75.361
408.27	76.148
408.62	77.254
408.98	76.611
409.34	76.540
409.69	79.357
410.05	77.491
410.40	76.914
410.76	77.229
411.11	79.369
411.47	78.256
411.83	77.719
412.18	78.795
412.54	77.119
412.89	76.950
413.25	76.580
413.60	77.025
413.96	77.156
414.31	76.034
414.67	75.611
415.03	76.062
415.38	79.256
415.74	77.459
416.09	78.347
416.45	76.456
416.80	77.662
417.16	79.502
417.51	77.148
417.87	77.437
418.22	77.904
418.58	78.501
418.93	78.231
419.29	78.977
419.64	80.372
420.00	80.237
420.35	78.495
420.71	78.978
421.06	80.161
421.42	80.963
421.77	79.321
422.12	79.651
422.48	80.287
422.83	81.709
423.19	80.690
423.54	82.301
423.90	80.453
424.25	82.720
424.61	82.377
424.96	80.999
425.31	82.696
425.67	81.589
426.02	83.343
426.38	82.664
426.73	81.920
427.09	84.256
427.44	82.523
427.79	84.632
428.15	83.162
428.50	84.888
428.85	82.721
429.21	84.947
429.56	84.353
429.92	84.619
430.27	85.349
430.62	85.344
430.98	86.030
431.33	85.533
431.68	85.632
432.04	87.303
432.39	87.038
432.74	85.616
433.10	87.453
433.45	87.625
433.80	86.105
434.16	87.655
434.51	88.438
434.86	89.522
435.22	89.532
435.57	89.328
435.92	88.536
436.28	90.899
436.63	90.934
436.98	87.815
437.34	89.064
437.69	90.204
438.04	88.789
438.39	89.316
438.75	90.481
439.10	90.592
439.45	90.106
439.81	89.209
440.16	89.115
440.51	91.360
440.86	90.828
441.22	89.764
441.57	91.509
441.92	90.786
442.27	92.273
442.63	92.101
442.98	91.302
443.33	92.898
443.68	91.824
444.03	93.180
444.39	92.464
444.74	91.782
445.09	91.536
445.44	92.993
445.79	94.061
446.15	93.525
446.50	92.403
446.85	92.315
447.20	93.182
447.55	93.149
447.91	93.246
448.26	92.812
448.61	93.783
448.96	96.459
449.31	92.259
449.66	93.355
450.02	93.249
450.37	93.980
450.72	94.456
451.07	93.679
451.42	94.396
451.77	92.107
452.12	94.865
452.47	93.642
452.83	94.651
453.18	92.820
453.53	93.395
453.88	92.987
454.23	96.949
454.58	94.719
454.93	92.718
455.28	95.846
455.63	93.803
455.98	94.860
456.34	96.231
456.69	95.650
457.04	96.158
457.39	94.512
457.74	95.749
458.09	93.959
458.44	96.282
458.79	95.152
459.14	96.120
459.49	96.548
459.84	95.750
460.19	95.225
460.54	96.366
460.89	97.512
461.24	95.000
461.59	95.905
461.94	93.554
462.29	97.984
462.64	94.991
462.99	94.978
463.34	96.431
463.69	94.725
464.04	95.164
464.39	95.740
464.74	94.812
465.09	97.347
465.44	96.835
465.79	95.769
466.14	94.789
466.49	95.368
466.84	96.970
467.19	96.532
467.54	94.183
467.89	95.632
468.24	95.125
468.59	93.631
468.94	96.096
469.29	96.341
469.64	95.550
469.99	95.730
470.34	96.411
470.68	96.309
471.03	97.577
471.38	96.664
471.73	96.554
472.08	97.081
472.43	95.545
472.78	96.662
473.13	97.155
473.48	96.798
473.83	96.518
474.17	96.483
474.52	98.256
474.87	95.903
475.22	95.380
475.57	96.210
475.92	96.565
476.27	96.699
476.61	95.275
476.96	95.985
477.31	96.238
477.66	97.639
478.01	96.543
478.36	94.766
478.70	96.749
479.05	97.853
479.40	97.680
479.75	95.677
480.10	95.500
480.45	96.399
480.79	96.916
481.14	96.369
481.49	97.910
481.84	95.866
482.19	96.387
482.53	96.808
482.88	98.051
483.23	97.110
483.58	95.066
483.92	96.011
484.27	96.020
484.62	95.503
484.97	95.801
485.31	95.671
485.66	91.898
486.01	93.333
486.36	95.867
486.70	99.663
487.05	101.466
487.40	98.026
487.75	96.209
488.09	97.464
488.44	93.927
488.79	94.806
489.13	93.736
489.48	95.417
489.83	94.125
490.17	93.925
490.52	95.156
490.87	95.135
491.22	96.794
491.56	95.904
491.91	94.679
492.26	96.668
492.60	95.453
492.95	96.402
493.30	97.266
493.64	96.189
493.99	95.789
494.34	95.557
494.68	96.403
495.03	95.595
495.37	97.870
495.72	95.238
496.07	95.574
496.41	95.538
496.76	95.913
497.11	98.429
497.45	96.288
497.80	96.179
498.14	95.238
498.49	96.507
498.84	96.069
499.18	96.896
499.53	95.740
499.87	96.264
500.22	95.859
500.56	95.771
500.91	95.561
501.26	95.500
501.60	95.846
501.95	94.789
502.29	96.753
502.64	95.759
502.98	95.772
503.33	94.600
503.67	94.156
504.02	96.410
504.36	96.783
504.71	97.060
505.06	95.134
505.40	95.384
505.75	95.492
506.09	95.718
506.44	97.725
506.78	95.780
507.13	94.560
507.47	96.352
507.82	95.170
508.16	95.841
508.51	93.530
508.85	96.552
509.19	96.637
509.54	96.638
509.88	95.192
510.23	95.969
510.57	98.792
510.92	94.920
511.26	94.468
511.61	93.964
511.95	95.412
512.30	96.406
512.64	94.953
512.98	94.447
513.33	95.010
513.67	96.124
514.02	95.708
514.36	96.982
514.70	96.875
515.05	95.203
515.39	96.325
515.74	95.917
516.08	94.665
516.42	95.761
516.77	97.687
517.11	94.791
517.46	96.076
517.80	94.976
518.14	95.865
518.49	95.662
518.83	94.731
519.17	94.615
519.52	94.392
519.86	94.456
520.20	95.740
520.55	93.483
520.89	94.257
521.23	94.137
521.58	96.441
521.92	95.127
522.26	94.101
522.61	94.676
522.95	96.078
523.29	95.575
523.64	96.020
523.98	96.577
524.32	96.160
524.66	96.244
525.01	93.771
525.35	95.003
525.69	94.664
526.04	94.145
526.38	95.575
526.72	93.253
527.06	95.484
527.41	94.577
527.75	96.081
528.09	92.503
528.43	92.481
528.78	94.913
529.12	94.897
529.46	93.592
529.80	95.423
530.15	94.957
530.49	95.433
530.83	94.097
531.17	93.130
531.51	92.058
531.86	94.591
532.20	94.390
532.54	93.836
532.88	95.515
533.22	91.750
533.57	92.614
533.91	93.042
534.25	93.273
534.59	95.920
534.93	93.265
535.27	94.141
535.62	95.168
535.96	94.131
536.30	93.772
536.64	94.535
536.98	93.050
537.32	93.827
537.66	94.323
538.01	92.568
538.35	92.692
538.69	94.471
539.03	94.605
539.37	92.462
539.71	93.453
540.05	92.506
540.39	93.765
540.73	92.289
541.07	93.501
541.42	91.613
541.76	92.705
542.10	92.943
542.44	92.753
542.78	93.917
543.12	91.478
543.46	91.697
543.80	90.887
544.14	93.058
544.48	93.026
544.82	93.656
545.16	93.441
545.50	93.529
545.84	92.713
546.18	93.704
546.52	91.338
546.86	92.579
547.20	93.766
547.54	92.447
547.88	92.345
548.22	93.158
548.56	92.627
548.90	94.507
549.24	92.827
549.58	95.016
549.92	92.219
550.26	92.880
550.60	92.725
550.94	93.920
551.28	91.419
551.62	94.272
551.96	91.003
552.30	92.543
552.64	93.030
552.98	94.885
553.32	95.691
553.66	93.955
554.00	94.136
554.34	93.758
554.68	92.059
555.02	92.050
555.36	95.135
555.69	91.480
556.03	93.127
556.37	94.180
556.71	93.532
557.05	93.163
557.39	93.696
557.73	93.725
558.07	93.377
558.41	93.688
558.75	94.456
559.08	95.059
559.42	94.170
559.76	91.316
560.10	92.431
560.44	92.348
560.78	93.062
561.12	95.567
561.45	95.742
561.79	92.979
562.13	94.393
562.47	92.047
562.81	93.861
563.15	93.245
563.48	93.163
563.82	93.289
564.16	93.701
564.50	92.968
564.84	91.209
565.17	92.647
565.51	91.887
565.85	95.249
566.19	92.972
566.52	94.383
566.86	92.869
567.20	92.333
567.54	95.592
567.88	93.323
568.21	95.158
568.55	94.820
568.89	94.417
569.23	93.747
569.56	95.662
569.90	93.407
570.24	94.435
570.57	94.099
570.91	93.141
571.25	92.508
571.59	93.014
571.92	92.671
572.26	92.245
572.60	92.847
572.93	90.760
573.27	92.638
573.61	91.371
573.95	91.648
574.28	91.264
574.62	91.905
574.96	91.156
575.29	91.232
575.63	91.083
575.97	90.707
576.30	90.155
576.64	91.028
576.98	91.481
577.31	91.481
577.65	92.097
577.98	91.190
578.32	90.973
578.66	90.746
578.99	91.112
579.33	91.641
579.67	91.432
580.00	90.200
580.34	90.292
580.67	90.688
581.01	91.000
581.35	90.395
581.68	90.790
582.02	91.238
582.35	92.864
582.69	92.662
583.02	92.375
583.36	91.703
583.70	92.297
584.03	90.737
584.37	90.669
584.70	91.076
585.04	91.281
585.37	91.008
585.71	90.831
586.04	91.700
586.38	91.736
586.72	91.752
587.05	91.660
587.39	92.795
587.72	93.852
588.06	92.481
588.39	91.934
588.73	91.429
589.06	93.736
589.40	94.161
589.73	92.834
590.07	92.275
590.40	93.137
590.73	92.718
591.07	92.628
591.40	92.574
591.74	92.687
592.07	93.423
592.41	91.956
592.74	92.084
593.08	92.994
593.41	95.305
593.75	93.563
594.08	94.638
594.41	94.359
594.75	92.693
595.08	93.069
595.42	93.799
595.75	92.347
596.09	94.070
596.42	93.372
596.75	94.018
597.09	93.939
597.42	92.292
597.75	91.807
598.09	92.381
598.42	93.325
598.76	93.275
599.09	93.628
599.42	92.692
599.76	93.463
600.09	92.893
600.42	93.327
600.76	93.428
601.09	92.134
601.42	92.276
601.76	92.966
602.09	92.352
602.42	91.458
602.76	92.030
603.09	94.126
603.42	94.364
603.76	92.530
604.09	93.187
604.42	93.541
604.76	92.732
605.09	93.059
605.42	92.464
605.75	92.077
606.09	92.870
606.42	91.390
606.75	91.792
607.09	92.243
607.42	92.293
607.75	92.810
608.08	93.765
608.42	92.422
608.75	93.076
609.08	92.572
609.41	92.369
609.75	93.080
610.08	93.096
610.41	92.523
610.74	92.689
611.07	92.540
611.41	93.498
611.74	94.365
612.07	93.502
612.40	93.441
612.73	94.279
613.07	93.007
613.40	93.359
613.73	92.730
614.06	93.032
614.39	93.537
614.72	91.606
615.06	91.963
615.39	92.025
615.72	92.844
616.05	94.755
616.38	94.248
616.71	92.842
617.05	91.587
617.38	92.188
617.71	93.143
618.04	94.064
618.37	93.224
618.70	94.570
619.03	93.369
619.36	94.636
619.69	92.441
620.03	92.467
620.36	91.656
620.69	93.337
621.02	94.751
621.35	96.226
621.68	95.879
622.01	93.096
622.34	93.096
622.67	94.845
623.00	93.185
623.33	95.421
623.66	94.034
623.99	94.273
624.32	93.762
624.65	94.595
624.99	95.579
625.32	95.232
625.65	95.415
625.98	92.814
626.31	95.110
626.64	91.868
626.97	94.674
627.30	96.128
627.63	93.698
627.96	95.120
628.29	92.763
628.62	92.611
628.95	96.056
629.28	94.817
629.61	95.118
629.94	95.397
630.26	94.915
630.59	93.523
630.92	94.632
631.25	94.544
631.58	98.399
631.91	95.876
632.24	97.695
632.57	95.161
632.90	97.793
633.23	97.041
633.56	95.204
633.89	95.041
