SpectraSuite Data File
++++++++++++++++++++++++++++++++++++
Date: Thu May 14 15:24:54 PDT 2015
User: schluterlab
Dark Spectrum Present: Yes
Reference Spectrum Present: Yes
Number of Sampled Component Spectra: 1
Spectrometers: USB2E3373
Integration Time (usec): 3000 (USB2E3373)
Spectra Averaged: 3 (USB2E3373)
Boxcar Smoothing: 0 (USB2E3373)
Correct for Electrical Dark: No (USB2E3373)
Strobe/Lamp Enabled: No (USB2E3373)
Correct for Detector Non-linearity: No (USB2E3373)
Correct for Stray Light: No (USB2E3373)
Number of Pixels in Processed Spectrum: 2048
>>>>>Begin Processed Spectral Data<<<<<
178.53	0.000
178.91	628.571
179.29	-5600.000
179.67	-5100.000
180.04	471.429
180.42	450.000
180.80	960.000
181.18	-5100.000
181.56	-5000.000
181.94	1250.000
182.31	-1275.000
182.69	1633.333
183.07	-2300.000
183.45	1300.000
183.83	-666.667
184.20	-1700.000
184.58	4700.000
184.96	-1150.000
185.34	-577.778
185.72	-820.000
186.09	722.222
186.47	2250.000
186.85	980.000
187.23	-477.778
187.61	-5700.000
187.98	1040.000
188.36	1175.000
188.74	-1075.000
189.12	-1533.333
189.49	-256.250
189.87	-687.500
190.25	-444.444
190.63	-940.000
191.00	-544.444
191.38	0.000
191.76	-1175.000
192.14	-816.667
192.51	2150.000
192.89	-650.000
193.27	0.000
193.65	-642.857
194.02	-6300.000
194.40	-600.000
194.78	685.714
195.15	0.000
195.53	-390.909
195.91	0.000
196.29	-1225.000
196.66	-307.692
197.04	-5400.000
197.42	-785.714
197.79	-2050.000
198.17	-675.000
198.55	-814.286
198.92	-477.778
199.30	-650.000
199.68	-345.455
200.05	-307.143
200.43	-2650.000
200.81	757.143
201.18	0.000
201.56	566.667
201.94	0.000
202.31	1666.667
202.69	-533.333
203.07	4300.000
203.44	-500.000
203.82	-1175.000
204.19	-375.000
204.57	-800.000
204.95	-687.500
205.32	-5600.000
205.70	1225.000
206.08	-833.333
206.45	-800.000
206.83	1160.000
207.20	-683.333
207.58	-1020.000
207.96	-733.333
208.33	-733.333
208.71	475.000
209.08	-783.333
209.46	0.000
209.84	1066.667
210.21	2400.000
210.59	2600.000
210.96	1433.333
211.34	-1050.000
211.71	-625.000
212.09	-4500.000
212.46	0.000
212.84	2500.000
213.22	-1020.000
213.59	-1225.000
213.97	-440.000
214.34	-1600.000
214.72	900.000
215.09	-1250.000
215.47	0.000
215.84	671.429
216.22	2550.000
216.59	-820.000
216.97	-880.000
217.34	-1325.000
217.72	-487.500
218.09	-1200.000
218.47	-1425.000
218.84	0.000
219.22	920.000
219.59	-294.118
219.97	-230.000
220.34	2800.000
220.72	-577.778
221.09	-292.308
221.47	-1533.333
221.84	-340.000
222.22	-614.286
222.59	0.000
222.97	-625.000
223.34	-900.000
223.72	-4300.000
224.09	-1300.000
224.46	-1250.000
224.84	-720.000
225.21	-571.429
225.59	-1075.000
225.96	-1400.000
226.34	-142.308
226.71	950.000
227.08	-1950.000
227.46	-280.000
227.83	-1175.000
228.21	-205.263
228.58	662.500
228.95	2250.000
229.33	-316.667
229.70	-440.000
230.08	-173.684
230.45	560.000
230.82	-1600.000
231.20	-371.429
231.57	-375.000
231.95	-436.364
232.32	-409.091
232.69	-195.000
233.07	-1200.000
233.44	-264.706
233.81	-540.000
234.19	-233.333
234.56	-190.909
234.93	-103.448
235.31	-226.316
235.68	-255.556
236.05	-280.000
236.43	-157.692
236.80	-144.000
237.17	-166.667
237.55	-148.485
237.92	-480.000
238.29	-122.581
238.67	-88.636
239.04	-119.444
239.41	-116.667
239.79	-93.478
240.16	-61.111
240.53	-91.304
240.91	-96.078
241.28	-80.328
241.65	-62.687
242.02	-56.757
242.40	-70.769
242.77	-60.000
243.14	-65.854
243.51	-63.158
243.89	-52.564
244.26	-36.634
244.63	-31.373
245.00	-35.514
245.38	-36.842
245.75	-40.708
246.12	-23.016
246.49	-30.233
246.87	-25.714
247.24	-21.854
247.61	-24.342
247.98	-22.148
248.36	-28.395
248.73	-22.086
249.10	-18.579
249.47	-12.438
249.84	-14.660
250.22	-25.389
250.59	-24.444
250.96	-12.273
251.33	-22.449
251.70	-11.111
252.08	-12.083
252.45	-13.934
252.82	-12.397
253.19	-8.984
253.56	-10.646
253.94	-12.308
254.31	-12.500
254.68	-5.944
255.05	-2.280
255.42	-9.524
255.79	-8.091
256.16	-11.921
256.54	-12.914
256.91	-8.525
257.28	-10.164
257.65	-11.465
258.02	-8.555
258.39	-3.989
258.76	-2.752
259.14	-3.448
259.51	-5.476
259.88	-7.365
260.25	-6.389
260.62	-4.932
260.99	-1.639
261.36	-2.949
261.73	-6.101
262.10	-7.143
262.47	-6.702
262.85	-3.535
263.22	-3.896
263.59	-8.684
263.96	-3.325
264.33	-7.673
264.70	-3.704
265.07	-2.864
265.44	-2.268
265.81	-6.019
266.18	-3.628
266.55	-2.679
266.92	-3.417
267.29	-1.094
267.66	-2.217
268.03	-2.838
268.40	-3.549
268.77	-4.784
269.14	-3.304
269.51	-1.974
269.88	-0.820
270.25	0.402
270.62	-3.797
270.99	-1.212
271.36	-0.396
271.73	-1.768
272.10	-1.403
272.47	-2.605
272.84	-2.410
273.21	-0.401
273.58	0.605
273.95	-1.923
274.32	-3.232
274.69	-3.095
275.06	-1.282
275.43	-1.479
275.80	0.529
276.17	-4.259
276.54	-3.731
276.91	-0.358
277.28	-3.255
277.65	-2.334
278.02	-1.654
278.39	-2.717
278.76	-2.285
279.13	-0.887
279.50	-0.344
279.87	-1.073
280.23	-3.873
280.60	-1.017
280.97	-1.480
281.34	-3.905
281.71	-0.338
282.08	-0.498
282.45	-0.982
282.82	-0.471
283.19	-3.393
283.56	-0.820
283.92	1.051
284.29	1.106
284.66	0.000
285.03	-2.724
285.40	0.309
285.77	0.774
286.14	0.153
286.51	-0.457
286.87	-2.844
287.24	0.301
287.61	-0.448
287.98	-1.662
288.35	0.000
288.72	-1.331
289.08	-0.586
289.45	-1.479
289.82	-0.452
290.19	0.431
290.56	0.986
290.93	-0.856
291.29	0.000
291.66	-1.928
292.03	-3.121
292.40	1.088
292.77	-0.135
293.13	0.677
293.50	0.263
293.87	0.403
294.24	0.667
294.60	0.632
294.97	-1.611
295.34	1.793
295.71	-2.270
296.08	0.000
296.44	-0.245
296.81	0.122
297.18	0.249
297.55	0.000
297.91	-0.119
298.28	-0.592
298.65	-0.357
299.02	0.708
299.38	1.487
299.75	0.701
300.12	-0.231
300.48	-0.230
300.85	1.012
301.22	0.559
301.59	-0.457
301.95	-0.339
302.32	1.111
302.69	0.110
303.05	0.544
303.42	0.998
303.79	1.354
304.15	1.052
304.52	-0.211
304.89	0.628
305.25	1.035
305.62	0.104
305.99	0.103
306.35	-0.202
306.72	0.827
307.09	0.102
307.45	1.139
307.82	0.605
308.19	1.009
308.55	2.218
308.92	0.195
309.29	1.341
309.65	0.390
310.02	0.990
310.38	-0.295
310.75	0.874
311.12	1.246
311.48	0.391
311.85	1.330
312.22	0.759
312.58	1.315
312.95	0.000
313.31	1.716
313.68	2.289
314.05	2.620
314.41	1.730
314.78	0.817
315.14	1.633
315.51	1.662
315.87	1.980
316.24	1.644
316.61	1.687
316.97	0.000
317.34	0.353
317.70	2.795
318.07	1.235
318.43	1.616
318.80	2.676
319.16	1.288
319.53	-0.086
319.89	0.263
320.26	1.601
320.62	1.862
320.99	1.200
321.35	1.479
321.72	1.302
322.08	1.082
322.45	1.807
322.81	1.444
323.18	0.531
323.54	1.638
323.91	1.423
324.27	1.119
324.64	1.427
325.00	0.580
325.37	1.720
325.73	1.818
326.10	2.758
326.46	2.606
326.83	3.203
327.19	2.992
327.56	1.502
327.92	1.338
328.29	2.177
328.65	0.754
329.01	0.592
329.38	1.685
329.74	1.541
330.11	2.226
330.47	1.348
330.84	1.637
331.20	1.667
331.56	0.260
331.93	2.762
332.29	1.356
332.66	1.910
333.02	0.670
333.38	0.587
333.75	1.347
334.11	1.835
334.48	2.063
334.84	2.124
335.20	1.175
335.57	2.024
335.93	2.893
336.29	1.830
336.66	0.841
337.02	1.839
337.38	2.466
337.75	0.744
338.11	2.271
338.47	1.654
338.84	1.100
339.20	1.685
339.56	0.988
339.93	1.970
340.29	1.691
340.65	2.109
341.02	2.235
341.38	2.344
341.74	1.937
342.11	1.850
342.47	1.430
342.83	2.657
343.20	1.962
343.56	1.203
343.92	1.761
344.28	1.953
344.65	3.023
345.01	1.560
345.37	2.644
345.73	0.857
346.10	1.950
346.46	1.345
346.82	2.846
347.19	2.215
347.55	2.580
347.91	2.377
348.27	1.214
348.63	2.589
349.00	1.939
349.36	2.677
349.72	1.860
350.08	2.600
350.45	1.217
350.81	2.187
351.17	1.955
351.53	1.592
351.89	2.354
352.26	0.821
352.62	1.716
352.98	2.366
353.34	1.643
353.70	1.541
354.07	1.490
354.43	1.519
354.79	1.645
355.15	1.398
355.51	2.412
355.87	1.945
356.24	1.749
356.60	1.626
356.96	2.298
357.32	1.338
357.68	1.245
358.04	1.497
358.40	0.896
358.77	1.316
359.13	1.477
359.49	0.446
359.85	1.813
360.21	2.080
360.57	1.938
360.93	1.763
361.29	2.246
361.66	2.028
362.02	3.062
362.38	1.687
362.74	2.235
363.10	2.613
363.46	1.731
363.82	1.420
364.18	1.407
364.54	2.144
364.90	2.408
365.26	0.759
365.62	2.667
365.98	1.021
366.35	2.013
366.71	2.313
367.07	2.097
367.43	2.429
367.79	2.256
368.15	2.609
368.51	2.233
368.87	2.417
369.23	2.467
369.59	1.844
369.95	2.299
370.31	2.026
370.67	2.132
371.03	1.662
371.39	1.612
371.75	1.376
372.11	2.033
372.47	1.828
372.83	2.618
373.19	2.135
373.55	1.965
373.91	1.772
374.27	2.264
374.63	1.962
374.99	2.255
375.35	2.597
375.71	1.935
376.07	2.066
376.42	2.330
376.78	2.983
377.14	2.433
377.50	1.961
377.86	3.017
378.22	2.934
378.58	2.913
378.94	2.406
379.30	2.460
379.66	2.881
380.02	1.904
380.38	2.823
380.74	3.268
381.09	2.729
381.45	3.068
381.81	2.459
382.17	3.029
382.53	2.515
382.89	3.160
383.25	2.345
383.61	1.794
383.97	2.650
384.32	2.691
384.68	2.320
385.04	3.181
385.40	3.182
385.76	2.989
386.12	2.573
386.48	2.471
386.83	3.397
387.19	2.028
387.55	2.230
387.91	2.169
388.27	2.714
388.62	3.207
388.98	2.651
389.34	2.475
389.70	2.615
390.06	3.079
390.42	2.771
390.77	3.371
391.13	2.700
391.49	2.657
391.85	2.061
392.20	2.550
392.56	3.308
392.92	3.708
393.28	3.427
393.64	3.017
393.99	2.731
394.35	3.037
394.71	2.934
395.07	3.114
395.42	3.427
395.78	3.108
396.14	2.436
396.50	2.969
396.85	3.220
397.21	2.840
397.57	2.532
397.92	3.608
398.28	3.639
398.64	2.746
399.00	2.723
399.35	3.089
399.71	3.370
400.07	3.818
400.42	2.561
400.78	2.431
401.14	3.586
401.49	2.445
401.85	2.616
402.21	3.592
402.57	2.934
402.92	3.605
403.28	3.044
403.63	2.088
403.99	3.088
404.35	3.468
404.70	3.173
405.06	3.315
405.42	2.693
405.77	2.999
406.13	3.350
406.49	2.872
406.84	3.657
407.20	2.739
407.55	2.968
407.91	2.451
408.27	3.121
408.62	3.258
408.98	3.018
409.34	2.287
409.69	3.152
410.05	3.165
410.40	3.422
410.76	2.973
411.11	3.390
411.47	3.501
411.83	3.586
412.18	3.614
412.54	3.379
412.89	2.852
413.25	3.273
413.60	3.044
413.96	3.555
414.31	3.059
414.67	3.101
415.03	3.015
415.38	3.279
415.74	2.382
416.09	3.208
416.45	2.567
416.80	2.632
417.16	2.810
417.51	2.677
417.87	3.004
418.22	3.234
418.58	3.098
418.93	3.376
419.29	2.528
419.64	2.581
420.00	2.493
420.35	3.762
420.71	2.585
421.06	2.645
421.42	3.498
421.77	3.393
422.12	3.541
422.48	3.379
422.83	3.888
423.19	3.024
423.54	3.208
423.90	2.650
424.25	3.733
424.61	2.641
424.96	3.130
425.31	3.662
425.67	2.845
426.02	3.376
426.38	2.755
426.73	3.181
427.09	4.268
427.44	2.731
427.79	2.985
428.15	2.797
428.50	2.753
428.85	3.042
429.21	3.085
429.56	3.356
429.92	3.342
430.27	3.518
430.62	3.420
430.98	3.345
431.33	3.177
431.68	3.352
432.04	3.454
432.39	3.374
432.74	2.854
433.10	2.596
433.45	3.010
433.80	3.273
434.16	3.357
434.51	2.878
434.86	2.606
435.22	3.135
435.57	3.538
435.92	2.615
436.28	3.015
436.63	2.731
436.98	3.543
437.34	3.157
437.69	2.532
438.04	3.332
438.39	3.389
438.75	2.656
439.10	3.647
439.45	3.522
439.81	3.107
440.16	3.217
440.51	3.400
440.86	2.890
441.22	3.430
441.57	3.302
441.92	3.492
442.27	3.737
442.63	3.428
442.98	2.882
443.33	3.787
443.68	4.014
444.03	3.763
444.39	4.161
444.74	3.982
445.09	3.447
445.44	3.056
445.79	4.310
446.15	3.649
446.50	3.307
446.85	3.988
447.20	3.917
447.55	3.347
447.91	3.246
448.26	3.436
448.61	3.719
448.96	4.238
449.31	3.659
449.66	2.832
450.02	3.903
450.37	4.156
450.72	3.337
451.07	3.360
451.42	3.408
451.77	2.390
452.12	3.217
452.47	2.733
452.83	3.266
453.18	3.211
453.53	2.700
453.88	4.362
454.23	3.559
454.58	3.308
454.93	2.791
455.28	3.432
455.63	2.615
455.98	3.352
456.34	3.062
456.69	3.645
457.04	2.423
457.39	3.160
457.74	4.027
458.09	3.185
458.44	3.125
458.79	2.888
459.14	3.723
459.49	2.999
459.84	2.991
460.19	3.054
460.54	3.066
460.89	3.441
461.24	2.586
461.59	3.431
461.94	2.795
462.29	3.303
462.64	3.380
462.99	3.139
463.34	3.115
463.69	3.810
464.04	3.446
464.39	3.531
464.74	3.364
465.09	3.172
465.44	3.433
465.79	3.490
466.14	3.648
466.49	3.684
466.84	3.636
467.19	3.468
467.54	2.703
467.89	3.161
468.24	3.269
468.59	2.779
468.94	3.089
469.29	3.179
469.64	2.479
469.99	2.231
470.34	3.403
470.68	3.076
471.03	2.750
471.38	3.336
471.73	2.796
472.08	3.236
472.43	2.950
472.78	3.212
473.13	2.718
473.48	3.505
473.83	3.134
474.17	3.283
474.52	2.826
474.87	3.544
475.22	3.718
475.57	3.115
475.92	3.783
476.27	3.621
476.61	4.361
476.96	3.441
477.31	4.158
477.66	4.250
478.01	3.305
478.36	4.337
478.70	3.892
479.05	3.937
479.40	3.702
479.75	4.371
480.10	3.790
480.45	3.920
480.79	3.991
481.14	3.814
481.49	3.816
481.84	4.352
482.19	3.699
482.53	3.892
482.88	3.899
483.23	3.468
483.58	3.493
483.92	3.989
484.27	3.556
484.62	3.960
484.97	4.082
485.31	4.189
485.66	4.078
486.01	4.377
486.36	4.715
486.70	5.090
487.05	5.210
487.40	4.992
487.75	5.216
488.09	4.734
488.44	4.716
488.79	4.384
489.13	4.200
489.48	3.806
489.83	3.702
490.17	3.807
490.52	4.475
490.87	3.934
491.22	3.943
491.56	4.352
491.91	3.969
492.26	4.197
492.60	4.023
492.95	4.081
493.30	4.124
493.64	4.030
493.99	3.904
494.34	3.528
494.68	3.769
495.03	4.802
495.37	3.817
495.72	4.036
496.07	3.988
496.41	4.033
496.76	4.462
497.11	4.161
497.45	3.841
497.80	3.998
498.14	3.991
498.49	3.768
498.84	3.565
499.18	3.779
499.53	3.857
499.87	4.264
500.22	2.939
500.56	3.734
500.91	3.799
501.26	4.091
501.60	3.844
501.95	4.255
502.29	3.598
502.64	3.935
502.98	4.400
503.33	3.672
503.67	3.969
504.02	3.853
504.36	3.977
504.71	3.721
505.06	4.093
505.40	3.565
505.75	4.372
506.09	4.328
506.44	4.596
506.78	4.358
507.13	4.472
507.47	4.216
507.82	4.451
508.16	3.346
508.51	3.188
508.85	3.779
509.19	3.979
509.54	3.987
509.88	4.128
510.23	4.128
510.57	4.592
510.92	4.064
511.26	3.800
511.61	3.863
511.95	4.246
512.30	4.431
512.64	3.448
512.98	3.602
513.33	3.982
513.67	4.182
514.02	4.446
514.36	4.552
514.70	3.594
515.05	3.910
515.39	3.675
515.74	4.560
516.08	3.856
516.42	4.553
516.77	4.101
517.11	3.455
517.46	4.242
517.80	4.169
518.14	4.298
518.49	4.284
518.83	4.311
519.17	3.662
519.52	4.560
519.86	4.013
520.20	4.686
520.55	4.381
520.89	3.660
521.23	3.685
521.58	4.237
521.92	4.023
522.26	3.207
522.61	3.819
522.95	4.383
523.29	3.851
523.64	3.812
523.98	4.564
524.32	4.699
524.66	3.699
525.01	4.360
525.35	3.963
525.69	4.408
526.04	3.444
526.38	4.425
526.72	3.864
527.06	4.399
527.41	3.732
527.75	3.860
528.09	4.309
528.43	3.848
528.78	3.988
529.12	3.784
529.46	3.541
529.80	4.405
530.15	4.464
530.49	3.440
530.83	3.896
531.17	3.644
531.51	4.212
531.86	4.267
532.20	4.268
532.54	3.770
532.88	4.061
533.22	3.889
533.57	3.751
533.91	4.265
534.25	3.731
534.59	3.908
534.93	3.735
535.27	3.549
535.62	4.719
535.96	4.067
536.30	4.289
536.64	3.904
536.98	4.736
537.32	4.074
537.66	3.556
538.01	3.988
538.35	3.898
538.69	3.305
539.03	3.556
539.37	4.417
539.71	4.144
540.05	4.556
540.39	3.606
540.73	4.311
541.07	4.047
541.42	4.194
541.76	4.033
542.10	3.679
542.44	3.593
542.78	4.562
543.12	4.589
543.46	3.785
543.80	3.717
544.14	3.950
544.48	4.374
544.82	5.266
545.16	4.353
545.50	3.415
545.84	3.368
546.18	5.432
546.52	3.567
546.86	4.403
547.20	3.880
547.54	3.683
547.88	3.677
548.22	3.743
548.56	4.447
548.90	4.597
549.24	4.438
549.58	4.732
549.92	3.508
550.26	4.013
550.60	3.574
550.94	4.204
551.28	4.092
551.62	3.841
551.96	4.078
552.30	4.589
552.64	4.294
552.98	4.242
553.32	4.823
553.66	3.859
554.00	3.657
554.34	4.376
554.68	3.938
555.02	4.336
555.36	4.602
555.69	3.908
556.03	3.657
556.37	4.193
556.71	4.122
557.05	4.217
557.39	3.981
557.73	3.170
558.07	3.974
558.41	3.787
558.75	4.057
559.08	3.688
559.42	3.155
559.76	4.206
560.10	3.483
560.44	3.760
560.78	4.250
561.12	3.818
561.45	4.440
561.79	4.029
562.13	4.744
562.47	4.131
562.81	3.481
563.15	3.977
563.48	3.853
563.82	4.534
564.16	3.392
564.50	4.291
564.84	3.481
565.17	3.765
565.51	3.855
565.85	2.672
566.19	3.053
566.52	3.452
566.86	4.358
567.20	4.078
567.54	3.877
567.88	4.536
568.21	4.447
568.55	4.412
568.89	4.675
569.23	4.267
569.56	4.416
569.90	4.312
570.24	4.789
570.57	4.939
570.91	4.685
571.25	4.773
571.59	5.038
571.92	4.717
572.26	4.844
572.60	5.105
572.93	4.926
573.27	4.636
573.61	5.003
573.95	4.783
574.28	5.279
574.62	4.957
574.96	4.896
575.29	4.957
575.63	5.059
575.97	5.054
576.30	4.836
576.64	5.058
576.98	4.875
577.31	5.015
577.65	5.159
577.98	5.139
578.32	4.872
578.66	5.032
578.99	5.140
579.33	5.024
579.67	4.986
580.00	5.147
580.34	5.105
580.67	4.744
581.01	4.608
581.35	4.831
581.68	4.969
582.02	5.309
582.35	5.130
582.69	5.080
583.02	5.027
583.36	5.258
583.70	4.976
584.03	4.656
584.37	5.159
584.70	4.719
585.04	4.766
585.37	4.993
585.71	4.898
586.04	4.954
586.38	4.968
586.72	4.613
587.05	4.630
587.39	4.687
587.72	4.737
588.06	5.077
588.39	4.929
588.73	4.762
589.06	4.881
589.40	4.579
589.73	4.563
590.07	4.609
590.40	5.003
590.73	4.666
591.07	4.356
591.40	4.160
591.74	4.412
592.07	4.872
592.41	4.219
592.74	4.650
593.08	4.299
593.41	4.549
593.75	4.684
594.08	4.908
594.41	4.872
594.75	4.650
595.08	4.307
595.42	4.675
595.75	4.617
596.09	4.947
596.42	4.801
596.75	4.863
597.09	4.889
597.42	4.450
597.75	4.312
598.09	4.762
598.42	5.147
598.76	4.280
599.09	4.130
599.42	4.760
599.76	4.655
600.09	4.671
600.42	4.972
600.76	4.491
601.09	4.713
601.42	4.669
601.76	4.552
602.09	4.503
602.42	4.544
602.76	4.576
603.09	4.552
603.42	4.335
603.76	5.109
604.09	5.429
604.42	4.844
604.76	4.680
605.09	4.787
605.42	4.904
605.75	4.615
606.09	4.367
606.42	4.086
606.75	4.348
607.09	4.109
607.42	4.933
607.75	4.103
608.08	4.499
608.42	3.748
608.75	4.934
609.08	4.032
609.41	4.102
609.75	4.598
610.08	4.617
610.41	4.121
610.74	4.664
611.07	4.041
611.41	4.978
611.74	4.157
612.07	4.021
612.40	4.325
612.73	4.108
613.07	4.254
613.40	4.812
613.73	4.237
614.06	4.367
614.39	4.130
614.72	4.318
615.06	4.187
615.39	3.528
615.72	4.171
616.05	4.128
616.38	4.440
616.71	4.336
617.05	4.100
617.38	4.601
617.71	4.320
618.04	4.533
618.37	4.536
618.70	4.129
619.03	3.226
619.36	4.069
619.69	4.036
620.03	4.206
620.36	3.374
620.69	3.578
621.02	3.609
621.35	3.411
621.68	4.411
622.01	3.416
622.34	2.859
622.67	2.887
623.00	2.159
623.33	3.583
623.66	3.891
623.99	3.489
624.32	4.613
624.65	3.218
624.99	3.381
625.32	4.050
625.65	3.844
625.98	3.593
626.31	4.040
626.64	3.736
626.97	3.151
627.30	2.278
627.63	3.376
627.96	3.679
628.29	3.891
628.62	2.267
628.95	2.717
629.28	2.889
629.61	3.367
629.94	2.594
630.26	2.203
630.59	2.332
630.92	2.338
631.25	4.025
631.58	3.107
631.91	2.156
632.24	2.402
632.57	2.562
632.90	2.608
633.23	2.653
633.56	2.857
633.89	1.860
634.22	2.183
634.55	3.340
634.88	1.407
635.20	2.476
635.53	1.243
635.86	2.059
636.19	3.818
636.52	3.165
636.85	2.043
637.18	1.663
637.51	0.860
637.83	2.658
638.16	2.995
638.49	1.174
638.82	2.706
639.15	1.604
639.48	3.349
639.81	2.771
640.13	3.651
640.46	1.091
640.79	1.961
641.12	3.478
641.45	0.376
641.77	4.493
642.10	1.312
642.43	2.527
642.76	2.168
643.09	2.877
643.41	1.681
643.74	0.552
644.07	1.103
644.40	0.707
644.73	1.306
645.05	-0.734
645.38	1.727
645.71	1.466
646.04	2.439
646.36	-0.146
646.69	-0.460
647.02	1.682
647.35	2.290
647.67	0.483
648.00	0.637
648.33	1.652
648.66	1.427
648.98	0.952
649.31	0.271
649.64	1.594
649.96	1.459
650.29	-0.834
650.62	0.990
650.94	0.450
651.27	-0.299
