SpectraSuite Data File
++++++++++++++++++++++++++++++++++++
Date: Thu May 14 14:41:01 PDT 2015
User: schluterlab
Dark Spectrum Present: Yes
Reference Spectrum Present: Yes
Number of Sampled Component Spectra: 1
Spectrometers: USB2E3373
Integration Time (usec): 3000 (USB2E3373)
Spectra Averaged: 3 (USB2E3373)
Boxcar Smoothing: 0 (USB2E3373)
Correct for Electrical Dark: No (USB2E3373)
Strobe/Lamp Enabled: No (USB2E3373)
Correct for Detector Non-linearity: No (USB2E3373)
Correct for Stray Light: No (USB2E3373)
Number of Pixels in Processed Spectrum: 2048
>>>>>Begin Processed Spectral Data<<<<<
178.53	0.000
178.91	-100.000
179.29	400.000
179.67	200.000
180.04	-0.000
180.42	-160.000
180.80	-180.000
181.18	1200.000
181.56	1300.000
181.94	-100.000
182.31	100.000
182.69	-200.000
183.07	700.000
183.45	-375.000
183.83	150.000
184.20	266.667
184.58	-1200.000
184.96	100.000
185.34	122.222
185.72	400.000
186.09	44.444
186.47	-200.000
186.85	20.000
187.23	-111.111
187.61	300.000
187.98	-280.000
188.36	75.000
188.74	350.000
189.12	500.000
189.49	93.750
189.87	125.000
190.25	255.556
190.63	60.000
191.00	88.889
191.38	0.000
191.76	0.000
192.14	33.333
192.51	-550.000
192.89	116.667
193.27	0.000
193.65	85.714
194.02	1000.000
194.40	200.000
194.78	-157.143
195.15	0.000
195.53	118.182
195.91	0.000
196.29	450.000
196.66	46.154
197.04	800.000
197.42	100.000
197.79	650.000
198.17	62.500
198.55	57.143
198.92	177.778
199.30	75.000
199.68	181.818
200.05	92.857
200.43	200.000
200.81	-57.143
201.18	0.000
201.56	44.444
201.94	0.000
202.31	33.333
202.69	122.222
203.07	-1600.000
203.44	11.111
203.82	350.000
204.19	58.333
204.57	0.000
204.95	75.000
205.32	400.000
205.70	-150.000
206.08	166.667
206.45	300.000
206.83	60.000
207.20	166.667
207.58	220.000
207.96	-50.000
208.33	266.667
208.71	-33.333
209.08	416.667
209.46	0.000
209.84	-116.667
210.21	-350.000
210.59	-800.000
210.96	-233.333
211.34	300.000
211.71	62.500
212.09	400.000
212.46	0.000
212.84	200.000
213.22	140.000
213.59	150.000
213.97	150.000
214.34	400.000
214.72	-66.667
215.09	200.000
215.47	0.000
215.84	-114.286
216.22	-500.000
216.59	200.000
216.97	160.000
217.34	225.000
217.72	162.500
218.09	75.000
218.47	-50.000
218.84	0.000
219.22	-40.000
219.59	100.000
219.97	50.000
220.34	350.000
220.72	0.000
221.09	130.769
221.47	500.000
221.84	80.000
222.22	100.000
222.59	0.000
222.97	100.000
223.34	60.000
223.72	700.000
224.09	200.000
224.46	275.000
224.84	220.000
225.21	85.714
225.59	25.000
225.96	75.000
226.34	46.154
226.71	50.000
227.08	250.000
227.46	53.333
227.83	525.000
228.21	100.000
228.58	-87.500
228.95	50.000
229.33	83.333
229.70	180.000
230.08	136.842
230.45	-40.000
230.82	566.667
231.20	57.143
231.57	66.667
231.95	18.182
232.32	154.545
232.69	70.000
233.07	375.000
233.44	41.176
233.81	80.000
234.19	83.333
234.56	68.182
234.93	48.276
235.31	73.684
235.68	61.111
236.05	0.000
236.43	80.769
236.80	120.000
237.17	74.074
237.55	30.303
237.92	60.000
238.29	58.065
238.67	31.818
239.04	38.889
239.41	28.571
239.79	26.087
240.16	5.556
240.53	30.435
240.91	1.961
241.28	18.033
241.65	34.328
242.02	36.486
242.40	32.308
242.77	12.000
243.14	13.415
243.51	5.263
243.89	16.667
244.26	20.792
244.63	23.529
245.00	14.953
245.38	12.281
245.75	5.310
246.12	17.460
246.49	11.628
246.87	21.429
247.24	17.219
247.61	17.763
247.98	14.094
248.36	20.370
248.73	14.724
249.10	13.661
249.47	19.403
249.84	23.560
250.22	10.881
250.59	18.333
250.96	20.000
251.33	7.653
251.70	7.265
252.08	15.417
252.45	13.115
252.82	11.570
253.19	12.109
253.56	14.449
253.94	11.923
254.31	14.015
254.68	19.580
255.05	14.007
255.42	11.905
255.79	10.032
256.16	9.603
256.54	11.258
256.91	11.803
257.28	9.180
257.65	9.873
258.02	8.555
258.39	12.536
258.76	14.067
259.14	12.356
259.51	11.527
259.88	11.048
260.25	15.000
260.62	14.521
260.99	10.929
261.36	14.745
261.73	11.936
262.10	9.066
262.47	9.383
262.85	13.131
263.22	10.390
263.59	10.000
263.96	12.532
264.33	9.463
264.70	12.099
265.07	13.365
265.44	14.512
265.81	9.954
266.18	11.338
266.55	12.277
266.92	10.934
267.29	12.691
267.66	11.752
268.03	11.354
268.40	13.361
268.77	9.112
269.14	7.489
269.51	10.088
269.88	13.115
270.25	12.072
270.62	11.392
270.99	11.717
271.36	12.871
271.73	11.591
272.10	11.824
272.47	9.619
272.84	12.651
273.21	9.820
273.58	10.484
273.95	10.385
274.32	9.696
274.69	9.284
275.06	10.623
275.43	10.721
275.80	11.464
276.17	8.889
276.54	10.634
276.91	9.481
277.28	9.765
277.65	10.952
278.02	10.662
278.39	10.326
278.76	10.018
279.13	9.397
279.50	11.340
279.87	11.270
280.23	6.866
280.60	10.339
280.97	10.362
281.34	8.659
281.71	11.506
282.08	11.296
282.45	9.002
282.82	10.518
283.19	8.724
283.56	8.197
283.92	10.811
284.29	11.058
284.66	10.673
285.03	7.692
285.40	9.428
285.77	11.610
286.14	10.992
286.51	10.502
286.87	9.479
287.24	8.434
287.61	8.520
287.98	8.912
288.35	8.728
288.72	8.876
289.08	9.810
289.45	9.172
289.82	10.843
290.19	9.052
290.56	10.704
290.93	7.275
291.29	9.917
291.66	7.576
292.03	8.141
292.40	10.204
292.77	9.164
293.13	10.149
293.50	7.490
293.87	8.054
294.24	9.867
294.60	9.608
294.97	7.248
295.34	8.963
295.71	9.079
296.08	8.269
296.44	8.333
296.81	9.866
297.18	7.597
297.55	9.316
297.91	9.015
298.28	8.412
298.65	8.323
299.02	8.146
299.38	10.412
299.75	9.346
300.12	9.375
300.48	7.719
300.85	8.774
301.22	7.718
301.59	8.105
301.95	8.588
302.32	8.667
302.69	7.996
303.05	8.161
303.42	8.426
303.79	8.646
304.15	9.359
304.52	8.140
304.89	9.110
305.25	8.696
305.62	8.255
305.99	9.278
306.35	7.258
306.72	8.687
307.09	7.208
307.45	9.110
307.82	7.871
308.19	7.972
308.55	10.318
308.92	8.471
309.29	8.908
309.65	8.090
310.02	8.020
310.38	9.252
310.75	8.350
311.12	8.533
311.48	7.625
311.85	8.832
312.22	9.677
312.58	9.671
312.95	8.987
313.31	8.582
313.68	10.806
314.05	10.027
314.41	10.109
314.78	10.354
315.14	10.526
315.51	8.864
315.87	10.441
316.24	10.594
316.61	10.835
316.97	9.593
317.34	10.141
317.70	10.480
318.07	10.758
318.43	10.374
318.80	11.706
319.16	11.416
319.53	10.197
319.89	9.991
320.26	11.210
320.62	10.106
320.99	10.711
321.35	10.813
321.72	12.279
322.08	11.722
322.45	11.021
322.81	11.462
323.18	11.150
323.54	11.293
323.91	11.833
324.27	11.532
324.64	13.266
325.00	11.028
325.37	12.367
325.73	12.066
326.10	11.192
326.46	13.681
326.83	12.810
327.19	11.890
327.56	13.281
327.92	11.723
328.29	10.968
328.65	12.060
329.01	12.183
329.38	12.300
329.74	12.414
330.11	13.613
330.47	12.468
330.84	12.489
331.20	12.583
331.56	13.172
331.93	12.720
332.29	12.966
332.66	12.708
333.02	12.647
333.38	11.997
333.75	12.795
334.11	12.594
334.48	13.036
334.84	13.169
335.20	11.503
335.57	13.153
335.93	13.636
336.29	13.561
336.66	13.120
337.02	13.629
337.38	13.435
337.75	11.983
338.11	13.204
338.47	12.324
338.84	12.860
339.20	12.384
339.56	12.850
339.93	13.054
340.29	12.802
340.65	12.003
341.02	13.887
341.38	13.339
341.74	13.398
342.11	12.631
342.47	12.629
342.83	13.446
343.20	13.328
343.56	13.553
343.92	13.531
344.28	12.891
344.65	13.953
345.01	13.261
345.37	13.764
345.73	12.393
346.10	13.651
346.46	12.104
346.82	13.408
347.19	13.522
347.55	14.340
347.91	12.704
348.27	12.822
348.63	14.166
349.00	12.826
349.36	13.011
349.72	12.574
350.08	13.447
350.45	12.091
350.81	12.368
351.17	12.632
351.53	13.798
351.89	13.667
352.26	13.209
352.62	13.060
352.98	12.977
353.34	13.069
353.70	13.482
354.07	13.785
354.43	13.364
354.79	12.191
355.15	12.951
355.51	14.108
355.87	13.837
356.24	13.080
356.60	13.673
356.96	12.083
357.32	13.309
357.68	13.543
358.04	13.024
358.40	12.910
358.77	13.158
359.13	13.220
359.49	12.937
359.85	13.416
360.21	12.984
360.57	13.568
360.93	13.963
361.29	13.544
361.66	13.396
362.02	14.892
362.38	13.001
362.74	13.338
363.10	13.549
363.46	14.058
363.82	13.778
364.18	14.004
364.54	14.315
364.90	14.849
365.26	13.586
365.62	13.933
365.98	14.295
366.35	14.228
366.71	14.014
367.07	13.329
367.43	15.036
367.79	14.466
368.15	14.783
368.51	14.750
368.87	13.912
369.23	14.267
369.59	14.208
369.95	14.266
370.31	14.517
370.67	14.718
371.03	15.166
371.39	13.700
371.75	14.649
372.11	14.295
372.47	13.947
372.83	15.641
373.19	15.210
373.55	14.499
373.91	14.519
374.27	16.106
374.63	15.156
374.99	16.247
375.35	16.104
375.71	16.452
376.07	14.977
376.42	15.680
376.78	16.532
377.14	15.346
377.50	16.003
377.86	16.872
378.22	16.587
378.58	16.409
378.94	16.080
379.30	17.399
379.66	16.520
380.02	16.445
380.38	17.339
380.74	16.056
381.09	17.712
381.45	17.273
381.81	17.916
382.17	18.112
382.53	18.187
382.89	17.551
383.25	18.464
383.61	17.303
383.97	18.257
384.32	18.481
384.68	17.575
385.04	19.086
385.40	18.621
385.76	19.226
386.12	18.791
386.48	19.118
386.83	19.726
387.19	19.467
387.55	20.012
387.91	19.064
388.27	20.092
388.62	19.759
388.98	19.741
389.34	20.212
389.70	20.628
390.06	20.663
390.42	20.783
390.77	21.553
391.13	21.068
391.49	21.014
391.85	20.424
392.20	21.352
392.56	21.559
392.92	21.919
393.28	22.001
393.64	21.117
393.99	21.964
394.35	22.664
394.71	22.395
395.07	21.677
395.42	22.787
395.78	22.730
396.14	22.638
396.50	22.803
396.85	22.182
397.21	22.249
397.57	23.086
397.92	23.196
398.28	23.954
398.64	22.597
399.00	22.461
399.35	23.037
399.71	23.207
400.07	23.638
400.42	23.283
400.78	23.900
401.14	24.417
401.49	24.161
401.85	24.012
402.21	24.160
402.57	25.059
402.92	25.946
403.28	24.239
403.63	23.866
403.99	23.634
404.35	24.446
404.70	25.496
405.06	24.022
405.42	24.473
405.77	25.027
406.13	25.284
406.49	24.268
406.84	25.429
407.20	25.433
407.55	24.409
407.91	25.770
408.27	26.502
408.62	25.364
408.98	25.827
409.34	25.337
409.69	26.638
410.05	25.147
410.40	26.160
410.76	26.416
411.11	26.826
411.47	26.720
411.83	26.808
412.18	27.108
412.54	26.378
412.89	26.659
413.25	26.637
413.60	27.455
413.96	27.273
414.31	26.969
414.67	27.013
415.03	26.523
415.38	27.995
415.74	28.039
416.09	27.884
416.45	27.489
416.80	27.111
417.16	27.714
417.51	28.954
417.87	27.345
418.22	27.545
418.58	28.748
418.93	27.881
419.29	28.607
419.64	28.511
420.00	28.843
420.35	28.299
420.71	28.547
421.06	29.212
421.42	29.014
421.77	28.164
422.12	28.647
422.48	28.725
422.83	30.120
423.19	28.806
423.54	29.480
423.90	29.542
424.25	29.813
424.61	29.449
424.96	30.148
425.31	29.883
425.67	29.039
426.02	30.714
426.38	30.195
426.73	29.632
427.09	31.661
427.44	30.912
427.79	30.127
428.15	30.594
428.50	31.011
428.85	30.195
429.21	31.011
429.56	30.355
429.92	30.172
430.27	31.277
430.62	30.874
430.98	31.235
431.33	31.232
431.68	30.316
432.04	31.742
432.39	32.244
432.74	31.678
433.10	32.125
433.45	32.163
433.80	31.760
434.16	31.870
434.51	32.374
434.86	32.302
435.22	32.837
435.57	33.608
435.92	32.999
436.28	33.333
436.63	34.244
436.98	32.152
437.34	33.371
437.69	32.141
438.04	32.893
438.39	33.084
438.75	32.485
439.10	34.302
439.45	33.706
439.81	32.768
440.16	33.351
440.51	32.497
440.86	32.685
441.22	33.280
441.57	33.438
441.92	33.948
442.27	34.444
442.63	33.880
442.98	33.885
443.33	33.877
443.68	34.192
444.03	35.136
444.39	34.628
444.74	34.661
445.09	33.857
445.44	35.195
445.79	35.010
446.15	34.635
446.50	34.987
446.85	34.728
447.20	34.333
447.55	34.780
447.91	35.131
448.26	34.672
448.61	34.538
448.96	35.408
449.31	35.525
449.66	34.314
450.02	35.232
450.37	34.097
450.72	34.822
451.07	35.877
451.42	35.355
451.77	35.353
452.12	36.061
452.47	35.413
452.83	37.050
453.18	35.201
453.53	34.061
453.88	35.505
454.23	36.158
454.58	36.158
454.93	36.468
455.28	36.484
455.63	35.759
455.98	36.369
456.34	35.984
456.69	36.390
457.04	36.170
457.39	36.530
457.74	36.857
458.09	36.244
458.44	36.853
458.79	36.256
459.14	36.392
459.49	36.220
459.84	36.779
460.19	36.924
460.54	37.990
460.89	37.374
461.24	35.632
461.59	37.299
461.94	36.395
462.29	37.122
462.64	37.296
462.99	38.230
463.34	38.417
463.69	37.339
464.04	37.743
464.39	37.052
464.74	37.457
465.09	37.601
465.44	37.929
465.79	38.075
466.14	37.520
466.49	37.737
466.84	38.237
467.19	38.613
467.54	37.720
467.89	37.701
468.24	37.507
468.59	38.274
468.94	38.462
469.29	37.373
469.64	38.017
469.99	38.815
470.34	38.923
470.68	38.619
471.03	38.965
471.38	40.026
471.73	38.362
472.08	39.023
472.43	39.133
472.78	38.791
473.13	40.392
473.48	40.181
473.83	39.814
474.17	38.746
474.52	39.747
474.87	38.815
475.22	39.493
475.57	38.266
475.92	39.223
476.27	39.137
476.61	39.616
476.96	38.999
477.31	40.000
477.66	39.822
478.01	40.315
478.36	39.382
478.70	39.951
479.05	40.082
479.40	40.474
479.75	39.145
480.10	40.076
480.45	39.881
480.79	39.546
481.14	39.476
481.49	39.891
481.84	40.775
482.19	40.086
482.53	41.058
482.88	41.072
483.23	40.907
483.58	39.825
483.92	39.894
484.27	40.178
484.62	40.429
484.97	39.969
485.31	39.951
485.66	38.563
486.01	37.193
486.36	37.808
486.70	39.627
487.05	39.956
487.40	39.587
487.75	39.466
488.09	40.744
488.44	39.365
488.79	40.573
489.13	39.790
489.48	39.767
489.83	39.718
490.17	40.178
490.52	40.189
490.87	41.667
491.22	41.031
491.56	41.382
491.91	41.736
492.26	41.194
492.60	41.364
492.95	41.553
493.30	41.237
493.64	41.656
493.99	41.623
494.34	41.812
494.68	41.413
495.03	41.718
495.37	42.654
495.72	42.222
496.07	42.200
496.41	41.399
496.76	41.701
497.11	42.335
497.45	41.994
497.80	42.159
498.14	41.542
498.49	43.015
498.84	42.596
499.18	41.790
499.53	42.332
499.87	42.989
500.22	42.565
500.56	43.230
500.91	43.112
501.26	42.500
501.60	42.775
501.95	42.466
502.29	42.870
502.64	42.807
502.98	42.450
503.33	42.073
503.67	41.997
504.02	43.082
504.36	43.387
504.71	43.225
505.06	43.247
505.40	44.470
505.75	42.577
506.09	44.613
506.44	44.197
506.78	44.587
507.13	43.799
507.47	44.008
507.82	44.318
508.16	43.595
508.51	44.773
508.85	43.977
509.19	44.576
509.54	45.341
509.88	45.313
510.23	44.876
510.57	46.013
510.92	44.993
511.26	44.300
511.61	44.761
511.95	45.925
512.30	45.446
512.64	45.977
512.98	45.523
513.33	45.665
513.67	45.691
514.02	46.755
514.36	46.343
514.70	46.927
515.05	47.445
515.39	46.877
515.74	46.766
516.08	47.068
516.42	46.415
516.77	46.320
517.11	45.591
517.46	47.561
517.80	48.744
518.14	48.477
518.49	48.427
518.83	46.993
519.17	46.634
519.52	47.851
519.86	46.779
520.20	48.083
520.55	48.576
520.89	47.860
521.23	48.520
521.58	49.718
521.92	48.329
522.26	49.084
522.61	49.653
522.95	49.077
523.29	49.483
523.64	48.374
523.98	49.230
524.32	50.659
524.66	49.175
525.01	48.981
525.35	48.937
525.69	49.362
526.04	49.024
526.38	49.828
526.72	49.020
527.06	50.205
527.41	49.446
527.75	50.475
528.09	50.295
528.43	50.799
528.78	49.306
529.12	50.344
529.46	49.073
529.80	49.600
530.15	49.913
530.49	49.288
530.83	51.122
531.17	50.060
531.51	49.579
531.86	50.601
532.20	50.915
532.54	51.227
532.88	50.667
533.22	50.383
533.57	50.202
533.91	49.439
534.25	49.350
534.59	51.839
534.93	49.915
535.27	50.873
535.62	49.858
535.96	50.261
536.30	50.294
536.64	51.351
536.98	51.230
537.32	52.037
537.66	51.404
538.01	49.426
538.35	50.487
538.69	49.820
539.03	50.521
539.37	49.941
539.71	50.751
540.05	51.439
540.39	50.856
540.73	50.698
541.07	51.012
541.42	49.498
541.76	49.881
542.10	50.241
542.44	50.365
542.78	51.095
543.12	51.847
543.46	50.427
543.80	49.400
544.14	50.269
544.48	51.300
544.82	51.646
545.16	51.640
545.50	51.228
545.84	51.562
546.18	51.914
546.52	51.720
546.86	51.132
547.20	52.226
547.54	51.810
547.88	49.548
548.22	50.234
548.56	51.375
548.90	50.507
549.24	50.942
549.58	51.735
549.92	51.722
550.26	51.392
550.60	51.691
550.94	51.100
551.28	52.277
551.62	53.639
551.96	50.421
552.30	52.645
552.64	52.209
552.98	51.653
553.32	52.347
553.66	51.640
554.00	52.081
554.34	51.737
554.68	51.711
555.02	51.774
555.36	52.663
555.69	51.121
556.03	52.396
556.37	51.439
556.71	51.363
557.05	52.268
557.39	53.484
557.73	52.840
558.07	50.993
558.41	52.558
558.75	52.603
559.08	53.375
559.42	52.743
559.76	52.239
560.10	53.182
560.44	52.507
560.78	52.750
561.12	51.539
561.45	52.555
561.79	52.198
562.13	52.927
562.47	51.048
562.81	52.785
563.15	51.831
563.48	52.082
563.82	52.358
564.16	51.787
564.50	52.086
564.84	51.858
565.17	52.471
565.51	50.806
565.85	51.366
566.19	50.634
566.52	51.668
566.86	51.896
567.20	50.517
567.54	50.876
567.88	51.274
568.21	50.346
568.55	50.264
568.89	49.977
569.23	49.430
569.56	49.433
569.90	48.681
570.24	48.938
570.57	47.595
570.91	47.979
571.25	47.961
571.59	47.175
571.92	47.201
572.26	47.459
572.60	46.956
572.93	47.092
573.27	46.923
573.61	46.638
573.95	46.370
574.28	46.391
574.62	46.885
574.96	45.104
575.29	45.583
575.63	46.500
575.97	47.018
576.30	45.818
576.64	46.695
576.98	46.492
577.31	46.583
577.65	46.636
577.98	45.934
578.32	45.597
578.66	46.118
578.99	46.037
579.33	46.020
579.67	46.011
580.00	46.303
580.34	46.531
580.67	45.808
581.01	45.889
581.35	45.841
581.68	45.590
582.02	45.668
582.35	46.432
582.69	46.853
583.02	46.627
583.36	46.539
583.70	46.944
584.03	46.676
584.37	46.482
584.70	46.088
585.04	45.571
585.37	46.332
585.71	46.041
586.04	46.389
586.38	46.565
586.72	46.979
587.05	46.866
587.39	47.046
587.72	47.344
588.06	47.365
588.39	47.025
588.73	46.772
589.06	46.614
589.40	48.525
589.73	47.558
590.07	48.143
590.40	47.634
590.73	47.649
591.07	48.771
591.40	48.561
591.74	48.172
592.07	48.112
592.41	49.132
592.74	48.065
593.08	48.312
593.41	48.031
593.75	48.103
594.08	48.228
594.41	48.429
594.75	47.692
595.08	48.048
595.42	48.117
595.75	46.949
596.09	49.170
596.42	47.868
596.75	49.479
597.09	48.323
597.42	48.590
597.75	48.491
598.09	48.690
598.42	49.136
598.76	47.612
599.09	48.024
599.42	47.100
599.76	47.772
600.09	47.714
600.42	47.881
600.76	47.886
601.09	46.698
601.42	47.202
601.76	47.724
602.09	47.498
602.42	47.983
602.76	48.967
603.09	48.238
603.42	48.844
603.76	47.428
604.09	48.687
604.42	48.294
604.76	47.755
605.09	48.624
605.42	49.203
605.75	47.462
606.09	47.816
606.42	47.756
606.75	48.276
607.09	47.235
607.42	47.784
607.75	48.105
608.08	48.145
608.42	47.965
608.75	48.383
609.08	48.684
609.41	48.963
609.75	49.018
610.08	49.868
610.41	48.768
610.74	49.076
611.07	49.734
611.41	50.000
611.74	49.192
612.07	49.743
612.40	49.382
612.73	50.611
613.07	49.242
613.40	50.529
613.73	49.591
614.06	49.657
614.39	48.931
614.72	49.442
615.06	48.653
615.39	48.961
615.72	49.147
616.05	50.170
616.38	49.899
616.71	50.209
617.05	49.947
617.38	50.241
617.71	51.134
618.04	50.081
618.37	51.967
618.70	51.471
619.03	50.836
619.36	51.726
619.69	50.609
620.03	51.664
620.36	51.411
620.69	51.635
621.02	50.984
621.35	54.064
621.68	53.941
622.01	52.883
622.34	50.488
622.67	53.127
623.00	52.092
623.33	53.086
623.66	52.724
623.99	51.481
624.32	52.827
624.65	51.158
624.99	53.186
625.32	53.886
625.65	53.136
625.98	51.593
626.31	52.941
626.64	53.626
626.97	51.538
627.30	52.164
627.63	52.588
627.96	53.604
628.29	54.864
628.62	55.668
628.95	55.741
629.28	53.271
629.61	54.714
629.94	54.059
630.26	53.814
630.59	54.059
630.92	54.026
631.25	55.367
631.58	57.250
631.91	55.108
632.24	55.524
632.57	54.744
632.90	55.767
633.23	57.143
633.56	55.714
633.89	53.822
634.22	56.549
634.55	56.576
634.88	54.329
635.20	57.912
635.53	58.644
635.86	56.446
636.19	56.416
636.52	57.384
