SpectraSuite Data File
++++++++++++++++++++++++++++++++++++
Date: Thu May 14 15:03:48 PDT 2015
User: schluterlab
Dark Spectrum Present: Yes
Reference Spectrum Present: Yes
Number of Sampled Component Spectra: 1
Spectrometers: USB2E3373
Integration Time (usec): 3000 (USB2E3373)
Spectra Averaged: 3 (USB2E3373)
Boxcar Smoothing: 0 (USB2E3373)
Correct for Electrical Dark: No (USB2E3373)
Strobe/Lamp Enabled: No (USB2E3373)
Correct for Detector Non-linearity: No (USB2E3373)
Correct for Stray Light: No (USB2E3373)
Number of Pixels in Processed Spectrum: 2048
>>>>>Begin Processed Spectral Data<<<<<
178.53	0.000
178.91	300.000
179.29	-3100.000
179.67	-3300.000
180.04	264.286
180.42	250.000
180.80	400.000
181.18	-2400.000
181.56	-1400.000
181.94	525.000
182.31	-500.000
182.69	633.333
183.07	-1200.000
183.45	725.000
183.83	-266.667
184.20	-933.333
184.58	2800.000
184.96	-600.000
185.34	-288.889
185.72	-400.000
186.09	288.889
186.47	1300.000
186.85	640.000
187.23	-322.222
187.61	-3400.000
187.98	460.000
188.36	800.000
188.74	-625.000
189.12	-833.333
189.49	-75.000
189.87	-287.500
190.25	-233.333
190.63	-520.000
191.00	-222.222
191.38	0.000
191.76	-625.000
192.14	-500.000
192.51	1300.000
192.89	-100.000
193.27	0.000
193.65	-342.857
194.02	-2600.000
194.40	-328.571
194.78	242.857
195.15	0.000
195.53	-200.000
195.91	0.000
196.29	-500.000
196.66	-238.462
197.04	-3600.000
197.42	-371.429
197.79	-1200.000
198.17	-300.000
198.55	-271.429
198.92	-188.889
199.30	-400.000
199.68	-127.273
200.05	-185.714
200.43	-1400.000
200.81	414.286
201.18	0.000
201.56	322.222
201.94	0.000
202.31	1000.000
202.69	-266.667
203.07	2200.000
203.44	-255.556
203.82	-925.000
204.19	-150.000
204.57	-433.333
204.95	-312.500
205.32	-2100.000
205.70	450.000
206.08	-316.667
206.45	-316.667
206.83	700.000
207.20	-133.333
207.58	-540.000
207.96	-400.000
208.33	-233.333
208.71	250.000
209.08	-333.333
209.46	0.000
209.84	516.667
210.21	1350.000
210.59	1350.000
210.96	633.333
211.34	-500.000
211.71	-312.500
212.09	-2900.000
212.46	0.000
212.84	1600.000
213.22	-500.000
213.59	-525.000
213.97	-190.000
214.34	-933.333
214.72	616.667
215.09	-625.000
215.47	0.000
215.84	328.571
216.22	1650.000
216.59	-540.000
216.97	-560.000
217.34	-500.000
217.72	-262.500
218.09	-600.000
218.47	-650.000
218.84	0.000
219.22	400.000
219.59	-94.118
219.97	-140.000
220.34	1300.000
220.72	-211.111
221.09	-100.000
221.47	-733.333
221.84	-200.000
222.22	-314.286
222.59	0.000
222.97	-175.000
223.34	-700.000
223.72	-2900.000
224.09	-700.000
224.46	-750.000
224.84	-420.000
225.21	-614.286
225.59	-825.000
225.96	-700.000
226.34	-88.462
226.71	433.333
227.08	-1650.000
227.46	-186.667
227.83	-700.000
228.21	-73.684
228.58	387.500
228.95	1150.000
229.33	-91.667
229.70	-220.000
230.08	-57.895
230.45	240.000
230.82	-400.000
231.20	-121.429
231.57	-233.333
231.95	-209.091
232.32	-136.364
232.69	-90.000
233.07	-575.000
233.44	-117.647
233.81	-310.000
234.19	-122.222
234.56	-77.273
234.93	-27.586
235.31	-105.263
235.68	-72.222
236.05	-135.000
236.43	-26.923
236.80	-44.000
237.17	-37.037
237.55	-57.576
237.92	-230.000
238.29	-87.097
238.67	-45.455
239.04	-63.889
239.41	-50.000
239.79	-41.304
240.16	-25.926
240.53	-63.043
240.91	-72.549
241.28	-18.033
241.65	-16.418
242.02	-13.514
242.40	-24.615
242.77	-34.667
243.14	-28.049
243.51	-25.000
243.89	-24.359
244.26	-7.921
244.63	-6.863
245.00	-12.150
245.38	-9.649
245.75	-23.894
246.12	-3.968
246.49	-10.078
246.87	-2.143
247.24	-1.987
247.61	-5.263
247.98	-6.040
248.36	-2.469
248.73	-9.816
249.10	-5.464
249.47	4.975
249.84	1.571
250.22	0.000
250.59	2.222
250.96	1.364
251.33	-5.612
251.70	4.274
252.08	0.417
252.45	4.918
252.82	1.240
253.19	-3.516
253.56	-0.380
253.94	-3.462
254.31	0.758
254.68	4.196
255.05	8.795
255.42	0.340
255.79	3.883
256.16	1.656
256.54	2.649
256.91	5.246
257.28	1.311
257.65	0.955
258.02	-1.770
258.39	3.989
258.76	7.034
259.14	4.310
259.51	2.305
259.88	6.799
260.25	2.222
260.62	4.384
260.99	4.918
261.36	4.826
261.73	1.592
262.10	1.648
262.47	4.558
262.85	7.323
263.22	2.597
263.59	1.842
263.96	4.859
264.33	4.092
264.70	6.667
265.07	5.967
265.44	8.390
265.81	4.398
266.18	4.308
266.55	4.911
266.92	2.733
267.29	5.689
267.66	5.765
268.03	5.240
268.40	6.681
268.77	1.367
269.14	3.965
269.51	3.289
269.88	7.377
270.25	5.433
270.62	6.540
270.99	8.081
271.36	6.535
271.73	5.894
272.10	7.214
272.47	6.413
272.84	5.221
273.21	5.411
273.58	6.452
273.95	4.808
274.32	4.563
274.69	4.449
275.06	7.875
275.43	3.697
275.80	7.584
276.17	6.852
276.54	5.037
276.91	4.830
277.28	6.329
277.65	7.540
278.02	4.412
278.39	5.254
278.76	3.866
279.13	5.142
279.50	6.873
279.87	5.903
280.23	3.873
280.60	6.610
280.97	7.237
281.34	4.075
281.71	7.107
282.08	5.648
282.45	4.419
282.82	6.122
283.19	5.331
283.56	7.213
283.92	5.556
284.29	7.109
284.66	7.553
285.03	4.006
285.40	5.255
285.77	7.276
286.14	6.107
286.51	5.632
286.87	5.213
287.24	6.627
287.61	7.025
287.98	4.985
288.35	5.621
288.72	5.473
289.08	6.149
289.45	6.953
289.82	5.572
290.19	5.747
290.56	6.620
290.93	6.277
291.29	5.647
291.66	5.647
292.03	4.613
292.40	8.163
292.77	5.930
293.13	4.330
293.50	3.679
293.87	4.698
294.24	6.000
294.60	7.712
294.97	4.027
295.34	4.609
295.71	4.161
296.08	5.814
296.44	6.127
296.81	5.847
297.18	4.483
297.55	4.009
297.91	4.508
298.28	4.384
298.65	5.826
299.02	5.903
299.38	5.950
299.75	4.790
300.12	3.009
300.48	5.300
300.85	5.287
301.22	4.027
301.59	4.110
301.95	5.311
302.32	5.556
302.69	3.834
303.05	5.658
303.42	5.100
303.79	4.688
304.15	4.732
304.52	4.651
304.89	4.188
305.25	5.072
305.62	4.702
305.99	5.155
306.35	2.722
306.72	5.584
307.09	5.076
307.45	4.969
307.82	4.844
308.19	4.137
308.55	5.882
308.92	4.771
309.29	4.789
309.65	4.971
310.02	3.960
310.38	4.626
310.75	5.146
311.12	4.506
311.48	3.519
311.85	5.033
312.22	5.313
312.58	3.944
312.95	4.876
313.31	4.788
313.68	5.128
314.05	5.420
314.41	4.827
314.78	5.631
315.14	5.354
315.51	5.817
315.87	6.121
316.24	5.297
316.61	5.595
316.97	6.063
317.34	5.379
317.70	5.415
318.07	4.409
318.43	6.463
318.80	5.769
319.16	4.378
319.53	4.799
319.89	4.557
320.26	5.249
320.62	4.433
320.99	5.448
321.35	5.638
321.72	6.698
322.08	4.689
322.45	5.781
322.81	5.144
323.18	4.956
323.54	4.828
323.91	6.495
324.27	5.594
324.64	5.626
325.00	4.478
325.37	5.487
325.73	6.033
326.10	6.650
326.46	5.863
326.83	4.964
327.19	6.693
327.56	6.877
327.92	6.294
328.29	5.323
328.65	5.025
329.01	5.076
329.38	5.223
329.74	6.935
330.11	6.678
330.47	5.644
330.84	6.029
331.20	6.500
331.56	4.766
331.93	5.607
332.29	6.356
332.66	5.316
333.02	6.616
333.38	4.866
333.75	4.209
334.11	5.755
334.48	5.198
334.84	5.438
335.20	5.290
335.57	6.071
335.93	6.281
336.29	4.576
336.66	5.299
337.02	5.936
337.38	6.293
337.75	4.793
338.11	6.812
338.47	5.128
338.84	5.245
339.20	4.802
339.56	5.519
339.93	5.501
340.29	6.441
340.65	6.407
341.02	5.906
341.38	5.497
341.74	5.650
342.11	5.471
342.47	4.766
342.83	6.039
343.20	5.805
343.56	5.132
343.92	5.364
344.28	5.937
344.65	6.589
345.01	6.162
345.37	5.365
345.73	4.443
346.10	5.694
346.46	4.668
346.82	5.768
347.19	5.042
347.55	6.222
347.91	5.349
348.27	6.373
348.63	5.941
349.00	6.413
349.36	5.279
349.72	4.985
350.08	5.275
350.45	4.639
350.81	5.354
351.17	4.962
351.53	5.383
351.89	5.619
352.26	5.597
352.62	5.448
352.98	5.420
353.34	5.078
353.70	5.624
354.07	5.589
354.43	5.391
354.79	5.684
355.15	5.740
355.51	5.921
355.87	5.161
356.24	5.095
356.60	5.174
356.96	5.041
357.32	5.130
357.68	4.905
358.04	5.090
358.40	4.776
358.77	5.629
359.13	4.653
359.49	4.312
359.85	5.511
360.21	6.385
360.57	5.312
360.93	4.443
361.29	5.474
361.66	5.069
362.02	5.776
362.38	5.411
362.74	5.377
363.10	5.365
363.46	5.471
363.82	4.545
364.18	4.011
364.54	5.187
364.90	6.020
365.26	4.000
365.62	6.200
365.98	5.514
366.35	5.235
366.71	6.054
367.07	5.210
367.43	5.844
367.79	5.839
368.15	5.686
368.51	5.819
368.87	5.683
369.23	5.400
369.59	5.874
369.95	5.612
370.31	5.739
370.67	5.158
371.03	5.471
371.39	4.500
371.75	5.915
372.11	5.827
372.47	5.755
372.83	5.694
373.19	5.270
373.55	4.675
373.91	5.112
374.27	5.239
374.63	5.819
374.99	5.239
375.35	5.844
375.71	5.871
376.07	5.552
376.42	6.108
376.78	6.153
377.14	5.739
377.50	5.123
377.86	6.404
378.22	5.569
378.58	6.540
378.94	6.338
379.30	5.624
379.66	5.585
380.02	6.636
380.38	5.991
380.74	6.254
381.09	5.401
381.45	6.364
381.81	6.792
382.17	6.116
382.53	5.965
382.89	6.716
383.25	6.155
383.61	5.498
383.97	5.359
384.32	6.699
384.68	6.265
385.04	6.709
385.40	7.307
385.76	6.272
386.12	5.685
386.48	6.353
386.83	5.900
387.19	5.968
387.55	4.988
387.91	5.879
388.27	6.409
388.62	6.644
388.98	6.148
389.34	6.541
389.70	5.811
390.06	6.039
390.42	6.024
390.77	7.104
391.13	6.103
391.49	7.005
391.85	5.576
392.20	6.702
392.56	7.088
392.92	7.197
393.28	7.076
393.64	6.034
393.99	6.856
394.35	6.600
394.71	6.766
395.07	5.449
395.42	7.025
395.78	6.520
396.14	6.358
396.50	5.879
396.85	6.857
397.21	6.213
397.57	6.243
397.92	6.758
398.28	6.681
398.64	6.236
399.00	6.859
399.35	7.068
399.71	6.141
400.07	6.513
400.42	6.636
400.78	7.118
401.14	5.976
401.49	6.424
401.85	5.988
402.21	6.605
402.57	6.631
402.92	7.033
403.28	6.265
403.63	5.609
403.99	6.354
404.35	6.424
404.70	7.592
405.06	6.685
405.42	6.674
405.77	6.707
406.13	6.591
406.49	5.856
406.84	6.981
407.20	6.149
407.55	6.178
407.91	5.845
408.27	7.067
408.62	7.039
408.98	6.094
409.34	5.630
409.69	6.551
410.05	7.268
410.40	6.381
410.76	6.955
411.11	6.078
411.47	7.064
411.83	6.937
412.18	7.169
412.54	6.817
412.89	6.868
413.25	6.998
413.60	5.916
413.96	6.760
414.31	6.402
414.67	6.500
415.03	6.215
415.38	6.557
415.74	6.903
416.09	6.909
416.45	6.512
416.80	5.936
417.16	6.577
417.51	6.413
417.87	6.560
418.22	5.988
418.58	6.134
418.93	6.810
419.29	6.597
419.64	6.363
420.00	5.697
420.35	6.738
420.71	6.663
421.06	6.095
421.42	6.021
421.77	5.654
422.12	6.501
422.48	6.656
422.83	6.462
423.19	6.366
423.54	6.637
423.90	6.847
424.25	7.093
424.61	5.741
424.96	6.535
425.31	6.582
425.67	6.227
426.02	6.419
426.38	6.831
426.73	6.864
427.09	7.324
427.44	6.226
427.79	6.025
428.15	5.879
428.50	6.798
428.85	6.487
429.21	6.755
429.56	6.170
429.92	5.995
430.27	6.458
430.62	6.448
430.98	7.231
431.33	6.549
431.68	6.466
432.04	6.602
432.39	6.588
432.74	6.678
433.10	6.544
433.45	5.797
433.80	6.384
434.16	7.593
434.51	7.040
434.86	6.569
435.22	6.854
435.57	6.604
435.92	7.290
436.28	6.883
436.63	7.100
436.98	6.871
437.34	6.595
437.69	6.659
438.04	6.029
438.39	6.835
438.75	6.087
439.10	7.347
439.45	6.875
439.81	6.723
440.16	7.024
440.51	7.246
440.86	7.226
441.22	6.377
441.57	6.499
441.92	7.177
442.27	7.374
442.63	7.750
442.98	7.150
443.33	7.417
443.68	8.523
444.03	7.620
444.39	7.721
444.74	7.759
445.09	6.842
445.44	7.640
445.79	7.232
446.15	7.605
446.50	7.597
446.85	7.733
447.20	8.027
447.55	7.584
447.91	7.120
448.26	7.135
448.61	7.492
448.96	8.155
449.31	7.900
449.66	7.407
450.02	7.700
450.37	8.578
450.72	7.481
451.07	7.745
451.42	7.799
451.77	8.171
452.12	7.223
452.47	7.249
452.83	7.320
453.18	7.764
453.53	7.065
453.88	8.172
454.23	8.079
454.58	7.951
454.93	7.221
455.28	8.067
455.63	7.447
455.98	7.877
456.34	7.892
456.69	8.054
457.04	7.624
457.39	8.426
457.74	8.110
458.09	7.798
458.44	8.567
458.79	8.355
459.14	8.652
459.49	7.187
459.84	7.975
460.19	7.940
460.54	8.348
460.89	8.152
461.24	7.586
461.59	7.969
461.94	7.986
462.29	7.503
462.64	8.147
462.99	7.156
463.34	7.787
463.69	7.796
464.04	8.894
464.39	7.904
464.74	8.381
465.09	8.131
465.44	8.047
465.79	8.831
466.14	8.338
466.49	8.421
466.84	7.713
467.19	7.688
467.54	7.109
467.89	7.586
468.24	7.922
468.59	7.991
468.94	8.100
469.29	7.499
469.64	7.819
469.99	7.903
470.34	7.983
470.68	8.612
471.03	8.448
471.38	7.848
471.73	6.957
472.08	7.170
472.43	7.887
472.78	8.627
473.13	7.712
473.48	8.157
473.83	8.764
474.17	8.734
474.52	7.937
474.87	8.859
475.22	8.789
475.57	8.204
475.92	9.457
476.27	8.573
476.61	9.034
476.96	8.394
477.31	9.010
477.66	8.814
478.01	8.338
478.36	8.774
478.70	8.670
479.05	8.845
479.40	8.588
479.75	8.694
480.10	8.669
480.45	8.660
480.79	8.889
481.14	8.410
481.49	8.405
481.84	8.573
482.19	8.602
482.53	8.876
482.88	8.906
483.23	8.537
483.58	8.122
483.92	8.333
484.27	7.917
484.62	8.540
484.97	8.787
485.31	8.448
485.66	7.967
486.01	8.052
486.36	8.419
486.70	8.943
487.05	9.132
487.40	9.241
487.75	8.830
488.09	8.932
488.44	9.125
488.79	8.803
489.13	8.508
489.48	8.078
489.83	8.652
490.17	8.708
490.52	8.826
490.87	8.503
491.22	8.882
491.56	8.788
491.91	8.984
492.26	9.130
492.60	8.483
492.95	8.776
493.30	8.920
493.64	9.067
493.99	8.377
494.34	8.275
494.68	8.565
495.03	8.678
495.37	9.188
495.72	8.753
496.07	8.589
496.41	8.580
496.76	9.049
497.11	8.790
497.45	8.891
497.80	9.551
498.14	8.571
498.49	8.410
498.84	9.141
499.18	9.177
499.53	8.700
499.87	9.275
500.22	7.970
500.56	9.222
500.91	8.650
501.26	9.591
501.60	8.749
501.95	8.815
502.29	8.951
502.64	9.095
502.98	8.887
503.33	8.639
503.67	8.591
504.02	8.669
504.36	9.473
504.71	8.682
505.06	8.777
505.40	8.364
505.75	8.971
506.09	8.978
506.44	8.821
506.78	9.725
507.13	9.221
507.47	9.143
507.82	9.138
508.16	9.130
508.51	8.673
508.85	8.880
509.19	9.427
509.54	9.462
509.88	8.354
510.23	9.762
510.57	9.038
510.92	8.950
511.26	9.091
511.61	8.595
511.95	9.078
512.30	9.601
512.64	8.346
512.98	9.805
513.33	9.879
513.67	9.638
514.02	9.709
514.36	9.412
514.70	9.219
515.05	9.385
515.39	9.081
515.74	9.968
516.08	9.456
516.42	10.466
516.77	9.516
517.11	9.644
517.46	9.756
517.80	9.621
518.14	9.630
518.49	10.141
518.83	9.580
519.17	9.047
519.52	9.644
519.86	9.240
520.20	10.383
520.55	9.419
520.89	10.023
521.23	9.994
521.58	9.322
521.92	9.348
522.26	9.507
522.61	10.532
522.95	9.746
523.29	9.483
523.64	9.473
523.98	9.812
524.32	10.372
524.66	9.676
525.01	9.343
525.35	9.305
525.69	9.629
526.04	9.013
526.38	10.287
526.72	9.227
527.06	9.560
527.41	10.321
527.75	9.679
528.09	10.153
528.43	9.710
528.78	9.133
529.12	9.977
529.46	9.668
529.80	10.355
530.15	9.681
530.49	9.431
530.83	9.504
531.17	8.423
531.51	10.108
531.86	9.195
532.20	10.000
532.54	9.695
532.88	10.121
533.22	9.311
533.57	9.752
533.91	10.494
534.25	9.440
534.59	9.943
534.93	9.791
535.27	10.085
535.62	10.802
535.96	9.820
536.30	9.107
536.64	10.090
536.98	10.086
537.32	9.383
537.66	9.545
538.01	10.755
538.35	9.744
538.69	9.375
539.03	9.258
539.37	9.482
539.71	9.429
540.05	10.252
540.39	8.985
540.73	9.350
541.07	9.810
541.42	9.451
541.76	9.134
542.10	9.107
542.44	9.318
542.78	9.793
543.12	9.654
543.46	9.890
543.80	9.233
544.14	9.396
544.48	9.693
544.82	9.814
545.16	9.600
545.50	9.407
545.84	9.430
546.18	10.185
546.52	8.854
546.86	9.937
547.20	9.351
547.54	9.238
547.88	9.584
548.22	9.357
548.56	10.591
548.90	8.955
549.24	10.274
549.58	9.527
549.92	10.268
550.26	10.744
550.60	10.657
550.94	9.508
551.28	9.439
551.62	9.704
551.96	9.903
552.30	10.198
552.64	10.143
552.98	9.669
553.32	9.518
553.66	9.196
554.00	10.214
554.34	10.232
554.68	9.942
555.02	10.118
555.36	10.125
555.69	8.200
556.03	8.890
556.37	10.200
556.71	10.590
557.05	10.415
557.39	9.688
557.73	10.040
558.07	9.404
558.41	10.299
558.75	10.074
559.08	9.255
559.42	9.808
559.76	9.634
560.10	9.846
560.44	9.565
560.78	10.750
561.12	10.037
561.45	9.489
561.79	9.646
562.13	10.721
562.47	9.063
562.81	9.620
563.15	9.343
563.48	10.566
563.82	10.036
564.16	10.236
564.50	9.952
564.84	9.381
565.17	10.353
565.51	9.321
565.85	8.907
566.19	8.410
566.52	9.538
566.86	9.508
567.20	9.299
567.54	9.825
567.88	9.531
568.21	9.931
568.55	9.448
568.89	9.850
569.23	9.632
569.56	9.105
569.90	9.373
570.24	9.140
570.57	8.916
570.91	8.726
571.25	9.199
571.59	9.212
571.92	9.035
572.26	8.814
572.60	9.036
572.93	8.990
573.27	8.879
573.61	9.264
573.95	8.886
574.28	9.203
574.62	8.754
574.96	8.822
575.29	8.460
575.63	8.940
575.97	8.719
576.30	8.882
576.64	8.661
576.98	8.929
577.31	8.870
577.65	9.018
577.98	8.453
578.32	8.623
578.66	8.669
578.99	8.581
579.33	8.759
579.67	8.341
580.00	9.036
580.34	8.813
580.67	8.363
581.01	8.827
581.35	8.650
581.68	8.536
582.02	8.795
582.35	9.076
582.69	9.015
583.02	8.821
583.36	8.688
583.70	8.884
584.03	8.735
584.37	8.590
584.70	8.680
585.04	8.486
585.37	8.882
585.71	8.803
586.04	8.851
586.38	8.844
586.72	8.498
587.05	8.877
587.39	9.000
587.72	9.234
588.06	8.897
588.39	9.460
588.73	9.180
589.06	9.114
589.40	8.820
589.73	8.869
590.07	8.919
590.40	9.703
590.73	8.731
591.07	9.456
591.40	9.292
591.74	9.300
592.07	9.298
592.41	8.872
592.74	9.478
593.08	9.045
593.41	9.624
593.75	9.167
594.08	9.209
594.41	9.679
594.75	8.801
595.08	9.186
595.42	9.383
595.75	9.493
596.09	9.116
596.42	9.172
596.75	9.572
597.09	9.576
597.42	9.734
597.75	9.290
598.09	9.405
598.42	9.972
598.76	9.171
599.09	9.470
599.42	9.319
599.76	9.574
600.09	9.810
600.42	9.476
600.76	9.709
601.09	9.426
601.42	9.406
601.76	9.172
602.09	9.364
602.42	8.906
602.76	8.819
603.09	9.068
603.42	9.032
603.76	9.302
604.09	10.114
604.42	9.284
604.76	9.132
605.09	8.895
605.42	9.171
605.75	9.692
606.09	9.481
606.42	9.084
606.75	9.108
607.09	8.794
607.42	9.557
607.75	9.535
608.08	9.550
608.42	9.230
608.75	9.536
609.08	9.041
609.41	9.307
609.75	9.018
610.08	10.202
610.41	9.261
610.74	9.538
611.07	9.503
611.41	9.596
611.74	9.469
612.07	9.350
612.40	8.745
612.73	9.340
613.07	9.340
613.40	9.432
613.73	10.014
614.06	9.617
614.39	8.649
614.72	9.267
615.06	9.384
615.39	9.183
615.72	8.768
616.05	9.519
616.38	9.435
616.71	9.613
617.05	9.052
617.38	9.631
617.71	9.719
618.04	9.822
618.37	9.672
618.70	9.729
619.03	9.558
619.36	9.618
619.69	9.801
620.03	9.040
620.36	9.448
620.69	8.945
621.02	9.843
621.35	9.579
621.68	10.340
622.01	8.683
622.34	8.438
622.67	9.416
623.00	8.300
623.33	10.020
623.66	10.117
623.99	9.480
624.32	10.071
624.65	9.459
624.99	10.078
625.32	11.039
625.65	10.115
625.98	9.424
626.31	9.426
626.64	9.817
626.97	10.278
627.30	9.036
627.63	9.152
627.96	10.811
628.29	9.572
628.62	9.068
628.95	9.553
629.28	9.431
629.61	10.269
629.94	8.452
630.26	9.492
630.59	9.845
630.92	9.004
631.25	10.286
631.58	10.546
631.91	8.997
632.24	11.239
632.57	9.962
632.90	9.228
633.23	9.898
633.56	9.490
633.89	9.194
634.22	9.771
634.55	9.708
634.88	8.874
635.20	9.688
635.53	9.944
635.86	10.618
636.19	12.089
636.52	9.810
636.85	9.397
637.18	10.083
637.51	9.570
637.83	10.188
638.16	10.599
638.49	9.272
638.82	9.583
639.15	9.966
639.48	11.085
639.81	10.046
640.13	9.423
640.46	9.576
640.79	9.681
641.12	10.062
641.45	10.163
641.77	11.040
642.10	9.449
642.43	10.638
642.76	11.653
643.09	10.274
643.41	9.384
643.74	9.931
644.07	11.172
644.40	10.042
644.73	9.579
645.05	10.573
645.38	9.640
645.71	9.531
646.04	11.191
646.36	8.759
646.69	9.356
647.02	11.774
647.35	9.924
647.67	11.755
648.00	9.713
648.33	9.610
648.66	9.843
648.98	10.884
649.31	9.202
649.64	11.952
649.96	9.284
650.29	8.067
650.62	10.750
650.94	9.610
651.27	8.533
651.60	9.503
651.92	8.815
652.25	9.986
652.58	9.354
652.90	7.994
653.23	9.014
653.56	9.272
653.88	11.798
