SpectraSuite Data File
++++++++++++++++++++++++++++++++++++
Date: Thu May 14 14:49:02 PDT 2015
User: schluterlab
Dark Spectrum Present: Yes
Reference Spectrum Present: Yes
Number of Sampled Component Spectra: 1
Spectrometers: USB2E3373
Integration Time (usec): 3000 (USB2E3373)
Spectra Averaged: 3 (USB2E3373)
Boxcar Smoothing: 0 (USB2E3373)
Correct for Electrical Dark: No (USB2E3373)
Strobe/Lamp Enabled: No (USB2E3373)
Correct for Detector Non-linearity: No (USB2E3373)
Correct for Stray Light: No (USB2E3373)
Number of Pixels in Processed Spectrum: 2048
>>>>>Begin Processed Spectral Data<<<<<
178.53	0.000
178.91	28.571
179.29	-1200.000
179.67	-500.000
180.04	78.571
180.42	40.000
180.80	120.000
181.18	-700.000
181.56	-200.000
181.94	-100.000
182.31	25.000
182.69	166.667
183.07	-150.000
183.45	225.000
183.83	-50.000
184.20	100.000
184.58	400.000
184.96	-175.000
185.34	-66.667
185.72	-100.000
186.09	155.556
186.47	500.000
186.85	280.000
187.23	-77.778
187.61	-1400.000
187.98	60.000
188.36	175.000
188.74	-200.000
189.12	-233.333
189.49	25.000
189.87	-12.500
190.25	-33.333
190.63	-80.000
191.00	-188.889
191.38	0.000
191.76	-125.000
192.14	-100.000
192.51	650.000
192.89	50.000
193.27	0.000
193.65	-57.143
194.02	-1000.000
194.40	-42.857
194.78	71.429
195.15	0.000
195.53	45.455
195.91	0.000
196.29	150.000
196.66	-46.154
197.04	-100.000
197.42	-100.000
197.79	-450.000
198.17	-87.500
198.55	-142.857
198.92	-55.556
199.30	-75.000
199.68	54.545
200.05	-21.429
200.43	-550.000
200.81	214.286
201.18	0.000
201.56	88.889
201.94	0.000
202.31	166.667
202.69	-144.444
203.07	300.000
203.44	55.556
203.82	-275.000
204.19	-16.667
204.57	-133.333
204.95	-137.500
205.32	-900.000
205.70	225.000
206.08	-66.667
206.45	50.000
206.83	100.000
207.20	-150.000
207.58	-220.000
207.96	-216.667
208.33	16.667
208.71	41.667
209.08	0.000
209.46	0.000
209.84	150.000
210.21	200.000
210.59	50.000
210.96	400.000
211.34	25.000
211.71	-12.500
212.09	-700.000
212.46	0.000
212.84	400.000
213.22	0.000
213.59	-200.000
213.97	100.000
214.34	-200.000
214.72	200.000
215.09	-125.000
215.47	0.000
215.84	42.857
216.22	1000.000
216.59	-100.000
216.97	-40.000
217.34	-100.000
217.72	-25.000
218.09	-325.000
218.47	-125.000
218.84	0.000
219.22	-20.000
219.59	5.882
219.97	5.000
220.34	450.000
220.72	-33.333
221.09	-7.692
221.47	-166.667
221.84	-130.000
222.22	-14.286
222.59	0.000
222.97	-75.000
223.34	-320.000
223.72	-100.000
224.09	-275.000
224.46	-50.000
224.84	80.000
225.21	-142.857
225.59	-75.000
225.96	-175.000
226.34	7.692
226.71	233.333
227.08	-200.000
227.46	-40.000
227.83	-300.000
228.21	-47.368
228.58	37.500
228.95	250.000
229.33	-66.667
229.70	110.000
230.08	36.842
230.45	170.000
230.82	0.000
231.20	14.286
231.57	16.667
231.95	-90.909
232.32	0.000
232.69	40.000
233.07	-250.000
233.44	-29.412
233.81	-80.000
234.19	5.556
234.56	0.000
234.93	20.690
235.31	-5.263
235.68	16.667
236.05	-40.000
236.43	-3.846
236.80	28.000
237.17	-3.704
237.55	-12.121
237.92	-120.000
238.29	-16.129
238.67	-15.909
239.04	-27.778
239.41	4.762
239.79	15.217
240.16	12.963
240.53	-2.174
240.91	-23.529
241.28	-14.754
241.65	4.478
242.02	21.622
242.40	-15.385
242.77	-5.333
243.14	-12.195
243.51	-13.158
243.89	-11.538
244.26	6.931
244.63	7.843
245.00	6.542
245.38	-0.877
245.75	-16.814
246.12	3.968
246.49	0.775
246.87	2.143
247.24	1.325
247.61	0.000
247.98	1.342
248.36	3.086
248.73	-6.748
249.10	0.000
249.47	4.478
249.84	8.377
250.22	4.663
250.59	3.333
250.96	7.273
251.33	2.551
251.70	9.829
252.08	7.083
252.45	1.639
252.82	-2.479
253.19	0.391
253.56	3.422
253.94	2.308
254.31	0.379
254.68	8.042
255.05	6.840
255.42	1.701
255.79	-1.618
256.16	4.636
256.54	1.656
256.91	4.262
257.28	0.984
257.65	2.229
258.02	1.770
258.39	3.704
258.76	9.480
259.14	5.460
259.51	5.764
259.88	5.382
260.25	4.167
260.62	1.370
260.99	6.011
261.36	4.826
261.73	2.122
262.10	1.648
262.47	1.072
262.85	8.586
263.22	2.338
263.59	2.105
263.96	3.581
264.33	0.767
264.70	1.975
265.07	5.728
265.44	7.483
265.81	2.546
266.18	3.628
266.55	5.804
266.92	2.050
267.29	5.252
267.66	4.435
268.03	4.803
268.40	3.132
268.77	1.822
269.14	0.661
269.51	3.289
269.88	4.508
270.25	5.433
270.62	4.852
270.99	6.263
271.36	3.960
271.73	4.322
272.10	5.611
272.47	3.206
272.84	4.618
273.21	3.407
273.58	4.435
273.95	2.500
274.32	2.852
274.69	2.708
275.06	4.212
275.43	4.251
275.80	3.880
276.17	3.148
276.54	2.612
276.91	3.578
277.28	4.159
277.65	4.129
278.02	3.676
278.39	3.804
278.76	3.515
279.13	3.369
279.50	5.842
279.87	5.009
280.23	1.937
280.60	4.576
280.97	6.908
281.34	3.226
281.71	5.584
282.08	5.150
282.45	3.437
282.82	4.082
283.19	3.716
283.56	2.623
283.92	5.255
284.29	5.371
284.66	4.598
285.03	0.481
285.40	4.637
285.77	1.858
286.14	3.969
286.51	3.653
286.87	3.791
287.24	3.163
287.61	3.438
287.98	3.323
288.35	4.438
288.72	4.438
289.08	4.539
289.45	3.402
289.82	3.614
290.19	3.305
290.56	3.662
290.93	3.994
291.29	3.444
291.66	1.515
292.03	1.900
292.40	5.306
292.77	3.235
293.13	4.195
293.50	2.497
293.87	2.953
294.24	4.667
294.60	3.919
294.97	1.879
295.34	5.250
295.71	2.396
296.08	3.747
296.44	2.819
296.81	3.898
297.18	2.491
297.55	3.656
297.91	3.796
298.28	2.607
298.65	4.281
299.02	2.125
299.38	3.776
299.75	3.037
300.12	2.315
300.48	2.995
300.85	3.037
301.22	3.579
301.59	1.598
301.95	2.825
302.32	4.333
302.69	2.300
303.05	3.047
303.42	3.326
303.79	2.604
304.15	3.891
304.52	2.114
304.89	3.246
305.25	2.899
305.62	3.030
305.99	3.505
306.35	2.520
306.72	3.723
307.09	2.843
307.45	4.348
307.82	3.229
308.19	2.523
308.55	4.339
308.92	3.408
309.29	4.310
309.65	3.606
310.02	3.960
310.38	2.657
310.75	3.107
311.12	3.931
311.48	3.519
311.85	3.229
312.22	3.890
312.58	2.817
312.95	3.155
313.31	3.162
313.68	4.304
314.05	3.704
314.41	3.916
314.78	4.360
315.14	4.446
315.51	4.155
315.87	4.410
316.24	5.479
316.61	6.217
316.97	4.163
317.34	4.762
317.70	6.114
318.07	5.203
318.43	6.037
318.80	7.023
319.16	5.494
319.53	4.799
319.89	5.609
320.26	7.829
320.62	6.294
320.99	6.648
321.35	7.763
321.72	8.093
322.08	7.304
322.45	7.949
322.81	8.394
323.18	7.345
323.54	7.931
323.91	9.342
324.27	8.003
324.64	9.068
325.00	8.541
325.37	9.746
325.73	9.421
326.10	9.976
326.46	10.342
326.83	10.649
327.19	10.630
327.56	10.672
327.92	11.172
328.29	10.323
328.65	11.223
329.01	11.252
329.38	11.457
329.74	12.671
330.11	12.586
330.47	12.384
330.84	13.351
331.20	13.833
331.56	12.738
331.93	13.891
332.29	14.322
332.66	14.203
333.02	14.489
333.38	14.262
333.75	14.394
334.11	14.512
334.48	15.099
334.84	16.992
335.20	16.121
335.57	16.358
335.93	16.281
336.29	15.474
336.66	16.316
337.02	16.137
337.38	16.582
337.75	16.281
338.11	16.484
338.47	16.460
338.84	16.328
339.20	15.922
339.56	16.886
339.93	16.667
340.29	16.103
340.65	16.221
341.02	17.318
341.38	17.542
341.74	16.707
342.11	16.814
342.47	15.806
342.83	17.552
343.20	18.234
343.56	16.760
343.92	17.774
344.28	17.578
344.65	18.140
345.01	17.239
345.37	17.807
345.73	16.368
346.10	17.083
346.46	17.168
346.82	17.453
347.19	16.578
347.55	16.540
347.91	16.270
348.27	17.451
348.63	17.212
349.00	17.151
349.36	16.283
349.72	17.113
350.08	16.939
350.45	16.730
350.81	16.667
351.17	17.519
351.53	17.437
351.89	17.464
352.26	15.970
352.62	17.313
352.98	17.405
353.34	16.804
353.70	17.257
354.07	17.884
354.43	16.629
354.79	16.679
355.15	16.924
355.51	18.202
355.87	17.203
356.24	17.947
356.60	16.038
356.96	16.679
357.32	16.134
357.68	17.130
358.04	16.617
358.40	16.716
358.77	16.813
359.13	16.987
359.49	17.026
359.85	16.751
360.21	16.786
360.57	17.014
360.93	16.996
361.29	16.842
361.66	17.017
362.02	17.537
362.38	16.866
362.74	16.341
363.10	17.469
363.46	16.828
363.82	16.193
364.18	17.171
364.54	18.119
364.90	16.589
365.26	16.483
365.62	17.333
365.98	16.133
366.35	16.779
366.71	17.483
367.07	17.997
367.43	17.531
367.79	17.452
368.15	18.060
368.51	17.591
368.87	16.329
369.23	16.933
369.59	17.691
369.95	16.903
370.31	18.366
370.67	17.607
371.03	18.075
371.39	17.529
371.75	18.501
372.11	17.480
372.47	17.536
372.83	17.866
373.19	18.079
373.55	17.480
373.91	17.382
374.27	17.076
374.63	17.591
374.99	17.507
375.35	17.857
375.71	17.548
376.07	17.043
376.42	19.081
376.78	18.210
377.14	17.966
377.50	18.153
377.86	18.103
378.22	19.281
378.58	18.193
378.94	18.486
379.30	18.219
379.66	17.872
380.02	18.638
380.38	19.240
380.74	19.155
381.09	18.583
381.45	19.091
381.81	19.438
382.17	18.884
382.53	18.421
382.89	18.962
383.25	18.757
383.61	18.171
383.97	18.433
384.32	18.600
384.68	18.852
385.04	18.913
385.40	19.328
385.76	18.875
386.12	18.971
386.48	19.118
386.83	19.368
387.19	18.656
387.55	19.425
387.91	19.178
388.27	19.053
388.62	19.359
388.98	19.177
389.34	19.564
389.70	19.756
390.06	19.716
390.42	18.554
390.77	19.747
391.13	18.662
391.49	19.444
391.85	18.970
392.20	19.988
392.56	18.960
392.92	19.738
393.28	20.011
393.64	18.883
393.99	18.942
394.35	19.276
394.71	19.281
395.07	19.461
395.42	19.760
395.78	20.049
396.14	18.776
396.50	19.062
396.85	19.678
397.21	19.586
397.57	18.905
397.92	19.473
398.28	19.011
398.64	19.222
399.00	18.482
399.35	19.843
399.71	19.293
400.07	19.596
400.42	19.674
400.78	19.676
401.14	20.262
401.49	19.613
401.85	18.372
402.21	19.177
402.57	19.366
402.92	18.617
403.28	18.560
403.63	18.377
403.99	19.121
404.35	18.192
404.70	18.867
405.06	18.315
405.42	18.618
405.77	19.302
406.13	18.531
406.49	18.412
406.84	19.723
407.20	18.558
407.55	18.655
407.91	18.290
408.27	18.669
408.62	19.197
408.98	18.398
409.34	18.592
409.69	18.850
410.05	18.757
410.40	19.664
410.76	17.947
411.11	18.819
411.47	19.042
411.83	18.519
412.18	18.494
412.54	19.206
412.89	18.510
413.25	18.567
413.60	18.438
413.96	18.298
414.31	18.414
414.67	18.545
415.03	18.092
415.38	19.483
415.74	18.448
416.09	19.432
416.45	18.973
416.80	18.176
417.16	19.349
417.51	18.555
417.87	17.597
418.22	18.563
418.58	19.393
418.93	18.859
419.29	18.372
419.64	17.947
420.00	17.923
420.35	18.866
420.71	19.070
421.06	18.574
421.42	19.323
421.77	17.609
422.12	18.499
422.48	18.945
422.83	19.113
423.19	18.992
423.54	18.031
423.90	17.891
424.25	18.347
424.61	18.312
424.96	18.836
425.31	18.843
425.67	18.948
426.02	18.926
426.38	18.944
426.73	18.862
427.09	20.242
427.44	18.514
427.79	18.684
428.15	18.779
428.50	19.213
428.85	19.346
429.21	20.213
429.56	18.657
429.92	19.263
430.27	19.325
430.62	18.906
430.98	19.036
431.33	18.426
431.68	18.726
432.04	19.198
432.39	19.175
432.74	19.007
433.10	20.173
433.45	19.565
433.80	19.206
434.16	19.938
434.51	19.990
434.86	19.707
435.22	20.404
435.57	19.870
435.92	20.089
436.28	19.511
436.63	19.661
436.98	19.753
437.34	19.448
437.69	19.758
438.04	19.566
438.39	19.931
438.75	19.424
439.10	20.507
439.45	20.458
439.81	19.718
440.16	19.678
440.51	20.513
440.86	20.233
441.22	20.472
441.57	20.335
441.92	20.514
442.27	20.556
442.63	20.368
442.98	20.171
443.33	20.200
443.68	21.754
444.03	20.931
444.39	21.313
444.74	21.542
445.09	20.730
445.44	20.864
445.79	21.073
446.15	21.377
446.50	20.827
446.85	21.158
447.20	21.277
447.55	21.234
447.91	20.314
448.26	21.142
448.61	21.254
448.96	22.210
449.31	21.368
449.66	20.806
450.02	21.572
450.37	21.417
450.72	21.259
451.07	21.811
451.42	21.086
451.77	21.568
452.12	20.993
452.47	21.390
452.83	22.241
453.18	22.125
453.53	21.941
453.88	21.149
454.23	21.469
454.58	21.880
454.93	21.602
455.28	22.276
455.63	22.115
455.98	21.620
456.34	21.496
456.69	21.223
457.04	22.459
457.39	21.785
457.74	21.980
458.09	21.362
458.44	21.983
458.79	20.990
459.14	22.129
459.49	22.524
459.84	22.298
460.19	22.765
460.54	22.090
460.89	23.081
461.24	23.103
461.59	22.966
461.94	22.362
462.29	22.340
462.64	22.209
462.99	23.164
463.34	22.713
463.69	23.681
464.04	23.569
464.39	22.646
464.74	22.064
465.09	22.549
465.44	22.318
465.79	22.898
466.14	22.408
466.49	23.105
466.84	23.140
467.19	23.121
467.54	22.738
467.89	22.701
468.24	22.438
468.59	21.830
468.94	22.960
469.29	22.016
469.64	23.204
469.99	24.156
470.34	23.082
470.68	23.650
471.03	24.558
471.38	23.218
471.73	22.887
472.08	23.794
472.43	23.721
472.78	24.496
473.13	23.578
473.48	24.713
473.83	24.492
474.17	23.916
474.52	23.873
474.87	23.367
475.22	24.169
475.57	23.728
475.92	24.191
476.27	24.068
476.61	23.416
476.96	23.045
477.31	23.812
477.66	25.708
478.01	23.742
478.36	24.177
478.70	24.433
479.05	25.153
479.40	24.235
479.75	24.496
480.10	24.538
480.45	24.111
480.79	24.399
481.14	24.219
481.49	23.944
481.84	25.152
482.19	24.172
482.53	24.661
482.88	24.679
483.23	24.767
483.58	25.066
483.92	24.601
484.27	23.963
484.62	24.216
484.97	25.233
485.31	24.604
485.66	22.846
486.01	22.844
486.36	23.496
486.70	24.213
487.05	25.654
487.40	24.913
487.75	24.733
488.09	25.331
488.44	25.308
488.79	25.734
489.13	24.946
489.48	24.660
489.83	24.708
490.17	24.220
490.52	24.754
490.87	25.212
491.22	25.607
491.56	26.152
491.91	25.425
492.26	26.395
492.60	25.842
492.95	26.503
493.30	25.997
493.64	25.887
493.99	25.833
494.34	25.131
494.68	25.996
495.03	26.388
495.37	26.320
495.72	26.531
496.07	25.679
496.41	25.354
496.76	26.564
497.11	26.539
497.45	26.068
497.80	26.655
498.14	26.621
498.49	26.241
498.84	26.371
499.18	27.215
499.53	26.323
499.87	26.681
500.22	26.803
500.56	26.766
500.91	27.368
501.26	27.318
501.60	26.867
501.95	27.095
502.29	27.117
502.64	26.891
502.98	27.049
503.33	26.609
503.67	27.519
504.02	27.102
504.36	27.033
504.71	27.515
505.06	27.012
505.40	27.194
505.75	28.051
506.09	28.361
506.44	28.366
506.78	27.890
507.13	28.631
507.47	27.380
507.82	28.172
508.16	28.442
508.51	27.192
508.85	28.389
509.19	28.186
509.54	29.299
509.88	28.849
510.23	29.189
510.57	28.661
510.92	28.737
511.26	29.101
511.61	28.199
511.95	28.843
512.30	28.804
512.64	28.236
512.98	28.464
513.33	29.486
513.67	28.863
514.02	29.177
514.36	29.565
514.70	30.052
515.05	30.448
515.39	29.711
515.74	30.382
516.08	29.583
516.42	30.298
516.77	31.073
517.11	29.448
517.46	29.852
517.80	30.786
518.14	31.447
518.49	30.477
518.83	30.495
519.17	30.372
519.52	30.713
519.86	30.201
520.20	30.777
520.55	29.956
520.89	30.293
521.23	30.877
521.58	31.130
521.92	31.558
522.26	30.527
522.61	31.250
522.95	31.546
523.29	32.356
523.64	31.783
523.98	32.459
524.32	32.665
524.66	31.645
525.01	31.710
525.35	32.051
525.69	32.019
526.04	31.228
526.38	31.954
526.72	32.699
527.06	32.610
527.41	32.536
527.75	33.254
528.09	32.349
528.43	32.682
528.78	32.486
529.12	32.798
529.46	31.759
529.80	32.666
530.15	33.623
530.49	32.088
530.83	33.294
531.17	32.019
531.51	33.093
531.86	33.774
532.20	32.500
532.54	33.034
532.88	32.909
533.22	33.648
533.57	33.872
533.91	32.884
534.25	33.352
534.59	33.333
534.93	33.503
535.27	33.521
535.62	34.508
535.96	33.643
536.30	33.784
536.64	33.814
536.98	34.625
537.32	34.198
537.66	33.936
538.01	32.628
538.35	33.130
538.69	33.774
539.03	35.132
539.37	33.981
539.71	33.213
540.05	34.113
540.39	33.741
540.73	34.912
541.07	34.641
541.42	33.845
541.76	34.282
542.10	35.042
542.44	33.861
542.78	33.698
543.12	34.327
543.46	33.333
543.80	33.933
544.14	33.692
544.48	35.106
544.82	36.505
545.16	34.168
545.50	35.351
545.84	34.293
546.18	36.296
546.52	35.350
546.86	35.597
547.20	34.796
547.54	34.207
547.88	34.358
548.22	35.146
548.56	34.289
548.90	34.507
549.24	35.137
549.58	35.899
549.92	35.906
550.26	36.570
550.60	36.248
550.94	35.123
551.28	36.370
551.62	36.523
551.96	34.822
552.30	35.946
552.64	35.034
552.98	35.496
553.32	36.656
553.66	35.627
554.00	36.696
554.34	36.422
554.68	35.507
555.02	37.122
555.36	36.621
555.69	35.682
556.03	34.994
556.37	36.733
556.71	36.969
557.05	36.613
557.39	37.094
557.73	36.460
558.07	36.225
558.41	36.811
558.75	36.984
559.08	37.439
559.42	37.243
559.76	36.499
560.10	36.973
560.44	36.214
560.78	37.313
561.12	37.192
561.45	38.017
561.79	35.653
562.13	37.461
562.47	36.067
562.81	36.835
563.15	37.500
563.48	36.917
563.82	36.880
564.16	36.099
564.50	37.187
564.84	36.224
565.17	36.824
565.51	36.306
565.85	36.639
566.19	36.463
566.52	37.566
566.86	36.503
567.20	36.270
567.54	36.059
567.88	35.678
568.21	36.512
568.55	35.875
568.89	36.450
569.23	35.530
569.56	35.873
569.90	35.674
570.24	35.312
570.57	34.221
570.91	34.599
571.25	34.712
571.59	34.150
571.92	34.701
572.26	33.907
572.60	34.671
572.93	34.539
573.27	34.701
573.61	33.774
573.95	33.600
574.28	33.380
574.62	33.674
574.96	33.304
575.29	33.069
575.63	33.680
575.97	34.036
576.30	33.876
576.64	34.049
576.98	33.508
577.31	34.297
577.65	33.925
577.98	33.848
578.32	33.058
578.66	33.000
578.99	33.934
579.33	34.482
579.67	33.205
580.00	33.828
580.34	34.097
580.67	33.473
581.01	33.730
581.35	33.957
581.68	33.168
582.02	33.160
582.35	34.051
582.69	33.921
583.02	34.480
583.36	33.970
583.70	34.424
584.03	34.341
584.37	34.609
584.70	34.597
585.04	34.062
585.37	33.871
585.71	34.002
586.04	34.082
586.38	34.587
586.72	34.695
587.05	35.226
587.39	34.605
587.72	34.928
588.06	35.058
588.39	35.624
588.73	34.497
589.06	34.819
589.40	36.232
589.73	36.504
590.07	35.908
590.40	35.531
590.73	36.020
591.07	36.225
591.40	36.625
591.74	36.248
592.07	36.825
592.41	35.686
592.74	35.783
593.08	35.414
593.41	35.462
593.75	35.345
594.08	35.807
594.41	35.897
594.75	35.769
595.08	36.205
595.42	35.682
595.75	35.647
596.09	36.428
596.42	36.546
596.75	37.129
597.09	37.051
597.42	37.147
597.75	36.260
598.09	36.310
598.42	36.470
598.76	36.072
599.09	35.635
599.42	35.132
599.76	35.457
600.09	36.403
600.42	35.836
600.76	35.700
601.09	35.546
601.42	35.805
601.76	35.552
602.09	36.347
602.42	36.096
602.76	36.015
603.09	36.490
603.42	36.958
603.76	35.906
604.09	37.189
604.42	36.917
604.76	36.263
605.09	36.378
605.42	36.443
605.75	36.308
606.09	36.357
606.42	36.118
606.75	36.507
607.09	36.598
607.42	36.763
607.75	36.811
608.08	36.504
608.42	35.711
608.75	36.982
609.08	36.927
609.41	37.318
609.75	37.991
610.08	37.467
610.41	37.001
610.74	36.891
611.07	36.767
611.41	37.937
611.74	37.875
612.07	37.354
612.40	36.740
612.73	37.604
613.07	38.142
613.40	38.739
613.73	36.688
614.06	37.390
614.39	37.464
614.72	37.943
615.06	37.488
615.39	37.168
615.72	37.678
616.05	38.028
616.38	38.900
616.71	38.662
617.05	37.753
617.38	38.309
617.71	37.689
618.04	37.615
618.37	39.235
618.70	39.536
619.03	39.068
619.36	39.766
619.69	38.757
620.03	38.983
620.36	38.528
620.69	38.125
621.02	39.501
621.35	42.017
621.68	41.287
622.01	40.641
622.34	38.145
622.67	40.069
623.00	39.069
623.33	40.345
623.66	39.559
623.99	40.092
624.32	41.391
624.65	39.833
624.99	40.572
625.32	40.627
625.65	40.256
625.98	40.542
626.31	40.255
626.64	40.366
626.97	41.035
627.30	40.167
627.63	40.435
627.96	42.342
628.29	42.179
628.62	42.233
628.95	41.981
629.28	41.206
629.61	40.404
629.94	41.423
630.26	40.593
630.59	41.623
630.92	40.606
631.25	43.649
631.58	42.655
631.91	42.924
632.24	44.092
632.57	42.694
632.90	43.029
633.23	44.490
633.56	44.286
633.89	44.008
634.22	43.243
634.55	43.319
634.88	43.074
635.20	44.779
635.53	45.876
635.86	43.337
636.19	41.463
636.52	43.987
636.85	43.718
637.18	43.243
637.51	44.409
637.83	44.297
638.16	44.240
