SpectraSuite Data File
++++++++++++++++++++++++++++++++++++
Date: Thu May 14 14:51:59 PDT 2015
User: schluterlab
Dark Spectrum Present: Yes
Reference Spectrum Present: Yes
Number of Sampled Component Spectra: 1
Spectrometers: USB2E3373
Integration Time (usec): 3000 (USB2E3373)
Spectra Averaged: 3 (USB2E3373)
Boxcar Smoothing: 0 (USB2E3373)
Correct for Electrical Dark: No (USB2E3373)
Strobe/Lamp Enabled: No (USB2E3373)
Correct for Detector Non-linearity: No (USB2E3373)
Correct for Stray Light: No (USB2E3373)
Number of Pixels in Processed Spectrum: 2048
>>>>>Begin Processed Spectral Data<<<<<
178.53	0.000
178.91	142.857
179.29	-2600.000
179.67	-1900.000
180.04	114.286
180.42	80.000
180.80	320.000
181.18	-1600.000
181.56	-800.000
181.94	225.000
182.31	-50.000
182.69	400.000
183.07	-500.000
183.45	375.000
183.83	-133.333
184.20	33.333
184.58	1000.000
184.96	-275.000
185.34	-66.667
185.72	0.000
186.09	177.778
186.47	950.000
186.85	440.000
187.23	-222.222
187.61	-1600.000
187.98	200.000
188.36	375.000
188.74	-175.000
189.12	-100.000
189.49	-18.750
189.87	-137.500
190.25	-22.222
190.63	-100.000
191.00	-200.000
191.38	0.000
191.76	-425.000
192.14	-66.667
192.51	250.000
192.89	16.667
193.27	0.000
193.65	-142.857
194.02	-1500.000
194.40	-200.000
194.78	171.429
195.15	0.000
195.53	0.000
195.91	0.000
196.29	-75.000
196.66	-7.692
197.04	-1300.000
197.42	-128.571
197.79	-550.000
198.17	-100.000
198.55	-85.714
198.92	-55.556
199.30	-237.500
199.68	-36.364
200.05	-78.571
200.43	-850.000
200.81	285.714
201.18	0.000
201.56	300.000
201.94	0.000
202.31	366.667
202.69	-200.000
203.07	700.000
203.44	-55.556
203.82	-325.000
204.19	-8.333
204.57	-100.000
204.95	-150.000
205.32	-1000.000
205.70	350.000
206.08	-183.333
206.45	-133.333
206.83	320.000
207.20	-100.000
207.58	-400.000
207.96	-133.333
208.33	-16.667
208.71	75.000
209.08	-83.333
209.46	0.000
209.84	300.000
210.21	100.000
210.59	600.000
210.96	566.667
211.34	-50.000
211.71	-12.500
212.09	-2300.000
212.46	0.000
212.84	900.000
213.22	-380.000
213.59	-250.000
213.97	-80.000
214.34	-500.000
214.72	166.667
215.09	-25.000
215.47	0.000
215.84	-14.286
216.22	800.000
216.59	60.000
216.97	-260.000
217.34	-350.000
217.72	-125.000
218.09	-275.000
218.47	-350.000
218.84	0.000
219.22	340.000
219.59	-58.824
219.97	-40.000
220.34	900.000
220.72	-88.889
221.09	15.385
221.47	-400.000
221.84	-30.000
222.22	-114.286
222.59	0.000
222.97	-100.000
223.34	-340.000
223.72	-1200.000
224.09	-200.000
224.46	-300.000
224.84	0.000
225.21	-71.429
225.59	-425.000
225.96	-225.000
226.34	7.692
226.71	233.333
227.08	-250.000
227.46	-53.333
227.83	-200.000
228.21	0.000
228.58	225.000
228.95	650.000
229.33	-75.000
229.70	-90.000
230.08	-31.579
230.45	190.000
230.82	-400.000
231.20	7.143
231.57	25.000
231.95	-136.364
232.32	-90.909
232.69	55.000
233.07	-275.000
233.44	-5.882
233.81	-10.000
234.19	22.222
234.56	-27.273
234.93	20.690
235.31	-31.579
235.68	-50.000
236.05	-85.000
236.43	-19.231
236.80	4.000
237.17	22.222
237.55	-9.091
237.92	30.000
238.29	-38.710
238.67	13.636
239.04	-8.333
239.41	-14.286
239.79	-8.696
240.16	-12.963
240.53	-6.522
240.91	-15.686
241.28	14.754
241.65	0.000
242.02	13.514
242.40	-7.692
242.77	-4.000
243.14	-12.195
243.51	-3.947
243.89	-7.692
244.26	10.891
244.63	6.863
245.00	0.935
245.38	7.895
245.75	-1.770
246.12	5.556
246.49	6.977
246.87	3.571
247.24	9.934
247.61	13.158
247.98	5.369
248.36	4.321
248.73	1.840
249.10	6.011
249.47	12.935
249.84	10.471
250.22	3.109
250.59	8.333
250.96	4.545
251.33	1.020
251.70	8.974
252.08	5.417
252.45	10.656
252.82	5.372
253.19	5.859
253.56	7.605
253.94	6.923
254.31	7.576
254.68	10.490
255.05	13.029
255.42	7.143
255.79	9.385
256.16	6.291
256.54	7.616
256.91	9.836
257.28	6.230
257.65	6.369
258.02	7.965
258.39	8.262
258.76	13.456
259.14	10.632
259.51	8.069
259.88	8.215
260.25	6.389
260.62	11.781
260.99	9.836
261.36	10.188
261.73	6.897
262.10	10.989
262.47	10.188
262.85	10.354
263.22	7.532
263.59	6.842
263.96	7.417
264.33	8.951
264.70	9.136
265.07	10.501
265.44	11.338
265.81	10.417
266.18	11.565
266.55	10.045
266.92	7.745
267.29	9.190
267.66	10.643
268.03	11.135
268.40	10.438
268.77	6.834
269.14	6.608
269.51	8.333
269.88	11.680
270.25	7.847
270.62	9.916
270.99	10.707
271.36	11.485
271.73	9.627
272.10	11.623
272.47	9.820
272.84	11.446
273.21	11.623
273.58	12.903
273.95	9.423
274.32	9.506
274.69	9.865
275.06	10.806
275.43	8.318
275.80	12.698
276.17	8.148
276.54	11.194
276.91	8.587
277.28	9.222
277.65	11.311
278.02	9.743
278.39	9.964
278.76	8.612
279.13	9.220
279.50	9.966
279.87	8.945
280.23	8.803
280.60	10.508
280.97	10.526
281.34	8.998
281.71	12.860
282.08	9.468
282.45	6.219
282.82	10.204
283.19	8.078
283.56	8.852
283.92	10.961
284.29	11.216
284.66	10.673
285.03	6.731
285.40	10.046
285.77	9.752
286.14	10.076
286.51	9.893
286.87	8.689
287.24	10.241
287.61	9.865
287.98	8.308
288.35	10.059
288.72	8.432
289.08	10.395
289.45	10.947
289.82	9.036
290.19	8.764
290.56	10.282
290.93	9.415
291.29	10.055
291.66	9.366
292.03	9.905
292.40	9.660
292.77	9.164
293.13	11.231
293.50	8.936
293.87	8.993
294.24	8.933
294.60	10.367
294.97	8.456
295.34	11.524
295.71	7.314
296.08	8.915
296.44	10.049
296.81	8.770
297.18	8.842
297.55	9.198
297.91	9.253
298.28	8.175
298.65	9.037
299.02	7.792
299.38	9.611
299.75	9.463
300.12	9.606
300.48	9.332
300.85	9.224
301.22	9.955
301.59	7.534
301.95	9.492
302.32	10.667
302.69	8.324
303.05	9.249
303.42	7.982
303.79	9.062
304.15	9.253
304.52	8.879
304.89	9.843
305.25	8.903
305.62	10.449
305.99	11.031
306.35	9.778
306.72	9.617
307.09	8.122
307.45	10.870
307.82	9.586
308.19	8.981
308.55	10.222
308.92	9.445
309.29	10.057
309.65	8.869
310.02	10.594
310.38	9.449
310.75	11.068
311.12	10.259
311.48	9.482
311.85	11.111
312.22	11.195
312.58	10.516
312.95	10.612
313.31	11.653
313.68	11.905
314.05	13.279
314.41	12.568
314.78	12.897
315.14	12.704
315.51	12.558
315.87	13.951
316.24	14.155
316.61	14.387
316.97	12.851
317.34	11.817
317.70	14.498
318.07	13.933
318.43	15.901
318.80	14.632
319.16	14.936
319.53	13.796
319.89	14.549
320.26	15.214
320.62	16.578
320.99	16.251
321.35	16.636
321.72	17.860
322.08	16.952
322.45	16.531
322.81	16.787
323.18	18.142
323.54	18.017
323.91	18.327
324.27	19.621
324.64	19.899
325.00	19.983
325.37	19.820
325.73	21.074
326.10	20.925
326.46	21.498
326.83	22.258
327.19	22.677
327.56	22.134
327.92	21.400
328.29	22.581
328.65	23.032
329.01	23.942
329.38	22.662
329.74	26.370
330.11	25.000
330.47	25.948
330.84	24.892
331.20	25.917
331.56	26.343
331.93	25.858
332.29	26.949
332.66	25.997
333.02	26.801
333.38	25.671
333.75	26.852
334.11	27.273
334.48	27.063
334.84	26.508
335.20	26.364
335.57	28.078
335.93	26.198
336.29	26.290
336.66	25.904
337.02	26.338
337.38	27.636
337.75	26.612
338.11	27.418
338.47	27.874
338.84	26.227
339.20	26.369
339.56	27.677
339.93	27.750
340.29	26.248
340.65	26.764
341.02	26.496
341.38	27.890
341.74	26.634
342.11	27.273
342.47	26.529
342.83	28.180
343.20	27.310
343.56	28.067
343.92	26.982
344.28	27.344
344.65	27.984
345.01	28.159
345.37	27.216
345.73	26.656
346.10	27.691
346.46	26.503
346.82	26.442
347.19	27.578
347.55	27.845
347.91	27.266
348.27	27.466
348.63	26.885
349.00	26.473
349.36	27.286
349.72	26.860
350.08	26.746
350.45	26.084
350.81	25.943
351.17	27.594
351.53	26.384
351.89	26.196
352.26	27.239
352.62	27.761
352.98	26.031
353.34	26.587
353.70	26.194
354.07	27.720
354.43	25.361
354.79	26.552
355.15	26.343
355.51	27.193
355.87	26.103
356.24	27.072
356.60	26.016
356.96	27.502
357.32	26.914
357.68	27.452
358.04	25.973
358.40	26.716
358.77	27.778
359.13	27.179
359.49	26.617
359.85	26.323
360.21	26.829
360.57	27.423
360.93	27.221
361.29	26.386
361.66	26.068
362.02	28.045
362.38	26.634
362.74	25.978
363.10	27.785
363.46	26.870
363.82	27.415
364.18	27.938
364.54	26.694
364.90	26.957
365.26	27.517
365.62	28.800
365.98	26.413
366.35	26.107
366.71	27.483
367.07	28.214
367.43	27.774
367.79	27.206
368.15	28.094
368.51	28.146
368.87	26.976
369.23	27.533
369.59	26.298
369.95	28.262
370.31	27.887
370.67	27.648
371.03	27.147
371.39	26.125
371.75	27.098
372.11	28.320
372.47	27.691
372.83	28.272
373.19	26.818
373.55	27.100
373.91	26.585
374.27	27.038
374.63	26.725
374.99	27.454
375.35	28.052
375.71	26.645
376.07	27.502
376.42	27.393
376.78	28.154
377.14	27.449
377.50	28.526
377.86	27.771
378.22	27.964
378.58	27.586
378.94	27.700
379.30	28.237
379.66	27.925
380.02	27.928
380.38	28.571
380.74	27.606
381.09	29.559
381.45	28.466
381.81	27.986
382.17	27.791
382.53	28.772
382.89	28.894
383.25	28.253
383.61	27.546
383.97	28.622
384.32	29.007
384.68	27.610
385.04	28.340
385.40	28.874
385.76	28.664
386.12	28.905
386.48	29.059
386.83	28.725
387.19	27.289
387.55	27.934
387.91	28.710
388.27	28.406
388.62	28.236
388.98	27.919
389.34	29.876
389.70	28.937
390.06	27.649
390.42	28.133
390.77	28.718
391.13	29.049
391.49	29.650
391.85	27.939
392.20	28.173
392.56	28.470
392.92	28.462
393.28	27.861
393.64	28.324
393.99	29.402
394.35	29.556
394.71	28.922
395.07	27.964
395.42	28.270
395.78	28.093
396.14	29.234
396.50	28.147
396.85	27.967
397.21	27.101
397.57	27.562
397.92	28.007
398.28	27.213
398.64	27.288
399.00	27.277
399.35	27.696
399.71	26.957
400.07	27.793
400.42	28.056
400.78	27.141
401.14	27.547
401.49	27.345
401.85	27.035
402.21	27.520
402.57	27.700
402.92	26.891
403.28	25.937
403.63	26.551
403.99	26.781
404.35	26.094
404.70	26.572
405.06	25.978
405.42	26.698
405.77	28.026
406.13	26.634
406.49	26.971
406.84	26.094
407.20	26.495
407.55	26.287
407.91	25.644
408.27	25.501
408.62	26.178
408.98	25.711
409.34	25.513
409.69	25.773
410.05	26.377
410.40	26.508
410.76	25.743
411.11	25.482
411.47	25.676
411.83	26.337
412.18	26.265
412.54	25.845
412.89	25.960
413.25	25.677
413.60	25.560
413.96	26.632
414.31	24.873
414.67	25.224
415.03	25.600
415.38	26.040
415.74	26.023
416.09	25.355
416.45	24.984
416.80	25.826
417.16	26.309
417.51	26.961
417.87	25.812
418.22	25.569
418.58	26.332
418.93	26.601
419.29	26.510
419.64	25.570
420.00	25.460
420.35	26.502
420.71	25.790
421.06	25.532
421.42	25.172
421.77	25.525
422.12	26.216
422.48	26.421
422.83	27.382
423.19	26.897
423.54	25.940
423.90	26.339
424.25	25.867
424.61	25.832
424.96	27.018
425.31	25.796
425.67	26.570
426.02	26.176
426.38	26.751
426.73	26.116
427.09	27.163
427.44	26.543
427.79	27.308
428.15	26.027
428.50	26.517
428.85	26.005
429.21	26.383
429.56	27.493
429.92	27.666
430.27	26.988
430.62	26.966
430.98	27.791
431.33	27.566
431.68	26.916
432.04	27.425
432.39	27.102
432.74	27.169
433.10	26.988
433.45	26.421
433.80	27.361
434.16	27.944
434.51	28.160
434.86	28.664
435.22	28.162
435.57	27.771
435.92	27.101
436.28	27.873
436.63	29.001
436.98	27.805
437.34	28.410
437.69	27.023
438.04	27.763
438.39	28.547
438.75	26.951
439.10	27.907
439.45	27.781
439.81	27.740
440.16	27.399
440.51	28.484
440.86	27.071
441.22	27.974
441.57	28.302
441.92	29.049
442.27	28.434
442.63	28.614
442.98	27.801
443.33	28.143
443.68	29.336
444.03	29.774
444.39	29.265
444.74	28.841
445.09	28.434
445.44	28.714
445.79	28.688
446.15	28.623
446.50	29.044
446.85	29.523
447.20	28.627
447.55	29.655
447.91	28.848
448.26	28.224
448.61	28.905
448.96	29.989
449.31	28.579
449.66	28.813
450.02	29.483
450.37	28.290
450.72	28.471
451.07	29.271
451.42	29.636
451.77	28.127
452.12	28.894
452.47	29.768
452.83	29.955
453.18	29.656
453.53	28.030
453.88	27.996
454.23	28.588
454.58	28.671
454.93	29.187
455.28	30.163
455.63	29.733
455.98	29.888
456.34	29.388
456.69	29.277
457.04	29.669
457.39	28.880
457.74	30.145
458.09	29.160
458.44	30.172
458.79	29.036
459.14	28.579
459.49	30.504
459.84	29.643
460.19	29.095
460.54	29.813
460.89	30.016
461.24	30.172
461.59	30.327
461.94	30.006
462.29	30.627
462.64	30.054
462.99	28.374
463.34	30.629
463.69	29.426
464.04	30.795
464.39	29.989
464.74	29.818
465.09	30.219
465.44	29.614
465.79	29.825
466.14	30.224
466.49	29.947
466.84	29.917
467.19	29.827
467.54	29.142
467.89	29.080
468.24	29.806
468.59	28.199
468.94	28.322
469.29	29.274
469.64	28.608
469.99	28.936
470.34	29.332
470.68	30.690
471.03	29.470
471.38	29.235
471.73	28.739
472.08	29.759
472.43	30.283
472.78	28.778
473.13	30.278
473.48	30.634
473.83	30.296
474.17	29.074
474.52	29.164
474.87	29.900
475.22	29.746
475.57	30.062
475.92	30.065
476.27	30.032
476.61	29.907
476.96	28.780
477.31	29.257
477.66	30.797
478.01	29.385
478.36	29.312
478.70	30.542
479.05	30.470
479.40	30.306
479.75	29.683
480.10	29.654
480.45	29.854
480.79	30.068
481.14	29.871
481.49	30.168
481.84	30.287
482.19	30.538
482.53	29.427
482.88	30.572
483.23	29.658
483.58	29.956
483.92	29.433
484.27	30.271
484.62	30.404
484.97	31.065
485.31	29.039
485.66	29.112
486.01	30.822
486.36	32.160
486.70	32.980
487.05	32.528
487.40	31.275
487.75	30.636
488.09	30.234
488.44	28.607
488.79	29.444
489.13	28.856
489.48	28.738
489.83	28.652
490.17	29.769
490.52	29.187
490.87	29.780
491.22	29.636
491.56	30.162
491.91	29.961
492.26	30.333
492.60	29.864
492.95	29.267
493.30	30.211
493.64	30.223
493.99	29.386
494.34	29.660
494.68	30.021
495.03	29.912
495.37	29.561
495.72	29.342
496.07	29.711
496.41	29.258
496.76	29.817
497.11	30.106
497.45	29.478
497.80	29.542
498.14	29.615
498.49	30.101
498.84	30.393
499.18	29.465
499.53	30.269
499.87	29.714
500.22	29.786
500.56	29.960
500.91	29.794
501.26	30.091
501.60	30.402
501.95	30.525
502.29	29.706
502.64	30.914
502.98	30.198
503.33	29.374
503.67	29.917
504.02	30.867
504.36	31.546
504.71	29.444
505.06	29.422
505.40	29.479
505.75	29.918
506.09	30.018
506.44	29.851
506.78	30.688
507.13	30.014
507.47	30.175
507.82	29.782
508.16	30.975
508.51	30.005
508.85	30.515
509.19	30.365
509.54	29.923
509.88	30.063
510.23	31.034
510.57	30.014
510.92	29.511
511.26	29.293
511.61	29.020
511.95	29.527
512.30	29.493
512.64	29.835
512.98	29.515
513.33	29.435
513.67	30.240
514.02	30.455
514.36	30.742
514.70	29.844
515.05	29.093
515.39	30.551
515.74	30.329
516.08	29.424
516.42	29.723
516.77	29.443
517.11	29.603
517.46	30.806
517.80	29.663
518.14	30.141
518.49	29.338
518.83	29.803
519.17	30.048
519.52	29.874
519.86	29.831
520.20	29.393
520.55	29.463
520.89	29.842
521.23	29.369
521.58	30.678
521.92	31.048
522.26	28.064
522.61	29.687
522.95	28.893
523.29	30.172
523.64	29.652
523.98	29.321
524.32	29.971
524.66	30.279
525.01	29.785
525.35	29.810
525.69	29.060
526.04	28.932
526.38	29.138
526.72	30.104
527.06	30.088
527.41	29.738
527.75	30.760
528.09	29.221
528.43	28.893
528.78	30.462
529.12	29.472
529.46	30.523
529.80	29.805
530.15	30.435
530.49	29.597
530.83	29.988
531.17	29.152
531.51	29.904
531.86	29.868
532.20	30.305
532.54	29.743
532.88	29.030
533.22	29.935
533.57	29.313
533.91	31.369
534.25	30.695
534.59	30.230
534.93	29.994
535.27	30.085
535.62	31.268
535.96	31.319
536.30	29.965
536.64	30.090
536.98	30.258
537.32	29.691
537.66	29.757
538.01	29.486
538.35	29.903
538.69	30.288
539.03	31.760
539.37	30.035
539.71	30.210
540.05	30.995
540.39	30.257
540.73	29.508
541.07	29.920
541.42	29.474
541.76	29.834
542.10	30.338
542.44	30.207
542.78	30.718
543.12	30.930
543.46	29.670
543.80	29.676
544.14	31.119
544.48	30.969
544.82	31.239
545.16	30.948
545.50	31.037
545.84	30.802
546.18	31.667
546.52	31.656
546.86	30.755
547.20	30.662
547.54	29.650
547.88	30.922
548.22	30.994
548.56	30.544
548.90	31.522
549.24	31.489
549.58	30.789
549.92	31.314
550.26	30.421
550.60	29.738
550.94	30.660
551.28	30.363
551.62	31.065
551.96	29.385
552.30	31.294
552.64	30.492
552.98	31.192
553.32	30.997
553.66	31.190
554.00	30.706
554.34	31.145
554.68	30.148
555.02	30.289
555.36	32.150
555.69	31.454
556.03	31.526
556.37	31.289
556.71	29.423
557.05	30.671
557.39	30.126
557.73	31.440
558.07	30.728
558.41	30.764
558.75	30.358
559.08	30.759
559.42	30.727
559.76	31.072
560.10	30.877
560.44	31.135
560.78	31.500
561.12	31.404
561.45	31.752
561.79	32.112
562.13	30.807
562.47	31.073
562.81	31.519
563.15	32.071
563.48	31.200
563.82	31.923
564.16	31.133
564.50	30.989
564.84	30.619
565.17	31.471
565.51	31.761
565.85	31.354
566.19	31.855
566.52	32.826
566.86	30.787
567.20	30.832
567.54	32.289
567.88	33.028
568.21	32.905
568.55	32.422
568.89	33.137
569.23	33.080
569.56	34.388
569.90	34.890
570.24	33.895
570.57	34.157
570.91	34.721
571.25	34.105
571.59	33.983
571.92	34.542
572.26	33.563
572.60	33.743
572.93	33.565
573.27	33.324
573.61	33.325
573.95	34.062
574.28	33.637
574.62	34.038
574.96	33.767
575.29	33.245
575.63	34.096
575.97	33.772
576.30	33.457
576.64	33.142
576.98	34.032
577.31	34.341
577.65	34.420
577.98	34.488
578.32	34.639
578.66	34.244
578.99	34.036
579.33	33.593
579.67	33.273
580.00	33.895
580.34	33.879
580.67	33.186
581.01	34.119
581.35	34.385
581.68	35.049
582.02	35.114
582.35	35.663
582.69	35.221
583.02	34.554
583.36	34.258
583.70	33.833
584.03	33.261
584.37	33.374
584.70	32.714
585.04	33.876
585.37	34.092
585.71	34.455
586.04	34.963
586.38	33.914
586.72	34.094
587.05	33.845
587.39	34.056
587.72	34.545
588.06	34.405
588.39	34.429
588.73	33.783
589.06	33.437
589.40	34.204
589.73	33.483
590.07	33.521
590.40	33.638
590.73	33.899
591.07	33.284
591.40	33.593
591.74	33.545
592.07	34.145
592.41	33.241
592.74	33.901
593.08	34.777
593.41	35.462
593.75	34.856
594.08	35.716
594.41	34.583
594.75	34.009
595.08	34.320
595.42	33.929
595.75	34.388
596.09	34.971
596.42	33.859
596.75	33.694
597.09	34.747
597.42	32.777
597.75	33.908
598.09	33.254
598.42	34.017
598.76	33.703
599.09	34.176
599.42	34.428
599.76	34.104
600.09	34.601
600.42	34.268
600.76	34.478
601.09	34.252
601.42	33.745
601.76	33.517
602.09	34.382
602.42	32.715
602.76	33.469
603.09	34.435
603.42	34.827
603.76	33.545
604.09	35.060
604.42	34.202
604.76	33.371
605.09	33.706
605.42	34.091
605.75	33.808
606.09	34.117
606.42	33.674
606.75	33.583
607.09	33.065
607.42	33.410
607.75	34.193
608.08	33.860
608.42	33.495
608.75	33.872
609.08	32.937
609.41	32.730
609.75	33.482
610.08	33.993
610.41	33.517
610.74	33.824
611.07	34.281
611.41	33.363
611.74	33.580
612.07	34.222
612.40	32.937
612.73	33.936
613.07	33.643
613.40	33.782
613.73	33.414
614.06	34.004
614.39	33.236
614.72	34.304
615.06	33.205
615.39	33.978
615.72	33.697
616.05	33.706
616.38	33.552
616.71	32.393
617.05	32.801
617.38	32.210
617.71	32.451
618.04	33.351
618.37	33.989
618.70	34.106
619.03	32.616
619.36	32.182
619.69	32.287
620.03	33.019
620.36	33.067
620.69	32.634
621.02	33.136
621.35	33.164
621.68	31.960
622.01	31.459
622.34	31.241
622.67	32.234
623.00	30.904
623.33	32.183
623.66	32.555
623.99	32.126
624.32	33.788
624.65	33.012
624.99	32.575
625.32	33.442
625.65	32.367
625.98	32.475
626.31	31.467
626.64	32.161
626.97	31.358
627.30	31.967
627.63	31.733
627.96	32.282
628.29	32.140
628.62	30.814
628.95	30.500
629.28	30.416
629.61	31.987
629.94	32.218
630.26	30.085
630.59	30.570
630.92	30.303
631.25	31.038
631.58	32.580
631.91	31.209
632.24	31.700
632.57	31.025
632.90	30.191
633.23	30.102
633.56	29.898
633.89	30.475
634.22	31.185
634.55	30.063
634.88	29.654
635.20	30.248
