SpectraSuite Data File
++++++++++++++++++++++++++++++++++++
Date: Thu May 14 14:36:30 PDT 2015
User: schluterlab
Dark Spectrum Present: Yes
Reference Spectrum Present: Yes
Number of Sampled Component Spectra: 1
Spectrometers: USB2E3373
Integration Time (usec): 3000 (USB2E3373)
Spectra Averaged: 3 (USB2E3373)
Boxcar Smoothing: 0 (USB2E3373)
Correct for Electrical Dark: No (USB2E3373)
Strobe/Lamp Enabled: No (USB2E3373)
Correct for Detector Non-linearity: No (USB2E3373)
Correct for Stray Light: No (USB2E3373)
Number of Pixels in Processed Spectrum: 2048
>>>>>Begin Processed Spectral Data<<<<<
178.53	0.000
178.91	-271.429
179.29	800.000
179.67	1400.000
180.04	-7.143
180.42	-50.000
180.80	-80.000
181.18	2300.000
181.56	1600.000
181.94	-200.000
182.31	500.000
182.69	-333.333
183.07	850.000
183.45	-550.000
183.83	283.333
184.20	400.000
184.58	-1900.000
184.96	400.000
185.34	255.556
185.72	380.000
186.09	-177.778
186.47	-700.000
186.85	-100.000
187.23	122.222
187.61	1400.000
187.98	-260.000
188.36	-375.000
188.74	300.000
189.12	633.333
189.49	150.000
189.87	225.000
190.25	222.222
190.63	300.000
191.00	88.889
191.38	0.000
191.76	175.000
192.14	283.333
192.51	-750.000
192.89	466.667
193.27	0.000
193.65	257.143
194.02	600.000
194.40	271.429
194.78	-157.143
195.15	0.000
195.53	190.909
195.91	0.000
196.29	675.000
196.66	138.462
197.04	1100.000
197.42	171.429
197.79	750.000
198.17	175.000
198.55	100.000
198.92	255.556
199.30	162.500
199.68	118.182
200.05	178.571
200.43	150.000
200.81	-100.000
201.18	0.000
201.56	-88.889
201.94	0.000
202.31	-133.333
202.69	233.333
203.07	-2700.000
203.44	200.000
203.82	325.000
204.19	175.000
204.57	216.667
204.95	200.000
205.32	1900.000
205.70	-375.000
206.08	250.000
206.45	300.000
206.83	-0.000
207.20	283.333
207.58	400.000
207.96	216.667
208.33	316.667
208.71	-58.333
209.08	283.333
209.46	0.000
209.84	-233.333
210.21	-200.000
210.59	-400.000
210.96	-33.333
211.34	600.000
211.71	175.000
212.09	1600.000
212.46	0.000
212.84	-600.000
213.22	260.000
213.59	375.000
213.97	160.000
214.34	466.667
214.72	-333.333
215.09	475.000
215.47	0.000
215.84	-171.429
216.22	-700.000
216.59	480.000
216.97	220.000
217.34	425.000
217.72	162.500
218.09	350.000
218.47	425.000
218.84	0.000
219.22	-320.000
219.59	152.941
219.97	145.000
220.34	-600.000
220.72	144.444
221.09	223.077
221.47	633.333
221.84	170.000
222.22	285.714
222.59	0.000
222.97	137.500
223.34	220.000
223.72	1400.000
224.09	300.000
224.46	250.000
224.84	300.000
225.21	185.714
225.59	225.000
225.96	175.000
226.34	115.385
226.71	-200.000
227.08	550.000
227.46	180.000
227.83	400.000
228.21	126.316
228.58	-125.000
228.95	-450.000
229.33	183.333
229.70	120.000
230.08	131.579
230.45	-70.000
230.82	633.333
231.20	114.286
231.57	200.000
231.95	209.091
232.32	209.091
232.69	115.000
233.07	100.000
233.44	111.765
233.81	50.000
234.19	144.444
234.56	77.273
234.93	68.966
235.31	105.263
235.68	150.000
236.05	55.000
236.43	73.077
236.80	120.000
237.17	40.741
237.55	42.424
237.92	30.000
238.29	58.065
238.67	34.091
239.04	72.222
239.41	38.095
239.79	26.087
240.16	25.926
240.53	45.652
240.91	7.843
241.28	29.508
241.65	37.313
242.02	28.378
242.40	23.077
242.77	30.667
243.14	19.512
243.51	5.263
243.89	19.231
244.26	34.653
244.63	17.647
245.00	19.626
245.38	13.158
245.75	1.770
246.12	15.873
246.49	13.953
246.87	15.000
247.24	17.219
247.61	14.474
247.98	9.396
248.36	12.963
248.73	4.908
249.10	7.104
249.47	16.418
249.84	18.325
250.22	10.363
250.59	10.556
250.96	17.727
251.33	7.143
251.70	12.821
252.08	9.167
252.45	14.344
252.82	5.785
253.19	4.687
253.56	9.886
253.94	5.385
254.31	10.606
254.68	12.238
255.05	9.446
255.42	10.204
255.79	7.767
256.16	7.947
256.54	4.967
256.91	8.525
257.28	9.508
257.65	3.185
258.02	5.015
258.39	6.553
258.76	9.480
259.14	7.471
259.51	7.781
259.88	6.516
260.25	9.722
260.62	9.315
260.99	10.383
261.36	10.992
261.73	3.979
262.10	5.769
262.47	9.383
262.85	10.606
263.22	6.494
263.59	4.474
263.96	6.650
264.33	5.115
264.70	6.667
265.07	8.115
265.44	9.524
265.81	7.870
266.18	5.669
266.55	5.804
266.92	6.378
267.29	9.628
267.66	8.426
268.03	8.515
268.40	7.098
268.77	4.100
269.14	5.066
269.51	6.140
269.88	8.197
270.25	7.445
270.62	6.329
270.99	10.505
271.36	7.921
271.73	5.894
272.10	6.814
272.47	6.613
272.84	7.229
273.21	5.611
273.58	7.661
273.95	5.962
274.32	2.852
274.69	4.836
275.06	5.678
275.43	5.545
275.80	7.407
276.17	4.815
276.54	7.090
276.91	4.293
277.28	7.233
277.65	6.463
278.02	5.515
278.39	2.536
278.76	3.691
279.13	4.787
279.50	7.560
279.87	5.367
280.23	5.282
280.60	8.136
280.97	6.414
281.34	4.244
281.71	8.291
282.08	4.319
282.45	4.583
282.82	6.436
283.19	4.523
283.56	5.082
283.92	7.658
284.29	6.635
284.66	7.389
285.03	4.647
285.40	6.491
285.77	5.263
286.14	5.496
286.51	6.088
286.87	6.793
287.24	7.380
287.61	5.830
287.98	4.381
288.35	5.473
288.72	5.325
289.08	7.467
289.45	5.621
289.82	5.723
290.19	6.034
290.56	6.479
290.93	5.136
291.29	5.647
291.66	5.785
292.03	2.578
292.40	5.578
292.77	6.334
293.13	5.683
293.50	5.388
293.87	6.174
294.24	6.267
294.60	6.195
294.97	3.624
295.34	5.762
295.71	3.657
296.08	5.426
296.44	5.760
296.81	5.481
297.18	5.604
297.55	4.717
297.91	5.101
298.28	4.265
298.65	6.421
299.02	4.841
299.38	6.178
299.75	5.724
300.12	4.167
300.48	5.530
300.85	5.624
301.22	7.383
301.59	6.164
301.95	5.085
302.32	6.444
302.69	5.805
303.05	5.332
303.42	5.432
303.79	5.833
304.15	6.835
304.52	5.603
304.89	6.178
305.25	6.315
305.62	5.747
305.99	5.876
306.35	6.149
306.72	6.101
307.09	6.193
307.45	7.246
307.82	6.559
308.19	6.458
308.55	7.811
308.92	6.232
309.29	7.759
309.65	6.725
310.02	6.931
310.38	7.776
310.75	8.155
311.12	8.917
311.48	7.820
311.85	7.692
312.22	8.065
312.58	8.169
312.95	8.413
313.31	9.756
313.68	9.615
314.05	10.479
314.41	9.563
314.78	9.900
315.14	10.436
315.51	10.711
315.87	9.721
316.24	11.598
316.61	11.634
316.97	9.864
317.34	10.317
317.70	10.830
318.07	11.905
318.43	11.990
318.80	13.043
319.16	13.047
319.53	11.997
319.89	12.182
320.26	14.057
320.62	13.741
320.99	13.481
321.35	14.510
321.72	15.535
322.08	14.337
322.45	15.537
322.81	15.975
323.18	16.549
323.54	16.466
323.91	17.972
324.27	17.642
324.64	17.884
325.00	18.325
325.37	18.673
325.73	19.752
326.10	19.951
326.46	21.010
326.83	22.098
327.19	22.047
327.56	22.925
327.92	22.187
328.29	23.629
328.65	23.534
329.01	23.519
329.38	25.105
329.74	25.771
330.11	26.113
330.47	26.116
330.84	25.581
331.20	27.083
331.56	28.423
331.93	28.201
332.29	27.712
332.66	27.741
333.02	27.303
333.38	26.930
333.75	27.778
334.11	28.357
334.48	27.805
334.84	29.397
335.20	28.380
335.57	29.427
335.93	29.339
336.29	27.371
336.66	29.268
337.02	28.595
337.38	29.337
337.75	28.099
338.11	29.437
338.47	29.777
338.84	28.088
339.20	27.717
339.56	29.077
339.93	30.131
340.29	29.469
340.65	28.305
341.02	30.008
341.38	29.830
341.74	28.168
342.11	30.088
342.47	28.674
342.83	30.193
343.20	29.926
343.56	28.789
343.92	29.464
344.28	28.438
344.65	29.922
345.01	29.797
345.37	28.849
345.73	29.540
346.10	29.329
346.46	28.956
346.82	29.663
347.19	29.870
347.55	29.666
347.91	29.049
348.27	28.832
348.63	28.789
349.00	29.157
349.36	29.145
349.72	28.423
350.08	29.569
350.45	29.810
350.81	30.090
351.17	29.774
351.53	29.568
351.89	30.904
352.26	29.851
352.62	30.149
352.98	29.237
353.34	29.873
353.70	30.663
354.07	29.583
354.43	29.765
354.79	30.067
355.15	30.390
355.51	30.629
355.87	29.918
356.24	31.711
356.60	29.416
356.96	30.022
357.32	30.335
357.68	30.234
358.04	29.940
358.40	30.373
358.77	30.336
359.13	30.502
359.49	30.260
359.85	30.312
360.21	30.416
360.57	31.299
360.93	29.549
361.29	31.719
361.66	30.920
362.02	31.524
362.38	31.202
362.74	31.285
363.10	31.362
363.46	32.756
363.82	31.960
364.18	31.809
364.54	31.120
364.90	32.308
365.26	32.483
365.62	32.600
365.98	32.063
366.35	31.409
366.71	32.653
367.07	32.206
367.43	31.714
367.79	32.780
368.15	33.110
368.51	32.341
368.87	32.985
369.23	33.000
369.59	32.992
369.95	32.995
370.31	33.626
370.67	34.732
371.03	33.033
371.39	33.781
371.75	32.806
372.11	34.146
372.47	34.259
372.83	34.424
373.19	34.690
373.55	34.756
373.91	33.947
374.27	34.735
374.63	35.115
374.99	35.080
375.35	35.000
375.71	35.935
376.07	35.119
376.42	34.572
376.78	35.674
377.14	36.432
377.50	36.559
377.86	36.576
378.22	35.389
378.58	38.466
378.94	36.444
379.30	36.380
379.66	37.331
380.02	37.103
380.38	37.097
380.74	37.690
381.09	38.153
381.45	37.955
381.81	39.052
382.17	38.895
382.53	38.363
382.89	38.657
383.25	39.508
383.61	38.831
383.97	38.516
384.32	40.251
384.68	38.515
385.04	39.329
385.40	40.306
385.76	39.918
386.12	39.617
386.48	39.529
386.83	40.822
387.19	40.556
387.55	40.552
387.91	40.240
388.27	40.820
388.62	40.951
388.98	40.045
389.34	42.840
389.70	41.429
390.06	41.267
390.42	41.084
390.77	41.902
391.13	41.021
391.49	42.089
391.85	41.455
392.20	42.112
392.56	42.705
392.92	42.203
393.28	42.454
393.64	41.453
393.99	42.127
394.35	42.815
394.71	42.695
395.07	42.395
395.42	43.061
395.78	43.266
396.14	43.791
396.50	42.577
396.85	43.053
397.21	43.728
397.57	42.462
397.92	43.356
398.28	41.988
398.64	42.792
399.00	41.990
399.35	42.304
399.71	41.739
400.07	43.122
400.42	42.957
400.78	44.039
401.14	43.825
401.49	43.377
401.85	45.058
402.21	44.032
402.57	44.190
402.92	43.617
403.28	42.213
403.63	43.675
403.99	43.587
404.35	43.206
404.70	43.626
405.06	43.804
405.42	43.677
405.77	44.711
406.13	43.436
406.49	44.707
406.84	43.546
407.20	44.215
407.55	42.823
407.91	43.872
408.27	42.403
408.62	43.281
408.98	43.180
409.34	43.871
409.69	44.561
410.05	43.962
410.40	45.186
410.76	43.130
411.11	44.711
411.47	43.673
411.83	42.975
412.18	43.735
412.54	44.458
412.89	44.878
413.25	44.074
413.60	43.940
413.96	45.163
414.31	44.589
414.67	44.067
415.03	44.554
415.38	45.397
415.74	45.449
416.09	45.836
416.45	44.333
416.80	44.798
417.16	45.785
417.51	45.019
417.87	45.248
418.22	45.150
418.58	45.415
418.93	46.158
419.29	45.993
419.64	45.678
420.00	46.350
420.35	46.659
420.71	47.099
421.06	46.463
421.42	47.878
421.77	46.419
422.12	46.036
422.48	46.339
422.83	47.809
423.19	47.215
423.54	48.673
423.90	46.383
424.25	47.200
424.61	47.015
424.96	47.776
425.31	47.611
425.67	48.256
426.02	47.925
426.38	49.311
426.73	49.051
427.09	49.942
427.44	48.880
427.79	48.701
428.15	48.630
428.50	49.326
428.85	49.369
429.21	51.011
429.56	50.346
429.92	49.337
430.27	48.916
430.62	50.024
430.98	48.942
431.33	49.267
431.68	49.617
432.04	49.518
432.39	49.384
432.74	50.285
433.10	52.190
433.45	50.502
433.80	50.912
434.16	51.498
434.51	51.644
434.86	52.660
435.22	52.391
435.57	51.474
435.92	52.421
436.28	51.593
436.63	52.376
436.98	51.154
437.34	52.762
437.69	52.229
438.04	51.454
438.39	52.613
438.75	52.241
439.10	51.374
439.45	52.655
439.81	51.073
440.16	51.957
440.51	53.010
440.86	52.307
441.22	53.537
441.57	52.621
441.92	52.182
442.27	52.929
442.63	52.409
442.98	53.629
443.33	52.604
443.68	53.865
444.03	53.622
444.39	53.213
444.74	52.374
445.09	52.408
445.44	53.583
445.79	53.736
446.15	53.494
446.50	53.695
446.85	53.064
447.20	52.950
447.55	53.975
447.91	52.827
448.26	52.590
448.61	54.145
448.96	55.472
449.31	54.295
449.66	53.649
450.02	54.641
450.37	53.010
450.72	55.705
451.07	52.961
451.42	53.668
451.77	53.363
452.12	54.628
452.47	54.189
452.83	55.968
453.18	53.824
453.53	54.164
453.88	54.776
454.23	54.802
454.58	55.775
454.93	54.612
455.28	55.268
455.63	55.543
455.98	54.860
456.34	54.711
456.69	54.615
457.04	54.078
457.39	53.825
457.74	54.866
458.09	54.201
458.44	54.795
458.79	53.997
459.14	54.431
459.49	54.329
459.84	55.614
460.19	54.525
460.54	55.139
460.89	55.109
461.24	55.287
461.59	55.396
461.94	54.079
462.29	54.927
462.64	54.677
462.99	56.309
463.34	55.613
463.69	54.045
464.04	55.920
464.39	53.475
464.74	54.162
465.09	54.787
465.44	54.345
465.79	54.310
466.14	52.996
466.49	53.895
466.84	54.766
467.19	53.931
467.54	54.289
467.89	53.966
468.24	53.906
468.59	54.603
468.94	53.788
469.29	53.389
469.64	54.418
469.99	54.238
470.34	53.960
470.68	57.416
471.03	55.730
471.38	54.742
471.73	56.047
472.08	56.726
472.43	54.064
472.78	55.730
473.13	55.626
473.48	54.743
473.83	54.382
474.17	54.513
474.52	56.284
474.87	54.928
475.22	55.042
475.57	54.309
475.92	54.256
476.27	54.420
476.61	54.258
476.96	54.119
477.31	54.455
477.66	55.771
478.01	54.245
478.36	53.689
478.70	54.286
479.05	54.601
479.40	55.183
479.75	54.035
480.10	54.382
480.45	54.603
480.79	54.286
481.14	53.263
481.49	53.612
481.84	53.525
482.19	54.151
482.53	53.913
482.88	54.807
483.23	54.558
483.58	53.188
483.92	53.546
484.27	52.964
484.62	52.888
484.97	53.694
485.31	52.834
485.66	51.310
486.01	50.360
486.36	49.824
486.70	51.252
487.05	51.228
487.40	50.964
487.75	51.603
488.09	51.733
488.44	51.541
488.79	52.040
489.13	52.860
489.48	53.786
489.83	52.274
490.17	52.086
490.52	52.833
490.87	53.299
491.22	53.163
491.56	52.304
491.91	52.900
492.26	52.445
492.60	52.558
492.95	52.435
493.30	53.832
493.64	53.482
493.99	52.939
494.34	52.352
494.68	52.848
495.03	53.744
495.37	52.774
495.72	52.834
496.07	53.155
496.41	52.810
496.76	52.377
497.11	52.866
497.45	52.136
497.80	52.377
498.14	52.608
498.49	52.665
498.84	52.148
499.18	53.306
499.53	53.094
499.87	53.363
500.22	51.736
500.56	52.407
500.91	52.494
501.26	52.864
501.60	51.083
501.95	51.889
502.29	51.821
502.64	52.514
502.98	52.157
503.33	51.015
503.67	51.984
504.02	51.489
504.36	52.413
504.71	51.768
505.06	52.069
505.40	52.057
505.75	52.368
506.09	52.993
506.44	52.321
506.78	52.661
507.13	52.144
507.47	53.055
507.82	52.794
508.16	53.394
508.51	51.992
508.85	53.141
509.19	51.776
509.54	53.314
509.88	52.064
510.23	52.890
510.57	53.262
510.92	51.911
511.26	52.189
511.61	50.072
511.95	51.049
512.30	51.846
512.64	51.624
512.98	51.626
513.33	53.075
513.67	52.524
514.02	51.865
514.36	52.327
514.70	53.021
515.05	52.920
515.39	52.388
515.74	53.871
516.08	53.038
516.42	52.800
516.77	52.208
517.11	51.986
517.46	51.432
517.80	53.127
518.14	53.210
518.49	52.386
518.83	52.847
519.17	52.827
519.52	51.992
519.86	52.693
520.20	52.449
520.55	52.519
520.89	53.209
521.23	52.485
521.58	52.881
521.92	52.465
522.26	53.150
522.61	53.472
522.95	52.595
523.29	52.356
523.64	51.289
523.98	52.253
524.32	54.327
524.66	52.647
525.01	51.472
525.35	53.245
525.69	54.176
526.04	52.239
526.38	51.839
526.72	51.499
527.06	52.375
527.41	52.070
527.75	51.960
528.09	52.361
528.43	52.161
528.78	52.775
529.12	51.433
529.46	50.365
529.80	52.403
530.15	51.768
530.49	51.779
530.83	52.479
531.17	51.374
531.51	53.008
531.86	53.005
532.20	52.744
532.54	51.706
532.88	51.333
533.22	50.442
533.57	50.664
533.91	50.393
534.25	51.046
534.59	49.713
534.93	50.085
535.27	50.930
535.62	51.336
535.96	50.494
536.30	50.118
536.64	51.952
536.98	51.415
537.32	51.358
537.66	51.466
538.01	50.876
538.35	49.513
538.69	51.322
539.03	51.441
539.37	50.236
539.71	49.670
540.05	50.480
540.39	50.244
540.73	49.545
541.07	51.012
541.42	49.144
541.76	49.051
542.10	50.000
542.44	50.061
542.78	49.574
543.12	49.344
543.46	49.939
543.80	49.400
544.14	49.551
544.48	49.704
544.82	50.628
545.16	49.911
545.50	49.790
545.84	49.786
546.18	50.123
546.52	50.255
546.86	49.560
547.20	50.891
547.54	49.064
547.88	48.162
548.22	48.480
548.56	48.157
548.90	48.716
549.24	49.240
549.58	50.347
549.92	49.681
550.26	49.903
550.60	49.968
550.94	50.388
551.28	49.439
551.62	50.674
551.96	48.997
552.30	49.586
552.64	51.276
552.98	49.969
553.32	49.068
553.66	50.032
554.00	48.361
554.34	48.134
554.68	47.966
555.02	49.409
555.36	49.310
555.69	48.110
556.03	48.865
556.37	48.623
556.71	48.510
557.05	49.201
557.39	49.900
557.73	50.000
558.07	49.669
558.41	48.970
558.75	50.101
559.08	49.339
559.42	49.108
559.76	49.118
560.10	49.364
560.44	49.670
560.78	49.000
561.12	47.845
561.45	49.148
561.79	46.947
562.13	49.230
562.47	47.472
562.81	48.544
563.15	48.927
563.48	48.975
563.82	49.214
564.16	46.760
564.50	48.391
564.84	47.080
565.17	47.235
565.51	46.663
565.85	48.397
566.19	46.198
566.52	47.747
566.86	46.802
567.20	46.982
567.54	46.575
567.88	46.942
568.21	46.887
568.55	46.715
568.89	45.801
569.23	45.923
569.56	44.470
569.90	44.262
570.24	44.317
570.57	43.265
570.91	43.172
571.25	42.783
571.59	42.360
571.92	42.244
572.26	42.853
572.60	42.397
572.93	42.221
573.27	42.456
573.61	42.192
573.95	42.049
574.28	42.023
574.62	42.224
574.96	40.803
575.29	41.022
575.63	41.465
575.97	41.341
576.30	40.834
576.64	41.136
576.98	41.185
577.31	40.867
577.65	40.962
577.98	40.154
578.32	40.338
578.66	40.614
578.99	40.733
579.33	40.996
579.67	40.594
580.00	41.133
580.34	40.750
580.67	40.291
581.01	40.870
581.35	40.503
581.68	40.763
582.02	40.147
582.35	40.710
582.69	40.694
583.02	40.497
583.36	40.891
583.70	41.241
584.03	40.989
584.37	41.323
584.70	40.465
585.04	40.758
585.37	40.256
585.71	40.734
586.04	40.004
586.38	40.715
586.72	40.311
587.05	41.187
587.39	41.436
587.72	41.411
588.06	40.861
588.39	41.673
588.73	41.164
589.06	42.071
589.40	41.979
589.73	41.517
590.07	42.407
590.40	42.123
590.73	42.453
591.07	42.926
591.40	42.379
591.74	43.203
592.07	43.484
592.41	42.626
592.74	42.244
593.08	41.975
593.41	41.936
593.75	41.121
594.08	41.563
594.41	41.731
594.75	41.813
595.08	41.992
595.42	42.110
595.75	41.427
596.09	42.325
596.42	42.852
596.75	43.072
597.09	43.556
597.42	42.511
597.75	42.023
598.09	42.540
598.42	42.300
598.76	41.765
599.09	41.225
599.42	40.932
599.76	41.400
600.09	41.508
600.42	41.575
600.76	41.314
601.09	41.387
601.42	41.572
601.76	41.552
602.09	41.637
602.42	41.294
602.76	41.697
603.09	41.446
603.42	41.655
603.76	41.790
604.09	42.335
604.42	42.018
604.76	41.629
605.09	42.361
605.42	41.388
605.75	41.615
606.09	40.351
606.42	41.189
606.75	40.855
607.09	40.860
607.42	41.580
607.75	41.813
608.08	41.555
608.42	41.636
608.75	42.247
609.08	41.087
609.41	42.567
609.75	42.723
610.08	43.404
610.41	41.546
610.74	41.891
611.07	42.318
611.41	42.735
611.74	42.494
612.07	42.216
612.40	42.395
612.73	43.423
613.07	42.298
613.40	42.204
613.73	42.561
614.06	43.278
614.39	42.711
614.72	42.746
615.06	42.012
615.39	41.808
615.72	42.512
616.05	43.031
616.38	43.441
616.71	44.514
617.05	42.918
617.38	43.285
617.71	43.737
618.04	43.011
618.37	43.989
618.70	44.118
619.03	44.564
619.36	44.698
619.69	45.099
620.03	43.879
620.36	43.436
620.69	43.985
621.02	43.832
621.35	46.880
621.68	45.915
622.01	45.267
622.34	45.119
622.67	45.567
623.00	44.197
623.33	45.056
623.66	44.682
623.99	45.359
624.32	45.354
624.65	43.179
624.99	44.148
625.32	44.807
625.65	45.448
625.98	42.983
626.31	44.578
626.64	45.348
626.97	44.636
627.30	44.723
627.63	44.636
627.96	46.622
628.29	46.848
628.62	46.767
628.95	46.801
629.28	45.879
629.61	46.801
629.94	46.276
630.26	45.847
630.59	46.459
630.92	46.407
631.25	47.943
631.58	50.000
631.91	47.423
632.24	47.262
632.57	48.577
632.90	49.348
633.23	48.265
633.56	48.673
633.89	47.727
634.22	47.817
634.55	49.687
634.88	51.190
635.20	49.623
635.53	52.090
635.86	48.646
636.19	49.947
636.52	50.422
