SpectraSuite Data File
++++++++++++++++++++++++++++++++++++
Date: Thu May 14 15:16:43 PDT 2015
User: schluterlab
Dark Spectrum Present: Yes
Reference Spectrum Present: Yes
Number of Sampled Component Spectra: 1
Spectrometers: USB2E3373
Integration Time (usec): 3000 (USB2E3373)
Spectra Averaged: 3 (USB2E3373)
Boxcar Smoothing: 0 (USB2E3373)
Correct for Electrical Dark: No (USB2E3373)
Strobe/Lamp Enabled: No (USB2E3373)
Correct for Detector Non-linearity: No (USB2E3373)
Correct for Stray Light: No (USB2E3373)
Number of Pixels in Processed Spectrum: 2048
>>>>>Begin Processed Spectral Data<<<<<
178.53	0.000
178.91	585.714
179.29	-5100.000
179.67	-4500.000
180.04	371.429
180.42	370.000
180.80	860.000
181.18	-4300.000
181.56	-3300.000
181.94	875.000
182.31	-975.000
182.69	1433.333
183.07	-1900.000
183.45	1075.000
183.83	-450.000
184.20	-1166.667
184.58	3000.000
184.96	-900.000
185.34	-400.000
185.72	-700.000
186.09	477.778
186.47	2300.000
186.85	900.000
187.23	-544.444
187.61	-4400.000
187.98	780.000
188.36	1150.000
188.74	-850.000
189.12	-1133.333
189.49	-225.000
189.87	-575.000
190.25	-411.111
190.63	-680.000
191.00	-522.222
191.38	0.000
191.76	-1000.000
192.14	-666.667
192.51	2200.000
192.89	-550.000
193.27	0.000
193.65	-571.429
194.02	-4900.000
194.40	-528.571
194.78	657.143
195.15	0.000
195.53	-345.455
195.91	0.000
196.29	-825.000
196.66	-284.615
197.04	-3700.000
197.42	-642.857
197.79	-1950.000
198.17	-500.000
198.55	-571.429
198.92	-288.889
199.30	-512.500
199.68	-381.818
200.05	-285.714
200.43	-2050.000
200.81	642.857
201.18	0.000
201.56	488.889
201.94	0.000
202.31	1466.667
202.69	-466.667
203.07	3800.000
203.44	-366.667
203.82	-875.000
204.19	-283.333
204.57	-766.667
204.95	-500.000
205.32	-3800.000
205.70	925.000
206.08	-566.667
206.45	-600.000
206.83	980.000
207.20	-683.333
207.58	-860.000
207.96	-666.667
208.33	-583.333
208.71	425.000
209.08	-466.667
209.46	0.000
209.84	700.000
210.21	1950.000
210.59	2000.000
210.96	1300.000
211.34	-775.000
211.71	-500.000
212.09	-4100.000
212.46	0.000
212.84	2300.000
213.22	-700.000
213.59	-925.000
213.97	-400.000
214.34	-1333.333
214.72	716.667
215.09	-1025.000
215.47	0.000
215.84	600.000
216.22	2450.000
216.59	-740.000
216.97	-760.000
217.34	-825.000
217.72	-387.500
218.09	-1000.000
218.47	-1075.000
218.84	0.000
219.22	560.000
219.59	-217.647
219.97	-120.000
220.34	2000.000
220.72	-466.667
221.09	-230.769
221.47	-1433.333
221.84	-450.000
222.22	-685.714
222.59	0.000
222.97	-437.500
223.34	-940.000
223.72	-3700.000
224.09	-1150.000
224.46	-1200.000
224.84	-640.000
225.21	-671.429
225.59	-1200.000
225.96	-825.000
226.34	-126.923
226.71	783.333
227.08	-2400.000
227.46	-220.000
227.83	-850.000
228.21	-173.684
228.58	575.000
228.95	1900.000
229.33	-291.667
229.70	-340.000
230.08	-131.579
230.45	530.000
230.82	-1200.000
231.20	-235.714
231.57	-341.667
231.95	-336.364
232.32	-272.727
232.69	-215.000
233.07	-1025.000
233.44	-188.235
233.81	-400.000
234.19	-177.778
234.56	-140.909
234.93	-96.552
235.31	-168.421
235.68	-227.778
236.05	-205.000
236.43	-103.846
236.80	-76.000
237.17	-103.704
237.55	-87.879
237.92	-420.000
238.29	-100.000
238.67	-72.727
239.04	-94.444
239.41	-64.286
239.79	-65.217
240.16	-44.444
240.53	-67.391
240.91	-76.471
241.28	-45.902
241.65	-43.284
242.02	-27.027
242.40	-44.615
242.77	-42.667
243.14	-36.585
243.51	-43.421
243.89	-26.923
244.26	-9.901
244.63	-15.686
245.00	-22.430
245.38	-16.667
245.75	-34.513
246.12	-15.873
246.49	-18.605
246.87	-18.571
247.24	-7.285
247.61	-7.895
247.98	-14.094
248.36	-8.025
248.73	-6.135
249.10	-7.104
249.47	2.985
249.84	1.047
250.22	-7.772
250.59	-11.667
250.96	-1.364
251.33	-7.653
251.70	3.419
252.08	0.833
252.45	-2.869
252.82	6.198
253.19	1.563
253.56	5.703
253.94	0.385
254.31	3.409
254.68	4.196
255.05	3.909
255.42	1.701
255.79	-0.324
256.16	3.311
256.54	0.993
256.91	4.262
257.28	4.590
257.65	3.822
258.02	0.590
258.39	5.128
258.76	7.339
259.14	5.747
259.51	6.052
259.88	2.833
260.25	3.889
260.62	7.397
260.99	9.290
261.36	6.702
261.73	6.897
262.10	4.945
262.47	4.826
262.85	9.091
263.22	3.377
263.59	5.526
263.96	7.928
264.33	7.161
264.70	8.889
265.07	9.785
265.44	7.483
265.81	6.019
266.18	8.617
266.55	6.696
266.92	6.834
267.29	8.534
267.66	7.317
268.03	8.079
268.40	8.142
268.77	5.923
269.14	4.185
269.51	5.702
269.88	8.607
270.25	8.853
270.62	7.806
270.99	6.869
271.36	8.911
271.73	7.466
272.10	8.016
272.47	7.415
272.84	8.032
273.21	5.411
273.58	10.081
273.95	6.538
274.32	8.365
274.69	7.930
275.06	8.059
275.43	6.654
275.80	8.995
276.17	7.593
276.54	7.649
276.91	7.335
277.28	9.584
277.65	8.797
278.02	7.169
278.39	7.065
278.76	8.436
279.13	8.511
279.50	9.794
279.87	10.376
280.23	6.162
280.60	8.475
280.97	8.882
281.34	6.621
281.71	9.475
282.08	9.302
282.45	7.856
282.82	10.047
283.19	6.462
283.56	9.344
283.92	10.811
284.29	9.637
284.66	9.360
285.03	7.372
285.40	7.883
285.77	8.050
286.14	9.618
286.51	7.610
286.87	7.741
287.24	9.337
287.61	8.221
287.98	6.344
288.35	9.615
288.72	8.728
289.08	8.492
289.45	7.544
289.82	9.639
290.19	9.914
290.56	7.887
290.93	8.274
291.29	9.504
291.66	8.678
292.03	7.463
292.40	9.796
292.77	8.625
293.13	8.119
293.50	8.016
293.87	9.396
294.24	9.333
294.60	9.861
294.97	6.040
295.34	9.731
295.71	8.827
296.08	9.302
296.44	7.843
296.81	8.283
297.18	7.472
297.55	7.075
297.91	7.117
298.28	7.109
298.65	8.323
299.02	8.264
299.38	8.009
299.75	7.944
300.12	7.176
300.48	8.180
300.85	9.224
301.22	8.054
301.59	8.219
301.95	6.328
302.32	8.667
302.69	6.572
303.05	8.052
303.42	8.093
303.79	8.333
304.15	8.833
304.52	8.457
304.89	7.958
305.25	9.317
305.62	9.300
305.99	8.144
306.35	8.871
306.72	9.204
307.09	8.325
307.45	8.903
307.82	8.678
308.19	9.082
308.55	10.511
308.92	8.861
309.29	9.770
309.65	8.967
310.02	9.802
310.38	9.547
310.75	9.515
311.12	10.451
311.48	10.264
311.85	11.681
312.22	9.962
312.58	10.423
312.95	9.847
313.31	10.569
313.68	11.447
314.05	11.924
314.41	11.384
314.78	11.081
315.14	11.434
315.51	11.911
315.87	12.781
316.24	11.963
316.61	12.966
316.97	12.398
317.34	12.169
317.70	13.275
318.07	12.787
318.43	13.776
318.80	14.214
319.16	12.446
319.53	13.282
319.89	12.883
320.26	14.680
320.62	13.209
320.99	14.589
321.35	14.787
321.72	15.535
322.08	14.337
322.45	14.995
322.81	14.350
323.18	15.133
323.54	15.862
323.91	15.747
324.27	15.491
324.64	16.541
325.00	16.086
325.37	17.281
325.73	16.942
326.10	17.680
326.46	16.612
326.83	18.014
327.19	18.740
327.56	18.340
327.92	18.804
328.29	19.032
328.65	18.007
329.01	19.120
329.38	20.725
329.74	20.719
330.11	20.548
330.47	21.061
330.84	20.758
331.20	22.500
331.56	22.964
331.93	21.255
332.29	22.288
332.66	20.847
333.02	21.608
333.38	21.644
333.75	21.717
334.11	21.852
334.48	21.617
334.84	22.005
335.20	21.327
335.57	23.019
335.93	22.810
336.29	22.546
336.66	22.960
337.02	22.659
337.38	23.299
337.75	22.314
338.11	23.045
338.47	22.829
338.84	23.012
339.20	21.988
339.56	23.064
339.93	21.675
340.29	22.061
340.65	22.466
341.02	22.426
341.38	23.605
341.74	22.115
342.11	23.250
342.47	21.128
342.83	24.316
343.20	22.486
343.56	23.897
343.92	21.297
344.28	22.813
344.65	23.411
345.01	23.635
345.37	23.639
345.73	22.837
346.10	22.153
346.46	23.813
346.82	23.296
347.19	23.682
347.55	23.596
347.91	22.437
348.27	22.914
348.63	23.839
349.00	22.148
349.36	23.792
349.72	23.512
350.08	25.186
350.45	23.194
350.81	23.152
351.17	23.158
351.53	24.564
351.89	23.311
352.26	22.463
352.62	23.358
352.98	24.427
353.34	22.255
353.70	23.883
354.07	24.069
354.43	24.677
354.79	23.411
355.15	24.135
355.51	24.269
355.87	23.560
356.24	23.954
356.60	23.799
356.96	24.611
357.32	23.494
357.68	23.792
358.04	23.353
358.40	23.731
358.77	23.538
359.13	24.372
359.49	23.941
359.85	23.713
360.21	24.534
360.57	23.905
360.93	23.907
361.29	25.614
361.66	25.054
362.02	26.166
362.38	25.580
362.74	25.000
363.10	25.791
363.46	25.762
363.82	25.142
364.18	24.701
364.54	25.380
364.90	25.552
365.26	25.517
365.62	26.933
365.98	26.413
366.35	25.839
366.71	26.871
367.07	26.590
367.43	25.345
367.79	26.344
368.15	26.221
368.51	26.590
368.87	26.323
369.23	26.400
369.59	26.503
369.95	27.721
370.31	27.819
370.67	26.891
371.03	27.008
371.39	26.729
371.75	27.304
372.11	27.981
372.47	28.301
372.83	28.403
373.19	27.151
373.55	27.236
373.91	27.880
374.27	27.361
374.63	28.417
374.99	28.249
375.35	28.766
375.71	27.806
376.07	28.922
376.42	29.408
376.78	30.329
377.14	29.445
377.50	29.285
377.86	28.941
378.22	30.479
378.58	30.202
378.94	30.927
379.30	29.643
379.66	31.452
380.02	30.467
380.38	30.991
380.74	31.155
381.09	31.243
381.45	31.818
381.81	32.494
382.17	31.710
382.53	31.287
382.89	31.941
383.25	33.060
383.61	32.465
383.97	33.098
384.32	33.553
384.68	32.425
385.04	33.141
385.40	34.119
385.76	34.525
386.12	33.872
386.48	32.706
386.83	35.161
387.19	33.951
387.55	34.096
387.91	34.646
388.27	34.238
388.62	34.937
388.98	34.518
389.34	36.181
389.70	36.955
390.06	35.702
390.42	36.867
390.77	35.701
391.13	37.383
391.49	36.896
391.85	36.667
392.20	36.299
392.56	35.794
392.92	36.805
393.28	37.313
393.64	36.704
393.99	38.292
394.35	37.266
394.71	37.186
395.07	37.485
395.42	37.978
395.78	39.305
396.14	38.919
396.50	37.352
396.85	36.971
397.21	37.633
397.57	37.515
397.92	39.347
398.28	38.294
398.64	38.158
399.00	37.958
399.35	38.796
399.71	39.130
400.07	39.697
400.42	38.941
400.78	39.410
401.14	39.044
401.49	39.966
401.85	39.884
402.21	40.267
402.57	40.962
402.92	40.130
403.28	39.461
403.63	39.260
403.99	39.846
404.35	38.772
404.70	39.660
405.06	39.511
405.42	39.871
405.77	39.313
406.13	39.330
406.49	40.597
406.84	38.560
407.20	39.966
407.55	39.612
407.91	39.786
408.27	39.694
408.62	40.605
408.98	40.453
409.34	40.000
409.69	41.100
410.05	40.563
410.40	41.009
410.76	39.989
411.11	41.087
411.47	40.971
411.83	40.741
412.18	41.446
412.54	40.368
412.89	40.163
413.25	40.576
413.60	41.815
413.96	40.793
414.31	40.567
414.67	41.562
415.03	40.800
415.38	41.362
415.74	41.723
416.09	40.531
416.45	40.263
416.80	40.575
417.16	42.146
417.51	40.909
417.87	41.018
418.22	42.455
418.58	42.069
418.93	41.385
419.29	41.862
419.64	41.957
420.00	41.246
420.35	41.606
420.71	41.758
421.06	41.288
421.42	41.800
421.77	41.249
422.12	41.702
422.48	42.089
422.83	43.264
423.19	42.706
423.54	43.142
423.90	41.745
424.25	43.307
424.61	41.676
424.96	42.834
425.31	42.675
425.67	41.975
426.02	45.268
426.38	43.054
426.73	42.467
427.09	43.829
427.44	42.490
427.79	42.399
428.15	42.409
428.50	42.809
428.85	42.767
429.21	43.351
429.56	43.090
429.92	43.145
430.27	43.711
430.62	44.895
430.98	43.827
431.33	44.624
431.68	43.870
432.04	44.947
432.39	43.867
432.74	42.922
433.10	43.375
433.45	43.144
433.80	43.723
434.16	44.215
434.51	44.245
434.86	45.548
435.22	45.696
435.57	44.988
435.92	44.240
436.28	44.596
436.63	44.948
436.98	43.317
437.34	45.152
437.69	45.349
438.04	44.315
438.39	44.802
438.75	44.272
439.10	46.195
439.45	43.935
439.81	43.503
440.16	44.182
440.51	44.649
440.86	45.192
441.22	44.748
441.57	45.545
441.92	44.132
442.27	45.556
442.63	46.051
442.98	46.265
443.33	44.819
443.68	46.234
444.03	46.049
444.39	45.908
444.74	46.503
445.09	46.427
445.44	45.522
445.79	45.594
446.15	45.529
446.50	46.253
446.85	46.012
447.20	45.841
447.55	46.862
447.91	46.387
448.26	46.300
448.61	45.909
448.96	47.586
449.31	46.872
449.66	44.989
450.02	46.414
450.37	46.723
450.72	46.071
451.07	45.957
451.42	46.101
451.77	45.081
452.12	46.727
452.47	46.168
452.83	47.635
453.18	46.293
453.53	47.214
453.88	46.328
454.23	47.175
454.58	47.301
454.93	46.784
455.28	47.261
455.63	46.163
455.98	46.480
456.34	47.939
456.69	46.914
457.04	47.754
457.39	46.785
457.74	46.812
458.09	46.513
458.44	46.121
458.79	46.725
459.14	46.827
459.49	46.916
459.84	48.426
460.19	46.308
460.54	49.120
460.89	47.644
461.24	46.954
461.59	46.320
461.94	45.921
462.29	48.152
462.64	46.530
462.99	47.207
463.34	47.696
463.69	45.838
464.04	46.971
464.39	47.365
464.74	46.864
465.09	47.751
465.44	47.210
465.79	47.700
466.14	46.326
466.49	47.474
466.84	48.430
467.19	46.821
467.54	46.005
467.89	46.839
468.24	45.928
468.59	46.786
468.94	46.678
469.29	46.971
469.64	46.662
469.99	45.634
470.34	46.782
470.68	47.847
471.03	47.348
471.38	47.417
471.73	46.359
472.08	48.096
472.43	46.297
472.78	47.985
473.13	47.598
473.48	47.069
473.83	47.127
474.17	47.011
474.52	48.226
474.87	46.844
475.22	48.282
475.57	47.352
475.92	47.984
476.27	47.391
476.61	47.300
476.96	47.914
477.31	47.970
477.66	48.321
478.01	47.178
478.36	45.663
478.70	47.734
479.05	48.671
479.40	48.717
479.75	47.935
480.10	46.945
480.45	47.493
480.79	48.209
481.14	48.208
481.49	48.114
481.84	47.781
482.19	48.301
482.53	48.054
482.88	49.003
483.23	47.577
483.58	47.773
483.92	47.739
484.27	47.756
484.62	48.267
484.97	47.123
485.31	46.850
485.66	44.910
486.01	45.780
486.36	47.712
486.70	51.076
487.05	52.674
487.40	50.778
487.75	48.931
488.09	48.154
488.44	47.287
488.79	46.509
489.13	47.321
489.48	46.214
489.83	47.163
490.17	46.335
490.52	47.126
490.87	48.181
491.22	47.704
491.56	47.099
491.91	47.972
492.26	47.382
492.60	47.923
492.95	48.398
493.30	49.081
493.64	49.496
493.99	49.035
494.34	48.737
494.68	48.351
495.03	48.590
495.37	49.090
495.72	48.118
496.07	47.152
496.41	47.791
496.76	48.666
497.11	47.898
497.45	48.597
497.80	47.845
498.14	48.980
498.49	47.840
498.84	49.040
499.18	48.178
499.53	48.206
499.87	48.659
500.22	47.551
500.56	48.133
500.91	49.062
501.26	48.773
501.60	48.122
501.95	48.502
502.29	48.486
502.64	48.666
502.98	48.102
503.33	47.905
503.67	48.757
504.02	48.161
504.36	48.972
504.71	48.002
505.06	49.022
505.40	47.898
505.75	48.315
506.09	48.020
506.44	48.236
506.78	49.128
507.13	48.502
507.47	49.550
507.82	48.674
508.16	48.662
508.51	47.914
508.85	49.410
509.19	48.697
509.54	49.039
509.88	48.616
510.23	49.199
510.57	49.203
510.92	50.024
511.26	48.437
511.61	48.334
511.95	48.755
512.30	49.385
512.64	47.876
512.98	48.274
513.33	48.740
513.67	49.669
514.02	49.106
514.36	49.309
514.70	49.479
515.05	50.104
515.39	49.501
515.74	49.947
516.08	48.864
516.42	49.869
516.77	50.473
517.11	49.562
517.46	49.947
517.80	50.722
518.14	50.762
518.49	50.000
518.83	48.803
519.17	49.381
519.52	49.476
519.86	50.317
520.20	50.213
520.55	49.014
520.89	50.394
521.23	49.135
521.58	50.169
521.92	49.745
522.26	49.885
522.61	50.694
522.95	49.712
523.29	50.575
523.64	49.383
523.98	51.112
524.32	51.175
524.66	49.744
525.01	49.094
525.35	49.454
525.69	50.522
526.04	49.082
526.38	50.000
526.72	50.519
527.06	50.968
527.41	49.329
527.75	50.594
528.09	50.885
528.43	50.089
528.78	49.306
529.12	50.172
529.46	49.972
529.80	50.515
530.15	50.203
530.49	50.297
530.83	49.174
531.17	50.239
531.51	50.602
531.86	51.623
532.20	52.012
532.54	49.491
532.88	49.455
533.22	49.204
533.57	49.221
533.91	49.158
534.25	50.876
534.59	51.207
534.93	50.311
535.27	50.366
535.62	51.620
535.96	51.424
536.30	50.118
536.64	51.652
536.98	51.599
537.32	50.926
537.66	51.716
538.01	48.640
538.35	50.000
538.69	51.022
539.03	50.950
539.37	49.470
539.71	50.691
540.05	50.480
540.39	51.039
540.73	50.334
541.07	49.601
541.42	49.793
541.76	50.059
542.10	50.241
542.44	49.269
542.78	51.521
543.12	50.298
543.46	49.451
543.80	49.101
544.14	49.551
544.48	49.764
544.82	51.945
545.16	50.149
545.50	49.670
545.84	49.296
546.18	50.556
546.52	49.618
546.86	50.126
547.20	50.700
547.54	49.064
547.88	48.885
548.22	49.532
548.56	50.088
548.90	51.164
549.24	50.638
549.58	49.716
549.92	48.916
550.26	50.162
550.60	48.883
550.94	49.483
551.28	50.033
551.62	50.539
551.96	49.256
552.30	50.669
552.64	50.280
552.98	50.468
553.32	51.576
553.66	51.190
554.00	50.820
554.34	50.644
554.68	49.387
555.02	50.263
555.36	51.282
555.69	48.366
556.03	50.504
556.37	51.189
556.71	48.637
557.05	49.712
557.39	50.896
557.73	50.132
558.07	50.265
558.41	49.834
558.75	50.237
559.08	51.009
559.42	50.412
559.76	50.068
560.10	49.297
560.44	50.330
560.78	50.750
561.12	50.493
561.45	51.582
561.79	50.794
562.13	51.510
562.47	50.123
562.81	51.266
563.15	51.894
563.48	50.404
563.82	50.544
564.16	50.212
564.50	49.940
564.84	49.912
565.17	50.059
565.51	49.137
565.85	50.891
566.19	49.827
566.52	49.854
566.86	51.104
567.20	49.483
567.54	51.036
567.88	50.561
568.21	49.802
568.55	50.408
568.89	50.386
569.23	50.021
569.56	50.449
569.90	50.143
570.24	51.062
570.57	49.808
570.91	49.418
571.25	49.696
571.59	50.877
571.92	49.920
572.26	50.079
572.60	50.123
572.93	49.763
573.27	49.564
573.61	49.206
573.95	49.332
574.28	49.521
574.62	49.773
574.96	48.699
575.29	48.821
575.63	49.365
575.97	49.461
576.30	48.014
576.64	48.294
576.98	49.590
577.31	49.737
577.65	50.103
577.98	49.868
578.32	49.072
578.66	49.133
578.99	49.539
579.33	49.733
579.67	49.796
580.00	49.180
580.34	48.168
580.67	49.139
581.01	49.091
581.35	49.114
581.68	49.476
582.02	49.756
582.35	51.102
582.69	51.095
583.02	50.215
583.36	49.805
583.70	49.671
584.03	48.764
584.37	48.284
584.70	47.702
585.04	47.733
585.37	48.984
585.71	49.644
586.04	48.547
586.38	49.768
586.72	49.085
587.05	48.836
587.39	50.037
587.72	49.689
588.06	49.662
588.39	49.315
588.73	48.810
589.06	48.533
589.40	49.785
589.73	48.972
590.07	48.740
590.40	49.527
590.73	49.169
591.07	49.702
591.40	48.289
591.74	48.768
592.07	49.452
592.41	49.014
592.74	47.959
593.08	49.554
593.41	50.335
593.75	50.172
594.08	50.591
594.41	50.481
594.75	49.452
595.08	49.596
595.42	49.513
595.75	49.758
596.09	49.509
596.42	49.265
596.75	49.440
597.09	49.495
597.42	49.424
597.75	48.334
598.09	49.008
598.42	48.774
598.76	48.796
599.09	49.128
599.42	49.246
599.76	48.993
600.09	49.816
600.42	49.550
600.76	49.373
601.09	48.921
601.42	48.781
601.76	49.000
602.09	49.357
602.42	48.637
602.76	49.594
603.09	49.266
603.42	49.530
603.76	49.331
604.09	50.000
604.42	48.807
604.76	48.744
605.09	49.142
605.42	49.003
605.75	49.385
606.09	48.787
606.42	49.252
606.75	49.175
607.09	48.349
607.42	49.210
607.75	49.394
608.08	48.737
608.42	47.924
608.75	50.622
609.08	48.090
609.41	49.890
609.75	49.554
610.08	49.252
610.41	48.598
610.74	49.034
611.07	49.512
611.41	50.359
611.74	49.192
612.07	50.070
612.40	48.717
612.73	49.535
613.07	49.780
613.40	49.711
613.73	50.072
614.06	50.393
614.39	49.320
614.72	49.005
615.06	49.808
615.39	49.251
615.72	48.578
616.05	49.636
616.38	50.605
616.71	49.007
617.05	48.456
617.38	48.047
617.71	49.622
618.04	49.379
618.37	50.000
618.70	49.548
619.03	49.223
619.36	48.829
619.69	48.751
620.03	49.341
620.36	50.184
620.69	48.735
621.02	49.409
621.35	52.032
621.68	49.168
622.01	47.687
622.34	49.163
622.67	49.759
623.00	49.460
623.33	50.166
623.66	50.324
623.99	50.560
624.32	49.838
624.65	50.000
624.99	50.260
625.32	51.535
625.65	50.978
625.98	48.136
626.31	50.744
626.64	49.670
626.97	49.437
627.30	49.051
627.63	49.962
627.96	50.150
628.29	49.728
628.62	49.538
628.95	49.606
629.28	49.363
629.61	50.589
629.94	50.293
630.26	50.339
630.59	50.432
630.92	49.091
631.25	50.716
631.58	52.260
631.91	51.359
632.24	50.817
632.57	50.380
632.90	50.150
633.23	49.898
