SpectraSuite Data File
++++++++++++++++++++++++++++++++++++
Date: Thu May 14 14:41:14 PDT 2015
User: schluterlab
Dark Spectrum Present: Yes
Reference Spectrum Present: Yes
Number of Sampled Component Spectra: 1
Spectrometers: USB2E3373
Integration Time (usec): 3000 (USB2E3373)
Spectra Averaged: 3 (USB2E3373)
Boxcar Smoothing: 0 (USB2E3373)
Correct for Electrical Dark: No (USB2E3373)
Strobe/Lamp Enabled: No (USB2E3373)
Correct for Detector Non-linearity: No (USB2E3373)
Correct for Stray Light: No (USB2E3373)
Number of Pixels in Processed Spectrum: 2048
>>>>>Begin Processed Spectral Data<<<<<
178.53	0.000
178.91	-100.000
179.29	-600.000
179.67	300.000
180.04	-0.000
180.42	-50.000
180.80	-120.000
181.18	1400.000
181.56	2000.000
181.94	-375.000
182.31	200.000
182.69	-0.000
183.07	150.000
183.45	-50.000
183.83	233.333
184.20	533.333
184.58	-800.000
184.96	100.000
185.34	177.778
185.72	280.000
186.09	133.333
186.47	-50.000
186.85	-20.000
187.23	66.667
187.61	500.000
187.98	-140.000
188.36	-50.000
188.74	200.000
189.12	500.000
189.49	125.000
189.87	50.000
190.25	66.667
190.63	80.000
191.00	-11.111
191.38	0.000
191.76	100.000
192.14	216.667
192.51	-0.000
192.89	100.000
193.27	0.000
193.65	128.571
194.02	100.000
194.40	42.857
194.78	-57.143
195.15	0.000
195.53	45.455
195.91	0.000
196.29	200.000
196.66	38.462
197.04	400.000
197.42	157.143
197.79	200.000
198.17	25.000
198.55	100.000
198.92	111.111
199.30	75.000
199.68	154.545
200.05	85.714
200.43	150.000
200.81	14.286
201.18	0.000
201.56	-100.000
201.94	0.000
202.31	33.333
202.69	22.222
203.07	-900.000
203.44	100.000
203.82	175.000
204.19	8.333
204.57	183.333
204.95	187.500
205.32	1300.000
205.70	-200.000
206.08	266.667
206.45	283.333
206.83	-40.000
207.20	116.667
207.58	120.000
207.96	33.333
208.33	233.333
208.71	-58.333
209.08	283.333
209.46	0.000
209.84	-150.000
210.21	-950.000
210.59	-50.000
210.96	-133.333
211.34	250.000
211.71	187.500
212.09	100.000
212.46	0.000
212.84	-0.000
213.22	20.000
213.59	400.000
213.97	170.000
214.34	33.333
214.72	-133.333
215.09	50.000
215.47	0.000
215.84	-14.286
216.22	-400.000
216.59	120.000
216.97	60.000
217.34	200.000
217.72	137.500
218.09	100.000
218.47	-225.000
218.84	0.000
219.22	-280.000
219.59	52.941
219.97	70.000
220.34	250.000
220.72	44.444
221.09	176.923
221.47	266.667
221.84	90.000
222.22	42.857
222.59	0.000
222.97	175.000
223.34	60.000
223.72	500.000
224.09	250.000
224.46	-25.000
224.84	440.000
225.21	42.857
225.59	225.000
225.96	150.000
226.34	65.385
226.71	33.333
227.08	450.000
227.46	100.000
227.83	125.000
228.21	84.211
228.58	-12.500
228.95	-850.000
229.33	158.333
229.70	10.000
230.08	89.474
230.45	-20.000
230.82	366.667
231.20	42.857
231.57	8.333
231.95	136.364
232.32	163.636
232.69	85.000
233.07	275.000
233.44	82.353
233.81	110.000
234.19	61.111
234.56	50.000
234.93	48.276
235.31	89.474
235.68	72.222
236.05	5.000
236.43	84.615
236.80	72.000
237.17	62.963
237.55	33.333
237.92	20.000
238.29	41.935
238.67	11.364
239.04	44.444
239.41	35.714
239.79	21.739
240.16	20.370
240.53	10.870
240.91	17.647
241.28	19.672
241.65	28.358
242.02	25.676
242.40	9.231
242.77	24.000
243.14	8.537
243.51	6.579
243.89	24.359
244.26	30.693
244.63	15.686
245.00	21.495
245.38	14.912
245.75	8.850
246.12	22.222
246.49	9.302
246.87	20.000
247.24	25.166
247.61	13.816
247.98	13.423
248.36	12.963
248.73	6.135
249.10	24.044
249.47	19.900
249.84	23.037
250.22	13.472
250.59	18.333
250.96	19.091
251.33	7.143
251.70	14.530
252.08	12.500
252.45	13.115
252.82	11.983
253.19	14.062
253.56	10.266
253.94	12.692
254.31	18.182
254.68	20.280
255.05	14.658
255.42	13.265
255.79	11.974
256.16	14.570
256.54	14.570
256.91	15.738
257.28	15.082
257.65	14.968
258.02	10.914
258.39	12.536
258.76	14.067
259.14	14.943
259.51	11.816
259.88	13.314
260.25	13.056
260.62	16.164
260.99	15.847
261.36	14.209
261.73	11.671
262.10	9.615
262.47	12.332
262.85	17.424
263.22	12.468
263.59	10.000
263.96	12.788
264.33	9.719
264.70	11.358
265.07	14.320
265.44	14.286
265.81	11.111
266.18	14.286
266.55	14.286
266.92	10.251
267.29	13.567
267.66	13.969
268.03	14.629
268.40	14.405
268.77	10.478
269.14	9.031
269.51	12.719
269.88	14.549
270.25	15.091
270.62	13.291
270.99	11.919
271.36	12.871
271.73	11.591
272.10	10.822
272.47	12.625
272.84	11.044
273.21	12.224
273.58	12.702
273.95	11.923
274.32	11.407
274.69	9.671
275.06	10.989
275.43	10.351
275.80	12.698
276.17	11.111
276.54	10.821
276.91	12.701
277.28	12.116
277.65	11.311
278.02	11.765
278.39	10.870
278.76	10.369
279.13	12.234
279.50	11.856
279.87	11.807
280.23	8.627
280.60	11.864
280.97	11.513
281.34	9.677
281.71	12.690
282.08	10.963
282.45	11.457
282.82	10.832
283.19	9.208
283.56	10.328
283.92	12.462
284.29	12.796
284.66	10.016
285.03	11.058
285.40	10.046
285.77	11.920
286.14	10.992
286.51	11.568
286.87	11.690
287.24	12.199
287.61	10.613
287.98	8.308
288.35	12.870
288.72	11.243
289.08	11.567
289.45	10.503
289.82	11.747
290.19	9.626
290.56	11.972
290.93	10.984
291.29	10.744
291.66	11.708
292.03	9.362
292.40	11.293
292.77	10.512
293.13	9.066
293.50	10.250
293.87	10.738
294.24	11.733
294.60	11.378
294.97	9.664
295.34	10.755
295.71	9.206
296.08	9.690
296.44	9.314
296.81	9.257
297.18	9.963
297.55	9.670
297.91	9.371
298.28	9.360
298.65	11.534
299.02	10.272
299.38	10.069
299.75	9.696
300.12	8.565
300.48	10.945
300.85	8.661
301.22	10.291
301.59	8.790
301.95	10.169
302.32	10.444
302.69	10.186
303.05	10.773
303.42	10.200
303.79	10.729
304.15	10.515
304.52	9.831
304.89	10.576
305.25	9.731
305.62	9.718
305.99	10.515
306.35	10.282
306.72	10.962
307.09	8.934
307.45	10.352
307.82	10.091
308.19	9.687
308.55	10.800
308.92	10.711
309.29	11.782
309.65	10.429
310.02	10.693
310.38	11.024
310.75	10.971
311.12	11.985
311.48	11.828
311.85	11.111
312.22	12.144
312.58	11.549
312.95	11.855
313.31	12.556
313.68	13.553
314.05	13.369
314.41	14.481
314.78	13.806
315.14	13.793
315.51	14.404
315.87	15.212
316.24	14.795
316.61	15.808
316.97	15.385
317.34	15.079
317.70	16.856
318.07	16.490
318.43	18.027
318.80	18.980
319.16	16.824
319.53	17.309
319.89	17.090
320.26	20.107
320.62	18.262
320.99	18.929
321.35	19.131
321.72	21.860
322.08	21.190
322.45	21.680
322.81	22.202
323.18	22.478
323.54	23.017
323.91	23.932
324.27	23.752
324.64	25.273
325.00	23.549
325.37	25.307
325.73	26.529
326.10	28.062
326.46	25.651
326.83	27.782
327.19	27.165
327.56	28.142
327.92	27.695
328.29	27.581
328.65	28.476
329.01	29.019
329.38	30.160
329.74	29.623
330.11	31.164
330.47	30.497
330.84	30.749
331.20	33.083
331.56	33.102
331.93	33.305
332.29	32.797
332.66	32.641
333.02	31.323
333.38	31.795
333.75	32.828
334.11	33.194
334.48	33.498
334.84	35.599
335.20	33.333
335.57	35.329
335.93	33.802
336.29	33.444
336.66	33.053
337.02	34.030
337.38	34.949
337.75	34.711
338.11	34.146
338.47	34.326
338.84	35.533
339.20	34.541
339.56	34.514
339.93	35.878
340.29	34.541
340.65	34.874
341.02	34.238
341.38	36.378
341.74	34.867
342.11	33.870
342.47	34.075
342.83	34.702
343.20	35.487
343.56	35.605
343.92	35.148
344.28	35.078
344.65	35.659
345.01	34.399
345.37	35.226
345.73	34.217
346.10	35.179
346.46	34.256
346.82	35.431
347.19	36.516
347.55	35.660
347.91	35.587
348.27	34.825
348.63	35.720
349.00	34.974
349.36	35.242
349.72	34.821
350.08	34.993
350.45	35.285
350.81	35.520
351.17	34.812
351.53	36.240
351.89	35.915
352.26	34.627
352.62	34.403
352.98	36.565
353.34	34.429
353.70	35.362
354.07	35.544
354.43	35.383
354.79	33.957
355.15	35.173
355.51	35.453
355.87	35.602
356.24	36.122
356.60	35.403
356.96	36.323
357.32	34.275
357.68	34.480
358.04	35.105
358.40	35.597
358.77	35.673
359.13	35.672
359.49	35.762
359.85	35.243
360.21	34.362
360.57	35.463
360.93	36.601
361.29	35.930
361.66	35.482
362.02	36.743
362.38	36.191
362.74	36.383
363.10	36.314
363.46	37.327
363.82	36.364
364.18	36.031
364.54	36.722
364.90	35.853
365.26	36.966
365.62	36.467
365.98	36.624
366.35	36.107
366.71	37.143
367.07	36.806
367.43	36.441
367.79	37.425
368.15	36.656
368.51	36.739
368.87	36.839
369.23	37.000
369.59	37.637
369.95	37.255
370.31	38.015
370.67	37.139
371.03	37.396
371.39	36.938
371.75	37.345
372.11	37.737
372.47	36.696
372.83	38.678
373.19	37.492
373.55	37.127
373.91	36.810
374.27	37.646
374.63	38.701
374.99	37.865
375.35	38.117
375.71	38.581
376.07	37.960
376.42	38.539
376.78	38.844
377.14	38.677
377.50	38.963
377.86	39.163
378.22	38.802
378.58	39.596
378.94	39.319
379.30	38.781
379.66	38.859
380.02	39.527
380.38	39.459
380.74	38.817
381.09	41.638
381.45	40.341
381.81	40.749
382.17	39.846
382.53	39.883
382.89	39.616
383.25	40.445
383.61	39.931
383.97	40.459
384.32	40.670
384.68	39.907
385.04	41.700
385.40	42.781
385.76	41.911
386.12	40.874
386.48	40.647
386.83	40.822
387.19	40.093
387.55	41.373
387.91	41.039
388.27	42.148
388.62	41.638
388.98	41.060
389.34	42.015
389.70	41.488
390.06	42.037
390.42	41.024
390.77	42.986
391.13	41.138
391.49	42.935
391.85	41.758
392.20	41.993
392.56	42.115
392.92	41.767
393.28	42.952
393.64	41.844
393.99	43.056
394.35	41.764
394.71	42.515
395.07	42.216
395.42	42.947
395.78	43.937
396.14	43.494
396.50	42.458
396.85	42.278
397.21	43.195
397.57	43.463
397.92	43.299
398.28	42.314
398.64	43.135
399.00	41.257
399.35	43.351
399.71	42.554
400.07	42.897
400.42	42.549
400.78	43.056
401.14	43.540
401.49	43.661
401.85	42.616
402.21	43.743
402.57	44.542
402.92	43.972
403.28	42.037
403.63	43.079
403.99	42.340
404.35	42.752
404.70	43.853
405.06	42.826
405.42	42.330
405.77	42.803
406.13	42.301
406.49	44.032
406.84	43.712
407.20	43.488
407.55	42.883
407.91	43.243
408.27	43.110
408.62	43.455
408.98	43.413
409.34	42.639
409.69	43.634
410.05	43.611
410.40	44.084
410.76	44.588
411.11	44.477
411.47	43.366
411.83	43.210
412.18	44.940
412.54	43.806
412.89	44.412
413.25	44.074
413.60	44.457
413.96	44.172
414.31	43.286
414.67	45.021
415.03	44.308
415.38	44.578
415.74	44.044
416.09	44.725
416.45	44.083
416.80	44.553
417.16	44.508
417.51	45.019
417.87	46.107
418.22	44.970
418.58	45.105
418.93	44.645
419.29	44.883
419.64	44.538
420.00	44.748
420.35	44.919
420.71	44.630
421.06	45.888
421.42	46.732
421.77	44.373
422.12	45.930
422.48	45.622
422.83	47.097
423.19	45.942
423.54	46.958
423.90	46.328
424.25	47.200
424.61	45.637
424.96	46.183
425.31	46.338
425.67	45.894
426.02	47.039
426.38	47.589
426.73	46.652
427.09	47.174
427.44	46.204
427.79	47.153
428.15	47.032
428.50	46.854
428.85	47.359
429.21	48.457
429.56	47.285
429.92	47.322
430.27	47.711
430.62	47.338
430.98	46.827
431.33	46.970
431.68	47.557
432.04	47.638
432.39	49.384
432.74	48.174
433.10	48.999
433.45	47.492
433.80	48.337
434.16	48.450
434.51	49.640
434.86	48.534
435.22	49.097
435.57	50.118
435.92	48.136
436.28	48.805
436.63	50.792
436.98	49.329
437.34	50.169
437.69	49.477
438.04	49.339
438.39	48.823
438.75	49.696
439.10	50.529
439.45	48.463
439.81	49.379
440.16	49.866
440.51	49.554
440.86	49.528
441.22	49.464
441.57	50.262
441.92	48.594
442.27	49.192
442.63	49.280
442.98	50.267
443.33	50.605
443.68	50.842
444.03	51.599
444.39	49.977
444.74	49.719
445.09	50.634
445.44	50.738
445.79	51.149
446.15	51.490
446.50	51.163
446.85	50.243
447.20	50.725
447.55	50.837
447.91	51.047
448.26	51.374
448.61	49.416
448.96	52.253
449.31	50.159
449.66	50.654
450.02	49.947
450.37	51.252
450.72	50.323
451.07	51.424
451.42	51.184
451.77	51.084
452.12	53.104
452.47	50.743
452.83	52.309
453.18	51.722
453.53	51.809
453.88	49.917
454.23	51.412
454.58	52.931
454.93	51.335
455.28	52.438
455.63	50.881
455.98	51.564
456.34	53.357
456.69	51.558
457.04	53.369
457.39	51.829
457.74	52.517
458.09	51.949
458.44	51.832
458.79	51.160
459.14	50.918
459.49	52.122
459.84	51.784
460.19	51.416
460.54	52.981
460.89	51.879
461.24	51.954
461.59	52.297
461.94	50.827
462.29	52.968
462.64	51.961
462.99	53.233
463.34	53.472
463.69	52.110
464.04	53.307
464.39	51.906
464.74	51.995
465.09	52.422
465.44	52.629
465.79	52.512
466.14	51.329
466.49	52.579
466.84	52.507
467.19	52.601
467.54	52.703
467.89	52.586
468.24	53.241
468.59	52.635
468.94	52.331
469.29	52.070
469.64	53.719
469.99	53.920
470.34	52.723
470.68	53.110
471.03	54.158
471.38	52.845
471.73	52.536
472.08	53.109
472.43	53.281
472.78	52.456
473.13	53.161
473.48	52.508
473.83	53.395
474.17	52.814
474.52	54.059
474.87	52.215
475.22	53.239
475.57	53.011
475.92	52.364
476.27	52.556
476.61	53.686
476.96	52.972
477.31	53.515
477.66	54.512
478.01	53.025
478.36	52.243
478.70	52.562
479.05	54.294
479.40	54.442
479.75	53.026
480.10	53.245
480.45	53.099
480.79	52.336
481.14	53.493
481.49	53.339
481.84	52.916
482.19	53.677
482.53	53.651
482.88	53.655
483.23	54.024
483.58	53.493
483.92	52.482
484.27	52.371
484.62	52.970
484.97	53.421
485.31	51.531
485.66	49.878
486.01	49.307
486.36	49.610
486.70	52.521
487.05	53.566
487.40	53.007
487.75	53.537
488.09	53.311
488.44	52.589
488.79	53.187
489.13	53.512
489.48	52.544
489.83	52.797
490.17	53.301
490.52	53.654
490.87	53.215
491.22	53.856
491.56	54.053
491.91	53.685
492.26	54.176
492.60	53.039
492.95	53.971
493.30	53.384
493.64	53.657
493.99	53.596
494.34	52.657
494.68	52.805
495.03	54.670
495.37	55.038
495.72	54.512
496.07	53.374
496.41	52.810
496.76	54.754
497.11	54.352
497.45	53.086
497.80	54.198
498.14	53.016
498.49	54.550
498.84	53.885
499.18	53.126
499.53	53.946
499.87	53.978
500.22	53.517
500.56	54.386
500.91	55.103
501.26	55.000
501.60	53.955
501.95	53.409
502.29	54.892
502.64	54.438
502.98	53.322
503.33	53.823
503.67	54.034
504.02	54.159
504.36	53.798
504.71	54.111
505.06	54.025
505.40	54.570
505.75	54.007
506.09	54.880
506.44	55.200
506.78	54.404
507.13	55.141
507.47	55.708
507.82	54.451
508.16	55.019
508.51	53.727
508.85	54.700
509.19	54.950
509.54	54.563
509.88	55.415
510.23	55.949
510.57	54.857
510.92	55.346
511.26	54.209
511.61	52.873
511.95	53.734
512.30	54.899
512.64	54.373
512.98	54.977
513.33	55.393
513.67	55.635
514.02	56.260
514.36	54.987
514.70	55.573
515.05	55.318
515.39	56.115
515.74	56.204
516.08	55.468
516.42	56.515
516.77	55.626
517.11	54.874
517.46	55.779
517.80	56.921
518.14	55.495
518.49	56.291
518.83	54.923
519.17	54.981
519.52	54.822
519.86	56.389
520.20	55.591
520.55	57.119
520.89	56.813
521.23	55.667
521.58	56.667
521.92	56.487
522.26	55.670
522.61	56.250
522.95	57.151
523.29	56.782
523.64	55.717
523.98	57.616
524.32	57.593
524.66	57.655
525.01	55.436
525.35	55.830
525.69	55.684
526.04	56.716
526.38	57.356
526.72	56.228
527.06	57.713
527.41	56.385
527.75	56.829
528.09	56.789
528.43	57.194
528.78	55.318
529.12	55.619
529.46	56.211
529.80	57.609
530.15	56.406
530.49	57.355
530.83	56.553
531.17	57.348
531.51	57.401
531.86	57.151
532.20	56.098
532.54	56.732
532.88	57.030
533.22	55.687
533.57	56.549
533.91	56.397
534.25	56.077
534.59	55.977
534.93	56.480
535.27	56.338
535.62	55.941
535.96	56.130
536.30	56.580
536.64	58.018
536.98	57.749
537.32	56.790
537.66	58.079
538.01	55.347
538.35	56.090
538.69	56.310
539.03	57.572
539.37	55.654
539.71	56.937
540.05	56.475
540.39	56.235
540.73	56.163
541.07	56.836
541.42	55.405
541.76	56.228
542.10	55.730
542.44	56.699
542.78	56.995
543.12	55.602
543.46	55.861
543.80	55.396
544.14	56.373
544.48	55.910
544.82	56.972
545.16	56.470
545.50	57.340
545.84	56.767
546.18	57.346
546.52	57.962
546.86	56.415
547.20	56.743
547.54	56.305
547.88	57.203
548.22	56.667
548.56	56.758
548.90	56.060
549.24	56.717
549.58	56.215
549.92	56.378
550.26	56.828
550.60	56.605
550.94	58.538
551.28	56.436
551.62	56.941
551.96	55.987
552.30	58.572
552.64	56.938
552.98	57.268
553.32	58.907
553.66	57.492
554.00	56.747
554.34	57.593
554.68	55.649
555.02	57.030
555.36	57.988
555.69	56.823
556.03	56.683
556.37	58.010
556.71	56.817
557.05	57.061
557.39	57.532
557.73	57.662
558.07	57.748
558.41	57.608
558.75	57.133
559.08	58.525
559.42	57.819
559.76	57.395
560.10	57.669
560.44	58.245
560.78	56.688
561.12	56.096
561.45	57.908
561.79	57.143
562.13	57.917
562.47	57.707
562.81	58.924
563.15	56.755
563.48	57.365
563.82	56.590
564.16	56.875
564.50	57.271
564.84	56.460
565.17	56.765
565.51	55.178
565.85	57.185
566.19	56.682
566.52	57.461
566.86	56.480
567.20	55.628
567.54	57.355
567.88	56.575
568.21	56.868
568.55	56.211
568.89	55.969
569.23	56.063
569.56	54.240
569.90	54.277
570.24	54.030
570.57	54.618
570.91	53.705
571.25	53.370
571.59	53.883
571.92	53.678
572.26	53.494
572.60	53.836
572.93	53.910
573.27	52.936
573.61	52.250
573.95	53.168
574.28	52.114
574.62	53.342
574.96	52.801
575.29	53.338
575.63	52.668
575.97	53.030
576.30	52.677
576.64	52.374
576.98	52.847
577.31	53.395
577.65	53.302
577.98	52.353
578.32	51.811
578.66	52.149
578.99	53.123
579.33	53.468
579.67	52.992
580.00	52.798
580.34	53.469
580.67	52.692
581.01	52.899
581.35	52.367
581.68	51.872
582.02	51.792
582.35	52.894
582.69	53.678
583.02	53.186
583.36	53.563
583.70	54.010
584.03	53.876
584.37	54.184
584.70	52.812
585.04	52.802
585.37	53.093
585.71	52.686
586.04	53.016
586.38	53.598
586.72	53.071
587.05	53.645
587.39	53.902
587.72	54.569
588.06	53.530
588.39	53.572
588.73	53.280
589.06	54.007
589.40	55.501
589.73	55.045
590.07	54.509
590.40	55.510
590.73	54.472
591.07	55.510
591.40	54.471
591.74	55.922
592.07	56.029
592.41	55.836
592.74	54.171
593.08	54.268
593.41	54.447
593.75	53.851
594.08	54.650
594.41	55.962
594.75	54.533
595.08	55.114
595.42	54.123
595.75	54.569
596.09	55.608
596.42	55.536
596.75	55.268
597.09	56.242
597.42	55.662
597.75	54.606
598.09	55.516
598.42	56.333
598.76	54.872
599.09	54.788
599.42	54.073
599.76	54.308
600.09	55.022
600.42	53.620
600.76	55.548
601.09	54.033
601.42	54.823
601.76	55.414
602.09	55.575
602.42	55.798
602.76	55.203
603.09	54.479
603.42	55.925
603.76	55.004
604.09	55.394
604.42	56.220
604.76	54.909
605.09	56.362
605.42	55.502
605.75	55.192
606.09	55.319
606.42	54.360
606.75	55.060
607.09	54.608
607.42	55.645
607.75	56.350
608.08	55.091
608.42	54.736
608.75	55.431
609.08	55.475
609.41	55.889
609.75	56.830
610.08	56.552
610.41	55.098
610.74	55.252
611.07	56.750
611.41	57.489
611.74	56.813
612.07	56.942
612.40	56.369
612.73	57.262
613.07	56.626
613.40	57.940
613.73	56.428
614.06	58.243
614.39	57.434
614.72	55.750
615.06	55.390
615.39	55.872
615.72	56.682
616.05	56.532
616.38	58.274
616.71	57.680
617.05	56.550
617.38	56.661
617.71	56.857
618.04	57.690
618.37	58.852
618.70	58.937
619.03	58.244
619.36	59.248
619.69	58.808
620.03	58.632
620.36	58.896
620.69	59.161
621.02	59.843
621.35	61.393
621.68	61.461
622.01	59.786
622.34	59.693
622.67	58.763
623.00	58.435
623.33	59.721
623.66	61.154
623.99	59.381
624.32	60.039
624.65	58.366
624.99	60.208
625.32	60.810
625.65	59.744
625.98	59.458
626.31	58.965
626.64	60.366
626.97	62.041
627.30	60.820
627.63	59.490
627.96	61.486
628.29	60.856
628.62	62.049
628.95	62.664
629.28	61.937
629.61	62.205
629.94	60.837
630.26	60.847
630.59	61.226
630.92	61.126
631.25	63.059
631.58	63.559
631.91	64.386
632.24	63.689
632.57	61.575
632.90	65.296
633.23	64.796
633.56	63.776
633.89	62.190
634.22	66.112
634.55	64.823
634.88	64.394
