SpectraSuite Data File
++++++++++++++++++++++++++++++++++++
Date: Thu May 14 14:57:56 PDT 2015
User: schluterlab
Dark Spectrum Present: Yes
Reference Spectrum Present: Yes
Number of Sampled Component Spectra: 1
Spectrometers: USB2E3373
Integration Time (usec): 3000 (USB2E3373)
Spectra Averaged: 3 (USB2E3373)
Boxcar Smoothing: 0 (USB2E3373)
Correct for Electrical Dark: No (USB2E3373)
Strobe/Lamp Enabled: No (USB2E3373)
Correct for Detector Non-linearity: No (USB2E3373)
Correct for Stray Light: No (USB2E3373)
Number of Pixels in Processed Spectrum: 2048
>>>>>Begin Processed Spectral Data<<<<<
178.53	0.000
178.91	314.286
179.29	-1900.000
179.67	-2200.000
180.04	207.143
180.42	200.000
180.80	520.000
181.18	-2300.000
181.56	-1000.000
181.94	475.000
182.31	-675.000
182.69	766.667
183.07	-700.000
183.45	575.000
183.83	-283.333
184.20	-933.333
184.58	1600.000
184.96	-250.000
185.34	-122.222
185.72	-280.000
186.09	222.222
186.47	1250.000
186.85	500.000
187.23	-266.667
187.61	-2400.000
187.98	560.000
188.36	375.000
188.74	-675.000
189.12	-766.667
189.49	-62.500
189.87	-312.500
190.25	-233.333
190.63	-240.000
191.00	-188.889
191.38	0.000
191.76	-425.000
192.14	-366.667
192.51	1150.000
192.89	-350.000
193.27	0.000
193.65	-228.571
194.02	-1900.000
194.40	-257.143
194.78	357.143
195.15	0.000
195.53	-200.000
195.91	0.000
196.29	-400.000
196.66	-146.154
197.04	-2000.000
197.42	-314.286
197.79	-700.000
198.17	-225.000
198.55	-342.857
198.92	-166.667
199.30	-250.000
199.68	-154.545
200.05	-100.000
200.43	-1300.000
200.81	457.143
201.18	0.000
201.56	311.111
201.94	0.000
202.31	566.667
202.69	-155.556
203.07	2100.000
203.44	-233.333
203.82	-450.000
204.19	-183.333
204.57	-316.667
204.95	-325.000
205.32	-2200.000
205.70	350.000
206.08	-333.333
206.45	-250.000
206.83	260.000
207.20	-150.000
207.58	-500.000
207.96	-300.000
208.33	-33.333
208.71	241.667
209.08	-300.000
209.46	0.000
209.84	400.000
210.21	1050.000
210.59	1050.000
210.96	866.667
211.34	-250.000
211.71	-112.500
212.09	-2000.000
212.46	0.000
212.84	1400.000
213.22	-340.000
213.59	-350.000
213.97	-100.000
214.34	-666.667
214.72	333.333
215.09	-750.000
215.47	0.000
215.84	328.571
216.22	1200.000
216.59	-460.000
216.97	-540.000
217.34	-625.000
217.72	-175.000
218.09	-525.000
218.47	-650.000
218.84	0.000
219.22	540.000
219.59	-41.176
219.97	-75.000
220.34	1100.000
220.72	-200.000
221.09	-123.077
221.47	-700.000
221.84	-210.000
222.22	-285.714
222.59	0.000
222.97	-125.000
223.34	-520.000
223.72	-1500.000
224.09	-250.000
224.46	-575.000
224.84	-260.000
225.21	-257.143
225.59	-500.000
225.96	-700.000
226.34	-53.846
226.71	333.333
227.08	-1200.000
227.46	-80.000
227.83	-700.000
228.21	-100.000
228.58	325.000
228.95	750.000
229.33	-50.000
229.70	-150.000
230.08	-73.684
230.45	220.000
230.82	-966.667
231.20	-92.857
231.57	-141.667
231.95	-100.000
232.32	-200.000
232.69	-85.000
233.07	-675.000
233.44	-141.176
233.81	-210.000
234.19	-50.000
234.56	-68.182
234.93	-13.793
235.31	-73.684
235.68	-55.556
236.05	-115.000
236.43	-38.462
236.80	-44.000
237.17	-25.926
237.55	-21.212
237.92	-210.000
238.29	-32.258
238.67	-4.545
239.04	-33.333
239.41	11.905
239.79	-10.870
240.16	3.704
240.53	0.000
240.91	0.000
241.28	1.639
241.65	5.970
242.02	10.811
242.40	23.077
242.77	14.667
243.14	9.756
243.51	9.211
243.89	15.385
244.26	21.782
244.63	14.706
245.00	26.168
245.38	11.404
245.75	12.389
246.12	28.571
246.49	16.279
246.87	22.143
247.24	23.179
247.61	23.684
247.98	20.805
248.36	25.926
248.73	19.018
249.10	22.404
249.47	37.811
249.84	26.178
250.22	22.280
250.59	32.222
250.96	31.818
251.33	33.163
251.70	28.205
252.08	24.167
252.45	36.885
252.82	32.231
253.19	26.562
253.56	33.080
253.94	29.231
254.31	32.955
254.68	34.615
255.05	33.876
255.42	28.231
255.79	24.272
256.16	31.126
256.54	27.815
256.91	29.508
257.28	34.426
257.65	29.618
258.02	33.333
258.39	32.764
258.76	36.391
259.14	36.494
259.51	34.294
259.88	29.745
260.25	35.278
260.62	34.247
260.99	36.339
261.36	38.070
261.73	35.809
262.10	37.088
262.47	34.316
262.85	36.111
263.22	28.571
263.59	29.474
263.96	33.504
264.33	33.504
264.70	33.086
265.07	35.322
265.44	33.107
265.81	36.111
266.18	36.961
266.55	35.268
266.92	33.030
267.29	33.917
267.66	34.590
268.03	34.279
268.40	31.733
268.77	32.118
269.14	33.921
269.51	34.430
269.88	31.762
270.25	31.590
270.62	35.021
270.99	34.141
271.36	33.069
271.73	33.399
272.10	34.469
272.47	35.471
272.84	33.936
273.21	30.661
273.58	35.484
273.95	32.115
274.32	33.080
274.69	32.108
275.06	33.150
275.43	31.793
275.80	35.626
276.17	34.444
276.54	32.836
276.91	32.916
277.28	36.528
277.65	31.957
278.02	34.559
278.39	33.333
278.76	33.568
279.13	32.979
279.50	31.959
279.87	33.274
280.23	30.282
280.60	34.576
280.97	32.730
281.34	34.295
281.71	34.518
282.08	32.392
282.45	32.079
282.82	32.810
283.19	30.695
283.56	32.787
283.92	33.784
284.29	33.491
284.66	34.154
285.03	29.808
285.40	31.994
285.77	31.889
286.14	33.740
286.51	31.507
286.87	35.071
287.24	32.078
287.61	32.287
287.98	30.514
288.35	34.024
288.72	32.840
289.08	31.772
289.45	30.030
289.82	31.928
290.19	33.046
290.56	31.831
290.93	31.669
291.29	32.369
291.66	30.303
292.03	29.851
292.40	32.925
292.77	30.458
293.13	30.447
293.50	29.304
293.87	30.604
294.24	30.933
294.60	30.341
294.97	28.054
295.34	30.090
295.71	28.499
296.08	29.974
296.44	29.412
296.81	29.963
297.18	28.643
297.55	29.363
297.91	28.826
298.28	27.725
298.65	28.894
299.02	28.689
299.38	27.918
299.75	28.621
300.12	28.472
300.48	28.111
300.85	28.684
301.22	30.313
301.59	27.283
301.95	27.006
302.32	30.889
302.69	27.820
303.05	28.727
303.42	29.268
303.79	30.417
304.15	29.022
304.52	29.175
304.89	29.005
305.25	27.950
305.62	29.363
305.99	27.629
306.35	29.234
306.72	31.851
307.09	28.528
307.45	29.089
307.82	29.970
308.19	29.263
308.55	29.315
308.92	29.698
309.29	29.789
309.65	29.532
310.02	30.198
310.38	29.921
310.75	30.680
311.12	32.502
311.48	30.596
311.85	31.244
312.22	31.784
312.58	31.549
312.95	31.166
313.31	31.165
313.68	31.960
314.05	31.527
314.41	34.426
314.78	34.332
315.14	32.759
315.51	33.149
315.87	33.393
316.24	32.877
316.61	32.860
316.97	33.122
317.34	32.892
317.70	33.624
318.07	35.714
318.43	34.184
318.80	34.532
319.16	35.279
319.53	34.533
319.89	35.933
320.26	34.698
320.62	34.752
320.99	36.380
321.35	35.120
321.72	37.209
322.08	36.159
322.45	35.953
322.81	37.004
323.18	37.522
323.54	37.672
323.91	38.523
324.27	36.747
324.64	38.371
325.00	36.816
325.37	38.821
325.73	39.504
326.10	37.875
326.46	38.844
326.83	39.792
327.19	38.661
327.56	41.344
327.92	39.732
328.29	40.968
328.65	39.447
329.01	40.186
329.38	41.028
329.74	41.952
330.11	41.438
330.47	41.702
330.84	43.066
331.20	40.667
331.56	42.114
331.93	43.347
332.29	43.051
332.66	43.355
333.02	42.295
333.38	42.701
333.75	42.593
334.11	43.536
334.48	42.492
334.84	42.226
335.20	41.310
335.57	43.592
335.93	43.306
336.29	42.596
336.66	42.641
337.02	43.562
337.38	42.772
337.75	40.992
338.11	43.314
338.47	43.672
338.84	43.655
339.20	41.533
339.56	40.692
339.93	42.365
340.29	42.432
340.65	42.579
341.02	43.097
341.38	43.169
341.74	42.615
342.11	43.524
342.47	41.541
342.83	43.317
343.20	42.273
343.56	42.983
343.92	42.194
344.28	41.250
344.65	43.643
345.01	42.590
345.37	41.524
345.73	42.323
346.10	42.200
346.46	43.513
346.82	43.521
347.19	41.558
347.55	42.868
347.91	42.199
348.27	42.185
348.63	42.498
349.00	40.567
349.36	41.710
349.72	42.634
350.08	42.571
350.45	43.270
350.81	42.534
351.17	42.030
351.53	42.229
351.89	42.976
352.26	41.940
352.62	42.910
352.98	42.824
353.34	40.553
353.70	43.529
354.07	42.101
354.43	42.749
354.79	41.960
355.15	41.207
355.51	41.228
355.87	42.483
356.24	42.966
356.60	42.794
356.96	42.921
357.32	42.677
357.68	42.020
358.04	42.216
358.40	42.836
358.77	42.105
359.13	41.433
359.49	42.156
359.85	42.277
360.21	41.607
360.57	41.996
360.93	42.948
361.29	43.158
361.66	43.374
362.02	43.911
362.38	42.305
362.74	43.506
363.10	42.091
363.46	43.490
363.82	43.395
364.18	44.194
364.54	43.430
364.90	42.742
365.26	42.828
365.62	44.000
365.98	43.975
366.35	43.087
366.71	44.014
367.07	43.978
367.43	42.810
367.79	45.322
368.15	45.351
368.51	43.437
368.87	43.958
369.23	43.467
369.59	44.467
369.95	43.678
370.31	45.037
370.67	43.054
371.03	44.114
371.39	43.452
371.75	45.392
372.11	44.919
372.47	45.836
372.83	44.699
373.19	44.963
373.55	44.038
373.91	44.785
374.27	45.666
374.63	45.467
374.99	44.894
375.35	45.519
375.71	46.000
376.07	45.449
376.42	46.599
376.78	46.116
377.14	45.727
377.50	46.932
377.86	46.244
378.22	47.545
378.58	47.206
378.94	46.714
379.30	47.100
379.66	47.501
380.02	46.971
380.38	48.675
380.74	47.211
381.09	48.316
381.45	48.466
381.81	49.356
382.17	47.743
382.53	48.363
382.89	47.856
383.25	49.121
383.61	49.132
383.97	48.587
384.32	49.163
384.68	48.724
385.04	49.566
385.40	49.440
385.76	50.293
386.12	49.192
386.48	49.706
386.83	51.013
387.19	50.000
387.55	50.822
387.91	51.655
388.27	50.982
388.62	50.573
388.98	50.197
389.34	51.326
389.70	50.436
390.06	51.036
390.42	52.048
390.77	51.776
391.13	51.878
391.49	51.329
391.85	51.697
392.20	51.779
392.56	51.920
392.92	52.944
393.28	52.349
393.64	53.073
393.99	53.806
394.35	53.388
394.71	52.754
395.07	51.856
395.42	51.970
395.78	53.260
396.14	52.347
396.50	52.435
396.85	52.355
397.21	52.130
397.57	53.946
397.92	53.837
398.28	51.657
398.64	51.087
399.00	52.199
399.35	53.089
399.71	53.152
400.07	53.341
400.42	52.794
400.78	53.356
401.14	52.476
401.49	52.246
401.85	52.791
402.21	54.114
402.57	53.932
402.92	54.019
403.28	53.103
403.63	52.446
403.99	53.325
404.35	52.928
404.70	53.144
405.06	51.576
405.42	53.630
405.77	54.035
406.13	53.701
406.49	53.885
406.84	53.795
407.20	53.158
407.55	52.877
407.91	52.986
408.27	52.532
408.62	52.938
408.98	53.743
409.34	53.196
409.69	54.079
410.05	53.927
410.40	54.060
410.76	52.159
411.11	54.179
411.47	54.115
411.83	52.734
412.18	53.916
412.54	52.756
412.89	52.910
413.25	52.991
413.60	53.532
413.96	53.555
414.31	52.748
414.67	53.071
415.03	53.354
415.38	54.288
415.74	52.535
416.09	53.424
416.45	52.286
416.80	52.999
417.16	54.470
417.51	54.795
417.87	54.874
418.22	52.994
418.58	53.346
418.93	54.424
419.29	54.871
419.64	55.042
420.00	54.065
420.35	54.351
420.71	52.499
421.06	53.249
421.42	54.931
421.77	53.258
422.12	53.858
422.48	55.044
422.83	54.272
423.19	54.164
423.54	55.586
423.90	53.948
424.25	55.467
424.61	55.683
424.96	54.530
425.31	56.263
425.67	54.911
426.02	56.336
426.38	56.028
426.73	54.743
427.09	55.306
427.44	53.905
427.79	55.556
428.15	54.795
428.50	56.124
428.85	55.052
429.21	55.106
429.56	55.726
429.92	55.725
430.27	55.663
430.62	57.157
430.98	57.403
431.33	56.109
431.68	56.657
432.04	56.526
432.39	55.919
432.74	56.792
433.10	55.598
433.45	55.072
433.80	56.545
434.16	55.940
434.51	57.503
434.86	58.686
435.22	57.917
435.57	58.844
435.92	56.260
436.28	57.110
436.63	57.564
436.98	57.864
437.34	57.046
437.69	55.201
438.04	56.108
438.39	57.323
438.75	57.167
439.10	59.144
439.45	57.406
439.81	57.627
440.16	57.534
440.51	58.473
440.86	57.643
441.22	56.538
441.57	58.019
441.92	57.953
442.27	58.030
442.63	57.923
442.98	58.858
443.33	56.970
443.68	58.771
444.03	58.420
444.39	58.761
444.74	58.499
445.09	58.642
445.44	58.851
445.79	59.148
446.15	58.839
446.50	58.036
446.85	57.928
447.20	57.979
447.55	58.630
447.91	58.220
448.26	58.932
448.61	57.917
448.96	58.530
449.31	57.794
449.66	58.279
450.02	57.542
450.37	59.084
450.72	59.311
451.07	59.339
451.42	58.463
451.77	58.143
452.12	59.312
452.47	58.764
452.83	59.516
453.18	59.019
453.53	57.496
453.88	57.592
454.23	58.757
454.58	58.387
454.93	57.524
455.28	59.904
455.63	59.522
455.98	58.659
456.34	58.598
456.69	58.554
457.04	59.043
457.39	58.592
457.74	59.843
458.09	58.320
458.44	58.998
458.79	57.349
459.14	58.311
459.49	59.536
459.84	58.447
460.19	58.079
460.54	58.660
460.89	59.661
461.24	57.529
461.59	58.661
461.94	58.471
462.29	59.798
462.64	59.747
462.99	59.071
463.34	58.663
463.69	57.796
464.04	59.867
464.39	59.137
464.74	57.583
465.09	58.651
465.44	58.798
465.79	58.382
466.14	58.051
466.49	59.105
466.84	59.835
467.19	58.439
467.54	58.049
467.89	57.414
468.24	57.673
468.59	57.383
468.94	58.159
469.29	57.828
469.64	58.042
469.99	58.317
470.34	58.540
470.68	58.647
471.03	58.415
471.38	58.470
471.73	57.412
472.08	59.264
472.43	57.255
472.78	58.438
473.13	59.229
473.48	58.066
473.83	59.315
474.17	58.030
474.52	60.253
474.87	58.859
475.22	58.141
475.57	58.515
475.92	58.487
476.27	58.307
476.61	57.892
476.96	58.551
477.31	58.069
477.66	60.441
478.01	58.058
478.36	57.727
478.70	59.754
479.05	60.378
479.40	59.378
479.75	58.934
480.10	58.456
480.45	58.751
480.79	58.322
481.14	59.559
481.49	58.473
481.84	59.138
482.19	57.978
482.53	59.510
482.88	58.972
483.23	59.493
483.58	57.991
483.92	58.599
484.27	58.467
484.62	58.375
484.97	57.893
485.31	57.515
485.66	54.901
486.01	56.325
486.36	59.728
486.70	63.102
487.05	64.402
487.40	62.085
487.75	60.814
488.09	59.482
488.44	57.737
488.79	57.437
489.13	56.445
489.48	57.126
489.83	56.378
490.17	58.040
490.52	57.020
490.87	57.064
491.22	58.102
491.56	58.148
491.91	57.610
492.26	57.810
492.60	58.024
492.95	57.481
493.30	57.015
493.64	57.512
493.99	56.930
494.34	57.361
494.68	58.201
495.03	58.678
495.37	58.100
495.72	57.279
496.07	57.493
496.41	56.885
496.76	57.840
497.11	59.193
497.45	58.006
497.80	58.108
498.14	58.277
498.49	56.847
498.84	57.404
499.18	56.860
499.53	58.206
499.87	56.835
500.22	58.059
500.56	58.255
500.91	58.352
501.26	57.545
501.60	57.490
501.95	57.099
502.29	58.096
502.64	58.155
502.98	56.859
503.33	58.229
503.67	56.607
504.02	58.319
504.36	58.445
504.71	58.888
505.06	57.344
505.40	58.547
505.75	56.967
506.09	57.182
506.44	58.217
506.78	58.991
507.13	57.861
507.47	58.929
507.82	57.102
508.16	57.314
508.51	57.103
508.85	58.668
509.19	57.603
509.54	57.733
509.88	57.455
510.23	57.746
510.57	58.821
510.92	57.958
511.26	57.287
511.61	56.494
511.95	58.028
512.30	57.410
512.64	57.071
512.98	56.228
513.33	58.065
513.67	57.675
514.02	57.128
514.36	58.517
514.70	58.438
515.05	59.333
515.39	56.483
515.74	58.643
516.08	56.999
516.42	58.870
516.77	57.886
517.11	56.318
517.46	58.961
517.80	57.723
518.14	58.923
518.49	58.189
518.83	56.786
519.17	57.620
519.52	56.813
519.86	58.237
520.20	57.934
520.55	57.119
520.89	57.939
521.23	56.896
521.58	58.249
521.92	58.130
522.26	56.758
522.61	57.292
522.95	57.555
523.29	57.529
523.64	56.726
523.98	58.357
524.32	58.682
524.66	58.110
525.01	56.908
525.35	56.749
525.69	56.845
526.04	55.798
526.38	58.851
526.72	57.324
527.06	58.592
527.41	57.376
527.75	57.957
528.09	58.442
528.43	57.075
528.78	57.803
529.12	57.167
529.46	56.661
529.80	59.382
530.15	59.594
530.49	57.711
530.83	57.910
531.17	56.691
531.51	58.303
531.86	58.293
532.20	59.146
532.54	56.732
532.88	57.939
533.22	56.276
533.57	57.934
533.91	57.015
534.25	57.434
534.59	59.310
534.93	56.989
535.27	57.577
535.62	58.044
535.96	58.454
536.30	57.521
536.64	59.039
536.98	58.180
537.32	57.654
537.66	57.018
538.01	56.193
538.35	57.247
538.69	57.813
539.03	59.595
539.37	57.126
539.71	57.177
540.05	57.494
540.39	56.968
540.73	57.073
541.07	57.756
541.42	56.054
541.76	55.872
542.10	57.539
542.44	57.856
542.78	57.238
543.12	56.377
543.46	57.082
543.80	56.355
544.14	57.092
544.48	57.151
544.82	58.169
545.16	58.080
545.50	56.681
545.84	57.502
546.18	58.951
546.52	56.306
546.86	56.604
547.20	58.333
547.54	56.492
547.88	56.661
548.22	57.368
548.56	58.806
548.90	58.567
549.24	58.237
549.58	58.044
549.92	58.036
550.26	57.282
550.60	57.243
550.94	56.080
551.28	56.370
551.62	57.345
551.96	56.893
552.30	58.126
552.64	59.179
552.98	58.640
553.32	58.392
553.66	57.942
554.00	57.314
554.34	58.687
554.68	55.713
555.02	57.622
555.36	58.185
555.69	57.463
556.03	57.377
556.37	58.824
556.71	59.036
557.05	57.700
557.39	57.797
557.73	58.653
558.07	57.417
558.41	57.940
558.75	56.660
559.08	58.386
559.42	57.888
559.76	57.395
560.10	57.066
560.44	57.982
560.78	58.625
561.12	59.175
561.45	58.637
561.79	58.547
562.13	58.903
562.47	56.843
562.81	57.089
563.15	58.523
563.48	56.805
563.82	58.525
564.16	58.873
564.50	57.330
564.84	56.991
565.17	58.118
565.51	57.020
565.85	58.076
566.19	58.353
566.52	59.801
566.86	58.291
567.20	56.987
567.54	59.533
567.88	59.072
568.21	59.239
568.55	58.465
568.89	59.918
569.23	59.569
569.56	59.515
569.90	59.907
570.24	59.933
570.57	60.648
570.91	60.747
571.25	60.399
571.59	59.171
571.92	59.941
572.26	60.826
572.60	59.732
572.93	58.781
573.27	59.118
573.61	59.132
573.95	59.068
574.28	59.285
574.62	59.209
574.96	59.682
575.29	59.529
575.63	59.436
575.97	60.263
576.30	58.796
576.64	58.840
576.98	58.998
577.31	59.417
577.65	59.864
577.98	60.184
578.32	60.195
578.66	59.273
578.99	60.066
579.33	60.316
579.67	60.086
580.00	59.362
580.34	59.446
580.67	58.981
581.01	59.758
581.35	59.536
581.68	59.361
582.02	60.212
582.35	61.542
582.69	61.906
583.02	61.222
583.36	60.608
583.70	60.850
584.03	59.587
584.37	58.800
584.70	58.460
585.04	58.684
585.37	59.589
585.71	59.655
586.04	59.908
586.38	60.980
586.72	59.890
587.05	60.808
587.39	59.437
587.72	60.861
588.06	60.904
588.39	60.045
588.73	59.127
589.06	60.412
589.40	60.326
589.73	60.443
590.07	59.383
590.40	60.142
590.73	58.961
591.07	59.121
591.40	59.720
591.74	59.539
592.07	59.237
592.41	59.267
592.74	58.963
593.08	60.191
593.41	60.484
593.75	60.948
594.08	60.648
594.41	61.506
594.75	58.951
595.08	60.094
595.42	61.494
595.75	59.057
596.09	60.590
596.42	59.799
596.75	59.244
597.09	60.727
597.42	59.277
597.75	59.310
598.09	59.484
598.42	60.676
598.76	58.617
599.09	60.128
599.42	59.940
599.76	59.194
600.09	61.295
600.42	59.126
600.76	60.139
601.09	59.808
601.42	59.423
601.76	60.241
602.09	59.364
602.42	59.215
602.76	59.594
603.09	60.169
603.42	60.947
603.76	59.514
604.09	61.001
604.42	59.927
604.76	59.247
605.09	59.992
605.42	59.450
605.75	59.500
606.09	60.209
606.42	59.759
606.75	59.183
607.09	58.641
607.42	58.805
607.75	60.063
608.08	58.958
608.42	58.364
608.75	59.867
609.08	59.380
609.41	60.212
609.75	59.196
610.08	60.686
610.41	59.388
610.74	59.370
611.07	59.547
611.41	59.686
611.74	60.600
612.07	58.813
612.40	59.458
612.73	60.293
613.07	60.196
613.40	59.336
613.73	59.798
614.06	59.764
614.39	59.427
614.72	58.758
615.06	58.999
615.39	59.401
615.72	58.768
616.05	58.864
616.38	59.586
616.71	59.666
617.05	58.999
617.38	57.731
617.71	58.639
618.04	58.985
618.37	59.235
618.70	60.803
619.03	59.020
619.36	59.371
619.69	58.873
620.03	58.067
620.36	58.773
620.69	59.716
621.02	60.892
621.35	60.015
621.68	58.858
622.01	58.007
622.34	58.996
622.67	58.419
623.00	57.962
623.33	60.783
623.66	58.495
623.99	60.237
624.32	60.429
624.65	58.687
624.99	61.704
625.32	60.222
625.65	60.216
625.98	57.966
626.31	58.965
626.64	60.000
626.97	57.839
627.30	58.238
627.63	59.115
627.96	58.408
628.29	58.599
628.62	56.171
628.95	59.071
629.28	57.434
629.61	59.428
629.94	57.490
630.26	57.627
630.59	58.117
630.92	57.576
631.25	59.034
