SpectraSuite Data File
++++++++++++++++++++++++++++++++++++
Date: Thu May 14 14:54:20 PDT 2015
User: schluterlab
Dark Spectrum Present: Yes
Reference Spectrum Present: Yes
Number of Sampled Component Spectra: 1
Spectrometers: USB2E3373
Integration Time (usec): 3000 (USB2E3373)
Spectra Averaged: 3 (USB2E3373)
Boxcar Smoothing: 0 (USB2E3373)
Correct for Electrical Dark: No (USB2E3373)
Strobe/Lamp Enabled: No (USB2E3373)
Correct for Detector Non-linearity: No (USB2E3373)
Correct for Stray Light: No (USB2E3373)
Number of Pixels in Processed Spectrum: 2048
>>>>>Begin Processed Spectral Data<<<<<
178.53	0.000
178.91	214.286
179.29	-1900.000
179.67	-1800.000
180.04	171.429
180.42	130.000
180.80	340.000
181.18	-1200.000
181.56	-1500.000
181.94	275.000
182.31	-450.000
182.69	100.000
183.07	-700.000
183.45	425.000
183.83	-266.667
184.20	-266.667
184.58	800.000
184.96	-350.000
185.34	-200.000
185.72	-220.000
186.09	211.111
186.47	850.000
186.85	440.000
187.23	-177.778
187.61	-1600.000
187.98	420.000
188.36	575.000
188.74	-375.000
189.12	-533.333
189.49	-75.000
189.87	-187.500
190.25	-11.111
190.63	-100.000
191.00	-166.667
191.38	0.000
191.76	-400.000
192.14	-283.333
192.51	850.000
192.89	-200.000
193.27	0.000
193.65	-214.286
194.02	-1400.000
194.40	-228.571
194.78	71.429
195.15	0.000
195.53	-136.364
195.91	0.000
196.29	-250.000
196.66	-161.538
197.04	-1500.000
197.42	-157.143
197.79	-950.000
198.17	-162.500
198.55	-271.429
198.92	-77.778
199.30	-125.000
199.68	-54.545
200.05	-21.429
200.43	-1000.000
200.81	300.000
201.18	0.000
201.56	366.667
201.94	0.000
202.31	300.000
202.69	-222.222
203.07	1600.000
203.44	-100.000
203.82	-450.000
204.19	-158.333
204.57	-316.667
204.95	-212.500
205.32	-2500.000
205.70	500.000
206.08	-233.333
206.45	-66.667
206.83	520.000
207.20	-183.333
207.58	-360.000
207.96	-300.000
208.33	-216.667
208.71	116.667
209.08	-100.000
209.46	0.000
209.84	216.667
210.21	700.000
210.59	900.000
210.96	633.333
211.34	-225.000
211.71	-162.500
212.09	-1500.000
212.46	0.000
212.84	1050.000
213.22	-420.000
213.59	-400.000
213.97	-140.000
214.34	-366.667
214.72	250.000
215.09	-350.000
215.47	0.000
215.84	242.857
216.22	1350.000
216.59	-180.000
216.97	-180.000
217.34	25.000
217.72	-162.500
218.09	-675.000
218.47	-425.000
218.84	0.000
219.22	220.000
219.59	-47.059
219.97	-30.000
220.34	450.000
220.72	-166.667
221.09	-15.385
221.47	-333.333
221.84	-120.000
222.22	-300.000
222.59	0.000
222.97	-112.500
223.34	-220.000
223.72	-1600.000
224.09	-500.000
224.46	-500.000
224.84	-140.000
225.21	-228.571
225.59	-425.000
225.96	-400.000
226.34	-42.308
226.71	300.000
227.08	-650.000
227.46	-53.333
227.83	-325.000
228.21	21.053
228.58	187.500
228.95	650.000
229.33	-91.667
229.70	-110.000
230.08	-47.368
230.45	200.000
230.82	-400.000
231.20	-71.429
231.57	-108.333
231.95	-163.636
232.32	-118.182
232.69	-10.000
233.07	-75.000
233.44	-82.353
233.81	-160.000
234.19	-61.111
234.56	-18.182
234.93	-3.448
235.31	-42.105
235.68	-61.111
236.05	-130.000
236.43	-15.385
236.80	4.000
237.17	-59.259
237.55	-15.152
237.92	-140.000
238.29	-32.258
238.67	-18.182
239.04	-36.111
239.41	-54.762
239.79	-34.783
240.16	-31.481
240.53	-52.174
240.91	-31.373
241.28	-14.754
241.65	0.000
242.02	-12.162
242.40	-3.077
242.77	-14.667
243.14	-13.415
243.51	-28.947
243.89	-35.897
244.26	-17.822
244.63	-8.824
245.00	-5.607
245.38	-9.649
245.75	-21.239
246.12	-0.794
246.49	-6.202
246.87	3.571
247.24	-4.636
247.61	-5.263
247.98	-10.067
248.36	-8.642
248.73	-10.429
249.10	-4.918
249.47	1.990
249.84	-4.188
250.22	-5.181
250.59	-5.556
250.96	-1.818
251.33	-11.735
251.70	-2.564
252.08	-1.250
252.45	0.820
252.82	-1.653
253.19	-3.516
253.56	-2.281
253.94	-3.462
254.31	-0.379
254.68	3.497
255.05	1.954
255.42	-0.340
255.79	-1.618
256.16	-2.980
256.54	-1.987
256.91	2.623
257.28	1.311
257.65	-3.185
258.02	-3.245
258.39	0.855
258.76	2.141
259.14	-0.575
259.51	0.000
259.88	-1.133
260.25	0.278
260.62	1.918
260.99	0.000
261.36	2.681
261.73	-0.796
262.10	-1.648
262.47	-0.536
262.85	3.788
263.22	0.000
263.59	-0.526
263.96	-1.023
264.33	-4.348
264.70	3.457
265.07	1.193
265.44	2.494
265.81	-0.926
266.18	0.907
266.55	0.670
266.92	0.228
267.29	0.219
267.66	-1.552
268.03	1.092
268.40	0.418
268.77	-3.417
269.14	-1.762
269.51	1.754
269.88	2.049
270.25	0.201
270.62	-0.211
270.99	3.838
271.36	2.376
271.73	1.375
272.10	3.808
272.47	0.401
272.84	0.402
273.21	2.405
273.58	0.000
273.95	0.769
274.32	0.570
274.69	-1.354
275.06	2.930
275.43	-0.555
275.80	1.587
276.17	-0.556
276.54	1.119
276.91	0.000
277.28	0.362
277.65	2.334
278.02	1.838
278.39	0.181
278.76	0.176
279.13	1.418
279.50	2.062
279.87	0.358
280.23	-0.880
280.60	3.220
280.97	2.961
281.34	-0.679
281.71	2.538
282.08	-0.664
282.45	0.000
282.82	0.157
283.19	-0.969
283.56	0.984
283.92	3.003
284.29	1.106
284.66	0.985
285.03	-0.801
285.40	1.855
285.77	0.464
286.14	1.221
286.51	0.913
286.87	0.632
287.24	0.452
287.61	1.495
287.98	1.057
288.35	0.444
288.72	1.775
289.08	1.318
289.45	-0.444
289.82	-0.602
290.19	0.575
290.56	2.113
290.93	0.713
291.29	0.413
291.66	1.653
292.03	0.407
292.40	2.449
292.77	1.887
293.13	1.894
293.50	1.183
293.87	0.268
294.24	3.067
294.60	2.023
294.97	-0.805
295.34	3.073
295.71	0.126
296.08	-0.646
296.44	1.471
296.81	1.096
297.18	0.872
297.55	1.533
297.91	1.542
298.28	0.829
298.65	1.189
299.02	0.236
299.38	1.945
299.75	-0.117
300.12	0.810
300.48	0.922
300.85	2.137
301.22	0.895
301.59	-0.685
301.95	1.017
302.32	1.778
302.69	1.095
303.05	1.523
303.42	0.000
303.79	1.042
304.15	1.893
304.52	0.317
304.89	0.314
305.25	2.174
305.62	1.045
305.99	1.134
306.35	0.403
306.72	0.414
307.09	0.609
307.45	1.553
307.82	1.312
308.19	0.706
308.55	1.543
308.92	0.389
309.29	1.533
309.65	1.852
310.02	1.683
310.38	1.280
310.75	0.291
311.12	1.438
311.48	0.391
311.85	0.855
312.22	0.569
312.58	0.376
312.95	1.530
313.31	1.265
313.68	1.099
314.05	2.349
314.41	1.821
314.78	1.635
315.14	1.633
315.51	1.662
315.87	1.890
316.24	1.644
316.61	1.776
316.97	0.724
317.34	1.587
317.70	2.445
318.07	1.058
318.43	2.636
318.80	3.428
319.16	0.858
319.53	1.028
319.89	1.665
320.26	1.512
320.62	1.064
320.99	1.385
321.35	1.109
321.72	1.581
322.08	1.082
322.45	1.355
322.81	1.083
323.18	1.150
323.54	1.810
323.91	2.580
324.27	1.205
324.64	1.763
325.00	1.658
325.37	2.293
325.73	1.736
326.10	1.703
326.46	3.339
326.83	2.322
327.19	1.890
327.56	2.292
327.92	1.259
328.29	1.855
328.65	2.178
329.01	1.269
329.38	2.190
329.74	1.541
330.11	2.312
330.47	1.853
330.84	2.067
331.20	2.833
331.56	2.860
331.93	2.008
332.29	1.610
332.66	2.824
333.02	1.843
333.38	1.846
333.75	2.189
334.11	1.918
334.48	2.310
334.84	3.059
335.20	1.679
335.57	1.939
335.93	2.562
336.29	1.664
336.66	2.355
337.02	2.174
337.38	2.891
337.75	2.066
338.11	2.523
338.47	2.812
338.84	1.438
339.20	1.095
339.56	1.647
339.93	2.627
340.29	2.013
340.65	1.865
341.02	2.075
341.38	3.314
341.74	2.098
342.11	2.977
342.47	1.827
342.83	2.979
343.20	1.717
343.56	1.844
343.92	1.922
344.28	2.891
344.65	2.481
345.01	1.872
345.37	2.566
345.73	1.715
346.10	2.028
346.46	2.373
346.82	3.596
347.19	2.597
347.55	3.035
347.91	1.783
348.27	2.124
348.63	1.980
349.00	2.983
349.36	2.602
349.72	3.051
350.08	4.086
350.45	1.293
350.81	2.413
351.17	2.406
351.53	1.592
351.89	2.961
352.26	2.164
352.62	1.791
352.98	1.908
353.34	1.643
353.70	0.847
354.07	2.086
354.43	1.215
354.79	2.468
355.15	2.208
355.51	2.851
355.87	1.945
356.24	2.129
356.60	2.217
356.96	1.705
357.32	1.933
357.68	1.391
358.04	1.123
358.40	1.642
358.77	2.120
359.13	1.625
359.49	2.007
359.85	1.523
360.21	2.726
360.57	1.723
360.93	2.116
361.29	2.246
361.66	1.883
362.02	2.505
362.38	2.319
362.74	1.885
363.10	2.545
363.46	2.008
363.82	1.491
364.18	2.111
364.54	2.559
364.90	2.408
365.26	1.172
365.62	2.667
365.98	2.451
366.35	1.879
366.71	2.585
367.07	1.962
367.43	2.692
367.79	2.322
368.15	2.542
368.51	2.233
368.87	2.417
369.23	2.533
369.59	2.186
369.95	1.893
370.31	2.701
370.67	2.063
371.03	3.393
371.39	1.612
371.75	2.201
372.11	2.642
372.47	2.234
372.83	3.076
373.19	2.402
373.55	1.762
373.91	1.636
374.27	2.393
374.63	2.097
374.99	1.658
375.35	2.532
375.71	1.935
376.07	2.647
376.42	2.267
376.78	2.486
377.14	2.745
377.50	2.087
377.86	3.448
378.22	2.754
378.58	2.675
378.94	3.404
379.30	2.753
379.66	2.293
380.02	2.308
380.38	2.419
380.74	3.042
381.09	2.846
381.45	2.727
381.81	3.630
382.17	3.029
382.53	2.632
382.89	3.330
383.25	2.286
383.61	1.736
383.97	2.591
384.32	2.871
384.68	1.798
385.04	2.834
385.40	2.887
385.76	3.048
386.12	3.052
386.48	3.000
386.83	2.980
387.19	2.433
387.55	2.171
387.91	2.340
388.27	2.771
388.62	2.749
388.98	2.876
389.34	3.300
389.70	2.092
390.06	3.079
390.42	2.711
390.77	3.432
391.13	3.286
391.49	2.597
391.85	2.606
392.20	2.610
392.56	3.544
392.92	3.108
393.28	3.261
393.64	2.737
393.99	3.080
394.35	3.213
394.71	3.174
395.07	2.455
395.42	2.798
395.78	3.595
396.14	3.209
396.50	3.088
396.85	2.922
397.21	2.604
397.57	2.886
397.92	3.780
398.28	2.444
398.64	2.860
399.00	3.089
399.35	3.508
399.71	2.391
400.07	2.864
400.42	3.318
400.78	2.720
401.14	3.358
401.49	3.184
401.85	2.849
402.21	3.244
402.57	3.286
402.92	3.073
403.28	3.454
403.63	2.088
403.99	2.613
404.35	3.638
404.70	3.003
405.06	2.663
405.42	3.220
405.77	3.108
406.13	3.241
406.49	2.984
406.84	2.992
407.20	2.963
407.55	2.302
407.91	2.954
408.27	3.004
408.62	3.200
408.98	3.192
409.34	2.346
409.69	2.781
410.05	3.341
410.40	3.538
410.76	3.309
411.11	3.331
411.47	3.194
411.83	2.822
412.18	3.253
412.54	3.557
412.89	4.133
413.25	2.991
413.60	3.102
413.96	2.797
414.31	2.663
414.67	3.936
415.03	3.446
415.38	2.963
415.74	3.238
416.09	3.825
416.45	3.256
416.80	3.244
417.16	3.321
417.51	3.549
417.87	2.698
418.22	3.293
418.58	2.974
418.93	4.191
419.29	2.466
419.64	2.641
420.00	3.383
420.35	2.920
420.71	3.217
421.06	2.185
421.42	2.982
421.77	3.069
422.12	3.647
422.48	3.635
422.83	3.614
423.19	2.759
423.54	3.263
423.90	3.092
424.25	3.467
424.61	2.698
424.96	3.295
425.31	3.822
425.67	3.113
426.02	3.210
426.38	2.870
426.73	3.125
427.09	3.806
427.44	3.168
427.79	3.206
428.15	2.568
428.50	2.809
428.85	2.928
429.21	3.723
429.56	2.962
429.92	2.752
430.27	3.277
430.62	3.322
430.98	2.902
431.33	3.177
431.68	2.730
432.04	3.250
432.39	3.160
432.74	3.082
433.10	3.191
433.45	3.177
433.80	3.702
434.16	3.461
434.51	3.135
434.86	2.932
435.22	3.082
435.57	3.774
435.92	3.617
436.28	3.185
436.63	2.949
436.98	3.704
437.34	2.931
437.69	3.302
438.04	2.856
438.39	3.389
438.75	2.712
439.10	3.964
439.45	3.689
439.81	3.390
440.16	3.003
440.51	3.567
440.86	3.724
441.22	3.644
441.57	3.931
441.92	3.831
442.27	3.939
442.63	3.825
442.98	4.269
443.33	3.630
443.68	4.163
444.03	4.704
444.39	3.883
444.74	3.828
445.09	3.548
445.44	3.688
445.79	3.927
446.15	3.546
446.50	3.204
446.85	3.794
447.20	4.014
447.55	4.184
447.91	3.665
448.26	3.964
448.61	3.666
448.96	4.024
449.31	3.818
449.66	3.268
450.02	4.061
450.37	4.369
450.72	3.498
451.07	4.328
451.42	4.044
451.77	3.724
452.12	4.063
452.47	3.268
452.83	3.322
453.18	3.619
453.53	3.619
453.88	4.583
454.23	4.689
454.58	3.482
454.93	3.701
455.28	3.974
455.63	4.662
455.98	4.246
456.34	4.240
456.69	3.880
457.04	4.019
457.39	3.492
457.74	4.027
458.09	3.075
458.44	4.149
458.79	3.559
459.14	4.248
459.49	4.018
459.84	4.250
460.19	3.443
460.54	4.827
460.89	3.812
461.24	3.621
461.59	4.372
461.94	3.366
462.29	3.975
462.64	3.500
462.99	4.457
463.34	4.413
463.69	3.869
464.04	4.836
464.39	4.148
464.74	4.447
465.09	4.383
465.44	4.131
465.79	4.865
466.14	4.325
466.49	4.632
466.84	3.857
467.19	4.393
467.54	3.702
467.89	4.023
468.24	4.211
468.59	3.706
468.94	3.963
469.29	3.719
469.64	4.259
469.99	3.888
470.34	4.455
470.68	3.896
471.03	4.257
471.38	3.532
471.73	3.251
472.08	3.871
472.43	3.612
472.78	4.345
473.13	3.666
473.48	4.350
473.83	4.701
474.17	4.162
474.52	4.269
474.87	4.651
475.22	4.451
475.57	4.258
475.92	4.430
476.27	3.674
476.61	3.946
476.96	4.067
477.31	4.703
477.66	4.355
478.01	3.915
478.36	4.187
478.70	4.039
479.05	4.448
479.40	4.442
479.75	5.283
480.10	5.163
480.45	4.421
480.79	4.717
481.14	4.320
481.49	3.998
481.84	4.830
482.19	4.430
482.53	4.854
482.88	5.184
483.23	4.402
483.58	3.799
483.92	4.255
484.27	4.361
484.62	4.373
484.97	5.016
485.31	4.541
485.66	4.753
486.01	4.598
486.36	4.653
486.70	5.074
487.05	5.032
487.40	5.015
487.75	4.733
488.09	4.593
488.44	4.346
488.79	4.890
489.13	4.852
489.48	3.573
489.83	4.105
490.17	4.455
490.52	4.803
490.87	4.992
491.22	4.159
491.56	4.309
491.91	4.972
492.26	4.890
492.60	4.241
492.95	4.651
493.30	4.662
493.64	4.117
493.99	4.518
494.34	4.051
494.68	4.454
495.03	4.626
495.37	4.483
495.72	4.671
496.07	4.908
496.41	4.247
496.76	4.420
497.11	4.374
497.45	4.618
497.80	5.020
498.14	3.946
498.49	4.228
498.84	4.159
499.18	4.813
499.53	5.157
499.87	4.703
500.22	3.785
500.56	4.768
500.91	4.531
501.26	4.864
501.60	4.684
501.95	4.863
502.29	4.476
502.64	4.154
502.98	4.961
503.33	4.708
503.67	4.448
504.02	4.685
504.36	4.915
504.71	5.282
505.06	4.957
505.40	4.479
505.75	4.508
506.09	4.374
506.44	5.292
506.78	4.266
507.13	4.841
507.47	4.690
507.82	5.208
508.16	4.876
508.51	4.313
508.85	4.346
509.19	4.500
509.54	4.803
509.88	4.225
510.23	4.274
510.57	5.317
510.92	4.354
511.26	4.233
511.61	4.684
511.95	4.441
512.30	4.825
512.64	4.698
512.98	4.902
513.33	4.738
513.67	4.589
514.02	4.803
514.36	5.166
514.70	4.792
515.05	4.849
515.39	4.777
515.74	5.514
516.08	5.494
516.42	5.285
516.77	5.047
517.11	5.157
517.46	4.878
517.80	5.291
518.14	5.277
518.49	4.881
518.83	4.470
519.17	4.308
519.52	5.398
519.86	5.016
520.20	5.431
520.55	5.038
520.89	4.955
521.23	5.248
521.58	5.198
521.92	4.646
522.26	4.639
522.61	4.514
522.95	4.441
523.29	5.115
523.64	4.933
523.98	5.476
524.32	6.017
524.66	4.952
525.01	5.436
525.35	4.308
525.69	4.698
526.04	4.765
526.38	5.172
526.72	5.190
527.06	4.868
527.41	4.898
527.75	5.819
528.09	5.490
528.43	5.447
528.78	4.913
529.12	4.931
529.46	5.228
529.80	5.263
530.15	4.522
530.49	4.270
530.83	5.785
531.17	5.197
531.51	5.114
531.86	5.589
532.20	5.549
532.54	5.386
532.88	4.909
533.22	5.127
533.57	4.674
533.91	4.714
534.25	4.862
534.59	4.425
534.93	5.150
535.27	4.507
535.62	5.571
535.96	5.404
536.30	4.465
536.64	6.006
536.98	5.535
537.32	5.185
537.66	5.677
538.01	4.471
538.35	4.568
538.69	5.048
539.03	5.273
539.37	5.183
539.71	5.526
540.05	5.156
540.39	4.462
540.73	4.797
541.07	5.150
541.42	4.962
541.76	4.745
542.10	4.825
542.44	4.263
542.78	5.292
543.12	5.542
543.46	5.128
543.80	4.137
544.14	5.566
544.48	5.437
544.82	5.027
545.16	4.592
545.50	4.913
545.84	4.654
546.18	5.926
546.52	5.096
546.86	4.465
547.20	5.153
547.54	5.368
547.88	4.340
548.22	5.263
548.56	5.208
548.90	4.060
549.24	4.985
549.58	4.795
549.92	4.974
550.26	4.854
550.60	5.552
550.94	5.886
551.28	4.950
551.62	5.526
551.96	5.502
552.30	6.119
552.64	5.538
552.98	4.554
553.32	5.723
553.66	4.823
554.00	5.675
554.34	5.534
554.68	5.036
555.02	5.256
555.36	5.325
555.69	4.805
556.03	5.359
556.37	5.507
556.71	5.136
557.05	5.623
557.39	4.977
557.73	4.359
558.07	4.768
558.41	5.116
558.75	5.274
559.08	5.637
559.42	4.595
559.76	5.767
560.10	5.358
560.44	5.475
560.78	5.938
561.12	4.926
561.45	5.718
561.79	5.250
562.13	5.052
562.47	4.932
562.81	5.190
563.15	4.230
563.48	5.469
563.82	5.200
564.16	5.148
564.50	4.708
564.84	5.723
565.17	5.824
565.51	5.178
565.85	6.057
566.19	4.551
566.52	5.208
566.86	5.546
567.20	4.785
567.54	4.939
567.88	5.097
568.21	5.188
568.55	5.228
568.89	5.356
569.23	6.337
569.56	5.080
569.90	5.738
570.24	5.632
570.57	5.260
570.91	5.603
571.25	5.409
571.59	5.594
571.92	5.544
572.26	5.823
572.60	5.378
572.93	5.650
573.27	5.648
573.61	5.373
573.95	6.191
574.28	5.700
574.62	5.503
574.96	5.426
575.29	5.442
575.63	5.729
575.97	5.413
576.30	5.576
576.64	5.583
576.98	5.467
577.31	5.431
577.65	5.241
577.98	5.591
578.32	5.350
578.66	5.654
578.99	5.550
579.33	5.514
579.67	5.372
580.00	5.439
580.34	5.650
580.67	5.583
581.01	5.279
581.35	5.494
581.68	5.572
582.02	5.749
582.35	5.820
582.69	5.713
583.02	5.681
583.36	5.730
583.70	5.476
584.03	5.424
584.37	5.283
584.70	5.575
585.04	5.464
585.37	5.413
585.71	5.933
586.04	5.680
586.38	5.757
586.72	5.264
587.05	5.014
587.39	5.485
587.72	5.957
588.06	5.585
588.39	6.000
588.73	5.926
589.06	5.672
589.40	5.808
589.73	5.527
590.07	5.670
590.40	6.153
590.73	5.797
591.07	6.069
591.40	5.715
591.74	5.922
592.07	5.765
592.41	5.678
592.74	5.751
593.08	6.083
593.41	6.066
593.75	5.661
594.08	5.877
594.41	6.571
594.75	5.978
595.08	5.552
595.42	5.325
595.75	5.747
596.09	6.235
596.42	5.697
596.75	5.673
597.09	5.859
597.42	5.999
597.75	5.998
598.09	6.270
598.42	5.589
598.76	5.732
599.09	5.625
599.42	5.766
599.76	6.042
600.09	6.039
600.42	6.173
600.76	5.713
601.09	5.775
601.42	6.042
601.76	6.241
602.09	6.183
602.42	5.671
602.76	5.683
603.09	5.433
603.42	5.816
603.76	5.673
604.09	6.423
604.42	5.835
604.76	6.507
605.09	5.943
605.42	6.100
605.75	6.000
606.09	6.010
606.42	5.874
606.75	5.622
607.09	5.453
607.42	5.934
607.75	5.744
608.08	5.683
608.42	6.247
608.75	6.136
609.08	5.603
609.41	5.867
609.75	6.161
610.08	6.684
610.41	5.480
610.74	6.134
611.07	5.373
611.41	6.099
611.74	5.727
612.07	5.891
612.40	5.466
612.73	5.134
613.07	5.281
613.40	5.919
613.73	6.163
614.06	5.447
614.39	5.102
614.72	6.114
615.06	5.727
615.39	5.558
615.72	5.450
616.05	6.411
616.38	5.802
616.71	6.322
617.05	5.431
617.38	5.886
617.71	6.533
618.04	5.505
618.37	6.120
618.70	5.826
619.03	4.898
619.36	5.980
619.69	5.509
620.03	5.210
620.36	5.460
620.69	6.354
621.02	5.971
621.35	5.806
621.68	6.218
622.01	5.480
622.34	5.021
622.67	4.948
623.00	5.263
623.33	5.773
623.66	5.772
623.99	5.530
624.32	7.083
624.65	5.212
624.99	5.787
625.32	5.879
625.65	6.069
625.98	4.949
626.31	5.032
626.64	6.227
626.97	5.026
627.30	4.632
627.63	5.551
627.96	6.757
628.29	5.992
628.62	5.374
628.95	4.733
629.28	5.607
629.61	5.135
629.94	5.105
630.26	5.339
630.59	5.009
630.92	4.935
631.25	5.993
631.58	5.273
631.91	4.967
632.24	5.764
632.57	5.693
632.90	6.319
633.23	4.796
633.56	5.306
633.89	5.165
634.22	5.198
634.55	5.532
634.88	4.437
635.20	4.952
635.53	5.763
635.86	6.067
636.19	6.681
636.52	5.802
636.85	5.209
637.18	5.509
637.51	3.763
637.83	5.980
638.16	6.682
638.49	3.521
638.82	5.862
639.15	5.040
639.48	6.236
639.81	5.196
640.13	6.478
640.46	3.758
640.79	3.676
641.12	4.720
641.45	6.023
641.77	6.418
642.10	4.068
642.43	5.851
642.76	5.556
643.09	3.973
643.41	4.622
643.74	3.862
644.07	6.207
644.40	3.112
644.73	4.209
645.05	3.818
645.38	5.036
645.71	4.252
646.04	5.308
646.36	4.672
646.69	5.215
647.02	6.116
647.35	5.802
647.67	4.187
648.00	4.936
648.33	6.156
648.66	4.565
648.98	4.898
649.31	5.819
649.64	5.843
649.96	4.907
650.29	4.172
650.62	5.375
650.94	3.754
651.27	2.844
651.60	4.240
651.92	3.951
652.25	6.223
652.58	5.777
652.90	4.360
653.23	5.634
653.56	4.137
653.88	7.163
654.21	5.211
654.54	4.480
654.86	5.949
655.19	4.141
655.52	5.587
