SpectraSuite Data File
++++++++++++++++++++++++++++++++++++
Date: Thu May 14 14:26:45 PDT 2015
User: schluterlab
Dark Spectrum Present: Yes
Reference Spectrum Present: Yes
Number of Sampled Component Spectra: 1
Spectrometers: USB2E3373
Integration Time (usec): 3000 (USB2E3373)
Spectra Averaged: 3 (USB2E3373)
Boxcar Smoothing: 0 (USB2E3373)
Correct for Electrical Dark: No (USB2E3373)
Strobe/Lamp Enabled: No (USB2E3373)
Correct for Detector Non-linearity: No (USB2E3373)
Correct for Stray Light: No (USB2E3373)
Number of Pixels in Processed Spectrum: 2048
>>>>>Begin Processed Spectral Data<<<<<
178.53	0.000
178.91	-200.000
179.29	500.000
179.67	700.000
180.04	14.286
180.42	-80.000
180.80	-160.000
181.18	300.000
181.56	1700.000
181.94	-375.000
182.31	300.000
182.69	-333.333
183.07	350.000
183.45	-325.000
183.83	150.000
184.20	400.000
184.58	-700.000
184.96	50.000
185.34	100.000
185.72	240.000
186.09	-22.222
186.47	-550.000
186.85	-60.000
187.23	-22.222
187.61	100.000
187.98	-320.000
188.36	-75.000
188.74	75.000
189.12	400.000
189.49	112.500
189.87	37.500
190.25	100.000
190.63	440.000
191.00	44.444
191.38	0.000
191.76	300.000
192.14	116.667
192.51	-700.000
192.89	300.000
193.27	0.000
193.65	71.429
194.02	-1100.000
194.40	71.429
194.78	-114.286
195.15	0.000
195.53	200.000
195.91	0.000
196.29	500.000
196.66	76.923
197.04	-100.000
197.42	128.571
197.79	-200.000
198.17	175.000
198.55	-57.143
198.92	177.778
199.30	25.000
199.68	218.182
200.05	128.571
200.43	300.000
200.81	-57.143
201.18	0.000
201.56	33.333
201.94	0.000
202.31	133.333
202.69	88.889
203.07	-500.000
203.44	111.111
203.82	100.000
204.19	25.000
204.57	216.667
204.95	137.500
205.32	1200.000
205.70	-375.000
206.08	33.333
206.45	116.667
206.83	80.000
207.20	150.000
207.58	160.000
207.96	33.333
208.33	250.000
208.71	-16.667
209.08	366.667
209.46	0.000
209.84	-166.667
210.21	-750.000
210.59	-500.000
210.96	-100.000
211.34	225.000
211.71	125.000
212.09	500.000
212.46	0.000
212.84	-150.000
213.22	140.000
213.59	150.000
213.97	50.000
214.34	66.667
214.72	50.000
215.09	175.000
215.47	0.000
215.84	-171.429
216.22	-0.000
216.59	200.000
216.97	140.000
217.34	500.000
217.72	187.500
218.09	125.000
218.47	300.000
218.84	0.000
219.22	-40.000
219.59	70.588
219.97	110.000
220.34	-200.000
220.72	11.111
221.09	161.538
221.47	400.000
221.84	130.000
222.22	214.286
222.59	0.000
222.97	262.500
223.34	160.000
223.72	300.000
224.09	-50.000
224.46	50.000
224.84	280.000
225.21	100.000
225.59	200.000
225.96	325.000
226.34	73.077
226.71	16.667
227.08	350.000
227.46	80.000
227.83	250.000
228.21	47.368
228.58	-37.500
228.95	-100.000
229.33	208.333
229.70	60.000
230.08	89.474
230.45	-10.000
230.82	400.000
231.20	100.000
231.57	116.667
231.95	172.727
232.32	227.273
232.69	85.000
233.07	350.000
233.44	41.176
233.81	150.000
234.19	100.000
234.56	90.909
234.93	68.966
235.31	89.474
235.68	44.444
236.05	55.000
236.43	76.923
236.80	124.000
237.17	74.074
237.55	57.576
237.92	170.000
238.29	93.548
238.67	45.455
239.04	86.111
239.41	64.286
239.79	50.000
240.16	50.000
240.53	63.043
240.91	52.941
241.28	39.344
241.65	56.716
242.02	67.568
242.40	52.308
242.77	45.333
243.14	43.902
243.51	44.737
243.89	50.000
244.26	44.554
244.63	56.863
245.00	42.056
245.38	36.842
245.75	45.133
246.12	50.794
246.49	49.612
246.87	50.714
247.24	46.358
247.61	48.684
247.98	36.913
248.36	41.975
248.73	38.037
249.10	45.902
249.47	47.264
249.84	48.168
250.22	43.005
250.59	46.667
250.96	47.727
251.33	42.347
251.70	43.590
252.08	43.750
252.45	45.082
252.82	44.628
253.19	44.141
253.56	40.684
253.94	43.077
254.31	46.591
254.68	45.455
255.05	43.322
255.42	41.497
255.79	41.100
256.16	43.709
256.54	42.715
256.91	43.934
257.28	42.295
257.65	40.764
258.02	43.363
258.39	40.456
258.76	49.235
259.14	43.103
259.51	43.804
259.88	42.776
260.25	42.778
260.62	43.014
260.99	45.355
261.36	43.700
261.73	42.175
262.10	40.659
262.47	45.845
262.85	45.707
263.22	38.961
263.59	40.000
263.96	39.898
264.33	40.921
264.70	45.185
265.07	43.198
265.44	46.032
265.81	43.519
266.18	41.723
266.55	40.625
266.92	38.041
267.29	42.232
267.66	41.020
268.03	42.358
268.40	42.589
268.77	39.863
269.14	41.189
269.51	43.421
269.88	42.418
270.25	40.040
270.62	44.093
270.99	43.434
271.36	38.812
271.73	43.222
272.10	40.281
272.47	42.485
272.84	38.755
273.21	39.679
273.58	40.927
273.95	37.500
274.32	37.643
274.69	40.232
275.06	41.026
275.43	36.229
275.80	38.801
276.17	39.630
276.54	38.993
276.91	39.893
277.28	40.325
277.65	38.420
278.02	42.279
278.39	39.312
278.76	37.083
279.13	40.071
279.50	38.832
279.87	40.250
280.23	37.148
280.60	38.983
280.97	39.803
281.34	40.917
281.71	40.440
282.08	35.880
282.45	36.007
282.82	38.305
283.19	36.672
283.56	38.197
283.92	37.237
284.29	37.915
284.66	39.409
285.03	38.462
285.40	38.022
285.77	39.009
286.14	37.405
286.51	37.291
286.87	36.809
287.24	39.157
287.61	35.127
287.98	37.009
288.35	37.870
288.72	38.757
289.08	36.164
289.45	36.538
289.82	34.337
290.19	36.063
290.56	35.634
290.93	35.378
291.29	36.088
291.66	33.058
292.03	31.615
292.40	34.830
292.77	34.232
293.13	32.070
293.50	31.932
293.87	34.094
294.24	34.133
294.60	33.375
294.97	31.678
295.34	33.547
295.71	30.013
296.08	30.749
296.44	30.882
296.81	31.669
297.18	31.258
297.55	30.307
297.91	30.961
298.28	31.280
298.65	31.629
299.02	31.169
299.38	30.320
299.75	28.505
300.12	29.051
300.48	31.452
300.85	29.359
301.22	29.083
301.59	29.110
301.95	30.508
302.32	29.444
302.69	29.792
303.05	29.815
303.42	29.601
303.79	28.958
304.15	29.232
304.52	28.858
304.89	29.110
305.25	28.571
305.62	27.691
305.99	28.454
306.35	27.722
306.72	28.438
307.09	28.934
307.45	27.329
307.82	27.346
308.19	28.254
308.55	27.676
308.92	28.238
309.29	27.682
309.65	26.998
310.02	27.129
310.38	26.969
310.75	27.864
311.12	27.996
311.48	28.837
311.85	28.015
312.22	26.660
312.58	27.512
312.95	27.533
313.31	27.642
313.68	26.740
314.05	28.094
314.41	28.233
314.78	27.430
315.14	26.951
315.51	27.331
315.87	28.443
316.24	27.671
316.61	27.975
316.97	25.339
317.34	25.838
317.70	28.210
318.07	26.896
318.43	26.701
318.80	27.759
319.16	27.210
319.53	25.107
319.89	26.205
320.26	27.224
320.62	24.645
320.99	27.608
321.35	26.433
321.72	26.698
322.08	27.592
322.45	25.836
322.81	27.347
323.18	25.752
323.54	25.603
323.91	25.712
324.27	25.990
324.64	27.036
325.00	23.798
325.37	24.816
325.73	26.364
326.10	25.791
326.46	26.954
326.83	25.861
327.19	25.827
327.56	26.166
327.92	25.492
328.29	26.452
328.65	26.214
329.01	25.296
329.38	25.611
329.74	26.113
330.11	25.599
330.47	26.116
330.84	24.978
331.20	25.750
331.56	26.170
331.93	26.025
332.29	27.203
332.66	25.997
333.02	25.544
333.38	24.664
333.75	25.505
334.11	25.605
334.48	25.165
334.84	25.828
335.20	25.357
335.57	25.211
335.93	26.198
336.29	23.794
336.66	24.811
337.02	24.415
337.38	24.575
337.75	23.884
338.11	26.409
338.47	24.235
338.84	24.535
339.20	24.600
339.56	24.382
339.93	24.056
340.29	24.316
340.65	24.493
341.02	25.698
341.38	26.758
341.74	24.697
342.11	24.779
342.47	24.226
342.83	25.926
343.20	25.593
343.56	23.978
343.92	22.818
344.28	24.219
344.65	24.729
345.01	24.493
345.37	25.117
345.73	25.097
346.10	24.181
346.46	23.734
346.82	25.094
347.19	24.141
347.55	24.507
347.91	22.883
348.27	24.734
348.63	24.296
349.00	24.907
349.36	24.535
349.72	23.661
350.08	24.294
350.45	23.650
350.81	24.133
351.17	24.361
351.53	24.033
351.89	24.601
352.26	23.358
352.62	22.537
352.98	22.290
353.34	23.226
353.70	23.883
354.07	22.653
354.43	24.374
354.79	23.859
355.15	23.547
355.51	24.050
355.87	23.710
356.24	23.194
356.60	22.764
356.96	22.758
357.32	22.677
357.68	23.133
358.04	22.979
358.40	22.836
358.77	23.099
359.13	22.747
359.49	22.305
359.85	23.568
360.21	22.525
360.57	22.541
360.93	23.907
361.29	23.088
361.66	22.592
362.02	24.704
362.38	23.472
362.74	23.254
363.10	24.278
363.46	23.753
363.82	22.159
364.18	23.223
364.54	23.237
364.90	22.542
365.26	21.172
365.62	23.600
365.98	22.600
366.35	22.282
366.71	23.265
367.07	22.124
367.43	22.850
367.79	22.760
368.15	22.475
368.51	23.139
368.87	21.816
369.23	23.133
369.59	22.473
369.95	22.448
370.31	23.498
370.67	21.596
371.03	22.368
371.39	21.155
371.75	22.902
372.11	21.680
372.47	22.343
372.83	22.906
373.19	21.681
373.55	22.629
373.91	21.677
374.27	22.445
374.63	22.192
374.99	22.016
375.35	22.208
375.71	22.645
376.07	21.627
376.42	22.607
376.78	22.685
377.14	22.084
377.50	21.442
377.86	22.968
378.22	22.036
378.58	22.235
378.94	22.124
379.30	22.261
379.66	22.340
380.02	22.677
380.38	22.696
380.74	22.761
381.09	21.603
381.45	22.159
381.81	23.419
382.17	22.565
382.53	22.632
382.89	21.558
383.25	22.626
383.61	21.701
383.97	21.908
384.32	22.907
384.68	21.636
385.04	23.713
385.40	22.864
385.76	21.981
386.12	22.681
386.48	21.412
386.83	23.182
387.19	22.538
387.55	21.714
387.91	23.059
388.27	22.575
388.62	22.337
388.98	21.545
389.34	22.687
389.70	22.661
390.06	22.202
390.42	22.410
390.77	22.577
391.13	21.831
391.49	22.464
391.85	21.758
392.20	22.123
392.56	22.859
392.92	22.955
393.28	22.056
393.64	22.235
393.99	22.777
394.35	22.605
394.71	22.874
395.07	22.036
395.42	21.816
395.78	22.852
396.14	22.876
396.50	21.615
396.85	22.004
397.21	22.485
397.57	22.261
397.92	22.451
398.28	21.836
398.64	21.739
399.00	21.099
399.35	21.675
399.71	21.304
400.07	22.908
400.42	22.002
400.78	21.817
401.14	21.799
401.49	22.456
401.85	22.151
402.21	22.016
402.57	22.477
402.92	22.518
403.28	21.370
403.63	22.554
403.99	21.675
404.35	22.342
404.70	22.663
405.06	22.337
405.42	22.248
405.77	22.574
406.13	21.448
406.49	21.622
406.84	21.884
407.20	20.850
407.55	21.381
407.91	21.307
408.27	21.319
408.62	21.466
408.98	21.997
409.34	21.114
409.69	22.497
410.05	22.685
410.40	22.332
410.76	21.985
411.11	22.034
411.47	22.297
411.83	22.163
412.18	21.988
412.54	22.584
412.89	21.595
413.25	21.388
413.60	21.941
413.96	22.086
414.31	21.926
414.67	22.421
415.03	21.415
415.38	21.185
415.74	21.808
416.09	21.592
416.45	20.977
416.80	21.114
417.16	21.520
417.51	21.046
417.87	21.643
418.22	21.617
418.58	21.066
418.93	21.537
419.29	21.640
419.64	20.588
420.00	21.187
420.35	22.291
420.71	21.367
421.06	20.529
421.42	21.330
421.77	21.325
422.12	21.987
422.48	21.813
422.83	22.234
423.19	22.281
423.54	21.903
423.90	21.756
424.25	21.600
424.61	21.240
424.96	21.087
425.31	22.187
425.67	21.095
426.02	21.804
426.38	21.010
426.73	21.484
427.09	22.030
427.44	20.590
427.79	22.112
428.15	21.347
428.50	21.067
428.85	21.642
429.21	21.755
429.56	20.188
429.92	21.032
430.27	20.964
430.62	21.251
430.98	21.594
431.33	21.359
431.68	20.785
432.04	22.092
432.39	21.478
432.74	21.518
433.10	22.174
433.45	21.182
433.80	21.620
434.16	21.591
434.51	21.377
434.86	21.227
435.22	21.626
435.57	21.875
435.92	21.369
436.28	21.900
436.63	22.338
436.98	20.612
437.34	21.871
437.69	21.464
438.04	20.571
438.39	21.539
438.75	21.361
439.10	22.357
439.45	21.129
439.81	21.864
440.16	21.233
440.51	21.405
440.86	20.845
441.22	21.972
441.57	21.855
441.92	21.484
442.27	21.818
442.63	21.162
442.98	22.038
443.33	22.094
443.68	22.547
444.03	22.389
444.39	21.960
444.74	21.797
445.09	21.997
445.44	21.918
445.79	22.318
446.15	21.634
446.50	21.447
446.85	21.887
447.20	22.389
447.55	22.123
447.91	21.571
448.26	21.195
448.61	21.148
448.96	21.835
449.31	21.739
449.66	21.078
450.02	21.677
450.37	21.630
450.72	21.313
451.07	22.323
451.42	21.895
451.77	21.123
452.12	22.291
452.47	21.331
452.83	22.185
453.18	21.716
453.53	21.999
453.88	21.149
454.23	21.638
454.58	21.822
454.93	21.845
455.28	21.312
455.63	22.229
455.98	22.458
456.34	20.966
456.69	21.340
457.04	21.809
457.39	21.286
457.74	22.036
458.09	21.746
458.44	22.306
458.79	21.815
459.14	21.447
459.49	21.619
459.84	21.563
460.19	21.877
460.54	22.374
460.89	21.334
461.24	21.149
461.59	22.025
461.94	20.764
462.29	21.725
462.64	20.640
462.99	21.908
463.34	22.518
463.69	21.219
464.04	22.568
464.39	21.749
464.74	21.779
465.09	21.396
465.44	21.942
465.79	22.686
466.14	21.157
466.49	21.211
466.84	22.259
467.19	22.023
467.54	21.269
467.89	21.034
468.24	21.662
468.59	20.614
468.94	20.804
469.29	21.956
469.64	21.551
469.99	21.351
470.34	20.854
470.68	20.848
471.03	21.807
471.38	21.583
471.73	22.042
472.08	21.193
472.43	21.553
472.78	21.474
473.13	22.693
473.48	22.598
473.83	22.345
474.17	21.219
474.52	22.309
474.87	21.872
475.22	21.634
475.57	21.080
475.92	21.354
476.27	21.725
476.61	21.599
476.96	20.751
477.31	21.733
477.66	22.298
478.01	20.996
478.36	21.286
478.70	21.724
479.05	21.984
479.40	21.273
479.75	22.190
480.10	21.506
480.45	21.650
480.79	21.542
481.14	21.369
481.49	21.036
481.84	21.845
482.19	21.892
482.53	21.688
482.88	22.463
483.23	21.565
483.58	20.961
483.92	20.523
484.27	21.296
484.62	20.792
484.97	21.579
485.31	20.556
485.66	21.928
486.01	21.311
486.36	21.384
486.70	21.419
487.05	21.078
487.40	20.780
487.75	21.120
488.09	21.668
488.44	21.085
488.79	20.877
489.13	21.470
489.48	21.126
489.83	20.885
490.17	20.818
490.52	21.264
490.87	21.616
491.22	21.144
491.56	21.032
491.91	20.977
492.26	21.333
492.60	21.251
492.95	20.799
493.30	21.336
493.64	21.551
493.99	21.140
494.34	20.645
494.68	20.642
495.03	21.013
495.37	21.749
495.72	20.635
496.07	21.166
496.41	21.150
496.76	21.268
497.11	21.274
497.45	20.587
497.80	21.191
498.14	21.134
498.49	21.461
498.84	20.887
499.18	20.918
499.53	21.345
499.87	22.198
500.22	20.971
500.56	21.053
500.91	21.327
501.26	21.500
501.60	21.211
501.95	21.624
502.29	21.018
502.64	21.251
502.98	20.923
503.33	20.778
503.67	20.715
504.02	21.322
504.36	21.582
504.71	21.543
505.06	21.828
505.40	21.207
505.75	20.811
506.09	21.593
506.44	21.402
506.78	22.064
507.13	21.392
507.47	21.412
507.82	20.975
508.16	21.319
508.51	20.628
508.85	20.879
509.19	21.649
509.54	21.902
509.88	21.807
510.23	21.224
510.57	21.605
510.92	21.432
511.26	20.491
511.61	20.521
511.95	20.937
512.30	21.812
512.64	21.089
512.98	21.511
513.33	22.026
513.67	21.673
514.02	21.461
514.36	21.893
514.70	21.198
515.05	21.950
515.39	21.207
515.74	22.800
516.08	21.500
516.42	22.083
516.77	21.661
517.11	21.145
517.46	22.057
517.80	22.074
518.14	22.035
518.49	21.909
518.83	20.756
519.17	21.002
519.52	21.488
519.86	21.436
520.20	21.299
520.55	21.687
520.89	21.565
521.23	22.557
521.58	21.469
521.92	21.303
522.26	21.649
522.61	22.222
522.95	21.799
523.29	22.011
523.64	21.525
523.98	22.761
524.32	22.120
524.66	21.514
525.01	21.065
525.35	21.654
525.69	21.404
526.04	20.896
526.38	21.897
526.72	21.050
527.06	21.349
527.41	22.507
527.75	21.793
528.09	22.196
528.43	21.137
528.78	21.445
529.12	21.273
529.46	21.585
529.80	22.082
530.15	22.087
530.49	21.649
530.83	21.724
531.17	22.103
531.51	21.300
531.86	22.236
532.20	21.402
532.54	21.005
532.88	21.091
533.22	20.919
533.57	22.100
533.91	21.829
534.25	21.990
534.59	20.862
534.93	20.939
535.27	21.746
535.62	22.229
535.96	22.603
536.30	21.563
536.64	21.922
536.98	22.448
537.32	22.222
537.66	22.645
538.01	21.269
538.35	20.828
538.69	21.274
539.03	22.502
539.37	21.673
539.71	22.102
540.05	21.403
540.39	21.271
540.73	21.190
541.07	20.785
541.42	21.559
541.76	21.767
542.10	21.894
542.44	21.255
542.78	21.655
543.12	20.799
543.46	22.039
543.80	20.683
544.14	21.484
544.48	21.631
544.82	22.322
545.16	22.242
545.50	21.270
545.84	21.066
546.18	22.222
546.52	21.975
546.86	21.950
547.20	20.929
547.54	21.785
547.88	21.579
548.22	21.287
548.56	21.826
548.90	22.149
549.24	21.702
549.58	21.893
549.92	21.811
550.26	22.395
550.60	21.315
550.94	21.863
551.28	20.924
551.62	22.574
551.96	21.683
552.30	22.435
552.64	21.531
552.98	21.896
553.32	21.093
553.66	21.158
554.00	21.816
554.34	20.914
554.68	22.143
555.02	21.945
555.36	21.368
555.69	21.781
556.03	21.753
556.37	22.340
556.71	22.257
557.05	21.661
557.39	21.699
557.73	22.391
558.07	21.854
558.41	21.262
558.75	21.974
559.08	21.294
559.42	21.879
559.76	22.049
560.10	22.170
560.44	21.900
560.78	22.562
561.12	21.675
561.45	22.384
561.79	22.283
562.13	21.811
562.47	21.455
562.81	21.519
563.15	22.033
563.48	21.815
563.82	22.189
564.16	21.744
564.50	21.573
564.84	21.593
565.17	20.706
565.51	20.656
565.85	21.556
566.19	20.737
566.52	21.182
566.86	21.902
567.20	20.990
567.54	21.455
567.88	21.865
568.21	22.777
568.55	22.590
568.89	21.652
569.23	22.011
569.56	21.766
569.90	21.739
570.24	22.563
570.57	21.392
570.91	21.249
571.25	21.579
571.59	21.598
571.92	21.562
572.26	21.466
572.60	21.403
572.93	21.514
573.27	21.860
573.61	21.705
573.95	21.947
574.28	21.701
574.62	21.146
574.96	21.372
575.29	20.996
575.63	21.529
575.97	21.389
576.30	20.873
576.64	21.713
576.98	21.390
577.31	21.397
577.65	21.605
577.98	21.687
578.32	21.438
578.66	21.240
578.99	21.094
579.33	21.543
579.67	21.124
580.00	21.376
580.34	21.226
580.67	21.072
581.01	21.311
581.35	21.605
581.68	21.739
582.02	21.450
582.35	21.440
582.69	21.758
583.02	21.716
583.36	21.401
583.70	21.382
584.03	21.502
584.37	21.550
584.70	21.443
585.04	21.390
585.37	21.918
585.71	21.532
586.04	21.400
586.38	21.611
586.72	20.958
587.05	21.105
587.39	21.690
587.72	21.579
588.06	21.688
588.39	21.533
588.73	21.296
589.06	21.219
589.40	21.819
589.73	21.272
590.07	21.784
590.40	21.839
590.73	21.598
591.07	21.333
591.40	21.501
591.74	21.582
592.07	21.803
592.41	21.136
592.74	21.654
593.08	22.038
593.41	21.843
593.75	21.868
594.08	21.478
594.41	21.891
594.75	21.023
595.08	21.635
595.42	21.818
595.75	21.505
596.09	21.823
596.42	22.071
596.75	21.227
597.09	22.101
597.42	21.573
597.75	21.599
598.09	21.944
598.42	21.994
598.76	21.666
599.09	22.036
599.42	21.086
599.76	21.063
600.09	21.255
600.42	21.488
600.76	22.094
601.09	21.706
601.42	21.147
601.76	21.414
602.09	21.194
602.42	20.720
602.76	20.996
603.09	21.733
603.42	21.243
603.76	21.142
604.09	22.143
604.42	21.541
604.76	21.347
605.09	21.819
605.42	21.411
605.75	20.923
606.09	20.829
606.42	20.759
606.75	21.214
607.09	20.699
607.42	21.541
607.75	21.727
608.08	21.231
608.42	21.644
608.75	21.144
609.08	21.010
609.41	21.570
609.75	21.339
610.08	21.372
610.41	21.963
610.74	21.176
611.07	21.048
611.41	21.659
611.74	21.524
612.07	21.038
612.40	20.865
612.73	20.685
613.07	21.614
613.40	21.752
613.73	20.847
614.06	21.590
614.39	21.331
614.72	21.640
615.06	21.944
615.39	20.831
615.72	21.137
616.05	21.030
616.38	21.847
616.71	21.578
617.05	20.128
617.38	21.348
617.71	21.490
618.04	21.695
618.37	21.202
618.70	21.097
619.03	21.027
619.36	20.900
619.69	21.397
620.03	21.532
620.36	20.859
620.69	21.407
621.02	21.785
621.35	22.642
621.68	21.837
622.01	20.712
622.34	20.990
622.67	21.581
623.00	20.108
623.33	21.367
623.66	22.763
623.99	20.803
624.32	21.832
624.65	20.849
624.99	22.172
625.32	22.861
625.65	22.185
625.98	21.559
626.31	22.395
626.64	20.952
626.97	21.755
627.30	20.273
627.63	21.305
627.96	21.847
628.29	22.335
628.62	19.815
628.95	21.823
629.28	20.476
629.61	22.643
629.94	22.008
630.26	20.678
630.59	19.862
630.92	20.779
631.25	21.109
631.58	22.599
631.91	20.712
632.24	22.286
632.57	21.442
632.90	20.662
633.23	22.755
633.56	20.306
633.89	20.868
