SpectraSuite Data File
++++++++++++++++++++++++++++++++++++
Date: Thu May 14 15:03:57 PDT 2015
User: schluterlab
Dark Spectrum Present: Yes
Reference Spectrum Present: Yes
Number of Sampled Component Spectra: 1
Spectrometers: USB2E3373
Integration Time (usec): 3000 (USB2E3373)
Spectra Averaged: 3 (USB2E3373)
Boxcar Smoothing: 0 (USB2E3373)
Correct for Electrical Dark: No (USB2E3373)
Strobe/Lamp Enabled: No (USB2E3373)
Correct for Detector Non-linearity: No (USB2E3373)
Correct for Stray Light: No (USB2E3373)
Number of Pixels in Processed Spectrum: 2048
>>>>>Begin Processed Spectral Data<<<<<
178.53	0.000
178.91	400.000
179.29	-3400.000
179.67	-3200.000
180.04	292.857
180.42	150.000
180.80	500.000
181.18	-2500.000
181.56	-1600.000
181.94	450.000
182.31	-450.000
182.69	733.333
183.07	-700.000
183.45	750.000
183.83	-283.333
184.20	-666.667
184.58	2700.000
184.96	-650.000
185.34	-288.889
185.72	-120.000
186.09	400.000
186.47	1500.000
186.85	660.000
187.23	-266.667
187.61	-1900.000
187.98	360.000
188.36	575.000
188.74	-700.000
189.12	-466.667
189.49	-100.000
189.87	-325.000
190.25	-177.778
190.63	-400.000
191.00	-333.333
191.38	0.000
191.76	-550.000
192.14	-466.667
192.51	1250.000
192.89	-366.667
193.27	0.000
193.65	-128.571
194.02	-3300.000
194.40	-300.000
194.78	357.143
195.15	0.000
195.53	-145.455
195.91	0.000
196.29	-350.000
196.66	-176.923
197.04	-3100.000
197.42	-385.714
197.79	-1250.000
198.17	-250.000
198.55	-414.286
198.92	-211.111
199.30	-300.000
199.68	-127.273
200.05	-100.000
200.43	-1500.000
200.81	342.857
201.18	0.000
201.56	444.444
201.94	0.000
202.31	866.667
202.69	-222.222
203.07	1400.000
203.44	-222.222
203.82	-425.000
204.19	-183.333
204.57	-433.333
204.95	-237.500
205.32	-2300.000
205.70	550.000
206.08	-533.333
206.45	-333.333
206.83	680.000
207.20	-300.000
207.58	-640.000
207.96	-366.667
208.33	-366.667
208.71	150.000
209.08	-133.333
209.46	0.000
209.84	383.333
210.21	1000.000
210.59	1600.000
210.96	1000.000
211.34	-525.000
211.71	-337.500
212.09	-3200.000
212.46	0.000
212.84	1900.000
213.22	-520.000
213.59	-375.000
213.97	-240.000
214.34	-800.000
214.72	466.667
215.09	-750.000
215.47	0.000
215.84	342.857
216.22	1600.000
216.59	-480.000
216.97	-380.000
217.34	-600.000
217.72	-250.000
218.09	-525.000
218.47	-600.000
218.84	0.000
219.22	300.000
219.59	-147.059
219.97	-95.000
220.34	1550.000
220.72	-333.333
221.09	-123.077
221.47	-800.000
221.84	-140.000
222.22	-400.000
222.59	0.000
222.97	-175.000
223.34	-460.000
223.72	-2100.000
224.09	-450.000
224.46	-650.000
224.84	-180.000
225.21	-385.714
225.59	-600.000
225.96	-725.000
226.34	-80.769
226.71	550.000
227.08	-1300.000
227.46	-146.667
227.83	-500.000
228.21	-121.053
228.58	337.500
228.95	1500.000
229.33	-91.667
229.70	-140.000
230.08	-31.579
230.45	220.000
230.82	-933.333
231.20	-164.286
231.57	-150.000
231.95	-200.000
232.32	-127.273
232.69	-80.000
233.07	-450.000
233.44	-117.647
233.81	-260.000
234.19	-50.000
234.56	-50.000
234.93	-31.034
235.31	-57.895
235.68	-77.778
236.05	-100.000
236.43	-19.231
236.80	-8.000
237.17	-33.333
237.55	-42.424
237.92	-240.000
238.29	-70.968
238.67	-40.909
239.04	-25.000
239.41	-47.619
239.79	-41.304
240.16	-27.778
240.53	-28.261
240.91	-31.373
241.28	-31.148
241.65	-13.433
242.02	-10.811
242.40	-12.308
242.77	-6.667
243.14	-1.220
243.51	-19.737
243.89	-10.256
244.26	1.980
244.63	-0.980
245.00	8.411
245.38	-2.632
245.75	0.000
246.12	8.730
246.49	1.550
246.87	7.143
247.24	9.272
247.61	9.868
247.98	11.409
248.36	5.556
248.73	7.975
249.10	13.115
249.47	11.443
249.84	13.613
250.22	9.326
250.59	5.556
250.96	15.909
251.33	7.143
251.70	14.530
252.08	12.083
252.45	16.803
252.82	16.116
253.19	12.109
253.56	12.928
253.94	8.462
254.31	17.424
254.68	13.287
255.05	17.264
255.42	12.925
255.79	17.152
256.16	14.238
256.54	11.258
256.91	17.705
257.28	16.393
257.65	14.650
258.02	12.094
258.39	13.390
258.76	17.737
259.14	16.092
259.51	14.409
259.88	13.031
260.25	13.333
260.62	16.164
260.99	18.306
261.36	19.303
261.73	16.711
262.10	15.934
262.47	16.086
262.85	19.192
263.22	15.584
263.59	12.632
263.96	16.880
264.33	16.880
264.70	16.296
265.07	18.854
265.44	20.635
265.81	19.444
266.18	17.234
266.55	16.518
266.92	14.806
267.29	17.068
267.66	18.625
268.03	19.214
268.40	17.328
268.77	14.579
269.14	16.079
269.51	17.105
269.88	18.648
270.25	17.304
270.62	17.932
270.99	19.192
271.36	19.406
271.73	15.324
272.10	18.236
272.47	19.639
272.84	17.871
273.21	17.435
273.58	17.137
273.95	16.731
274.32	14.449
274.69	15.474
275.06	15.568
275.43	13.678
275.80	16.931
276.17	15.185
276.54	15.485
276.91	15.385
277.28	18.626
277.65	17.774
278.02	17.463
278.39	15.217
278.76	17.223
279.13	17.730
279.50	17.526
279.87	16.458
280.23	13.204
280.60	16.949
280.97	16.447
281.34	15.959
281.71	18.443
282.08	15.615
282.45	17.512
282.82	16.954
283.19	15.024
283.56	16.230
283.92	17.718
284.29	18.641
284.66	16.749
285.03	14.263
285.40	16.692
285.77	16.409
286.14	17.863
286.51	16.591
286.87	17.852
287.24	15.813
287.61	17.489
287.98	15.106
288.35	16.568
288.72	15.533
289.08	16.105
289.45	14.349
289.82	15.060
290.19	15.230
290.56	16.056
290.93	16.976
291.29	16.529
291.66	15.702
292.03	13.297
292.40	15.510
292.77	15.094
293.13	14.479
293.50	14.586
293.87	13.691
294.24	15.333
294.60	14.791
294.97	12.752
295.34	14.853
295.71	14.754
296.08	12.661
296.44	13.480
296.81	12.911
297.18	12.329
297.55	12.972
297.91	13.879
298.28	13.744
298.65	13.080
299.02	14.404
299.38	12.929
299.75	14.486
300.12	11.343
300.48	14.401
300.85	12.373
301.22	13.758
301.59	13.356
301.95	11.186
302.32	13.444
302.69	13.143
303.05	13.493
303.42	14.745
303.79	12.188
304.15	13.460
304.52	13.742
304.89	12.984
305.25	12.733
305.62	12.539
305.99	13.299
306.35	12.500
306.72	12.616
307.09	13.503
307.45	14.182
307.82	13.824
308.19	13.623
308.55	13.308
308.92	13.437
309.29	12.261
309.65	13.450
310.02	12.871
310.38	13.091
310.75	13.689
311.12	13.327
311.48	13.783
311.85	12.061
312.22	13.662
312.58	14.178
312.95	14.054
313.31	13.460
313.68	14.286
314.05	15.266
314.41	14.117
314.78	14.351
315.14	13.249
315.51	15.512
315.87	13.681
316.24	15.616
316.61	15.631
316.97	14.661
317.34	14.374
317.70	14.847
318.07	15.168
318.43	14.881
318.80	15.719
319.16	15.193
319.53	14.225
319.89	13.585
320.26	15.658
320.62	15.071
320.99	15.789
321.35	15.619
321.72	17.209
322.08	16.050
322.45	17.706
322.81	17.870
323.18	17.522
323.54	17.759
323.91	18.327
324.27	17.126
324.64	16.373
325.00	15.837
325.37	18.346
325.73	16.860
326.10	17.518
326.46	17.671
326.83	18.094
327.19	18.425
327.56	18.656
327.92	17.703
328.29	17.581
328.65	17.588
329.01	17.936
329.38	18.197
329.74	18.408
330.11	18.236
330.47	17.523
330.84	18.002
331.20	18.083
331.56	17.678
331.93	18.661
332.29	18.644
332.66	17.276
333.02	16.834
333.38	17.953
333.75	17.593
334.11	17.181
334.48	18.399
334.84	19.116
335.20	18.892
335.57	19.562
335.93	18.512
336.29	18.053
336.66	17.998
337.02	17.726
337.38	17.857
337.75	18.017
338.11	18.335
338.47	18.362
338.84	17.936
339.20	17.692
339.56	18.040
339.93	17.734
340.29	17.069
340.65	18.086
341.02	18.595
341.38	18.593
341.74	17.433
342.11	17.860
342.47	17.236
342.83	18.921
343.20	18.561
343.56	17.803
343.92	17.934
344.28	18.125
344.65	17.132
345.01	18.331
345.37	17.574
345.73	17.537
346.10	18.955
346.46	17.959
346.82	19.026
347.19	18.029
347.55	17.754
347.91	17.979
348.27	17.375
348.63	19.573
349.00	17.748
349.36	18.216
349.72	18.676
350.08	17.979
350.45	17.871
350.81	17.647
351.17	17.594
351.53	17.968
351.89	19.286
352.26	18.209
352.62	18.284
352.98	17.939
353.34	17.476
353.70	19.183
354.07	17.809
354.43	17.388
354.79	18.100
355.15	17.366
355.51	19.079
355.87	17.128
356.24	18.555
356.60	18.256
356.96	18.458
357.32	19.257
357.68	18.668
358.04	17.141
358.40	18.358
358.77	18.567
359.13	18.316
359.49	18.587
359.85	18.202
360.21	19.082
360.57	18.880
360.93	18.547
361.29	19.158
361.66	18.682
362.02	19.137
362.38	18.271
362.74	18.645
363.10	18.432
363.46	18.629
363.82	18.963
364.18	19.423
364.54	19.087
364.90	20.334
365.26	19.379
365.62	19.933
365.98	18.584
366.35	18.792
366.71	19.524
367.07	19.147
367.43	18.779
367.79	20.106
368.15	20.870
368.51	19.824
368.87	19.007
369.23	18.933
369.59	18.921
369.95	19.878
370.31	19.716
370.67	19.188
371.03	19.460
371.39	19.208
371.75	19.188
372.11	19.648
372.47	19.634
372.83	20.288
373.19	20.280
373.55	20.664
373.91	19.359
374.27	20.440
374.63	20.433
374.99	19.430
375.35	21.039
375.71	20.710
376.07	20.077
376.42	20.970
376.78	20.820
377.14	20.025
377.50	21.126
377.86	21.244
378.22	21.198
378.58	20.927
378.94	21.009
379.30	20.035
379.66	21.105
380.02	20.542
380.38	21.774
380.74	21.127
381.09	21.603
381.45	21.932
381.81	21.721
382.17	21.200
382.53	21.988
382.89	21.219
383.25	22.098
383.61	21.528
383.97	21.967
384.32	22.249
384.68	21.056
385.04	21.805
385.40	22.098
385.76	22.802
386.12	21.724
386.48	22.000
386.83	22.825
387.19	22.074
387.55	21.596
387.91	22.432
388.27	22.806
388.62	22.050
388.98	22.448
389.34	23.394
389.70	22.719
390.06	22.202
390.42	22.711
390.77	22.757
391.13	21.890
391.49	22.886
391.85	22.424
392.20	22.776
392.56	23.036
392.92	23.773
393.28	23.273
393.64	22.291
393.99	23.242
394.35	23.715
394.71	23.593
395.07	22.455
395.42	23.073
395.78	23.461
396.14	22.935
396.50	23.100
396.85	23.017
397.21	22.544
397.57	22.615
397.92	23.883
398.28	22.596
398.64	22.368
399.00	22.723
399.35	23.246
399.71	23.424
400.07	23.638
400.42	24.563
400.78	24.190
401.14	23.108
401.49	23.479
401.85	23.023
402.21	24.508
402.57	24.472
402.92	23.582
403.28	23.829
403.63	22.315
403.99	23.694
404.35	23.366
404.70	23.626
405.06	22.826
405.42	24.766
405.77	24.155
406.13	24.095
406.49	23.367
406.84	23.435
407.20	23.477
407.55	23.319
407.91	24.513
408.27	23.675
408.62	23.444
408.98	23.622
409.34	22.757
409.69	23.609
410.05	24.326
410.40	23.724
410.76	23.444
411.11	24.313
411.47	23.771
411.83	23.927
412.18	23.916
412.54	23.889
412.89	24.214
413.25	22.686
413.60	22.746
413.96	23.310
414.31	23.513
414.67	24.210
415.03	23.877
415.38	24.590
415.74	23.885
416.09	24.738
416.45	24.483
416.80	23.990
417.16	24.010
417.51	23.786
417.87	24.954
418.22	24.611
418.58	24.473
418.93	24.854
419.29	24.168
419.64	24.490
420.00	24.214
420.35	24.649
420.71	24.469
421.06	24.267
421.42	26.089
421.77	24.394
422.12	24.841
422.48	24.834
422.83	26.123
423.19	25.676
423.54	25.996
423.90	25.345
424.25	26.507
424.61	23.881
424.96	25.755
425.31	26.539
425.67	25.443
426.02	25.678
426.38	25.201
426.73	26.004
427.09	26.240
427.44	25.177
427.79	25.815
428.15	25.856
428.50	25.337
428.85	25.488
429.21	26.011
429.56	26.012
429.92	25.799
430.27	25.928
430.62	26.282
430.98	26.562
431.33	27.615
431.68	26.724
432.04	26.816
432.39	27.531
432.74	27.226
433.10	27.150
433.45	26.756
433.80	26.556
434.16	26.963
434.51	26.721
434.86	27.362
435.22	27.896
435.57	28.833
435.92	27.268
436.28	28.157
436.63	27.854
436.98	27.858
437.34	27.339
437.69	26.912
438.04	27.710
438.39	28.317
438.75	27.504
439.10	28.013
439.45	27.837
439.81	27.966
440.16	28.633
440.51	27.815
440.86	27.682
441.22	27.599
441.57	28.040
441.92	27.740
442.27	28.384
442.63	27.919
442.98	28.655
443.33	28.248
443.68	28.394
444.03	29.868
444.39	29.820
444.74	28.688
445.09	28.130
445.44	28.556
445.79	28.209
446.15	29.188
446.50	28.630
446.85	29.572
447.20	29.110
447.55	28.870
447.91	28.796
448.26	28.594
448.61	29.118
448.96	29.989
449.31	27.996
449.66	29.194
450.02	28.586
450.37	29.622
450.72	29.279
451.07	28.815
451.42	28.712
451.77	29.850
452.12	29.571
452.47	28.283
452.83	28.941
453.18	29.072
453.53	28.662
453.88	29.542
454.23	30.113
454.58	29.425
454.93	29.369
455.28	30.163
455.63	29.335
455.98	30.000
456.34	29.329
456.69	29.101
457.04	29.492
457.39	29.712
457.74	29.418
458.09	30.313
458.44	29.203
458.79	28.365
459.14	29.470
459.49	30.390
459.84	30.325
460.19	28.207
460.54	29.926
460.89	30.492
461.24	29.368
461.59	29.386
461.94	28.408
462.29	30.403
462.64	29.028
462.99	30.132
463.34	29.721
463.69	29.250
464.04	30.017
464.39	30.661
464.74	29.532
465.09	29.354
465.44	29.292
465.79	30.090
466.14	29.859
466.49	30.000
466.84	31.074
467.19	30.867
467.54	29.318
467.89	29.713
468.24	29.584
468.59	29.589
468.94	29.371
469.29	29.514
469.64	29.816
469.99	30.402
470.34	30.384
470.68	30.485
471.03	30.386
471.38	31.851
471.73	30.234
472.08	30.711
472.43	30.644
472.78	30.793
473.13	30.278
473.48	30.937
473.83	30.934
474.17	29.660
474.52	31.149
474.87	29.513
475.22	30.254
475.57	30.010
475.92	31.010
476.27	30.724
476.61	30.374
476.96	30.709
477.31	31.040
477.66	31.217
478.01	30.859
478.36	29.661
478.70	30.296
479.05	31.084
479.40	30.948
479.75	31.460
480.10	31.265
480.45	29.854
480.79	30.839
481.14	30.653
481.49	31.486
481.84	31.245
482.19	31.355
482.53	31.745
482.88	31.989
483.23	30.992
483.58	30.873
483.92	30.452
484.27	30.567
484.62	30.281
484.97	31.221
485.31	30.095
485.66	28.571
486.01	26.851
486.36	28.578
486.70	30.877
487.05	33.023
487.40	32.343
487.75	32.901
488.09	32.347
488.44	32.121
488.79	31.838
489.13	31.173
489.48	31.301
489.83	30.664
490.17	31.106
490.52	30.542
490.87	30.795
491.22	30.243
491.56	31.570
491.91	31.705
492.26	30.939
492.60	31.701
492.95	31.637
493.30	31.376
493.64	30.311
493.99	31.447
494.34	31.141
494.68	30.707
495.03	31.674
495.37	31.336
495.72	31.383
496.07	31.069
496.41	30.845
496.76	30.984
497.11	31.295
497.45	30.600
497.80	31.675
498.14	31.293
498.49	31.204
498.84	30.713
499.18	30.769
499.53	31.749
499.87	31.736
500.22	31.211
500.56	30.994
500.91	31.945
501.26	31.409
501.60	31.374
501.95	32.175
502.29	31.330
502.64	31.832
502.98	31.234
503.33	31.317
503.67	31.923
504.02	31.524
504.36	32.350
504.71	30.960
505.06	32.697
505.40	32.221
505.75	32.195
506.09	32.643
506.44	32.080
506.78	32.248
507.13	31.720
507.47	31.928
507.82	31.771
508.16	31.501
508.51	31.411
508.85	32.026
509.19	32.165
509.54	33.285
509.88	32.103
510.23	33.560
510.57	33.543
510.92	32.172
511.26	32.997
511.61	31.965
511.95	32.064
512.30	32.447
512.64	31.634
512.98	32.716
513.33	32.863
513.67	33.809
514.02	32.959
514.36	33.350
514.70	32.969
515.05	34.463
515.39	33.963
515.74	34.093
516.08	33.281
516.42	32.967
516.77	34.595
517.11	34.244
517.46	33.298
517.80	34.367
518.14	34.657
518.49	34.436
518.83	33.475
519.17	33.118
519.52	32.809
519.86	34.055
520.20	34.824
520.55	33.571
520.89	34.403
521.23	34.003
521.58	34.294
521.92	34.561
522.26	34.536
522.61	35.359
522.95	35.006
523.29	34.540
523.64	34.417
523.98	34.740
524.32	35.301
524.66	34.149
525.01	34.145
525.35	34.348
525.69	33.933
526.04	34.501
526.38	33.851
526.72	34.314
527.06	34.663
527.41	35.743
527.75	35.392
528.09	34.534
528.43	35.938
528.78	33.931
529.12	33.888
529.46	35.357
529.80	35.526
530.15	34.551
530.49	34.401
530.83	35.242
531.17	34.707
531.51	35.560
531.86	35.096
532.20	34.451
532.54	35.787
532.88	34.848
533.22	34.237
533.57	34.334
533.91	35.634
534.25	36.066
534.59	35.402
534.93	35.031
535.27	34.986
535.62	35.077
535.96	34.166
536.30	35.546
536.64	36.156
536.98	35.916
537.32	35.432
537.66	36.432
538.01	34.683
538.35	34.531
538.69	35.216
539.03	35.622
539.37	34.629
539.71	35.135
540.05	35.372
540.39	34.780
540.73	35.519
541.07	35.990
541.42	35.027
541.76	34.401
542.10	35.464
542.44	34.592
542.78	35.280
543.12	36.174
543.46	34.982
543.80	34.472
544.14	35.189
544.48	34.752
544.82	35.009
545.16	36.136
545.50	35.291
545.84	34.538
546.18	36.235
546.52	35.796
546.86	34.591
547.20	35.751
547.54	34.769
547.88	35.262
548.22	34.035
548.56	35.401
548.90	36.000
549.24	36.109
549.58	35.962
549.92	36.288
550.26	36.181
550.60	34.780
550.94	35.382
551.28	35.446
551.62	35.377
551.96	35.793
552.30	35.373
552.64	35.221
552.98	35.933
553.32	36.785
553.66	36.977
554.00	35.939
554.34	35.521
554.68	35.571
555.02	36.005
555.36	35.240
555.69	34.721
556.03	35.372
556.37	36.796
556.71	36.652
557.05	36.166
557.39	36.297
557.73	35.997
558.07	35.563
558.41	36.545
558.75	36.646
559.08	35.769
559.42	35.460
559.76	36.771
560.10	35.365
560.44	36.478
560.78	35.875
561.12	36.022
561.45	36.192
561.79	36.020
562.13	36.106
562.47	35.697
562.81	35.443
563.15	36.364
563.48	35.985
563.82	36.094
564.16	35.554
564.50	35.638
564.84	35.575
565.17	36.059
565.51	35.673
565.85	34.857
566.19	35.081
566.52	34.933
566.86	35.710
567.20	35.237
567.54	35.369
567.88	35.576
568.21	34.783
568.55	35.444
568.89	34.907
569.23	35.615
569.56	34.154
569.90	33.713
570.24	34.368
570.57	34.157
570.91	33.864
571.25	33.526
571.59	34.011
571.92	34.062
572.26	33.563
572.60	34.589
572.93	34.623
573.27	34.139
573.61	33.986
573.95	33.503
574.28	33.544
574.62	33.470
574.96	33.547
575.29	33.377
575.63	34.488
575.97	34.299
576.30	33.407
576.64	33.978
576.98	34.123
577.31	33.728
577.65	33.430
577.98	33.415
578.32	32.635
578.66	33.509
578.99	34.221
579.33	34.971
579.67	34.565
580.00	34.277
580.34	33.748
580.67	32.944
581.01	33.817
581.35	32.807
581.68	32.884
582.02	32.948
582.35	33.986
582.69	34.092
583.02	34.386
583.36	34.935
583.70	34.992
584.03	35.037
584.37	34.757
584.70	34.279
585.04	33.527
585.37	33.694
585.71	33.441
586.04	33.686
586.38	34.703
586.72	34.796
587.05	34.510
587.39	34.256
587.72	34.761
588.06	34.429
588.39	35.200
588.73	34.788
589.06	35.384
589.40	35.372
589.73	34.897
590.07	35.080
590.40	35.463
590.73	35.419
591.07	36.076
591.40	35.303
591.74	35.135
592.07	35.363
592.41	35.055
592.74	34.150
593.08	34.299
593.41	34.296
593.75	34.282
594.08	35.565
594.41	35.897
594.75	35.503
595.08	34.926
595.42	35.032
595.75	35.228
596.09	35.649
596.42	36.044
596.75	35.932
597.09	36.606
597.42	34.923
597.75	34.849
598.09	34.683
598.42	36.108
598.76	35.231
599.09	34.389
599.42	34.294
599.76	34.533
600.09	35.135
600.42	34.401
600.76	35.799
601.09	34.783
601.42	34.775
601.76	35.138
602.09	35.525
602.42	35.478
602.76	34.502
603.09	35.756
603.42	35.947
603.76	34.919
604.09	35.699
604.42	36.000
604.76	36.301
605.09	35.461
605.42	35.526
605.75	34.808
606.09	35.013
606.42	34.622
606.75	34.445
607.09	34.716
607.42	34.913
607.75	35.170
608.08	35.833
608.42	35.913
608.75	35.489
609.08	35.144
609.41	36.480
609.75	35.491
610.08	35.708
610.41	34.962
610.74	35.504
611.07	36.501
611.41	35.785
611.74	35.520
612.07	36.793
612.40	35.504
612.73	37.164
613.07	35.599
613.40	36.141
613.73	35.676
614.06	35.672
614.39	34.742
614.72	34.886
615.06	35.515
615.39	35.186
615.72	35.403
616.05	35.017
616.38	36.478
616.71	37.409
617.05	36.262
617.38	36.597
617.71	36.825
618.04	36.643
618.37	37.049
618.70	37.161
619.03	36.977
619.36	37.115
619.69	37.668
620.03	36.660
620.36	35.767
620.69	36.336
621.02	36.942
621.35	38.316
621.68	38.106
622.01	36.512
622.34	35.844
622.67	37.388
623.00	35.290
623.33	36.762
623.66	36.900
623.99	36.669
624.32	37.362
624.65	36.744
624.99	37.971
625.32	37.231
625.65	37.424
625.98	37.424
626.31	38.412
626.64	38.022
626.97	36.084
627.30	36.674
627.63	36.384
627.96	38.138
628.29	37.354
628.62	37.615
628.95	39.176
629.28	38.233
629.61	37.205
629.94	36.820
630.26	37.712
630.59	37.910
630.92	36.970
