SpectraSuite Data File
++++++++++++++++++++++++++++++++++++
Date: Thu May 14 15:19:12 PDT 2015
User: schluterlab
Dark Spectrum Present: Yes
Reference Spectrum Present: Yes
Number of Sampled Component Spectra: 1
Spectrometers: USB2E3373
Integration Time (usec): 3000 (USB2E3373)
Spectra Averaged: 3 (USB2E3373)
Boxcar Smoothing: 0 (USB2E3373)
Correct for Electrical Dark: No (USB2E3373)
Strobe/Lamp Enabled: No (USB2E3373)
Correct for Detector Non-linearity: No (USB2E3373)
Correct for Stray Light: No (USB2E3373)
Number of Pixels in Processed Spectrum: 2048
>>>>>Begin Processed Spectral Data<<<<<
178.53	0.000
178.91	642.857
179.29	-5000.000
179.67	-4500.000
180.04	407.143
180.42	470.000
180.80	860.000
181.18	-3600.000
181.56	-3300.000
181.94	1150.000
182.31	-975.000
182.69	1300.000
183.07	-1650.000
183.45	925.000
183.83	-600.000
184.20	-1300.000
184.58	3400.000
184.96	-1075.000
185.34	-400.000
185.72	-660.000
186.09	522.222
186.47	2450.000
186.85	1060.000
187.23	-544.444
187.61	-5200.000
187.98	800.000
188.36	1075.000
188.74	-975.000
189.12	-1033.333
189.49	-181.250
189.87	-450.000
190.25	-422.222
190.63	-840.000
191.00	-511.111
191.38	0.000
191.76	-1225.000
192.14	-733.333
192.51	1800.000
192.89	-683.333
193.27	0.000
193.65	-585.714
194.02	-5000.000
194.40	-457.143
194.78	557.143
195.15	0.000
195.53	-281.818
195.91	0.000
196.29	-975.000
196.66	-307.692
197.04	-4300.000
197.42	-642.857
197.79	-2100.000
198.17	-500.000
198.55	-685.714
198.92	-422.222
199.30	-550.000
199.68	-354.545
200.05	-242.857
200.43	-2400.000
200.81	742.857
201.18	0.000
201.56	600.000
201.94	0.000
202.31	1566.667
202.69	-555.556
203.07	4000.000
203.44	-388.889
203.82	-1200.000
204.19	-325.000
204.57	-766.667
204.95	-637.500
205.32	-4800.000
205.70	1125.000
206.08	-816.667
206.45	-733.333
206.83	960.000
207.20	-616.667
207.58	-840.000
207.96	-800.000
208.33	-516.667
208.71	358.333
209.08	-566.667
209.46	0.000
209.84	666.667
210.21	1750.000
210.59	2200.000
210.96	1466.667
211.34	-1000.000
211.71	-487.500
212.09	-3700.000
212.46	0.000
212.84	2450.000
213.22	-960.000
213.59	-1100.000
213.97	-410.000
214.34	-1300.000
214.72	766.667
215.09	-1150.000
215.47	0.000
215.84	514.286
216.22	2350.000
216.59	-980.000
216.97	-880.000
217.34	-1125.000
217.72	-450.000
218.09	-1225.000
218.47	-1100.000
218.84	0.000
219.22	620.000
219.59	-194.118
219.97	-155.000
220.34	2350.000
220.72	-500.000
221.09	-246.154
221.47	-1466.667
221.84	-450.000
222.22	-600.000
222.59	0.000
222.97	-512.500
223.34	-960.000
223.72	-4000.000
224.09	-1100.000
224.46	-1250.000
224.84	-720.000
225.21	-700.000
225.59	-1200.000
225.96	-1125.000
226.34	-115.385
226.71	716.667
227.08	-2350.000
227.46	-226.667
227.83	-700.000
228.21	-189.474
228.58	562.500
228.95	2450.000
229.33	-341.667
229.70	-390.000
230.08	-142.105
230.45	450.000
230.82	-1133.333
231.20	-257.143
231.57	-341.667
231.95	-354.545
232.32	-409.091
232.69	-160.000
233.07	-1200.000
233.44	-241.176
233.81	-470.000
234.19	-194.444
234.56	-218.182
234.93	-86.207
235.31	-189.474
235.68	-211.111
236.05	-220.000
236.43	-138.462
236.80	-140.000
237.17	-133.333
237.55	-127.273
237.92	-510.000
238.29	-135.484
238.67	-68.182
239.04	-86.111
239.41	-92.857
239.79	-86.957
240.16	-83.333
240.53	-97.826
240.91	-90.196
241.28	-75.410
241.65	-52.239
242.02	-40.541
242.40	-66.154
242.77	-54.667
243.14	-63.415
243.51	-59.211
243.89	-62.821
244.26	-36.634
244.63	-38.235
245.00	-35.514
245.38	-32.456
245.75	-43.363
246.12	-38.095
246.49	-38.760
246.87	-29.286
247.24	-18.543
247.61	-23.026
247.98	-32.886
248.36	-29.012
248.73	-23.926
249.10	-24.590
249.47	-12.935
249.84	-15.707
250.22	-24.352
250.59	-23.889
250.96	-13.636
251.33	-27.041
251.70	-13.248
252.08	-16.667
252.45	-15.574
252.82	-14.463
253.19	-16.406
253.56	-12.548
253.94	-20.000
254.31	-15.909
254.68	-10.140
255.05	-7.818
255.42	-13.605
255.79	-13.592
256.16	-11.589
256.54	-16.556
256.91	-12.131
257.28	-16.721
257.65	-14.968
258.02	-12.979
258.39	-8.832
258.76	-9.174
259.14	-10.632
259.51	-11.527
259.88	-12.465
260.25	-10.556
260.62	-8.493
260.99	-7.650
261.36	-7.507
261.73	-11.671
262.10	-14.835
262.47	-11.260
262.85	-6.313
263.22	-11.429
263.59	-13.684
263.96	-9.974
264.33	-10.742
264.70	-7.407
265.07	-7.637
265.44	-4.535
265.81	-9.259
266.18	-9.751
266.55	-9.598
266.92	-10.706
267.29	-6.783
267.66	-9.091
268.03	-9.607
268.40	-6.681
268.77	-10.934
269.14	-12.555
269.51	-7.237
269.88	-6.148
270.25	-4.427
270.62	-5.274
270.99	-5.455
271.36	-8.119
271.73	-7.073
272.10	-4.208
272.47	-7.816
272.84	-7.831
273.21	-8.016
273.58	-8.065
273.95	-7.885
274.32	-9.316
274.69	-8.511
275.06	-6.227
275.43	-6.839
275.80	-4.938
276.17	-8.148
276.54	-5.970
276.91	-6.082
277.28	-7.233
277.65	-6.284
278.02	-5.515
278.39	-6.884
278.76	-7.733
279.13	-6.383
279.50	-4.983
279.87	-5.725
280.23	-9.507
280.60	-4.407
280.97	-5.099
281.34	-7.810
281.71	-4.738
282.08	-5.316
282.45	-6.219
282.82	-5.651
283.19	-6.947
283.56	-6.066
283.92	-3.754
284.29	-3.949
284.66	-4.598
285.03	-6.250
285.40	-4.791
285.77	-6.502
286.14	-3.206
286.51	-6.545
286.87	-6.635
287.24	-4.819
287.61	-6.129
287.98	-5.740
288.35	-5.030
288.72	-5.621
289.08	-3.953
289.45	-5.325
289.82	-5.120
290.19	-4.454
290.56	-3.662
290.93	-4.422
291.29	-4.959
291.66	-5.096
292.03	-5.699
292.40	-4.626
292.77	-5.526
293.13	-3.789
293.50	-4.993
293.87	-5.906
294.24	-4.400
294.60	-3.034
294.97	-5.638
295.34	-2.817
295.71	-4.666
296.08	-4.393
296.44	-3.922
296.81	-3.898
297.18	-4.608
297.55	-4.953
297.91	-4.508
298.28	-4.739
298.65	-2.854
299.02	-4.132
299.38	-3.661
299.75	-3.855
300.12	-4.514
300.48	-4.263
300.85	-4.049
301.22	-3.020
301.59	-4.452
301.95	-3.277
302.32	-3.111
302.69	-3.724
303.05	-3.373
303.42	-4.324
303.79	-3.750
304.15	-3.996
304.52	-4.228
304.89	-4.188
305.25	-2.692
305.62	-3.553
305.99	-2.165
306.35	-2.218
306.72	-2.999
307.09	-3.756
307.45	-3.727
307.82	-3.734
308.19	-3.027
308.55	-1.929
308.92	-2.921
309.29	-2.490
309.65	-3.314
310.02	-3.366
310.38	-3.150
310.75	-3.689
311.12	-2.493
311.48	-2.933
311.85	-2.279
312.22	-2.846
312.58	-2.723
312.95	-2.677
313.31	-1.987
313.68	-1.832
314.05	-1.626
314.41	-2.277
314.78	-2.271
315.14	-1.724
315.51	-2.493
315.87	-1.530
316.24	-1.826
316.61	-1.066
316.97	-2.805
317.34	-2.293
317.70	-1.572
318.07	-2.028
318.43	-0.850
318.80	-0.836
319.16	-1.717
319.53	-2.399
319.89	-2.542
320.26	-1.868
320.62	-2.128
320.99	-1.477
321.35	-1.756
321.72	-0.279
322.08	-2.795
322.45	-1.265
322.81	-1.986
323.18	-2.566
323.54	-1.552
323.91	-1.601
324.27	-0.947
324.64	-1.092
325.00	-1.907
325.37	-1.147
325.73	-1.405
326.10	-1.298
326.46	-0.977
326.83	-0.560
327.19	-1.260
327.56	-0.158
327.92	-1.338
328.29	-1.371
328.65	-1.759
329.01	-2.200
329.38	-1.432
329.74	-1.027
330.11	-0.771
330.47	-2.106
330.84	-1.378
331.20	-0.083
331.56	-1.300
331.93	-0.502
332.29	-1.186
332.66	-0.914
333.02	-1.424
333.38	-1.426
333.75	-0.589
334.11	-1.668
334.48	-1.155
334.84	-1.359
335.20	-1.511
335.57	-0.337
335.93	-0.826
336.29	-1.082
336.66	-1.430
337.02	-1.087
337.38	-0.680
337.75	-1.157
338.11	-0.673
338.47	-1.241
338.84	-1.777
339.20	-2.612
339.56	-0.906
339.93	-1.314
340.29	-0.081
340.65	-0.730
341.02	-0.399
341.38	-0.808
341.74	-1.856
342.11	-1.287
342.47	-0.794
342.83	-0.805
343.20	-1.962
343.56	-0.882
343.92	-1.601
344.28	-1.328
344.65	-0.465
345.01	-1.482
345.37	-0.622
345.73	-1.715
346.10	-0.624
346.46	-2.136
346.82	-0.075
347.19	-1.375
347.55	-0.379
347.91	-1.189
348.27	-1.138
348.63	-1.066
349.00	-0.820
349.36	-0.223
349.72	-1.116
350.08	-0.520
350.45	-1.901
350.81	-1.131
351.17	-0.752
351.53	-0.986
351.89	-0.380
352.26	-0.597
352.62	-1.791
352.98	-1.832
353.34	-1.494
353.70	-1.310
354.07	-0.373
354.43	-0.911
354.79	-1.122
355.15	-0.147
355.51	-0.950
355.87	-0.972
356.24	-0.837
356.60	-0.665
356.96	-1.260
357.32	-1.338
357.68	-1.830
358.04	-1.497
358.40	-0.821
358.77	-0.877
359.13	-1.108
359.49	-2.454
359.85	-0.870
360.21	-0.359
360.57	-0.574
360.93	-0.917
361.29	-0.842
361.66	-0.434
362.02	0.139
362.38	-1.265
362.74	-0.838
363.10	-1.100
363.46	-1.385
363.82	-1.207
364.18	-1.056
364.54	-0.415
364.90	-1.003
365.26	-1.448
365.62	0.000
365.98	-0.613
366.35	-0.671
366.71	-0.884
367.07	-0.947
367.43	0.066
367.79	-0.199
368.15	-0.201
368.51	-0.541
368.87	-0.327
369.23	-0.333
369.59	-0.751
369.95	-0.270
370.31	-0.203
370.67	-1.032
371.03	-0.485
371.39	-1.142
371.75	-0.894
372.11	-0.407
372.47	-0.542
372.83	0.065
373.19	-0.133
373.55	-0.542
373.91	-0.750
374.27	0.388
374.63	-0.609
374.99	-0.663
375.35	0.584
375.71	-0.774
376.07	-0.323
376.42	-0.693
376.78	0.062
377.14	-0.437
377.50	-0.443
377.86	0.616
378.22	0.120
378.58	0.178
378.94	-0.411
379.30	0.351
379.66	0.647
380.02	-0.173
380.38	0.173
380.74	-0.282
381.09	0.348
381.45	0.057
381.81	0.293
382.17	0.416
382.53	0.643
382.89	0.621
383.25	0.234
383.61	0.058
383.97	-0.059
384.32	0.658
384.68	-0.754
385.04	0.289
385.40	0.000
385.76	1.055
386.12	0.419
386.48	1.059
386.83	0.954
387.19	0.058
387.55	0.000
387.91	0.342
388.27	1.212
388.62	0.630
388.98	0.564
389.34	0.707
389.70	0.407
390.06	0.000
390.42	0.482
390.77	1.084
391.13	0.411
391.49	0.785
391.85	-0.182
392.20	0.593
392.56	1.772
392.92	1.472
393.28	0.498
393.64	0.112
393.99	0.349
394.35	0.409
394.71	0.599
395.07	-0.539
395.42	0.571
395.78	1.219
396.14	0.475
396.50	-0.059
396.85	0.358
397.21	0.118
397.57	0.471
397.92	0.745
398.28	0.598
398.64	0.343
399.00	0.262
399.35	0.785
399.71	-0.054
400.07	0.225
400.42	0.000
400.78	-0.347
401.14	0.057
401.49	0.284
401.85	0.058
402.21	0.058
402.57	0.411
402.92	-0.355
403.28	-0.820
403.63	-0.537
403.99	-0.297
404.35	-0.057
404.70	0.737
405.06	0.054
405.42	-0.468
405.77	0.327
406.13	-0.108
406.49	-0.169
406.84	0.166
407.20	-0.112
407.55	-1.090
407.91	-0.629
408.27	-0.648
408.62	-0.349
408.98	-0.406
409.34	-0.704
409.69	-0.556
410.05	0.703
410.40	0.058
410.76	-0.056
411.11	-0.351
411.47	0.246
411.83	0.294
412.18	-0.422
412.54	0.119
412.89	-0.233
413.25	-0.734
413.60	-0.517
413.96	-0.117
414.31	-0.170
414.67	-0.239
415.03	-0.738
415.38	-0.252
415.74	-0.183
416.09	-0.740
416.45	-0.250
416.80	-0.673
417.16	-1.022
417.51	-0.374
417.87	-0.858
418.22	0.299
418.58	0.124
418.93	0.116
419.29	-0.678
419.64	-0.600
420.00	-0.119
420.35	0.393
420.71	-0.172
421.06	-0.460
421.42	0.057
421.77	-0.054
422.12	0.370
422.48	0.154
422.83	0.493
423.19	-0.106
423.54	-0.277
423.90	0.110
424.25	0.000
424.61	-0.918
424.96	0.165
425.31	0.265
425.67	-0.483
426.02	-0.221
426.38	-0.172
426.73	-0.056
427.09	0.865
427.44	-0.492
427.79	-0.166
428.15	-0.457
428.50	0.112
428.85	-0.057
429.21	0.638
429.56	-0.296
429.92	0.639
430.27	1.012
430.62	0.489
430.98	0.590
431.33	0.538
431.68	1.197
432.04	0.762
432.39	0.857
432.74	0.685
433.10	1.082
433.45	0.111
433.80	0.912
434.16	0.671
434.51	1.182
434.86	0.380
435.22	0.266
435.57	0.236
435.92	0.779
436.28	0.853
436.63	0.492
436.98	1.074
437.34	0.902
437.69	0.385
438.04	1.111
438.39	0.287
438.75	0.221
439.10	1.903
439.45	1.677
439.81	1.469
440.16	1.126
440.51	1.616
440.86	1.223
441.22	1.501
441.57	1.205
441.92	1.309
442.27	1.818
442.63	1.788
442.98	1.441
443.33	1.526
443.68	1.933
444.03	2.305
444.39	2.312
444.74	2.399
445.09	2.129
445.44	1.423
445.79	2.107
446.15	2.158
446.50	1.964
446.85	1.556
447.20	2.128
447.55	1.883
447.91	1.414
448.26	1.956
448.61	1.966
448.96	1.770
449.31	1.485
449.66	1.743
450.02	2.321
450.37	2.557
450.72	1.830
451.07	2.392
451.42	1.560
451.77	1.612
452.12	1.467
452.47	1.545
452.83	1.577
453.18	1.926
453.53	1.608
453.88	1.933
454.23	1.582
454.58	1.915
454.93	1.881
455.28	2.167
455.63	2.501
455.98	1.732
456.34	1.590
456.69	2.058
457.04	1.418
457.39	2.106
457.74	2.125
458.09	1.702
458.44	2.586
458.79	2.476
459.14	2.255
459.49	2.151
459.84	2.466
460.19	1.999
460.54	2.328
460.89	2.065
461.24	1.954
461.59	2.546
461.94	1.255
462.29	2.016
462.64	1.871
462.99	2.134
463.34	2.596
463.69	2.872
464.04	2.557
464.39	2.018
464.74	2.338
465.09	2.422
465.44	2.039
465.79	3.173
466.14	2.345
466.49	2.579
466.84	2.204
467.19	2.775
467.54	2.409
467.89	2.299
468.24	3.213
468.59	1.448
468.94	1.224
469.29	2.100
469.64	1.017
469.99	1.721
470.34	2.351
470.68	1.504
471.03	2.489
471.38	1.897
471.73	1.756
472.08	1.840
472.43	2.589
472.78	1.637
473.13	1.264
473.48	2.719
473.83	2.263
474.17	2.931
474.52	2.285
474.87	2.547
475.22	3.211
475.57	2.492
475.92	2.240
476.27	2.236
476.61	2.960
476.96	2.346
477.31	2.376
477.66	3.410
478.01	3.203
478.36	2.144
478.70	2.660
479.05	3.016
479.40	2.419
479.75	3.602
480.10	3.032
480.45	2.963
480.79	3.220
481.14	2.574
481.49	2.226
481.84	3.525
482.19	3.355
482.53	3.105
482.88	3.013
483.23	2.935
483.58	2.795
483.92	2.660
484.27	3.472
484.62	3.259
484.97	3.383
485.31	2.746
485.66	3.268
486.01	3.952
486.36	4.087
486.70	4.528
487.05	4.536
487.40	4.226
487.75	4.020
488.09	3.719
488.44	3.730
488.79	3.744
489.13	3.295
489.48	3.262
489.83	3.340
490.17	2.835
490.52	3.325
490.87	3.173
491.22	2.773
491.56	3.456
491.91	3.402
492.26	3.375
492.60	3.148
492.95	3.335
493.30	3.093
493.64	3.154
493.99	3.026
494.34	2.657
494.68	2.741
495.03	3.084
495.37	2.708
495.72	2.948
496.07	3.769
496.41	3.260
496.76	3.586
497.11	3.185
497.45	3.064
497.80	4.043
498.14	3.039
498.49	2.941
498.84	3.565
499.18	3.194
499.53	3.991
499.87	3.648
500.22	2.760
500.56	3.689
500.91	2.700
501.26	3.773
501.60	2.872
501.95	3.821
502.29	3.072
502.64	3.498
502.98	3.624
503.33	3.499
503.67	2.791
504.02	3.152
504.36	3.172
504.71	3.215
505.06	3.001
505.40	3.611
505.75	3.188
506.09	3.959
506.44	3.157
506.78	3.349
507.13	3.642
507.47	3.316
507.82	3.125
508.16	3.633
508.51	2.907
508.85	3.259
509.19	3.458
509.54	3.698
509.88	3.594
510.23	3.837
510.57	4.060
510.92	3.532
511.26	3.175
511.61	3.477
511.95	3.563
512.30	4.136
512.64	3.348
512.98	3.802
513.33	3.780
513.67	3.315
514.02	3.373
514.36	3.325
514.70	3.490
515.05	3.545
515.39	3.150
515.74	4.030
516.08	4.015
516.42	4.134
516.77	3.365
517.11	4.332
517.46	3.181
517.80	5.131
518.14	3.754
518.49	3.959
518.83	3.619
519.17	3.877
519.52	3.931
519.86	3.643
520.20	3.940
520.55	3.614
520.89	4.054
521.23	3.294
521.58	3.616
521.92	3.456
522.26	3.265
522.61	2.662
522.95	3.518
523.29	3.276
523.64	3.924
523.98	4.164
524.32	3.553
524.66	3.130
525.01	2.945
525.35	3.102
525.69	3.190
526.04	3.272
526.38	3.333
526.72	3.345
527.06	2.991
527.41	3.965
527.75	3.504
528.09	3.837
528.43	3.848
528.78	2.890
529.12	3.268
529.46	3.541
529.80	3.547
530.15	3.014
530.49	2.669
530.83	3.306
531.17	2.927
531.51	3.189
531.86	3.966
532.20	3.049
532.54	2.932
532.88	3.212
533.22	3.712
533.57	2.770
533.91	4.040
534.25	3.618
534.59	3.046
534.93	3.396
535.27	3.437
535.62	3.923
535.96	3.138
536.30	1.821
536.64	3.904
536.98	3.321
537.32	3.457
537.66	2.870
538.01	2.840
538.35	3.410
538.69	2.764
539.03	3.188
539.37	3.710
539.71	3.423
540.05	3.657
540.39	2.139
540.73	3.218
541.07	3.066
541.42	3.308
541.76	2.847
542.10	3.378
542.44	3.045
542.78	3.102
543.12	4.112
543.46	3.175
543.80	2.758
544.14	3.471
544.48	2.896
544.82	3.172
545.16	3.280
545.50	2.576
545.84	3.001
546.18	3.889
546.52	2.484
546.86	2.138
547.20	3.117
547.54	3.121
547.88	4.039
548.22	3.216
548.56	2.809
548.90	2.925
549.24	3.708
549.58	3.596
549.92	2.615
550.26	2.848
550.60	2.489
550.94	3.040
551.28	3.102
551.62	3.235
551.96	3.430
552.30	3.569
552.64	3.360
552.98	3.431
553.32	3.280
553.66	3.023
554.00	3.846
554.34	3.861
554.68	3.292
555.02	3.548
555.36	3.879
555.69	3.075
556.03	2.963
556.37	3.817
556.71	3.932
557.05	3.770
557.39	2.986
557.73	3.038
558.07	3.179
558.41	3.787
558.75	3.178
559.08	3.132
559.42	2.812
559.76	4.410
560.10	3.617
560.44	2.704
560.78	3.500
561.12	3.756
561.45	3.102
561.79	3.724
562.13	3.512
562.47	3.021
562.81	3.354
563.15	3.914
563.48	3.356
563.82	3.507
564.16	3.452
564.50	3.754
564.84	3.658
565.17	3.765
565.51	3.510
565.85	2.791
566.19	3.975
566.52	2.984
566.86	4.131
567.20	3.317
567.54	3.877
567.88	3.619
568.21	3.755
568.55	3.837
568.89	4.222
569.23	4.351
569.56	3.595
569.90	4.134
570.24	4.486
570.57	4.041
570.91	3.735
571.25	4.570
571.59	4.704
571.92	4.264
572.26	4.579
572.60	4.450
572.93	4.592
573.27	4.608
573.61	4.420
573.95	4.516
574.28	4.462
574.62	4.138
574.96	4.213
575.29	4.516
575.63	4.343
575.97	4.599
576.30	4.046
576.64	4.366
576.98	4.465
577.31	4.490
577.65	4.540
577.98	4.405
578.32	4.247
578.66	4.448
578.99	4.321
579.33	4.024
579.67	4.216
580.00	4.405
580.34	4.734
580.67	4.237
581.01	4.370
581.35	4.637
581.68	4.525
582.02	5.016
582.35	4.850
582.69	4.978
583.02	4.859
583.36	4.847
583.70	4.567
584.03	4.824
584.37	4.715
584.70	4.670
585.04	4.441
585.37	5.170
585.71	5.049
586.04	4.910
586.38	4.759
586.72	4.537
587.05	4.809
587.39	5.410
587.72	5.000
588.06	5.464
588.39	5.676
588.73	5.397
589.06	5.418
589.40	5.163
589.73	5.206
590.07	5.703
590.40	5.308
590.73	5.090
591.07	5.287
591.40	4.588
591.74	5.207
592.07	5.197
592.41	4.968
592.74	5.325
593.08	5.510
593.41	5.774
593.75	5.747
594.08	5.877
594.41	5.769
594.75	5.480
595.08	5.585
595.42	5.390
595.75	5.554
596.09	5.185
596.42	5.446
596.75	5.635
597.09	5.657
597.42	5.006
597.75	5.096
598.09	5.357
598.42	5.549
598.76	5.311
599.09	5.625
599.42	5.632
599.76	5.678
600.09	5.806
600.42	6.006
600.76	5.680
601.09	5.576
601.42	5.802
601.76	6.069
602.09	5.933
602.42	5.125
602.76	5.387
603.09	5.543
603.42	5.889
603.76	5.356
604.09	6.423
604.42	5.541
604.76	5.822
605.09	5.704
605.42	5.502
605.75	5.692
606.09	5.524
606.42	5.910
606.75	5.585
607.09	4.570
607.42	6.050
607.75	5.823
608.08	5.446
608.42	5.562
608.75	5.804
609.08	4.839
609.41	4.985
609.75	5.089
610.08	5.585
610.41	5.353
610.74	5.294
611.07	4.973
611.41	5.291
611.74	5.912
612.07	5.283
612.40	5.181
612.73	4.988
613.07	5.868
613.40	5.582
613.73	4.815
614.06	5.348
614.39	5.151
614.72	5.725
615.06	5.534
615.39	5.268
615.72	5.071
616.05	5.974
616.38	5.197
616.71	5.329
617.05	4.526
617.38	5.404
617.71	5.076
618.04	5.073
618.37	5.738
618.70	4.638
619.03	4.301
619.36	4.624
619.69	4.164
620.03	4.645
620.36	4.417
620.69	4.627
621.02	4.528
621.35	4.064
621.68	4.194
622.01	4.199
622.34	3.556
622.67	4.192
623.00	2.497
623.33	4.446
623.66	5.318
623.99	3.818
624.32	6.173
624.65	4.247
624.99	4.876
625.32	5.160
625.65	4.383
625.98	4.136
626.31	4.607
626.64	3.810
626.97	4.276
627.30	2.582
627.63	4.351
627.96	5.330
628.29	5.136
628.62	3.275
628.95	3.944
629.28	3.993
629.61	3.956
629.94	3.096
630.26	2.966
630.59	3.368
630.92	3.896
631.25	3.846
631.58	3.296
631.91	3.468
632.24	2.690
632.57	3.700
632.90	2.608
633.23	2.857
633.56	2.551
633.89	1.550
634.22	3.222
634.55	3.027
634.88	2.489
635.20	4.629
635.53	3.051
635.86	3.792
636.19	4.666
636.52	2.848
636.85	2.758
637.18	4.782
637.51	2.688
637.83	4.430
638.16	3.571
638.49	2.230
638.82	2.818
639.15	1.260
639.48	3.118
639.81	2.887
640.13	3.416
640.46	1.576
640.79	0.858
641.12	1.739
641.45	1.631
641.77	4.493
642.10	1.312
642.43	3.191
642.76	2.304
643.09	1.507
643.41	1.120
643.74	1.379
644.07	2.897
644.40	0.283
