SpectraSuite Data File
++++++++++++++++++++++++++++++++++++
Date: Thu May 14 15:02:35 PDT 2015
User: schluterlab
Dark Spectrum Present: Yes
Reference Spectrum Present: Yes
Number of Sampled Component Spectra: 1
Spectrometers: USB2E3373
Integration Time (usec): 3000 (USB2E3373)
Spectra Averaged: 3 (USB2E3373)
Boxcar Smoothing: 0 (USB2E3373)
Correct for Electrical Dark: No (USB2E3373)
Strobe/Lamp Enabled: No (USB2E3373)
Correct for Detector Non-linearity: No (USB2E3373)
Correct for Stray Light: No (USB2E3373)
Number of Pixels in Processed Spectrum: 2048
>>>>>Begin Processed Spectral Data<<<<<
178.53	0.000
178.91	385.714
179.29	-3400.000
179.67	-2200.000
180.04	221.429
180.42	250.000
180.80	700.000
181.18	-2500.000
181.56	-1700.000
181.94	650.000
182.31	-375.000
182.69	666.667
183.07	-1100.000
183.45	850.000
183.83	-383.333
184.20	-933.333
184.58	3300.000
184.96	-750.000
185.34	-288.889
185.72	-340.000
186.09	333.333
186.47	1900.000
186.85	620.000
187.23	-300.000
187.61	-3100.000
187.98	320.000
188.36	600.000
188.74	-700.000
189.12	-800.000
189.49	-93.750
189.87	-412.500
190.25	-100.000
190.63	-500.000
191.00	-177.778
191.38	0.000
191.76	-800.000
192.14	-416.667
192.51	1200.000
192.89	-316.667
193.27	0.000
193.65	-328.571
194.02	-3500.000
194.40	-242.857
194.78	300.000
195.15	0.000
195.53	-181.818
195.91	0.000
196.29	-275.000
196.66	-123.077
197.04	-2900.000
197.42	-342.857
197.79	-1150.000
198.17	-200.000
198.55	-357.143
198.92	-288.889
199.30	-362.500
199.68	-181.818
200.05	-121.429
200.43	-1100.000
200.81	257.143
201.18	0.000
201.56	366.667
201.94	0.000
202.31	1133.333
202.69	-355.556
203.07	1900.000
203.44	-233.333
203.82	-750.000
204.19	-150.000
204.57	-466.667
204.95	-350.000
205.32	-2100.000
205.70	650.000
206.08	-500.000
206.45	-333.333
206.83	700.000
207.20	-433.333
207.58	-620.000
207.96	-533.333
208.33	-316.667
208.71	250.000
209.08	-333.333
209.46	0.000
209.84	500.000
210.21	1000.000
210.59	950.000
210.96	800.000
211.34	-525.000
211.71	-325.000
212.09	-2000.000
212.46	0.000
212.84	1750.000
213.22	-560.000
213.59	-450.000
213.97	-180.000
214.34	-733.333
214.72	450.000
215.09	-575.000
215.47	0.000
215.84	414.286
216.22	1350.000
216.59	-500.000
216.97	-440.000
217.34	-600.000
217.72	-200.000
218.09	-500.000
218.47	-525.000
218.84	0.000
219.22	480.000
219.59	-100.000
219.97	-75.000
220.34	1150.000
220.72	-177.778
221.09	-115.385
221.47	-566.667
221.84	-140.000
222.22	-314.286
222.59	0.000
222.97	-237.500
223.34	-400.000
223.72	-2900.000
224.09	-650.000
224.46	-500.000
224.84	-340.000
225.21	-385.714
225.59	-725.000
225.96	-875.000
226.34	-76.923
226.71	633.333
227.08	-950.000
227.46	-106.667
227.83	-500.000
228.21	-5.263
228.58	400.000
228.95	1350.000
229.33	-108.333
229.70	-150.000
230.08	-89.474
230.45	230.000
230.82	-633.333
231.20	-114.286
231.57	-183.333
231.95	-163.636
232.32	-90.909
232.69	-85.000
233.07	-675.000
233.44	-117.647
233.81	-280.000
234.19	-44.444
234.56	-72.727
234.93	-20.690
235.31	-136.842
235.68	-150.000
236.05	-110.000
236.43	-30.769
236.80	-8.000
237.17	-66.667
237.55	-72.727
237.92	-260.000
238.29	-54.839
238.67	-34.091
239.04	-33.333
239.41	-59.524
239.79	-36.957
240.16	-24.074
240.53	-21.739
240.91	-49.020
241.28	-18.033
241.65	4.478
242.02	-6.757
242.40	-10.769
242.77	-9.333
243.14	-9.756
243.51	-22.368
243.89	-16.667
244.26	-0.990
244.63	5.882
245.00	7.477
245.38	-2.632
245.75	-7.965
246.12	-3.175
246.49	-5.426
246.87	5.714
247.24	0.662
247.61	2.632
247.98	4.027
248.36	1.235
248.73	1.840
249.10	8.197
249.47	10.945
249.84	12.042
250.22	4.145
250.59	5.556
250.96	9.091
251.33	7.143
251.70	8.974
252.08	9.583
252.45	8.607
252.82	11.157
253.19	9.766
253.56	6.084
253.94	7.692
254.31	12.121
254.68	15.385
255.05	12.378
255.42	12.585
255.79	7.120
256.16	8.940
256.54	9.603
256.91	8.852
257.28	9.836
257.65	7.006
258.02	7.965
258.39	9.972
258.76	13.150
259.14	13.506
259.51	12.680
259.88	9.632
260.25	12.222
260.62	15.068
260.99	12.295
261.36	13.673
261.73	14.058
262.10	10.440
262.47	9.651
262.85	12.121
263.22	10.130
263.59	8.684
263.96	10.742
264.33	7.928
264.70	11.111
265.07	11.933
265.44	14.966
265.81	12.269
266.18	12.925
266.55	15.179
266.92	11.617
267.29	12.910
267.66	12.639
268.03	12.445
268.40	12.109
268.77	12.756
269.14	11.013
269.51	9.649
269.88	14.344
270.25	10.262
270.62	13.502
270.99	12.929
271.36	12.673
271.73	12.574
272.10	14.028
272.47	13.427
272.84	9.839
273.21	12.224
273.58	14.113
273.95	10.000
274.32	12.548
274.69	13.153
275.06	13.736
275.43	9.797
275.80	12.169
276.17	12.222
276.54	10.821
276.91	11.807
277.28	12.477
277.65	13.106
278.02	13.051
278.39	11.775
278.76	11.951
279.13	11.702
279.50	14.261
279.87	13.953
280.23	10.739
280.60	12.712
280.97	14.145
281.34	10.866
281.71	15.905
282.08	14.286
282.45	10.966
282.82	11.303
283.19	12.278
283.56	11.967
283.92	14.565
284.29	14.692
284.66	12.972
285.03	8.333
285.40	12.365
285.77	14.087
286.14	14.198
286.51	13.546
286.87	12.006
287.24	14.759
287.61	12.556
287.98	12.689
288.35	13.166
288.72	14.497
289.08	12.592
289.45	14.941
289.82	13.855
290.19	13.075
290.56	13.099
290.93	13.552
291.29	16.391
291.66	13.223
292.03	12.754
292.40	14.558
292.77	12.668
293.13	14.750
293.50	14.192
293.87	13.423
294.24	16.133
294.60	15.676
294.97	12.215
295.34	14.469
295.71	13.997
296.08	14.470
296.44	15.441
296.81	14.616
297.18	14.072
297.55	15.566
297.91	14.947
298.28	15.403
298.65	13.317
299.02	14.404
299.38	16.018
299.75	12.383
300.12	15.741
300.48	14.401
300.85	15.298
301.22	16.443
301.59	13.584
301.95	15.254
302.32	16.000
302.69	16.429
303.05	15.234
303.42	15.521
303.79	15.729
304.15	15.352
304.52	15.433
304.89	16.126
305.25	16.770
305.62	16.719
305.99	15.052
306.35	15.020
306.72	16.236
307.09	15.635
307.45	16.046
307.82	14.430
308.19	16.347
308.55	16.297
308.92	17.429
309.29	16.092
309.65	15.789
310.02	16.634
310.38	16.732
310.75	17.767
311.12	18.313
311.48	16.325
311.85	17.379
312.22	17.173
312.58	17.371
312.95	16.539
313.31	18.067
313.68	17.674
314.05	19.603
314.41	18.670
314.78	18.347
315.14	19.147
315.51	18.283
315.87	18.992
316.24	19.817
316.61	18.472
316.97	18.552
317.34	17.901
317.70	18.515
318.07	18.783
318.43	19.558
318.80	19.900
319.16	19.742
319.53	18.680
319.89	18.843
320.26	18.594
320.62	18.794
320.99	19.852
321.35	19.316
321.72	20.093
322.08	20.108
322.45	20.958
322.81	19.856
323.18	20.619
323.54	21.638
323.91	21.708
324.27	21.515
324.64	22.754
325.00	21.393
325.37	23.423
325.73	22.645
326.10	24.331
326.46	24.593
326.83	24.420
327.19	23.307
327.56	25.059
327.92	25.334
328.29	24.435
328.65	25.461
329.01	27.411
329.38	27.296
329.74	28.339
330.11	28.339
330.47	26.959
330.84	28.424
331.20	28.333
331.56	27.990
331.93	28.368
332.29	27.712
332.66	28.488
333.02	29.146
333.38	28.188
333.75	27.946
334.11	28.274
334.48	29.208
334.84	29.992
335.20	28.715
335.57	30.017
335.93	29.421
336.29	28.619
336.66	29.605
337.02	30.184
337.38	29.677
337.75	29.917
338.11	30.109
338.47	29.115
338.84	30.372
339.20	28.054
339.56	28.007
339.93	29.557
340.29	29.549
340.65	29.521
341.02	29.609
341.38	30.234
341.74	29.379
342.11	29.847
342.47	29.309
342.83	29.710
343.20	30.172
343.56	29.350
343.92	29.143
344.28	29.531
344.65	29.690
345.01	29.329
345.37	30.171
345.73	29.774
346.10	29.797
346.46	30.380
346.82	29.588
347.19	29.947
347.55	29.818
347.91	29.866
348.27	29.818
348.63	30.465
349.00	29.530
349.36	30.186
349.72	30.432
350.08	30.609
350.45	29.049
350.81	29.940
351.17	30.376
351.53	30.099
351.89	30.372
352.26	28.881
352.62	29.328
352.98	29.160
353.34	29.500
353.70	30.046
354.07	29.061
354.43	30.144
354.79	29.544
355.15	30.169
355.51	30.263
355.87	29.319
356.24	29.810
356.60	28.751
356.96	30.022
357.32	29.814
357.68	29.941
358.04	29.940
358.40	29.478
358.77	29.678
359.13	30.281
359.49	30.335
359.85	29.297
360.21	30.057
360.57	29.074
360.93	30.042
361.29	30.316
361.66	30.051
362.02	31.246
362.38	30.218
362.74	30.447
363.10	31.087
363.46	31.440
363.82	29.759
364.18	30.471
364.54	29.668
364.90	31.304
365.26	30.828
365.62	30.867
365.98	31.110
366.35	30.671
366.71	31.565
367.07	32.206
367.43	31.320
367.79	31.586
368.15	31.037
368.51	31.800
368.87	30.046
369.23	30.600
369.59	31.284
369.95	31.440
370.31	32.275
370.67	30.330
371.03	29.709
371.39	30.625
371.75	31.637
372.11	32.385
372.47	31.144
372.83	31.021
373.19	31.688
373.55	31.030
373.91	31.697
374.27	32.600
374.63	32.070
374.99	31.366
375.35	31.818
375.71	32.774
376.07	32.408
376.42	31.486
376.78	32.815
377.14	32.377
377.50	32.891
377.86	32.635
378.22	32.934
378.58	32.580
378.94	33.451
379.30	32.396
379.66	32.981
380.02	33.872
380.38	35.484
380.74	34.085
381.09	33.101
381.45	35.000
381.81	34.778
382.17	33.610
382.53	34.620
382.89	33.352
383.25	35.463
383.61	34.954
383.97	34.158
384.32	34.629
384.68	34.687
385.04	35.975
385.40	35.592
385.76	35.698
386.12	34.111
386.48	36.412
386.83	36.412
387.19	34.878
387.55	35.739
387.91	35.502
388.27	35.739
388.62	35.796
388.98	34.913
389.34	36.358
389.70	37.130
390.06	37.063
390.42	35.723
390.77	36.725
391.13	37.031
391.49	36.413
391.85	36.000
392.20	36.536
392.56	37.626
392.92	36.914
393.28	36.484
393.64	36.704
393.99	37.071
394.35	37.967
394.71	37.246
395.07	36.287
395.42	37.065
395.78	37.843
396.14	37.493
396.50	37.411
396.85	37.806
397.21	37.337
397.57	36.631
397.92	37.858
398.28	36.013
398.64	36.670
399.00	36.178
399.35	36.911
399.71	37.554
400.07	37.282
400.42	36.845
400.78	37.500
401.14	37.507
401.49	37.692
401.85	38.488
402.21	38.065
402.57	38.146
402.92	37.766
403.28	36.944
403.63	36.993
403.99	36.639
404.35	36.612
404.70	38.017
405.06	37.065
405.42	38.232
405.77	37.568
406.13	36.899
406.49	37.500
406.84	37.064
407.20	38.234
407.55	37.190
407.91	36.958
408.27	36.219
408.62	37.405
408.98	37.435
409.34	37.243
409.69	37.639
410.05	36.928
410.40	37.645
410.76	36.904
411.11	38.165
411.47	37.101
411.83	37.272
412.18	38.675
412.54	37.582
412.89	37.485
413.25	36.738
413.60	37.450
413.96	37.587
414.31	37.054
414.67	37.209
415.03	37.662
415.38	38.083
415.74	38.180
416.09	37.446
416.45	36.255
416.80	37.576
417.16	37.292
417.51	37.484
417.87	37.707
418.22	37.246
418.58	37.113
418.93	38.417
419.29	37.855
419.64	38.776
420.00	37.270
420.35	37.675
420.71	36.703
421.06	36.343
421.42	37.615
421.77	36.241
422.12	37.104
422.48	37.839
422.83	38.116
423.19	38.621
423.54	38.440
423.90	37.659
424.25	37.867
424.61	37.026
424.96	38.495
425.31	38.960
425.67	37.681
426.02	37.908
426.38	37.715
426.73	37.667
427.09	38.985
427.44	37.466
427.79	37.700
428.15	37.443
428.50	38.034
428.85	38.347
429.21	38.404
429.56	38.253
429.92	37.150
430.27	37.831
430.62	38.056
430.98	37.285
431.33	37.439
431.68	38.362
432.04	38.395
432.39	37.868
432.74	37.158
433.10	38.183
433.45	37.179
433.80	38.090
434.16	37.655
434.51	38.129
434.86	39.577
435.22	39.267
435.57	39.387
435.92	39.232
436.28	38.567
436.63	40.087
436.98	38.218
437.34	39.233
437.69	38.305
438.04	38.340
438.39	37.622
438.75	38.129
439.10	39.059
439.45	37.116
439.81	38.870
440.16	37.587
440.51	38.685
440.86	36.576
441.22	38.156
441.57	38.941
441.92	38.070
442.27	39.293
442.63	38.649
442.98	38.420
443.33	38.769
443.68	39.148
444.03	38.993
444.39	39.205
444.74	39.714
445.09	38.216
445.44	38.830
445.79	38.458
446.15	39.466
446.50	38.295
446.85	39.251
447.20	39.265
447.55	39.331
447.91	37.644
448.26	38.953
448.61	38.789
448.96	39.861
449.31	37.646
449.66	38.725
450.02	38.608
450.37	38.146
450.72	39.074
451.07	39.237
451.42	38.475
451.77	38.466
452.12	40.181
452.47	39.632
452.83	39.809
453.18	38.412
453.53	39.920
453.88	39.481
454.23	39.831
454.58	38.886
454.93	38.653
455.28	39.253
455.63	38.601
455.98	38.715
456.34	39.223
456.69	39.095
457.04	39.125
457.39	39.357
457.74	39.989
458.09	38.001
458.44	38.308
458.79	38.112
459.14	39.171
459.49	38.936
459.84	39.769
460.19	38.090
460.54	40.091
460.89	40.021
461.24	38.448
461.59	39.236
461.94	37.935
462.29	40.034
462.64	39.288
462.99	38.293
463.34	39.390
463.69	38.218
464.04	40.078
464.39	38.397
464.74	38.426
465.09	38.870
465.44	39.592
465.79	39.503
466.14	38.666
466.49	39.158
466.84	38.898
467.19	39.191
467.54	38.249
467.89	39.598
468.24	39.723
468.59	39.606
468.94	38.928
469.29	38.692
469.64	38.843
469.99	39.133
470.34	39.171
470.68	39.645
471.03	39.293
471.38	39.830
471.73	39.857
472.08	39.467
472.43	39.314
472.78	40.050
473.13	39.128
473.48	39.154
473.83	39.756
474.17	38.863
474.52	39.627
474.87	39.203
475.22	39.324
475.57	39.512
475.92	38.825
476.27	39.776
476.61	39.252
476.96	40.250
477.31	39.901
477.66	40.399
478.01	39.858
478.36	37.936
478.70	39.064
479.05	40.082
479.40	39.635
479.75	40.346
480.10	39.318
480.45	39.654
480.79	39.683
481.14	39.706
481.49	39.119
481.84	39.904
482.19	39.484
482.53	40.533
482.88	39.743
483.23	39.262
483.58	39.782
483.92	39.495
484.27	39.077
484.62	38.779
484.97	39.114
485.31	38.367
485.66	36.079
486.01	36.103
486.36	37.670
486.70	39.451
487.05	40.828
487.40	39.912
487.75	39.135
488.09	39.138
488.44	38.810
488.79	39.258
489.13	38.957
489.48	38.175
489.83	39.598
490.17	38.761
490.52	38.711
490.87	40.228
491.22	39.428
491.56	39.889
491.91	39.773
492.26	40.286
492.60	39.615
492.95	39.930
493.30	39.310
493.64	40.473
493.99	39.123
494.34	39.155
494.68	39.101
495.03	39.780
495.37	40.302
495.72	39.864
496.07	39.614
496.41	39.640
496.76	39.992
497.11	40.170
497.45	40.440
497.80	39.494
498.14	39.592
498.49	40.349
498.84	39.945
499.18	40.216
499.53	40.000
499.87	39.648
500.22	39.537
500.56	39.361
500.91	39.908
501.26	41.318
501.60	38.798
501.95	39.731
502.29	40.061
502.64	40.140
502.98	39.646
503.33	39.093
503.67	39.730
504.02	39.492
504.36	40.304
504.71	39.458
505.06	40.246
505.40	40.128
505.75	39.390
506.09	39.825
506.44	40.761
506.78	40.367
507.13	39.926
507.47	40.265
507.82	39.820
508.16	39.627
508.51	39.991
508.85	39.584
509.19	40.739
509.54	40.346
509.88	40.797
510.23	40.699
510.57	41.324
510.92	40.493
511.26	39.298
511.61	39.305
511.95	41.191
512.30	41.014
512.64	39.630
512.98	40.420
513.33	41.028
513.67	40.592
514.02	41.339
514.36	41.023
514.70	40.365
515.05	40.928
515.39	41.207
515.74	41.304
516.08	40.676
516.42	41.287
516.77	41.693
517.11	40.330
517.46	41.304
517.80	42.384
518.14	41.513
518.49	40.998
518.83	40.820
519.17	40.442
519.52	41.771
519.86	41.975
520.20	41.161
520.55	42.223
520.89	41.216
521.23	41.709
521.58	40.960
521.92	41.643
522.26	41.237
522.61	42.593
522.95	41.696
523.29	40.805
523.64	41.424
523.98	41.871
524.32	42.693
524.66	40.751
525.01	40.091
525.35	41.700
525.69	41.473
526.04	40.586
526.38	41.954
526.72	41.176
527.06	42.874
527.41	42.157
527.75	42.162
528.09	42.444
528.43	41.681
528.78	41.445
529.12	41.456
529.46	41.091
529.80	41.362
530.15	41.565
530.49	41.459
530.83	41.617
531.17	40.502
531.51	42.539
531.86	41.947
532.20	41.829
532.54	40.754
532.88	41.697
533.22	40.778
533.57	40.969
533.91	41.246
534.25	42.284
534.59	41.552
534.93	42.162
535.27	40.394
535.62	41.615
535.96	42.592
536.30	40.717
536.64	42.402
536.98	40.467
537.32	42.284
537.66	41.547
538.01	39.577
538.35	40.378
538.69	40.986
539.03	41.754
539.37	40.813
539.71	40.841
540.05	40.707
540.39	40.526
540.73	39.951
541.07	41.692
541.42	40.402
541.76	40.273
542.10	41.375
542.44	40.499
542.78	41.545
543.12	40.405
543.46	41.392
543.80	39.808
544.14	40.575
544.48	40.366
544.82	41.472
545.16	40.727
545.50	41.102
545.84	41.029
546.18	42.593
546.52	41.146
546.86	40.503
547.20	40.585
547.54	39.700
547.88	40.386
548.22	39.708
548.56	40.609
548.90	40.776
549.24	41.702
549.58	40.568
549.92	40.753
550.26	40.712
550.60	39.757
550.94	41.074
551.28	41.386
551.62	41.644
551.96	39.029
552.30	41.491
552.64	40.884
552.98	40.799
553.32	42.122
553.66	41.608
554.00	40.479
554.34	41.313
554.68	40.284
555.02	40.473
555.36	42.078
555.69	40.423
556.03	40.479
556.37	40.175
556.71	40.266
557.05	42.045
557.39	39.681
557.73	40.687
558.07	40.132
558.41	41.063
558.75	40.568
559.08	40.919
559.42	41.564
559.76	40.366
560.10	40.924
560.44	40.831
560.78	41.875
561.12	39.655
561.45	40.633
561.79	40.842
562.13	41.282
562.47	39.766
562.81	40.127
563.15	40.088
563.48	39.776
563.82	40.689
564.16	39.794
564.50	40.346
564.84	40.059
565.17	40.706
565.51	38.147
565.85	39.905
566.19	39.459
566.52	40.082
566.86	39.955
567.20	39.043
567.54	39.458
567.88	38.481
568.21	38.538
568.55	39.760
568.89	38.175
569.23	38.868
569.56	37.945
569.90	38.346
570.24	38.516
570.57	37.588
570.91	36.589
571.25	37.229
571.59	37.406
571.92	36.860
572.26	37.480
572.60	37.428
572.93	37.712
573.27	37.201
573.61	36.607
573.95	36.392
574.28	36.463
574.62	36.562
574.96	35.862
575.29	36.330
575.63	36.683
575.97	36.671
576.30	35.998
576.64	36.387
576.98	35.786
577.31	36.246
577.65	36.814
577.98	35.542
578.32	35.926
578.66	35.714
578.99	36.043
579.33	36.038
579.67	35.698
580.00	35.671
580.34	35.777
580.67	35.812
581.01	36.023
581.35	35.282
581.68	35.492
582.02	35.456
582.35	36.337
582.69	36.179
583.02	36.012
583.36	36.291
583.70	35.992
584.03	36.141
584.37	35.646
584.70	35.575
585.04	35.341
585.37	35.639
585.71	35.232
586.04	35.513
586.38	35.701
586.72	35.798
587.05	35.994
587.39	35.926
587.72	36.124
588.06	36.243
588.39	36.296
588.73	35.503
589.06	35.807
589.40	36.202
589.73	35.990
590.07	36.273
590.40	36.917
590.73	36.409
591.07	36.746
591.40	36.586
591.74	35.890
592.07	36.175
592.41	36.238
592.74	36.102
593.08	35.732
593.41	36.687
593.75	35.718
594.08	36.201
594.41	36.603
594.75	36.699
595.08	36.306
595.42	36.136
595.75	36.358
596.09	37.004
596.42	36.582
596.75	36.588
597.09	36.485
597.42	36.194
597.75	35.711
598.09	36.508
598.42	36.148
598.76	35.575
599.09	35.493
599.42	35.669
599.76	35.391
600.09	35.903
600.42	35.836
600.76	36.030
601.09	35.845
601.42	35.942
601.76	35.621
602.09	35.597
602.42	35.296
602.76	35.978
603.09	35.793
603.42	36.344
603.76	35.553
604.09	36.302
604.42	36.294
604.76	35.464
605.09	35.540
605.42	36.404
605.75	35.000
606.09	35.461
606.42	34.732
606.75	34.408
607.09	35.253
607.42	34.913
607.75	36.499
608.08	35.280
608.42	35.268
608.75	36.153
609.08	36.121
609.41	35.509
609.75	35.982
610.08	36.016
610.41	36.534
610.74	35.798
611.07	35.835
611.41	36.861
611.74	36.721
612.07	36.325
612.40	36.787
612.73	36.724
613.07	36.479
613.40	36.910
613.73	36.447
614.06	36.948
614.39	35.957
614.72	35.808
615.06	35.322
615.39	35.524
615.72	36.114
616.05	36.377
616.38	36.276
616.71	35.893
617.05	35.517
617.38	36.597
617.71	36.285
618.04	36.535
618.37	37.213
618.70	37.330
619.03	36.977
619.36	36.313
619.69	37.348
620.03	37.476
620.36	36.748
620.69	37.384
621.02	37.205
621.35	38.171
621.68	38.178
622.01	37.295
622.34	37.029
622.67	37.182
623.00	36.370
623.33	37.226
623.66	38.132
623.99	36.142
624.32	37.687
624.65	36.229
624.99	39.142
625.32	38.668
625.65	36.548
625.98	37.085
626.31	37.420
626.64	37.143
626.97	37.359
627.30	37.206
627.63	37.884
627.96	38.288
628.29	38.288
628.62	38.203
628.95	39.089
629.28	39.252
629.61	38.636
629.94	36.987
630.26	37.034
630.59	37.997
630.92	38.009
631.25	39.624
631.58	38.983
