SpectraSuite Data File
++++++++++++++++++++++++++++++++++++
Date: Thu May 14 14:30:18 PDT 2015
User: schluterlab
Dark Spectrum Present: Yes
Reference Spectrum Present: Yes
Number of Sampled Component Spectra: 1
Spectrometers: USB2E3373
Integration Time (usec): 3000 (USB2E3373)
Spectra Averaged: 3 (USB2E3373)
Boxcar Smoothing: 0 (USB2E3373)
Correct for Electrical Dark: No (USB2E3373)
Strobe/Lamp Enabled: No (USB2E3373)
Correct for Detector Non-linearity: No (USB2E3373)
Correct for Stray Light: No (USB2E3373)
Number of Pixels in Processed Spectrum: 2048
>>>>>Begin Processed Spectral Data<<<<<
178.53	0.000
178.91	-157.143
179.29	0.000
179.67	1000.000
180.04	14.286
180.42	-130.000
180.80	-220.000
181.18	800.000
181.56	2500.000
181.94	-550.000
182.31	425.000
182.69	-366.667
183.07	700.000
183.45	-250.000
183.83	416.667
184.20	466.667
184.58	-1700.000
184.96	325.000
185.34	111.111
185.72	300.000
186.09	-111.111
186.47	-200.000
186.85	-220.000
187.23	44.444
187.61	400.000
187.98	-320.000
188.36	-475.000
188.74	475.000
189.12	566.667
189.49	112.500
189.87	100.000
190.25	277.778
190.63	440.000
191.00	155.556
191.38	0.000
191.76	325.000
192.14	183.333
192.51	-700.000
192.89	283.333
193.27	0.000
193.65	214.286
194.02	400.000
194.40	314.286
194.78	-200.000
195.15	0.000
195.53	227.273
195.91	0.000
196.29	600.000
196.66	84.615
197.04	1100.000
197.42	214.286
197.79	650.000
198.17	175.000
198.55	300.000
198.92	255.556
199.30	200.000
199.68	209.091
200.05	171.429
200.43	500.000
200.81	-128.571
201.18	0.000
201.56	-66.667
201.94	0.000
202.31	-400.000
202.69	188.889
203.07	-1400.000
203.44	177.778
203.82	275.000
204.19	125.000
204.57	283.333
204.95	87.500
205.32	1400.000
205.70	-400.000
206.08	233.333
206.45	383.333
206.83	-120.000
207.20	200.000
207.58	160.000
207.96	216.667
208.33	383.333
208.71	-66.667
209.08	400.000
209.46	0.000
209.84	-216.667
210.21	-650.000
210.59	-1300.000
210.96	-0.000
211.34	700.000
211.71	212.500
212.09	1600.000
212.46	0.000
212.84	-450.000
213.22	40.000
213.59	300.000
213.97	160.000
214.34	533.333
214.72	-300.000
215.09	500.000
215.47	0.000
215.84	-228.571
216.22	-550.000
216.59	340.000
216.97	180.000
217.34	275.000
217.72	137.500
218.09	325.000
218.47	325.000
218.84	0.000
219.22	-280.000
219.59	88.235
219.97	130.000
220.34	-400.000
220.72	155.556
221.09	200.000
221.47	400.000
221.84	120.000
222.22	242.857
222.59	0.000
222.97	287.500
223.34	140.000
223.72	1500.000
224.09	450.000
224.46	150.000
224.84	280.000
225.21	142.857
225.59	100.000
225.96	350.000
226.34	88.462
226.71	-150.000
227.08	700.000
227.46	66.667
227.83	150.000
228.21	94.737
228.58	-200.000
228.95	-700.000
229.33	175.000
229.70	210.000
230.08	152.632
230.45	-120.000
230.82	666.667
231.20	150.000
231.57	200.000
231.95	154.545
232.32	190.909
232.69	140.000
233.07	450.000
233.44	135.294
233.81	210.000
234.19	150.000
234.56	118.182
234.93	75.862
235.31	100.000
235.68	183.333
236.05	110.000
236.43	138.462
236.80	148.000
237.17	66.667
237.55	96.970
237.92	160.000
238.29	77.419
238.67	59.091
239.04	61.111
239.41	64.286
239.79	73.913
240.16	62.963
240.53	78.261
240.91	54.902
241.28	72.131
241.65	73.134
242.02	64.865
242.40	61.538
242.77	41.333
243.14	64.634
243.51	53.947
243.89	53.846
244.26	54.455
244.63	52.941
245.00	51.402
245.38	48.246
245.75	44.248
246.12	41.270
246.49	39.535
246.87	50.000
247.24	45.695
247.61	54.605
247.98	53.020
248.36	46.914
248.73	36.810
249.10	40.984
249.47	50.746
249.84	50.262
250.22	45.078
250.59	48.333
250.96	42.273
251.33	37.755
251.70	38.462
252.08	37.500
252.45	45.082
252.82	40.083
253.19	37.500
253.56	40.684
253.94	39.615
254.31	39.773
254.68	38.462
255.05	41.042
255.42	37.415
255.79	38.188
256.16	37.417
256.54	37.748
256.91	40.328
257.28	38.033
257.65	37.580
258.02	38.053
258.39	36.752
258.76	41.284
259.14	41.667
259.51	37.464
259.88	36.261
260.25	40.278
260.62	37.534
260.99	40.710
261.36	42.091
261.73	36.870
262.10	39.286
262.47	36.997
262.85	39.394
263.22	36.364
263.59	36.316
263.96	37.596
264.33	36.829
264.70	38.025
265.07	41.527
265.44	40.363
265.81	36.343
266.18	37.642
266.55	37.277
266.92	38.724
267.29	38.074
267.66	39.246
268.03	37.336
268.40	36.117
268.77	34.396
269.14	36.564
269.51	37.281
269.88	39.754
270.25	36.217
270.62	38.397
270.99	36.566
271.36	37.426
271.73	36.149
272.10	37.876
272.47	35.872
272.84	35.743
273.21	35.471
273.58	37.903
273.95	34.808
274.32	35.171
274.69	35.783
275.06	36.996
275.43	33.826
275.80	34.392
276.17	36.111
276.54	35.261
276.91	33.631
277.28	34.177
277.65	37.882
278.02	35.110
278.39	38.768
278.76	35.325
279.13	35.638
279.50	34.708
279.87	35.242
280.23	32.042
280.60	35.932
280.97	34.868
281.34	33.786
281.71	37.733
282.08	31.063
282.45	31.588
282.82	30.612
283.19	32.795
283.56	34.754
283.92	34.685
284.29	32.070
284.66	34.811
285.03	33.333
285.40	32.921
285.77	31.424
286.14	34.198
286.51	33.486
286.87	33.807
287.24	32.681
287.61	31.988
287.98	32.779
288.35	31.213
288.72	33.136
289.08	32.943
289.45	30.325
289.82	32.078
290.19	30.747
290.56	32.113
290.93	29.672
291.29	32.231
291.66	30.441
292.03	30.801
292.40	29.660
292.77	28.706
293.13	30.176
293.50	27.727
293.87	29.128
294.24	29.600
294.60	28.066
294.97	28.054
295.34	29.065
295.71	27.995
296.08	27.649
296.44	27.941
296.81	26.553
297.18	26.650
297.55	28.066
297.91	27.402
298.28	27.014
298.65	26.516
299.02	26.919
299.38	27.918
299.75	26.752
300.12	26.968
300.48	27.419
300.85	27.334
301.22	26.398
301.59	24.658
301.95	26.441
302.32	27.444
302.69	26.725
303.05	26.333
303.42	26.608
303.79	26.250
304.15	26.183
304.52	27.484
304.89	25.654
305.25	26.708
305.62	26.855
305.99	27.113
306.35	26.210
306.72	26.267
307.09	25.584
307.45	27.743
307.82	25.832
308.19	25.328
308.55	27.097
308.92	25.122
309.29	26.341
309.65	25.926
310.02	26.337
310.38	26.870
310.75	25.922
311.12	27.804
311.48	27.273
311.85	25.641
312.22	25.142
312.58	26.009
312.95	26.577
313.31	27.191
313.68	28.022
314.05	27.552
314.41	29.235
314.78	27.430
315.14	28.494
315.51	28.717
315.87	29.613
316.24	28.128
316.61	28.952
316.97	28.416
317.34	27.425
317.70	29.782
318.07	29.277
318.43	28.571
318.80	29.766
319.16	28.240
319.53	27.421
319.89	28.221
320.26	30.605
320.62	30.230
320.99	29.825
321.35	29.298
321.72	31.256
322.08	29.125
322.45	30.804
322.81	30.776
323.18	29.823
323.54	30.345
323.91	31.050
324.27	31.670
324.64	31.738
325.00	30.348
325.37	30.794
325.73	32.479
326.10	31.144
326.46	32.492
326.83	32.586
327.19	32.047
327.56	32.727
327.92	32.730
328.29	31.855
328.65	31.826
329.01	31.980
329.38	33.109
329.74	33.134
330.11	34.418
330.47	32.772
330.84	34.109
331.20	33.167
331.56	33.795
331.93	33.808
332.29	33.983
332.66	33.140
333.02	32.412
333.38	33.977
333.75	34.512
334.11	34.445
334.48	33.498
334.84	32.710
335.20	33.753
335.57	34.823
335.93	34.298
336.29	34.027
336.66	34.230
337.02	33.612
337.38	33.929
337.75	32.727
338.11	33.726
338.47	34.657
338.84	33.249
339.20	32.603
339.56	33.361
339.93	34.154
340.29	32.367
340.65	32.117
341.02	33.998
341.38	33.711
341.74	33.172
342.11	34.352
342.47	32.327
342.83	33.816
343.20	34.260
343.56	33.761
343.92	33.467
344.28	33.594
344.65	34.186
345.01	33.775
345.37	33.359
345.73	33.203
346.10	34.165
346.46	33.782
346.82	33.858
347.19	33.613
347.55	33.763
347.91	33.135
348.27	32.777
348.63	33.892
349.00	32.513
349.36	33.309
349.72	32.366
350.08	33.878
350.45	33.384
350.81	32.730
351.17	33.684
351.53	33.586
351.89	32.726
352.26	32.239
352.62	33.060
352.98	33.893
353.34	32.188
353.70	33.590
354.07	32.340
354.43	33.333
354.79	32.610
355.15	33.554
355.51	33.553
355.87	32.236
356.24	33.764
356.60	32.816
356.96	33.062
357.32	33.234
357.68	32.870
358.04	33.084
358.40	32.985
358.77	33.480
359.13	32.496
359.49	33.532
359.85	34.010
360.21	32.568
360.57	32.448
360.93	33.498
361.29	32.772
361.66	34.178
362.02	34.586
362.38	34.083
362.74	32.402
363.10	32.875
363.46	33.587
363.82	33.949
364.18	34.342
364.54	33.472
364.90	33.579
365.26	34.345
365.62	33.933
365.98	33.628
366.35	33.960
366.71	35.170
367.07	34.371
367.43	34.012
367.79	34.107
368.15	34.849
368.51	34.235
368.87	34.161
369.23	33.933
369.59	34.495
369.95	34.821
370.31	35.044
370.67	33.975
371.03	33.934
371.39	33.512
371.75	33.700
372.11	33.266
372.47	34.394
372.83	34.751
373.19	34.290
373.55	34.146
373.91	33.129
374.27	34.864
374.63	34.438
374.99	34.814
375.35	35.195
375.71	35.097
376.07	35.119
376.42	34.068
376.78	35.239
377.14	35.059
377.50	35.421
377.86	36.207
378.22	35.988
378.58	36.920
378.94	34.624
379.30	36.790
379.66	36.802
380.02	36.238
380.38	36.694
380.74	35.944
381.09	36.992
381.45	36.364
381.81	35.890
382.17	36.580
382.53	35.731
382.89	35.779
383.25	36.342
383.61	36.748
383.97	37.044
384.32	37.500
384.68	36.195
385.04	37.189
385.40	37.537
385.76	37.925
386.12	37.283
386.48	38.471
386.83	37.902
387.19	36.732
387.55	37.617
387.91	37.272
388.27	38.337
388.62	38.316
388.98	36.887
389.34	38.067
389.70	38.117
390.06	37.359
390.42	37.892
390.77	39.434
391.13	37.676
391.49	38.345
391.85	39.333
392.20	38.671
392.56	39.516
392.92	38.659
393.28	39.303
393.64	38.603
393.99	38.989
394.35	39.077
394.71	38.922
395.07	38.982
395.42	38.721
395.78	40.098
396.14	39.335
396.50	38.420
396.85	38.760
397.21	39.586
397.57	39.576
397.92	39.519
398.28	37.968
398.64	38.844
399.00	37.644
399.35	37.435
399.71	38.098
400.07	38.686
400.42	39.988
400.78	39.641
401.14	39.271
401.49	39.966
401.85	39.884
402.21	39.224
402.57	40.082
402.92	38.889
403.28	38.934
403.63	38.604
403.99	38.124
404.35	39.454
404.70	39.150
405.06	38.641
405.42	38.407
405.77	40.022
406.13	39.060
406.49	39.471
406.84	38.504
407.20	38.401
407.55	40.218
407.91	39.032
408.27	38.280
408.62	39.151
408.98	39.756
409.34	38.182
409.69	39.246
410.05	38.980
410.40	39.095
410.76	38.923
411.11	38.925
411.47	40.479
411.83	40.153
412.18	39.880
412.54	38.826
412.89	39.173
413.25	38.657
413.60	39.230
413.96	39.802
414.31	39.490
414.67	39.475
415.03	38.031
415.38	39.344
415.74	38.119
416.09	39.173
416.45	39.011
416.80	39.963
417.16	40.166
417.51	40.162
417.87	39.608
418.22	39.401
418.58	38.786
418.93	40.512
419.29	40.321
419.64	39.616
420.00	39.941
420.35	39.360
420.71	40.264
421.06	39.735
421.42	40.482
421.77	40.065
422.12	39.799
422.48	40.604
422.83	40.307
423.19	40.318
423.54	40.708
423.90	40.254
424.25	40.320
424.61	40.700
424.96	41.021
425.31	40.499
425.67	40.365
426.02	40.620
426.38	40.987
426.73	40.179
427.09	41.061
427.44	41.125
427.79	40.851
428.15	41.610
428.50	41.404
428.85	41.848
429.21	42.553
429.56	41.757
429.92	41.425
430.27	42.843
430.62	41.475
430.98	41.958
431.33	41.838
431.68	40.709
432.04	41.290
432.39	42.528
432.74	41.724
433.10	42.131
433.45	42.085
433.80	42.275
434.16	42.924
434.51	43.165
434.86	43.051
435.22	43.624
435.57	43.750
435.92	42.460
436.28	43.800
436.63	43.910
436.98	42.297
437.34	42.503
437.69	42.488
438.04	42.517
438.39	41.987
438.75	43.331
439.10	43.340
439.45	43.432
439.81	43.785
440.16	42.681
440.51	43.645
440.86	43.246
441.22	44.212
441.57	43.553
441.92	42.677
442.27	43.636
442.63	43.616
442.98	44.344
443.33	43.451
443.68	44.400
444.03	44.732
444.39	44.475
444.74	44.717
445.09	44.856
445.44	45.469
445.79	43.008
446.15	44.142
446.50	44.651
446.85	44.650
447.20	43.907
447.55	45.293
447.91	43.927
448.26	44.820
448.61	44.315
448.96	45.601
449.31	44.751
449.66	43.573
450.02	45.095
450.37	45.285
450.72	44.833
451.07	45.046
451.42	44.772
451.77	44.803
452.12	45.824
452.47	45.573
452.83	46.115
453.18	44.250
453.53	45.146
453.88	44.616
454.23	45.085
454.58	45.038
454.93	46.359
455.28	45.936
455.63	44.116
455.98	44.972
456.34	45.583
456.69	45.503
457.04	46.690
457.39	45.122
457.74	47.148
458.09	46.019
458.44	46.067
458.79	46.467
459.14	45.359
459.49	45.614
459.84	46.118
460.19	45.142
460.54	46.281
460.89	46.903
461.24	45.057
461.59	47.039
461.94	44.039
462.29	46.025
462.64	45.564
462.99	46.328
463.34	47.112
463.69	45.252
464.04	45.748
464.39	46.469
464.74	46.066
465.09	45.156
465.44	45.333
465.79	45.214
466.14	45.440
466.49	46.158
466.84	45.785
467.19	46.879
467.54	44.418
467.89	45.517
468.24	46.870
468.59	45.107
468.94	45.629
469.29	46.131
469.64	45.772
469.99	47.865
470.34	45.978
470.68	45.865
471.03	47.020
471.38	45.716
471.73	46.489
472.08	45.622
472.43	46.839
472.78	45.718
473.13	47.472
473.48	45.680
473.83	46.547
474.17	45.721
474.52	46.422
474.87	45.127
475.22	46.254
475.57	46.054
475.92	45.893
476.27	45.740
476.61	44.652
476.96	45.673
477.31	45.891
477.66	47.429
478.01	45.704
478.36	45.314
478.70	46.404
479.05	47.751
479.40	44.916
479.75	45.869
480.10	46.376
480.45	46.855
480.79	46.213
481.14	45.772
481.49	47.251
481.84	45.953
482.19	47.183
482.53	47.748
482.88	45.636
483.23	46.421
483.58	45.721
483.92	45.035
484.27	45.978
484.62	45.710
484.97	46.112
485.31	46.146
485.66	46.314
486.01	45.411
486.36	45.263
486.70	45.568
487.05	45.781
487.40	45.925
487.75	46.260
488.09	46.097
488.44	45.592
488.79	46.678
489.13	46.850
489.48	45.709
489.83	45.151
490.17	45.322
490.52	45.320
490.87	46.235
491.22	46.750
491.56	46.672
491.91	46.489
492.26	45.781
492.60	45.387
492.95	45.283
493.30	46.885
493.64	45.905
493.99	46.096
494.34	46.167
494.68	45.139
495.03	46.079
495.37	46.383
495.72	45.624
496.07	45.223
496.41	46.418
496.76	45.913
497.11	46.454
497.45	45.576
497.80	45.669
498.14	44.943
498.49	46.232
498.84	47.166
499.18	45.164
499.53	45.247
499.87	45.802
500.22	44.924
500.56	45.569
500.91	46.407
501.26	47.091
501.60	46.487
501.95	45.983
502.29	45.459
502.64	46.436
502.98	45.298
503.33	45.443
503.67	46.010
504.02	46.235
504.36	46.113
504.71	46.119
505.06	45.384
505.40	46.344
505.75	46.175
506.09	46.409
506.44	46.425
506.78	46.560
507.13	45.920
507.47	46.802
507.82	45.691
508.16	45.841
508.51	46.085
508.85	46.056
509.19	47.750
509.54	46.734
509.88	45.556
510.23	47.790
510.57	47.753
510.92	46.541
511.26	45.936
511.61	44.713
511.95	46.755
512.30	46.233
512.64	45.627
512.98	47.224
513.33	47.379
513.67	45.844
514.02	46.653
514.36	46.138
514.70	46.719
515.05	47.341
515.39	46.404
515.74	46.288
516.08	46.751
516.42	47.567
516.77	47.056
517.11	46.158
517.46	47.455
517.80	47.996
518.14	47.280
518.49	47.560
518.83	45.663
519.17	46.419
519.52	45.755
519.86	45.618
520.20	46.805
520.55	46.112
520.89	46.678
521.23	46.399
521.58	46.836
521.92	46.346
522.26	46.220
522.61	47.454
522.95	46.655
523.29	46.494
523.64	46.357
523.98	47.690
524.32	47.278
524.66	47.638
525.01	46.659
525.35	46.008
525.69	45.940
526.04	45.637
526.38	46.782
526.72	46.194
527.06	47.038
527.41	47.230
527.75	48.159
528.09	46.576
528.43	46.240
528.78	46.127
529.12	46.961
529.46	46.374
529.80	47.540
530.15	46.783
530.49	46.679
530.83	46.340
531.17	47.252
531.51	46.149
531.86	47.356
532.20	47.378
532.54	46.080
532.88	45.939
533.22	46.435
533.57	45.643
533.91	46.352
534.25	45.562
534.59	46.609
534.93	46.123
535.27	46.986
535.62	47.413
535.96	46.310
536.30	47.180
536.64	46.246
536.98	48.093
537.32	47.037
537.66	47.723
538.01	45.861
538.35	45.798
538.69	45.613
539.03	47.026
539.37	46.113
539.71	46.967
540.05	46.283
540.39	46.516
540.73	45.841
541.07	46.291
541.42	45.600
541.76	45.611
542.10	44.873
542.44	46.163
542.78	47.506
543.12	45.113
543.46	45.971
543.80	45.384
544.14	46.320
544.48	46.099
544.82	46.918
545.16	46.094
545.50	46.794
545.84	44.642
546.18	47.346
546.52	46.051
546.86	46.226
547.20	46.692
547.54	46.317
547.88	46.112
548.22	45.322
548.56	45.699
548.90	46.030
549.24	46.991
549.58	45.931
549.92	46.429
550.26	46.343
550.60	47.224
550.94	46.507
551.28	46.139
551.62	46.159
551.96	45.631
552.30	46.272
552.64	46.546
552.98	46.725
553.32	47.010
553.66	46.881
554.00	46.406
554.34	46.847
554.68	45.707
555.02	46.255
555.36	46.614
555.69	45.804
556.03	46.469
556.37	46.871
556.71	48.003
557.05	46.773
557.39	46.251
557.73	47.160
558.07	46.821
558.41	48.306
558.75	47.667
559.08	46.277
559.42	45.748
559.76	46.540
560.10	46.149
560.44	45.317
560.78	46.750
561.12	46.244
561.45	47.202
561.79	47.253
562.13	47.012
562.47	45.253
562.81	45.570
563.15	46.970
563.48	47.359
563.82	46.252
564.16	46.760
564.50	46.305
564.84	46.195
565.17	46.588
565.51	46.951
565.85	47.209
566.19	45.910
566.52	46.109
566.86	46.520
567.20	47.254
567.54	46.681
567.88	46.942
568.21	46.393
568.55	46.571
568.89	46.346
569.23	46.303
569.56	46.503
569.90	46.614
570.24	46.037
570.57	45.895
570.91	44.979
571.25	44.952
571.59	45.505
571.92	45.922
572.26	45.765
572.60	46.301
572.93	45.143
573.27	45.856
573.61	45.289
573.95	45.278
574.28	44.686
574.62	45.157
574.96	44.663
575.29	44.746
575.63	44.560
575.97	44.766
576.30	44.979
576.64	45.311
576.98	45.900
577.31	44.853
577.65	45.852
577.98	46.028
578.32	45.027
578.66	45.345
578.99	44.911
579.33	44.864
579.67	45.331
580.00	45.561
580.34	45.092
580.67	45.168
581.01	45.954
581.35	45.295
581.68	45.235
582.02	45.440
582.35	45.659
582.69	46.100
583.02	45.281
583.36	45.554
583.70	46.603
584.03	45.380
584.37	45.594
584.70	44.597
585.04	45.664
585.37	45.515
585.71	45.200
586.04	44.870
586.38	45.404
586.72	45.174
587.05	45.638
587.39	45.625
587.72	45.718
588.06	45.817
588.39	45.233
588.73	46.085
589.06	46.473
589.40	46.650
589.73	46.626
590.07	46.386
590.40	46.484
590.73	45.741
591.07	47.506
591.40	45.879
591.74	46.383
592.07	46.204
592.41	46.412
592.74	45.474
593.08	46.783
593.41	46.253
593.75	46.178
594.08	45.653
594.41	45.865
594.75	45.566
595.08	46.433
595.42	46.201
595.75	45.786
596.09	46.222
596.42	46.292
596.75	46.932
597.09	47.192
597.42	46.087
597.75	45.708
598.09	45.833
598.42	46.240
598.76	45.510
599.09	46.102
599.42	45.290
599.76	45.659
600.09	46.079
600.42	45.579
600.76	45.971
601.09	44.739
601.42	45.589
601.76	46.586
602.09	45.533
602.42	45.583
602.76	45.572
603.09	46.696
603.42	46.171
603.76	45.807
604.09	46.842
604.42	46.165
604.76	45.662
605.09	46.071
605.42	46.172
605.75	45.346
606.09	45.315
606.42	45.239
606.75	44.940
607.09	45.238
607.42	44.701
607.75	45.565
608.08	46.014
608.42	45.385
608.75	45.522
609.08	45.756
609.41	46.449
609.75	46.027
610.08	47.054
610.41	45.285
610.74	46.050
611.07	45.870
611.41	46.502
611.74	45.820
612.07	45.769
612.40	46.055
612.73	46.161
613.07	46.210
613.40	46.487
613.73	46.750
614.06	46.909
614.39	45.384
614.72	45.221
615.06	44.803
615.39	45.239
615.72	46.256
616.05	45.556
616.38	47.477
616.71	45.925
617.05	46.326
617.38	46.281
617.71	47.192
618.04	45.602
618.37	46.831
618.70	46.663
619.03	46.177
619.36	46.301
619.69	47.085
620.03	45.198
620.36	46.319
620.69	45.651
621.02	46.654
621.35	48.186
621.68	47.505
622.01	46.263
622.34	45.886
622.67	46.323
623.00	45.074
623.33	46.715
623.66	46.757
623.99	45.425
624.32	47.303
624.65	46.396
624.99	45.059
625.32	47.093
625.65	46.662
625.98	44.475
626.31	46.137
626.64	46.300
626.97	46.887
627.30	47.077
627.63	45.086
627.96	46.697
628.29	46.304
628.62	46.012
628.95	46.188
629.28	45.879
629.61	47.391
629.94	47.280
630.26	44.746
630.59	47.237
630.92	45.455
631.25	47.585
631.58	46.987
631.91	47.048
632.24	47.646
632.57	46.015
632.90	47.141
