SpectraSuite Data File
++++++++++++++++++++++++++++++++++++
Date: Thu May 14 14:56:10 PDT 2015
User: schluterlab
Dark Spectrum Present: Yes
Reference Spectrum Present: Yes
Number of Sampled Component Spectra: 1
Spectrometers: USB2E3373
Integration Time (usec): 3000 (USB2E3373)
Spectra Averaged: 3 (USB2E3373)
Boxcar Smoothing: 0 (USB2E3373)
Correct for Electrical Dark: No (USB2E3373)
Strobe/Lamp Enabled: No (USB2E3373)
Correct for Detector Non-linearity: No (USB2E3373)
Correct for Stray Light: No (USB2E3373)
Number of Pixels in Processed Spectrum: 2048
>>>>>Begin Processed Spectral Data<<<<<
178.53	0.000
178.91	242.857
179.29	-2500.000
179.67	-1900.000
180.04	235.714
180.42	160.000
180.80	500.000
181.18	-2400.000
181.56	-1900.000
181.94	475.000
182.31	-500.000
182.69	900.000
183.07	-500.000
183.45	400.000
183.83	-250.000
184.20	-666.667
184.58	1900.000
184.96	-500.000
185.34	-133.333
185.72	-160.000
186.09	322.222
186.47	1150.000
186.85	440.000
187.23	-233.333
187.61	-2000.000
187.98	160.000
188.36	675.000
188.74	-600.000
189.12	-400.000
189.49	-31.250
189.87	-137.500
190.25	-166.667
190.63	-240.000
191.00	-311.111
191.38	0.000
191.76	-525.000
192.14	-383.333
192.51	950.000
192.89	-300.000
193.27	0.000
193.65	-314.286
194.02	-2000.000
194.40	-271.429
194.78	300.000
195.15	0.000
195.53	-118.182
195.91	0.000
196.29	-225.000
196.66	-107.692
197.04	-1700.000
197.42	-300.000
197.79	-850.000
198.17	-125.000
198.55	-214.286
198.92	-133.333
199.30	-250.000
199.68	-172.727
200.05	-121.429
200.43	-1000.000
200.81	328.571
201.18	0.000
201.56	388.889
201.94	0.000
202.31	866.667
202.69	-288.889
203.07	1300.000
203.44	-188.889
203.82	-625.000
204.19	-133.333
204.57	-366.667
204.95	-212.500
205.32	-2000.000
205.70	425.000
206.08	-300.000
206.45	-166.667
206.83	560.000
207.20	-350.000
207.58	-460.000
207.96	-383.333
208.33	-183.333
208.71	241.667
209.08	-133.333
209.46	0.000
209.84	566.667
210.21	1100.000
210.59	1150.000
210.96	700.000
211.34	-375.000
211.71	-212.500
212.09	-2000.000
212.46	0.000
212.84	1300.000
213.22	-480.000
213.59	-475.000
213.97	-130.000
214.34	-400.000
214.72	300.000
215.09	-475.000
215.47	0.000
215.84	357.143
216.22	1750.000
216.59	-300.000
216.97	-460.000
217.34	-500.000
217.72	-225.000
218.09	-425.000
218.47	-500.000
218.84	0.000
219.22	420.000
219.59	-123.529
219.97	-45.000
220.34	1250.000
220.72	-166.667
221.09	-153.846
221.47	-500.000
221.84	-140.000
222.22	-285.714
222.59	0.000
222.97	-225.000
223.34	-400.000
223.72	-2500.000
224.09	-675.000
224.46	-600.000
224.84	-340.000
225.21	-328.571
225.59	-875.000
225.96	-500.000
226.34	-46.154
226.71	383.333
227.08	-1050.000
227.46	-126.667
227.83	-275.000
228.21	0.000
228.58	262.500
228.95	900.000
229.33	-116.667
229.70	-160.000
230.08	15.789
230.45	190.000
230.82	-666.667
231.20	-71.429
231.57	-91.667
231.95	-181.818
232.32	-145.455
232.69	-90.000
233.07	-325.000
233.44	-76.471
233.81	-160.000
234.19	-72.222
234.56	-86.364
234.93	-13.793
235.31	-84.211
235.68	-50.000
236.05	-70.000
236.43	-30.769
236.80	-32.000
237.17	-44.444
237.55	-51.515
237.92	-310.000
238.29	-38.710
238.67	-45.455
239.04	-58.333
239.41	-33.333
239.79	-43.478
240.16	-38.889
240.53	-30.435
240.91	-31.373
241.28	-18.033
241.65	-16.418
242.02	-21.622
242.40	-33.846
242.77	-24.000
243.14	-19.512
243.51	-38.158
243.89	-33.333
244.26	-13.861
244.63	-9.804
245.00	-14.953
245.38	-23.684
245.75	-23.009
246.12	-10.317
246.49	-17.829
246.87	-4.286
247.24	-9.934
247.61	-5.263
247.98	-11.409
248.36	-11.111
248.73	-10.429
249.10	-10.929
249.47	0.995
249.84	-1.047
250.22	-10.881
250.59	-7.778
250.96	-1.818
251.33	-13.265
251.70	0.000
252.08	-5.000
252.45	-4.508
252.82	-8.264
253.19	-5.078
253.56	-3.802
253.94	-4.231
254.31	-1.136
254.68	-3.497
255.05	-0.651
255.42	-4.422
255.79	-2.265
256.16	-1.656
256.54	-5.629
256.91	-2.951
257.28	-3.607
257.65	-7.325
258.02	-2.950
258.39	0.000
258.76	-2.141
259.14	0.287
259.51	-2.017
259.88	-2.266
260.25	-3.611
260.62	-0.822
260.99	0.273
261.36	2.681
261.73	-3.714
262.10	-4.121
262.47	-3.753
262.85	1.768
263.22	-3.636
263.59	-4.211
263.96	0.256
264.33	-4.092
264.70	0.741
265.07	0.477
265.44	0.680
265.81	-3.472
266.18	-0.227
266.55	-1.116
266.92	-0.911
267.29	2.845
267.66	0.665
268.03	-1.310
268.40	0.000
268.77	-2.961
269.14	-3.524
269.51	-1.754
269.88	1.025
270.25	-0.201
270.62	-0.211
270.99	0.808
271.36	0.000
271.73	2.554
272.10	0.401
272.47	-0.802
272.84	0.000
273.21	-1.603
273.58	0.000
273.95	-0.962
274.32	-0.570
274.69	-0.580
275.06	1.282
275.43	-2.033
275.80	0.353
276.17	-1.111
276.54	1.119
276.91	-0.894
277.28	-1.085
277.65	0.180
278.02	1.103
278.39	-0.725
278.76	-1.582
279.13	0.177
279.50	1.031
279.87	0.179
280.23	-3.521
280.60	1.864
280.97	-0.987
281.34	-1.528
281.71	1.015
282.08	0.166
282.45	-0.327
282.82	0.942
283.19	-0.162
283.56	-0.656
283.92	1.802
284.29	1.422
284.66	0.821
285.03	-2.083
285.40	0.464
285.77	-0.619
286.14	1.527
286.51	-1.370
286.87	-0.790
287.24	0.452
287.61	-0.448
287.98	-0.906
288.35	0.148
288.72	0.740
289.08	1.025
289.45	-0.296
289.82	0.301
290.19	0.000
290.56	1.831
290.93	-0.428
291.29	-0.138
291.66	1.102
292.03	0.000
292.40	1.361
292.77	1.887
293.13	1.624
293.50	0.526
293.87	1.074
294.24	2.133
294.60	2.149
294.97	1.074
295.34	3.073
295.71	0.883
296.08	0.258
296.44	1.716
296.81	1.096
297.18	1.121
297.55	0.708
297.91	1.068
298.28	-0.711
298.65	1.070
299.02	0.590
299.38	1.030
299.75	2.570
300.12	0.694
300.48	1.267
300.85	1.350
301.22	2.013
301.59	1.484
301.95	2.147
302.32	2.667
302.69	2.410
303.05	2.829
303.42	2.439
303.79	2.396
304.15	2.419
304.52	1.163
304.89	1.885
305.25	2.070
305.62	2.403
305.99	2.474
306.35	2.117
306.72	1.344
307.09	2.030
307.45	2.174
307.82	2.220
308.19	2.523
308.55	2.989
308.92	1.850
309.29	3.161
309.65	1.657
310.02	1.584
310.38	2.067
310.75	3.107
311.12	3.260
311.48	1.955
311.85	2.184
312.22	2.657
312.58	2.629
312.95	1.721
313.31	1.897
313.68	3.571
314.05	3.433
314.41	3.734
314.78	2.997
315.14	2.450
315.51	3.416
315.87	3.960
316.24	2.557
316.61	3.286
316.97	2.081
317.34	2.469
317.70	3.406
318.07	3.351
318.43	4.592
318.80	4.599
319.16	3.090
319.53	2.228
319.89	2.279
320.26	3.381
320.62	3.723
320.99	3.878
321.35	3.420
321.72	2.884
322.08	2.164
322.45	3.162
322.81	4.152
323.18	3.628
323.54	3.534
323.91	4.270
324.27	4.733
324.64	4.870
325.00	3.980
325.37	4.095
325.73	4.298
326.10	3.974
326.46	5.049
326.83	5.044
327.19	5.512
327.56	5.138
327.92	5.114
328.29	3.790
328.65	4.020
329.01	4.907
329.38	5.307
329.74	5.479
330.11	5.394
330.47	5.644
330.84	4.565
331.20	5.083
331.56	5.373
331.93	4.268
332.29	5.678
332.66	5.316
333.02	4.941
333.38	4.279
333.75	5.471
334.11	5.838
334.48	5.776
334.84	5.777
335.20	5.290
335.57	5.818
335.93	4.876
336.29	4.908
336.66	5.299
337.02	5.686
337.38	6.207
337.75	6.364
338.11	5.719
338.47	5.873
338.84	5.584
339.20	3.791
339.56	6.343
339.93	5.911
340.29	5.636
340.65	5.839
341.02	7.023
341.38	6.386
341.74	6.053
342.11	6.114
342.47	5.004
342.83	6.280
343.20	6.705
343.56	5.052
343.92	5.925
344.28	5.391
344.65	5.891
345.01	6.006
345.37	6.376
345.73	4.910
346.10	6.162
346.46	5.380
346.82	6.742
347.19	6.494
347.55	7.208
347.91	5.423
348.27	5.690
348.63	6.778
349.00	4.922
349.36	6.320
349.72	5.952
350.08	6.538
350.45	5.323
350.81	5.656
351.17	6.090
351.53	5.914
351.89	5.923
352.26	6.194
352.62	6.418
352.98	5.344
353.34	6.049
353.70	5.393
354.07	6.483
354.43	5.543
354.79	6.133
355.15	6.107
355.51	7.310
355.87	5.684
356.24	5.779
356.60	5.322
356.96	6.227
357.32	5.948
357.68	5.710
358.04	6.362
358.40	5.970
358.77	5.921
359.13	6.499
359.49	5.279
359.85	6.381
360.21	6.958
360.57	6.102
360.93	6.135
361.29	6.807
361.66	6.300
362.02	6.959
362.38	6.184
362.74	5.447
363.10	6.327
363.46	6.579
363.82	6.392
364.18	6.615
364.54	6.501
364.90	6.020
365.26	5.448
365.62	6.400
365.98	6.739
366.35	6.443
366.71	6.190
367.07	6.022
367.43	6.369
367.79	6.569
368.15	6.555
368.51	6.360
368.87	6.466
369.23	6.600
369.59	6.762
369.95	7.032
370.31	6.955
370.67	6.259
371.03	6.925
371.39	5.977
371.75	7.015
372.11	6.640
372.47	6.703
372.83	7.134
373.19	6.604
373.55	5.488
373.91	5.930
374.27	7.633
374.63	7.442
374.99	5.968
375.35	7.273
375.71	6.839
376.07	7.295
376.42	6.612
376.78	6.961
377.14	7.299
377.50	6.894
377.86	7.759
378.22	6.587
378.58	7.075
378.94	7.218
379.30	6.561
379.66	8.054
380.02	7.617
380.38	7.546
380.74	8.056
381.09	7.607
381.45	8.125
381.81	7.787
382.17	7.363
382.53	7.719
382.89	7.506
383.25	6.800
383.61	7.350
383.97	8.009
384.32	7.536
384.68	6.961
385.04	8.039
385.40	8.603
385.76	8.265
386.12	7.121
386.48	8.412
386.83	8.582
387.19	7.300
387.55	7.570
387.91	8.219
388.27	8.314
388.62	7.617
388.98	8.235
389.34	8.014
389.70	7.786
390.06	8.407
390.42	7.349
390.77	8.850
391.13	7.864
391.49	8.031
391.85	7.273
392.20	8.066
392.56	8.565
392.92	7.961
393.28	7.850
393.64	7.486
393.99	8.077
394.35	8.528
394.71	8.503
395.07	7.665
395.42	8.281
395.78	8.410
396.14	8.556
396.50	7.482
396.85	8.050
397.21	8.284
397.57	8.009
397.92	7.847
398.28	8.093
398.64	7.780
399.00	7.277
399.35	8.168
399.71	7.663
400.07	7.580
400.42	8.265
400.78	7.812
401.14	7.854
401.49	8.016
401.85	7.849
402.21	7.590
402.57	8.216
402.92	8.274
403.28	7.377
403.63	7.220
403.99	7.363
404.35	7.732
404.70	8.272
405.06	8.098
405.42	7.845
405.77	8.724
406.13	8.698
406.49	7.658
406.84	7.756
407.20	8.273
407.55	8.237
407.91	7.228
408.27	7.833
408.62	8.610
408.98	7.951
409.34	6.686
409.69	7.602
410.05	8.324
410.40	7.889
410.76	8.581
411.11	7.306
411.47	7.924
411.83	8.054
412.18	7.952
412.54	7.884
412.89	7.742
413.25	6.941
413.60	7.352
413.96	8.392
414.31	8.385
414.67	7.812
415.03	8.000
415.38	6.431
415.74	6.781
416.09	8.513
416.45	7.451
416.80	7.344
417.16	7.407
417.51	8.157
417.87	7.787
418.22	6.886
418.58	6.629
418.93	8.149
419.29	7.583
419.64	7.263
420.00	7.240
420.35	7.805
420.71	6.720
421.06	7.188
421.42	6.651
421.77	7.054
422.12	8.245
422.48	6.810
422.83	7.065
423.19	7.162
423.54	7.522
423.90	7.068
424.25	7.947
424.61	6.659
424.96	6.864
425.31	8.068
425.67	6.817
426.02	6.973
426.38	6.487
426.73	7.533
427.09	8.074
427.44	6.390
427.79	7.076
428.15	6.678
428.50	7.472
428.85	7.118
429.21	7.926
429.56	6.614
429.92	6.634
430.27	7.518
430.62	7.230
430.98	6.690
431.33	7.234
431.68	6.753
432.04	6.653
432.39	6.856
432.74	7.192
433.10	7.355
433.45	6.577
433.80	7.028
434.16	6.973
434.51	6.578
434.86	6.623
435.22	6.482
435.57	7.429
435.92	6.678
436.28	6.940
436.63	6.608
436.98	6.871
437.34	6.708
437.69	6.439
438.04	6.875
438.39	6.605
438.75	5.755
439.10	7.135
439.45	6.652
439.81	6.667
440.16	6.166
440.51	6.745
440.86	6.948
441.22	6.699
441.57	6.971
441.92	7.177
442.27	6.919
442.63	7.452
442.98	6.564
443.33	7.628
443.68	7.185
444.03	7.244
444.39	6.519
444.74	7.810
445.09	6.082
445.44	6.375
445.79	7.280
446.15	6.835
446.50	7.080
446.85	6.615
447.20	6.190
447.55	6.695
447.91	6.649
448.26	5.973
448.61	6.164
448.96	7.189
449.31	6.681
449.66	5.937
450.02	6.435
450.37	7.192
450.72	6.405
451.07	6.720
451.42	6.470
451.77	6.337
452.12	7.054
452.47	6.536
452.83	6.700
453.18	6.421
453.53	6.261
453.88	6.516
454.23	6.667
454.58	6.790
454.93	6.068
455.28	6.743
455.63	6.652
455.98	6.648
456.34	5.536
456.69	6.467
457.04	6.442
457.39	6.596
457.74	6.935
458.09	6.370
458.44	7.058
458.79	5.982
459.14	5.926
459.49	6.565
459.84	6.401
460.19	5.775
460.54	6.644
460.89	5.823
461.24	5.517
461.59	7.028
461.94	5.876
462.29	6.607
462.64	5.673
462.99	6.026
463.34	5.970
463.69	6.800
464.04	7.282
464.39	6.390
464.74	6.784
465.09	6.055
465.44	6.652
465.79	6.293
466.14	6.305
466.49	6.000
466.84	6.006
467.19	6.474
467.54	5.934
467.89	5.862
468.24	7.091
468.59	5.964
468.94	6.119
469.29	5.759
469.64	5.785
469.99	5.609
470.34	5.507
470.68	5.810
471.03	5.959
471.38	5.625
471.73	6.177
472.08	6.028
472.43	6.442
472.78	6.549
473.13	5.689
473.48	5.921
473.83	5.978
474.17	5.920
474.52	6.073
474.87	6.146
475.22	6.479
475.57	6.127
475.92	6.421
476.27	6.230
476.61	5.711
476.96	5.944
477.31	6.683
477.66	6.716
478.01	5.999
478.36	6.431
478.70	6.650
479.05	6.646
479.40	6.219
479.75	6.340
480.10	6.442
480.45	6.700
480.79	5.896
481.14	6.847
481.49	6.179
481.84	6.658
482.19	6.409
482.53	6.559
482.88	6.203
483.23	6.492
483.58	6.070
483.92	6.161
484.27	6.478
484.62	6.848
484.97	6.921
485.31	5.385
485.66	6.157
486.01	6.168
486.36	6.123
486.70	6.455
487.05	6.874
487.40	6.965
487.75	6.972
488.09	6.622
488.44	6.843
488.79	7.015
489.13	6.119
489.48	5.981
489.83	6.157
490.17	5.792
490.52	6.281
490.87	6.091
491.22	5.633
491.56	6.613
491.91	6.149
492.26	6.101
492.60	6.340
492.95	6.538
493.30	5.558
493.64	6.351
493.99	6.667
494.34	5.575
494.68	5.910
495.03	5.991
495.37	6.214
495.72	5.986
496.07	6.442
496.41	5.577
496.76	6.464
497.11	5.860
497.45	6.085
497.80	7.064
498.14	6.259
498.49	5.561
498.84	5.804
499.18	6.118
499.53	6.368
499.87	5.802
500.22	5.833
500.56	5.938
500.91	6.316
501.26	6.636
501.60	5.700
501.95	6.687
502.29	5.880
502.64	5.684
502.98	6.816
503.33	6.350
503.67	5.844
504.02	6.349
504.36	6.122
504.71	5.834
505.06	6.230
505.40	6.810
505.75	6.512
506.09	6.584
506.44	6.128
506.78	5.826
507.13	6.408
507.47	6.111
507.82	6.534
508.16	5.593
508.51	5.532
508.85	5.905
509.19	6.916
509.54	6.292
509.88	5.974
510.23	6.848
510.57	6.767
510.92	6.821
511.26	6.686
511.61	5.794
511.95	6.540
512.30	6.204
512.64	6.197
512.98	7.054
513.33	6.502
513.67	5.813
514.02	6.387
514.36	6.598
514.70	5.729
515.05	6.674
515.39	7.297
515.74	6.681
516.08	6.550
516.42	7.117
516.77	6.782
517.11	6.137
517.46	6.522
517.80	6.681
518.14	6.910
518.49	6.725
518.83	6.812
519.17	6.354
519.52	6.971
519.86	6.969
520.20	6.603
520.55	6.462
520.89	7.151
521.23	7.203
521.58	7.119
521.92	6.459
522.26	6.300
522.61	6.019
522.95	6.401
523.29	6.782
523.64	7.007
523.98	6.959
524.32	7.450
524.66	6.944
525.01	6.625
525.35	6.261
525.69	6.206
526.04	6.142
526.38	6.437
526.72	6.747
527.06	6.745
527.41	6.706
527.75	7.482
528.09	7.733
528.43	6.572
528.78	6.185
529.12	5.963
529.46	6.802
529.80	6.808
530.15	6.493
530.49	6.465
530.83	6.139
531.17	6.571
531.51	6.859
531.86	6.791
532.20	7.317
532.54	7.062
532.88	6.061
533.22	7.189
533.57	7.040
533.91	6.397
534.25	7.292
534.59	6.552
534.93	6.565
535.27	6.592
535.62	7.504
535.96	7.496
536.30	6.816
536.64	7.387
536.98	6.888
537.32	6.667
537.66	6.800
538.01	7.492
538.35	7.552
538.69	6.010
539.03	7.051
539.37	7.597
539.71	6.607
540.05	7.374
540.39	6.968
540.73	6.436
541.07	6.499
541.42	7.147
541.76	6.524
542.10	6.876
542.44	6.151
542.78	6.448
543.12	6.615
543.46	6.960
543.80	5.635
544.14	6.284
544.48	7.092
544.82	6.942
545.16	6.440
545.50	6.291
545.84	6.307
546.18	7.654
546.52	6.879
546.86	6.415
547.20	6.743
547.54	4.931
547.88	6.269
548.22	7.018
548.56	6.554
548.90	6.687
549.24	7.173
549.58	6.498
549.92	6.633
550.26	6.926
550.60	6.382
550.94	6.856
551.28	6.865
551.62	6.873
551.96	6.408
552.30	7.266
552.64	6.721
552.98	6.363
553.32	7.010
553.66	6.688
554.00	6.305
554.34	6.371
554.68	6.133
555.02	6.965
555.36	6.969
555.69	5.573
556.03	5.485
556.37	6.821
556.71	7.356
557.05	7.157
557.39	6.238
557.73	6.077
558.07	5.166
558.41	7.243
558.75	6.220
559.08	6.054
559.42	6.722
559.76	6.649
560.10	6.229
560.44	6.003
560.78	6.750
561.12	6.219
561.45	6.387
561.79	6.899
562.13	6.593
562.47	5.980
562.81	5.949
563.15	5.997
563.48	6.526
563.82	6.590
564.16	6.299
564.50	6.257
564.84	5.900
565.17	6.706
565.51	6.041
565.85	5.819
566.19	5.933
566.52	5.968
566.86	5.886
567.20	6.199
567.54	5.523
567.88	6.116
568.21	4.990
568.55	5.755
568.89	6.627
569.23	6.591
569.56	6.213
569.90	5.987
570.24	6.037
570.57	6.222
570.91	5.818
571.25	6.422
571.59	6.568
571.92	6.370
572.26	6.273
572.60	6.061
572.93	6.763
573.27	6.322
573.61	6.882
573.95	6.482
574.28	6.377
574.62	6.094
574.96	6.087
575.29	6.103
575.63	6.422
575.97	6.683
576.30	6.415
576.64	6.347
576.98	5.945
577.31	6.505
577.65	6.149
577.98	6.344
578.32	6.270
578.66	6.332
578.99	6.471
579.33	6.336
579.67	6.301
580.00	6.249
580.34	6.545
580.67	6.267
581.01	6.253
581.35	6.312
581.68	6.335
582.02	6.254
582.35	6.708
582.69	6.226
583.02	6.522
583.36	6.552
583.70	6.430
584.03	6.407
584.37	6.492
584.70	6.308
585.04	5.720
585.37	6.164
585.71	6.365
586.04	5.923
586.38	6.198
586.72	5.891
587.05	5.935
587.39	6.058
587.72	6.411
588.06	6.697
588.39	6.248
588.73	6.032
589.06	6.321
589.40	5.685
589.73	6.266
590.07	6.631
590.40	6.356
590.73	6.257
591.07	6.366
591.40	5.793
591.74	5.962
592.07	6.171
592.41	5.678
592.74	5.857
593.08	6.242
593.41	6.533
593.75	6.063
594.08	5.877
594.41	5.897
594.75	5.978
595.08	6.090
595.42	6.364
595.75	6.296
596.09	6.201
596.42	5.769
596.75	6.214
597.09	6.061
597.42	5.920
597.75	5.762
598.09	6.468
598.42	6.594
598.76	5.846
599.09	5.838
599.42	6.001
599.76	5.744
600.09	6.173
600.42	6.139
600.76	5.945
601.09	6.472
601.42	5.596
601.76	6.034
602.09	6.112
602.42	5.671
602.76	5.978
603.09	6.057
603.42	5.672
603.76	5.215
604.09	6.636
604.42	5.688
604.76	5.632
605.09	6.741
605.42	6.100
605.75	5.577
606.09	5.972
606.42	5.290
606.75	5.547
607.09	5.645
607.42	5.819
607.75	6.174
608.08	5.406
608.42	6.086
608.75	6.177
609.08	5.730
609.41	5.823
609.75	5.804
610.08	5.761
610.41	5.310
610.74	5.798
611.07	5.506
611.41	6.413
611.74	5.774
612.07	5.891
612.40	5.371
612.73	5.428
613.07	5.672
613.40	6.449
613.73	6.115
614.06	5.937
614.39	5.685
614.72	5.628
615.06	5.486
615.39	4.785
615.72	5.687
616.05	6.071
616.38	6.357
616.71	6.374
617.05	5.059
617.38	6.100
617.71	5.724
618.04	5.882
618.37	5.956
618.70	5.826
619.03	4.600
619.36	5.179
619.69	5.509
620.03	5.022
620.36	4.110
620.69	5.305
621.02	5.315
621.35	4.790
621.68	6.435
622.01	5.552
622.34	5.300
622.67	5.292
623.00	4.656
623.33	5.441
623.66	5.966
623.99	4.674
624.32	6.303
624.65	4.698
624.99	5.202
625.32	6.270
625.65	5.597
625.98	5.085
626.31	5.103
626.64	5.275
626.97	4.651
627.30	4.784
627.63	5.401
627.96	5.480
628.29	5.525
628.62	5.038
628.95	4.032
629.28	4.588
629.61	4.293
629.94	4.184
630.26	4.153
630.59	5.354
630.92	4.762
631.25	5.993
631.58	5.838
631.91	4.405
632.24	3.650
632.57	5.598
632.90	4.313
633.23	4.592
633.56	4.898
633.89	4.545
634.22	5.717
634.55	4.280
634.88	4.870
635.20	5.167
635.53	3.051
635.86	4.334
636.19	5.832
636.52	5.063
636.85	4.392
637.18	5.405
637.51	4.086
637.83	5.094
638.16	4.608
638.49	3.991
638.82	4.171
639.15	5.040
639.48	6.005
639.81	4.965
640.13	4.947
640.46	3.758
640.79	3.309
641.12	3.354
641.45	4.642
641.77	5.520
642.10	4.331
642.43	5.984
642.76	4.472
643.09	3.151
643.41	2.801
643.74	4.138
644.07	5.379
644.40	5.092
644.73	4.644
645.05	3.231
645.38	3.165
645.71	3.372
646.04	5.595
646.36	3.358
646.69	4.141
647.02	6.116
647.35	5.191
647.67	4.348
648.00	3.981
648.33	5.405
648.66	4.137
648.98	4.354
649.31	3.924
649.64	4.781
649.96	5.040
650.29	3.060
650.62	3.960
650.94	2.102
651.27	2.695
651.60	3.509
651.92	4.863
652.25	6.078
652.58	4.264
652.90	1.017
653.23	4.648
653.56	4.850
653.88	6.039
654.21	4.507
