SpectraSuite Data File
++++++++++++++++++++++++++++++++++++
Date: Thu May 14 15:17:21 PDT 2015
User: schluterlab
Dark Spectrum Present: Yes
Reference Spectrum Present: Yes
Number of Sampled Component Spectra: 1
Spectrometers: USB2E3373
Integration Time (usec): 3000 (USB2E3373)
Spectra Averaged: 3 (USB2E3373)
Boxcar Smoothing: 0 (USB2E3373)
Correct for Electrical Dark: No (USB2E3373)
Strobe/Lamp Enabled: No (USB2E3373)
Correct for Detector Non-linearity: No (USB2E3373)
Correct for Stray Light: No (USB2E3373)
Number of Pixels in Processed Spectrum: 2048
>>>>>Begin Processed Spectral Data<<<<<
178.53	0.000
178.91	571.429
179.29	-4500.000
179.67	-3800.000
180.04	385.714
180.42	380.000
180.80	740.000
181.18	-3900.000
181.56	-3100.000
181.94	975.000
182.31	-1075.000
182.69	1466.667
183.07	-1650.000
183.45	950.000
183.83	-733.333
184.20	-1133.333
184.58	3900.000
184.96	-1100.000
185.34	-500.000
185.72	-500.000
186.09	511.111
186.47	1850.000
186.85	1020.000
187.23	-511.111
187.61	-4900.000
187.98	860.000
188.36	1200.000
188.74	-1075.000
189.12	-1500.000
189.49	-225.000
189.87	-525.000
190.25	-466.667
190.63	-780.000
191.00	-455.556
191.38	0.000
191.76	-1225.000
192.14	-516.667
192.51	1650.000
192.89	-650.000
193.27	0.000
193.65	-485.714
194.02	-4400.000
194.40	-571.429
194.78	600.000
195.15	0.000
195.53	-327.273
195.91	0.000
196.29	-800.000
196.66	-315.385
197.04	-4900.000
197.42	-542.857
197.79	-1900.000
198.17	-387.500
198.55	-571.429
198.92	-366.667
199.30	-500.000
199.68	-336.364
200.05	-300.000
200.43	-1950.000
200.81	671.429
201.18	0.000
201.56	588.889
201.94	0.000
202.31	1566.667
202.69	-411.111
203.07	3200.000
203.44	-377.778
203.82	-950.000
204.19	-316.667
204.57	-616.667
204.95	-475.000
205.32	-4200.000
205.70	1025.000
206.08	-600.000
206.45	-516.667
206.83	900.000
207.20	-516.667
207.58	-880.000
207.96	-616.667
208.33	-516.667
208.71	341.667
209.08	-566.667
209.46	0.000
209.84	883.333
210.21	2000.000
210.59	1900.000
210.96	1533.333
211.34	-900.000
211.71	-425.000
212.09	-5100.000
212.46	0.000
212.84	2650.000
213.22	-740.000
213.59	-850.000
213.97	-320.000
214.34	-1233.333
214.72	733.333
215.09	-975.000
215.47	0.000
215.84	685.714
216.22	2250.000
216.59	-780.000
216.97	-840.000
217.34	-1025.000
217.72	-375.000
218.09	-1075.000
218.47	-1100.000
218.84	0.000
219.22	800.000
219.59	-205.882
219.97	-190.000
220.34	2150.000
220.72	-500.000
221.09	-292.308
221.47	-1533.333
221.84	-390.000
222.22	-542.857
222.59	0.000
222.97	-400.000
223.34	-920.000
223.72	-4500.000
224.09	-1175.000
224.46	-1175.000
224.84	-580.000
225.21	-657.143
225.59	-1075.000
225.96	-825.000
226.34	-111.538
226.71	783.333
227.08	-2350.000
227.46	-266.667
227.83	-1200.000
228.21	-194.737
228.58	500.000
228.95	1900.000
229.33	-333.333
229.70	-420.000
230.08	-194.737
230.45	430.000
230.82	-1233.333
231.20	-242.857
231.57	-333.333
231.95	-363.636
232.32	-363.636
232.69	-165.000
233.07	-750.000
233.44	-258.824
233.81	-350.000
234.19	-194.444
234.56	-145.455
234.93	-89.655
235.31	-168.421
235.68	-222.222
236.05	-210.000
236.43	-126.923
236.80	-96.000
237.17	-107.407
237.55	-115.152
237.92	-490.000
238.29	-106.452
238.67	-79.545
239.04	-97.222
239.41	-100.000
239.79	-78.261
240.16	-72.222
240.53	-89.130
240.91	-107.843
241.28	-57.377
241.65	-31.343
242.02	-33.784
242.40	-56.923
242.77	-40.000
243.14	-41.463
243.51	-52.632
243.89	-47.436
244.26	-25.743
244.63	-27.451
245.00	-30.841
245.38	-28.070
245.75	-35.398
246.12	-22.222
246.49	-24.806
246.87	-19.286
247.24	-13.245
247.61	-17.763
247.98	-15.436
248.36	-14.198
248.73	-21.472
249.10	-12.022
249.47	-4.975
249.84	-3.665
250.22	-15.544
250.59	-9.444
250.96	-6.364
251.33	-12.755
251.70	-5.128
252.08	-6.667
252.45	-8.607
252.82	-5.372
253.19	-5.469
253.56	-4.183
253.94	-8.462
254.31	-6.818
254.68	-1.748
255.05	-1.954
255.42	-8.163
255.79	-6.472
256.16	-3.311
256.54	-5.629
256.91	-2.295
257.28	0.000
257.65	-5.096
258.02	-4.130
258.39	-2.279
258.76	0.612
259.14	-1.149
259.51	0.288
259.88	-2.550
260.25	-3.611
260.62	0.000
260.99	1.366
261.36	1.072
261.73	-2.653
262.10	-4.945
262.47	-4.558
262.85	1.515
263.22	-4.156
263.59	-4.211
263.96	-1.790
264.33	-2.302
264.70	0.741
265.07	1.432
265.44	0.000
265.81	-0.694
266.18	2.494
266.55	0.000
266.92	0.000
267.29	0.438
267.66	-0.665
268.03	0.655
268.40	0.626
268.77	-1.139
269.14	-1.322
269.51	0.439
269.88	2.664
270.25	0.402
270.62	1.477
270.99	4.040
271.36	1.980
271.73	0.393
272.10	3.006
272.47	1.804
272.84	0.201
273.21	1.804
273.58	2.016
273.95	0.769
274.32	-0.190
274.69	-1.354
275.06	1.832
275.43	0.555
275.80	4.056
276.17	-0.926
276.54	1.866
276.91	1.789
277.28	2.532
277.65	1.436
278.02	2.941
278.39	1.087
278.76	1.054
279.13	0.709
279.50	2.234
279.87	2.862
280.23	0.000
280.60	2.712
280.97	2.961
281.34	1.188
281.71	2.538
282.08	2.658
282.45	3.110
282.82	2.198
283.19	2.100
283.56	0.984
283.92	4.505
284.29	3.791
284.66	2.956
285.03	0.321
285.40	0.927
285.77	1.858
286.14	2.595
286.51	1.979
286.87	1.896
287.24	3.464
287.61	2.093
287.98	2.870
288.35	2.515
288.72	2.959
289.08	2.782
289.45	3.107
289.82	1.807
290.19	3.017
290.56	2.817
290.93	2.425
291.29	2.755
291.66	2.204
292.03	2.849
292.40	2.313
292.77	1.078
293.13	1.894
293.50	2.234
293.87	2.685
294.24	3.867
294.60	3.034
294.97	0.537
295.34	3.969
295.71	1.261
296.08	2.584
296.44	1.348
296.81	1.949
297.18	1.370
297.55	1.887
297.91	2.847
298.28	1.777
298.65	1.665
299.02	1.299
299.38	2.059
299.75	2.336
300.12	1.736
300.48	1.498
300.85	2.925
301.22	2.573
301.59	2.626
301.95	2.599
302.32	2.667
302.69	1.972
303.05	2.285
303.42	2.661
303.79	2.604
304.15	2.524
304.52	1.586
304.89	1.571
305.25	2.174
305.62	2.090
305.99	2.784
306.35	3.327
306.72	3.102
307.09	2.234
307.45	2.899
307.82	2.018
308.19	1.615
308.55	3.375
308.92	2.240
309.29	2.778
309.65	1.949
310.02	3.168
310.38	1.378
310.75	2.233
311.12	3.068
311.48	3.324
311.85	2.469
312.22	2.182
312.58	2.441
312.95	3.155
313.31	1.897
313.68	3.205
314.05	4.336
314.41	2.186
314.78	2.816
315.14	3.993
315.51	3.416
315.87	3.240
316.24	2.648
316.61	3.020
316.97	2.172
317.34	2.381
317.70	3.581
318.07	2.998
318.43	4.507
318.80	3.763
319.16	3.519
319.53	2.742
319.89	2.454
320.26	3.025
320.62	3.103
320.99	2.955
321.35	2.218
321.72	3.814
322.08	2.254
322.45	3.342
322.81	3.339
323.18	3.186
323.54	3.276
323.91	3.025
324.27	3.356
324.64	4.198
325.00	3.566
325.37	3.931
325.73	4.793
326.10	3.731
326.46	4.479
326.83	4.003
327.19	3.071
327.56	3.162
327.92	4.170
328.29	3.065
328.65	2.680
329.01	3.553
329.38	4.044
329.74	3.682
330.11	4.110
330.47	4.549
330.84	3.618
331.20	3.750
331.56	3.293
331.93	4.100
332.29	2.797
332.66	3.654
333.02	3.099
333.38	3.775
333.75	3.788
334.11	4.087
334.48	4.208
334.84	3.568
335.20	3.023
335.57	4.300
335.93	4.380
336.29	3.078
336.66	4.121
337.02	3.261
337.38	4.252
337.75	3.471
338.11	3.701
338.47	3.805
338.84	3.299
339.20	3.201
339.56	2.306
339.93	3.612
340.29	4.267
340.65	3.406
341.02	3.671
341.38	4.042
341.74	2.906
342.11	3.781
342.47	3.415
342.83	4.106
343.20	3.516
343.56	3.528
343.92	3.763
344.28	3.437
344.65	4.574
345.01	4.602
345.37	4.432
345.73	2.962
346.10	5.070
346.46	3.165
346.82	4.644
347.19	3.820
347.55	3.945
347.91	4.160
348.27	3.566
348.63	3.580
349.00	3.505
349.36	3.717
349.72	3.051
350.08	3.863
350.45	2.205
350.81	3.318
351.17	3.835
351.53	3.791
351.89	4.556
352.26	3.433
352.62	2.910
352.98	3.511
353.34	2.539
353.70	3.467
354.07	3.651
354.43	3.645
354.79	3.441
355.15	3.826
355.51	3.582
355.87	3.665
356.24	3.346
356.60	3.548
356.96	3.558
357.32	4.387
357.68	3.441
358.04	2.994
358.40	4.030
358.77	3.582
359.13	3.250
359.49	1.784
359.85	3.553
360.21	4.448
360.57	3.805
360.93	5.007
361.29	3.930
361.66	3.259
362.02	4.523
362.38	3.092
362.74	3.701
363.10	3.439
363.46	3.186
363.82	2.983
364.18	3.378
364.54	3.458
364.90	3.946
365.26	3.103
365.62	3.867
365.98	4.561
366.35	3.758
366.71	3.878
367.07	2.977
367.43	4.990
367.79	4.313
368.15	4.080
368.51	3.992
368.87	4.180
369.23	3.267
369.59	3.893
369.95	3.922
370.31	4.321
370.67	3.026
371.03	3.393
371.39	2.955
371.75	4.539
372.11	3.997
372.47	3.250
372.83	4.319
373.19	4.736
373.55	3.388
373.91	3.954
374.27	3.752
374.63	3.789
374.99	3.183
375.35	4.221
375.71	3.935
376.07	3.744
376.42	3.715
376.78	4.226
377.14	4.180
377.50	3.669
377.86	4.249
378.22	4.192
378.58	3.686
378.94	3.756
379.30	3.808
379.66	3.939
380.02	4.501
380.38	4.724
380.74	3.775
381.09	3.833
381.45	4.318
381.81	4.684
382.17	4.810
382.53	4.152
382.89	4.515
383.25	4.513
383.61	3.530
383.97	4.947
384.32	4.067
384.68	3.538
385.04	4.858
385.40	3.889
385.76	4.982
386.12	3.710
386.48	4.176
386.83	4.470
387.19	4.114
387.55	3.815
387.91	3.710
388.27	5.081
388.62	4.582
388.98	4.456
389.34	5.245
389.70	4.300
390.06	4.500
390.42	3.193
390.77	4.576
391.13	4.284
391.49	4.710
391.85	3.818
392.20	4.211
392.56	4.903
392.92	4.853
393.28	3.925
393.64	4.022
393.99	5.288
394.35	5.140
394.71	4.850
395.07	3.952
395.42	4.055
395.78	4.936
396.14	3.981
396.50	3.504
396.85	4.472
397.21	4.201
397.57	4.829
397.92	4.582
398.28	3.368
398.64	4.119
399.00	4.293
399.35	4.817
399.71	3.804
400.07	4.436
400.42	4.657
400.78	4.572
401.14	4.781
401.49	4.605
401.85	3.314
402.21	4.287
402.57	4.812
402.92	4.374
403.28	3.923
403.63	3.520
403.99	3.444
404.35	4.434
404.70	4.476
405.06	4.565
405.42	4.625
405.77	4.635
406.13	4.376
406.49	4.167
406.84	4.100
407.20	3.969
407.55	3.331
407.91	3.520
408.27	4.122
408.62	4.363
408.98	4.237
409.34	3.226
409.69	4.079
410.05	4.045
410.40	4.524
410.76	4.262
411.11	4.383
411.47	4.791
411.83	4.233
412.18	3.675
412.54	4.446
412.89	3.958
413.25	3.837
413.60	3.906
413.96	4.779
414.31	4.363
414.67	4.770
415.03	4.308
415.38	3.783
415.74	3.971
416.09	4.257
416.45	3.319
416.80	3.244
417.16	3.959
417.51	4.545
417.87	4.476
418.22	4.072
418.58	4.275
418.93	5.180
419.29	3.884
419.64	3.842
420.00	3.739
420.35	4.492
420.71	4.480
421.06	3.623
421.42	4.300
421.77	3.446
422.12	4.440
422.48	4.864
422.83	4.491
423.19	4.297
423.54	4.314
423.90	3.920
424.25	4.267
424.61	3.215
424.96	4.283
425.31	4.406
425.67	3.650
426.02	4.261
426.38	3.444
426.73	3.683
427.09	4.844
427.44	4.096
427.79	3.980
428.15	4.224
428.50	3.989
428.85	3.559
429.21	4.947
429.56	4.590
429.92	4.521
430.27	4.627
430.62	4.690
430.98	4.329
431.33	4.790
431.68	4.741
432.04	3.911
432.39	4.124
432.74	3.653
433.10	4.651
433.45	3.902
433.80	4.453
434.16	4.752
434.51	4.368
434.86	4.397
435.22	3.879
435.57	4.304
435.92	4.786
436.28	4.323
436.63	4.096
436.98	4.885
437.34	4.679
437.69	3.963
438.04	4.495
438.39	4.538
438.75	4.151
439.10	4.968
439.45	4.975
439.81	4.011
440.16	3.968
440.51	5.072
440.86	4.447
441.22	4.930
441.57	5.084
441.92	5.044
442.27	5.101
442.63	5.067
442.98	5.336
443.33	4.577
443.68	5.154
444.03	5.315
444.39	5.317
444.74	5.003
445.09	4.764
445.44	4.636
445.79	5.029
446.15	4.728
446.50	5.013
446.85	5.156
447.20	5.513
447.55	5.596
447.91	4.817
448.26	4.863
448.61	4.570
448.96	4.882
449.31	4.348
449.66	4.412
450.02	4.483
450.37	5.860
450.72	4.521
451.07	4.784
451.42	4.159
451.77	4.836
452.12	4.515
452.47	4.575
452.83	4.561
453.18	5.196
453.53	4.136
453.88	4.859
454.23	4.802
454.58	4.759
454.93	4.612
455.28	4.275
455.63	4.832
455.98	5.419
456.34	5.124
456.69	4.703
457.04	4.965
457.39	4.767
457.74	5.034
458.09	4.887
458.44	5.388
458.79	4.899
459.14	5.821
459.49	4.641
459.84	5.666
460.19	4.886
460.54	6.076
460.89	4.817
461.24	4.483
461.59	6.087
461.94	4.392
462.29	5.095
462.64	4.768
462.99	4.708
463.34	4.802
463.69	5.334
464.04	5.447
464.39	4.765
464.74	5.359
465.09	5.190
465.44	5.365
465.79	6.187
466.14	5.419
466.49	5.474
466.84	5.455
467.19	5.260
467.54	4.642
467.89	4.425
468.24	5.706
468.59	4.690
468.94	5.128
469.29	4.559
469.64	4.641
469.99	4.525
470.34	5.260
470.68	4.580
471.03	5.435
471.38	4.578
471.73	4.551
472.08	4.124
472.43	4.937
472.78	4.345
473.13	4.362
473.48	5.317
473.83	5.340
474.17	4.748
474.52	4.871
474.87	5.150
475.22	4.901
475.57	4.984
475.92	5.525
476.27	5.218
476.61	5.296
476.96	4.797
477.31	5.644
477.66	5.194
478.01	5.186
478.36	4.985
478.70	5.567
479.05	4.959
479.40	5.232
479.75	6.340
480.10	5.590
480.45	5.834
480.79	5.850
481.14	5.882
481.49	4.861
481.84	5.875
482.19	5.634
482.53	5.728
482.88	5.627
483.23	5.825
483.58	5.764
483.92	5.629
484.27	5.207
484.62	5.817
484.97	5.677
485.31	5.245
485.66	5.941
486.01	6.057
486.36	6.567
486.70	7.113
487.05	6.953
487.40	6.455
487.75	6.361
488.09	6.171
488.44	6.227
488.79	5.734
489.13	5.141
489.48	5.010
489.83	5.312
490.17	5.589
490.52	5.419
490.87	5.711
491.22	5.416
491.56	6.186
491.91	5.495
492.26	5.669
492.60	5.553
492.95	6.055
493.30	5.737
493.64	5.826
493.99	5.307
494.34	5.183
494.68	4.839
495.03	5.639
495.37	5.770
495.72	5.669
496.07	5.872
496.41	5.062
496.76	5.796
497.11	5.265
497.45	5.050
497.80	6.442
498.14	5.397
498.49	5.147
498.84	5.667
499.18	5.398
499.53	6.099
499.87	5.495
500.22	5.076
500.56	5.533
500.91	4.760
501.26	5.591
501.60	5.259
501.95	5.688
502.29	5.046
502.64	5.684
502.98	5.522
503.33	5.702
503.67	5.190
504.02	5.779
504.36	5.853
504.71	5.512
505.06	5.366
505.40	4.982
505.75	5.464
506.09	5.939
506.44	4.968
506.78	6.147
507.13	5.533
507.47	5.542
507.82	5.066
508.16	5.545
508.51	5.532
508.85	5.385
509.19	5.211
509.54	6.052
509.88	5.585
510.23	5.731
510.57	6.477
510.92	5.612
511.26	5.051
511.61	4.780
511.95	5.320
512.30	6.056
512.64	5.197
512.98	5.453
513.33	5.796
513.67	5.303
514.02	5.672
514.36	5.729
514.70	5.573
515.05	5.318
515.39	5.197
515.74	5.885
516.08	5.230
516.42	5.704
516.77	5.731
517.11	4.538
517.46	5.673
517.80	6.093
518.14	5.713
518.49	5.531
518.83	5.109
519.17	5.600
519.52	5.556
519.86	5.913
520.20	5.698
520.55	5.367
520.89	4.955
521.23	5.639
521.58	5.367
521.92	4.929
522.26	5.269
522.61	5.613
522.95	4.902
523.29	4.943
523.64	5.269
523.98	5.590
524.32	5.903
524.66	5.464
525.01	5.549
525.35	5.169
525.69	4.582
526.04	4.420
526.38	5.115
526.72	5.075
527.06	5.161
527.41	5.539
527.75	5.404
528.09	5.490
528.43	5.092
528.78	4.566
529.12	5.505
529.46	5.228
529.80	5.435
530.15	5.217
530.49	4.508
530.83	4.900
531.17	4.600
531.51	4.693
531.86	5.168
532.20	5.366
532.54	4.967
532.88	4.909
533.22	5.775
533.57	5.136
533.91	5.499
534.25	5.314
534.59	4.368
534.93	4.867
535.27	5.859
535.62	5.628
535.96	5.636
536.30	4.172
536.64	5.345
536.98	5.351
537.32	4.815
537.66	5.053
538.01	5.015
538.35	4.568
538.69	5.349
539.03	5.028
539.37	5.183
539.71	5.886
540.05	5.396
540.39	4.523
540.73	5.343
541.07	5.028
541.42	5.080
541.76	4.270
542.10	4.222
542.44	4.446
542.78	5.170
543.12	5.304
543.46	5.128
543.80	4.317
544.14	5.027
544.48	4.905
544.82	5.566
545.16	5.725
545.50	4.614
545.84	4.838
546.18	6.235
546.52	4.331
546.86	4.780
547.20	4.198
547.54	4.245
547.88	4.461
548.22	4.444
548.56	5.383
548.90	4.537
549.24	5.167
549.58	5.110
549.92	4.656
550.26	5.049
550.60	5.424
550.94	5.175
551.28	4.356
551.62	5.189
551.96	5.113
552.30	5.672
552.64	5.227
552.98	4.866
553.32	4.823
553.66	4.887
554.00	5.422
554.34	4.826
554.68	5.229
555.02	5.059
555.36	5.654
555.69	4.484
556.03	4.918
556.37	4.881
556.71	4.502
557.05	5.815
557.39	4.114
557.73	4.822
558.07	4.702
558.41	4.718
558.75	5.071
559.08	4.802
559.42	3.498
559.76	5.156
560.10	4.823
560.44	3.958
560.78	5.938
561.12	4.926
561.45	5.170
561.79	5.128
562.13	5.299
562.47	4.501
562.81	4.494
563.15	4.987
563.48	4.910
563.82	5.562
564.16	4.785
564.50	5.483
564.84	4.484
565.17	5.588
565.51	4.948
565.85	5.404
566.19	5.069
566.52	4.798
566.86	5.093
567.20	5.057
567.54	5.204
567.88	6.065
568.21	5.188
568.55	5.516
568.89	5.629
569.23	6.126
569.56	6.096
569.90	6.415
570.24	6.071
570.57	6.382
570.91	5.879
571.25	6.364
571.59	6.596
571.92	6.477
572.26	6.697
572.60	6.334
572.93	6.485
573.27	6.013
573.61	6.697
573.95	6.191
574.28	6.424
574.62	6.867
574.96	6.087
575.29	6.455
575.63	6.399
575.97	6.275
576.30	6.440
576.64	6.251
576.98	6.378
577.31	6.702
577.65	6.356
577.98	6.627
578.32	6.435
578.66	6.709
578.99	6.349
579.33	6.470
579.67	6.233
580.00	6.339
580.34	6.697
580.67	6.443
581.01	6.145
581.35	6.526
581.68	6.797
582.02	6.873
582.35	6.593
582.69	6.791
583.02	6.971
583.36	6.921
583.70	6.453
584.03	6.287
584.37	6.616
584.70	6.333
585.04	6.417
585.37	6.849
585.71	6.580
586.04	6.825
586.38	6.964
586.72	6.267
587.05	6.498
587.39	6.731
587.72	6.579
588.06	7.181
588.39	6.547
588.73	6.429
589.06	6.377
589.40	6.730
589.73	6.041
590.07	6.532
590.40	7.099
590.73	6.080
591.07	6.478
591.40	5.871
591.74	5.882
592.07	6.537
592.41	6.112
592.74	6.496
593.08	6.656
593.41	7.116
593.75	6.523
594.08	6.725
594.41	6.474
594.75	6.377
595.08	6.528
595.42	6.461
595.75	7.071
596.09	6.777
596.42	6.019
596.75	6.291
597.09	6.869
597.42	6.357
597.75	6.233
598.09	6.667
598.42	6.474
598.76	6.114
599.09	6.550
599.42	6.001
599.76	6.603
600.09	6.840
600.42	7.007
600.76	6.968
601.09	6.605
601.42	6.763
601.76	6.414
602.09	6.612
602.42	6.216
602.76	6.199
603.09	6.278
603.42	6.467
603.76	6.237
604.09	7.417
604.42	6.422
604.76	6.164
605.09	6.502
605.42	6.579
605.75	6.154
606.09	6.122
606.42	6.166
606.75	6.409
607.09	6.260
607.42	6.358
607.75	6.682
608.08	5.880
608.42	6.489
608.75	6.758
609.08	6.282
609.41	5.602
609.75	6.250
610.08	6.552
610.41	5.947
610.74	6.429
611.07	5.995
611.41	6.188
611.74	6.374
612.07	6.685
612.40	5.941
612.73	6.357
613.07	6.064
613.40	6.352
613.73	5.970
614.06	5.986
614.39	6.220
614.72	6.308
615.06	6.112
615.39	6.573
615.72	5.782
616.05	6.119
616.38	6.509
616.71	6.374
617.05	5.804
617.38	6.474
617.71	6.425
618.04	5.990
618.37	6.831
618.70	5.769
619.03	5.197
619.36	5.117
619.69	5.766
620.03	4.834
620.36	5.890
620.69	5.676
621.02	5.840
621.35	5.951
621.68	6.001
622.01	5.338
622.34	4.254
622.67	5.430
623.00	5.128
623.33	5.309
623.66	5.383
623.99	5.003
624.32	6.758
624.65	5.019
624.99	5.462
625.32	6.205
625.65	5.866
625.98	4.678
626.31	5.457
626.64	5.128
626.97	4.876
627.30	4.100
627.63	5.401
627.96	5.631
628.29	4.981
628.62	3.610
628.95	4.294
629.28	3.653
629.61	5.640
629.94	4.519
630.26	4.661
630.59	4.922
630.92	4.069
631.25	4.562
631.58	4.426
631.91	3.561
632.24	3.842
632.57	4.459
632.90	4.112
633.23	3.878
633.56	4.592
633.89	3.926
634.22	4.158
634.55	3.758
634.88	3.788
635.20	4.844
635.53	2.938
635.86	3.575
636.19	5.196
636.52	4.641
636.85	4.392
637.18	3.742
637.51	3.763
637.83	5.316
638.16	4.954
638.49	3.756
638.82	4.397
639.15	4.124
639.48	4.273
639.81	3.118
640.13	4.005
640.46	2.667
640.79	1.225
641.12	3.230
641.45	3.011
641.77	5.392
642.10	3.281
642.43	5.718
642.76	2.304
643.09	1.096
643.41	1.541
643.74	2.345
644.07	3.310
644.40	2.122
644.73	2.322
645.05	2.496
645.38	3.165
645.71	2.786
646.04	4.017
646.36	3.066
646.69	2.761
647.02	2.294
647.35	3.206
647.67	2.093
648.00	0.955
648.33	2.402
648.66	0.999
648.98	2.449
649.31	3.248
649.64	3.320
649.96	3.316
650.29	1.530
650.62	2.829
650.94	2.252
651.27	0.000
651.60	2.632
651.92	0.608
652.25	2.171
652.58	3.164
652.90	0.727
653.23	2.958
653.56	1.854
653.88	5.056
