SpectraSuite Data File
++++++++++++++++++++++++++++++++++++
Date: Wed May 13 21:00:17 PDT 2015
User: schluterlab
Dark Spectrum Present: Yes
Reference Spectrum Present: Yes
Number of Sampled Component Spectra: 1
Spectrometers: USB2E3373
Integration Time (usec): 3000 (USB2E3373)
Spectra Averaged: 3 (USB2E3373)
Boxcar Smoothing: 0 (USB2E3373)
Correct for Electrical Dark: No (USB2E3373)
Strobe/Lamp Enabled: No (USB2E3373)
Correct for Detector Non-linearity: No (USB2E3373)
Correct for Stray Light: No (USB2E3373)
Number of Pixels in Processed Spectrum: 2048
>>>>>Begin Processed Spectral Data<<<<<
178.53	0.000
178.91	-200.000
179.29	166.667
179.67	-550.000
180.04	-300.000
180.42	160.000
180.80	900.000
181.18	16.667
181.56	-300.000
181.94	-175.000
182.31	54.545
182.69	46.154
183.07	20.000
183.45	83.333
183.83	200.000
184.20	-28.571
184.58	500.000
184.96	-0.000
185.34	214.286
185.72	0.000
186.09	500.000
186.47	-40.000
186.85	20.000
187.23	450.000
187.61	-0.000
187.98	600.000
188.36	50.000
188.74	0.000
189.12	18.182
189.49	90.000
189.87	83.333
190.25	100.000
190.63	-400.000
191.00	0.000
191.38	180.000
191.76	425.000
192.14	83.333
192.51	-10.526
192.89	533.333
193.27	-25.000
193.65	-200.000
194.02	109.091
194.40	80.000
194.78	300.000
195.15	80.000
195.53	60.000
195.91	50.000
196.29	-300.000
196.66	0.000
197.04	250.000
197.42	160.000
197.79	90.000
198.17	0.000
198.55	33.333
198.92	-150.000
199.30	-366.667
199.68	20.000
200.05	-250.000
200.43	-83.333
200.81	-1400.000
201.18	140.000
201.56	-233.333
201.94	600.000
202.31	47.826
202.69	0.000
203.07	-200.000
203.44	80.000
203.82	-166.667
204.19	90.000
204.57	0.000
204.95	66.667
205.32	0.000
205.70	-50.000
206.08	50.000
206.45	-16.667
206.83	275.000
207.20	-33.333
207.58	0.000
207.96	-1000.000
208.33	-100.000
208.71	-500.000
209.08	100.000
209.46	50.000
209.84	0.000
210.21	-20.000
210.59	900.000
210.96	-20.000
211.34	-300.000
211.71	-150.000
212.09	-83.333
212.46	-90.000
212.84	300.000
213.22	200.000
213.59	-300.000
213.97	300.000
214.34	-500.000
214.72	38.462
215.09	112.500
215.47	88.889
215.84	350.000
216.22	25.000
216.59	50.000
216.97	266.667
217.34	100.000
217.72	0.000
218.09	-0.000
218.47	1000.000
218.84	85.714
219.22	25.000
219.59	-166.667
219.97	125.000
220.34	-12.500
220.72	20.000
221.09	0.000
221.47	66.667
221.84	200.000
222.22	0.000
222.59	200.000
222.97	0.000
223.34	25.000
223.72	-300.000
224.09	-700.000
224.46	9.091
224.84	100.000
225.21	57.143
225.59	-125.000
225.96	-33.333
226.34	-40.000
226.71	-71.429
227.08	300.000
227.46	50.000
227.83	200.000
228.21	18.750
228.58	-75.000
228.95	-11.765
229.33	118.750
229.70	75.000
230.08	84.615
230.45	-162.500
230.82	-25.000
231.20	171.429
231.57	-100.000
231.95	600.000
232.32	108.333
232.69	-11.765
233.07	-700.000
233.44	4.348
233.81	0.000
234.19	37.500
234.56	-53.333
234.93	20.000
235.31	84.211
235.68	69.231
236.05	7.692
236.43	5.556
236.80	12.121
237.17	-60.000
237.55	-35.294
237.92	-20.690
238.29	-18.519
238.67	13.889
239.04	9.677
239.41	-14.894
239.79	27.660
240.16	6.977
240.53	0.000
240.91	10.714
241.28	3.571
241.65	-6.452
242.02	-3.947
242.40	4.348
242.77	2.899
243.14	11.538
243.51	4.255
243.89	10.577
244.26	14.151
244.63	-1.923
245.00	8.333
245.38	0.840
245.75	2.459
246.12	5.263
246.49	-4.878
246.87	-6.723
247.24	4.730
247.61	4.636
247.98	6.410
248.36	0.592
248.73	-1.124
249.10	-1.515
249.47	0.000
249.84	1.579
250.22	3.483
250.59	1.869
250.96	8.636
251.33	-8.612
251.70	5.021
252.08	4.603
252.45	2.469
252.82	6.084
253.19	1.167
253.56	1.079
253.94	5.338
254.31	4.577
254.68	3.691
255.05	3.630
255.42	-0.350
255.79	5.828
256.16	9.148
256.54	0.952
256.91	0.633
257.28	6.918
257.65	1.274
258.02	2.053
258.39	3.509
258.76	2.326
259.14	1.989
259.51	-1.404
259.88	1.626
260.25	0.833
260.62	-1.404
260.99	4.244
261.36	2.073
261.73	1.975
262.10	1.272
262.47	2.469
262.85	0.000
263.22	1.538
263.59	1.039
263.96	2.433
264.33	0.481
264.70	1.628
265.07	2.315
265.44	5.977
265.81	2.288
266.18	1.595
266.55	-0.218
266.92	1.695
267.29	1.852
267.66	5.096
268.03	2.675
268.40	1.271
268.77	2.066
269.14	2.653
269.51	6.366
269.88	0.204
270.25	0.424
270.62	1.230
270.99	3.543
271.36	1.984
271.73	4.418
272.10	1.905
272.47	1.727
272.84	3.150
273.21	2.544
273.58	0.820
273.95	3.019
274.32	3.358
274.69	2.914
275.06	3.357
275.43	3.013
275.80	2.128
276.17	3.315
276.54	1.243
276.91	1.916
277.28	2.347
277.65	2.622
278.02	3.750
278.39	2.309
278.76	3.010
279.13	2.916
279.50	0.690
279.87	0.181
280.23	3.063
280.60	0.346
280.97	2.273
281.34	3.312
281.71	2.602
282.08	1.538
282.45	2.623
282.82	2.875
283.19	2.591
283.56	1.094
283.92	1.682
284.29	1.092
284.66	2.142
285.03	-0.977
285.40	1.813
285.77	2.252
286.14	3.647
286.51	3.148
286.87	-0.308
287.24	2.212
287.61	1.355
287.98	2.500
288.35	-0.298
288.72	2.152
289.08	3.846
289.45	1.909
289.82	1.664
290.19	2.805
290.56	0.710
290.93	0.691
291.29	2.189
291.66	0.820
292.03	2.316
292.40	1.346
292.77	3.882
293.13	1.953
293.50	1.830
293.87	1.333
294.24	3.307
294.60	0.780
294.97	3.439
295.34	0.792
295.71	1.971
296.08	-1.047
296.44	0.383
296.81	0.609
297.18	2.625
297.55	2.123
297.91	2.236
298.28	2.058
298.65	1.601
299.02	2.442
299.38	0.859
299.75	0.601
300.12	-0.930
300.48	2.690
300.85	1.848
301.22	0.465
301.59	1.643
301.95	1.394
302.32	1.284
302.69	0.452
303.05	1.772
303.42	1.250
303.79	0.841
304.15	0.986
304.52	2.796
304.89	0.221
305.25	1.537
305.62	2.278
305.99	1.088
306.35	2.403
306.72	1.424
307.09	1.564
307.45	1.597
307.82	0.737
308.19	0.104
308.55	0.716
308.92	2.358
309.29	1.502
309.65	1.299
310.02	1.889
310.38	1.016
310.75	0.592
311.12	0.680
311.48	0.890
311.85	1.476
312.22	2.708
312.58	1.546
312.95	1.294
313.31	2.112
313.68	1.527
314.05	1.512
314.41	1.825
314.78	2.372
315.14	1.481
315.51	1.237
315.87	1.205
316.24	2.112
316.61	2.100
316.97	1.852
317.34	1.783
317.70	2.230
318.07	2.218
318.43	0.723
318.80	1.134
319.16	1.592
319.53	1.344
319.89	0.813
320.26	1.756
320.62	0.649
320.99	1.744
321.35	1.964
321.72	1.444
322.08	1.937
322.45	2.313
322.81	2.588
323.18	1.968
323.54	2.527
323.91	2.891
324.27	2.250
324.64	1.220
325.00	0.875
325.37	1.792
325.73	1.599
326.10	1.177
326.46	2.090
326.83	1.214
327.19	2.195
327.56	2.498
327.92	2.172
328.29	3.088
328.65	2.454
329.01	1.495
329.38	2.957
329.74	2.918
330.11	1.623
330.47	1.997
330.84	2.166
331.20	2.818
331.56	1.902
331.93	2.584
332.29	2.780
332.66	2.797
333.02	2.954
333.38	2.281
333.75	2.901
334.11	2.778
334.48	2.180
334.84	1.767
335.20	3.431
335.57	1.741
335.93	1.117
336.29	2.014
336.66	2.735
337.02	2.348
337.38	2.176
337.75	2.584
338.11	1.879
338.47	1.541
338.84	2.320
339.20	1.058
339.56	2.645
339.93	2.593
340.29	2.391
340.65	2.395
341.02	2.745
341.38	2.956
341.74	1.345
342.11	2.312
342.47	1.674
342.83	1.961
343.20	2.200
343.56	2.698
343.92	1.543
344.28	2.516
344.65	1.878
345.01	1.533
345.37	3.536
345.73	3.268
346.10	2.809
346.46	2.683
346.82	1.364
347.19	1.820
347.55	2.504
347.91	2.104
348.27	1.814
348.63	2.724
349.00	2.516
349.36	2.119
349.72	3.558
350.08	2.652
350.45	1.566
350.81	2.582
351.17	3.310
351.53	2.592
351.89	2.542
352.26	1.313
352.62	3.023
352.98	1.917
353.34	1.449
353.70	1.947
354.07	1.569
354.43	2.022
354.79	2.003
355.15	2.019
355.51	1.595
355.87	2.424
356.24	1.605
356.60	1.173
356.96	1.765
357.32	3.019
357.68	2.292
358.04	1.784
358.40	1.860
358.77	2.905
359.13	2.257
359.49	2.044
359.85	3.108
360.21	1.619
360.57	2.890
360.93	1.517
361.29	2.147
361.66	1.746
362.02	2.298
362.38	1.994
362.74	1.740
363.10	2.675
363.46	1.369
363.82	2.735
364.18	1.885
364.54	1.532
364.90	1.185
365.26	0.991
365.62	1.847
365.98	2.562
366.35	2.199
366.71	1.498
367.07	1.772
367.43	1.812
367.79	2.363
368.15	2.391
368.51	1.406
368.87	2.373
369.23	1.281
369.59	1.057
369.95	1.306
370.31	1.743
370.67	1.593
371.03	2.079
371.39	2.200
371.75	2.500
372.11	2.778
372.47	2.091
372.83	1.248
373.19	1.583
373.55	1.734
373.91	2.263
374.27	2.006
374.63	1.636
374.99	1.880
375.35	2.397
375.71	1.019
376.07	2.879
376.42	1.337
376.78	3.104
377.14	1.831
377.50	2.216
377.86	2.125
378.22	2.276
378.58	1.576
378.94	3.000
379.30	2.124
379.66	2.343
380.02	1.654
380.38	1.506
380.74	2.809
381.09	2.171
381.45	1.995
381.81	1.294
382.17	1.512
382.53	2.031
382.89	2.051
383.25	1.728
383.61	2.966
383.97	2.187
384.32	1.197
384.68	1.604
385.04	1.344
385.40	1.743
385.76	2.372
386.12	1.420
386.48	1.567
386.83	2.441
387.19	1.295
387.55	2.207
387.91	1.907
388.27	1.973
388.62	1.685
388.98	2.190
389.34	1.942
389.70	2.381
390.06	2.000
390.42	2.642
390.77	2.562
391.13	1.768
391.49	1.455
391.85	1.661
392.20	1.942
392.56	2.095
392.92	1.872
393.28	2.324
393.64	1.774
393.99	1.530
394.35	2.346
394.71	2.244
395.07	1.258
395.42	2.316
395.78	1.223
396.14	2.219
396.50	1.776
396.85	2.996
397.21	2.372
397.57	2.174
397.92	1.557
398.28	1.861
398.64	2.247
399.00	2.288
399.35	2.327
399.71	1.864
400.07	1.867
400.42	1.129
400.78	1.813
401.14	1.533
401.49	1.917
401.85	1.781
402.21	1.981
402.57	2.269
402.92	2.816
403.28	1.438
403.63	2.046
403.99	2.239
404.35	1.621
404.70	1.148
405.06	2.466
405.42	1.633
405.77	1.901
406.13	1.429
406.49	1.378
406.84	1.709
407.20	1.954
407.55	1.883
407.91	1.985
408.27	1.310
408.62	2.271
408.98	1.171
409.34	1.856
409.69	2.599
410.05	1.866
410.40	1.461
410.76	1.986
411.11	2.425
411.47	2.588
411.83	2.308
412.18	1.196
412.54	1.817
412.89	1.567
413.25	1.652
413.60	2.006
413.96	1.061
414.31	2.035
414.67	2.159
415.03	2.436
415.38	2.048
415.74	2.209
416.09	2.313
416.45	2.461
416.80	1.678
417.16	2.969
417.51	2.411
417.87	1.918
418.22	2.069
418.58	1.774
418.93	2.134
419.29	1.584
419.64	2.417
420.00	1.841
420.35	2.092
420.71	2.133
421.06	2.091
421.42	2.190
421.77	2.254
422.12	2.235
422.48	2.399
422.83	1.713
423.19	2.013
423.54	3.239
423.90	2.553
424.25	2.369
424.61	2.526
424.96	2.188
425.31	2.412
425.67	2.587
426.02	3.475
426.38	2.239
426.73	2.016
427.09	2.189
427.44	2.408
427.79	1.663
428.15	2.385
428.50	1.390
428.85	2.460
429.21	2.420
429.56	2.657
429.92	2.499
430.27	2.454
430.62	2.151
430.98	2.433
431.33	2.579
431.68	2.982
432.04	1.915
432.39	2.252
432.74	2.269
433.10	3.021
433.45	2.485
433.80	1.897
434.16	2.348
434.51	2.174
434.86	2.473
435.22	2.151
435.57	1.536
435.92	2.413
436.28	2.342
436.63	2.309
436.98	2.350
437.34	2.747
437.69	2.361
438.04	2.207
438.39	3.238
438.75	2.503
439.10	2.082
439.45	2.603
439.81	2.278
440.16	3.478
440.51	2.081
440.86	2.786
441.22	2.639
441.57	2.657
441.92	2.955
442.27	2.543
442.63	1.776
442.98	2.546
443.33	2.652
443.68	2.636
444.03	3.130
444.39	2.975
444.74	2.430
445.09	2.148
445.44	3.268
445.79	2.323
446.15	3.550
446.50	3.084
446.85	2.886
447.20	3.398
447.55	2.854
447.91	2.360
448.26	2.687
448.61	3.165
448.96	2.449
449.31	2.856
449.66	2.892
450.02	3.127
450.37	2.644
450.72	2.813
451.07	2.821
451.42	2.682
451.77	2.861
452.12	2.793
452.47	2.970
452.83	2.358
453.18	3.119
453.53	2.711
453.88	2.771
454.23	3.276
454.58	3.064
454.93	3.015
455.28	3.147
455.63	2.371
455.98	2.069
456.34	1.971
456.69	2.684
457.04	2.415
457.39	3.247
457.74	2.454
458.09	2.725
458.44	1.939
458.79	2.910
459.14	2.921
459.49	2.683
459.84	2.537
460.19	2.521
460.54	2.494
460.89	2.815
461.24	2.836
461.59	2.778
461.94	3.666
462.29	2.390
462.64	3.100
462.99	3.219
463.34	4.006
463.69	3.093
464.04	2.041
464.39	3.051
464.74	3.378
465.09	3.224
465.44	3.255
465.79	3.680
466.14	2.680
466.49	2.874
466.84	3.108
467.19	2.866
467.54	3.694
467.89	2.388
468.24	3.319
468.59	2.613
468.94	3.831
469.29	3.173
469.64	3.208
469.99	3.931
470.34	2.765
470.68	3.271
471.03	2.468
471.38	3.268
471.73	3.635
472.08	3.299
472.43	3.430
472.78	2.840
473.13	3.100
473.48	2.609
473.83	3.641
474.17	2.344
474.52	2.201
474.87	2.714
475.22	3.442
475.57	3.514
475.92	2.726
476.27	2.389
476.61	2.775
476.96	3.255
477.31	2.805
477.66	3.333
478.01	3.132
478.36	2.725
478.70	3.652
479.05	2.886
479.40	2.704
479.75	2.816
480.10	2.754
480.45	2.501
480.79	2.837
481.14	3.040
481.49	2.763
481.84	2.969
482.19	3.196
482.53	3.000
482.88	3.212
483.23	2.791
483.58	3.308
483.92	2.918
484.27	2.425
484.62	3.373
484.97	2.903
485.31	2.747
485.66	2.966
486.01	2.989
486.36	2.649
486.70	2.656
487.05	3.124
487.40	2.943
487.75	3.158
488.09	2.878
488.44	3.120
488.79	3.558
489.13	3.022
489.48	2.822
489.83	2.680
490.17	2.769
490.52	3.506
490.87	2.921
491.22	3.344
491.56	3.115
491.91	3.361
492.26	3.433
492.60	3.030
492.95	3.304
493.30	3.052
493.64	2.254
493.99	2.995
494.34	2.890
494.68	2.768
495.03	2.421
495.37	2.871
495.72	2.957
496.07	3.069
496.41	3.135
496.76	3.519
497.11	3.286
497.45	2.967
497.80	2.928
498.14	3.678
498.49	2.824
498.84	2.986
499.18	3.086
499.53	3.003
499.87	2.669
500.22	2.937
500.56	3.360
500.91	3.219
501.26	3.054
501.60	2.696
501.95	2.635
502.29	3.155
502.64	3.423
502.98	3.565
503.33	3.358
503.67	2.726
504.02	2.794
504.36	2.823
504.71	2.744
505.06	3.668
505.40	2.577
505.75	3.204
506.09	3.577
506.44	3.629
506.78	2.946
507.13	2.911
507.47	3.340
507.82	3.611
508.16	3.430
508.51	2.944
508.85	3.473
509.19	2.910
509.54	3.271
509.88	3.118
510.23	3.053
510.57	3.708
510.92	4.203
511.26	2.860
511.61	2.854
511.95	2.701
512.30	2.998
512.64	3.405
512.98	3.158
513.33	3.211
513.67	3.634
514.02	3.592
514.36	3.652
514.70	2.771
515.05	3.218
515.39	3.302
515.74	3.079
516.08	2.596
516.42	2.995
516.77	2.695
517.11	2.998
517.46	3.421
517.80	3.753
518.14	2.633
518.49	3.617
518.83	3.819
519.17	3.072
519.52	3.136
519.86	3.036
520.20	3.093
520.55	3.607
520.89	3.226
521.23	3.654
521.58	2.781
521.92	3.394
522.26	3.253
522.61	2.844
522.95	3.886
523.29	3.492
523.64	3.179
523.98	3.367
524.32	3.529
524.66	2.532
525.01	3.866
525.35	3.752
525.69	3.446
526.04	2.866
526.38	3.314
526.72	3.945
527.06	3.030
527.41	2.846
527.75	3.271
528.09	3.472
528.43	3.460
528.78	2.519
529.12	2.911
529.46	3.071
529.80	3.495
530.15	3.732
530.49	3.639
530.83	3.588
531.17	3.356
531.51	3.034
531.86	3.726
532.20	4.066
532.54	2.897
532.88	3.199
533.22	3.973
533.57	3.311
533.91	3.355
534.25	3.646
534.59	2.960
534.93	3.827
535.27	3.312
535.62	2.961
535.96	3.448
536.30	3.790
536.64	3.486
536.98	3.083
537.32	3.345
537.66	3.597
538.01	3.259
538.35	3.108
538.69	3.211
539.03	3.624
539.37	2.884
539.71	3.479
540.05	3.104
540.39	3.441
540.73	3.492
541.07	4.354
541.42	3.502
541.76	4.127
542.10	3.453
542.44	2.841
542.78	3.956
543.12	3.437
543.46	3.110
543.80	4.413
544.14	3.372
544.48	2.455
544.82	3.564
545.16	2.705
545.50	4.051
545.84	2.525
546.18	2.244
546.52	4.517
546.86	2.686
547.20	2.716
547.54	2.716
547.88	3.779
548.22	3.844
548.56	3.002
548.90	3.383
549.24	3.681
549.58	3.772
549.92	4.696
550.26	4.059
550.60	3.303
550.94	4.030
551.28	3.936
551.62	4.436
551.96	3.367
552.30	2.038
552.64	2.895
552.98	4.403
553.32	3.389
553.66	3.155
554.00	3.960
554.34	2.711
554.68	3.952
555.02	2.919
555.36	2.723
555.69	3.059
556.03	3.002
556.37	3.556
556.71	3.434
557.05	3.542
557.39	4.145
557.73	2.874
558.07	2.939
558.41	3.861
558.75	3.926
559.08	2.887
559.42	3.698
559.76	3.670
560.10	2.690
560.44	3.758
560.78	2.374
561.12	3.434
561.45	3.333
561.79	4.402
562.13	3.797
562.47	2.786
562.81	3.030
563.15	3.045
563.48	3.785
563.82	3.420
564.16	3.724
564.50	3.528
564.84	2.635
565.17	4.040
565.51	3.008
565.85	2.532
566.19	2.980
566.52	3.080
566.86	3.856
567.20	3.787
567.54	4.203
567.88	3.024
568.21	2.716
568.55	3.808
568.89	2.841
569.23	3.162
569.56	3.630
569.90	3.566
570.24	2.780
570.57	3.480
570.91	3.196
571.25	2.834
571.59	3.037
571.92	3.227
572.26	3.416
572.60	2.987
572.93	3.155
573.27	3.189
573.61	3.311
573.95	2.909
574.28	3.300
574.62	3.061
574.96	3.125
575.29	2.934
575.63	2.687
575.97	2.880
576.30	3.084
576.64	3.222
576.98	2.901
577.31	3.138
577.65	3.070
577.98	2.628
578.32	2.881
578.66	3.190
578.99	3.474
579.33	3.223
579.67	2.597
580.00	2.832
580.34	3.030
580.67	2.891
581.01	2.985
581.35	2.880
581.68	2.972
582.02	2.703
582.35	3.069
582.69	3.072
583.02	2.995
583.36	3.086
583.70	3.208
584.03	3.397
584.37	3.115
584.70	3.222
585.04	3.087
585.37	2.965
585.71	3.256
586.04	3.183
586.38	2.920
586.72	3.063
587.05	3.610
587.39	3.177
587.72	2.979
588.06	3.119
588.39	2.939
588.73	2.918
589.06	2.716
589.40	2.821
589.73	3.198
590.07	2.989
590.40	3.408
590.73	3.120
591.07	3.260
591.40	3.261
591.74	3.201
592.07	3.332
592.41	3.689
592.74	3.279
593.08	2.701
593.41	2.987
593.75	3.295
594.08	2.522
594.41	2.998
594.75	3.336
595.08	3.323
595.42	2.827
595.75	2.928
596.09	3.079
596.42	3.023
596.75	2.808
597.09	3.367
597.42	3.096
597.75	3.600
598.09	3.279
598.42	3.311
598.76	2.855
599.09	3.441
599.42	3.059
599.76	3.192
600.09	3.050
600.42	3.089
600.76	2.882
601.09	3.202
601.42	3.097
601.76	3.436
602.09	3.445
602.42	3.384
602.76	3.230
603.09	3.943
603.42	2.799
603.76	2.845
604.09	3.043
604.42	3.056
604.76	2.750
605.09	3.262
605.42	3.239
605.75	2.955
606.09	3.394
606.42	3.200
606.75	3.074
607.09	2.615
607.42	3.065
607.75	2.495
608.08	3.607
608.42	2.718
608.75	3.249
609.08	3.528
609.41	3.577
609.75	2.572
610.08	2.515
610.41	2.624
610.74	3.609
611.07	2.956
611.41	3.480
611.74	3.468
612.07	3.752
612.40	3.297
612.73	3.348
613.07	2.938
613.40	2.808
613.73	3.575
614.06	3.040
614.39	2.890
614.72	3.443
615.06	3.167
615.39	3.035
615.72	2.862
616.05	2.815
616.38	2.921
616.71	2.939
617.05	3.870
617.38	3.512
617.71	2.635
618.04	3.473
618.37	2.587
618.70	3.299
619.03	2.337
619.36	3.630
619.69	3.582
620.03	2.544
620.36	2.853
620.69	1.713
621.02	2.846
621.35	3.271
621.68	2.282
622.01	3.317
622.34	2.538
622.67	2.976
623.00	3.723
623.33	2.992
623.66	2.677
623.99	3.076
624.32	3.375
624.65	3.264
624.99	3.233
625.32	3.211
625.65	3.488
625.98	2.449
626.31	3.429
626.64	2.494
626.97	3.547
627.30	3.507
627.63	2.941
627.96	3.030
628.29	3.070
628.62	3.772
628.95	3.006
629.28	1.773
629.61	3.349
629.94	3.288
630.26	4.039
630.59	3.397
630.92	2.912
631.25	2.678
631.58	3.319
631.91	2.545
632.24	1.537
632.57	2.222
632.90	3.267
633.23	2.398
633.56	3.957
633.89	4.067
634.22	5.654
634.55	3.532
634.88	3.676
635.20	4.250
635.53	3.359
635.86	3.846
636.19	3.102
636.52	2.805
636.85	3.136
637.18	1.949
637.51	4.120
637.83	2.742
638.16	2.133
638.49	3.204
638.82	3.399
639.15	3.324
639.48	2.941
639.81	2.778
640.13	3.239
640.46	4.096
640.79	3.165
641.12	2.811
641.45	4.076
641.77	4.124
642.10	4.841
642.43	4.245
642.76	2.366
643.09	3.355
643.41	3.509
643.74	4.039
644.07	2.427
644.40	2.156
644.73	2.712
645.05	1.920
645.38	1.163
645.71	4.762
646.04	1.684
646.36	2.778
646.69	4.545
647.02	3.825
647.35	4.022
647.67	3.882
648.00	0.906
648.33	3.898
648.66	2.337
648.98	5.124
649.31	3.681
649.64	2.660
649.96	4.581
650.29	1.634
650.62	4.448
650.94	3.276
651.27	4.594
651.60	4.196
651.92	3.584
652.25	5.025
652.58	3.630
652.90	2.020
653.23	2.207
653.56	2.149
653.88	0.853
654.21	2.389
654.54	3.488
654.86	1.951
655.19	3.782
655.52	3.224
655.84	2.377
656.17	2.762
656.49	3.880
656.82	3.915
657.15	3.028
657.47	2.422
657.80	1.914
658.13	2.075
658.45	3.327
658.78	3.125
659.10	3.630
659.43	3.137
659.75	3.765
