SpectraSuite Data File
++++++++++++++++++++++++++++++++++++
Date: Wed May 13 20:38:26 PDT 2015
User: schluterlab
Dark Spectrum Present: Yes
Reference Spectrum Present: Yes
Number of Sampled Component Spectra: 1
Spectrometers: USB2E3373
Integration Time (usec): 3000 (USB2E3373)
Spectra Averaged: 3 (USB2E3373)
Boxcar Smoothing: 0 (USB2E3373)
Correct for Electrical Dark: No (USB2E3373)
Strobe/Lamp Enabled: No (USB2E3373)
Correct for Detector Non-linearity: No (USB2E3373)
Correct for Stray Light: No (USB2E3373)
Number of Pixels in Processed Spectrum: 2048
>>>>>Begin Processed Spectral Data<<<<<
178.53	0.000
178.91	-975.000
179.29	-975.000
179.67	-155.556
180.04	-775.000
180.42	1450.000
180.80	780.000
181.18	-725.000
181.56	442.857
181.94	0.000
182.31	-471.429
182.69	1300.000
183.07	-362.500
183.45	-366.667
183.83	390.909
184.20	-310.000
184.58	1900.000
184.96	3400.000
185.34	-720.000
185.72	-462.500
186.09	-1600.000
186.47	2100.000
186.85	2150.000
187.23	3900.000
187.61	-1266.667
187.98	1100.000
188.36	381.818
188.74	409.091
189.12	-620.000
189.49	420.000
189.87	-3600.000
190.25	-925.000
190.63	250.000
191.00	346.154
191.38	833.333
191.76	-800.000
192.14	1150.000
192.51	412.500
192.89	633.333
193.27	225.000
193.65	-750.000
194.02	390.000
194.40	580.000
194.78	410.000
195.15	400.000
195.53	460.000
195.91	-1900.000
196.29	337.500
196.66	236.842
197.04	-200.000
197.42	0.000
197.79	570.000
198.17	-3000.000
198.55	600.000
198.92	525.000
199.30	680.000
199.68	0.000
200.05	200.000
200.43	514.286
200.81	3400.000
201.18	1266.667
201.56	-900.000
201.94	411.111
202.31	400.000
202.69	325.000
203.07	440.000
203.44	0.000
203.82	875.000
204.19	557.143
204.57	328.571
204.95	425.000
205.32	1233.333
205.70	454.545
206.08	235.714
206.45	1600.000
206.83	287.500
207.20	883.333
207.58	480.000
207.96	277.778
208.33	587.500
208.71	-683.333
209.08	571.429
209.46	466.667
209.84	336.364
210.21	-1033.333
210.59	1050.000
210.96	-350.000
211.34	1850.000
211.71	450.000
212.09	550.000
212.46	0.000
212.84	1566.667
213.22	1150.000
213.59	-3800.000
213.97	650.000
214.34	614.286
214.72	481.818
215.09	720.000
215.47	-1300.000
215.84	-1650.000
216.22	1200.000
216.59	264.286
216.97	925.000
217.34	436.364
217.72	-500.000
218.09	0.000
218.47	-3100.000
218.84	322.222
219.22	542.857
219.59	1100.000
219.97	-571.429
220.34	700.000
220.72	-1266.667
221.09	350.000
221.47	1225.000
221.84	-666.667
222.22	0.000
222.59	1050.000
222.97	-1600.000
223.34	760.000
223.72	284.615
224.09	820.000
224.46	1700.000
224.84	-3900.000
225.21	-820.000
225.59	-3900.000
225.96	430.000
226.34	245.000
226.71	2550.000
227.08	587.500
227.46	320.000
227.83	-775.000
228.21	-1850.000
228.58	488.889
228.95	-1550.000
229.33	-1400.000
229.70	1400.000
230.08	785.714
230.45	-700.000
230.82	366.667
231.20	633.333
231.57	442.857
231.95	333.333
232.32	209.091
232.69	290.909
233.07	400.000
233.44	261.538
233.81	-1466.667
234.19	268.421
234.56	441.667
234.93	325.000
235.31	390.909
235.68	276.923
236.05	292.857
236.43	178.788
236.80	252.632
237.17	4500.000
237.55	200.000
237.92	178.571
238.29	238.095
238.67	164.516
239.04	186.207
239.41	169.444
239.79	126.087
240.16	157.143
240.53	145.455
240.91	115.686
241.28	116.000
241.65	144.000
242.02	118.841
242.40	104.839
242.77	120.000
243.14	88.172
243.51	98.876
243.89	100.000
244.26	80.000
244.63	96.774
245.00	78.723
245.38	90.099
245.75	78.505
246.12	86.239
246.49	87.591
246.87	86.400
247.24	83.077
247.61	75.000
247.98	69.935
248.36	75.000
248.73	72.611
249.10	76.433
249.47	70.621
249.84	68.984
250.22	70.053
250.59	72.781
250.96	77.273
251.33	71.564
251.70	72.772
252.08	75.238
252.45	61.883
252.82	68.261
253.19	65.106
253.56	64.314
253.94	66.390
254.31	71.094
254.68	68.462
255.05	64.945
255.42	70.325
255.79	67.279
256.16	70.758
256.54	62.544
256.91	64.413
257.28	64.029
257.65	62.046
258.02	66.460
258.39	61.830
258.76	65.552
259.14	61.012
259.51	63.526
259.88	64.286
260.25	67.069
260.62	63.873
260.99	66.770
261.36	64.264
261.73	63.037
262.10	63.663
262.47	61.408
262.85	62.674
263.22	63.533
263.59	65.242
263.96	62.363
264.33	63.185
264.70	61.053
265.07	65.217
265.44	60.606
265.81	56.448
266.18	64.070
266.55	64.390
266.92	59.214
267.29	63.657
267.66	59.174
268.03	58.182
268.40	60.981
268.77	60.382
269.14	58.784
269.51	58.916
269.88	62.937
270.25	60.045
270.62	59.326
270.99	59.570
271.36	59.013
271.73	60.280
272.10	61.957
272.47	62.366
272.84	59.740
273.21	59.119
273.58	56.550
273.95	56.394
274.32	57.231
274.69	59.101
275.06	56.693
275.43	61.915
275.80	58.918
276.17	55.601
276.54	57.173
276.91	56.522
277.28	55.469
277.65	56.673
278.02	57.764
278.39	56.055
278.76	55.273
279.13	56.415
279.50	55.866
279.87	54.382
280.23	58.683
280.60	57.834
280.97	56.562
281.34	55.575
281.71	55.455
282.08	57.390
282.45	53.818
282.82	54.707
283.19	54.902
283.56	55.263
283.92	54.992
284.29	53.792
284.66	54.809
285.03	53.526
285.40	52.993
285.77	53.199
286.14	53.886
286.51	53.833
286.87	55.385
287.24	52.443
287.61	51.685
287.98	51.786
288.35	51.664
288.72	49.533
289.08	51.017
289.45	50.577
289.82	51.382
290.19	50.392
290.56	47.626
290.93	50.000
291.29	49.847
291.66	48.820
292.03	47.529
292.40	47.724
292.77	46.006
293.13	48.657
293.50	47.230
293.87	46.370
294.24	45.185
294.60	46.143
294.97	46.076
295.34	45.416
295.71	46.591
296.08	43.447
296.44	43.741
296.81	43.197
297.18	44.173
297.55	40.765
297.91	45.910
298.28	44.311
298.65	42.559
299.02	42.819
299.38	42.629
299.75	38.679
300.12	40.996
300.48	41.000
300.85	39.457
301.22	40.764
301.59	39.394
301.95	42.191
302.32	42.747
302.69	41.338
303.05	40.364
303.42	40.123
303.79	39.298
304.15	38.462
304.52	38.007
304.89	38.328
305.25	40.023
305.62	38.618
305.99	39.079
306.35	40.940
306.72	38.677
307.09	39.401
307.45	39.640
307.82	38.170
308.19	38.300
308.55	38.727
308.92	38.024
309.29	37.276
309.65	38.282
310.02	37.949
310.38	38.602
310.75	37.592
311.12	38.178
311.48	38.245
311.85	37.631
312.22	38.293
312.58	37.006
312.95	38.226
313.31	36.990
313.68	40.021
314.05	39.941
314.41	39.799
314.78	37.563
315.14	38.034
315.51	40.268
315.87	38.911
316.24	37.140
316.61	38.889
316.97	38.454
317.34	38.552
317.70	39.293
318.07	39.076
318.43	39.530
318.80	38.707
319.16	40.113
319.53	38.743
319.89	40.095
320.26	41.900
320.62	39.881
320.99	40.000
321.35	41.212
321.72	41.889
322.08	42.744
322.45	42.687
322.81	43.605
323.18	44.412
323.54	44.249
323.91	42.830
324.27	43.403
324.64	43.243
325.00	42.741
325.37	43.858
325.73	43.716
326.10	42.807
326.46	44.265
326.83	44.262
327.19	45.346
327.56	44.948
327.92	45.844
328.29	45.963
328.65	45.856
329.01	46.661
329.38	46.346
329.74	45.983
330.11	46.654
330.47	48.209
330.84	47.426
331.20	46.903
331.56	45.872
331.93	48.056
332.29	46.140
332.66	46.372
333.02	46.801
333.38	46.883
333.75	46.881
334.11	46.174
334.48	45.430
334.84	46.783
335.20	47.182
335.57	47.960
335.93	45.714
336.29	47.436
336.66	48.422
337.02	46.697
337.38	48.241
337.75	46.702
338.11	46.732
338.47	48.527
338.84	48.671
339.20	47.615
339.56	48.358
339.93	47.091
340.29	48.551
340.65	46.791
341.02	49.040
341.38	47.420
341.74	47.544
342.11	49.170
342.47	48.634
342.83	48.031
343.20	48.831
343.56	48.020
343.92	48.772
344.28	46.769
344.65	49.183
345.01	46.549
345.37	48.027
345.73	47.377
346.10	48.252
346.46	48.136
346.82	48.353
347.19	47.118
347.55	47.537
347.91	48.625
348.27	47.740
348.63	47.408
349.00	47.249
349.36	46.880
349.72	48.115
350.08	47.569
350.45	47.925
350.81	48.091
351.17	47.812
351.53	48.731
351.89	48.185
352.26	47.356
352.62	48.837
352.98	48.136
353.34	47.823
353.70	47.954
354.07	46.855
354.43	48.254
354.79	47.385
355.15	47.007
355.51	49.081
355.87	50.122
356.24	49.511
356.60	47.233
356.96	48.029
357.32	48.324
357.68	48.898
358.04	48.456
358.40	47.189
358.77	48.044
359.13	47.908
359.49	47.608
359.85	47.143
360.21	48.724
360.57	49.883
360.93	48.385
361.29	48.073
361.66	47.678
362.02	49.328
362.38	48.061
362.74	49.628
363.10	47.298
363.46	47.836
363.82	48.677
364.18	47.137
364.54	48.960
364.90	48.725
365.26	48.529
365.62	48.283
365.98	47.334
366.35	47.994
366.71	47.650
367.07	47.924
367.43	49.492
367.79	48.537
368.15	49.928
368.51	47.892
368.87	49.679
369.23	48.354
369.59	48.516
369.95	49.265
370.31	48.932
370.67	47.464
371.03	50.412
371.39	48.761
371.75	48.309
372.11	47.866
372.47	48.900
372.83	49.784
373.19	48.410
373.55	48.411
373.91	50.295
374.27	47.423
374.63	48.291
374.99	50.000
375.35	47.592
375.71	48.663
376.07	50.069
376.42	49.037
376.78	49.967
377.14	48.440
377.50	49.073
377.86	48.537
378.22	49.684
378.58	48.810
378.94	49.151
379.30	48.855
379.66	49.302
380.02	49.939
380.38	49.180
380.74	49.220
381.09	49.144
381.45	50.891
381.81	49.079
382.17	49.427
382.53	49.623
382.89	50.679
383.25	50.281
383.61	50.186
383.97	49.343
384.32	49.470
384.68	49.442
385.04	50.338
385.40	49.350
385.76	49.816
386.12	50.194
386.48	51.542
386.83	50.096
387.19	51.453
387.55	50.402
387.91	49.637
388.27	50.031
388.62	50.891
388.98	50.369
389.34	50.063
389.70	50.337
390.06	51.077
390.42	50.130
390.77	50.254
391.13	52.138
391.49	50.888
391.85	50.541
392.20	49.653
392.56	51.515
392.92	50.265
393.28	50.059
393.64	51.199
393.99	50.886
394.35	49.938
394.71	51.255
395.07	49.969
395.42	52.410
395.78	50.254
396.14	49.845
396.50	51.754
396.85	51.812
397.21	51.171
397.57	51.271
397.92	50.601
398.28	50.392
398.64	50.836
399.00	51.259
399.35	50.141
399.71	51.678
400.07	50.976
400.42	51.779
400.78	51.870
401.14	52.317
401.49	51.761
401.85	51.603
402.21	50.180
402.57	52.375
402.92	53.657
403.28	52.780
403.63	51.547
403.99	51.720
404.35	51.576
404.70	51.978
405.06	51.019
405.42	52.589
405.77	52.514
406.13	51.354
406.49	52.158
406.84	51.093
407.20	51.773
407.55	52.648
407.91	53.867
408.27	53.350
408.62	50.813
408.98	52.696
409.34	53.444
409.69	53.355
410.05	52.169
410.40	52.294
410.76	52.270
411.11	51.689
411.47	52.780
411.83	51.680
412.18	52.134
412.54	53.300
412.89	51.988
413.25	52.774
413.60	53.305
413.96	52.823
414.31	52.430
414.67	54.056
415.03	53.709
415.38	52.964
415.74	53.698
416.09	53.037
416.45	54.083
416.80	53.536
417.16	54.692
417.51	53.550
417.87	52.216
418.22	53.186
418.58	53.002
418.93	53.563
419.29	53.660
419.64	54.912
420.00	52.927
420.35	52.348
420.71	53.676
421.06	52.029
421.42	52.456
421.77	53.363
422.12	53.172
422.48	52.240
422.83	53.640
423.19	54.199
423.54	54.208
423.90	53.797
424.25	52.987
424.61	52.857
424.96	53.819
425.31	53.544
425.67	52.303
426.02	53.429
426.38	54.396
426.73	52.662
427.09	53.799
427.44	54.284
427.79	54.054
428.15	53.929
428.50	54.418
428.85	53.695
429.21	51.795
429.56	52.255
429.92	53.145
430.27	53.376
430.62	52.688
430.98	53.970
431.33	52.629
431.68	53.717
432.04	53.248
432.39	53.741
432.74	53.860
433.10	52.971
433.45	54.169
433.80	51.885
434.16	52.190
434.51	54.368
434.86	54.333
435.22	53.641
435.57	54.894
435.92	54.886
436.28	54.211
436.63	53.311
436.98	53.349
437.34	54.204
437.69	55.309
438.04	54.806
438.39	54.090
438.75	55.084
439.10	54.749
439.45	54.132
439.81	55.227
440.16	53.981
440.51	53.544
440.86	53.445
441.22	54.060
441.57	53.662
441.92	54.094
442.27	56.189
442.63	53.239
442.98	55.775
443.33	54.239
443.68	53.949
444.03	53.782
444.39	54.187
444.74	54.058
445.09	53.369
445.44	55.167
445.79	54.725
446.15	53.679
446.50	54.496
446.85	54.162
447.20	54.768
447.55	54.718
447.91	54.771
448.26	53.923
448.61	54.720
448.96	55.371
449.31	54.387
449.66	54.024
450.02	53.983
450.37	54.705
450.72	53.187
451.07	54.601
451.42	52.280
451.77	54.786
452.12	54.503
452.47	53.607
452.83	54.837
453.18	54.034
453.53	55.102
453.88	54.578
454.23	54.094
454.58	53.483
454.93	54.800
455.28	53.678
455.63	55.158
455.98	55.000
456.34	54.146
456.69	54.477
457.04	54.799
457.39	53.594
457.74	53.743
458.09	53.709
458.44	54.447
458.79	52.495
459.14	52.652
459.49	53.882
459.84	52.964
460.19	53.329
460.54	52.373
460.89	53.593
461.24	55.131
461.59	53.748
461.94	53.761
462.29	55.193
462.64	53.287
462.99	53.806
463.34	53.467
463.69	53.909
464.04	53.333
464.39	52.232
464.74	52.347
465.09	53.800
465.44	52.410
465.79	53.020
466.14	52.545
466.49	52.336
466.84	53.532
467.19	53.591
467.54	54.937
467.89	54.202
468.24	52.356
468.59	52.625
468.94	52.352
469.29	53.728
469.64	54.418
469.99	54.263
470.34	53.567
470.68	52.802
471.03	52.177
471.38	53.440
471.73	51.765
472.08	52.961
472.43	52.324
472.78	51.350
473.13	52.567
473.48	51.436
473.83	52.622
474.17	52.458
474.52	51.365
474.87	51.664
475.22	51.944
475.57	51.746
475.92	52.310
476.27	51.691
476.61	51.903
476.96	52.007
477.31	52.119
477.66	52.243
478.01	51.019
478.36	53.041
478.70	52.129
479.05	52.077
479.40	51.331
479.75	51.042
480.10	52.286
480.45	50.738
480.79	50.884
481.14	51.174
481.49	51.115
481.84	51.532
482.19	51.204
482.53	50.459
482.88	51.047
483.23	50.888
483.58	50.819
483.92	50.703
484.27	49.542
484.62	50.905
484.97	49.941
485.31	50.959
485.66	48.869
486.01	49.024
486.36	48.421
486.70	49.506
487.05	50.496
487.40	50.894
487.75	51.396
488.09	51.441
488.44	51.101
488.79	52.369
489.13	51.757
489.48	51.101
489.83	49.763
490.17	51.425
490.52	50.266
490.87	48.801
491.22	48.840
491.56	48.884
491.91	50.023
492.26	49.334
492.60	49.263
492.95	48.924
493.30	49.393
493.64	49.417
493.99	48.422
494.34	48.751
494.68	49.954
495.03	49.436
495.37	48.906
495.72	49.513
496.07	48.585
496.41	48.805
496.76	49.692
497.11	48.942
497.45	49.464
497.80	48.896
498.14	48.357
498.49	49.073
498.84	48.945
499.18	49.429
499.53	49.240
499.87	48.788
500.22	48.422
500.56	49.515
500.91	48.173
501.26	48.649
501.60	49.502
501.95	48.396
502.29	49.485
502.64	48.650
502.98	48.948
503.33	48.675
503.67	48.353
504.02	49.345
504.36	48.573
504.71	49.145
505.06	48.578
505.40	49.149
505.75	47.493
506.09	48.056
506.44	48.693
506.78	48.953
507.13	49.268
507.47	48.485
507.82	48.784
508.16	48.531
508.51	48.757
508.85	48.461
509.19	49.439
509.54	48.571
509.88	48.223
510.23	49.100
510.57	50.103
510.92	48.731
511.26	47.688
511.61	48.081
511.95	47.443
512.30	48.727
512.64	48.737
512.98	48.339
513.33	48.019
513.67	47.652
514.02	47.403
514.36	49.208
514.70	48.589
515.05	48.076
515.39	48.345
515.74	48.255
516.08	48.072
516.42	47.503
516.77	49.108
517.11	47.114
517.46	49.266
517.80	49.361
518.14	47.713
518.49	47.550
518.83	47.841
519.17	48.210
519.52	47.991
519.86	47.290
520.20	47.399
520.55	48.773
520.89	48.540
521.23	47.648
521.58	47.599
521.92	47.642
522.26	46.919
522.61	47.913
522.95	46.654
523.29	46.318
523.64	49.024
523.98	47.258
524.32	46.864
524.66	48.467
525.01	47.243
525.35	47.893
525.69	47.167
526.04	46.791
526.38	47.407
526.72	46.258
527.06	48.085
527.41	46.287
527.75	47.653
528.09	47.913
528.43	47.291
528.78	46.835
529.12	46.848
529.46	48.561
529.80	47.649
530.15	48.037
530.49	45.969
530.83	47.089
531.17	48.433
531.51	48.638
531.86	48.258
532.20	47.458
532.54	47.918
532.88	48.588
533.22	46.221
533.57	46.111
533.91	46.779
534.25	46.719
534.59	47.712
534.93	47.412
535.27	46.228
535.62	47.070
535.96	47.583
536.30	46.599
536.64	47.585
536.98	47.512
537.32	46.610
537.66	46.867
538.01	46.873
538.35	46.736
538.69	47.479
539.03	45.744
539.37	46.006
539.71	46.079
540.05	47.320
540.39	47.176
540.73	47.025
541.07	47.631
541.42	46.706
541.76	48.194
542.10	46.054
542.44	47.020
542.78	47.233
543.12	45.361
543.46	47.016
543.80	47.560
544.14	45.443
544.48	47.175
544.82	47.017
545.16	46.324
545.50	46.465
545.84	47.245
546.18	47.205
546.52	46.318
546.86	47.698
547.20	46.595
547.54	45.892
547.88	46.747
548.22	46.824
548.56	46.164
548.90	45.455
549.24	46.128
549.58	47.271
549.92	46.223
550.26	47.159
550.60	45.920
550.94	47.042
551.28	46.818
551.62	46.226
551.96	46.246
552.30	45.666
552.64	46.045
552.98	47.322
553.32	46.864
553.66	46.898
554.00	45.916
554.34	45.687
554.68	45.708
555.02	46.544
555.36	44.537
555.69	44.181
556.03	45.760
556.37	44.952
556.71	44.679
557.05	46.499
557.39	45.346
557.73	46.577
558.07	46.701
558.41	45.007
558.75	44.967
559.08	45.861
559.42	46.259
559.76	45.368
560.10	44.183
560.44	46.122
560.78	45.043
561.12	45.515
561.45	45.893
561.79	45.682
562.13	45.406
562.47	44.331
562.81	45.397
563.15	45.151
563.48	44.761
563.82	45.466
564.16	45.128
564.50	46.094
564.84	44.564
565.17	44.466
565.51	45.559
565.85	45.241
566.19	44.521
566.52	45.852
566.86	45.509
567.20	44.988
567.54	45.776
567.88	44.595
568.21	45.079
568.55	45.096
568.89	45.233
569.23	44.207
569.56	44.251
569.90	44.377
570.24	45.138
570.57	44.679
570.91	44.505
571.25	44.688
571.59	44.860
571.92	45.075
572.26	45.436
572.60	45.435
572.93	45.097
573.27	45.401
573.61	45.087
573.95	44.599
574.28	44.950
574.62	44.412
574.96	43.728
575.29	44.108
575.63	44.665
575.97	44.884
576.30	44.981
576.64	45.262
576.98	44.725
577.31	44.801
577.65	44.647
577.98	44.250
578.32	44.639
578.66	44.969
578.99	45.675
579.33	44.953
579.67	44.636
580.00	45.097
580.34	45.040
580.67	45.143
581.01	44.322
581.35	44.569
581.68	43.984
582.02	44.202
582.35	45.099
582.69	45.348
583.02	45.658
583.36	46.092
583.70	46.528
584.03	45.585
584.37	45.507
584.70	45.585
585.04	44.545
585.37	44.292
585.71	44.807
586.04	44.576
586.38	45.637
586.72	44.960
587.05	44.227
587.39	43.905
587.72	45.040
588.06	44.931
588.39	44.774
588.73	44.823
589.06	45.404
589.40	45.320
589.73	45.195
590.07	44.270
590.40	45.086
590.73	45.511
591.07	45.910
591.40	44.538
591.74	45.455
592.07	45.157
592.41	44.771
592.74	43.296
593.08	43.704
593.41	44.669
593.75	42.567
594.08	44.385
594.41	44.928
594.75	44.436
595.08	43.558
595.42	44.764
595.75	44.231
596.09	45.362
596.42	45.226
596.75	45.293
597.09	44.719
597.42	43.297
597.75	45.192
598.09	44.609
598.42	44.115
598.76	43.332
599.09	43.177
599.42	42.831
599.76	44.034
600.09	43.934
600.42	43.170
600.76	43.036
601.09	43.315
601.42	44.901
601.76	44.516
602.09	43.399
602.42	44.506
602.76	44.458
603.09	42.958
603.42	43.655
603.76	43.483
604.09	42.381
604.42	44.313
604.76	44.707
605.09	44.561
605.42	44.378
605.75	43.502
606.09	44.002
606.42	44.544
606.75	44.255
607.09	43.617
607.42	43.218
607.75	43.755
608.08	43.335
608.42	44.957
608.75	42.651
609.08	42.831
609.41	43.027
609.75	43.020
610.08	43.685
610.41	42.831
610.74	42.999
611.07	43.923
611.41	44.112
611.74	44.093
612.07	43.168
612.40	44.701
612.73	43.474
613.07	44.073
613.40	43.813
613.73	43.471
614.06	44.409
614.39	42.632
614.72	43.842
615.06	43.697
615.39	43.153
615.72	42.689
616.05	42.903
616.38	42.357
616.71	44.774
617.05	42.992
617.38	43.836
617.71	44.865
618.04	44.712
618.37	43.879
618.70	44.119
619.03	43.882
619.36	43.381
619.69	43.239
620.03	44.368
620.36	43.783
620.69	43.356
621.02	43.363
621.35	43.540
621.68	41.745
622.01	42.337
622.34	43.949
622.67	43.498
623.00	42.480
623.33	42.387
623.66	42.530
623.99	42.121
624.32	42.154
624.65	42.020
624.99	41.572
625.32	41.926
625.65	43.501
625.98	44.197
626.31	43.002
626.64	43.918
626.97	43.308
627.30	43.392
627.63	43.478
627.96	43.650
628.29	42.782
628.62	41.995
628.95	44.245
629.28	42.427
629.61	42.988
629.94	42.381
630.26	42.326
630.59	42.040
630.92	41.571
631.25	41.461
