SpectraSuite Data File
++++++++++++++++++++++++++++++++++++
Date: Wed May 13 20:46:56 PDT 2015
User: schluterlab
Dark Spectrum Present: Yes
Reference Spectrum Present: Yes
Number of Sampled Component Spectra: 1
Spectrometers: USB2E3373
Integration Time (usec): 3000 (USB2E3373)
Spectra Averaged: 3 (USB2E3373)
Boxcar Smoothing: 0 (USB2E3373)
Correct for Electrical Dark: No (USB2E3373)
Strobe/Lamp Enabled: No (USB2E3373)
Correct for Detector Non-linearity: No (USB2E3373)
Correct for Stray Light: No (USB2E3373)
Number of Pixels in Processed Spectrum: 2048
>>>>>Begin Processed Spectral Data<<<<<
178.53	0.000
178.91	-775.000
179.29	-850.000
179.67	-111.111
180.04	-525.000
180.42	1850.000
180.80	660.000
181.18	-425.000
181.56	400.000
181.94	0.000
182.31	-342.857
182.69	833.333
183.07	-237.500
183.45	-200.000
183.83	354.545
184.20	-310.000
184.58	1250.000
184.96	3700.000
185.34	-460.000
185.72	-225.000
186.09	-1500.000
186.47	1550.000
186.85	1150.000
187.23	2600.000
187.61	-1100.000
187.98	925.000
188.36	300.000
188.74	281.818
189.12	-480.000
189.49	300.000
189.87	-3000.000
190.25	-675.000
190.63	264.286
191.00	292.308
191.38	583.333
191.76	-625.000
192.14	925.000
192.51	362.500
192.89	583.333
193.27	350.000
193.65	-750.000
194.02	330.000
194.40	460.000
194.78	330.000
195.15	316.667
195.53	390.000
195.91	-1200.000
196.29	187.500
196.66	173.684
197.04	-140.000
197.42	0.000
197.79	440.000
198.17	-2300.000
198.55	328.571
198.92	400.000
199.30	640.000
199.68	0.000
200.05	200.000
200.43	542.857
200.81	3000.000
201.18	900.000
201.56	-766.667
201.94	422.222
202.31	355.556
202.69	250.000
203.07	370.000
203.44	0.000
203.82	625.000
204.19	400.000
204.57	300.000
204.95	387.500
205.32	466.667
205.70	290.909
206.08	214.286
206.45	1700.000
206.83	268.750
207.20	616.667
207.58	520.000
207.96	233.333
208.33	400.000
208.71	-483.333
209.08	428.571
209.46	355.556
209.84	372.727
210.21	-733.333
210.59	550.000
210.96	-337.500
211.34	1600.000
211.71	320.000
212.09	500.000
212.46	0.000
212.84	933.333
213.22	850.000
213.59	-2200.000
213.97	450.000
214.34	500.000
214.72	318.182
215.09	700.000
215.47	-1450.000
215.84	-1550.000
216.22	1200.000
216.59	314.286
216.97	525.000
217.34	309.091
217.72	-483.333
218.09	0.000
218.47	-3900.000
218.84	477.778
219.22	500.000
219.59	1066.667
219.97	-485.714
220.34	400.000
220.72	-1200.000
221.09	257.143
221.47	875.000
221.84	-416.667
222.22	0.000
222.59	875.000
222.97	-1150.000
223.34	500.000
223.72	300.000
224.09	640.000
224.46	1100.000
224.84	-3000.000
225.21	-700.000
225.59	-2300.000
225.96	370.000
226.34	180.000
226.71	1600.000
227.08	287.500
227.46	430.000
227.83	-525.000
228.21	-900.000
228.58	388.889
228.95	-1400.000
229.33	-1450.000
229.70	933.333
230.08	614.286
230.45	-600.000
230.82	291.667
231.20	616.667
231.57	457.143
231.95	300.000
232.32	113.636
232.69	218.182
233.07	285.714
233.44	284.615
233.81	-900.000
234.19	173.684
234.56	408.333
234.93	225.000
235.31	245.455
235.68	276.923
236.05	264.286
236.43	124.242
236.80	152.632
237.17	2400.000
237.55	123.810
237.92	192.857
238.29	219.048
238.67	141.935
239.04	151.724
239.41	127.778
239.79	113.043
240.16	102.381
240.53	95.455
240.91	90.196
241.28	96.000
241.65	106.000
242.02	82.609
242.40	87.097
242.77	91.667
243.14	67.742
243.51	70.787
243.89	76.471
244.26	71.111
244.63	77.419
245.00	64.894
245.38	65.347
245.75	84.112
246.12	66.972
246.49	62.774
246.87	67.200
247.24	73.846
247.61	65.714
247.98	64.706
248.36	67.568
248.73	63.694
249.10	71.338
249.47	65.537
249.84	63.102
250.22	56.684
250.59	59.172
250.96	63.636
251.33	61.137
251.70	68.812
252.08	59.524
252.45	59.193
252.82	53.913
253.19	65.532
253.56	60.000
253.94	56.432
254.31	54.687
254.68	63.077
255.05	56.089
255.42	58.943
255.79	58.456
256.16	57.040
256.54	53.710
256.91	55.160
257.28	52.518
257.65	54.125
258.02	55.901
258.39	55.205
258.76	55.853
259.14	58.333
259.51	51.064
259.88	54.969
260.25	53.172
260.62	52.890
260.99	51.863
261.36	52.252
261.73	57.020
262.10	52.616
262.47	50.986
262.85	55.710
263.22	52.137
263.59	56.125
263.96	52.473
264.33	54.830
264.70	52.895
265.07	51.407
265.44	52.778
265.81	48.905
266.18	55.528
266.55	51.951
266.92	55.037
267.29	51.620
267.66	51.606
268.03	53.864
268.40	53.037
268.77	51.313
269.14	51.351
269.51	52.822
269.88	52.914
270.25	49.661
270.62	51.011
270.99	53.548
271.36	51.073
271.73	53.738
272.10	49.565
272.47	51.183
272.84	52.597
273.21	46.960
273.58	48.690
273.95	48.218
274.32	47.314
274.69	53.105
275.06	48.622
275.43	52.128
275.80	49.699
276.17	49.084
276.54	51.767
276.91	49.407
277.28	48.047
277.65	50.677
278.02	50.311
278.39	50.391
278.76	49.636
279.13	49.623
279.50	48.231
279.87	48.606
280.23	49.900
280.60	49.710
280.97	47.320
281.34	47.611
281.71	47.273
282.08	49.328
282.45	47.455
282.82	47.780
283.19	47.059
283.56	47.719
283.92	48.054
284.29	46.561
284.66	46.279
285.03	46.835
285.40	45.951
285.77	45.791
286.14	46.114
286.51	47.667
286.87	46.496
287.24	47.557
287.61	45.265
287.98	45.617
288.35	45.166
288.72	43.769
289.08	43.662
289.45	44.811
289.82	42.439
290.19	43.014
290.56	40.888
290.93	41.239
291.29	43.865
291.66	41.888
292.03	42.733
292.40	43.759
292.77	42.160
293.13	41.642
293.50	40.816
293.87	38.963
294.24	41.778
294.60	39.884
294.97	38.663
295.34	39.633
295.71	39.631
296.08	38.034
296.44	37.964
296.81	35.931
297.18	38.482
297.55	36.412
297.91	35.488
298.28	38.153
298.65	37.206
299.02	36.759
299.38	35.857
299.75	33.154
300.12	36.654
300.48	35.875
300.85	35.142
301.22	35.032
301.59	34.596
301.95	35.390
302.32	35.687
302.69	33.333
303.05	33.939
303.42	34.691
303.79	33.069
304.15	32.051
304.52	34.762
304.89	33.333
305.25	33.643
305.62	33.975
305.99	35.773
306.35	33.669
306.72	34.081
307.09	33.851
307.45	35.135
307.82	32.031
308.19	34.327
308.55	33.441
308.92	31.901
309.29	31.468
309.65	32.662
310.02	32.664
310.38	31.935
310.75	32.629
311.12	31.525
311.48	34.483
311.85	33.019
312.22	32.050
312.58	31.809
312.95	32.313
313.31	30.680
313.68	32.952
314.05	34.615
314.41	33.970
314.78	31.521
315.14	31.480
315.51	33.574
315.87	32.673
316.24	32.373
316.61	32.846
316.97	33.855
317.34	29.941
317.70	32.218
318.07	31.858
318.43	33.855
318.80	33.739
319.16	33.333
319.53	32.176
319.89	33.429
320.26	32.600
320.62	34.226
320.99	32.424
321.35	32.424
321.72	33.573
322.08	34.353
322.45	34.826
322.81	35.659
323.18	34.971
323.54	35.065
323.91	34.717
324.27	34.799
324.64	34.576
325.00	33.454
325.37	35.851
325.73	35.996
326.10	34.951
326.46	35.484
326.83	36.152
327.19	35.269
327.56	35.801
327.92	36.133
328.29	36.114
328.65	35.359
329.01	36.643
329.38	36.633
329.74	37.027
330.11	36.381
330.47	36.272
330.84	38.511
331.20	36.339
331.56	35.321
331.93	37.870
332.29	37.356
332.66	36.814
333.02	37.020
333.38	38.663
333.75	38.592
334.11	37.544
334.48	36.114
334.84	36.121
335.20	36.909
335.57	36.899
335.93	36.071
336.29	36.996
336.66	37.601
337.02	37.104
337.38	37.222
337.75	35.740
338.11	36.437
338.47	37.293
338.84	38.772
339.20	36.606
339.56	37.956
339.93	37.545
340.29	37.047
340.65	37.255
341.02	37.609
341.38	39.591
341.74	36.842
342.11	38.515
342.47	38.590
342.83	38.955
343.20	39.654
343.56	38.416
343.92	37.895
344.28	39.201
344.65	39.037
345.01	39.310
345.37	38.851
345.73	40.440
346.10	39.301
346.46	39.407
346.82	39.621
347.19	38.596
347.55	39.737
347.91	39.563
348.27	40.427
348.63	40.552
349.00	39.563
349.36	39.327
349.72	39.695
350.08	40.438
350.45	41.090
350.81	39.886
351.17	40.113
351.53	39.230
351.89	40.017
352.26	40.489
352.62	40.577
352.98	40.519
353.34	39.195
353.70	39.853
354.07	41.048
354.43	40.000
354.79	39.662
355.15	40.702
355.51	41.007
355.87	42.286
356.24	42.101
356.60	40.176
356.96	41.593
357.32	39.166
357.68	42.283
358.04	40.934
358.40	41.251
358.77	40.689
359.13	40.647
359.49	41.882
359.85	40.952
360.21	41.866
360.57	42.568
360.93	42.692
361.29	40.590
361.66	41.254
362.02	40.970
362.38	40.456
362.74	41.220
363.10	40.563
363.46	40.939
363.82	42.630
364.18	41.557
364.54	41.828
364.90	42.068
365.26	41.985
365.62	42.367
365.98	41.709
366.35	39.685
366.71	41.866
367.07	41.733
367.43	43.396
367.79	42.541
368.15	42.888
368.51	41.134
368.87	42.113
369.23	41.331
369.59	41.564
369.95	41.471
370.31	42.023
370.67	41.232
371.03	42.921
371.39	42.128
371.75	41.618
372.11	40.683
372.47	43.109
372.83	42.939
373.19	41.546
373.55	42.868
373.91	44.330
374.27	40.619
374.63	42.764
374.99	42.797
375.35	42.219
375.71	41.193
376.07	42.524
376.42	41.472
376.78	43.009
377.14	41.723
377.50	41.987
377.86	42.088
378.22	42.920
378.58	41.792
378.94	43.118
379.30	42.366
379.66	42.640
380.02	43.428
380.38	41.469
380.74	43.637
381.09	43.826
381.45	43.639
381.81	43.489
382.17	42.739
382.53	43.396
382.89	43.889
383.25	42.902
383.61	44.672
383.97	43.277
384.32	42.233
384.68	43.061
385.04	44.376
385.40	43.406
385.76	42.690
386.12	43.329
386.48	44.682
386.83	44.965
387.19	44.218
387.55	43.785
387.91	44.921
388.27	43.164
388.62	43.577
388.98	42.998
389.34	43.867
389.70	42.918
390.06	45.057
390.42	44.682
390.77	43.766
391.13	43.395
391.49	43.464
391.85	43.348
392.20	43.975
392.56	44.886
392.92	44.614
393.28	44.615
393.64	43.345
393.99	44.533
394.35	44.603
394.71	43.476
395.07	43.364
395.42	44.808
395.78	44.529
396.14	44.817
396.50	45.301
396.85	45.455
397.21	44.328
397.57	45.195
397.92	44.832
398.28	42.993
398.64	44.205
399.00	45.271
399.35	43.824
399.71	44.097
400.07	45.713
400.42	44.908
400.78	45.235
401.14	43.354
401.49	43.821
401.85	43.557
402.21	43.892
402.57	44.294
402.92	45.397
403.28	44.785
403.63	43.379
403.99	45.223
404.35	44.242
404.70	44.245
405.06	44.030
405.42	44.541
405.77	45.143
406.13	43.510
406.49	44.175
406.84	44.241
407.20	44.563
407.55	44.927
407.91	45.933
408.27	44.480
408.62	44.431
408.98	44.669
409.34	45.018
409.69	44.258
410.05	44.548
410.40	44.771
410.76	44.982
411.11	44.511
411.47	43.770
411.83	45.449
412.18	44.465
412.54	44.458
412.89	44.217
413.25	44.687
413.60	46.140
413.96	43.534
414.31	44.532
414.67	46.641
415.03	45.364
415.38	45.232
415.74	44.566
416.09	44.938
416.45	44.712
416.80	45.274
417.16	45.979
417.51	45.455
417.87	43.802
418.22	45.994
418.58	44.287
418.93	44.595
419.29	44.176
419.64	44.899
420.00	45.366
420.35	43.768
420.71	45.129
421.06	44.690
421.42	44.211
421.77	44.170
422.12	44.638
422.48	44.684
422.83	45.253
423.19	44.420
423.54	44.922
423.90	44.870
424.25	43.663
424.61	44.881
424.96	44.956
425.31	43.909
425.67	43.708
426.02	44.114
426.38	44.872
426.73	42.949
427.09	44.498
427.44	45.313
427.79	44.451
428.15	45.238
428.50	44.763
428.85	45.054
429.21	43.954
429.56	44.479
429.92	44.389
430.27	43.793
430.62	44.444
430.98	44.681
431.33	44.072
431.68	45.079
432.04	44.569
432.39	43.918
432.74	45.302
433.10	43.463
433.45	45.073
433.80	44.013
434.16	44.391
434.51	44.053
434.86	44.812
435.22	44.469
435.57	44.681
435.92	45.056
436.28	45.077
436.63	44.371
436.98	43.389
437.34	44.007
437.69	45.916
438.04	44.295
438.39	45.075
438.75	45.904
439.10	44.693
439.45	43.743
439.81	44.955
440.16	43.761
440.51	45.694
440.86	44.760
441.22	43.771
441.57	44.958
441.92	44.473
442.27	45.533
442.63	44.181
442.98	45.859
443.33	44.674
443.68	44.553
444.03	44.510
444.39	44.109
444.74	44.426
445.09	43.881
445.44	44.560
445.79	44.236
446.15	43.568
446.50	44.319
446.85	43.679
447.20	44.824
447.55	44.947
447.91	44.181
448.26	43.962
448.61	44.601
448.96	43.909
449.31	44.826
449.66	44.232
450.02	42.396
450.37	44.218
450.72	43.993
451.07	44.790
451.42	44.012
451.77	44.157
452.12	44.977
452.47	44.154
452.83	44.697
453.18	43.888
453.53	45.083
453.88	44.241
454.23	44.531
454.58	44.216
454.93	45.772
455.28	41.958
455.63	43.750
455.98	44.405
456.34	44.912
456.69	44.771
457.04	45.263
457.39	43.366
457.74	44.922
458.09	44.106
458.44	44.242
458.79	43.059
459.14	44.074
459.49	44.542
459.84	44.266
460.19	44.078
460.54	43.519
460.89	44.048
461.24	44.202
461.59	44.858
461.94	44.205
462.29	44.570
462.64	43.969
462.99	43.787
463.34	44.733
463.69	44.403
464.04	43.420
464.39	43.768
464.74	43.316
465.09	42.702
465.44	44.488
465.79	43.456
466.14	43.733
466.49	44.160
466.84	43.841
467.19	43.150
467.54	44.938
467.89	44.178
468.24	44.154
468.59	44.811
468.94	43.311
469.29	44.344
469.64	44.846
469.99	44.993
470.34	45.178
470.68	45.330
471.03	44.354
471.38	45.448
471.73	43.971
472.08	44.737
472.43	44.158
472.78	44.108
473.13	43.132
473.48	43.758
473.83	44.634
474.17	44.244
474.52	44.913
474.87	43.666
475.22	43.239
475.57	43.149
475.92	43.813
476.27	43.630
476.61	43.574
476.96	43.101
477.31	43.747
477.66	43.982
478.01	42.917
478.36	44.262
478.70	44.081
479.05	43.930
479.40	43.552
479.75	43.518
480.10	43.539
480.45	42.218
480.79	43.526
481.14	42.466
481.49	43.474
481.84	43.118
482.19	43.889
482.53	43.349
482.88	43.369
483.23	43.411
483.58	42.493
483.92	43.252
484.27	41.874
484.62	43.319
484.97	42.846
485.31	42.397
485.66	39.700
486.01	39.554
486.36	39.285
486.70	40.959
487.05	41.137
487.40	41.650
487.75	41.320
488.09	42.038
488.44	41.861
488.79	42.966
489.13	42.131
489.48	42.251
489.83	42.382
490.17	42.832
490.52	42.338
490.87	42.469
491.22	41.701
491.56	42.460
491.91	43.369
492.26	42.260
492.60	42.212
492.95	42.095
493.30	42.196
493.64	43.257
493.99	42.851
494.34	42.553
494.68	42.582
495.03	42.528
495.37	42.811
495.72	43.080
496.07	43.341
496.41	41.593
496.76	42.700
497.11	42.593
497.45	42.850
497.80	42.131
498.14	42.367
498.49	42.293
498.84	42.522
499.18	43.095
499.53	42.925
499.87	43.057
500.22	41.639
500.56	43.155
500.91	42.404
501.26	42.248
501.60	43.284
501.95	42.392
502.29	43.814
502.64	41.620
502.98	42.871
503.33	41.682
503.67	43.295
504.02	42.703
504.36	42.068
504.71	43.087
505.06	42.217
505.40	43.170
505.75	41.369
506.09	41.934
506.44	42.674
506.78	42.621
507.13	42.857
507.47	42.778
507.82	43.161
508.16	42.553
508.51	44.039
508.85	42.502
509.19	42.602
509.54	42.908
509.88	42.710
510.23	42.622
510.57	44.118
510.92	43.345
511.26	42.806
511.61	43.620
511.95	44.102
512.30	43.796
512.64	43.579
512.98	42.980
513.33	43.737
513.67	43.063
514.02	42.695
514.36	43.965
514.70	44.438
515.05	43.112
515.39	43.971
515.74	43.581
516.08	43.823
516.42	43.119
516.77	45.095
517.11	43.008
517.46	44.639
517.80	44.309
518.14	42.907
518.49	43.641
518.83	43.750
519.17	43.533
519.52	43.407
519.86	43.354
520.20	44.277
520.55	44.764
520.89	43.978
521.23	44.451
521.58	44.418
521.92	45.132
522.26	43.868
522.61	44.611
522.95	45.242
523.29	44.309
523.64	44.695
523.98	44.917
524.32	44.029
524.66	43.776
525.01	44.608
525.35	44.734
525.69	43.473
526.04	44.424
526.38	45.027
526.72	43.926
527.06	44.821
527.41	43.626
527.75	45.209
528.09	45.408
528.43	44.869
528.78	43.577
529.12	45.333
529.46	45.132
529.80	44.431
530.15	44.984
530.49	43.323
530.83	44.177
531.17	45.627
531.51	46.304
531.86	43.935
532.20	45.698
532.54	45.099
532.88	44.801
533.22	43.410
533.57	44.321
533.91	44.311
534.25	44.168
534.59	43.990
534.93	43.783
535.27	44.418
535.62	43.834
535.96	44.444
536.30	43.929
536.64	44.495
536.98	44.725
537.32	44.108
537.66	44.533
538.01	45.095
538.35	42.986
538.69	44.033
539.03	43.795
539.37	44.089
539.71	42.320
540.05	44.444
540.39	44.518
540.73	42.691
541.07	42.829
541.42	44.162
541.76	45.097
542.10	44.308
542.44	43.709
542.78	45.916
543.12	43.634
543.46	43.869
543.80	45.088
544.14	42.619
544.48	43.238
544.82	44.644
545.16	44.307
545.50	44.537
545.84	43.616
546.18	44.512
546.52	44.804
546.86	45.086
547.20	44.100
547.54	43.621
547.88	42.666
548.22	43.337
548.56	44.088
548.90	42.766
549.24	44.108
549.58	43.861
549.92	44.025
550.26	45.099
550.60	43.638
550.94	44.225
551.28	42.794
551.62	43.853
551.96	42.807
552.30	42.935
552.64	44.895
552.98	45.559
553.32	45.246
553.66	44.581
554.00	44.955
554.34	42.374
554.68	44.063
555.02	43.300
555.36	44.676
555.69	43.099
556.03	43.742
556.37	43.656
556.71	42.906
557.05	43.417
557.39	42.827
557.73	43.825
558.07	44.307
558.41	43.922
558.75	44.232
559.08	44.444
559.42	45.427
559.76	43.824
560.10	42.827
560.44	43.746
560.78	41.983
561.12	42.810
561.45	43.351
561.79	43.968
562.13	42.924
562.47	44.331
562.81	43.863
563.15	42.809
563.48	43.302
563.82	43.444
564.16	42.773
564.50	42.448
564.84	42.351
565.17	42.535
565.51	44.089
565.85	42.703
566.19	42.642
566.52	43.065
566.86	42.315
567.20	42.099
567.54	42.751
567.88	41.065
568.21	42.487
568.55	42.063
568.89	41.148
569.23	40.820
569.56	40.081
569.90	40.075
570.24	39.254
570.57	39.000
570.91	38.138
571.25	39.438
571.59	38.616
571.92	38.911
572.26	39.630
572.60	39.219
572.93	38.741
573.27	38.864
573.61	38.498
573.95	38.398
574.28	38.166
574.62	38.047
574.96	37.969
575.29	38.191
575.63	38.135
575.97	38.454
576.30	38.157
576.64	37.731
576.98	37.652
577.31	37.708
577.65	38.371
577.98	38.319
578.32	37.093
578.66	37.358
578.99	38.256
579.33	37.812
579.67	37.533
580.00	38.072
580.34	37.708
580.67	37.887
581.01	38.003
581.35	37.370
581.68	37.233
582.02	36.505
582.35	37.342
582.69	37.730
583.02	38.041
583.36	38.068
583.70	38.087
584.03	38.166
584.37	38.314
584.70	37.722
585.04	37.891
585.37	37.605
585.71	37.336
586.04	37.497
586.38	37.905
586.72	38.470
587.05	37.435
587.39	37.836
587.72	37.645
588.06	37.407
588.39	38.957
588.73	38.428
589.06	38.672
589.40	38.283
589.73	38.543
590.07	39.039
590.40	38.327
590.73	39.500
591.07	39.967
591.40	39.899
591.74	39.870
592.07	39.223
592.41	38.280
592.74	38.390
593.08	38.008
593.41	37.710
593.75	37.570
594.08	37.479
594.41	38.317
594.75	38.595
595.08	37.938
595.42	38.949
595.75	38.640
596.09	39.091
596.42	39.725
596.75	39.510
597.09	39.481
597.42	37.690
597.75	38.853
598.09	38.609
598.42	38.488
598.76	38.468
599.09	37.932
599.42	38.064
599.76	38.360
600.09	37.960
600.42	37.874
600.76	37.464
601.09	38.069
601.42	38.242
601.76	38.634
602.09	38.577
602.42	38.455
602.76	39.420
603.09	38.828
603.42	37.915
603.76	37.919
604.09	37.728
604.42	38.687
604.76	38.802
605.09	38.270
605.42	38.478
605.75	38.204
606.09	38.674
606.42	38.333
606.75	38.822
607.09	38.887
607.42	37.741
607.75	38.101
608.08	37.733
608.42	39.355
608.75	38.774
609.08	38.067
609.41	38.458
609.75	38.495
610.08	38.926
610.41	38.641
610.74	38.836
611.07	39.279
611.41	38.960
611.74	39.869
612.07	39.182
612.40	40.609
612.73	40.000
613.07	40.140
613.40	39.547
613.73	39.696
614.06	39.409
614.39	38.228
614.72	38.211
615.06	38.655
615.39	39.066
615.72	37.832
616.05	38.278
616.38	39.411
616.71	40.380
617.05	39.988
617.38	40.649
617.71	39.399
618.04	40.445
618.37	39.740
618.70	40.572
619.03	39.803
619.36	39.308
619.69	41.690
620.03	40.659
620.36	40.709
620.69	39.589
621.02	41.372
621.35	40.016
621.68	40.966
622.01	40.248
622.34	39.334
622.67	40.760
623.00	40.719
623.33	38.456
623.66	39.886
623.99	41.679
624.32	39.872
624.65	39.901
624.99	40.510
625.32	40.695
625.65	40.120
625.98	41.507
626.31	41.369
626.64	40.245
626.97	40.981
627.30	41.230
627.63	40.033
627.96	42.220
628.29	42.257
628.62	42.635
628.95	43.396
629.28	41.606
629.61	42.713
629.94	42.762
630.26	42.231
630.59	41.277
630.92	42.050
631.25	41.362
631.58	41.241
