SpectraSuite Data File
++++++++++++++++++++++++++++++++++++
Date: Wed May 13 20:59:11 PDT 2015
User: schluterlab
Dark Spectrum Present: Yes
Reference Spectrum Present: Yes
Number of Sampled Component Spectra: 1
Spectrometers: USB2E3373
Integration Time (usec): 3000 (USB2E3373)
Spectra Averaged: 3 (USB2E3373)
Boxcar Smoothing: 0 (USB2E3373)
Correct for Electrical Dark: No (USB2E3373)
Strobe/Lamp Enabled: No (USB2E3373)
Correct for Detector Non-linearity: No (USB2E3373)
Correct for Stray Light: No (USB2E3373)
Number of Pixels in Processed Spectrum: 2048
>>>>>Begin Processed Spectral Data<<<<<
178.53	0.000
178.91	50.000
179.29	125.000
179.67	50.000
180.04	33.333
180.42	100.000
180.80	1100.000
181.18	183.333
181.56	-150.000
181.94	0.000
182.31	27.273
182.69	61.538
183.07	60.000
183.45	183.333
183.83	-11.111
184.20	14.286
184.58	233.333
184.96	66.667
185.34	185.714
185.72	0.000
186.09	600.000
186.47	60.000
186.85	-120.000
187.23	400.000
187.61	350.000
187.98	300.000
188.36	112.500
188.74	0.000
189.12	109.091
189.49	200.000
189.87	41.667
190.25	140.000
190.63	-100.000
191.00	200.000
191.38	-60.000
191.76	50.000
192.14	33.333
192.51	0.000
192.89	400.000
193.27	-50.000
193.65	-160.000
194.02	63.636
194.40	60.000
194.78	1500.000
195.15	-60.000
195.53	20.000
195.91	-75.000
196.29	133.333
196.66	0.000
197.04	50.000
197.42	340.000
197.79	140.000
198.17	-75.000
198.55	0.000
198.92	50.000
199.30	-66.667
199.68	70.000
200.05	-250.000
200.43	50.000
200.81	-600.000
201.18	-80.000
201.56	16.667
201.94	400.000
202.31	13.043
202.69	100.000
203.07	-233.333
203.44	-20.000
203.82	0.000
204.19	80.000
204.57	0.000
204.95	-50.000
205.32	0.000
205.70	650.000
206.08	-50.000
206.45	16.667
206.83	150.000
207.20	-66.667
207.58	90.000
207.96	-800.000
208.33	14.286
208.71	0.000
209.08	37.500
209.46	200.000
209.84	0.000
210.21	10.000
210.59	1100.000
210.96	200.000
211.34	700.000
211.71	-150.000
212.09	-133.333
212.46	-50.000
212.84	166.667
213.22	275.000
213.59	-200.000
213.97	-300.000
214.34	-550.000
214.72	38.462
215.09	150.000
215.47	33.333
215.84	50.000
216.22	87.500
216.59	350.000
216.97	66.667
217.34	44.444
217.72	0.000
218.09	-66.667
218.47	500.000
218.84	114.286
219.22	-37.500
219.59	-166.667
219.97	-75.000
220.34	150.000
220.72	-40.000
221.09	0.000
221.47	-66.667
221.84	-200.000
222.22	0.000
222.59	200.000
222.97	33.333
223.34	50.000
223.72	-1300.000
224.09	0.000
224.46	100.000
224.84	112.500
225.21	0.000
225.59	0.000
225.96	33.333
226.34	50.000
226.71	-85.714
227.08	450.000
227.46	37.500
227.83	800.000
228.21	43.750
228.58	200.000
228.95	29.412
229.33	112.500
229.70	125.000
230.08	7.692
230.45	0.000
230.82	33.333
231.20	57.143
231.57	75.000
231.95	300.000
232.32	166.667
232.69	5.882
233.07	-1100.000
233.44	13.043
233.81	-450.000
234.19	0.000
234.56	46.667
234.93	66.667
235.31	52.632
235.68	-46.154
236.05	76.923
236.43	66.667
236.80	15.152
237.17	6.667
237.55	11.765
237.92	20.690
238.29	11.111
238.67	13.889
239.04	0.000
239.41	17.021
239.79	23.404
240.16	20.930
240.53	17.857
240.91	28.571
241.28	23.214
241.65	14.516
242.02	27.632
242.40	17.391
242.77	5.797
243.14	5.128
243.51	20.213
243.89	25.000
244.26	36.792
244.63	19.231
245.00	12.500
245.38	15.966
245.75	13.934
246.12	11.278
246.49	10.569
246.87	5.042
247.24	15.541
247.61	18.543
247.98	19.872
248.36	20.118
248.73	19.101
249.10	18.182
249.47	18.817
249.84	22.632
250.22	19.403
250.59	16.355
250.96	17.727
251.33	12.919
251.70	15.481
252.08	13.808
252.45	20.576
252.82	17.871
253.19	15.564
253.56	17.266
253.94	17.794
254.31	18.662
254.68	18.121
255.05	18.152
255.42	19.231
255.79	16.258
256.16	18.612
256.54	15.238
256.91	14.873
257.28	19.497
257.65	15.605
258.02	13.196
258.39	17.544
258.76	15.407
259.14	16.193
259.51	16.854
259.88	16.260
260.25	16.667
260.62	14.888
260.99	15.915
261.36	19.171
261.73	15.309
262.10	13.486
262.47	13.086
262.85	12.189
263.22	17.179
263.59	16.623
263.96	14.842
264.33	15.625
264.70	18.372
265.07	16.667
265.44	17.701
265.81	13.272
266.18	16.173
266.55	17.467
266.92	15.042
267.29	14.609
267.66	17.197
268.03	17.078
268.40	13.136
268.77	16.322
269.14	13.673
269.51	17.454
269.88	14.257
270.25	14.831
270.62	14.959
270.99	14.961
271.36	15.476
271.73	16.265
272.10	14.667
272.47	16.507
272.84	16.339
273.21	15.460
273.58	14.754
273.95	15.094
274.32	14.179
274.69	14.754
275.06	16.078
275.43	16.573
275.80	15.957
276.17	14.549
276.54	14.032
276.91	14.983
277.28	12.996
277.65	14.685
278.02	15.000
278.39	14.032
278.76	15.552
279.13	16.295
279.50	14.483
279.87	15.036
280.23	14.414
280.60	13.841
280.97	15.260
281.34	15.773
281.71	14.472
282.08	13.504
282.45	13.607
282.82	13.898
283.19	16.616
283.56	13.750
283.92	14.985
284.29	14.821
284.66	14.827
285.03	13.518
285.40	14.502
285.77	15.315
286.14	14.286
286.51	15.892
286.87	14.000
287.24	14.749
287.61	14.759
287.98	14.559
288.35	14.307
288.72	14.634
289.08	14.245
289.45	12.628
289.82	14.221
290.19	15.007
290.56	12.358
290.93	12.017
291.29	12.449
291.66	13.661
292.03	14.850
292.40	13.997
292.77	14.993
293.13	13.808
293.50	13.856
293.87	13.733
294.24	15.212
294.60	13.784
294.97	13.624
295.34	11.609
295.71	12.484
296.08	12.435
296.44	13.138
296.81	11.815
297.18	13.500
297.55	12.264
297.91	12.298
298.28	13.196
298.65	11.946
299.02	11.722
299.38	11.411
299.75	11.899
300.12	12.209
300.48	11.930
300.85	11.085
301.22	13.124
301.59	11.854
301.95	9.988
302.32	11.319
302.69	11.977
303.05	12.071
303.42	12.159
303.79	12.618
304.15	12.815
304.52	13.871
304.89	12.403
305.25	11.855
305.62	11.931
305.99	12.078
306.35	13.271
306.72	13.225
307.09	12.304
307.45	12.567
307.82	12.632
308.19	12.539
308.55	12.692
308.92	14.342
309.29	12.513
309.65	12.188
310.02	12.823
310.38	14.126
310.75	12.919
311.12	14.869
311.48	14.144
311.85	13.484
312.22	15.280
312.58	13.333
312.95	14.030
313.31	15.427
313.68	14.599
314.05	16.352
314.41	16.619
314.78	15.750
315.14	16.667
315.51	16.651
315.87	16.589
316.24	16.804
316.61	18.630
316.97	18.426
317.34	18.004
317.70	18.376
318.07	19.166
318.43	18.699
318.80	19.634
319.16	18.921
319.53	19.982
319.89	18.428
320.26	20.240
320.62	21.131
320.99	20.930
321.35	21.048
321.72	22.425
322.08	22.232
322.45	23.959
322.81	24.492
323.18	23.882
323.54	24.278
323.91	24.390
324.27	25.113
324.64	23.693
325.00	24.847
325.37	27.474
325.73	26.684
326.10	28.259
326.46	28.679
326.83	28.074
327.19	29.106
327.56	29.895
327.92	29.284
328.29	31.636
328.65	31.376
329.01	30.255
329.38	33.478
329.74	31.931
330.11	33.093
330.47	32.205
330.84	32.852
331.20	31.853
331.56	33.877
331.93	32.989
332.29	33.710
332.66	32.458
333.02	34.579
333.38	35.088
333.75	32.509
334.11	34.983
334.48	34.350
334.84	34.806
335.20	34.906
335.57	34.900
335.93	34.192
336.29	34.764
336.66	34.530
337.02	35.304
337.38	35.074
337.75	35.659
338.11	35.098
338.47	34.589
338.84	35.653
339.20	36.596
339.56	35.495
339.93	35.782
340.29	35.867
340.65	36.356
341.02	35.275
341.38	38.767
341.74	35.714
342.11	36.581
342.47	36.653
342.83	36.029
343.20	36.887
343.56	36.795
343.92	35.987
344.28	36.932
344.65	36.082
345.01	37.046
345.37	37.993
345.73	38.072
346.10	36.758
346.46	36.829
346.82	35.955
347.19	36.551
347.55	36.834
347.91	36.087
348.27	36.672
348.63	35.897
349.00	36.950
349.36	37.127
349.72	37.587
350.08	37.285
350.45	37.040
350.81	37.793
351.17	36.875
351.53	38.256
351.89	34.234
352.26	36.371
352.62	36.667
352.98	36.502
353.34	37.520
353.70	37.150
354.07	37.020
354.43	36.392
354.79	38.862
355.15	37.267
355.51	36.598
355.87	37.138
356.24	37.961
356.60	37.608
356.96	36.915
357.32	37.152
357.68	37.051
358.04	38.092
358.40	37.752
358.77	37.768
359.13	38.677
359.49	37.774
359.85	38.514
360.21	39.167
360.57	38.175
360.93	38.088
361.29	38.268
361.66	38.573
362.02	38.547
362.38	38.183
362.74	37.999
363.10	39.262
363.46	36.816
363.82	38.359
364.18	37.999
364.54	39.096
364.90	37.631
365.26	38.146
365.62	39.134
365.98	38.434
366.35	38.440
366.71	37.375
367.07	37.704
367.43	38.815
367.79	38.360
368.15	40.366
368.51	37.271
368.87	38.172
369.23	39.858
369.59	39.323
369.95	39.115
370.31	37.587
370.67	39.247
371.03	39.421
371.39	38.538
371.75	39.929
372.11	40.028
372.47	39.293
372.83	39.251
373.19	38.705
373.55	39.451
373.91	40.311
374.27	39.627
374.63	39.829
374.99	38.928
375.35	39.384
375.71	39.810
376.07	40.439
376.42	38.636
376.78	39.762
377.14	40.814
377.50	39.505
377.86	39.774
378.22	39.444
378.58	39.786
378.94	40.938
379.30	39.101
379.66	40.197
380.02	40.625
380.38	40.120
380.74	41.423
381.09	39.686
381.45	39.238
381.81	40.296
382.17	39.319
382.53	40.123
382.89	40.169
383.25	40.185
383.61	41.102
383.97	40.375
384.32	39.635
384.68	40.407
385.04	40.134
385.40	41.719
385.76	39.903
386.12	40.930
386.48	40.940
386.83	40.864
387.19	39.605
387.55	41.508
387.91	41.882
388.27	40.629
388.62	40.762
388.98	41.239
389.34	41.228
389.70	40.354
390.06	40.063
390.42	41.624
390.77	41.192
391.13	41.351
391.49	40.291
391.85	40.000
392.20	41.165
392.56	41.143
392.92	40.492
393.28	40.732
393.64	40.367
393.99	39.290
394.35	41.296
394.71	40.833
395.07	39.182
395.42	41.194
395.78	40.476
396.14	41.725
396.50	41.535
396.85	42.001
397.21	40.449
397.57	39.752
397.92	40.359
398.28	39.989
398.64	40.012
399.00	40.458
399.35	41.260
399.71	40.827
400.07	41.386
400.42	40.564
400.78	40.665
401.14	39.669
401.49	40.623
401.85	40.909
402.21	40.000
402.57	41.386
402.92	41.176
403.28	40.338
403.63	39.802
403.99	40.627
404.35	40.711
404.70	40.483
405.06	40.399
405.42	39.510
405.77	40.438
406.13	41.371
406.49	40.024
406.84	40.904
407.20	40.201
407.55	40.130
407.91	39.179
408.27	40.299
408.62	40.638
408.98	40.012
409.34	40.408
409.69	41.066
410.05	40.858
410.40	39.623
410.76	40.674
411.11	40.672
411.47	40.743
411.83	40.674
412.18	39.484
412.54	40.727
412.89	39.812
413.25	39.292
413.60	40.878
413.96	40.699
414.31	40.136
414.67	40.254
415.03	39.783
415.38	40.225
415.74	39.961
416.09	39.921
416.45	40.260
416.80	40.403
417.16	40.621
417.51	38.848
417.87	41.534
418.22	39.754
418.58	40.736
418.93	40.427
419.29	41.320
419.64	39.313
420.00	40.444
420.35	41.064
420.71	40.402
421.06	40.713
421.42	42.092
421.77	41.329
422.12	41.089
422.48	40.294
422.83	40.992
423.19	41.001
423.54	41.578
423.90	40.618
424.25	41.652
424.61	41.528
424.96	40.923
425.31	40.381
425.67	41.211
426.02	41.519
426.38	42.413
426.73	40.867
427.09	42.089
427.44	41.398
427.79	40.677
428.15	41.896
428.50	41.450
428.85	42.251
429.21	42.150
429.56	41.817
429.92	40.760
430.27	41.513
430.62	41.396
430.98	40.984
431.33	41.483
431.68	42.705
432.04	41.859
432.39	41.224
432.74	41.876
433.10	42.475
433.45	42.071
433.80	42.069
434.16	41.016
434.51	40.761
434.86	41.519
435.22	41.879
435.57	41.892
435.92	42.039
436.28	41.381
436.63	42.725
436.98	41.716
437.34	43.162
437.69	40.614
438.04	40.804
438.39	42.777
438.75	41.597
439.10	43.320
439.45	42.373
439.81	42.488
440.16	42.377
440.51	42.331
440.86	44.102
441.22	42.513
441.57	41.757
441.92	42.250
442.27	41.937
442.63	42.250
442.98	43.229
443.33	41.761
443.68	42.172
444.03	42.424
444.39	42.737
444.74	42.463
445.09	42.346
445.44	42.986
445.79	42.798
446.15	42.485
446.50	43.557
446.85	43.185
447.20	43.178
447.55	42.921
447.91	43.258
448.26	43.568
448.61	43.326
448.96	43.052
449.31	44.318
449.66	44.303
450.02	43.491
450.37	43.890
450.72	43.169
451.07	43.824
451.42	42.795
451.77	43.701
452.12	42.900
452.47	43.512
452.83	43.514
453.18	44.303
453.53	44.262
453.88	43.735
454.23	44.005
454.58	44.363
454.93	44.003
455.28	44.766
455.63	43.169
455.98	43.944
456.34	43.865
456.69	44.089
457.04	44.334
457.39	44.317
457.74	44.764
458.09	43.365
458.44	44.888
458.79	43.987
459.14	42.247
459.49	43.659
459.84	43.292
460.19	42.137
460.54	43.066
460.89	43.525
461.24	44.883
461.59	43.357
461.94	44.564
462.29	43.995
462.64	44.789
462.99	44.199
463.34	44.820
463.69	45.232
464.04	42.797
464.39	43.929
464.74	42.875
465.09	43.397
465.44	42.368
465.79	44.106
466.14	42.702
466.49	42.698
466.84	43.216
467.19	44.140
467.54	44.459
467.89	44.815
468.24	45.175
468.59	43.913
468.94	45.594
469.29	44.547
469.64	43.863
469.99	44.690
470.34	44.032
470.68	44.684
471.03	45.416
471.38	45.202
471.73	44.239
472.08	45.292
472.43	45.778
472.78	45.707
473.13	44.591
473.48	44.618
473.83	44.758
474.17	45.378
474.52	44.401
474.87	44.692
475.22	45.229
475.57	43.558
475.92	44.984
476.27	43.124
476.61	43.828
476.96	45.860
477.31	44.768
477.66	46.102
478.01	44.451
478.36	44.251
478.70	44.576
479.05	44.784
479.40	43.734
479.75	43.677
480.10	45.028
480.45	44.090
480.79	43.753
481.14	44.478
481.49	42.921
481.84	43.402
482.19	42.937
482.53	43.667
482.88	44.343
483.23	44.370
483.58	43.951
483.92	43.677
484.27	43.001
484.62	42.033
484.97	43.882
485.31	42.633
485.66	38.904
486.01	39.361
486.36	38.697
486.70	39.218
487.05	40.744
487.40	40.909
487.75	42.119
488.09	41.977
488.44	42.972
488.79	43.793
489.13	43.380
489.48	42.796
489.83	43.993
490.17	44.394
490.52	45.021
490.87	43.069
491.22	44.371
491.56	44.609
491.91	44.071
492.26	44.923
492.60	43.001
492.95	44.218
493.30	43.750
493.64	43.309
493.99	44.155
494.34	45.087
494.68	45.107
495.03	44.911
495.37	44.477
495.72	44.311
496.07	44.812
496.41	43.425
496.76	44.241
497.11	44.460
497.45	44.261
497.80	46.138
498.14	44.736
498.49	44.730
498.84	44.180
499.18	43.803
499.53	43.575
499.87	43.134
500.22	44.102
500.56	44.183
500.91	44.970
501.26	44.828
501.60	44.265
501.95	43.316
502.29	43.981
502.64	45.130
502.98	43.401
503.33	43.698
503.67	44.255
504.02	44.314
504.36	43.883
504.71	44.106
505.06	44.269
505.40	45.309
505.75	44.914
506.09	44.609
506.44	44.355
506.78	44.845
507.13	45.790
507.47	44.539
507.82	45.107
508.16	44.538
508.51	43.027
508.85	43.961
509.19	44.550
509.54	45.523
509.88	44.140
510.23	44.474
510.57	43.856
510.92	44.343
511.26	45.380
511.61	45.390
511.95	44.322
512.30	44.697
512.64	46.481
512.98	45.540
513.33	45.239
513.67	45.315
514.02	45.724
514.36	44.663
514.70	46.132
515.05	46.050
515.39	44.870
515.74	46.596
516.08	44.779
516.42	45.334
516.77	44.991
517.11	46.384
517.46	46.399
517.80	46.913
518.14	46.418
518.49	44.665
518.83	45.286
519.17	46.024
519.52	46.019
519.86	46.023
520.20	44.936
520.55	46.455
520.89	45.731
521.23	47.564
521.58	46.397
521.92	45.255
522.26	46.194
522.61	45.249
522.95	46.826
523.29	46.286
523.64	46.281
523.98	46.125
524.32	45.243
524.66	45.260
525.01	46.658
525.35	46.741
525.69	46.720
526.04	45.407
526.38	45.953
526.72	45.365
527.06	45.841
527.41	45.797
527.75	44.860
528.09	46.971
528.43	46.133
528.78	45.284
529.12	45.343
529.46	44.402
529.80	45.825
530.15	45.495
530.49	46.496
530.83	45.972
531.17	46.096
531.51	44.842
531.86	44.919
532.20	44.866
532.54	45.448
532.88	45.813
533.22	44.916
533.57	46.225
533.91	44.645
534.25	44.206
534.59	43.565
534.93	44.196
535.27	44.395
535.62	44.868
535.96	45.218
536.30	45.013
536.64	43.267
536.98	45.060
537.32	45.053
537.66	45.346
538.01	44.244
538.35	44.268
538.69	43.679
539.03	43.557
539.37	44.467
539.71	44.952
540.05	42.443
540.39	43.359
540.73	44.344
541.07	43.810
541.42	43.838
541.76	43.978
542.10	43.466
542.44	44.283
542.78	43.789
543.12	42.790
543.46	43.746
543.80	43.449
544.14	43.427
544.48	43.729
544.82	43.779
545.16	41.447
545.50	43.011
545.84	44.039
546.18	42.567
546.52	42.625
546.86	42.261
547.20	43.388
547.54	43.388
547.88	43.252
548.22	41.954
548.56	41.895
548.90	41.543
549.24	42.917
549.58	42.349
549.92	43.067
550.26	44.059
550.60	43.994
550.94	43.507
551.28	42.771
551.62	42.707
551.96	42.899
552.30	42.358
552.64	41.879
552.98	43.892
553.32	43.764
553.66	45.194
554.00	43.197
554.34	42.198
554.68	42.804
555.02	43.563
555.36	42.965
555.69	42.607
556.03	42.459
556.37	41.963
556.71	41.486
557.05	42.657
557.39	42.200
557.73	43.192
558.07	43.708
558.41	44.587
558.75	43.418
559.08	42.983
559.42	43.509
559.76	41.590
560.10	42.890
560.44	42.225
560.78	41.655
561.12	41.345
561.45	40.476
561.79	40.440
562.13	40.084
562.47	41.143
562.81	40.548
563.15	40.793
563.48	40.812
563.82	40.698
564.16	40.623
564.50	40.773
564.84	40.811
565.17	40.199
565.51	40.508
565.85	38.841
566.19	39.868
566.52	39.974
566.86	38.180
567.20	38.974
567.54	38.515
567.88	37.962
568.21	37.806
568.55	37.611
568.89	35.693
569.23	35.793
569.56	35.836
569.90	34.433
570.24	34.296
570.57	34.323
570.91	33.222
571.25	33.471
571.59	33.013
571.92	32.678
572.26	33.383
572.60	32.830
572.93	32.896
573.27	32.949
573.61	32.479
573.95	32.734
574.28	32.070
574.62	31.893
574.96	31.718
575.29	32.071
575.63	32.244
575.97	32.228
576.30	31.608
576.64	32.119
576.98	32.114
577.31	30.904
577.65	30.793
577.98	30.788
578.32	30.384
578.66	30.761
578.99	31.455
579.33	31.709
579.67	32.357
580.00	30.758
580.34	31.314
580.67	31.798
581.01	30.807
581.35	30.056
581.68	30.210
582.02	29.748
582.35	30.099
582.69	30.242
583.02	30.331
583.36	30.742
583.70	30.844
584.03	31.302
584.37	31.366
584.70	31.425
585.04	31.104
585.37	30.255
585.71	30.198
586.04	31.053
586.38	30.781
586.72	30.570
587.05	31.444
587.39	31.197
587.72	30.691
588.06	31.135
588.39	31.122
588.73	31.077
589.06	30.941
589.40	31.957
589.73	31.513
590.07	31.389
590.40	32.563
590.73	32.901
591.07	32.511
591.40	32.565
591.74	32.992
592.07	33.090
592.41	32.218
592.74	32.215
593.08	30.803
593.41	30.411
593.75	30.717
594.08	31.468
594.41	31.371
594.75	31.184
595.08	31.143
595.42	30.995
595.75	30.694
596.09	31.909
596.42	31.944
596.75	32.383
597.09	33.303
597.42	32.346
597.75	32.311
598.09	31.694
598.42	32.170
598.76	31.318
599.09	31.373
599.42	30.060
599.76	30.680
600.09	30.761
600.42	30.697
600.76	30.340
601.09	31.073
601.42	31.164
601.76	30.193
602.09	30.888
602.42	31.614
602.76	31.334
603.09	31.170
603.42	30.668
603.76	30.709
604.09	31.225
604.42	31.059
604.76	30.991
605.09	31.536
605.42	32.344
605.75	31.349
606.09	30.464
606.42	31.214
606.75	30.216
607.09	31.693
607.42	31.305
607.75	30.109
608.08	31.650
608.42	31.443
608.75	31.486
609.08	30.671
609.41	31.446
609.75	31.417
610.08	30.769
610.41	31.195
610.74	31.280
611.07	31.263
611.41	32.293
611.74	32.402
612.07	31.318
612.40	31.838
612.73	31.833
613.07	31.541
613.40	31.828
613.73	32.232
614.06	32.394
614.39	31.462
614.72	31.594
615.06	32.056
615.39	31.291
615.72	30.886
616.05	31.475
616.38	31.329
616.71	31.854
617.05	32.494
617.38	31.423
617.71	31.250
618.04	32.541
618.37	32.681
618.70	32.083
619.03	32.852
619.36	32.456
619.69	32.237
620.03	33.569
620.36	31.872
620.69	32.976
621.02	34.000
621.35	33.851
621.68	33.333
622.01	34.304
622.34	33.783
622.67	33.125
623.00	33.663
623.33	33.508
623.66	33.457
623.99	33.008
624.32	33.236
624.65	32.938
624.99	32.770
625.32	32.860
625.65	32.558
625.98	32.938
626.31	33.469
626.64	33.190
626.97	34.343
627.30	34.731
627.63	35.381
627.96	32.554
628.29	36.558
628.62	34.816
628.95	35.872
629.28	36.256
629.61	36.651
629.94	34.913
630.26	36.355
630.59	35.764
630.92	34.538
631.25	36.560
631.58	37.259
631.91	36.585
632.24	36.992
632.57	35.111
632.90	38.973
633.23	36.811
633.56	38.969
633.89	36.722
634.22	38.045
634.55	37.515
634.88	37.255
