SpectraSuite Data File
++++++++++++++++++++++++++++++++++++
Date: Wed May 13 21:03:47 PDT 2015
User: schluterlab
Dark Spectrum Present: Yes
Reference Spectrum Present: Yes
Number of Sampled Component Spectra: 1
Spectrometers: USB2E3373
Integration Time (usec): 3000 (USB2E3373)
Spectra Averaged: 3 (USB2E3373)
Boxcar Smoothing: 0 (USB2E3373)
Correct for Electrical Dark: No (USB2E3373)
Strobe/Lamp Enabled: No (USB2E3373)
Correct for Detector Non-linearity: No (USB2E3373)
Correct for Stray Light: No (USB2E3373)
Number of Pixels in Processed Spectrum: 2048
>>>>>Begin Processed Spectral Data<<<<<
178.53	0.000
178.91	200.000
179.29	133.333
179.67	-200.000
180.04	-333.333
180.42	60.000
180.80	1500.000
181.18	150.000
181.56	-225.000
181.94	0.000
182.31	45.455
182.69	-7.692
183.07	-80.000
183.45	300.000
183.83	88.889
184.20	71.429
184.58	533.333
184.96	-133.333
185.34	128.571
185.72	0.000
186.09	-800.000
186.47	-100.000
186.85	-80.000
187.23	-200.000
187.61	-100.000
187.98	900.000
188.36	-37.500
188.74	0.000
189.12	81.818
189.49	110.000
189.87	33.333
190.25	280.000
190.63	300.000
191.00	-120.000
191.38	220.000
191.76	225.000
192.14	50.000
192.51	-26.316
192.89	466.667
193.27	100.000
193.65	-60.000
194.02	154.545
194.40	110.000
194.78	500.000
195.15	120.000
195.53	-100.000
195.91	87.500
196.29	-200.000
196.66	0.000
197.04	50.000
197.42	240.000
197.79	20.000
198.17	-37.500
198.55	66.667
198.92	150.000
199.30	-133.333
199.68	110.000
200.05	350.000
200.43	266.667
200.81	-700.000
201.18	0.000
201.56	-183.333
201.94	550.000
202.31	56.522
202.69	-71.429
203.07	-366.667
203.44	-120.000
203.82	66.667
204.19	30.000
204.57	0.000
204.95	116.667
205.32	0.000
205.70	-50.000
206.08	-250.000
206.45	-66.667
206.83	-50.000
207.20	-266.667
207.58	10.000
207.96	-900.000
208.33	-28.571
208.71	-1100.000
209.08	200.000
209.46	300.000
209.84	0.000
210.21	110.000
210.59	2000.000
210.96	240.000
211.34	-700.000
211.71	-650.000
212.09	-66.667
212.46	-60.000
212.84	66.667
213.22	-50.000
213.59	-900.000
213.97	-250.000
214.34	-650.000
214.72	76.923
215.09	175.000
215.47	122.222
215.84	300.000
216.22	-112.500
216.59	0.000
216.97	300.000
217.34	188.889
217.72	0.000
218.09	66.667
218.47	100.000
218.84	42.857
219.22	-175.000
219.59	-300.000
219.97	100.000
220.34	-187.500
220.72	-40.000
221.09	0.000
221.47	-116.667
221.84	600.000
222.22	0.000
222.59	100.000
222.97	233.333
223.34	75.000
223.72	-1800.000
224.09	-250.000
224.46	27.273
224.84	-50.000
225.21	-100.000
225.59	-25.000
225.96	0.000
226.34	70.000
226.71	-242.857
227.08	700.000
227.46	-50.000
227.83	0.000
228.21	12.500
228.58	0.000
228.95	17.647
229.33	25.000
229.70	87.500
230.08	15.385
230.45	-25.000
230.82	16.667
231.20	128.571
231.57	-25.000
231.95	800.000
232.32	108.333
232.69	23.529
233.07	100.000
233.44	26.087
233.81	150.000
234.19	25.000
234.56	-26.667
234.93	-40.000
235.31	63.158
235.68	-23.077
236.05	-23.077
236.43	-16.667
236.80	6.061
237.17	-66.667
237.55	-29.412
237.92	-27.586
238.29	-7.407
238.67	16.667
239.04	6.452
239.41	23.404
239.79	38.298
240.16	34.884
240.53	28.571
240.91	35.714
241.28	32.143
241.65	32.258
242.02	9.211
242.40	28.986
242.77	17.391
243.14	17.949
243.51	23.404
243.89	17.308
244.26	32.075
244.63	21.154
245.00	29.167
245.38	26.891
245.75	16.393
246.12	21.053
246.49	18.699
246.87	10.084
247.24	20.946
247.61	19.205
247.98	26.923
248.36	21.302
248.73	19.101
249.10	22.727
249.47	22.043
249.84	23.684
250.22	24.378
250.59	25.234
250.96	30.455
251.33	20.574
251.70	23.431
252.08	23.013
252.45	20.988
252.82	26.616
253.19	22.957
253.56	24.460
253.94	25.623
254.31	24.296
254.68	25.168
255.05	24.092
255.42	23.776
255.79	24.233
256.16	23.028
256.54	22.222
256.91	21.835
257.28	20.440
257.65	21.019
258.02	21.994
258.39	25.439
258.76	20.058
259.14	22.443
259.51	20.787
259.88	25.745
260.25	21.944
260.62	20.506
260.99	25.199
261.36	22.798
261.73	20.494
262.10	21.628
262.47	20.988
262.85	20.398
263.22	27.949
263.59	21.039
263.96	22.141
264.33	19.952
264.70	21.163
265.07	22.454
265.44	26.667
265.81	21.053
266.18	24.601
266.55	20.742
266.92	23.093
267.29	20.782
267.66	23.355
268.03	22.840
268.40	20.551
268.77	23.554
269.14	23.673
269.51	25.462
269.88	19.348
270.25	24.576
270.62	23.566
270.99	23.228
271.36	21.627
271.73	20.683
272.10	23.238
272.47	21.689
272.84	23.425
273.21	23.679
273.58	23.566
273.95	22.642
274.32	24.254
274.69	21.858
275.06	23.498
275.43	22.976
275.80	22.163
276.17	21.179
276.54	21.492
276.91	22.997
277.28	20.939
277.65	23.427
278.02	21.607
278.39	22.202
278.76	22.575
279.13	19.554
279.50	20.862
279.87	20.109
280.23	22.162
280.60	21.972
280.97	23.214
281.34	21.293
281.71	19.675
282.08	21.197
282.45	22.295
282.82	22.045
283.19	21.799
283.56	22.344
283.92	21.713
284.29	22.309
284.66	21.417
285.03	19.218
285.40	19.033
285.77	19.670
286.14	22.036
286.51	23.538
286.87	20.923
287.24	21.239
287.61	22.289
287.98	22.059
288.35	20.417
288.72	19.082
289.08	22.080
289.45	19.530
289.82	20.877
290.19	20.337
290.56	19.460
290.93	19.751
291.29	20.246
291.66	21.038
292.03	21.117
292.40	19.112
292.77	21.017
293.13	20.084
293.50	19.085
293.87	20.667
294.24	18.386
294.60	18.986
294.97	22.354
295.34	18.997
295.71	18.397
296.08	17.670
296.44	19.388
296.81	17.540
297.18	19.500
297.55	19.222
297.91	20.248
298.28	21.308
298.65	18.596
299.02	20.024
299.38	19.018
299.75	17.308
300.12	17.326
300.48	18.480
300.85	18.707
301.22	18.699
301.59	18.779
301.95	17.538
302.32	17.853
302.69	18.983
303.05	17.165
303.42	19.432
303.79	19.033
304.15	19.387
304.52	19.677
304.89	18.272
305.25	18.222
305.62	17.354
305.99	18.716
306.35	21.317
306.72	19.939
307.09	19.082
307.45	18.211
307.82	18.632
308.19	18.704
308.55	18.424
308.92	19.548
309.29	18.919
309.65	20.080
310.02	20.080
310.38	20.325
310.75	20.611
311.12	21.477
311.48	20.673
311.85	22.441
312.22	20.019
312.58	21.739
312.95	22.886
313.31	22.222
313.68	22.328
314.05	23.251
314.41	24.207
314.78	24.288
315.14	25.185
315.51	25.595
315.87	25.672
316.24	25.712
316.61	26.301
316.97	27.870
317.34	27.986
317.70	29.795
318.07	29.370
318.43	28.817
318.80	29.319
319.16	29.178
319.53	31.631
319.89	32.340
320.26	32.163
320.62	34.198
320.99	35.368
321.35	33.957
321.72	35.900
322.08	36.531
322.45	38.483
322.81	39.187
323.18	40.787
323.54	40.794
323.91	43.180
324.27	43.204
324.64	43.641
325.00	45.494
325.37	46.587
325.73	47.727
326.10	48.444
326.46	50.836
326.83	50.728
327.19	51.463
327.56	53.102
327.92	51.971
328.29	56.427
328.65	57.581
329.01	59.015
329.38	59.739
329.74	59.313
330.11	60.234
330.47	59.549
330.84	61.823
331.20	59.522
331.56	64.583
331.93	63.480
332.29	64.726
332.66	63.898
333.02	66.116
333.38	65.000
333.75	64.078
334.11	67.448
334.48	67.044
334.84	66.608
335.20	67.839
335.57	68.407
335.93	66.838
336.29	67.601
336.66	68.462
337.02	69.739
337.38	67.102
337.75	69.337
338.11	67.976
338.47	70.377
338.84	69.502
339.20	70.547
339.56	67.918
339.93	71.219
340.29	70.880
340.65	70.145
341.02	70.133
341.38	73.057
341.74	70.588
342.11	70.520
342.47	70.126
342.83	69.771
343.20	74.027
343.56	71.545
343.92	70.106
344.28	71.591
344.65	71.755
345.01	72.801
345.37	73.026
345.73	72.141
346.10	72.151
346.46	73.008
346.82	74.077
347.19	73.259
347.55	75.525
347.91	73.811
348.27	73.738
348.63	72.035
349.00	74.686
349.36	73.391
349.72	74.246
350.08	74.103
350.45	74.628
350.81	73.631
351.17	72.979
351.53	74.234
351.89	73.233
352.26	73.668
352.62	73.876
352.98	74.681
353.34	75.362
353.70	73.988
354.07	75.373
354.43	73.795
354.79	75.962
355.15	75.932
355.51	74.260
355.87	75.684
356.24	77.207
356.60	72.713
356.96	75.211
357.32	75.155
357.68	75.859
358.04	75.097
358.40	74.729
358.77	75.612
359.13	76.420
359.49	74.792
359.85	74.375
360.21	77.409
360.57	76.046
360.93	76.631
361.29	76.462
361.66	76.234
362.02	75.612
362.38	77.253
362.74	74.619
363.10	76.573
363.46	75.072
363.82	76.275
364.18	76.287
364.54	75.857
364.90	75.958
365.26	74.593
365.62	76.349
365.98	76.655
366.35	77.092
366.71	76.534
367.07	76.471
367.43	75.749
367.79	76.789
368.15	75.809
368.51	74.191
368.87	76.483
369.23	76.868
369.59	76.392
369.95	76.052
370.31	75.314
370.67	75.887
371.03	76.095
371.39	75.798
371.75	76.071
372.11	76.425
372.47	75.919
372.83	75.936
373.19	75.396
373.55	77.095
373.91	75.248
374.27	76.279
374.63	76.885
374.99	74.861
375.35	74.658
375.71	76.155
376.07	77.519
376.42	76.270
376.78	76.882
377.14	78.237
377.50	77.836
377.86	76.627
378.22	74.842
378.58	77.049
378.94	76.812
379.30	76.015
379.66	74.476
380.02	75.245
380.38	75.422
380.74	75.971
381.09	75.814
381.45	75.816
381.81	76.402
382.17	75.740
382.53	76.123
382.89	75.995
383.25	76.173
383.61	76.695
383.97	75.750
384.32	75.425
384.68	75.447
385.04	75.321
385.40	74.720
385.76	74.027
386.12	75.016
386.48	74.420
386.83	74.718
387.19	73.720
387.55	73.452
387.91	76.261
388.27	74.291
388.62	75.156
388.98	76.158
389.34	74.060
389.70	73.260
390.06	73.562
390.42	76.289
390.77	73.414
391.13	75.379
391.49	72.992
391.85	73.291
392.20	72.180
392.56	74.032
392.92	72.674
393.28	73.213
393.64	74.618
393.99	70.502
394.35	72.593
394.71	74.359
395.07	71.132
395.42	73.796
395.78	72.072
396.14	72.733
396.50	73.431
396.85	73.486
397.21	72.722
397.57	70.683
397.92	72.156
398.28	70.164
398.64	70.128
399.00	71.484
399.35	72.815
399.71	71.287
400.07	70.422
400.42	70.345
400.78	70.634
401.14	70.570
401.49	70.521
401.85	71.376
402.21	72.136
402.57	70.754
402.92	70.213
403.28	68.793
403.63	69.684
403.99	71.849
404.35	69.825
404.70	69.426
405.06	69.172
405.42	68.656
405.77	69.355
406.13	68.571
406.49	70.162
406.84	70.269
407.20	67.792
407.55	69.286
407.91	69.292
408.27	66.251
408.62	68.999
408.98	67.201
409.34	68.812
409.69	68.356
410.05	68.470
410.40	66.099
410.76	67.810
411.11	67.724
411.47	69.343
411.83	68.684
412.18	67.884
412.54	68.484
412.89	67.335
413.25	65.664
413.60	67.273
413.96	65.980
414.31	67.263
414.67	65.524
415.03	67.997
415.38	66.843
415.74	66.017
416.09	66.557
416.45	67.738
416.80	66.913
417.16	67.139
417.51	66.376
417.87	66.865
418.22	65.805
418.58	66.360
418.93	66.290
419.29	66.601
419.64	64.313
420.00	66.921
420.35	65.093
420.71	65.631
421.06	65.806
421.42	64.538
421.77	64.855
422.12	65.960
422.48	64.558
422.83	65.269
423.19	64.750
423.54	64.959
423.90	64.371
424.25	65.107
424.61	64.079
424.96	65.464
425.31	64.105
425.67	64.785
426.02	65.018
426.38	66.169
426.73	65.974
427.09	64.603
427.44	64.885
427.79	65.202
428.15	63.731
428.50	64.230
428.85	64.760
429.21	62.577
429.56	65.250
429.92	63.248
430.27	62.526
430.62	63.746
430.98	63.670
431.33	63.461
431.68	62.780
432.04	63.437
432.39	63.395
432.74	63.029
433.10	64.497
433.45	62.899
433.80	63.218
434.16	62.261
434.51	62.880
434.86	64.075
435.22	63.611
435.57	62.346
435.92	63.329
436.28	62.342
436.63	62.413
436.98	63.572
437.34	61.722
437.69	62.751
438.04	61.630
438.39	63.076
438.75	63.290
439.10	63.274
439.45	61.138
439.81	62.993
440.16	62.377
440.51	62.307
440.86	62.833
441.22	62.593
441.57	61.226
441.92	61.016
442.27	61.905
442.63	62.164
442.98	63.310
443.33	62.190
443.68	60.991
444.03	60.954
444.39	61.081
444.74	62.231
445.09	60.573
445.44	62.197
445.79	61.900
446.15	62.341
446.50	60.793
446.85	61.999
447.20	62.363
447.55	61.780
447.91	61.348
448.26	61.578
448.61	61.680
448.96	62.585
449.31	60.937
449.66	61.654
450.02	61.399
450.37	61.516
450.72	61.022
451.07	61.379
451.42	60.449
451.77	61.534
452.12	59.358
452.47	60.943
452.83	60.849
453.18	60.535
453.53	61.223
453.88	60.361
454.23	61.187
454.58	60.294
454.93	60.552
455.28	61.657
455.63	59.389
455.98	60.073
456.34	60.203
456.69	59.169
457.04	59.814
457.39	60.974
457.74	59.126
458.09	59.775
458.44	59.401
458.79	58.759
459.14	57.640
459.49	59.451
459.84	59.019
460.19	58.523
460.54	59.854
460.89	59.009
461.24	58.755
461.59	58.998
461.94	56.700
462.29	59.130
462.64	59.367
462.99	58.685
463.34	59.392
463.69	58.376
464.04	57.503
464.39	58.572
464.74	58.170
465.09	56.975
465.44	57.464
465.79	58.539
466.14	57.811
466.49	58.240
466.84	56.844
467.19	57.070
467.54	58.782
467.89	58.077
468.24	57.652
468.59	57.744
468.94	57.982
469.29	57.898
469.64	58.647
469.99	58.690
470.34	58.597
470.68	58.067
471.03	56.770
471.38	58.067
471.73	58.093
472.08	58.007
472.43	58.773
472.78	57.133
473.13	56.003
473.48	57.273
473.83	56.811
474.17	56.055
474.52	56.958
474.87	55.368
475.22	56.703
475.57	56.888
475.92	56.052
476.27	55.711
476.61	55.663
476.96	56.025
477.31	55.933
477.66	55.085
478.01	55.000
478.36	56.022
478.70	55.961
479.05	56.215
479.40	54.706
479.75	56.217
480.10	53.952
480.45	54.242
480.79	54.953
481.14	56.282
481.49	56.191
481.84	54.383
482.19	54.099
482.53	55.048
482.88	54.602
483.23	54.427
483.58	54.631
483.92	53.551
484.27	53.431
484.62	54.061
484.97	54.417
485.31	53.585
485.66	50.289
486.01	50.677
486.36	50.740
486.70	51.134
487.05	51.355
487.40	52.049
487.75	53.575
488.09	52.205
488.44	54.013
488.79	53.634
489.13	53.320
489.48	53.826
489.83	53.238
490.17	52.610
490.52	55.259
490.87	52.851
491.22	52.897
491.56	53.618
491.91	52.808
492.26	53.820
492.60	52.381
492.95	53.499
493.30	53.149
493.64	52.278
493.99	52.464
494.34	53.035
494.68	52.554
495.03	52.866
495.37	52.214
495.72	52.080
496.07	53.921
496.41	51.614
496.76	52.377
497.11	52.066
497.45	51.848
497.80	51.641
498.14	52.695
498.49	52.194
498.84	53.289
499.18	51.916
499.53	52.043
499.87	51.189
500.22	52.066
500.56	52.508
500.91	51.710
501.26	51.182
501.60	50.490
501.95	51.318
502.29	51.456
502.64	51.398
502.98	51.301
503.33	52.117
503.67	51.412
504.02	50.833
504.36	50.817
504.71	51.829
505.06	51.808
505.40	53.608
505.75	52.238
506.09	50.945
506.44	50.806
506.78	51.295
507.13	50.624
507.47	51.166
507.82	50.549
508.16	50.976
508.51	50.930
508.85	50.648
509.19	51.217
509.54	51.099
509.88	50.806
510.23	49.053
510.57	50.689
510.92	51.078
511.26	52.255
511.61	51.317
511.95	50.221
512.30	50.527
512.64	51.873
512.98	50.693
513.33	51.211
513.67	51.789
514.02	50.171
514.36	49.382
514.70	49.769
515.05	50.790
515.39	49.941
515.74	50.799
516.08	50.147
516.42	50.288
516.77	49.854
517.11	49.794
517.46	51.441
517.80	52.179
518.14	51.010
518.49	49.849
518.83	50.418
519.17	49.940
519.52	49.940
519.86	50.152
520.20	49.909
520.55	50.684
520.89	50.601
521.23	51.346
521.58	51.264
521.92	49.969
522.26	49.317
522.61	51.002
522.95	51.166
523.29	49.270
523.64	50.795
523.98	49.365
524.32	49.023
524.66	51.234
525.01	50.459
525.35	51.415
525.69	50.497
526.04	49.251
526.38	50.096
526.72	50.033
527.06	50.161
527.41	49.570
527.75	50.000
528.09	50.306
528.43	49.864
528.78	48.385
529.12	49.741
529.46	49.136
529.80	49.191
530.15	48.520
530.49	50.404
530.83	49.763
531.17	49.247
531.51	50.034
531.86	48.780
532.20	48.863
532.54	49.172
532.88	48.741
533.22	48.687
533.57	49.669
533.91	49.032
534.25	47.917
534.59	47.812
534.93	47.832
535.27	47.898
535.62	48.684
535.96	48.406
536.30	48.205
536.64	47.710
536.98	48.774
537.32	49.324
537.66	48.025
538.01	47.503
538.35	47.514
538.69	46.890
539.03	46.846
539.37	47.284
539.71	47.544
540.05	46.424
540.39	47.350
540.73	47.626
541.07	47.551
541.42	47.879
541.76	47.023
542.10	46.987
542.44	46.362
542.78	46.495
543.12	46.765
543.46	45.059
543.80	46.368
544.14	46.524
544.48	45.853
544.82	46.402
545.16	47.126
545.50	47.941
545.84	46.564
546.18	47.125
546.52	45.589
546.86	45.654
547.20	47.105
547.54	45.890
547.88	45.547
548.22	45.733
548.56	44.963
548.90	46.143
549.24	46.875
549.58	45.836
549.92	48.716
550.26	48.266
550.60	46.171
550.94	46.343
551.28	46.253
551.62	46.391
551.96	44.290
552.30	45.706
552.64	44.915
552.98	44.815
553.32	45.854
553.66	47.322
554.00	45.500
554.34	44.469
554.68	46.010
555.02	46.183
555.36	45.613
555.69	44.647
556.03	44.818
556.37	45.519
556.71	44.359
557.05	45.609
557.39	44.913
557.73	45.915
558.07	45.968
558.41	45.723
558.75	45.343
559.08	45.549
559.42	44.768
559.76	45.260
560.10	45.888
560.44	44.289
560.78	44.029
561.12	45.550
561.45	43.605
561.79	44.979
562.13	44.655
562.47	44.714
562.81	44.517
563.15	43.768
563.48	44.460
563.82	44.596
564.16	44.414
564.50	45.251
564.84	43.108
565.17	43.576
565.51	43.316
565.85	42.705
566.19	43.907
566.52	42.333
566.86	42.604
567.20	43.189
567.54	42.429
567.88	41.825
568.21	41.336
568.55	41.732
568.89	40.778
569.23	40.742
569.56	40.592
569.90	40.299
570.24	39.278
570.57	38.997
570.91	38.981
571.25	38.790
571.59	38.545
571.92	38.868
572.26	39.620
572.60	38.867
572.93	39.394
573.27	38.324
573.61	38.612
573.95	38.630
574.28	38.644
574.62	37.917
574.96	38.386
575.29	37.889
575.63	38.145
575.97	38.152
576.30	38.436
576.64	38.433
576.98	38.017
577.31	37.957
577.65	37.486
577.98	37.720
578.32	37.291
578.66	37.659
578.99	37.606
579.33	38.481
579.67	38.289
580.00	37.739
580.34	37.033
580.67	37.506
581.01	37.570
581.35	37.612
581.68	36.892
582.02	36.793
582.35	36.935
582.69	37.237
583.02	36.722
583.36	37.173
583.70	37.670
584.03	37.665
584.37	37.951
584.70	37.683
585.04	37.432
585.37	36.914
585.71	37.072
586.04	37.519
586.38	37.122
586.72	37.117
587.05	37.986
587.39	37.741
587.72	37.500
588.06	38.276
588.39	37.364
588.73	38.177
589.06	37.827
589.40	38.562
589.73	37.082
590.07	37.659
590.40	37.978
590.73	38.655
591.07	38.905
591.40	38.130
591.74	38.639
592.07	39.115
592.41	38.739
592.74	38.079
593.08	36.034
593.41	36.737
593.75	36.983
594.08	37.720
594.41	37.660
594.75	36.957
595.08	37.155
595.42	37.151
595.75	36.985
596.09	37.837
596.42	37.990
596.75	37.692
597.09	38.990
597.42	38.896
597.75	38.800
598.09	38.707
598.42	38.076
598.76	37.783
599.09	38.375
599.42	37.387
599.76	37.589
600.09	37.236
600.42	37.062
600.76	36.807
601.09	37.175
601.42	37.201
601.76	36.602
602.09	38.225
602.42	38.011
602.76	37.248
603.09	37.248
603.42	37.145
603.76	36.321
604.09	36.917
604.42	36.375
604.76	37.058
605.09	37.970
605.42	37.787
605.75	36.745
606.09	36.300
606.42	36.035
606.75	37.013
607.09	36.569
607.42	37.347
607.75	36.105
608.08	37.556
608.42	37.535
608.75	38.127
609.08	37.776
609.41	37.158
609.75	37.216
610.08	37.426
610.41	37.852
610.74	37.199
611.07	37.325
611.41	37.922
611.74	37.164
612.07	37.936
612.40	38.865
612.73	37.431
613.07	37.084
613.40	37.885
613.73	37.974
614.06	37.424
614.39	37.743
614.72	37.812
615.06	37.111
615.39	36.479
615.72	37.311
616.05	37.218
616.38	37.342
616.71	37.073
617.05	37.715
617.38	37.770
617.71	38.297
618.04	37.172
618.37	38.170
618.70	38.551
619.03	38.625
619.36	37.651
619.69	38.450
620.03	39.011
620.36	38.692
620.69	37.545
621.02	38.538
621.35	38.839
621.68	37.979
622.01	37.702
622.34	38.541
622.67	38.449
623.00	39.514
623.33	39.117
623.66	38.290
623.99	39.235
624.32	37.711
624.65	39.095
624.99	38.060
625.32	38.611
625.65	38.760
625.98	38.863
626.31	39.755
626.64	38.607
626.97	38.408
627.30	38.837
627.63	38.927
627.96	38.788
628.29	41.023
628.62	40.716
628.95	40.681
629.28	41.182
629.61	40.096
629.94	39.845
630.26	40.788
630.59	40.559
630.92	40.161
631.25	39.547
631.58	40.578
631.91	39.024
632.24	39.737
632.57	39.000
632.90	40.840
633.23	38.729
633.56	42.086
