SpectraSuite Data File
++++++++++++++++++++++++++++++++++++
Date: Wed May 13 20:45:07 PDT 2015
User: schluterlab
Dark Spectrum Present: Yes
Reference Spectrum Present: Yes
Number of Sampled Component Spectra: 1
Spectrometers: USB2E3373
Integration Time (usec): 3000 (USB2E3373)
Spectra Averaged: 3 (USB2E3373)
Boxcar Smoothing: 0 (USB2E3373)
Correct for Electrical Dark: No (USB2E3373)
Strobe/Lamp Enabled: No (USB2E3373)
Correct for Detector Non-linearity: No (USB2E3373)
Correct for Stray Light: No (USB2E3373)
Number of Pixels in Processed Spectrum: 2048
>>>>>Begin Processed Spectral Data<<<<<
178.53	0.000
178.91	-575.000
179.29	-1000.000
179.67	-111.111
180.04	-550.000
180.42	1650.000
180.80	720.000
181.18	-600.000
181.56	457.143
181.94	0.000
182.31	-357.143
182.69	1000.000
183.07	-300.000
183.45	-333.333
183.83	390.909
184.20	-220.000
184.58	1550.000
184.96	5000.000
185.34	-620.000
185.72	-387.500
186.09	-1750.000
186.47	1650.000
186.85	900.000
187.23	3200.000
187.61	-966.667
187.98	850.000
188.36	336.364
188.74	327.273
189.12	-560.000
189.49	390.000
189.87	-2600.000
190.25	-575.000
190.63	335.714
191.00	376.923
191.38	416.667
191.76	-825.000
192.14	900.000
192.51	512.500
192.89	616.667
193.27	387.500
193.65	-575.000
194.02	370.000
194.40	540.000
194.78	370.000
195.15	316.667
195.53	340.000
195.91	-1150.000
196.29	212.500
196.66	236.842
197.04	-230.000
197.42	0.000
197.79	360.000
198.17	-4000.000
198.55	442.857
198.92	400.000
199.30	600.000
199.68	0.000
200.05	227.778
200.43	514.286
200.81	1900.000
201.18	766.667
201.56	-966.667
201.94	477.778
202.31	366.667
202.69	283.333
203.07	360.000
203.44	0.000
203.82	800.000
204.19	542.857
204.57	271.429
204.95	387.500
205.32	1066.667
205.70	336.364
206.08	207.143
206.45	1800.000
206.83	206.250
207.20	616.667
207.58	520.000
207.96	211.111
208.33	412.500
208.71	-483.333
209.08	542.857
209.46	455.556
209.84	290.909
210.21	-1000.000
210.59	1025.000
210.96	-325.000
211.34	1650.000
211.71	420.000
212.09	483.333
212.46	0.000
212.84	966.667
213.22	1025.000
213.59	-2400.000
213.97	550.000
214.34	557.143
214.72	390.909
215.09	500.000
215.47	-1250.000
215.84	-1350.000
216.22	1100.000
216.59	278.571
216.97	1025.000
217.34	281.818
217.72	-466.667
218.09	0.000
218.47	-3200.000
218.84	455.556
219.22	428.571
219.59	933.333
219.97	-285.714
220.34	680.000
220.72	-900.000
221.09	278.571
221.47	1025.000
221.84	-583.333
222.22	0.000
222.59	1050.000
222.97	-1600.000
223.34	620.000
223.72	269.231
224.09	680.000
224.46	1200.000
224.84	-4000.000
225.21	-660.000
225.59	-3700.000
225.96	370.000
226.34	220.000
226.71	1800.000
227.08	425.000
227.46	280.000
227.83	-575.000
228.21	-1200.000
228.58	433.333
228.95	-1200.000
229.33	-1750.000
229.70	1200.000
230.08	428.571
230.45	-600.000
230.82	375.000
231.20	550.000
231.57	328.571
231.95	225.000
232.32	145.455
232.69	254.545
233.07	400.000
233.44	246.154
233.81	-1100.000
234.19	215.789
234.56	291.667
234.93	233.333
235.31	318.182
235.68	161.538
236.05	192.857
236.43	130.303
236.80	210.526
237.17	3100.000
237.55	138.095
237.92	178.571
238.29	200.000
238.67	132.258
239.04	172.414
239.41	125.000
239.79	97.826
240.16	116.667
240.53	109.091
240.91	94.118
241.28	72.000
241.65	90.000
242.02	84.058
242.40	83.871
242.77	85.000
243.14	62.366
243.51	77.528
243.89	72.941
244.26	63.333
244.63	70.968
245.00	58.511
245.38	55.446
245.75	65.421
246.12	62.385
246.49	67.153
246.87	64.800
247.24	66.923
247.61	57.143
247.98	58.824
248.36	55.405
248.73	52.229
249.10	58.599
249.47	55.932
249.84	54.011
250.22	57.754
250.59	53.254
250.96	59.596
251.33	53.555
251.70	55.941
252.08	51.905
252.45	49.776
252.82	52.174
253.19	53.617
253.56	50.588
253.94	51.452
254.31	50.391
254.68	52.308
255.05	53.137
255.42	53.252
255.79	49.265
256.16	48.375
256.54	43.110
256.91	51.957
257.28	44.964
257.65	46.535
258.02	50.932
258.39	45.741
258.76	47.826
259.14	46.726
259.51	46.505
259.88	46.894
260.25	48.036
260.62	44.220
260.99	41.615
261.36	50.751
261.73	41.834
262.10	45.349
262.47	47.606
262.85	45.125
263.22	45.299
263.59	44.729
263.96	45.055
264.33	49.347
264.70	43.684
265.07	45.013
265.44	45.707
265.81	42.579
266.18	42.965
266.55	42.927
266.92	45.946
267.29	42.593
267.66	43.119
268.03	43.409
268.40	43.692
268.77	43.437
269.14	42.793
269.51	44.695
269.88	44.522
270.25	42.438
270.62	45.169
270.99	44.731
271.36	43.777
271.73	44.860
272.10	45.000
272.47	44.301
272.84	44.589
273.21	43.396
273.58	40.175
273.95	42.348
274.32	41.116
274.69	41.970
275.06	40.748
275.43	44.043
275.80	42.485
276.17	41.752
276.54	44.699
276.91	40.909
277.28	39.648
277.65	41.006
278.02	41.615
278.39	43.555
278.76	37.273
279.13	40.377
279.50	40.037
279.87	41.633
280.23	42.715
280.60	39.652
280.97	39.556
281.34	41.062
281.71	40.000
282.08	41.267
282.45	38.727
282.82	38.544
283.19	37.077
283.56	38.596
283.92	39.255
284.29	37.390
284.66	41.198
285.03	37.794
285.40	38.380
285.77	40.741
286.14	39.033
286.51	39.500
286.87	38.974
287.24	39.088
287.61	36.276
287.98	37.175
288.35	38.035
288.72	37.383
289.08	37.246
289.45	37.232
289.82	37.724
290.19	37.834
290.56	33.997
290.93	35.045
291.29	34.969
291.66	34.218
292.03	36.047
292.40	35.095
292.77	34.024
293.13	35.373
293.50	33.382
293.87	34.074
294.24	33.333
294.60	33.042
294.97	32.122
295.34	33.145
295.71	32.386
296.08	31.197
296.44	32.462
296.81	32.100
297.18	33.333
297.55	31.003
297.91	31.266
298.28	32.396
298.65	33.159
299.02	30.567
299.38	30.279
299.75	27.763
300.12	27.842
300.48	31.125
300.85	30.456
301.22	29.809
301.59	28.914
301.95	30.227
302.32	29.140
302.69	28.076
303.05	28.727
303.42	29.877
303.79	28.992
304.15	28.671
304.52	28.737
304.89	27.178
305.25	27.958
305.62	27.633
305.99	27.981
306.35	28.523
306.72	29.484
307.09	28.191
307.45	28.829
307.82	27.344
308.19	28.035
308.55	28.695
308.92	26.960
309.29	26.927
309.65	27.253
310.02	27.061
310.38	27.634
310.75	27.666
311.12	27.124
311.48	26.646
311.85	26.939
312.22	27.159
312.58	26.819
312.95	28.722
313.31	25.340
313.68	26.195
314.05	28.501
314.41	26.935
314.78	25.780
315.14	27.607
315.51	26.571
315.87	27.327
316.24	26.713
316.61	26.413
316.97	25.930
317.34	27.202
317.70	26.482
318.07	26.756
318.43	27.104
318.80	28.022
319.16	26.365
319.53	26.079
319.89	27.143
320.26	28.000
320.62	27.579
320.99	26.263
321.35	26.566
321.72	26.283
322.08	27.937
322.45	26.965
322.81	27.229
323.18	27.842
323.54	28.479
323.91	27.925
324.27	27.916
324.64	28.145
325.00	27.773
325.37	29.117
325.73	27.558
326.10	28.067
326.46	27.867
326.83	29.767
327.19	29.547
327.56	28.920
327.92	29.659
328.29	30.257
328.65	29.098
329.01	30.325
329.38	29.417
329.74	30.656
330.11	30.254
330.47	30.395
330.84	30.790
331.20	30.874
331.56	31.376
331.93	31.019
332.29	31.056
332.66	31.150
333.02	31.261
333.38	33.604
333.75	31.105
334.11	32.117
334.48	32.121
334.84	32.721
335.20	32.545
335.57	33.001
335.93	31.696
336.29	33.150
336.66	32.822
337.02	32.670
337.38	32.870
337.75	31.640
338.11	31.871
338.47	33.149
338.84	34.005
339.20	32.202
339.56	34.033
339.93	33.545
340.29	32.880
340.65	32.086
341.02	33.595
341.38	34.075
341.74	33.158
342.11	33.712
342.47	34.009
342.83	33.647
343.20	33.506
343.56	33.951
343.92	33.596
344.28	33.418
344.65	34.136
345.01	32.912
345.37	32.933
345.73	34.772
346.10	33.760
346.46	34.068
346.82	34.020
347.19	32.999
347.55	34.319
347.91	33.981
348.27	34.922
348.63	33.779
349.00	34.304
349.36	34.319
349.72	33.520
350.08	34.441
350.45	35.069
350.81	34.525
351.17	35.494
351.53	33.579
351.89	33.911
352.26	34.886
352.62	34.322
352.98	34.117
353.34	35.579
353.70	34.288
354.07	35.242
354.43	33.413
354.79	33.226
355.15	34.078
355.51	35.332
355.87	34.449
356.24	35.098
356.60	33.200
356.96	35.076
357.32	35.814
357.68	35.906
358.04	34.283
358.40	35.313
358.77	35.524
359.13	34.964
359.49	34.824
359.85	34.048
360.21	34.131
360.57	35.720
360.93	36.385
361.29	35.147
361.66	34.752
362.02	35.746
362.38	37.186
362.74	35.565
363.10	34.937
363.46	35.803
363.82	34.921
364.18	35.683
364.54	37.296
364.90	36.331
365.26	35.294
365.62	36.815
365.98	35.939
366.35	36.318
366.71	35.864
367.07	36.562
367.43	37.446
367.79	36.974
368.15	37.500
368.51	37.209
368.87	36.974
369.23	36.650
369.59	37.654
369.95	37.279
370.31	37.108
370.67	38.116
371.03	40.075
371.39	37.536
371.75	36.838
372.11	36.273
372.47	38.856
372.83	37.608
373.19	37.645
373.55	39.394
373.91	39.691
374.27	37.388
374.63	38.327
374.99	38.983
375.35	38.102
375.71	37.286
376.07	39.163
376.42	39.546
376.78	38.304
377.14	38.806
377.50	38.940
377.86	38.231
378.22	38.496
378.58	37.469
378.94	38.466
379.30	39.631
379.66	39.277
380.02	39.189
380.38	38.373
380.74	38.655
381.09	38.692
381.45	40.258
381.81	40.479
382.17	39.682
382.53	39.434
382.89	40.309
383.25	40.713
383.61	40.892
383.97	40.088
384.32	40.799
384.68	39.715
385.04	39.275
385.40	39.133
385.76	39.619
386.12	38.731
386.48	39.648
386.83	41.116
387.19	41.497
387.55	41.126
387.91	40.447
388.27	41.202
388.62	40.443
388.98	40.111
389.34	41.615
389.70	41.263
390.06	41.001
390.42	40.921
390.77	41.858
391.13	40.523
391.49	41.053
391.85	40.356
392.20	39.937
392.56	40.593
392.92	41.672
393.28	40.888
393.64	41.487
393.99	40.990
394.35	41.687
394.71	41.656
395.07	40.374
395.42	41.904
395.78	41.285
396.14	41.837
396.50	42.293
396.85	41.449
397.21	40.752
397.57	41.166
397.92	40.745
398.28	40.303
398.64	40.920
399.00	40.627
399.35	41.230
399.71	40.914
400.07	41.691
400.42	41.104
400.78	41.013
401.14	41.768
401.49	42.090
401.85	40.290
402.21	39.701
402.57	41.024
402.92	41.047
403.28	42.411
403.63	40.470
403.99	42.038
404.35	41.273
404.70	41.187
405.06	40.944
405.42	40.736
405.77	40.857
406.13	40.406
406.49	40.213
406.84	40.638
407.20	39.303
407.55	41.544
407.91	41.333
408.27	40.396
408.62	40.819
408.98	41.238
409.34	40.775
409.69	40.129
410.05	39.963
410.40	41.590
410.76	40.800
411.11	40.290
411.47	40.319
411.83	40.684
412.18	40.074
412.54	40.909
412.89	40.241
413.25	40.496
413.60	40.334
413.96	39.587
414.31	41.009
414.67	41.001
415.03	41.126
415.38	41.688
415.74	40.000
416.09	41.672
416.45	40.361
416.80	40.053
417.16	41.555
417.51	42.468
417.87	39.756
418.22	41.577
418.58	41.511
418.93	40.663
419.29	41.184
419.64	40.491
420.00	40.793
420.35	40.580
420.71	41.423
421.06	41.110
421.42	40.643
421.77	41.031
422.12	40.314
422.48	39.989
422.83	41.584
423.19	41.215
423.54	41.497
423.90	40.812
424.25	40.815
424.61	41.190
424.96	41.050
425.31	40.144
425.67	39.607
426.02	40.171
426.38	41.880
426.73	40.960
427.09	40.912
427.44	39.850
427.79	40.483
428.15	41.667
428.50	40.609
428.85	41.597
429.21	41.027
429.56	40.747
429.92	39.758
430.27	39.871
430.62	41.270
430.98	40.633
431.33	40.515
431.68	41.099
432.04	41.321
432.39	40.091
432.74	40.036
433.10	41.370
433.45	40.758
433.80	41.020
434.16	40.919
434.51	39.842
434.86	42.417
435.22	42.079
435.57	40.973
435.92	41.486
436.28	42.408
436.63	41.998
436.98	42.129
437.34	41.860
437.69	42.007
438.04	40.922
438.39	41.791
438.75	41.836
439.10	42.235
439.45	42.267
439.81	41.631
440.16	41.728
440.51	41.945
440.86	41.401
441.22	42.547
441.57	42.038
441.92	42.477
442.27	42.842
442.63	41.338
442.98	43.268
443.33	41.087
443.68	41.249
444.03	41.728
444.39	41.870
444.74	41.342
445.09	41.078
445.44	41.389
445.79	41.613
446.15	41.292
446.50	41.949
446.85	42.395
447.20	41.611
447.55	42.546
447.91	42.085
448.26	42.960
448.61	41.379
448.96	42.636
449.31	42.238
449.66	42.206
450.02	41.337
450.37	41.100
450.72	42.865
451.07	41.865
451.42	40.000
451.77	41.926
452.12	42.436
452.47	42.102
452.83	41.317
453.18	41.687
453.53	41.991
453.88	41.406
454.23	41.841
454.58	42.944
454.93	42.848
455.28	41.147
455.63	41.748
455.98	43.155
456.34	41.520
456.69	42.079
457.04	43.344
457.39	40.970
457.74	41.323
458.09	42.093
458.44	42.018
458.79	40.510
459.14	42.099
459.49	41.273
459.84	41.108
460.19	41.190
460.54	41.725
460.89	41.141
461.24	42.441
461.59	43.056
461.94	41.184
462.29	43.027
462.64	40.396
462.99	41.119
463.34	42.133
463.69	41.151
464.04	41.159
464.39	40.754
464.74	41.355
465.09	41.556
465.44	40.886
465.79	40.660
466.14	40.941
466.49	40.434
466.84	41.214
467.19	40.978
467.54	41.812
467.89	40.156
468.24	41.594
468.59	41.880
468.94	41.417
469.29	41.452
469.64	41.767
469.99	42.219
470.34	41.215
470.68	41.451
471.03	41.769
471.38	43.294
471.73	40.706
472.08	42.961
472.43	39.887
472.78	41.606
473.13	42.105
473.48	42.010
473.83	41.402
474.17	41.133
474.52	42.432
474.87	42.032
475.22	41.265
475.57	39.925
475.92	41.689
476.27	40.586
476.61	41.644
476.96	41.506
477.31	39.927
477.66	42.177
478.01	40.617
478.36	40.772
478.70	41.121
479.05	41.374
479.40	40.328
479.75	40.671
480.10	40.805
480.45	39.933
480.79	39.895
481.14	41.781
481.49	40.247
481.84	39.186
482.19	39.800
482.53	40.505
482.88	39.693
483.23	40.047
483.58	40.810
483.92	40.581
484.27	37.821
484.62	39.095
484.97	39.062
485.31	38.938
485.66	37.684
486.01	37.859
486.36	37.125
486.70	36.951
487.05	37.393
487.40	36.874
487.75	37.404
488.09	37.549
488.44	37.058
488.79	38.373
489.13	38.808
489.48	38.703
489.83	37.808
490.17	39.544
490.52	39.017
490.87	40.163
491.22	39.200
491.56	38.269
491.91	39.646
492.26	39.045
492.60	39.078
492.95	38.962
493.30	39.346
493.64	39.384
493.99	38.765
494.34	39.500
494.68	39.423
495.03	39.850
495.37	39.274
495.72	38.499
496.07	40.000
496.41	38.142
496.76	39.446
497.11	38.946
497.45	38.519
497.80	38.868
498.14	39.420
498.49	38.927
498.84	38.639
499.18	37.952
499.53	38.936
499.87	39.236
500.22	39.001
500.56	39.563
500.91	38.606
501.26	38.075
501.60	39.820
501.95	38.176
502.29	39.456
502.64	38.734
502.98	38.710
503.33	39.077
503.67	38.747
504.02	38.775
504.36	39.775
504.71	40.059
505.06	38.940
505.40	39.572
505.75	38.910
506.09	38.873
506.44	39.566
506.78	39.357
507.13	38.617
507.47	40.808
507.82	39.666
508.16	39.058
508.51	40.284
508.85	39.474
509.19	39.745
509.54	38.622
509.88	39.258
510.23	40.206
510.57	40.918
510.92	40.497
511.26	39.414
511.61	40.456
511.95	39.196
512.30	39.449
512.64	39.817
512.98	40.247
513.33	40.257
513.67	38.847
514.02	38.745
514.36	40.415
514.70	40.122
515.05	39.487
515.39	39.933
515.74	40.935
516.08	40.749
516.42	42.009
516.77	40.914
517.11	41.010
517.46	40.688
517.80	41.580
518.14	40.127
518.49	41.657
518.83	39.886
519.17	41.109
519.52	40.181
519.86	41.129
520.20	41.098
520.55	42.011
520.89	41.667
521.23	41.194
521.58	42.377
521.92	41.580
522.26	41.123
522.61	42.243
522.95	42.296
523.29	41.509
523.64	41.585
523.98	41.405
524.32	41.496
524.66	41.612
525.01	41.483
525.35	40.830
525.69	40.456
526.04	41.495
526.38	41.062
526.72	40.552
527.06	42.185
527.41	40.347
527.75	41.608
528.09	41.554
528.43	41.938
528.78	41.180
529.12	40.606
529.46	41.947
529.80	41.460
530.15	40.685
530.49	39.938
530.83	41.203
531.17	41.580
531.51	41.699
531.86	41.484
532.20	41.982
532.54	41.256
532.88	40.950
533.22	39.913
533.57	41.235
533.91	39.916
534.25	40.279
534.59	41.001
534.93	39.619
535.27	40.253
535.62	41.331
535.96	40.427
536.30	40.750
536.64	41.275
536.98	40.810
537.32	40.224
537.66	41.400
538.01	40.487
538.35	41.241
538.69	42.119
539.03	40.351
539.37	41.022
539.71	38.820
540.05	41.765
540.39	40.864
540.73	39.845
541.07	40.947
541.42	41.422
541.76	41.161
542.10	40.103
542.44	39.868
542.78	40.646
543.12	39.795
543.46	41.115
543.80	40.794
544.14	38.768
544.48	39.810
544.82	39.256
545.16	39.167
545.50	39.396
545.84	40.524
546.18	41.145
546.52	40.399
546.86	40.619
547.20	40.728
547.54	40.080
547.88	40.497
548.22	38.667
548.56	39.686
548.90	40.077
549.24	39.596
549.58	39.973
549.92	40.453
550.26	40.270
550.60	40.111
550.94	40.986
551.28	39.795
551.62	40.403
551.96	38.807
552.30	41.365
552.64	40.095
552.98	41.017
553.32	40.054
553.66	40.150
554.00	40.151
554.34	39.268
554.68	40.773
555.02	38.364
555.36	38.900
555.69	39.039
556.03	40.175
556.37	39.905
556.71	39.222
557.05	38.725
557.39	39.398
557.73	39.450
558.07	40.464
558.41	39.942
558.75	40.191
559.08	40.194
559.42	40.665
559.76	39.853
560.10	38.687
560.44	40.321
560.78	38.589
561.12	38.786
561.45	39.831
561.79	39.090
562.13	38.833
562.47	38.730
562.81	39.679
563.15	38.863
563.48	38.727
563.82	39.922
564.16	38.260
564.50	38.346
564.84	38.559
565.17	38.546
565.51	38.466
565.85	38.642
566.19	37.570
566.52	38.505
566.86	37.251
567.20	38.797
567.54	37.272
567.88	38.186
568.21	37.831
568.55	36.552
568.89	37.695
569.23	35.918
569.56	35.385
569.90	34.717
570.24	35.343
570.57	35.226
570.91	34.131
571.25	33.848
571.59	34.492
571.92	34.389
572.26	33.940
572.60	33.964
572.93	33.853
573.27	34.516
573.61	33.557
573.95	33.979
574.28	32.940
574.62	33.260
574.96	32.330
575.29	32.808
575.63	32.749
575.97	33.012
576.30	32.847
576.64	33.030
576.98	32.936
577.31	32.555
577.65	32.899
577.98	32.650
578.32	32.446
578.66	32.390
578.99	32.367
579.33	31.978
579.67	32.012
580.00	32.246
580.34	32.439
580.67	32.593
581.01	32.381
581.35	32.379
581.68	32.453
582.02	32.080
582.35	32.694
582.69	32.443
583.02	31.827
583.36	32.188
583.70	32.942
584.03	32.576
584.37	32.727
584.70	32.680
585.04	32.143
585.37	32.246
585.71	32.613
586.04	32.617
586.38	32.968
586.72	33.499
587.05	32.111
587.39	31.953
587.72	32.801
588.06	33.084
588.39	33.306
588.73	32.473
589.06	32.876
589.40	33.603
589.73	33.157
590.07	33.488
590.40	33.394
590.73	34.192
591.07	34.473
591.40	34.374
591.74	35.108
592.07	34.686
592.41	34.022
592.74	33.034
593.08	33.678
593.41	33.344
593.75	32.448
594.08	33.020
594.41	32.980
594.75	33.272
595.08	33.321
595.42	33.485
595.75	33.725
596.09	33.684
596.42	34.067
596.75	33.305
597.09	33.636
597.42	33.347
597.75	33.290
598.09	33.609
598.42	32.818
598.76	33.482
599.09	32.915
599.42	32.642
599.76	33.089
600.09	33.224
600.42	33.126
600.76	32.750
601.09	33.042
601.42	32.610
601.76	32.751
602.09	33.715
602.42	33.280
602.76	34.019
603.09	33.635
603.42	32.800
603.76	33.194
604.09	32.532
604.42	33.225
604.76	33.404
605.09	33.333
605.42	33.390
605.75	32.906
606.09	32.737
606.42	33.388
606.75	32.849
607.09	32.859
607.42	33.248
607.75	32.447
608.08	32.175
608.42	33.841
608.75	32.687
609.08	32.100
609.41	33.270
609.75	33.254
610.08	33.930
610.41	32.821
610.74	33.396
611.07	34.437
611.41	33.023
611.74	33.484
612.07	33.696
612.40	33.893
612.73	33.895
613.07	33.836
613.40	34.123
613.73	34.400
614.06	33.978
614.39	33.456
614.72	33.105
615.06	33.824
615.39	33.121
615.72	33.538
616.05	33.280
616.38	34.964
616.71	34.679
617.05	34.629
617.38	34.997
617.71	34.835
618.04	35.337
618.37	33.649
618.70	34.661
619.03	35.658
619.36	35.166
619.69	35.352
620.03	36.058
620.36	33.690
620.69	36.301
621.02	36.283
621.35	34.456
621.68	35.280
622.01	34.675
622.34	35.098
622.67	36.046
623.00	33.602
623.33	35.096
623.66	36.383
623.99	35.788
624.32	35.877
624.65	35.946
624.99	35.057
625.32	34.251
625.65	36.439
625.98	35.511
626.31	36.081
626.64	35.429
626.97	37.240
627.30	34.331
627.63	35.767
627.96	38.015
628.29	35.083
628.62	38.609
628.95	38.585
629.28	35.949
629.61	37.580
629.94	36.667
630.26	37.274
630.59	36.416
630.92	36.782
631.25	36.723
631.58	37.738
