SpectraSuite Data File
++++++++++++++++++++++++++++++++++++
Date: Wed May 13 20:58:56 PDT 2015
User: schluterlab
Dark Spectrum Present: Yes
Reference Spectrum Present: Yes
Number of Sampled Component Spectra: 1
Spectrometers: USB2E3373
Integration Time (usec): 3000 (USB2E3373)
Spectra Averaged: 3 (USB2E3373)
Boxcar Smoothing: 0 (USB2E3373)
Correct for Electrical Dark: No (USB2E3373)
Strobe/Lamp Enabled: No (USB2E3373)
Correct for Detector Non-linearity: No (USB2E3373)
Correct for Stray Light: No (USB2E3373)
Number of Pixels in Processed Spectrum: 2048
>>>>>Begin Processed Spectral Data<<<<<
178.53	0.000
178.91	-0.000
179.29	100.000
179.67	-350.000
180.04	66.667
180.42	-180.000
180.80	700.000
181.18	66.667
181.56	125.000
181.94	-50.000
182.31	100.000
182.69	15.385
183.07	0.000
183.45	-16.667
183.83	11.111
184.20	157.143
184.58	66.667
184.96	100.000
185.34	-0.000
185.72	0.000
186.09	0.000
186.47	-180.000
186.85	20.000
187.23	50.000
187.61	400.000
187.98	1100.000
188.36	37.500
188.74	0.000
189.12	45.455
189.49	-10.000
189.87	25.000
190.25	220.000
190.63	700.000
191.00	100.000
191.38	20.000
191.76	-25.000
192.14	50.000
192.51	47.368
192.89	400.000
193.27	50.000
193.65	-40.000
194.02	100.000
194.40	40.000
194.78	-300.000
195.15	20.000
195.53	140.000
195.91	187.500
196.29	266.667
196.66	0.000
197.04	-50.000
197.42	220.000
197.79	40.000
198.17	-50.000
198.55	-166.667
198.92	-0.000
199.30	-200.000
199.68	0.000
200.05	200.000
200.43	-33.333
200.81	200.000
201.18	0.000
201.56	233.333
201.94	375.000
202.31	60.870
202.69	42.857
203.07	-366.667
203.44	-40.000
203.82	-33.333
204.19	80.000
204.57	0.000
204.95	-33.333
205.32	0.000
205.70	600.000
206.08	75.000
206.45	0.000
206.83	350.000
207.20	-166.667
207.58	30.000
207.96	-200.000
208.33	-114.286
208.71	-1100.000
209.08	75.000
209.46	200.000
209.84	0.000
210.21	80.000
210.59	1100.000
210.96	80.000
211.34	200.000
211.71	-450.000
212.09	-33.333
212.46	-80.000
212.84	33.333
213.22	200.000
213.59	1000.000
213.97	200.000
214.34	-300.000
214.72	-7.692
215.09	25.000
215.47	88.889
215.84	150.000
216.22	112.500
216.59	400.000
216.97	200.000
217.34	100.000
217.72	0.000
218.09	-66.667
218.47	1200.000
218.84	14.286
219.22	62.500
219.59	233.333
219.97	150.000
220.34	125.000
220.72	160.000
221.09	0.000
221.47	100.000
221.84	700.000
222.22	0.000
222.59	-1000.000
222.97	100.000
223.34	8.333
223.72	-1100.000
224.09	0.000
224.46	18.182
224.84	162.500
225.21	71.429
225.59	-75.000
225.96	-33.333
226.34	70.000
226.71	-14.286
227.08	-300.000
227.46	-87.500
227.83	300.000
228.21	43.750
228.58	-125.000
228.95	-52.941
229.33	87.500
229.70	37.500
230.08	61.538
230.45	0.000
230.82	-41.667
231.20	85.714
231.57	0.000
231.95	300.000
232.32	83.333
232.69	35.294
233.07	-600.000
233.44	47.826
233.81	50.000
234.19	41.667
234.56	20.000
234.93	-40.000
235.31	42.105
235.68	-46.154
236.05	92.308
236.43	-5.556
236.80	30.303
237.17	-40.000
237.55	5.882
237.92	37.931
238.29	-22.222
238.67	33.333
239.04	-12.903
239.41	17.021
239.79	17.021
240.16	20.930
240.53	25.000
240.91	25.000
241.28	19.643
241.65	32.258
242.02	23.684
242.40	37.681
242.77	1.449
243.14	23.077
243.51	15.957
243.89	17.308
244.26	36.792
244.63	13.462
245.00	33.333
245.38	23.529
245.75	25.410
246.12	16.541
246.49	23.577
246.87	15.966
247.24	21.622
247.61	15.232
247.98	21.154
248.36	20.710
248.73	17.416
249.10	18.182
249.47	19.355
249.84	21.053
250.22	21.393
250.59	16.822
250.96	20.909
251.33	12.440
251.70	21.339
252.08	22.176
252.45	18.519
252.82	19.392
253.19	20.623
253.56	19.424
253.94	18.149
254.31	17.606
254.68	20.134
255.05	18.152
255.42	22.727
255.79	19.632
256.16	21.136
256.54	14.921
256.91	16.139
257.28	22.642
257.65	19.108
258.02	20.235
258.39	22.222
258.76	17.733
259.14	18.466
259.51	16.011
259.88	18.970
260.25	20.278
260.62	18.539
260.99	20.159
261.36	18.653
261.73	15.556
262.10	18.830
262.47	20.247
262.85	19.154
263.22	22.051
263.59	17.662
263.96	19.221
264.33	15.625
264.70	18.372
265.07	20.139
265.44	19.080
265.81	18.764
266.18	18.907
266.55	16.812
266.92	16.949
267.29	16.461
267.66	19.533
268.03	19.136
268.40	17.585
268.77	19.215
269.14	20.204
269.51	22.177
269.88	16.090
270.25	19.703
270.62	18.443
270.99	19.488
271.36	16.865
271.73	19.880
272.10	17.524
272.47	18.234
272.84	18.307
273.21	17.417
273.58	20.902
273.95	18.868
274.32	20.336
274.69	19.490
275.06	20.318
275.43	18.644
275.80	18.262
276.17	16.943
276.54	16.874
276.91	19.164
277.28	16.245
277.65	20.629
278.02	19.464
278.39	17.940
278.76	18.896
279.13	16.981
279.50	18.793
279.87	17.210
280.23	19.279
280.60	18.858
280.97	17.695
281.34	19.558
281.71	17.886
282.08	19.316
282.45	19.180
282.82	16.613
283.19	16.921
283.56	16.406
283.92	20.183
284.29	15.289
284.66	16.969
285.03	15.798
285.40	17.976
285.77	18.468
286.14	17.325
286.51	19.640
286.87	17.077
287.24	16.519
287.61	16.867
287.98	17.647
288.35	15.648
288.72	17.934
289.08	18.091
289.45	15.419
289.82	17.095
290.19	17.111
290.56	14.489
290.93	15.884
291.29	16.142
291.66	15.164
292.03	16.485
292.40	16.285
292.77	17.001
293.13	16.876
293.50	16.209
293.87	16.267
294.24	16.138
294.60	15.215
294.97	16.005
295.34	14.644
295.71	14.849
296.08	14.267
296.44	14.031
296.81	13.886
297.18	14.625
297.55	14.741
297.91	14.658
298.28	14.649
298.65	14.409
299.02	15.629
299.38	13.865
299.75	13.101
300.12	13.023
300.48	14.386
300.85	13.741
301.22	14.053
301.59	14.085
301.95	13.589
302.32	13.536
302.69	13.220
303.05	12.957
303.42	12.841
303.79	13.354
304.15	12.486
304.52	14.839
304.89	13.289
305.25	11.526
305.62	12.148
305.99	12.405
306.35	13.898
306.72	14.039
307.09	13.660
307.45	12.460
307.82	12.000
308.19	12.017
308.55	11.975
308.92	13.851
309.29	13.313
309.65	12.887
310.02	12.227
310.38	13.110
310.75	13.215
311.12	11.662
311.48	12.562
311.85	13.189
312.22	14.120
312.58	11.401
312.95	12.139
313.31	11.938
313.68	12.309
314.05	12.949
314.41	13.929
314.78	14.042
315.14	13.148
315.51	13.035
315.87	12.604
316.24	12.948
316.61	13.333
316.97	12.130
317.34	12.745
317.70	13.202
318.07	12.955
318.43	13.098
318.80	12.740
319.16	13.086
319.53	12.724
319.89	12.105
320.26	12.384
320.62	12.975
320.99	10.853
321.35	10.945
321.72	12.127
322.08	12.731
322.45	13.228
322.81	13.863
323.18	12.701
323.54	13.448
323.91	13.008
324.27	12.061
324.64	12.805
325.00	12.511
325.37	12.713
325.73	12.710
326.10	12.027
326.46	12.625
326.83	11.893
327.19	11.951
327.56	13.537
327.92	13.033
328.29	14.357
328.65	14.286
329.01	12.313
329.38	13.565
329.74	12.361
330.11	11.993
330.47	12.760
330.84	12.274
331.20	13.322
331.56	13.043
331.93	13.006
332.29	13.467
332.66	11.356
333.02	13.467
333.38	12.018
333.75	12.543
334.11	13.889
334.48	13.339
334.84	12.279
335.20	13.208
335.57	13.055
335.93	11.770
336.29	13.485
336.66	12.051
337.02	13.217
337.38	12.707
337.75	13.351
338.11	12.895
338.47	12.500
338.84	11.942
339.20	12.346
339.56	12.372
339.93	12.100
340.29	12.724
340.65	13.516
341.02	12.479
341.38	12.584
341.74	11.765
342.11	11.891
342.47	11.213
342.83	12.255
343.20	12.521
343.56	12.510
343.92	12.185
344.28	12.500
344.65	12.653
345.01	12.914
345.37	12.582
345.73	13.807
346.10	14.045
346.46	12.033
346.82	11.958
347.19	13.054
347.55	12.682
347.91	12.627
348.27	12.461
348.63	11.619
349.00	12.343
349.36	11.538
349.72	13.070
350.08	12.480
350.45	12.373
350.81	13.302
351.17	12.471
351.53	12.883
351.89	12.867
352.26	11.042
352.62	13.023
352.98	11.741
353.34	12.077
353.70	13.006
354.07	11.686
354.43	12.519
354.79	12.500
355.15	11.879
355.51	11.921
355.87	12.588
356.24	12.520
356.60	12.823
356.96	12.740
357.32	12.229
357.68	12.834
358.04	12.413
358.40	12.326
358.77	12.156
359.13	12.607
359.49	11.961
359.85	12.282
360.21	11.411
360.57	11.027
360.93	12.443
361.29	11.399
361.66	12.528
362.02	11.342
362.38	12.260
362.74	11.530
363.10	12.220
363.46	11.095
363.82	12.047
364.18	11.748
364.54	12.619
364.90	10.941
365.26	11.253
365.62	12.003
365.98	12.384
366.35	12.624
366.71	11.341
367.07	11.410
367.43	11.359
367.79	11.744
368.15	12.166
368.51	11.674
368.87	12.980
369.23	11.957
369.59	12.121
369.95	10.668
370.31	11.646
370.67	12.020
371.03	11.656
371.39	11.710
371.75	12.286
372.11	12.322
372.47	12.401
372.83	10.818
373.19	11.871
373.55	11.994
373.91	11.386
374.27	10.996
374.63	11.451
374.99	10.864
375.35	11.781
375.71	11.277
376.07	12.406
376.42	11.297
376.78	12.351
377.14	12.271
377.50	11.864
377.86	11.687
378.22	11.441
378.58	11.412
378.94	12.312
379.30	11.868
379.66	12.207
380.02	11.336
380.38	11.024
380.74	11.536
381.09	11.641
381.45	12.213
381.81	11.214
382.17	11.468
382.53	11.938
382.89	11.279
383.25	11.235
383.61	10.956
383.97	11.000
384.32	10.901
384.68	10.981
385.04	10.507
385.40	12.640
385.76	12.470
386.12	11.556
386.48	11.724
386.83	11.765
387.19	11.783
387.55	12.446
387.91	11.624
388.27	11.652
388.62	11.486
388.98	10.889
389.34	12.218
389.70	11.050
390.06	12.000
390.42	12.564
390.77	12.236
391.13	12.437
391.49	11.512
391.85	11.693
392.20	11.216
392.56	12.000
392.92	11.644
393.28	11.156
393.64	11.927
393.99	10.159
394.35	11.111
394.71	11.282
395.07	10.063
395.42	12.127
395.78	12.033
396.14	11.731
396.50	11.477
396.85	12.237
397.21	12.047
397.57	11.739
397.92	11.257
398.28	12.126
398.64	11.658
399.00	11.830
399.35	11.124
399.71	10.949
400.07	10.723
400.42	11.599
400.78	10.937
401.14	11.465
401.49	11.444
401.85	11.486
402.21	11.331
402.57	11.527
402.92	12.453
403.28	11.445
403.63	11.345
403.99	11.132
404.35	10.973
404.70	10.574
405.06	11.509
405.42	11.683
405.77	10.945
406.13	11.829
406.49	10.785
406.84	12.027
407.20	11.486
407.55	12.013
407.91	11.449
408.27	12.040
408.62	11.971
408.98	11.529
409.34	11.448
409.69	12.606
410.05	11.692
410.40	10.712
410.76	11.252
411.11	11.256
411.47	12.409
411.83	11.478
412.18	11.902
412.54	11.466
412.89	11.034
413.25	10.973
413.60	11.912
413.96	11.548
414.31	10.727
414.67	11.556
415.03	11.976
415.38	12.021
415.74	11.436
416.09	11.170
416.45	11.483
416.80	11.275
417.16	12.955
417.51	12.324
417.87	11.243
418.22	10.795
418.58	11.432
418.93	11.488
419.29	10.627
419.64	10.496
420.00	11.556
420.35	11.178
420.71	11.030
421.06	11.501
421.42	12.348
421.77	10.405
422.12	11.748
422.48	11.723
422.83	11.636
423.19	11.386
423.54	11.720
423.90	11.401
424.25	12.478
424.61	10.967
424.96	11.118
425.31	10.937
425.67	11.640
426.02	12.544
426.38	11.443
426.73	11.301
427.09	11.632
427.44	12.038
427.79	11.461
428.15	11.376
428.50	10.514
428.85	12.362
429.21	11.818
429.56	11.477
429.92	11.661
430.27	11.452
430.62	11.700
430.98	11.951
431.33	11.875
431.68	11.661
432.04	11.944
432.39	11.085
432.74	11.527
433.10	11.912
433.45	11.183
433.80	12.299
434.16	12.070
434.51	11.359
434.86	11.955
435.22	11.658
435.57	11.855
435.92	11.460
436.28	10.931
436.63	10.739
436.98	12.045
437.34	12.088
437.69	11.334
438.04	11.205
438.39	11.208
438.75	11.561
439.10	10.989
439.45	12.046
439.81	11.761
440.16	12.348
440.51	11.296
440.86	11.618
441.22	11.647
441.57	12.473
441.92	12.286
442.27	11.851
442.63	12.002
442.98	11.343
443.33	12.020
443.68	11.650
444.03	10.929
444.39	11.701
444.74	10.602
445.09	11.894
445.44	13.296
445.79	11.719
446.15	11.814
446.50	12.225
446.85	11.972
447.20	12.232
447.55	11.248
447.91	11.573
448.26	12.350
448.61	11.565
448.96	11.959
449.31	13.021
449.66	12.319
450.02	12.564
450.37	12.221
450.72	12.514
451.07	12.727
451.42	11.790
451.77	10.956
452.12	11.705
452.47	13.234
452.83	11.792
453.18	12.412
453.53	11.475
453.88	12.892
454.23	12.237
454.58	12.868
454.93	12.380
455.28	12.460
455.63	11.603
455.98	11.503
456.34	12.015
456.69	12.013
457.04	12.384
457.39	11.485
457.74	12.268
458.09	12.915
458.44	12.162
458.79	12.246
459.14	11.854
459.49	11.402
459.84	11.894
460.19	10.804
460.54	11.557
460.89	12.331
461.24	12.022
461.59	12.198
461.94	12.010
462.29	12.255
462.64	11.741
462.99	11.938
463.34	12.224
463.69	12.436
464.04	11.104
464.39	12.325
464.74	11.794
465.09	12.523
465.44	12.346
465.79	12.766
466.14	12.087
466.49	11.085
466.84	12.911
467.19	11.465
467.54	13.351
467.89	11.942
468.24	12.415
468.59	12.492
468.94	12.452
469.29	12.822
469.64	11.994
469.99	12.690
470.34	12.812
470.68	12.268
471.03	12.130
471.38	12.309
471.73	12.826
472.08	11.753
472.43	13.061
472.78	13.185
473.13	11.675
473.48	11.481
473.83	12.618
474.17	12.370
474.52	11.845
474.87	11.882
475.22	12.379
475.57	12.493
475.92	12.377
476.27	11.772
476.61	12.118
476.96	12.678
477.31	13.161
477.66	12.260
478.01	12.308
478.36	12.153
478.70	12.137
479.05	12.986
479.40	12.220
479.75	12.062
480.10	12.545
480.45	12.457
480.79	12.544
481.14	12.107
481.49	12.383
481.84	11.593
482.19	12.691
482.53	12.476
482.88	11.985
483.23	12.031
483.58	12.287
483.92	11.916
484.27	12.123
484.62	11.585
484.97	11.406
485.31	11.951
485.66	11.837
486.01	11.974
486.36	11.879
486.70	11.419
487.05	11.851
487.40	11.771
487.75	12.087
488.09	11.511
488.44	11.672
488.79	12.528
489.13	11.730
489.48	12.484
489.83	12.104
490.17	11.757
490.52	12.669
490.87	12.239
491.22	12.482
491.56	12.793
491.91	12.482
492.26	12.331
492.60	12.698
492.95	13.022
493.30	12.064
493.64	11.463
493.99	12.077
494.34	13.198
494.68	12.411
495.03	12.253
495.37	12.506
495.72	13.183
496.07	13.103
496.41	12.447
496.76	13.026
497.11	12.347
497.45	11.916
497.80	12.216
498.14	13.300
498.49	13.011
498.84	12.601
499.18	12.295
499.53	12.457
499.87	11.887
500.22	12.394
500.56	12.538
500.91	12.777
501.26	12.365
501.60	11.765
501.95	12.650
502.29	12.573
502.64	12.440
502.98	13.150
503.33	12.457
503.67	11.879
504.02	12.157
504.36	12.531
504.71	12.246
505.06	12.787
505.40	12.474
505.75	12.614
506.09	12.724
506.44	13.054
506.78	12.951
507.13	12.578
507.47	12.990
507.82	12.350
508.16	13.140
508.51	11.777
508.85	12.545
509.19	12.540
509.54	13.137
509.88	12.903
510.23	12.789
510.57	13.824
510.92	13.039
511.26	12.981
511.61	12.459
511.95	12.734
512.30	12.438
512.64	12.997
512.98	12.964
513.33	12.225
513.67	12.663
514.02	13.569
514.36	13.371
514.70	13.626
515.05	12.932
515.39	12.972
515.74	12.374
516.08	12.153
516.42	13.249
516.77	12.419
517.11	13.110
517.46	13.986
517.80	14.044
518.14	12.309
518.49	12.236
518.83	12.649
519.17	12.530
519.52	13.329
519.86	13.115
520.20	12.917
520.55	13.184
520.89	13.156
521.23	13.526
521.58	13.590
521.92	12.634
522.26	12.622
522.61	12.993
522.95	14.054
523.29	14.032
523.64	12.778
523.98	13.405
524.32	13.106
524.66	12.532
525.01	13.827
525.35	13.035
525.69	13.651
526.04	13.420
526.38	14.149
526.72	14.004
527.06	13.346
527.41	13.038
527.75	13.485
528.09	14.159
528.43	12.958
528.78	13.501
529.12	13.648
529.46	13.052
529.80	13.851
530.15	13.385
530.49	12.938
530.83	13.812
531.17	13.767
531.51	12.812
531.86	13.076
532.20	13.853
532.54	12.690
532.88	13.955
533.22	13.805
533.57	13.377
533.91	14.516
534.25	13.542
534.59	13.578
534.93	13.648
535.27	13.376
535.62	12.697
535.96	14.118
536.30	13.364
536.64	13.397
536.98	13.385
537.32	12.527
537.66	14.175
538.01	12.899
538.35	13.950
538.69	13.177
539.03	13.154
539.37	13.481
539.71	13.847
540.05	12.753
540.39	13.076
540.73	13.198
541.07	13.401
541.42	14.007
541.76	13.464
542.10	13.541
542.44	13.375
542.78	12.491
543.12	12.668
543.46	12.578
543.80	13.849
544.14	14.522
544.48	12.608
544.82	12.845
545.16	13.185
545.50	13.707
545.84	12.973
546.18	13.254
546.52	13.620
546.86	13.498
547.20	12.009
547.54	13.224
547.88	12.955
548.22	12.899
548.56	12.208
548.90	13.058
549.24	13.750
549.58	13.808
549.92	13.646
550.26	14.391
550.60	13.213
550.94	13.582
551.28	12.869
551.62	14.286
551.96	13.836
552.30	12.518
552.64	12.006
552.98	13.565
553.32	13.554
553.66	12.913
554.00	12.671
554.34	12.821
554.68	12.901
555.02	12.650
555.36	11.725
555.69	12.017
556.03	13.367
556.37	13.442
556.71	13.455
557.05	13.801
557.39	13.715
557.73	13.238
558.07	13.866
558.41	12.869
558.75	13.241
559.08	12.350
559.42	13.769
559.76	13.838
560.10	12.913
560.44	14.001
560.78	12.518
561.12	13.525
561.45	12.993
561.79	12.930
562.13	13.361
562.47	13.000
562.81	12.771
563.15	13.881
563.48	12.663
563.82	13.680
564.16	12.999
564.50	13.501
564.84	12.905
565.17	13.444
565.51	13.503
565.85	12.458
566.19	13.179
566.52	13.041
566.86	13.085
567.20	12.584
567.54	13.356
567.88	12.710
568.21	12.548
568.55	12.937
568.89	12.014
569.23	12.741
569.56	12.891
569.90	12.002
570.24	12.166
570.57	12.282
570.91	12.284
571.25	11.815
571.59	12.026
571.92	12.056
572.26	11.642
572.60	11.734
572.93	12.027
573.27	11.509
573.61	12.266
573.95	11.978
574.28	11.627
574.62	11.725
574.96	12.032
575.29	11.535
575.63	11.776
575.97	11.766
576.30	11.509
576.64	11.711
576.98	11.504
577.31	11.960
577.65	11.531
577.98	11.773
578.32	11.504
578.66	11.705
578.99	11.737
579.33	11.769
579.67	11.634
580.00	11.379
580.34	11.609
580.67	11.685
581.01	11.917
581.35	11.897
581.68	11.887
582.02	11.802
582.35	11.816
582.69	11.691
583.02	11.453
583.36	11.614
583.70	11.265
584.03	11.620
584.37	11.421
584.70	11.664
585.04	12.092
585.37	11.738
585.71	12.036
586.04	11.579
586.38	11.839
586.72	11.436
587.05	12.352
587.39	11.567
587.72	11.995
588.06	11.984
588.39	11.895
588.73	11.883
589.06	11.995
589.40	11.627
589.73	11.678
590.07	12.286
590.40	12.344
590.73	12.196
591.07	11.743
591.40	12.000
591.74	12.583
592.07	12.141
592.41	12.012
592.74	12.770
593.08	12.308
593.41	11.914
593.75	11.725
594.08	11.848
594.41	11.517
594.75	12.331
595.08	12.323
595.42	12.491
595.75	12.220
596.09	11.624
596.42	12.500
596.75	12.154
597.09	12.784
597.42	12.427
597.75	12.578
598.09	12.067
598.42	12.752
598.76	12.552
599.09	12.485
599.42	12.538
599.76	12.580
600.09	12.274
600.42	12.166
600.76	11.826
601.09	12.128
601.42	12.309
601.76	11.892
602.09	13.012
602.42	12.175
602.76	12.122
603.09	12.567
603.42	12.235
603.76	12.432
604.09	12.134
604.42	12.223
604.76	11.829
605.09	12.551
605.42	13.270
605.75	12.762
606.09	11.382
606.42	12.219
606.75	12.035
607.09	11.968
607.42	12.215
607.75	10.985
608.08	12.128
608.42	12.231
608.75	12.709
609.08	12.053
609.41	12.568
609.75	11.447
610.08	12.475
610.41	12.439
610.74	12.031
611.07	12.375
611.41	12.845
611.74	12.267
612.07	12.246
612.40	11.892
612.73	12.514
613.07	11.752
613.40	12.555
613.73	13.001
614.06	12.935
614.39	12.507
614.72	13.104
615.06	12.111
615.39	12.472
615.72	12.095
616.05	12.556
616.38	12.543
616.71	11.998
617.05	12.592
617.38	11.768
617.71	12.439
618.04	12.188
618.37	12.177
618.70	13.131
619.03	11.821
619.36	12.313
619.69	12.792
620.03	12.650
620.36	12.874
620.69	11.991
621.02	11.846
621.35	12.919
621.68	12.877
622.01	13.916
622.34	12.213
622.67	12.608
623.00	12.994
623.33	12.117
623.66	11.970
623.99	13.278
624.32	12.693
624.65	12.611
624.99	12.858
625.32	12.995
625.65	12.403
625.98	12.717
626.31	13.633
626.64	12.468
626.97	14.100
627.30	14.115
627.63	11.851
627.96	11.515
628.29	13.209
628.62	13.733
628.95	13.026
629.28	12.512
629.61	13.876
629.94	15.667
630.26	13.498
630.59	11.788
630.92	13.755
631.25	13.903
631.58	14.240
631.91	11.983
632.24	12.075
632.57	13.444
632.90	14.236
633.23	12.950
633.56	14.868
633.89	13.876
634.22	15.901
634.55	14.616
