SpectraSuite Data File
++++++++++++++++++++++++++++++++++++
Date: Wed May 13 20:40:44 PDT 2015
User: schluterlab
Dark Spectrum Present: Yes
Reference Spectrum Present: Yes
Number of Sampled Component Spectra: 1
Spectrometers: USB2E3373
Integration Time (usec): 3000 (USB2E3373)
Spectra Averaged: 3 (USB2E3373)
Boxcar Smoothing: 0 (USB2E3373)
Correct for Electrical Dark: No (USB2E3373)
Strobe/Lamp Enabled: No (USB2E3373)
Correct for Detector Non-linearity: No (USB2E3373)
Correct for Stray Light: No (USB2E3373)
Number of Pixels in Processed Spectrum: 2048
>>>>>Begin Processed Spectral Data<<<<<
178.53	0.000
178.91	-1025.000
179.29	-1050.000
179.67	-194.444
180.04	-1100.000
180.42	1650.000
180.80	820.000
181.18	-625.000
181.56	471.429
181.94	0.000
182.31	-414.286
182.69	1366.667
183.07	-412.500
183.45	-355.556
183.83	418.182
184.20	-190.000
184.58	2050.000
184.96	3800.000
185.34	-800.000
185.72	-550.000
186.09	-1250.000
186.47	1300.000
186.85	1650.000
187.23	3500.000
187.61	-1166.667
187.98	975.000
188.36	390.909
188.74	400.000
189.12	-560.000
189.49	420.000
189.87	-3100.000
190.25	-875.000
190.63	392.857
191.00	346.154
191.38	650.000
191.76	-925.000
192.14	1125.000
192.51	487.500
192.89	783.333
193.27	350.000
193.65	-825.000
194.02	400.000
194.40	640.000
194.78	350.000
195.15	408.333
195.53	480.000
195.91	-1350.000
196.29	312.500
196.66	210.526
197.04	-200.000
197.42	0.000
197.79	420.000
198.17	-3600.000
198.55	657.143
198.92	475.000
199.30	560.000
199.68	0.000
200.05	233.333
200.43	528.571
200.81	3900.000
201.18	1300.000
201.56	-1300.000
201.94	433.333
202.31	433.333
202.69	333.333
203.07	350.000
203.44	0.000
203.82	975.000
204.19	571.429
204.57	357.143
204.95	350.000
205.32	1066.667
205.70	327.273
206.08	271.429
206.45	1700.000
206.83	287.500
207.20	583.333
207.58	480.000
207.96	244.444
208.33	575.000
208.71	-583.333
209.08	514.286
209.46	455.556
209.84	363.636
210.21	-733.333
210.59	975.000
210.96	-350.000
211.34	2000.000
211.71	460.000
212.09	550.000
212.46	0.000
212.84	1133.333
213.22	800.000
213.59	-3200.000
213.97	683.333
214.34	742.857
214.72	445.455
215.09	860.000
215.47	-1350.000
215.84	-1450.000
216.22	1366.667
216.59	292.857
216.97	900.000
217.34	345.455
217.72	-516.667
218.09	0.000
218.47	-4900.000
218.84	577.778
219.22	585.714
219.59	1133.333
219.97	-514.286
220.34	680.000
220.72	-1100.000
221.09	300.000
221.47	1025.000
221.84	-733.333
222.22	0.000
222.59	1125.000
222.97	-2000.000
223.34	760.000
223.72	369.231
224.09	820.000
224.46	1250.000
224.84	-3900.000
225.21	-680.000
225.59	-3100.000
225.96	480.000
226.34	235.000
226.71	1650.000
227.08	525.000
227.46	470.000
227.83	-625.000
228.21	-1600.000
228.58	488.889
228.95	-1900.000
229.33	-1600.000
229.70	1100.000
230.08	628.571
230.45	-660.000
230.82	300.000
231.20	616.667
231.57	471.429
231.95	375.000
232.32	209.091
232.69	245.455
233.07	428.571
233.44	253.846
233.81	-1233.333
234.19	268.421
234.56	325.000
234.93	233.333
235.31	354.545
235.68	253.846
236.05	271.429
236.43	112.121
236.80	236.842
237.17	2400.000
237.55	166.667
237.92	164.286
238.29	190.476
238.67	119.355
239.04	179.310
239.41	119.444
239.79	106.522
240.16	126.190
240.53	125.000
240.91	68.627
241.28	90.000
241.65	82.000
242.02	82.609
242.40	85.484
242.77	70.000
243.14	58.065
243.51	82.022
243.89	70.588
244.26	73.333
244.63	68.817
245.00	59.574
245.38	55.446
245.75	64.486
246.12	54.128
246.49	63.504
246.87	58.400
247.24	63.077
247.61	49.286
247.98	55.556
248.36	41.892
248.73	47.134
249.10	47.771
249.47	44.068
249.84	49.733
250.22	50.802
250.59	47.337
250.96	42.424
251.33	42.180
251.70	45.050
252.08	42.857
252.45	40.807
252.82	40.435
253.19	40.000
253.56	44.314
253.94	44.398
254.31	43.750
254.68	39.231
255.05	40.221
255.42	38.211
255.79	36.765
256.16	42.238
256.54	38.163
256.91	38.790
257.28	33.094
257.65	35.974
258.02	35.093
258.39	34.385
258.76	36.455
259.14	39.583
259.51	39.514
259.88	33.540
260.25	36.254
260.62	35.549
260.99	36.646
261.36	38.438
261.73	35.817
262.10	34.884
262.47	37.746
262.85	35.376
263.22	33.048
263.59	35.328
263.96	35.440
264.33	34.987
264.70	35.000
265.07	34.527
265.44	35.606
265.81	32.847
266.18	34.673
266.55	35.366
266.92	34.152
267.29	32.870
267.66	34.174
268.03	34.318
268.40	35.047
268.77	32.458
269.14	31.081
269.51	32.280
269.88	35.431
270.25	33.634
270.62	35.281
270.99	34.194
271.36	33.691
271.73	35.047
272.10	30.870
272.47	33.978
272.84	32.684
273.21	33.962
273.58	31.004
273.95	33.333
274.32	31.818
274.69	33.405
275.06	31.693
275.43	34.468
275.80	30.261
276.17	32.179
276.54	34.719
276.91	33.399
277.28	32.031
277.65	31.141
278.02	31.677
278.39	31.055
278.76	29.636
279.13	30.566
279.50	29.609
279.87	30.478
280.23	31.737
280.60	28.820
280.97	31.238
281.34	32.212
281.71	29.818
282.08	30.326
282.45	28.182
282.82	30.195
283.19	29.768
283.56	30.000
283.92	31.303
284.29	29.277
284.66	31.034
285.03	29.295
285.40	28.521
285.77	30.135
286.14	31.261
286.51	30.000
286.87	28.205
287.24	30.293
287.61	28.411
287.98	28.896
288.35	28.843
288.72	27.570
289.08	27.700
289.45	28.336
289.82	28.455
290.19	26.060
290.56	26.340
290.93	26.284
291.29	26.534
291.66	26.401
292.03	28.198
292.40	26.872
292.77	26.331
293.13	27.313
293.50	26.676
293.87	25.778
294.24	25.333
294.60	25.619
294.97	24.419
295.34	25.106
295.71	26.562
296.08	22.650
296.44	23.934
296.81	24.439
297.18	24.932
297.55	24.406
297.91	23.087
298.28	24.498
298.65	24.543
299.02	23.584
299.38	22.444
299.75	22.237
300.12	22.478
300.48	21.750
300.85	22.688
301.22	24.331
301.59	20.960
301.95	23.929
302.32	23.363
302.69	23.297
303.05	22.182
303.42	22.099
303.79	20.498
304.15	22.261
304.52	21.321
304.89	21.719
305.25	20.882
305.62	21.857
305.99	22.078
306.35	22.595
306.72	22.982
307.09	22.863
307.45	24.775
307.82	21.317
308.19	22.406
308.55	23.085
308.92	23.093
309.29	22.703
309.65	21.951
310.02	21.987
310.38	23.656
310.75	24.287
311.12	23.849
311.48	22.780
311.85	23.899
312.22	23.517
312.58	24.012
312.95	24.498
313.31	23.204
313.68	24.324
314.05	25.345
314.41	24.523
314.78	25.076
315.14	24.826
315.51	24.820
315.87	25.842
316.24	26.316
316.61	26.413
316.97	28.082
317.34	27.006
317.70	27.438
318.07	28.393
318.43	28.474
318.80	29.522
319.16	28.343
319.53	29.644
319.89	30.667
320.26	31.300
320.62	30.853
320.99	31.414
321.35	31.212
321.72	32.341
322.08	33.268
322.45	33.632
322.81	33.043
323.18	34.971
323.54	35.158
323.91	34.717
324.27	35.755
324.64	34.576
325.00	34.626
325.37	37.853
325.73	36.894
326.10	36.981
326.46	37.903
326.83	37.791
327.19	38.002
327.56	39.373
327.92	40.245
328.29	40.373
328.65	40.700
329.01	40.162
329.38	41.813
329.74	41.182
330.11	41.753
330.47	43.985
330.84	43.566
331.20	43.898
331.56	43.211
331.93	42.407
332.29	43.123
332.66	42.920
333.02	42.505
333.38	44.535
333.75	44.920
334.11	44.929
334.48	44.720
334.84	45.129
335.20	46.455
335.57	44.968
335.93	45.179
336.29	46.795
336.66	47.250
337.02	44.253
337.38	47.130
337.75	44.742
338.11	47.001
338.47	46.869
338.84	47.021
339.20	45.688
339.56	47.810
339.93	47.364
340.29	46.014
340.65	44.920
341.02	47.033
341.38	47.242
341.74	45.088
342.11	45.677
342.47	47.841
342.83	45.719
343.20	47.013
343.56	47.178
343.92	47.982
344.28	46.003
344.65	46.948
345.01	45.034
345.37	44.940
345.73	45.770
346.10	45.013
346.46	45.847
346.82	45.222
347.19	44.612
347.55	44.499
347.91	44.498
348.27	47.001
348.63	45.652
349.00	44.579
349.36	45.074
349.72	44.908
350.08	44.733
350.45	45.728
350.81	44.354
351.17	44.814
351.53	44.472
351.89	44.307
352.26	44.751
352.62	44.026
352.98	44.733
353.34	43.385
353.70	43.453
354.07	44.355
354.43	42.778
354.79	42.317
355.15	43.815
355.51	44.764
355.87	42.612
356.24	44.707
356.60	43.625
356.96	42.800
357.32	44.317
357.68	43.386
358.04	42.835
358.40	43.943
358.77	42.723
359.13	42.857
359.49	42.980
359.85	41.667
360.21	43.541
360.57	43.424
360.93	42.308
361.29	43.386
361.66	42.028
362.02	42.090
362.38	43.726
362.74	42.560
363.10	43.153
363.46	42.406
363.82	41.648
364.18	41.483
364.54	42.868
364.90	42.564
365.26	42.500
365.62	42.440
365.98	40.760
366.35	40.759
366.71	41.721
367.07	40.495
367.43	42.017
367.79	43.398
368.15	42.241
368.51	41.424
368.87	42.113
369.23	41.624
369.59	41.347
369.95	41.618
370.31	41.168
370.67	40.870
371.03	42.322
371.39	41.399
371.75	40.662
372.11	40.967
372.47	41.789
372.83	42.507
373.19	40.824
373.55	41.833
373.91	41.458
374.27	41.306
374.63	40.364
374.99	41.031
375.35	39.707
375.71	40.233
376.07	41.701
376.42	40.922
376.78	40.822
377.14	40.366
377.50	40.861
377.86	39.694
378.22	38.938
378.58	38.784
378.94	39.849
379.30	40.776
379.66	41.624
380.02	41.032
380.38	38.859
380.74	40.516
381.09	40.648
381.45	40.258
381.81	38.943
382.17	39.554
382.53	39.560
382.89	40.494
383.25	39.525
383.61	38.786
383.97	39.525
384.32	39.800
384.68	38.786
385.04	39.090
385.40	38.452
385.76	38.636
386.12	38.212
386.48	39.144
386.83	39.641
387.19	39.765
387.55	39.147
387.91	38.271
388.27	38.688
388.62	38.783
388.98	37.899
389.34	38.861
389.70	37.339
390.06	38.086
390.42	37.808
390.77	37.850
391.13	39.630
391.49	38.388
391.85	37.174
392.20	37.918
392.56	38.321
392.92	38.376
393.28	37.988
393.64	38.549
393.99	37.569
394.35	37.841
394.71	38.206
395.07	37.445
395.42	38.072
395.78	37.977
396.14	36.996
396.50	38.095
396.85	37.317
397.21	36.498
397.57	37.136
397.92	37.320
398.28	37.444
398.64	37.037
399.00	37.717
399.35	35.871
399.71	36.979
400.07	36.192
400.42	36.012
400.78	36.912
401.14	37.073
401.49	37.910
401.85	35.572
402.21	35.808
402.57	36.706
402.92	37.453
403.28	37.227
403.63	36.881
403.99	36.624
404.35	36.545
404.70	36.691
405.06	35.760
405.42	35.870
405.77	35.771
406.13	34.876
406.49	36.251
406.84	36.385
407.20	35.638
407.55	35.354
407.91	37.400
408.27	36.184
408.62	36.183
408.98	35.600
409.34	35.486
409.69	37.806
410.05	36.307
410.40	36.269
410.76	35.962
411.11	36.852
411.47	35.655
411.83	35.308
412.18	34.941
412.54	35.367
412.89	35.542
413.25	35.301
413.60	35.948
413.96	34.001
414.31	35.601
414.67	35.678
415.03	36.159
415.38	35.116
415.74	34.662
416.09	35.924
416.45	34.672
416.80	35.823
417.16	36.193
417.51	35.899
417.87	36.159
418.22	36.215
418.58	36.023
418.93	35.995
419.29	35.646
419.64	34.824
420.00	34.573
420.35	34.957
420.71	35.684
421.06	35.561
421.42	35.731
421.77	36.379
422.12	35.430
422.48	34.700
422.83	36.575
423.19	36.022
423.54	35.636
423.90	35.420
424.25	35.176
424.61	35.000
424.96	35.510
425.31	35.659
425.67	35.056
426.02	34.971
426.38	36.203
426.73	34.289
427.09	35.745
427.44	35.825
427.79	35.020
428.15	35.238
428.50	36.337
428.85	35.697
429.21	35.229
429.56	35.874
429.92	35.229
430.27	34.608
430.62	35.228
430.98	35.444
431.33	35.876
431.68	36.492
432.04	35.517
432.39	35.637
432.74	35.966
433.10	36.276
433.45	35.627
433.80	36.308
434.16	36.378
434.51	35.789
434.86	36.374
435.22	37.132
435.57	36.353
435.92	36.454
436.28	36.536
436.63	37.693
436.98	36.749
437.34	38.044
437.69	37.981
438.04	37.381
438.39	37.313
438.75	37.478
439.10	37.486
439.45	36.541
439.81	37.221
440.16	37.436
440.51	37.786
440.86	37.695
441.22	37.264
441.57	37.473
441.92	38.025
442.27	37.944
442.63	37.915
442.98	39.211
443.33	37.663
443.68	38.668
444.03	37.628
444.39	38.023
444.74	39.340
445.09	38.868
445.44	38.054
445.79	38.347
446.15	38.751
446.50	39.095
446.85	39.671
447.20	39.521
447.55	39.587
447.91	39.051
448.26	38.898
448.61	40.305
448.96	39.701
449.31	40.101
449.66	39.674
450.02	40.167
450.37	40.703
450.72	39.199
451.07	39.549
451.42	40.000
451.77	41.456
452.12	40.185
452.47	40.485
452.83	40.909
453.18	39.914
453.53	41.806
453.88	40.343
454.23	41.004
454.58	42.035
454.93	42.276
455.28	40.711
455.63	42.354
455.98	42.083
456.34	41.709
456.69	42.204
457.04	42.229
457.39	41.964
457.74	41.730
458.09	41.921
458.44	42.531
458.79	41.432
459.14	42.156
459.49	43.024
459.84	42.715
460.19	42.840
460.54	42.766
460.89	42.293
461.24	44.141
461.59	43.986
461.94	43.033
462.29	43.561
462.64	43.650
462.99	42.941
463.34	43.933
463.69	43.340
464.04	42.609
464.39	42.725
464.74	43.197
465.09	42.943
465.44	44.044
465.79	43.065
466.14	43.131
466.49	42.770
466.84	43.024
467.19	43.331
467.54	44.000
467.89	43.758
468.24	43.572
468.59	44.811
468.94	43.861
469.29	44.987
469.64	44.846
469.99	45.737
470.34	44.848
470.68	44.899
471.03	44.830
471.38	46.074
471.73	44.837
472.08	45.789
472.43	44.849
472.78	45.425
473.13	45.828
473.48	46.255
473.83	46.098
474.17	45.613
474.52	46.216
474.87	44.950
475.22	44.922
475.57	45.191
475.92	45.884
476.27	45.885
476.61	45.450
476.96	46.619
477.31	45.317
477.66	46.608
478.01	45.374
478.36	46.430
478.70	46.158
479.05	46.113
479.40	46.162
479.75	46.518
480.10	45.527
480.45	45.169
480.79	45.485
481.14	46.086
481.49	46.369
481.84	45.770
482.19	46.252
482.53	45.321
482.88	46.347
483.23	47.150
483.58	46.087
483.92	47.188
484.27	45.011
484.62	45.905
484.97	45.329
485.31	45.753
485.66	43.584
486.01	43.183
486.36	42.878
486.70	42.441
487.05	44.069
487.40	43.769
487.75	44.606
488.09	45.011
488.44	45.297
488.79	46.438
489.13	47.135
489.48	46.533
489.83	46.871
490.17	47.698
490.52	48.273
490.87	47.987
491.22	48.067
491.56	46.606
491.91	48.953
492.26	47.405
492.60	47.880
492.95	47.848
493.30	48.364
493.64	48.063
493.99	48.143
494.34	48.566
494.68	50.092
495.03	49.013
495.37	47.510
495.72	48.879
496.07	50.116
496.41	47.876
496.76	48.725
497.11	49.437
497.45	49.138
497.80	50.000
498.14	49.903
498.49	50.049
498.84	49.137
499.18	49.524
499.53	49.858
499.87	48.649
500.22	48.752
500.56	50.243
500.91	50.000
501.26	50.356
501.60	51.068
501.95	48.992
502.29	49.203
502.64	50.512
502.98	50.070
503.33	50.183
503.67	49.559
504.02	49.953
504.36	49.789
504.71	51.441
505.06	50.747
505.40	51.823
505.75	50.338
506.09	50.292
506.44	51.307
506.78	51.827
507.13	52.448
507.47	52.172
507.82	51.925
508.16	52.685
508.51	53.323
508.85	51.192
509.19	52.653
509.54	51.071
509.88	51.468
510.23	51.979
510.57	52.993
510.92	52.771
511.26	51.696
511.61	52.386
511.95	51.827
512.30	52.280
512.64	51.961
512.98	53.591
513.33	53.266
513.67	52.935
514.02	54.275
514.36	53.140
514.70	52.684
515.05	53.653
515.39	54.964
515.74	54.448
516.08	54.723
516.42	54.384
516.77	55.686
517.11	53.385
517.46	54.740
517.80	56.678
518.14	54.951
518.49	56.126
518.83	54.943
519.17	55.831
519.52	54.556
519.86	55.163
520.20	55.607
520.55	55.416
520.89	57.056
521.23	56.695
521.58	55.582
521.92	55.603
522.26	54.728
522.61	57.321
522.95	56.538
523.29	56.665
523.64	57.439
523.98	57.733
524.32	57.177
524.66	56.164
525.01	55.515
525.35	56.196
525.69	56.034
526.04	57.445
526.38	57.169
526.72	56.626
527.06	58.004
527.41	55.879
527.75	58.071
528.09	57.290
528.43	58.190
528.78	57.837
529.12	57.758
529.46	58.175
529.80	59.158
530.15	58.754
530.49	56.554
530.83	59.620
531.17	58.812
531.51	58.301
531.86	58.903
532.20	60.561
532.54	58.040
532.88	58.922
533.22	57.027
533.57	57.222
533.91	56.773
534.25	56.258
534.59	58.816
534.93	57.525
535.27	57.272
535.62	57.937
535.96	59.448
536.30	57.661
536.64	58.983
536.98	59.390
537.32	57.275
537.66	59.667
538.01	59.842
538.35	58.888
538.69	58.902
539.03	58.739
539.37	58.403
539.71	58.004
540.05	60.196
540.39	58.538
540.73	59.961
541.07	58.469
541.42	59.295
541.76	59.161
542.10	60.285
542.44	60.397
542.78	60.145
543.12	57.326
543.46	58.623
543.80	60.703
544.14	58.922
544.48	59.492
544.82	59.974
545.16	60.182
545.50	59.897
545.84	59.812
546.18	59.798
546.52	61.803
546.86	61.237
547.20	60.013
547.54	59.452
547.88	60.204
548.22	58.717
548.56	59.748
548.90	61.012
549.24	60.135
549.58	61.733
549.92	61.195
550.26	61.932
550.60	61.134
550.94	62.254
551.28	62.034
551.62	62.185
551.96	59.439
552.30	62.116
552.64	62.407
552.98	62.712
553.32	61.699
553.66	61.213
554.00	63.075
554.34	60.594
554.68	63.162
555.02	61.989
555.36	61.865
555.69	61.570
556.03	61.709
556.37	63.165
556.71	61.187
557.05	63.165
557.39	62.491
557.73	63.444
558.07	65.410
558.41	62.808
558.75	63.189
559.08	63.236
559.42	63.946
559.76	63.676
560.10	63.169
560.44	63.452
560.78	61.810
561.12	62.929
561.45	62.321
561.79	62.162
562.13	63.649
562.47	65.096
562.81	63.738
563.15	61.672
563.48	62.334
563.82	63.014
564.16	62.067
564.50	64.453
564.84	61.568
565.17	63.320
565.51	63.514
565.85	63.135
566.19	62.179
566.52	63.458
566.86	62.387
567.20	63.797
567.54	62.614
567.88	61.325
568.21	60.899
568.55	61.527
568.89	60.554
569.23	60.472
569.56	58.745
569.90	59.170
570.24	58.593
570.57	58.892
570.91	56.852
571.25	57.443
571.59	56.878
571.92	56.999
572.26	57.423
572.60	57.658
572.93	56.942
573.27	57.350
573.61	57.175
573.95	57.209
574.28	57.286
574.62	56.608
574.96	56.081
575.29	56.523
575.63	56.098
575.97	56.730
576.30	56.665
576.64	56.912
576.98	57.365
577.31	57.232
577.65	56.091
577.98	56.333
578.32	55.381
578.66	56.541
578.99	55.900
579.33	56.863
579.67	56.847
580.00	57.420
580.34	57.499
580.67	56.322
581.01	58.039
581.35	57.435
581.68	56.686
582.02	56.218
582.35	57.016
582.69	57.438
583.02	58.192
583.36	58.589
583.70	58.766
584.03	58.359
584.37	58.445
584.70	59.613
585.04	58.072
585.37	58.248
585.71	58.036
586.04	59.193
586.38	59.431
586.72	60.453
587.05	59.250
587.39	59.103
587.72	59.366
588.06	59.925
588.39	60.137
588.73	59.754
589.06	60.330
589.40	61.414
589.73	61.739
590.07	62.384
590.40	61.162
590.73	62.998
591.07	63.736
591.40	63.349
591.74	63.766
592.07	63.264
592.41	63.497
592.74	62.659
593.08	61.659
593.41	61.942
593.75	60.962
594.08	62.018
594.41	63.061
594.75	63.253
595.08	62.097
595.42	62.872
595.75	63.319
596.09	63.988
596.42	63.654
596.75	63.402
597.09	63.939
597.42	63.111
597.75	64.122
598.09	63.826
598.42	64.089
598.76	64.005
599.09	63.284
599.42	63.537
599.76	63.763
600.09	63.060
600.42	63.221
600.76	63.321
601.09	63.352
601.42	64.193
601.76	64.440
602.09	63.992
602.42	63.854
602.76	64.692
603.09	64.831
603.42	65.560
603.76	63.529
604.09	65.491
604.42	65.756
604.76	65.247
605.09	65.662
605.42	65.113
605.75	64.735
606.09	64.986
606.42	65.836
606.75	65.533
607.09	64.504
607.42	66.025
607.75	64.557
608.08	65.002
608.42	65.666
608.75	64.743
609.08	66.327
609.41	66.207
609.75	66.222
610.08	67.107
610.41	65.829
610.74	66.793
611.07	68.231
611.41	67.566
611.74	68.074
612.07	69.203
612.40	69.780
612.73	67.211
613.07	69.450
613.40	68.562
613.73	67.278
614.06	68.280
614.39	68.170
614.72	67.000
615.06	68.382
615.39	68.471
615.72	67.894
616.05	67.677
616.38	69.705
616.71	70.962
617.05	70.612
617.38	68.791
617.71	70.511
618.04	71.094
618.37	71.437
618.70	72.371
619.03	70.461
619.36	71.826
619.69	73.592
620.03	72.596
620.36	71.925
620.69	73.630
621.02	74.410
621.35	73.688
621.68	72.897
622.01	73.375
622.34	73.298
622.67	74.601
623.00	71.974
623.33	72.552
623.66	73.195
623.99	74.080
624.32	73.039
624.65	74.435
624.99	72.167
625.32	75.018
625.65	74.981
625.98	74.789
626.31	75.505
626.64	74.612
626.97	75.395
627.30	75.727
627.63	75.062
627.96	76.114
628.29	76.640
628.62	77.493
628.95	78.491
629.28	76.642
629.61	78.368
629.94	78.476
630.26	77.884
630.59	78.074
630.92	78.065
631.25	78.875
