SpectraSuite Data File
++++++++++++++++++++++++++++++++++++
Date: Wed May 13 20:45:10 PDT 2015
User: schluterlab
Dark Spectrum Present: Yes
Reference Spectrum Present: Yes
Number of Sampled Component Spectra: 1
Spectrometers: USB2E3373
Integration Time (usec): 3000 (USB2E3373)
Spectra Averaged: 3 (USB2E3373)
Boxcar Smoothing: 0 (USB2E3373)
Correct for Electrical Dark: No (USB2E3373)
Strobe/Lamp Enabled: No (USB2E3373)
Correct for Detector Non-linearity: No (USB2E3373)
Correct for Stray Light: No (USB2E3373)
Number of Pixels in Processed Spectrum: 2048
>>>>>Begin Processed Spectral Data<<<<<
178.53	0.000
178.91	-700.000
179.29	-650.000
179.67	-133.333
180.04	-725.000
180.42	1800.000
180.80	620.000
181.18	-425.000
181.56	357.143
181.94	0.000
182.31	-428.571
182.69	1033.333
183.07	-237.500
183.45	-388.889
183.83	418.182
184.20	-210.000
184.58	1500.000
184.96	4200.000
185.34	-580.000
185.72	-400.000
186.09	-1100.000
186.47	2100.000
186.85	1350.000
187.23	2000.000
187.61	-766.667
187.98	900.000
188.36	318.182
188.74	300.000
189.12	-680.000
189.49	360.000
189.87	-3100.000
190.25	-825.000
190.63	278.571
191.00	215.385
191.38	466.667
191.76	-600.000
192.14	850.000
192.51	262.500
192.89	550.000
193.27	350.000
193.65	-700.000
194.02	330.000
194.40	480.000
194.78	350.000
195.15	416.667
195.53	440.000
195.91	-1200.000
196.29	231.250
196.66	236.842
197.04	-190.000
197.42	0.000
197.79	470.000
198.17	-2100.000
198.55	342.857
198.92	387.500
199.30	660.000
199.68	0.000
200.05	244.444
200.43	557.143
200.81	2400.000
201.18	1033.333
201.56	-766.667
201.94	344.444
202.31	388.889
202.69	216.667
203.07	420.000
203.44	0.000
203.82	775.000
204.19	600.000
204.57	300.000
204.95	325.000
205.32	866.667
205.70	363.636
206.08	242.857
206.45	1950.000
206.83	231.250
207.20	433.333
207.58	360.000
207.96	266.667
208.33	525.000
208.71	-566.667
209.08	500.000
209.46	366.667
209.84	381.818
210.21	-600.000
210.59	825.000
210.96	-337.500
211.34	1500.000
211.71	460.000
212.09	566.667
212.46	0.000
212.84	1433.333
213.22	575.000
213.59	-2000.000
213.97	566.667
214.34	657.143
214.72	436.364
215.09	780.000
215.47	-1150.000
215.84	-1250.000
216.22	933.333
216.59	264.286
216.97	1150.000
217.34	327.273
217.72	-400.000
218.09	0.000
218.47	-3500.000
218.84	400.000
219.22	557.143
219.59	966.667
219.97	-428.571
220.34	540.000
220.72	-733.333
221.09	314.286
221.47	750.000
221.84	-600.000
222.22	0.000
222.59	800.000
222.97	-1600.000
223.34	1020.000
223.72	276.923
224.09	820.000
224.46	1250.000
224.84	-2800.000
225.21	-740.000
225.59	-2900.000
225.96	380.000
226.34	190.000
226.71	2100.000
227.08	412.500
227.46	330.000
227.83	-650.000
228.21	-1350.000
228.58	322.222
228.95	-1350.000
229.33	-1250.000
229.70	1233.333
230.08	500.000
230.45	-460.000
230.82	216.667
231.20	516.667
231.57	328.571
231.95	233.333
232.32	177.273
232.69	281.818
233.07	342.857
233.44	215.385
233.81	-800.000
234.19	184.211
234.56	408.333
234.93	250.000
235.31	263.636
235.68	223.077
236.05	264.286
236.43	124.242
236.80	168.421
237.17	2100.000
237.55	114.286
237.92	128.571
238.29	166.667
238.67	93.548
239.04	124.138
239.41	91.667
239.79	91.304
240.16	95.238
240.53	75.000
240.91	66.667
241.28	76.000
241.65	58.000
242.02	59.420
242.40	53.226
242.77	71.667
243.14	41.935
243.51	61.798
243.89	52.941
244.26	37.778
244.63	49.462
245.00	44.681
245.38	34.653
245.75	35.514
246.12	31.193
246.49	48.175
246.87	47.200
247.24	36.923
247.61	37.857
247.98	33.987
248.36	33.784
248.73	28.025
249.10	37.580
249.47	31.073
249.84	36.364
250.22	26.738
250.59	27.219
250.96	29.293
251.33	31.754
251.70	32.178
252.08	30.000
252.45	26.457
252.82	28.696
253.19	30.213
253.56	27.059
253.94	29.461
254.31	26.953
254.68	30.769
255.05	26.568
255.42	24.797
255.79	24.632
256.16	26.354
256.54	22.968
256.91	24.199
257.28	19.784
257.65	24.422
258.02	26.087
258.39	22.397
258.76	21.739
259.14	21.726
259.51	20.669
259.88	23.913
260.25	23.565
260.62	22.254
260.99	22.671
261.36	24.024
261.73	22.350
262.10	20.058
262.47	22.254
262.85	22.841
263.22	16.239
263.59	23.932
263.96	20.879
264.33	18.799
264.70	21.842
265.07	21.228
265.44	21.717
265.81	18.491
266.18	19.849
266.55	20.244
266.92	21.376
267.29	21.528
267.66	22.248
268.03	20.000
268.40	19.159
268.77	17.184
269.14	18.919
269.51	20.993
269.88	20.746
270.25	20.542
270.62	20.225
270.99	24.301
271.36	20.386
271.73	17.290
272.10	17.826
272.47	21.720
272.84	21.645
273.21	18.868
273.58	18.559
273.95	18.868
274.32	19.215
274.69	19.914
275.06	18.898
275.43	19.149
275.80	20.842
276.17	17.312
276.54	22.245
276.91	20.356
277.28	18.945
277.65	19.729
278.02	19.048
278.39	20.703
278.76	17.636
279.13	20.189
279.50	17.691
279.87	19.522
280.23	18.363
280.60	19.923
280.97	18.299
281.34	21.770
281.71	17.273
282.08	17.658
282.45	16.182
282.82	18.828
283.19	17.112
283.56	19.123
283.92	19.628
284.29	17.284
284.66	15.245
285.03	17.722
285.40	17.606
285.77	18.013
286.14	16.235
286.51	19.000
286.87	18.632
287.24	17.101
287.61	18.620
287.98	18.019
288.35	16.482
288.72	18.224
289.08	19.718
289.45	17.133
289.82	18.699
290.19	15.542
290.56	16.998
290.93	17.069
291.29	15.798
291.66	15.782
292.03	16.715
292.40	18.062
292.77	14.793
293.13	16.567
293.50	16.764
293.87	16.593
294.24	15.407
294.60	14.556
294.97	16.134
295.34	16.079
295.71	15.909
296.08	13.248
296.44	15.818
296.81	15.456
297.18	15.583
297.55	13.325
297.91	15.172
298.28	15.663
298.65	15.144
299.02	15.547
299.38	15.405
299.75	13.073
300.12	12.388
300.48	13.875
300.85	13.810
301.22	13.121
301.59	15.278
301.95	15.239
302.32	13.479
302.69	14.934
303.05	13.576
303.42	12.222
303.79	13.137
304.15	13.170
304.52	12.746
304.89	12.311
305.25	13.689
305.62	14.270
305.99	13.105
306.35	14.206
306.72	12.892
307.09	15.205
307.45	14.077
307.82	12.946
308.19	14.680
308.55	13.592
308.92	13.641
309.29	12.355
309.65	13.043
310.02	13.214
310.38	11.613
310.75	12.672
311.12	13.920
311.48	12.957
311.85	13.208
312.22	11.967
312.58	12.370
312.95	13.516
313.31	12.330
313.68	12.474
314.05	15.582
314.41	13.869
314.78	12.588
315.14	12.810
315.51	13.079
315.87	13.465
316.24	12.810
316.61	13.255
316.97	12.622
317.34	13.209
317.70	14.532
318.07	12.705
318.43	15.264
318.80	14.339
319.16	13.936
319.53	12.758
319.89	14.381
320.26	13.900
320.62	13.591
320.99	14.242
321.35	14.545
321.72	13.758
322.08	13.919
322.45	15.721
322.81	15.891
323.18	16.089
323.54	16.327
323.91	14.623
324.27	14.914
324.64	14.539
325.00	14.968
325.37	14.741
325.73	15.709
326.10	15.534
326.46	15.502
326.83	15.876
327.19	16.738
327.56	16.028
327.92	17.060
328.29	17.480
328.65	16.943
329.01	17.690
329.38	16.836
329.74	17.729
330.11	17.248
330.47	17.539
330.84	18.750
331.20	17.395
331.56	17.431
331.93	17.963
332.29	19.787
332.66	18.761
333.02	18.007
333.38	18.157
333.75	20.588
334.11	17.972
334.48	17.924
334.84	18.750
335.20	19.182
335.57	19.039
335.93	18.214
336.29	17.857
336.66	19.206
337.02	19.095
337.38	19.167
337.75	18.271
338.11	18.442
338.47	19.429
338.84	19.340
339.20	17.890
339.56	20.894
339.93	19.000
340.29	19.293
340.65	19.430
341.02	20.332
341.38	19.662
341.74	18.947
342.11	19.913
342.47	20.529
342.83	20.120
343.20	19.654
343.56	19.461
343.92	19.649
344.28	19.728
344.65	20.378
345.01	18.939
345.37	18.096
345.73	20.474
346.10	20.034
346.46	19.831
346.82	19.605
347.19	19.716
347.55	19.704
347.91	19.498
348.27	20.871
348.63	20.151
349.00	20.065
349.36	21.018
349.72	19.727
350.08	19.854
350.45	20.342
350.81	20.390
351.17	19.611
351.53	19.574
351.89	18.894
352.26	20.047
352.62	19.727
352.98	20.016
353.34	20.789
353.70	20.376
354.07	20.323
354.43	20.397
354.79	19.710
355.15	20.032
355.51	21.503
355.87	20.490
356.24	20.847
356.60	19.567
356.96	21.239
357.32	20.278
357.68	21.339
358.04	20.744
358.40	20.982
358.77	20.031
359.13	19.732
359.49	20.549
359.85	19.683
360.21	20.574
360.57	21.245
360.93	20.923
361.29	21.618
361.66	20.666
362.02	20.299
362.38	22.205
362.74	20.536
363.10	20.429
363.46	20.176
363.82	21.315
364.18	21.292
364.54	21.545
364.90	21.246
365.26	21.176
365.62	20.818
365.98	21.622
366.35	20.774
366.71	22.198
367.07	21.486
367.43	21.843
367.79	21.770
368.15	21.839
368.51	20.640
368.87	21.770
369.23	21.507
369.59	22.013
369.95	22.721
370.31	22.080
370.67	21.594
371.03	23.521
371.39	21.647
371.75	22.206
372.11	22.048
372.47	23.387
372.83	23.343
373.19	21.821
373.55	22.395
373.91	23.859
374.27	21.649
374.63	22.109
374.99	22.387
375.35	21.773
375.71	22.276
376.07	22.908
376.42	22.077
376.78	22.068
377.14	23.406
377.50	22.715
377.86	22.141
378.22	23.641
378.58	23.246
378.94	22.753
379.30	21.565
379.66	23.033
380.02	23.219
380.38	23.376
380.74	23.109
381.09	23.716
381.45	23.417
381.81	23.157
382.17	24.013
382.53	23.208
382.89	23.333
383.25	22.514
383.61	24.535
383.97	23.139
384.32	23.144
384.68	23.420
385.04	22.618
385.40	22.786
385.76	23.833
386.12	23.251
386.48	24.166
386.83	24.567
387.19	23.810
387.55	23.191
387.91	23.277
388.27	22.624
388.62	23.786
388.98	23.710
389.34	23.717
389.70	23.666
390.06	23.257
390.42	22.957
390.77	23.855
391.13	24.123
391.49	24.619
391.85	23.679
392.20	22.965
392.56	24.116
392.92	23.838
393.28	23.905
393.64	23.681
393.99	24.130
394.35	23.883
394.71	23.149
395.07	22.679
395.42	24.660
395.78	24.300
396.14	23.836
396.50	24.937
396.85	24.666
397.21	23.859
397.57	24.117
397.92	24.159
398.28	22.534
398.64	24.134
399.00	23.783
399.35	23.237
399.71	22.685
400.07	24.246
400.42	23.006
400.78	24.125
401.14	23.476
401.49	23.701
401.85	24.319
402.21	23.832
402.57	23.566
402.92	24.401
403.28	24.172
403.63	23.886
403.99	23.503
404.35	23.818
404.70	22.962
405.06	23.355
405.42	24.579
405.77	22.686
406.13	22.912
406.49	23.891
406.84	23.804
407.20	23.168
407.55	23.548
407.91	23.600
408.27	23.038
408.62	23.179
408.98	23.775
409.34	23.678
409.69	23.742
410.05	22.862
410.40	23.853
410.76	24.194
411.11	22.376
411.47	22.748
411.83	23.213
412.18	22.944
412.54	23.412
412.89	23.494
413.25	22.432
413.60	22.854
413.96	23.619
414.31	23.026
414.67	23.891
415.03	23.046
415.38	23.840
415.74	23.344
416.09	24.690
416.45	23.360
416.80	22.141
417.16	23.861
417.51	23.092
417.87	22.222
418.22	23.470
418.58	23.112
418.93	22.850
419.29	23.934
419.64	23.678
420.00	21.951
420.35	22.667
420.71	24.088
421.06	22.554
421.42	22.982
421.77	22.814
422.12	22.796
422.48	22.558
422.83	23.005
423.19	22.928
423.54	23.622
423.90	23.362
424.25	22.613
424.61	23.214
424.96	22.915
425.31	23.200
425.67	22.247
426.02	22.400
426.38	23.748
426.73	23.171
427.09	22.857
427.44	23.232
427.79	22.887
428.15	23.155
428.50	22.352
428.85	23.302
429.21	22.529
429.56	22.810
429.92	22.345
430.27	21.698
430.62	22.683
430.98	22.937
431.33	22.887
431.68	22.880
432.04	22.258
432.39	22.730
432.74	23.339
433.10	22.637
433.45	22.741
433.80	21.951
434.16	23.184
434.51	22.579
434.86	23.432
435.22	23.291
435.57	22.918
435.92	22.469
436.28	23.132
436.63	22.792
436.98	23.068
437.34	22.958
437.69	23.104
438.04	22.485
438.39	23.582
438.75	23.707
439.10	22.849
439.45	22.845
439.81	23.444
440.16	23.320
440.51	22.847
440.86	23.104
441.22	22.914
441.57	22.665
441.92	22.364
442.27	23.466
442.63	22.591
442.98	24.000
443.33	23.152
443.68	23.283
444.03	23.475
444.39	22.785
444.74	23.755
445.09	22.480
445.44	23.346
445.79	23.454
446.15	23.081
446.50	22.725
446.85	22.045
447.20	22.642
447.55	23.339
447.91	23.056
448.26	23.539
448.61	23.290
448.96	24.086
449.31	23.341
449.66	22.228
450.02	23.287
450.37	22.392
450.72	22.279
451.07	22.303
451.42	22.492
451.77	22.725
452.12	22.575
452.47	22.948
452.83	22.844
453.18	22.738
453.53	23.562
453.88	22.563
454.23	23.252
454.58	23.016
454.93	23.458
455.28	22.756
455.63	22.512
455.98	23.750
456.34	22.425
456.69	23.482
457.04	22.786
457.39	22.209
457.74	22.229
458.09	23.347
458.44	22.919
458.79	21.638
459.14	22.404
459.49	22.650
459.84	22.216
460.19	22.098
460.54	22.049
460.89	22.874
461.24	22.647
461.59	23.707
461.94	22.565
462.29	22.611
462.64	22.591
462.99	22.446
463.34	23.200
463.69	22.452
464.04	22.841
464.39	22.319
464.74	22.816
465.09	22.979
465.44	22.382
465.79	21.756
466.14	22.496
466.49	22.414
466.84	22.767
467.19	22.631
467.54	22.062
467.89	22.929
468.24	22.978
468.59	22.650
468.94	22.053
469.29	22.751
469.64	23.494
469.99	23.139
470.34	21.598
470.68	22.486
471.03	22.721
471.38	23.072
471.73	22.518
472.08	22.961
472.43	22.111
472.78	22.317
473.13	22.529
473.48	22.409
473.83	23.049
474.17	21.469
474.52	23.201
474.87	22.650
475.22	22.345
475.57	21.977
475.92	21.986
476.27	21.928
476.61	21.566
476.96	21.440
477.31	21.716
477.66	22.265
478.01	21.014
478.36	22.263
478.70	21.755
479.05	21.672
479.40	21.853
479.75	21.556
480.10	21.968
480.45	21.990
480.79	20.449
481.14	21.429
481.49	21.168
481.84	20.942
482.19	21.808
482.53	21.789
482.88	21.591
483.23	21.542
483.58	22.202
483.92	22.212
484.27	20.610
484.62	20.603
484.97	20.536
485.31	20.205
485.66	19.174
486.01	19.602
486.36	19.239
486.70	20.004
487.05	20.365
487.40	20.889
487.75	20.208
488.09	21.171
488.44	20.847
488.79	21.266
489.13	20.741
489.48	20.677
489.83	20.846
490.17	21.350
490.52	20.771
490.87	21.076
491.22	21.282
491.56	20.000
491.91	20.382
492.26	20.073
492.60	20.599
492.95	19.972
493.30	20.374
493.64	20.952
493.99	20.427
494.34	20.444
494.68	20.650
495.03	21.288
495.37	20.195
495.72	20.955
496.07	20.139
496.41	19.558
496.76	20.756
497.11	20.081
497.45	20.727
497.80	20.633
498.14	19.710
498.49	20.146
498.84	20.518
499.18	20.381
499.53	20.560
499.87	20.224
500.22	20.867
500.56	20.777
500.91	20.433
501.26	20.484
501.60	21.500
501.95	20.211
502.29	21.275
502.64	21.136
502.98	21.365
503.33	20.750
503.67	20.325
504.02	20.019
504.36	20.590
504.71	20.811
505.06	21.060
505.40	21.390
505.75	20.395
506.09	20.457
506.44	20.128
506.78	21.091
507.13	21.353
507.47	21.313
507.82	20.719
508.16	21.530
508.51	21.309
508.85	20.556
509.19	20.765
509.54	20.765
509.88	20.453
510.23	21.028
510.57	21.930
510.92	21.491
511.26	21.017
511.61	21.421
511.95	20.042
512.30	20.467
512.64	21.440
512.98	21.329
513.33	22.163
513.67	20.864
514.02	20.671
514.36	21.955
514.70	21.251
515.05	21.249
515.39	21.368
515.74	22.185
516.08	21.576
516.42	21.365
516.77	22.575
517.11	21.032
517.46	21.106
517.80	21.835
518.14	20.672
518.49	22.054
518.83	21.420
519.17	21.594
519.52	21.505
519.86	21.392
520.20	21.850
520.55	22.741
520.89	21.533
521.23	21.653
521.58	22.209
521.92	23.209
522.26	20.866
522.61	22.181
522.95	22.099
523.29	22.033
523.64	22.012
523.98	22.243
524.32	22.014
524.66	21.587
525.01	21.691
525.35	21.252
525.69	21.736
526.04	21.807
526.38	22.331
526.72	22.393
527.06	22.348
527.41	21.473
527.75	22.251
528.09	22.608
528.43	21.925
528.78	22.311
529.12	21.455
529.46	22.352
529.80	23.144
530.15	22.305
530.49	21.354
530.83	22.152
531.17	21.997
531.51	22.892
531.86	21.548
532.20	21.969
532.54	22.614
532.88	22.080
533.22	22.174
533.57	20.988
533.91	22.035
534.25	21.324
534.59	21.965
534.93	22.368
535.27	21.545
535.62	22.405
535.96	21.846
536.30	22.378
536.64	21.958
536.98	22.097
537.32	21.659
537.66	22.067
538.01	21.066
538.35	21.978
538.69	21.698
539.03	20.598
539.37	21.150
539.71	21.257
540.05	22.222
540.39	21.528
540.73	20.634
541.07	22.064
541.42	22.114
541.76	23.097
542.10	22.251
542.44	20.596
542.78	22.793
543.12	21.561
543.46	22.164
543.80	21.731
544.14	21.438
544.48	21.143
544.82	21.167
545.16	22.121
545.50	21.080
545.84	21.438
546.18	21.077
546.52	21.886
546.86	21.718
547.20	21.376
547.54	20.975
547.88	21.747
548.22	21.980
548.56	21.321
548.90	21.639
549.24	20.404
549.58	21.351
549.92	22.184
550.26	21.662
550.60	22.268
550.94	21.408
551.28	20.337
551.62	21.639
551.96	20.702
552.30	21.160
552.64	21.231
552.98	20.814
553.32	21.106
553.66	20.791
554.00	22.512
554.34	21.877
554.68	21.316
555.02	21.439
555.36	20.738
555.69	21.380
556.03	21.131
556.37	20.327
556.71	21.282
557.05	21.639
557.39	21.274
557.73	20.748
558.07	20.667
558.41	22.576
558.75	19.985
559.08	20.507
559.42	20.635
559.76	21.176
560.10	20.700
560.44	20.894
560.78	20.559
561.12	20.515
561.45	20.730
561.79	20.897
562.13	20.993
562.47	21.516
562.81	20.572
563.15	21.003
563.48	21.021
563.82	21.200
564.16	21.583
564.50	19.727
564.84	20.228
565.17	20.785
565.51	20.639
565.85	21.129
566.19	20.038
566.52	20.519
566.86	19.590
567.20	20.283
567.54	19.692
567.88	19.880
568.21	20.265
568.55	19.616
568.89	19.163
569.23	19.652
569.56	19.069
569.90	18.981
570.24	19.555
570.57	18.599
570.91	18.746
571.25	18.437
571.59	18.380
571.92	18.203
572.26	19.006
572.60	19.399
572.93	18.471
573.27	18.781
573.61	18.956
573.95	18.656
574.28	17.814
574.62	18.537
574.96	18.638
575.29	18.404
575.63	18.216
575.97	18.407
576.30	18.561
576.64	18.221
576.98	18.109
577.31	18.299
577.65	18.284
577.98	17.873
578.32	17.693
578.66	17.987
578.99	18.124
579.33	18.083
579.67	17.636
580.00	18.341
580.34	18.225
580.67	18.364
581.01	18.327
581.35	17.816
581.68	17.854
582.02	17.334
582.35	17.939
582.69	18.268
583.02	17.933
583.36	18.677
583.70	18.631
584.03	18.626
584.37	18.762
584.70	18.208
585.04	17.882
585.37	17.754
585.71	17.928
586.04	17.951
586.38	18.574
586.72	18.586
587.05	17.984
587.39	17.995
587.72	18.088
588.06	18.170
588.39	18.244
588.73	17.982
589.06	18.635
589.40	18.721
589.73	18.726
590.07	19.288
590.40	18.159
590.73	18.774
591.07	18.681
591.40	19.275
591.74	18.918
592.07	18.674
592.41	18.479
592.74	18.052
593.08	18.454
593.41	17.969
593.75	18.207
594.08	17.968
594.41	18.628
594.75	18.373
595.08	18.647
595.42	18.424
595.75	17.913
596.09	18.813
596.42	18.664
596.75	19.460
597.09	19.610
597.42	17.580
597.75	18.715
598.09	18.348
598.42	18.643
598.76	17.592
599.09	17.674
599.42	17.868
599.76	17.936
600.09	17.960
600.42	17.531
600.76	17.643
601.09	17.996
601.42	17.884
601.76	18.520
602.09	17.668
602.42	17.755
602.76	18.501
603.09	18.411
603.42	18.235
603.76	18.102
604.09	18.030
604.42	17.978
604.76	18.347
605.09	18.218
605.42	18.341
605.75	18.129
606.09	17.161
606.42	17.940
606.75	17.752
607.09	18.167
607.42	17.843
607.75	16.962
608.08	17.195
608.42	18.422
608.75	18.260
609.08	17.715
609.41	18.087
609.75	18.342
610.08	18.709
610.41	18.296
610.74	18.070
611.07	18.923
611.41	18.351
611.74	18.250
612.07	18.634
612.40	18.783
612.73	18.053
613.07	18.588
613.40	18.325
613.73	17.777
614.06	18.710
614.39	17.777
614.72	18.737
615.06	18.225
615.39	17.357
615.72	17.638
616.05	17.810
616.38	18.566
616.71	19.121
617.05	19.552
617.38	19.363
617.71	18.258
618.04	18.810
618.37	19.160
618.70	18.855
619.03	19.671
619.36	19.077
619.69	18.662
620.03	20.261
620.36	19.051
620.69	19.863
621.02	18.363
621.35	18.403
621.68	18.614
622.01	19.195
622.34	18.608
622.67	18.555
623.00	18.342
623.33	19.228
623.66	19.085
623.99	18.704
624.32	18.902
624.65	17.938
624.99	18.414
625.32	18.320
625.65	18.933
625.98	18.909
626.31	19.129
626.64	19.673
626.97	18.537
627.30	19.202
627.63	20.263
627.96	19.512
628.29	18.373
628.62	20.128
628.95	21.132
629.28	19.161
629.61	20.807
629.94	19.905
630.26	19.638
630.59	19.066
630.92	18.582
631.25	17.078
631.58	20.721
