SpectraSuite Data File
++++++++++++++++++++++++++++++++++++
Date: Wed May 13 20:44:44 PDT 2015
User: schluterlab
Dark Spectrum Present: Yes
Reference Spectrum Present: Yes
Number of Sampled Component Spectra: 1
Spectrometers: USB2E3373
Integration Time (usec): 3000 (USB2E3373)
Spectra Averaged: 3 (USB2E3373)
Boxcar Smoothing: 0 (USB2E3373)
Correct for Electrical Dark: No (USB2E3373)
Strobe/Lamp Enabled: No (USB2E3373)
Correct for Detector Non-linearity: No (USB2E3373)
Correct for Stray Light: No (USB2E3373)
Number of Pixels in Processed Spectrum: 2048
>>>>>Begin Processed Spectral Data<<<<<
178.53	0.000
178.91	-900.000
179.29	-850.000
179.67	-155.556
180.04	-700.000
180.42	950.000
180.80	660.000
181.18	-700.000
181.56	471.429
181.94	0.000
182.31	-457.143
182.69	1233.333
183.07	-250.000
183.45	-366.667
183.83	418.182
184.20	-220.000
184.58	1500.000
184.96	3900.000
185.34	-540.000
185.72	-300.000
186.09	-1200.000
186.47	2150.000
186.85	1450.000
187.23	3500.000
187.61	-933.333
187.98	850.000
188.36	309.091
188.74	327.273
189.12	-540.000
189.49	360.000
189.87	-2800.000
190.25	-650.000
190.63	264.286
191.00	261.538
191.38	583.333
191.76	-475.000
192.14	1000.000
192.51	475.000
192.89	616.667
193.27	337.500
193.65	-725.000
194.02	230.000
194.40	640.000
194.78	380.000
195.15	366.667
195.53	370.000
195.91	-1150.000
196.29	181.250
196.66	205.263
197.04	-160.000
197.42	0.000
197.79	380.000
198.17	-2600.000
198.55	414.286
198.92	325.000
199.30	560.000
199.68	0.000
200.05	194.444
200.43	385.714
200.81	2500.000
201.18	1100.000
201.56	-966.667
201.94	488.889
202.31	377.778
202.69	333.333
203.07	320.000
203.44	0.000
203.82	775.000
204.19	514.286
204.57	314.286
204.95	400.000
205.32	933.333
205.70	281.818
206.08	300.000
206.45	1750.000
206.83	262.500
207.20	650.000
207.58	280.000
207.96	255.556
208.33	562.500
208.71	-433.333
209.08	371.429
209.46	366.667
209.84	272.727
210.21	-833.333
210.59	1000.000
210.96	-225.000
211.34	1450.000
211.71	400.000
212.09	483.333
212.46	0.000
212.84	1066.667
213.22	900.000
213.59	-2300.000
213.97	600.000
214.34	514.286
214.72	390.909
215.09	800.000
215.47	-1200.000
215.84	-1500.000
216.22	766.667
216.59	250.000
216.97	925.000
217.34	281.818
217.72	-350.000
218.09	0.000
218.47	-3300.000
218.84	444.444
219.22	485.714
219.59	900.000
219.97	-457.143
220.34	660.000
220.72	-1100.000
221.09	250.000
221.47	1075.000
221.84	-550.000
222.22	0.000
222.59	850.000
222.97	-1200.000
223.34	740.000
223.72	353.846
224.09	660.000
224.46	950.000
224.84	-2500.000
225.21	-760.000
225.59	-2400.000
225.96	360.000
226.34	215.000
226.71	2150.000
227.08	412.500
227.46	300.000
227.83	-500.000
228.21	-1550.000
228.58	466.667
228.95	-1350.000
229.33	-1300.000
229.70	1233.333
230.08	457.143
230.45	-340.000
230.82	241.667
231.20	416.667
231.57	457.143
231.95	333.333
232.32	131.818
232.69	190.909
233.07	185.714
233.44	176.923
233.81	-1266.667
234.19	178.947
234.56	191.667
234.93	233.333
235.31	227.273
235.68	215.385
236.05	157.143
236.43	112.121
236.80	205.263
237.17	700.000
237.55	119.048
237.92	110.714
238.29	119.048
238.67	80.645
239.04	124.138
239.41	88.889
239.79	71.739
240.16	92.857
240.53	72.727
240.91	58.824
241.28	50.000
241.65	44.000
242.02	40.580
242.40	51.613
242.77	35.000
243.14	52.688
243.51	35.955
243.89	32.941
244.26	26.667
244.63	33.333
245.00	26.596
245.38	28.713
245.75	20.561
246.12	20.183
246.49	25.547
246.87	36.800
247.24	27.692
247.61	22.857
247.98	25.490
248.36	13.514
248.73	19.108
249.10	24.204
249.47	15.819
249.84	22.460
250.22	19.251
250.59	17.160
250.96	13.131
251.33	21.327
251.70	18.812
252.08	19.524
252.45	14.798
252.82	17.826
253.19	15.319
253.56	13.333
253.94	17.012
254.31	13.672
254.68	15.000
255.05	14.022
255.42	14.228
255.79	9.926
256.16	15.884
256.54	9.894
256.91	13.167
257.28	8.993
257.65	8.581
258.02	13.665
258.39	9.779
258.76	8.027
259.14	12.202
259.51	10.942
259.88	4.969
260.25	11.480
260.62	8.092
260.99	9.317
261.36	8.408
261.73	10.029
262.10	8.721
262.47	11.268
262.85	8.635
263.22	4.843
263.59	13.105
263.96	9.615
264.33	8.616
264.70	7.368
265.07	10.230
265.44	9.343
265.81	8.516
266.18	9.799
266.55	6.829
266.92	6.143
267.29	9.491
267.66	8.486
268.03	9.091
268.40	9.813
268.77	7.160
269.14	7.207
269.51	7.223
269.88	6.061
270.25	8.126
270.62	8.090
270.99	7.527
271.36	9.013
271.73	4.907
272.10	7.174
272.47	6.452
272.84	8.009
273.21	9.434
273.58	6.769
273.95	6.499
274.32	7.025
274.69	7.495
275.06	7.283
275.43	7.021
275.80	8.617
276.17	6.517
276.54	8.940
276.91	7.708
277.28	6.055
277.65	8.511
278.02	4.969
278.39	9.180
278.76	8.545
279.13	6.415
279.50	8.939
279.87	6.375
280.23	8.583
280.60	5.416
280.97	5.176
281.34	6.018
281.71	6.909
282.08	7.102
282.45	6.182
282.82	6.217
283.19	3.922
283.56	5.965
283.92	7.445
284.29	3.175
284.66	5.445
285.03	4.340
285.40	5.282
285.77	5.556
286.14	4.836
286.51	6.500
286.87	5.128
287.24	7.980
287.61	6.100
287.98	5.844
288.35	5.547
288.72	5.763
289.08	6.103
289.45	5.601
289.82	6.341
290.19	5.495
290.56	5.666
290.93	4.230
291.29	5.215
291.66	5.162
292.03	5.959
292.40	6.021
292.77	5.030
293.13	5.821
293.50	5.685
293.87	5.185
294.24	6.074
294.60	4.221
294.97	4.360
295.34	6.065
295.71	5.682
296.08	3.989
296.44	4.814
296.81	5.152
297.18	5.149
297.55	3.166
297.91	3.562
298.28	3.882
298.65	4.830
299.02	5.007
299.38	3.984
299.75	2.830
300.12	4.087
300.48	3.375
300.85	5.179
301.22	3.822
301.59	4.040
301.95	4.156
302.32	4.108
302.69	4.898
303.05	4.242
303.42	3.704
303.79	4.417
304.15	3.380
304.52	2.781
304.89	3.368
305.25	3.480
305.62	4.304
305.99	4.604
306.35	4.586
306.72	4.596
307.09	5.327
307.45	4.955
307.82	2.009
308.19	4.305
308.55	4.315
308.92	3.222
309.29	3.485
309.65	2.651
310.02	4.863
310.38	3.871
310.75	3.696
311.12	4.811
311.48	4.180
311.85	3.983
312.22	4.370
312.58	2.599
312.95	3.379
313.31	3.786
313.68	2.703
314.05	5.128
314.41	3.819
314.78	2.518
315.14	2.880
315.51	4.325
315.87	4.158
316.24	4.171
316.61	3.021
316.97	3.229
317.34	2.446
317.70	3.728
318.07	3.657
318.43	3.327
318.80	4.499
319.16	4.614
319.53	3.096
319.89	4.190
320.26	4.100
320.62	3.869
320.99	3.535
321.35	2.828
321.72	4.004
322.08	3.653
322.45	4.776
322.81	3.198
323.18	4.335
323.54	3.896
323.91	5.283
324.27	4.207
324.64	3.075
325.00	3.427
325.37	3.822
325.73	4.399
326.10	3.972
326.46	3.315
326.83	4.487
327.19	4.868
327.56	3.223
327.92	4.287
328.29	4.614
328.65	4.328
329.01	3.430
329.38	3.145
329.74	4.340
330.11	3.676
330.47	3.581
330.84	4.688
331.20	3.188
331.56	3.945
331.93	2.963
332.29	4.082
332.66	4.071
333.02	4.936
333.38	4.065
333.75	4.545
334.11	4.537
334.48	3.993
334.84	2.941
335.20	4.091
335.57	2.901
335.93	3.750
336.29	3.938
336.66	3.607
337.02	3.439
337.38	3.333
337.75	4.011
338.11	3.850
338.47	2.578
338.84	3.575
339.20	2.477
339.56	3.832
339.93	3.818
340.29	2.717
340.65	3.387
341.02	3.839
341.38	3.470
341.74	3.860
342.11	4.105
342.47	4.053
342.83	3.082
343.20	4.329
343.56	3.960
343.92	3.421
344.28	3.997
344.65	3.697
345.01	3.283
345.37	2.316
345.73	3.892
346.10	3.922
346.46	4.237
346.82	3.871
347.19	3.258
347.55	3.941
347.91	4.450
348.27	3.615
348.63	4.348
349.00	3.803
349.36	3.530
349.72	4.090
350.08	3.647
350.45	4.475
350.81	4.305
351.17	4.376
351.53	4.013
351.89	3.548
352.26	4.657
352.62	3.929
352.98	4.214
353.34	3.862
353.70	3.682
354.07	4.516
354.43	4.048
354.79	3.218
355.15	3.990
355.51	3.997
355.87	4.245
356.24	3.990
356.60	3.929
356.96	2.896
357.32	4.088
357.68	4.016
358.04	4.592
358.40	4.434
358.77	3.834
359.13	3.236
359.49	3.686
359.85	3.016
360.21	3.349
360.57	3.658
360.93	3.385
361.29	3.855
361.66	3.251
362.02	4.552
362.38	3.042
362.74	3.199
363.10	3.775
363.46	2.861
363.82	3.628
364.18	3.818
364.54	4.383
364.90	4.178
365.26	3.235
365.62	3.798
365.98	3.433
366.35	3.582
366.71	4.194
367.07	3.423
367.43	2.975
367.79	3.997
368.15	4.670
368.51	3.634
368.87	4.069
369.23	2.999
369.59	4.055
369.95	2.500
370.31	3.775
370.67	3.478
371.03	3.745
371.39	3.134
371.75	3.603
372.11	3.272
372.47	4.032
372.83	4.035
373.19	3.468
373.55	2.956
373.91	4.271
374.27	3.436
374.63	2.400
374.99	3.743
375.35	3.001
375.71	3.358
376.07	3.224
376.42	3.370
376.78	3.976
377.14	2.646
377.50	3.775
377.86	2.793
378.22	3.540
378.58	2.820
378.94	2.326
379.30	2.990
379.66	3.173
380.02	3.317
380.38	3.643
380.74	3.601
381.09	2.995
381.45	3.073
381.81	3.071
382.17	3.185
382.53	2.642
382.89	3.519
383.25	2.502
383.61	3.532
383.97	3.877
384.32	3.743
384.68	2.540
385.04	2.520
385.40	2.229
385.76	3.133
386.12	2.785
386.48	3.524
386.83	2.822
387.19	3.401
387.55	2.968
387.91	3.144
388.27	3.127
388.62	3.073
388.98	2.641
389.34	3.630
389.70	2.575
390.06	3.295
390.42	2.724
390.77	3.690
391.13	3.510
391.49	3.363
391.85	2.228
392.20	2.334
392.56	2.778
392.92	2.825
393.28	2.189
393.64	2.998
393.99	3.726
394.35	3.040
394.71	3.074
395.07	2.741
395.42	2.905
395.78	3.181
396.14	3.414
396.50	4.010
396.85	3.242
397.21	3.021
397.57	2.356
397.92	3.005
398.28	1.850
398.64	3.106
399.00	3.078
399.35	2.933
399.71	3.009
400.07	3.016
400.42	3.558
400.78	3.257
401.14	2.561
401.49	3.522
401.85	2.722
402.21	2.635
402.57	2.653
402.92	3.279
403.28	3.435
403.63	2.537
403.99	2.611
404.35	2.788
404.70	2.758
405.06	2.621
405.42	2.558
405.77	2.971
406.13	2.935
406.49	2.898
406.84	3.544
407.20	2.305
407.55	3.191
407.91	2.933
408.27	2.489
408.62	2.529
408.98	2.696
409.34	2.768
409.69	2.839
410.05	2.292
410.40	2.936
410.76	2.927
411.11	3.317
411.47	2.684
411.83	3.115
412.18	2.474
412.54	2.802
412.89	3.133
413.25	2.361
413.60	3.088
413.96	2.975
414.31	2.855
414.67	2.725
415.03	2.649
415.38	3.222
415.74	2.444
416.09	2.809
416.45	2.744
416.80	2.512
417.16	3.552
417.51	3.583
417.87	2.569
418.22	2.902
418.58	3.486
418.93	2.948
419.29	3.374
419.64	3.463
420.00	3.171
420.35	3.478
420.71	3.108
421.06	2.745
421.42	2.339
421.77	3.027
422.12	2.302
422.48	2.159
422.83	3.145
423.19	2.928
423.54	2.612
423.90	3.188
424.25	2.792
424.61	2.857
424.96	2.624
425.31	2.990
425.67	2.809
426.02	2.800
426.38	2.930
426.73	2.282
427.09	2.857
427.44	2.875
427.79	2.703
428.15	3.452
428.50	2.692
428.85	3.099
429.21	2.540
429.56	2.748
429.92	2.516
430.27	2.234
430.62	1.843
430.98	2.906
431.33	2.938
431.68	2.775
432.04	3.142
432.39	2.399
432.74	2.513
433.10	2.377
433.45	3.382
433.80	2.439
434.16	2.350
434.51	2.684
434.86	3.022
435.22	2.613
435.57	2.979
435.92	2.750
436.28	3.025
436.63	3.366
436.98	3.434
437.34	3.220
437.69	3.326
438.04	2.811
438.39	2.627
438.75	2.731
439.10	2.682
439.45	3.424
439.81	2.115
440.16	3.331
440.51	2.929
440.86	2.664
441.22	2.558
441.57	3.238
441.92	3.327
442.27	3.122
442.63	2.317
442.98	3.099
443.33	3.152
443.68	2.736
444.03	2.831
444.39	2.386
444.74	2.976
445.09	2.965
445.44	3.554
445.79	3.315
446.15	3.229
446.50	2.746
446.85	2.826
447.20	2.448
447.55	2.568
447.91	2.648
448.26	2.949
448.61	2.431
448.96	3.322
449.31	2.925
449.66	3.433
450.02	2.061
450.37	2.664
450.72	2.482
451.07	2.133
451.42	2.310
451.77	3.112
452.12	3.406
452.47	2.736
452.83	2.739
453.18	3.545
453.53	2.536
453.88	2.363
454.23	2.570
454.58	3.574
454.93	3.497
455.28	2.743
455.63	2.670
455.98	3.631
456.34	2.324
456.69	3.381
457.04	3.158
457.39	2.864
457.74	2.728
458.09	2.990
458.44	2.737
458.79	2.386
459.14	2.765
459.49	3.094
459.84	2.936
460.19	2.887
460.54	2.951
460.89	2.523
461.24	3.097
461.59	3.835
461.94	2.281
462.29	3.561
462.64	2.616
462.99	2.472
463.34	3.533
463.69	2.689
464.04	2.841
464.39	3.362
464.74	3.387
465.09	2.955
465.44	2.382
465.79	2.237
466.14	2.956
466.49	2.892
466.84	3.386
467.19	2.716
467.54	4.125
467.89	2.641
468.24	2.560
468.59	3.358
468.94	3.115
469.29	3.470
469.64	3.548
469.99	2.436
470.34	2.774
470.68	3.664
471.03	2.381
471.38	2.571
471.73	3.864
472.08	3.224
472.43	3.769
472.78	2.962
473.13	3.787
473.48	3.558
473.83	2.439
474.17	3.049
474.52	3.226
474.87	2.802
475.22	2.728
475.57	2.955
475.92	3.027
476.27	3.157
476.61	2.923
476.96	2.749
477.31	2.983
477.66	2.243
478.01	2.614
478.36	3.384
478.70	2.596
479.05	2.503
479.40	2.456
479.75	2.898
480.10	2.237
480.45	2.523
480.79	2.723
481.14	2.838
481.49	2.610
481.84	2.926
482.19	2.453
482.53	2.661
482.88	2.978
483.23	2.664
483.58	2.866
483.92	2.156
484.27	2.135
484.62	2.328
484.97	2.404
485.31	2.295
485.66	1.672
486.01	1.640
486.36	1.595
486.70	1.391
487.05	1.601
487.40	1.915
487.75	1.944
488.09	2.093
488.44	2.101
488.79	1.917
489.13	1.833
489.48	1.876
489.83	1.899
490.17	2.674
490.52	2.259
490.87	2.668
491.22	2.410
491.56	2.050
491.91	2.187
492.26	2.802
492.60	2.719
492.95	2.011
493.30	2.850
493.64	2.520
493.99	2.600
494.34	2.729
494.68	2.885
495.03	2.820
495.37	2.420
495.72	2.096
496.07	2.784
496.41	2.478
496.76	2.331
497.11	2.837
497.45	2.888
497.80	2.687
498.14	2.174
498.49	2.537
498.84	2.972
499.18	2.476
499.53	2.137
499.87	2.610
500.22	2.544
500.56	2.961
500.91	2.212
501.26	3.035
501.60	2.753
501.95	2.383
502.29	2.577
502.64	2.607
502.98	2.197
503.33	2.605
503.67	2.645
504.02	2.572
504.36	2.901
504.71	2.394
505.06	2.506
505.40	2.236
505.75	2.652
506.09	2.527
506.44	2.319
506.78	2.971
507.13	2.120
507.47	3.283
507.82	3.040
508.16	2.584
508.51	2.790
508.85	2.135
509.19	2.551
509.54	3.367
509.88	2.731
510.23	2.468
510.57	3.199
510.92	3.004
511.26	2.672
511.61	3.216
511.95	2.610
512.30	2.439
512.64	2.955
512.98	2.572
513.33	3.051
513.67	2.561
514.02	2.652
514.36	2.785
514.70	3.099
515.05	2.398
515.39	2.412
515.74	2.534
516.08	3.186
516.42	3.219
516.77	3.344
517.11	2.941
517.46	2.765
517.80	2.265
518.14	2.258
518.49	3.209
518.83	3.182
519.17	3.060
519.52	3.282
519.86	3.023
520.20	3.699
520.55	3.651
520.89	3.528
521.23	3.559
521.58	3.301
521.92	3.674
522.26	2.685
522.61	3.115
522.95	2.087
523.29	3.591
523.64	3.598
523.98	3.081
524.32	2.835
524.66	2.946
525.01	3.431
525.35	2.850
525.69	2.833
526.04	2.679
526.38	3.234
526.72	3.067
527.06	3.013
527.41	2.351
527.75	2.765
528.09	3.340
528.43	3.123
528.78	3.688
529.12	3.030
529.46	3.246
529.80	3.403
530.15	4.548
530.49	3.262
530.83	3.228
531.17	3.916
531.51	4.086
531.86	3.032
532.20	4.042
532.54	3.523
532.88	3.530
533.22	3.123
533.57	3.272
533.91	3.070
534.25	3.038
534.59	3.173
534.93	3.569
535.27	3.078
535.62	2.808
535.96	2.762
536.30	2.797
536.64	3.799
536.98	3.782
537.32	3.357
537.66	3.333
538.01	3.818
538.35	3.232
538.69	3.893
539.03	2.859
539.37	2.684
539.71	2.463
540.05	3.137
540.39	3.322
540.73	3.558
541.07	3.764
541.42	3.653
541.76	4.387
542.10	3.687
542.44	2.848
542.78	4.282
543.12	2.815
543.46	3.672
543.80	3.253
544.14	3.081
544.48	3.873
544.82	3.015
545.16	3.318
545.50	3.535
545.84	3.495
546.18	3.434
546.52	3.097
546.86	3.093
547.20	3.641
547.54	4.275
547.88	3.890
548.22	3.300
548.56	4.277
548.90	3.201
549.24	2.896
549.58	3.547
549.92	3.434
550.26	3.480
550.60	3.596
550.94	4.225
551.28	2.560
551.62	4.098
551.96	3.088
552.30	3.959
552.64	3.313
552.98	3.322
553.32	4.316
553.66	4.499
554.00	3.500
554.34	3.382
554.68	4.149
555.02	3.526
555.36	3.479
555.69	3.518
556.03	3.096
556.37	2.797
556.71	2.933
557.05	3.501
557.39	3.289
557.73	3.387
558.07	3.336
558.41	3.546
558.75	3.159
559.08	4.027
559.42	3.250
559.76	3.382
560.10	3.569
560.44	3.564
560.78	2.794
561.12	3.496
561.45	4.498
561.79	3.230
562.13	3.421
562.47	3.279
562.81	2.999
563.15	3.411
563.48	3.714
563.82	3.066
564.16	3.009
564.50	2.539
564.84	3.540
565.17	2.252
565.51	3.131
565.85	3.490
566.19	3.131
566.52	2.660
566.86	2.773
567.20	3.007
567.54	3.368
567.88	2.770
568.21	3.228
568.55	2.932
568.89	2.626
569.23	2.362
569.56	2.551
569.90	2.642
570.24	2.619
570.57	2.584
570.91	2.359
571.25	2.100
571.59	2.533
571.92	2.045
572.26	2.282
572.60	2.192
572.93	2.309
573.27	2.484
573.61	2.568
573.95	2.274
574.28	2.186
574.62	1.992
574.96	2.055
575.29	1.722
575.63	2.210
575.97	2.187
576.30	2.496
576.64	1.769
576.98	1.920
577.31	2.103
577.65	1.954
577.98	1.830
578.32	1.926
578.66	2.055
578.99	2.077
579.33	1.743
579.67	1.776
580.00	1.822
580.34	1.946
580.67	2.222
581.01	2.136
581.35	1.739
581.68	1.804
582.02	1.802
582.35	1.627
582.69	1.933
583.02	2.009
583.36	1.868
583.70	2.073
584.03	2.116
584.37	2.266
584.70	1.959
585.04	2.006
585.37	2.260
585.71	2.326
586.04	2.126
586.38	2.194
586.72	2.789
587.05	2.228
587.39	2.005
587.72	2.551
588.06	2.455
588.39	2.167
588.73	2.229
589.06	2.618
589.40	2.256
589.73	2.499
590.07	2.989
590.40	2.265
590.73	2.225
591.07	2.768
591.40	2.910
591.74	3.117
592.07	2.880
592.41	2.935
592.74	3.146
593.08	2.465
593.41	2.499
593.75	2.530
594.08	2.179
594.41	2.580
594.75	2.403
595.08	2.935
595.42	2.452
595.75	2.457
596.09	2.554
596.42	3.261
596.75	2.870
597.09	3.333
597.42	2.572
597.75	2.501
598.09	2.783
598.42	2.405
598.76	2.310
599.09	2.166
599.42	2.766
599.76	2.892
600.09	2.259
600.42	2.593
600.76	2.357
601.09	2.477
601.42	2.778
601.76	2.770
602.09	2.134
602.42	2.906
602.76	3.345
603.09	2.518
603.42	2.811
603.76	2.439
604.09	2.365
604.42	3.017
604.76	3.458
605.09	2.315
605.42	2.480
605.75	3.063
606.09	1.749
606.42	2.207
606.75	2.737
607.09	3.181
607.42	2.567
607.75	2.489
608.08	2.388
608.42	2.779
608.75	2.390
609.08	2.821
609.41	3.332
609.75	3.049
610.08	3.063
610.41	2.235
610.74	2.412
611.07	2.273
611.41	2.699
611.74	2.765
612.07	3.157
612.40	3.043
612.73	2.684
613.07	3.502
613.40	2.844
613.73	2.779
614.06	3.172
614.39	3.199
614.72	2.737
615.06	3.414
615.39	2.601
615.72	2.914
616.05	2.552
616.38	2.779
616.71	3.622
617.05	3.592
617.38	2.766
617.71	3.423
618.04	3.125
618.37	3.666
618.70	3.485
619.03	4.276
619.36	3.734
619.69	3.099
620.03	3.984
620.36	4.211
620.69	4.521
621.02	3.835
621.35	2.819
621.68	3.427
622.01	3.715
622.34	3.933
622.67	4.335
623.00	3.302
623.33	3.717
623.66	4.003
623.99	3.019
624.32	4.066
624.65	3.814
624.99	2.904
625.32	3.114
625.65	2.855
625.98	3.920
626.31	4.355
626.64	5.061
626.97	3.658
627.30	3.325
627.63	4.594
627.96	4.878
628.29	3.937
628.62	4.117
628.95	4.717
629.28	4.653
629.61	4.675
629.94	4.095
630.26	3.718
630.59	3.622
630.92	4.310
631.25	4.047
631.58	3.904
631.91	4.260
632.24	3.059
632.57	5.771
632.90	5.482
633.23	4.251
633.56	4.068
633.89	5.323
634.22	4.540
634.55	6.982
634.88	4.671
635.20	5.376
635.53	5.542
635.86	4.827
636.19	5.882
636.52	4.614
636.85	5.727
637.18	4.608
637.51	5.674
637.83	3.576
638.16	4.731
638.49	5.290
638.82	6.827
639.15	6.750
639.48	6.608
639.81	5.630
640.13	5.859
640.46	5.638
640.79	6.077
641.12	5.640
641.45	5.028
641.77	6.333
642.10	5.409
642.43	4.655
642.76	4.489
643.09	5.061
643.41	4.704
643.74	7.716
644.07	5.335
644.40	7.362
644.73	6.457
645.05	8.241
645.38	7.899
645.71	6.602
646.04	7.143
646.36	5.843
646.69	6.689
647.02	7.143
647.35	6.014
647.67	6.726
648.00	8.130
648.33	6.601
648.66	5.606
648.98	7.196
649.31	4.634
649.64	5.381
649.96	5.812
650.29	3.791
650.62	5.340
650.94	6.969
651.27	7.601
651.60	6.656
651.92	7.987
652.25	6.189
652.58	6.231
652.90	6.319
653.23	4.468
653.56	6.142
653.88	6.181
654.21	7.425
654.54	7.261
654.86	7.009
655.19	5.405
655.52	2.690
655.84	1.483
656.17	1.766
656.49	2.147
