SpectraSuite Data File
++++++++++++++++++++++++++++++++++++
Date: Wed May 13 20:59:13 PDT 2015
User: schluterlab
Dark Spectrum Present: Yes
Reference Spectrum Present: Yes
Number of Sampled Component Spectra: 1
Spectrometers: USB2E3373
Integration Time (usec): 3000 (USB2E3373)
Spectra Averaged: 3 (USB2E3373)
Boxcar Smoothing: 0 (USB2E3373)
Correct for Electrical Dark: No (USB2E3373)
Strobe/Lamp Enabled: No (USB2E3373)
Correct for Detector Non-linearity: No (USB2E3373)
Correct for Stray Light: No (USB2E3373)
Number of Pixels in Processed Spectrum: 2048
>>>>>Begin Processed Spectral Data<<<<<
178.53	0.000
178.91	-400.000
179.29	125.000
179.67	0.000
180.04	266.667
180.42	-80.000
180.80	-900.000
181.18	83.333
181.56	-300.000
181.94	-25.000
182.31	81.818
182.69	53.846
183.07	-80.000
183.45	100.000
183.83	88.889
184.20	-14.286
184.58	400.000
184.96	300.000
185.34	114.286
185.72	0.000
186.09	300.000
186.47	40.000
186.85	-60.000
187.23	300.000
187.61	-50.000
187.98	-200.000
188.36	50.000
188.74	0.000
189.12	0.000
189.49	70.000
189.87	50.000
190.25	80.000
190.63	-0.000
191.00	40.000
191.38	-80.000
191.76	75.000
192.14	83.333
192.51	110.526
192.89	33.333
193.27	100.000
193.65	80.000
194.02	154.545
194.40	40.000
194.78	400.000
195.15	220.000
195.53	0.000
195.91	137.500
196.29	33.333
196.66	0.000
197.04	200.000
197.42	-40.000
197.79	30.000
198.17	-87.500
198.55	-33.333
198.92	-100.000
199.30	-66.667
199.68	80.000
200.05	150.000
200.43	-66.667
200.81	300.000
201.18	60.000
201.56	300.000
201.94	225.000
202.31	26.087
202.69	14.286
203.07	-166.667
203.44	-80.000
203.82	-266.667
204.19	20.000
204.57	0.000
204.95	0.000
205.32	0.000
205.70	-200.000
206.08	50.000
206.45	100.000
206.83	-25.000
207.20	66.667
207.58	10.000
207.96	-400.000
208.33	71.429
208.71	-300.000
209.08	12.500
209.46	100.000
209.84	0.000
210.21	-40.000
210.59	500.000
210.96	200.000
211.34	-0.000
211.71	-300.000
212.09	16.667
212.46	-30.000
212.84	0.000
213.22	500.000
213.59	-100.000
213.97	-100.000
214.34	0.000
214.72	7.692
215.09	175.000
215.47	44.444
215.84	400.000
216.22	37.500
216.59	250.000
216.97	-233.333
217.34	111.111
217.72	0.000
218.09	-166.667
218.47	-100.000
218.84	42.857
219.22	137.500
219.59	-166.667
219.97	0.000
220.34	37.500
220.72	80.000
221.09	0.000
221.47	116.667
221.84	0.000
222.22	0.000
222.59	100.000
222.97	400.000
223.34	-91.667
223.72	-300.000
224.09	50.000
224.46	72.727
224.84	125.000
225.21	42.857
225.59	-125.000
225.96	116.667
226.34	10.000
226.71	-157.143
227.08	-150.000
227.46	75.000
227.83	1300.000
228.21	18.750
228.58	75.000
228.95	23.529
229.33	68.750
229.70	50.000
230.08	76.923
230.45	-12.500
230.82	66.667
231.20	157.143
231.57	-500.000
231.95	300.000
232.32	16.667
232.69	5.882
233.07	0.000
233.44	26.087
233.81	250.000
234.19	54.167
234.56	20.000
234.93	46.667
235.31	47.368
235.68	30.769
236.05	53.846
236.43	72.222
236.80	21.212
237.17	-40.000
237.55	-11.765
237.92	3.448
238.29	-22.222
238.67	11.111
239.04	25.806
239.41	12.766
239.79	12.766
240.16	-2.326
240.53	21.429
240.91	19.643
241.28	32.143
241.65	25.806
242.02	2.632
242.40	28.986
242.77	20.290
243.14	14.103
243.51	28.723
243.89	12.500
244.26	24.528
244.63	10.577
245.00	25.000
245.38	7.563
245.75	17.213
246.12	20.301
246.49	4.065
246.87	2.521
247.24	15.541
247.61	15.894
247.98	14.744
248.36	11.834
248.73	14.045
249.10	11.616
249.47	14.516
249.84	18.947
250.22	17.910
250.59	21.028
250.96	16.818
251.33	9.569
251.70	14.226
252.08	19.665
252.45	13.992
252.82	22.053
253.19	12.062
253.56	14.029
253.94	13.523
254.31	14.789
254.68	16.107
255.05	18.482
255.42	14.685
255.79	14.110
256.16	14.511
256.54	13.016
256.91	12.658
257.28	17.610
257.65	14.331
258.02	16.129
258.39	16.959
258.76	15.116
259.14	15.341
259.51	15.169
259.88	14.363
260.25	13.889
260.62	17.135
260.99	19.363
261.36	16.321
261.73	13.580
262.10	15.013
262.47	12.099
262.85	14.925
263.22	17.179
263.59	16.104
263.96	15.328
264.33	17.548
264.70	14.884
265.07	15.741
265.44	17.471
265.81	14.874
266.18	17.084
266.55	12.882
266.92	16.102
267.29	14.815
267.66	16.773
268.03	17.901
268.40	14.619
268.77	14.463
269.14	16.122
269.51	19.713
269.88	14.868
270.25	15.254
270.62	13.730
270.99	17.126
271.36	14.484
271.73	16.867
272.10	15.619
272.47	16.123
272.84	16.929
273.21	14.677
273.58	14.959
273.95	13.019
274.32	15.672
274.69	16.211
275.06	15.194
275.43	16.008
275.80	16.135
276.17	15.654
276.54	14.032
276.91	15.679
277.28	14.982
277.65	16.259
278.02	15.714
278.39	14.387
278.76	15.385
279.13	14.923
279.50	14.138
279.87	13.949
280.23	14.054
280.60	15.052
280.97	16.071
281.34	16.404
281.71	13.659
282.08	16.410
282.45	15.738
282.82	13.578
283.19	16.311
283.56	14.844
283.92	13.456
284.29	14.509
284.66	16.474
285.03	13.518
285.40	14.502
285.77	15.465
286.14	14.438
286.51	17.841
286.87	12.923
287.24	14.307
287.61	14.307
287.98	14.853
288.35	12.966
288.72	14.491
289.08	14.387
289.45	13.363
289.82	13.616
290.19	15.007
290.56	13.068
290.93	13.260
291.29	13.953
291.66	13.525
292.03	15.123
292.40	12.382
292.77	12.584
293.13	14.226
293.50	14.379
293.87	13.600
294.24	14.286
294.60	13.004
294.97	14.683
295.34	11.873
295.71	13.009
296.08	12.958
296.44	13.265
296.81	11.571
297.18	12.750
297.55	11.675
297.91	12.671
298.28	12.349
298.65	11.823
299.02	14.042
299.38	13.497
299.75	11.298
300.12	11.395
300.48	12.632
300.85	13.626
301.22	14.286
301.59	11.972
301.95	11.847
302.32	10.852
302.69	11.186
303.05	12.071
303.42	12.386
303.79	12.723
304.15	12.924
304.52	13.871
304.89	12.846
305.25	11.526
305.62	11.388
305.99	13.493
306.35	13.793
306.72	13.327
307.09	12.304
307.45	12.886
307.82	13.474
308.19	12.539
308.55	12.590
308.92	13.556
309.29	13.413
309.65	12.987
310.02	13.917
310.38	13.110
310.75	13.708
311.12	13.897
311.48	13.749
311.85	13.681
312.22	14.507
312.58	14.010
312.95	16.020
313.31	15.427
313.68	16.794
314.05	15.784
314.41	16.907
314.78	18.880
315.14	16.389
315.51	16.841
315.87	18.072
316.24	18.641
316.61	20.091
316.97	18.241
317.34	18.717
317.70	20.696
318.07	20.497
318.43	21.229
318.80	20.070
319.16	18.833
319.53	20.341
319.89	21.048
320.26	20.980
320.62	22.335
320.99	22.868
321.35	23.948
321.72	23.484
322.08	23.432
322.45	24.699
322.81	25.046
323.18	24.776
323.54	25.542
323.91	26.920
324.27	27.813
324.64	26.655
325.00	26.509
325.37	28.498
325.73	27.694
326.10	29.352
326.46	30.351
326.83	31.553
327.19	30.081
327.56	31.910
327.92	32.341
328.29	32.805
328.65	34.356
329.01	33.509
329.38	35.391
329.74	33.476
330.11	34.896
330.47	34.809
330.84	34.838
331.20	36.550
331.56	35.960
331.93	35.228
332.29	37.706
332.66	36.949
333.02	36.924
333.38	37.719
333.75	36.348
334.11	36.632
334.48	37.751
334.84	37.986
335.20	37.993
335.57	37.163
335.93	37.887
336.29	37.128
336.66	38.376
337.02	38.870
337.38	37.772
337.75	37.554
338.11	37.746
338.47	37.500
338.84	39.003
339.20	38.977
339.56	38.737
339.93	40.363
340.29	37.489
340.65	40.462
341.02	38.935
341.38	39.865
341.74	38.571
342.11	39.306
342.47	38.494
342.83	37.582
343.20	40.355
343.56	38.594
343.92	39.074
344.28	39.042
344.65	39.020
345.01	39.709
345.37	40.625
345.73	40.605
346.10	39.005
346.46	39.106
346.82	40.128
347.19	40.032
347.55	39.661
347.91	38.348
348.27	39.353
348.63	39.824
349.00	38.994
349.36	38.854
349.72	39.598
350.08	40.016
350.45	39.076
350.81	39.515
351.17	41.186
351.53	40.141
351.89	38.840
352.26	39.228
352.62	39.380
352.98	39.537
353.34	40.660
353.70	40.109
354.07	41.020
354.43	40.747
354.79	40.625
355.15	41.149
355.51	39.560
355.87	39.953
356.24	40.931
356.60	41.048
356.96	39.371
357.32	41.409
357.68	41.176
358.04	41.350
358.40	41.318
358.77	40.061
359.13	42.179
359.49	41.105
359.85	41.926
360.21	41.712
360.57	41.521
360.93	41.502
361.29	41.895
361.66	41.458
362.02	41.216
362.38	41.211
362.74	40.102
363.10	40.926
363.46	40.850
363.82	42.055
364.18	41.479
364.54	42.159
364.90	41.882
365.26	40.906
365.62	41.406
365.98	42.776
366.35	42.837
366.71	42.225
367.07	41.743
367.43	42.091
367.79	41.070
368.15	42.827
368.51	42.475
368.87	42.010
369.23	41.566
369.59	42.777
369.95	42.453
370.31	42.399
370.67	43.012
371.03	44.172
371.39	43.364
371.75	42.000
372.11	44.088
372.47	43.475
372.83	42.718
373.19	42.662
373.55	43.425
373.91	43.140
374.27	41.701
374.63	43.741
374.99	41.992
375.35	43.562
375.71	41.644
376.07	44.208
376.42	43.249
376.78	43.395
377.14	44.136
377.50	43.677
377.86	43.625
378.22	44.753
378.58	43.758
378.94	44.688
379.30	43.036
379.66	43.527
380.02	44.118
380.38	43.072
380.74	43.276
381.09	44.029
381.45	43.289
381.81	44.054
382.17	43.541
382.53	44.185
382.89	44.089
383.25	45.123
383.61	43.705
383.97	44.250
384.32	43.730
384.68	44.417
385.04	44.349
385.40	44.894
385.76	44.100
386.12	44.416
386.48	44.639
386.83	44.368
387.19	44.664
387.55	43.777
387.91	45.264
388.27	44.020
388.62	44.569
388.98	44.431
389.34	44.361
389.70	43.712
390.06	44.563
390.42	45.619
390.77	45.035
391.13	44.318
391.49	43.454
391.85	44.217
392.20	44.236
392.56	44.571
392.92	44.353
393.28	44.800
393.64	43.914
393.99	43.513
394.35	45.000
394.71	45.321
395.07	44.088
395.42	44.729
395.78	44.080
396.14	45.086
396.50	45.529
396.85	44.678
397.21	43.883
397.57	45.031
397.92	43.952
398.28	43.655
398.64	44.566
399.00	44.141
399.35	45.006
399.71	43.739
400.07	44.699
400.42	44.765
400.78	44.230
401.14	44.635
401.49	44.158
401.85	44.717
402.21	45.820
402.57	44.880
402.92	45.870
403.28	44.966
403.63	44.141
403.99	44.146
404.35	44.514
404.70	44.109
405.06	43.922
405.42	44.158
405.77	43.894
406.13	44.857
406.49	43.919
406.84	45.482
407.20	43.754
407.55	45.390
407.91	43.481
408.27	42.670
408.62	45.058
408.98	44.328
409.34	44.369
409.69	45.029
410.05	44.527
410.40	43.214
410.76	44.585
411.11	44.590
411.47	46.118
411.83	43.356
412.18	43.892
412.54	45.802
412.89	45.893
413.25	43.776
413.60	44.389
413.96	43.883
414.31	44.821
414.67	44.127
415.03	44.993
415.38	44.518
415.74	43.795
416.09	44.812
416.45	45.181
416.80	45.034
417.16	45.277
417.51	44.474
417.87	45.304
418.22	44.861
418.58	44.284
418.93	45.386
419.29	44.620
419.64	45.038
420.00	45.016
420.35	45.368
420.71	44.485
421.06	45.879
421.42	45.985
421.77	45.607
422.12	44.355
422.48	44.329
422.83	46.190
423.19	45.026
423.54	44.935
423.90	45.249
424.25	44.887
424.61	44.362
424.96	44.648
425.31	44.363
425.67	45.797
426.02	45.936
426.38	45.896
426.73	46.243
427.09	45.278
427.44	45.508
427.79	45.012
428.15	44.648
428.50	44.713
428.85	46.556
429.21	45.076
429.56	46.759
429.92	45.757
430.27	45.348
430.62	45.645
430.98	44.421
431.33	45.030
431.68	45.580
432.04	46.085
432.39	44.688
432.74	46.045
433.10	47.124
433.45	45.503
433.80	46.724
434.16	44.948
434.51	45.272
434.86	47.173
435.22	46.010
435.57	45.025
435.92	46.140
436.28	45.586
436.63	45.785
436.98	46.416
437.34	47.619
437.69	46.222
438.04	45.897
438.39	46.264
438.75	46.603
439.10	48.062
439.45	46.429
439.81	47.660
440.16	46.493
440.51	46.136
440.86	46.769
441.22	46.758
441.57	46.475
441.92	47.019
442.27	45.942
442.63	46.071
442.98	45.833
443.33	47.743
443.68	46.600
444.03	46.945
444.39	46.455
444.74	47.598
445.09	46.200
445.44	47.268
445.79	46.154
446.15	46.700
446.50	46.035
446.85	47.408
447.20	47.360
447.55	46.782
447.91	47.022
448.26	46.198
448.61	47.123
448.96	47.665
449.31	47.687
449.66	47.484
450.02	47.982
450.37	47.180
450.72	47.245
451.07	47.962
451.42	47.411
451.77	47.413
452.12	47.059
452.47	48.225
452.83	46.639
453.18	48.822
453.53	46.974
453.88	48.675
454.23	48.022
454.58	48.223
454.93	47.659
455.28	48.876
455.63	46.974
455.98	48.387
456.34	47.997
456.69	48.371
457.04	47.740
457.39	47.805
457.74	47.157
458.09	47.986
458.44	47.650
458.79	47.446
459.14	47.360
459.49	48.415
459.84	46.223
460.19	46.158
460.54	48.418
460.89	47.466
461.24	46.239
461.59	48.128
461.94	48.925
462.29	47.794
462.64	48.417
462.99	47.887
463.34	48.066
463.69	47.745
464.04	47.959
464.39	46.797
464.74	47.604
465.09	46.931
465.44	46.633
465.79	47.786
466.14	46.522
466.49	48.094
466.84	47.519
467.19	47.070
467.54	48.607
467.89	48.083
468.24	47.511
468.59	47.546
468.94	48.978
469.29	49.570
469.64	48.187
469.99	49.586
470.34	48.887
470.68	48.773
471.03	48.378
471.38	47.010
471.73	47.805
472.08	49.485
472.43	49.011
472.78	48.208
473.13	47.559
473.48	48.532
473.83	47.646
474.17	47.786
474.52	48.285
474.87	48.191
475.22	48.430
475.57	46.960
475.92	47.928
476.27	48.135
476.61	47.565
476.96	48.429
477.31	47.950
477.66	49.153
478.01	47.033
478.36	47.411
478.70	47.207
479.05	48.280
479.40	47.478
479.75	46.812
480.10	48.088
480.45	46.444
480.79	47.785
481.14	47.872
481.49	48.002
481.84	46.466
482.19	46.874
482.53	46.571
482.88	47.363
483.23	47.449
483.58	47.637
483.92	46.790
484.27	47.621
484.62	45.983
484.97	46.537
485.31	46.165
485.66	43.227
486.01	43.026
486.36	42.415
486.70	42.870
487.05	44.028
487.40	45.087
487.75	44.760
488.09	45.730
488.44	45.741
488.79	46.858
489.13	47.157
489.48	46.772
489.83	46.807
490.17	47.753
490.52	48.153
490.87	46.592
491.22	47.480
491.56	47.772
491.91	47.192
492.26	48.162
492.60	48.196
492.95	46.939
493.30	46.996
493.64	47.242
493.99	47.633
494.34	47.543
494.68	46.635
495.03	47.134
495.37	47.251
495.72	47.318
496.07	47.735
496.41	47.075
496.76	46.892
497.11	47.230
497.45	47.860
497.80	48.258
498.14	48.262
498.49	46.495
498.84	47.773
499.18	47.486
499.53	47.070
499.87	46.337
500.22	47.685
500.56	48.195
500.91	47.435
501.26	47.586
501.60	46.176
501.95	47.101
502.29	48.155
502.64	47.686
502.98	47.351
503.33	46.569
503.67	47.907
504.02	46.765
504.36	47.697
504.71	47.866
505.06	47.733
505.40	47.371
505.75	47.609
506.09	47.368
506.44	46.925
506.78	46.826
507.13	47.609
507.47	47.349
507.82	48.718
508.16	47.652
508.51	46.229
508.85	47.641
509.19	47.513
509.54	48.794
509.88	47.957
510.23	47.053
510.57	47.140
510.92	48.384
511.26	48.625
511.61	48.189
511.95	48.512
512.30	48.806
512.64	48.014
512.98	46.593
513.33	47.944
513.67	47.871
514.02	48.461
514.36	47.809
514.70	48.441
515.05	49.737
515.39	47.936
515.74	49.201
516.08	48.378
516.42	47.926
516.77	47.569
517.11	48.442
517.46	48.439
517.80	50.424
518.14	49.357
518.49	47.800
518.83	48.747
519.17	48.795
519.52	48.854
519.86	48.148
520.20	48.878
520.55	48.445
520.89	49.336
521.23	49.808
521.58	49.684
521.92	48.774
522.26	49.057
522.61	49.580
522.95	49.547
523.29	48.381
523.64	50.095
523.98	48.348
524.32	48.456
524.66	48.506
525.01	48.952
525.35	50.033
525.69	49.172
526.04	48.274
526.38	48.630
526.72	49.112
527.06	48.034
527.41	48.246
527.75	48.932
528.09	50.442
528.43	49.118
528.78	47.674
529.12	48.318
529.46	48.241
529.80	47.508
530.15	48.198
530.49	49.865
530.83	49.221
531.17	48.014
531.51	48.415
531.86	48.645
532.20	48.174
532.54	48.897
532.88	47.651
533.22	49.091
533.57	47.086
533.91	47.806
534.25	47.786
534.59	46.911
534.93	47.194
535.27	47.197
535.62	47.303
535.96	47.885
536.30	47.274
536.64	47.163
536.98	47.442
537.32	47.829
537.66	48.731
538.01	46.533
538.35	46.685
538.69	46.622
539.03	45.034
539.37	46.144
539.71	46.930
540.05	45.547
540.39	46.456
540.73	46.369
541.07	47.075
541.42	46.599
541.76	45.737
542.10	46.107
542.44	45.184
542.78	47.606
543.12	46.563
543.46	45.681
543.80	45.621
544.14	46.731
544.48	44.526
544.82	45.999
545.16	45.504
545.50	46.793
545.84	45.933
546.18	46.003
546.52	46.013
546.86	45.795
547.20	46.104
547.54	45.104
547.88	46.356
548.22	45.016
548.56	44.096
548.90	44.587
549.24	45.000
549.58	45.623
549.92	46.809
550.26	48.044
550.60	47.072
550.94	47.164
551.28	45.420
551.62	46.090
551.96	45.461
552.30	45.779
552.64	44.068
552.98	44.460
553.32	44.052
553.66	46.295
554.00	45.428
554.34	44.615
554.68	46.831
555.02	44.536
555.36	45.764
555.69	44.792
556.03	43.746
556.37	43.883
556.71	44.499
557.05	44.059
557.39	45.290
557.73	46.747
558.07	45.365
558.41	44.512
558.75	46.805
559.08	45.389
559.42	46.341
559.76	44.954
560.10	44.735
560.44	44.289
560.78	43.885
561.12	44.499
561.45	43.741
561.79	44.154
562.13	43.601
562.47	43.429
562.81	43.001
563.15	43.555
563.48	43.496
563.82	42.202
564.16	42.586
564.50	42.198
564.84	42.703
565.17	43.311
565.51	42.914
565.85	42.172
566.19	42.848
566.52	43.054
566.86	41.403
567.20	41.051
567.54	39.954
567.88	41.097
568.21	40.467
568.55	40.480
568.89	39.831
569.23	39.551
569.56	38.423
569.90	38.152
570.24	36.751
570.57	36.643
570.91	36.285
571.25	35.701
571.59	35.177
571.92	35.230
572.26	35.699
572.60	35.448
572.93	35.489
573.27	35.378
573.61	35.301
573.95	34.426
574.28	34.519
574.62	33.523
574.96	34.080
575.29	33.952
575.63	34.773
575.97	35.000
576.30	34.389
576.64	34.058
576.98	34.612
577.31	33.593
577.65	33.687
577.98	33.147
578.32	32.795
578.66	32.723
578.99	33.662
579.33	33.258
579.67	33.707
580.00	33.391
580.34	33.180
580.67	33.635
581.01	33.745
581.35	32.791
581.68	32.141
582.02	32.198
582.35	32.433
582.69	32.097
583.02	32.567
583.36	33.498
583.70	33.282
584.03	34.106
584.37	33.661
584.70	33.103
585.04	33.033
585.37	32.928
585.71	32.296
586.04	32.932
586.38	32.676
586.72	33.408
587.05	33.728
587.39	33.152
587.72	33.059
588.06	33.625
588.39	33.501
588.73	33.514
589.06	34.077
589.40	33.643
589.73	33.848
590.07	33.904
590.40	34.192
590.73	35.049
591.07	35.562
591.40	35.391
591.74	34.860
592.07	35.509
592.41	35.264
592.74	34.028
593.08	32.684
593.41	32.659
593.75	32.978
594.08	33.092
594.41	33.821
594.75	33.208
595.08	34.018
595.42	33.107
595.75	33.044
596.09	33.333
596.42	34.232
596.75	34.928
597.09	34.213
597.42	34.634
597.75	34.533
598.09	33.880
598.42	34.899
598.76	33.543
599.09	34.294
599.42	32.855
599.76	33.308
600.09	32.794
600.42	33.446
600.76	32.668
601.09	32.919
601.42	33.438
601.76	33.282
602.09	33.320
602.42	34.131
602.76	33.557
603.09	33.799
603.42	32.747
603.76	32.619
604.09	32.055
604.42	32.733
604.76	33.173
605.09	33.258
605.42	35.088
605.75	33.276
606.09	32.409
606.42	33.375
606.75	33.074
607.09	33.466
607.42	32.487
607.75	32.473
608.08	32.913
608.42	33.880
608.75	33.349
609.08	33.121
609.41	33.731
609.75	33.283
610.08	33.087
610.41	33.625
610.74	33.494
611.07	33.818
611.41	33.828
611.74	33.075
612.07	33.820
612.40	33.838
612.73	33.589
613.07	34.091
613.40	34.086
613.73	33.694
614.06	34.052
614.39	34.853
614.72	34.481
615.06	34.000
615.39	34.161
615.72	34.125
616.05	34.065
616.38	34.135
616.71	34.133
617.05	33.722
617.38	34.319
617.71	33.701
618.04	32.785
618.37	33.880
618.70	34.347
619.03	33.814
619.36	35.658
619.69	35.892
620.03	35.053
620.36	34.586
620.69	34.190
621.02	36.000
621.35	36.141
621.68	35.452
622.01	36.165
622.34	35.448
622.67	37.275
623.00	37.614
623.33	35.079
623.66	33.903
623.99	35.484
624.32	34.850
624.65	35.237
624.99	34.386
625.32	35.922
625.65	35.271
625.98	36.098
626.31	37.469
626.64	36.028
626.97	36.938
627.30	37.382
627.63	36.765
627.96	35.758
628.29	38.791
628.62	37.814
628.95	37.174
629.28	38.030
629.61	37.608
629.94	37.911
630.26	37.044
630.59	37.762
630.92	37.048
631.25	37.384
631.58	39.293
631.91	37.540
632.24	39.407
632.57	38.000
632.90	37.806
633.23	38.010
633.56	41.966
633.89	41.029
634.22	41.814
634.55	39.586
634.88	39.338
