SpectraSuite Data File
++++++++++++++++++++++++++++++++++++
Date: Wed May 13 20:38:30 PDT 2015
User: schluterlab
Dark Spectrum Present: Yes
Reference Spectrum Present: Yes
Number of Sampled Component Spectra: 1
Spectrometers: USB2E3373
Integration Time (usec): 3000 (USB2E3373)
Spectra Averaged: 3 (USB2E3373)
Boxcar Smoothing: 0 (USB2E3373)
Correct for Electrical Dark: No (USB2E3373)
Strobe/Lamp Enabled: No (USB2E3373)
Correct for Detector Non-linearity: No (USB2E3373)
Correct for Stray Light: No (USB2E3373)
Number of Pixels in Processed Spectrum: 2048
>>>>>Begin Processed Spectral Data<<<<<
178.53	0.000
178.91	-825.000
179.29	-1050.000
179.67	-138.889
180.04	-925.000
180.42	1700.000
180.80	900.000
181.18	-650.000
181.56	557.143
181.94	0.000
182.31	-385.714
182.69	1600.000
183.07	-437.500
183.45	-333.333
183.83	409.091
184.20	-220.000
184.58	1500.000
184.96	2800.000
185.34	-660.000
185.72	-425.000
186.09	-1600.000
186.47	2150.000
186.85	1750.000
187.23	3300.000
187.61	-1200.000
187.98	1075.000
188.36	336.364
188.74	363.636
189.12	-580.000
189.49	420.000
189.87	-3500.000
190.25	-650.000
190.63	300.000
191.00	292.308
191.38	766.667
191.76	-625.000
192.14	1025.000
192.51	587.500
192.89	700.000
193.27	337.500
193.65	-875.000
194.02	360.000
194.40	860.000
194.78	380.000
195.15	441.667
195.53	530.000
195.91	-1750.000
196.29	293.750
196.66	247.368
197.04	-230.000
197.42	0.000
197.79	460.000
198.17	-3300.000
198.55	571.429
198.92	487.500
199.30	640.000
199.68	0.000
200.05	277.778
200.43	614.286
200.81	2500.000
201.18	1000.000
201.56	-1366.667
201.94	433.333
202.31	488.889
202.69	375.000
203.07	410.000
203.44	0.000
203.82	900.000
204.19	700.000
204.57	335.714
204.95	500.000
205.32	1366.667
205.70	336.364
206.08	285.714
206.45	2250.000
206.83	212.500
207.20	783.333
207.58	460.000
207.96	233.333
208.33	625.000
208.71	-633.333
209.08	614.286
209.46	422.222
209.84	236.364
210.21	-1300.000
210.59	1000.000
210.96	-337.500
211.34	2350.000
211.71	490.000
212.09	483.333
212.46	0.000
212.84	1200.000
213.22	950.000
213.59	-4100.000
213.97	750.000
214.34	542.857
214.72	409.091
215.09	620.000
215.47	-800.000
215.84	-1600.000
216.22	1066.667
216.59	250.000
216.97	900.000
217.34	327.273
217.72	-483.333
218.09	0.000
218.47	-3400.000
218.84	511.111
219.22	628.571
219.59	1166.667
219.97	-414.286
220.34	580.000
220.72	-1533.333
221.09	321.429
221.47	1075.000
221.84	-800.000
222.22	0.000
222.59	950.000
222.97	-2000.000
223.34	920.000
223.72	284.615
224.09	900.000
224.46	1350.000
224.84	-3100.000
225.21	-800.000
225.59	-3300.000
225.96	420.000
226.34	235.000
226.71	2050.000
227.08	587.500
227.46	350.000
227.83	-950.000
228.21	-1700.000
228.58	466.667
228.95	-1650.000
229.33	-2000.000
229.70	1333.333
230.08	600.000
230.45	-700.000
230.82	366.667
231.20	583.333
231.57	457.143
231.95	341.667
232.32	209.091
232.69	327.273
233.07	542.857
233.44	307.692
233.81	-1066.667
234.19	247.368
234.56	308.333
234.93	266.667
235.31	409.091
235.68	300.000
236.05	264.286
236.43	145.455
236.80	215.789
237.17	3400.000
237.55	200.000
237.92	196.429
238.29	204.762
238.67	170.968
239.04	162.069
239.41	113.889
239.79	117.391
240.16	126.190
240.53	120.455
240.91	90.196
241.28	76.000
241.65	96.000
242.02	78.261
242.40	85.484
242.77	93.333
243.14	72.043
243.51	73.034
243.89	67.059
244.26	70.000
244.63	66.667
245.00	48.936
245.38	69.307
245.75	62.617
246.12	53.211
246.49	62.044
246.87	56.800
247.24	53.846
247.61	62.857
247.98	50.980
248.36	45.270
248.73	50.955
249.10	55.414
249.47	50.847
249.84	54.545
250.22	51.872
250.59	51.479
250.96	50.000
251.33	49.289
251.70	50.000
252.08	46.190
252.45	42.601
252.82	50.435
253.19	46.809
253.56	43.137
253.94	51.452
254.31	43.359
254.68	42.692
255.05	43.542
255.42	44.715
255.79	42.647
256.16	46.570
256.54	39.576
256.91	40.925
257.28	40.288
257.65	40.594
258.02	39.752
258.39	41.009
258.76	44.147
259.14	43.750
259.51	40.729
259.88	39.441
260.25	38.973
260.62	39.017
260.99	40.683
261.36	41.742
261.73	42.120
262.10	40.698
262.47	39.437
262.85	41.504
263.22	36.752
263.59	39.031
263.96	40.659
264.33	39.948
264.70	40.789
265.07	41.176
265.44	39.394
265.81	39.173
266.18	41.457
266.55	37.073
266.92	37.592
267.29	38.657
267.66	38.991
268.03	37.273
268.40	37.617
268.77	38.663
269.14	36.261
269.51	37.472
269.88	39.860
270.25	34.537
270.62	40.674
270.99	37.634
271.36	39.056
271.73	35.047
272.10	36.087
272.47	40.860
272.84	38.745
273.21	36.688
273.58	36.463
273.95	36.268
274.32	37.190
274.69	37.687
275.06	35.039
275.43	37.447
275.80	37.475
276.17	34.827
276.54	40.125
276.91	38.340
277.28	34.375
277.65	36.750
278.02	34.161
278.39	38.086
278.76	35.091
279.13	36.226
279.50	35.196
279.87	34.661
280.23	35.529
280.60	36.364
280.97	34.750
281.34	35.398
281.71	35.455
282.08	36.660
282.45	34.909
282.82	33.393
283.19	33.333
283.56	34.737
283.92	35.025
284.29	34.744
284.66	34.664
285.03	34.901
285.40	35.387
285.77	32.660
286.14	34.542
286.51	33.833
286.87	32.479
287.24	35.342
287.61	32.584
287.98	33.929
288.35	31.537
288.72	31.153
289.08	31.455
289.45	31.137
289.82	31.870
290.19	31.711
290.56	30.475
290.93	30.060
291.29	30.675
291.66	31.563
292.03	31.250
292.40	31.571
292.77	28.107
293.13	30.746
293.50	29.300
293.87	28.000
294.24	28.593
294.60	28.093
294.97	28.052
295.34	30.465
295.71	29.119
296.08	27.920
296.44	28.886
296.81	26.288
297.18	29.268
297.55	25.594
297.91	26.517
298.28	28.648
298.65	25.718
299.02	25.955
299.38	28.154
299.75	24.259
300.12	26.692
300.48	24.375
300.85	25.647
301.22	26.879
301.59	23.359
301.95	25.441
302.32	26.187
302.69	25.090
303.05	25.818
303.42	25.432
303.79	23.783
304.15	23.427
304.52	22.711
304.89	23.577
305.25	23.550
305.62	23.669
305.99	24.675
306.35	24.720
306.72	23.655
307.09	24.750
307.45	23.536
307.82	23.214
308.19	23.620
308.55	24.272
308.92	23.093
309.29	22.703
309.65	21.739
310.02	22.199
310.38	23.333
310.75	23.654
311.12	23.439
311.48	23.929
311.85	24.423
312.22	23.517
312.58	21.830
312.95	23.865
313.31	22.621
313.68	21.726
314.05	23.767
314.41	22.814
314.78	23.867
315.14	22.840
315.51	23.069
315.87	23.069
316.24	22.542
316.61	22.807
316.97	22.016
317.34	22.994
317.70	23.423
318.07	22.907
318.43	23.679
318.80	23.993
319.16	23.540
319.53	23.265
319.89	24.857
320.26	24.300
320.62	23.810
320.99	24.444
321.35	24.343
321.72	25.257
322.08	26.259
322.45	26.070
322.81	25.194
323.18	25.434
323.54	25.696
323.91	25.472
324.27	26.291
324.64	25.256
325.00	25.609
325.37	27.753
325.73	26.661
326.10	26.125
326.46	27.240
326.83	27.869
327.19	26.388
327.56	27.962
327.92	27.209
328.29	27.684
328.65	28.913
329.01	27.888
329.38	27.290
329.74	27.516
330.11	28.841
330.47	29.109
330.84	29.412
331.20	27.960
331.56	28.991
331.93	28.333
332.29	26.974
332.66	29.027
333.02	29.342
333.38	28.546
333.75	29.412
334.11	30.071
334.48	28.571
334.84	29.504
335.20	30.000
335.57	29.102
335.93	29.464
336.29	28.022
336.66	30.298
337.02	28.235
337.38	29.907
337.75	29.768
338.11	29.275
338.47	30.110
338.84	30.064
339.20	27.890
339.56	30.657
339.93	29.182
340.29	30.254
340.65	30.660
341.02	31.239
341.38	29.715
341.74	29.123
342.11	30.218
342.47	30.308
342.83	30.993
343.20	29.524
343.56	29.907
343.92	31.404
344.28	30.782
344.65	30.353
345.01	30.640
345.37	29.503
345.73	31.641
346.10	30.691
346.46	31.271
346.82	30.313
347.19	30.576
347.55	30.706
347.91	30.744
348.27	31.389
348.63	30.435
349.00	30.825
349.36	30.788
349.72	30.553
350.08	31.199
350.45	31.733
350.81	31.032
351.17	31.199
351.53	31.613
351.89	31.271
352.26	32.281
352.62	32.478
352.98	31.361
353.34	31.471
353.70	31.997
354.07	31.452
354.43	30.079
354.79	31.858
355.15	30.806
355.51	32.374
355.87	30.939
356.24	31.515
356.60	31.435
356.96	32.743
357.32	31.971
357.68	30.709
358.04	30.325
358.40	31.987
358.77	33.099
359.13	32.597
359.49	31.843
359.85	31.746
360.21	32.616
360.57	32.763
360.93	32.692
361.29	31.293
361.66	31.656
362.02	31.866
362.38	32.471
362.74	33.259
363.10	31.754
363.46	31.842
363.82	31.519
364.18	32.893
364.54	33.284
364.90	32.649
365.26	31.397
365.62	32.652
365.98	32.798
366.35	32.092
366.71	32.972
367.07	32.047
367.43	33.019
367.79	33.405
368.15	32.328
368.51	32.195
368.87	32.620
369.23	32.699
369.59	32.295
369.95	32.279
370.31	32.621
370.67	31.667
371.03	33.783
371.39	32.070
371.75	32.941
372.11	32.219
372.47	33.944
372.83	33.573
373.19	33.815
373.55	32.964
373.91	34.831
374.27	33.058
374.63	32.291
374.99	33.545
375.35	32.589
375.71	32.899
376.07	33.951
376.42	33.356
376.78	33.267
377.14	33.786
377.50	33.444
377.86	33.378
378.22	33.818
378.58	32.268
378.94	33.815
379.30	34.224
379.66	34.010
380.02	34.398
380.38	33.333
380.74	33.794
381.09	34.535
381.45	35.587
381.81	33.784
382.17	34.586
382.53	34.151
382.89	34.383
383.25	34.959
383.61	34.882
383.97	34.709
384.32	33.936
384.68	35.006
385.04	34.112
385.40	35.170
385.76	34.029
386.12	34.585
386.48	34.991
386.83	36.305
387.19	33.952
387.55	34.879
387.91	35.006
388.27	35.132
388.62	34.849
388.98	33.845
389.34	35.294
389.70	35.071
390.06	36.122
390.42	35.084
390.77	35.496
391.13	35.801
391.49	34.772
391.85	33.991
392.20	34.385
392.56	35.101
392.92	34.726
393.28	34.911
393.64	34.832
393.99	35.614
394.35	35.422
394.71	35.006
395.07	35.265
395.42	35.970
395.78	35.941
396.14	36.002
396.50	37.093
396.85	37.254
397.21	35.820
397.57	35.896
397.92	37.200
398.28	35.370
398.64	35.783
399.00	36.318
399.35	35.984
399.71	36.458
400.07	36.724
400.42	35.890
400.78	36.852
401.14	36.341
401.49	36.299
401.85	36.177
402.21	35.269
402.57	35.225
402.92	37.074
403.28	38.226
403.63	36.262
403.99	37.771
404.35	36.727
404.70	36.271
405.06	35.935
405.42	37.492
405.77	35.029
406.13	36.907
406.49	36.960
406.84	37.153
407.20	36.111
407.55	37.013
407.91	37.600
408.27	36.950
408.62	36.364
408.98	36.826
409.34	37.823
409.69	36.839
410.05	37.051
410.40	38.226
410.76	37.993
411.11	36.852
411.47	38.339
411.83	37.752
412.18	37.477
412.54	37.733
412.89	37.952
413.25	37.308
413.60	37.925
413.96	37.158
414.31	37.120
414.67	37.389
415.03	38.079
415.38	38.015
415.74	37.363
416.09	38.537
416.45	37.617
416.80	38.599
417.16	39.410
417.51	38.487
417.87	37.829
418.22	37.918
418.58	39.638
418.93	37.899
419.29	38.956
419.64	37.720
420.00	38.110
420.35	37.913
420.71	38.673
421.06	37.888
421.42	37.427
421.77	38.117
422.12	37.563
422.48	38.424
422.83	38.614
423.19	37.901
423.54	38.189
423.90	38.145
424.25	38.414
424.61	38.929
424.96	38.192
425.31	37.763
425.67	36.854
426.02	37.714
426.38	40.415
426.73	38.561
427.09	38.784
427.44	38.930
427.79	38.470
428.15	37.798
428.50	38.970
428.85	38.915
429.21	37.880
429.56	37.532
429.92	37.544
430.27	38.133
430.62	37.737
430.98	37.364
431.33	37.577
431.68	38.534
432.04	37.859
432.39	37.921
432.74	37.283
433.10	38.200
433.45	37.784
433.80	38.248
434.16	38.141
434.51	38.632
434.86	38.883
435.22	38.132
435.57	38.237
435.92	38.034
436.28	39.383
436.63	38.797
436.98	38.237
437.34	38.998
437.69	38.798
438.04	38.505
438.39	37.910
438.75	38.640
439.10	39.553
439.45	38.548
439.81	38.852
440.16	38.227
440.51	37.961
440.86	39.143
441.22	37.875
441.57	38.482
441.92	37.769
442.27	38.482
442.63	37.125
442.98	39.155
443.33	38.641
443.68	37.274
444.03	38.995
444.39	37.829
444.74	38.149
445.09	37.898
445.44	37.069
445.79	38.199
446.15	37.110
446.50	37.857
446.85	38.129
447.20	37.991
447.55	38.079
447.91	38.169
448.26	38.175
448.61	37.309
448.96	38.815
449.31	38.976
449.66	38.154
450.02	38.552
450.37	37.415
450.72	38.240
451.07	36.319
451.42	37.447
451.77	38.696
452.12	37.587
452.47	37.500
452.83	38.928
453.18	36.980
453.53	37.786
453.88	37.566
454.23	37.896
454.58	38.159
454.93	38.080
455.28	37.531
455.63	37.682
455.98	38.810
456.34	37.688
456.69	37.884
457.04	38.080
457.39	37.230
457.74	37.435
458.09	37.148
458.44	37.970
458.79	37.202
459.14	37.867
459.49	36.778
459.84	37.673
460.19	38.067
460.54	36.921
460.89	37.521
461.24	37.098
461.59	37.827
461.94	37.423
462.29	37.685
462.64	37.269
462.99	37.345
463.34	37.533
463.69	36.523
464.04	37.739
464.39	37.101
464.74	36.126
465.09	36.309
465.44	36.510
465.79	36.857
466.14	36.891
466.49	37.152
466.84	37.361
467.19	36.089
467.54	37.875
467.89	36.435
468.24	36.707
468.59	37.790
468.94	36.164
469.29	36.761
469.64	38.822
469.99	37.212
470.34	36.658
470.68	37.356
471.03	36.395
471.38	37.804
471.73	37.242
472.08	37.763
472.43	36.495
472.78	35.879
473.13	36.457
473.48	36.517
473.83	36.646
474.17	36.714
474.52	37.221
474.87	38.004
475.22	36.506
475.57	34.820
475.92	35.953
476.27	35.964
476.61	36.404
476.96	36.339
477.31	36.107
477.66	35.886
478.01	35.076
478.36	35.378
478.70	35.306
479.05	36.209
479.40	36.285
479.75	35.435
480.10	35.835
480.45	35.174
480.79	35.165
481.14	36.106
481.49	36.260
481.84	35.117
482.19	35.847
482.53	35.367
482.88	35.924
483.23	35.374
483.58	35.805
483.92	35.380
484.27	33.900
484.62	35.043
484.97	33.583
485.31	34.555
485.66	33.555
486.01	32.830
486.36	32.823
486.70	33.199
487.05	34.010
487.40	33.427
487.75	33.981
488.09	34.516
488.44	33.823
488.79	35.479
489.13	34.454
489.48	34.054
489.83	33.578
490.17	34.809
490.52	33.658
490.87	34.600
491.22	33.834
491.56	34.396
491.91	34.342
492.26	33.900
492.60	33.779
492.95	33.630
493.30	33.879
493.64	34.111
493.99	33.937
494.34	34.274
494.68	34.432
495.03	34.727
495.37	34.388
495.72	34.064
496.07	35.128
496.41	33.274
496.76	34.345
497.11	33.048
497.45	34.979
497.80	34.789
498.14	33.865
498.49	33.415
498.84	34.660
499.18	33.857
499.53	34.853
499.87	34.157
500.22	34.432
500.56	34.806
500.91	34.038
501.26	33.760
501.60	34.267
501.95	32.722
502.29	34.302
502.64	34.590
502.98	33.801
503.33	33.547
503.67	33.968
504.02	33.863
504.36	33.318
504.71	34.343
505.06	33.108
505.40	33.836
505.75	32.739
506.09	33.528
506.44	33.251
506.78	33.415
507.13	34.427
507.47	35.455
507.82	34.650
508.16	33.384
508.51	34.754
508.85	33.515
509.19	33.980
509.54	34.235
509.88	34.621
510.23	33.779
510.57	34.520
510.92	33.299
511.26	34.224
511.61	33.299
511.95	33.038
512.30	33.245
512.64	33.853
512.98	34.512
513.33	33.887
513.67	33.618
514.02	33.333
514.36	34.407
514.70	34.256
515.05	32.906
515.39	34.773
515.74	34.065
516.08	33.426
516.42	34.184
516.77	34.392
517.11	32.908
517.46	33.409
517.80	34.901
518.14	33.526
518.49	34.189
518.83	33.409
519.17	33.891
519.52	34.465
519.86	33.999
520.20	34.104
520.55	34.231
520.89	34.672
521.23	34.741
521.58	34.154
521.92	34.415
522.26	33.191
522.61	34.455
522.95	33.272
523.29	32.502
523.64	34.756
523.98	34.504
524.32	34.379
524.66	34.336
525.01	34.191
525.35	34.263
525.69	34.483
526.04	33.583
526.38	34.350
526.72	34.110
527.06	33.459
527.41	32.797
527.75	33.891
528.09	34.425
528.43	33.652
528.78	33.251
529.12	33.091
529.46	34.170
529.80	35.272
530.15	34.393
530.49	33.292
530.83	33.608
531.17	33.094
531.51	35.603
531.86	33.677
532.20	34.159
532.54	34.785
532.88	34.211
533.22	33.542
533.57	33.889
533.91	33.474
534.25	33.111
534.59	33.435
534.93	33.432
535.27	34.218
535.62	33.761
535.96	34.087
536.30	33.249
536.64	33.870
536.98	33.245
537.32	33.443
537.66	33.733
538.01	34.760
538.35	33.807
538.69	34.142
539.03	33.398
539.37	33.355
539.71	32.210
540.05	33.529
540.39	33.090
540.73	32.342
541.07	33.550
541.42	33.333
541.76	34.194
542.10	33.312
542.44	33.576
542.78	34.980
543.12	32.694
543.46	33.377
543.80	34.027
544.14	32.927
544.48	34.095
544.82	33.419
545.16	33.767
545.50	31.812
545.84	33.871
546.18	33.805
546.52	34.412
546.86	33.471
547.20	33.378
547.54	34.135
547.88	34.311
548.22	33.375
548.56	32.264
548.90	31.818
549.24	32.189
549.58	33.356
549.92	33.516
550.26	32.884
550.60	31.743
550.94	33.803
551.28	32.553
551.62	33.214
551.96	32.772
552.30	33.720
552.64	33.469
552.98	34.034
553.32	33.783
553.66	32.720
554.00	33.150
554.34	32.436
554.68	33.977
555.02	33.075
555.36	33.473
555.69	33.085
556.03	32.638
556.37	32.128
556.71	31.855
557.05	33.123
557.39	33.380
557.73	32.322
558.07	33.720
558.41	32.272
558.75	33.064
559.08	32.588
559.42	33.485
559.76	33.162
560.10	31.834
560.44	32.495
560.78	32.668
561.12	32.850
561.45	32.660
561.79	31.114
562.13	32.998
562.47	33.197
562.81	33.054
563.15	31.839
563.48	33.156
563.82	32.551
564.16	32.767
564.50	31.771
564.84	31.606
565.17	32.432
565.51	32.013
565.85	32.678
566.19	31.622
566.52	32.616
566.86	31.706
567.20	32.901
567.54	32.306
567.88	30.853
568.21	32.540
568.55	32.204
568.89	32.101
569.23	31.016
569.56	30.324
569.90	30.981
570.24	31.432
570.57	30.840
570.91	30.155
571.25	30.636
571.59	30.191
571.92	30.127
572.26	29.983
572.60	29.820
572.93	29.835
573.27	29.814
573.61	29.816
573.95	30.233
574.28	29.372
574.62	29.519
574.96	29.510
575.29	29.898
575.63	29.751
575.97	29.576
576.30	29.793
576.64	29.239
576.98	29.703
577.31	29.228
577.65	29.772
577.98	29.433
578.32	28.793
578.66	29.308
578.99	29.308
579.33	29.315
579.67	29.214
580.00	29.130
580.34	29.639
580.67	29.095
581.01	29.615
581.35	29.045
581.68	28.678
582.02	29.019
582.35	29.259
582.69	29.183
583.02	29.630
583.36	29.398
583.70	29.720
584.03	29.807
584.37	29.671
584.70	29.728
585.04	29.697
585.37	29.007
585.71	29.323
586.04	29.137
586.38	29.363
586.72	29.550
587.05	29.286
587.39	29.077
587.72	29.400
588.06	29.829
588.39	30.041
588.73	29.833
589.06	29.854
589.40	30.370
589.73	29.461
590.07	29.964
590.40	29.412
590.73	30.484
591.07	30.077
591.40	30.873
591.74	30.996
592.07	30.192
592.41	30.054
592.74	29.588
593.08	29.480
593.41	29.326
593.75	28.638
594.08	29.132
594.41	29.374
594.75	30.129
595.08	29.635
595.42	30.018
595.75	29.843
596.09	29.854
596.42	30.334
596.75	29.970
597.09	29.870
597.42	29.848
597.75	30.099
598.09	30.130
598.42	29.338
598.76	29.185
599.09	29.266
599.42	29.258
599.76	29.575
600.09	29.435
600.42	29.364
600.76	28.536
601.09	29.035
601.42	29.414
601.76	29.222
602.09	29.763
602.42	30.135
602.76	29.343
603.09	29.780
603.42	29.676
603.76	29.154
604.09	29.624
604.42	30.126
604.76	30.367
605.09	29.533
605.42	28.388
605.75	29.553
606.09	29.606
606.42	29.097
606.75	28.909
607.09	29.050
607.42	29.226
607.75	28.776
608.08	28.485
608.42	29.718
608.75	28.810
609.08	29.186
609.41	29.510
609.75	29.109
610.08	30.019
610.41	29.423
610.74	30.416
611.07	29.397
611.41	30.520
611.74	29.814
612.07	30.331
612.40	30.535
612.73	29.684
613.07	29.795
613.40	29.173
613.73	28.264
614.06	30.054
614.39	29.628
614.72	30.000
615.06	28.676
615.39	29.193
615.72	28.783
616.05	29.080
616.38	29.794
616.71	30.285
617.05	29.623
617.38	29.765
617.71	29.249
618.04	30.649
618.37	29.923
618.70	30.367
619.03	29.737
619.36	29.735
619.69	29.577
620.03	30.288
620.36	30.682
620.69	30.548
621.02	30.383
621.35	29.601
621.68	30.062
622.01	29.412
622.34	31.316
622.67	30.038
623.00	30.374
623.33	29.521
623.66	30.093
623.99	29.750
624.32	29.815
624.65	29.449
624.99	29.320
625.32	29.544
625.65	30.278
625.98	30.054
626.31	29.782
626.64	31.347
626.97	30.590
627.30	30.673
627.63	30.845
627.96	30.698
628.29	29.221
628.62	30.741
628.95	31.792
629.28	30.839
629.61	31.164
629.94	31.238
630.26	30.315
630.59	29.743
630.92	30.460
631.25	32.083
