SpectraSuite Data File
++++++++++++++++++++++++++++++++++++
Date: Wed May 13 20:59:05 PDT 2015
User: schluterlab
Dark Spectrum Present: Yes
Reference Spectrum Present: Yes
Number of Sampled Component Spectra: 1
Spectrometers: USB2E3373
Integration Time (usec): 3000 (USB2E3373)
Spectra Averaged: 3 (USB2E3373)
Boxcar Smoothing: 0 (USB2E3373)
Correct for Electrical Dark: No (USB2E3373)
Strobe/Lamp Enabled: No (USB2E3373)
Correct for Detector Non-linearity: No (USB2E3373)
Correct for Stray Light: No (USB2E3373)
Number of Pixels in Processed Spectrum: 2048
>>>>>Begin Processed Spectral Data<<<<<
178.53	0.000
178.91	-150.000
179.29	33.333
179.67	-250.000
180.04	33.333
180.42	120.000
180.80	500.000
181.18	66.667
181.56	-150.000
181.94	-75.000
182.31	90.909
182.69	100.000
183.07	-40.000
183.45	116.667
183.83	88.889
184.20	-14.286
184.58	200.000
184.96	-0.000
185.34	57.143
185.72	0.000
186.09	700.000
186.47	-140.000
186.85	60.000
187.23	350.000
187.61	-100.000
187.98	500.000
188.36	100.000
188.74	0.000
189.12	-45.455
189.49	100.000
189.87	75.000
190.25	220.000
190.63	500.000
191.00	20.000
191.38	240.000
191.76	200.000
192.14	66.667
192.51	-10.526
192.89	-0.000
193.27	25.000
193.65	-80.000
194.02	63.636
194.40	90.000
194.78	300.000
195.15	100.000
195.53	80.000
195.91	37.500
196.29	200.000
196.66	0.000
197.04	-450.000
197.42	200.000
197.79	120.000
198.17	75.000
198.55	-100.000
198.92	-25.000
199.30	-233.333
199.68	60.000
200.05	400.000
200.43	-0.000
200.81	-200.000
201.18	0.000
201.56	16.667
201.94	150.000
202.31	26.087
202.69	0.000
203.07	-133.333
203.44	80.000
203.82	166.667
204.19	-100.000
204.57	0.000
204.95	66.667
205.32	0.000
205.70	200.000
206.08	150.000
206.45	150.000
206.83	-50.000
207.20	266.667
207.58	10.000
207.96	-400.000
208.33	0.000
208.71	-1000.000
209.08	237.500
209.46	75.000
209.84	0.000
210.21	10.000
210.59	1400.000
210.96	20.000
211.34	300.000
211.71	-150.000
212.09	16.667
212.46	-50.000
212.84	0.000
213.22	150.000
213.59	-600.000
213.97	-50.000
214.34	-50.000
214.72	-38.462
215.09	100.000
215.47	-55.556
215.84	100.000
216.22	-87.500
216.59	250.000
216.97	233.333
217.34	44.444
217.72	0.000
218.09	433.333
218.47	600.000
218.84	28.571
219.22	-37.500
219.59	-100.000
219.97	50.000
220.34	12.500
220.72	40.000
221.09	0.000
221.47	66.667
221.84	300.000
222.22	0.000
222.59	-200.000
222.97	-66.667
223.34	50.000
223.72	500.000
224.09	100.000
224.46	63.636
224.84	112.500
225.21	-85.714
225.59	150.000
225.96	16.667
226.34	90.000
226.71	-71.429
227.08	300.000
227.46	-12.500
227.83	300.000
228.21	-18.750
228.58	-25.000
228.95	35.294
229.33	68.750
229.70	75.000
230.08	0.000
230.45	37.500
230.82	-8.333
231.20	-28.571
231.57	0.000
231.95	-200.000
232.32	25.000
232.69	41.176
233.07	-1500.000
233.44	21.739
233.81	-200.000
234.19	29.167
234.56	66.667
234.93	0.000
235.31	26.316
235.68	-115.385
236.05	23.077
236.43	-11.111
236.80	-3.030
237.17	6.667
237.55	23.529
237.92	-24.138
238.29	-7.407
238.67	-8.333
239.04	6.452
239.41	-2.128
239.79	46.809
240.16	18.605
240.53	19.643
240.91	32.143
241.28	-7.143
241.65	9.677
242.02	17.105
242.40	21.739
242.77	17.391
243.14	16.667
243.51	7.447
243.89	9.615
244.26	17.925
244.63	5.769
245.00	17.708
245.38	11.765
245.75	9.836
246.12	10.526
246.49	3.252
246.87	-2.521
247.24	16.216
247.61	9.934
247.98	8.974
248.36	6.509
248.73	10.674
249.10	11.616
249.47	6.452
249.84	10.526
250.22	9.950
250.59	10.280
250.96	8.182
251.33	6.220
251.70	17.573
252.08	12.971
252.45	16.049
252.82	11.787
253.19	10.117
253.56	6.835
253.94	13.167
254.31	9.507
254.68	11.074
255.05	12.541
255.42	5.944
255.79	9.202
256.16	12.934
256.54	10.159
256.91	3.165
257.28	12.264
257.65	8.599
258.02	7.038
258.39	10.819
258.76	6.686
259.14	9.659
259.51	8.427
259.88	9.214
260.25	10.000
260.62	5.337
260.99	9.284
261.36	10.622
261.73	8.395
262.10	9.669
262.47	8.889
262.85	9.453
263.22	9.231
263.59	7.532
263.96	8.516
264.33	7.212
264.70	9.767
265.07	8.796
265.44	9.885
265.81	7.323
266.18	10.706
266.55	9.170
266.92	10.805
267.29	9.259
267.66	8.068
268.03	11.934
268.40	7.415
268.77	10.950
269.14	10.612
269.51	11.499
269.88	6.721
270.25	11.017
270.62	10.246
270.99	9.646
271.36	10.317
271.73	9.839
272.10	9.714
272.47	10.557
272.84	10.433
273.21	11.155
273.58	6.967
273.95	9.245
274.32	9.888
274.69	8.561
275.06	10.071
275.43	9.040
275.80	6.915
276.17	9.392
276.54	9.414
276.91	9.756
277.28	9.206
277.65	8.566
278.02	9.464
278.39	8.348
278.76	11.037
279.13	8.233
279.50	9.138
279.87	7.971
280.23	9.189
280.60	7.958
280.97	9.740
281.34	9.779
281.71	8.293
282.08	9.744
282.45	9.344
282.82	7.987
283.19	9.604
283.56	9.375
283.92	9.480
284.29	8.580
284.66	7.414
285.03	6.026
285.40	9.517
285.77	10.811
286.14	8.511
286.51	9.295
286.87	8.769
287.24	8.112
287.61	7.078
287.98	8.088
288.35	8.048
288.72	9.326
289.08	10.256
289.45	9.104
289.82	8.623
290.19	8.696
290.56	8.097
290.93	6.906
291.29	8.482
291.66	8.333
292.03	10.082
292.40	7.806
292.77	8.032
293.13	8.368
293.50	9.150
293.87	9.333
294.24	7.540
294.60	8.713
294.97	9.127
295.34	7.124
295.71	6.965
296.08	6.806
296.44	8.163
296.81	6.212
297.18	8.250
297.55	6.722
297.91	8.075
298.28	7.627
298.65	7.389
299.02	9.280
299.38	6.380
299.75	7.452
300.12	7.093
300.48	7.953
300.85	7.737
301.22	7.085
301.59	6.925
301.95	5.807
302.32	7.118
302.69	5.989
303.05	6.645
303.42	7.614
303.79	7.150
304.15	7.996
304.52	7.527
304.89	6.423
305.25	6.586
305.62	6.941
305.99	7.726
306.35	7.732
306.72	8.444
307.09	7.925
307.45	5.751
307.82	5.789
308.19	6.165
308.55	7.165
308.92	7.367
309.29	7.207
309.65	6.593
310.02	7.356
310.38	6.504
310.75	6.607
311.12	7.191
311.48	7.418
311.85	7.185
312.22	7.253
312.58	6.860
312.95	6.866
313.31	7.897
313.68	7.538
314.05	7.845
314.41	7.493
314.78	7.875
315.14	6.667
315.51	8.278
315.87	6.858
316.24	6.887
316.61	6.849
316.97	7.685
317.34	6.774
317.70	7.672
318.07	8.163
318.43	6.865
318.80	6.981
319.16	6.631
319.53	6.900
319.89	6.775
320.26	7.116
320.62	8.063
320.99	6.783
321.35	6.642
321.72	8.181
322.08	7.565
322.45	8.048
322.81	8.503
323.18	8.140
323.54	7.040
323.91	8.130
324.27	8.281
324.64	7.230
325.00	7.262
325.37	8.959
325.73	7.407
326.10	8.074
326.46	7.860
326.83	8.414
327.19	8.455
327.56	8.300
327.92	7.643
328.29	8.848
328.65	10.342
329.01	8.355
329.38	8.957
329.74	9.356
330.11	8.025
330.47	8.594
330.84	9.477
331.20	8.711
331.56	8.786
331.93	9.302
332.29	9.991
332.66	8.559
333.02	10.599
333.38	9.825
333.75	9.215
334.11	9.549
334.48	9.154
334.84	8.569
335.20	9.348
335.57	8.790
335.93	9.107
336.29	8.231
336.66	9.231
337.02	9.478
337.38	8.790
337.75	9.561
338.11	8.369
338.47	8.390
338.84	9.107
339.20	9.347
339.56	9.215
339.93	8.816
340.29	9.991
340.65	9.410
341.02	10.067
341.38	8.615
341.74	8.487
342.11	9.496
342.47	8.368
342.83	8.987
343.20	9.222
343.56	9.485
343.92	9.423
344.28	10.390
344.65	9.306
345.01	8.394
345.37	9.622
345.73	9.069
346.10	9.791
346.46	9.106
346.82	9.069
347.19	9.098
347.55	9.451
347.91	9.275
348.27	9.385
348.63	8.974
349.00	9.277
349.36	9.576
349.72	9.822
350.08	8.892
350.45	8.771
350.81	9.077
351.17	9.777
351.53	9.112
351.89	8.658
352.26	8.494
352.62	9.147
352.98	8.626
353.34	9.018
353.70	8.255
354.07	9.647
354.43	9.253
354.79	9.295
355.15	9.472
355.51	8.808
355.87	8.522
356.24	8.828
356.60	8.991
356.96	9.133
357.32	9.365
357.68	9.855
358.04	9.465
358.40	9.380
358.77	9.557
359.13	8.716
359.49	9.160
359.85	9.098
360.21	7.941
360.57	10.190
360.93	8.574
361.29	9.697
361.66	9.871
362.02	8.451
362.38	9.306
362.74	8.992
363.10	8.966
363.46	8.646
363.82	9.091
364.18	9.210
364.54	8.899
364.90	9.408
365.26	8.705
365.62	9.517
365.98	9.609
366.35	9.220
366.71	9.272
367.07	9.213
367.43	9.617
367.79	9.451
368.15	9.916
368.51	9.634
368.87	9.839
369.23	9.466
369.59	8.739
369.95	8.708
370.31	8.996
370.67	8.255
371.03	9.725
371.39	9.510
371.75	8.786
372.11	9.758
372.47	8.868
372.83	9.362
373.19	8.777
373.55	8.165
373.91	9.406
374.27	9.129
374.63	8.535
374.99	8.705
375.35	8.904
375.71	8.832
376.07	10.075
376.42	8.623
376.78	10.238
377.14	8.610
377.50	9.713
377.86	9.296
378.22	9.102
378.58	9.016
378.94	9.938
379.30	9.619
379.66	10.296
380.02	9.191
380.38	9.036
380.74	10.102
381.09	9.409
381.45	9.553
381.81	9.304
382.17	9.452
382.53	9.477
382.89	9.530
383.25	8.395
383.61	9.504
383.97	8.625
384.32	8.444
384.68	9.254
385.04	8.797
385.40	8.780
385.76	9.428
386.12	9.425
386.48	8.589
386.83	9.199
387.19	9.007
387.55	9.994
387.91	8.180
388.27	8.261
388.62	8.926
388.98	9.136
389.34	9.649
389.70	9.707
390.06	8.562
390.42	9.601
390.77	9.097
391.13	9.280
391.49	8.539
391.85	7.923
392.20	8.333
392.56	8.698
392.92	9.070
393.28	8.716
393.64	8.624
393.99	8.935
394.35	9.691
394.71	8.077
395.07	8.302
395.42	9.019
395.78	8.301
396.14	9.131
396.50	9.321
396.85	8.604
397.21	8.739
397.57	8.944
397.92	8.144
398.28	9.081
398.64	8.865
399.00	8.036
399.35	9.875
399.71	9.144
400.07	8.373
400.42	8.464
400.78	8.097
401.14	8.584
401.49	8.808
401.85	8.415
402.21	8.297
402.57	8.890
402.92	9.262
403.28	8.693
403.63	8.617
403.99	8.061
404.35	8.728
404.70	7.674
405.06	8.925
405.42	7.915
405.77	8.065
406.13	7.829
406.49	7.909
406.84	8.303
407.20	8.526
407.55	8.182
407.91	8.670
408.27	8.734
408.62	9.638
408.98	9.001
409.34	8.540
409.69	9.487
410.05	9.080
410.40	8.217
410.76	8.724
411.11	8.333
411.47	8.560
411.83	8.484
412.18	8.690
412.54	9.524
412.89	7.837
413.25	7.493
413.60	8.339
413.96	7.928
414.31	8.631
414.67	8.571
415.03	8.660
415.38	7.926
415.74	8.642
416.09	8.923
416.45	8.339
416.80	8.188
417.16	8.502
417.51	8.707
417.87	7.738
418.22	7.951
418.58	8.607
418.93	8.286
419.29	8.053
419.64	7.761
420.00	8.698
420.35	8.428
420.71	7.739
421.06	8.856
421.42	8.455
421.77	8.439
422.12	8.596
422.48	8.506
422.83	8.506
423.19	8.223
423.54	8.834
423.90	8.254
424.25	9.185
424.61	8.688
424.96	8.989
425.31	8.918
425.67	8.348
426.02	8.539
426.38	9.204
426.73	7.453
427.09	8.505
427.44	8.632
427.79	8.492
428.15	9.052
428.50	7.855
428.85	8.733
429.21	8.441
429.56	8.927
429.92	7.965
430.27	8.027
430.62	8.290
430.98	8.831
431.33	8.705
431.68	9.212
432.04	8.169
432.39	7.910
432.74	8.338
433.10	8.716
433.45	8.817
433.80	9.253
434.16	8.138
434.51	9.130
434.86	8.186
435.22	8.659
435.57	8.170
435.92	8.866
436.28	8.408
436.63	8.430
436.98	8.578
437.34	8.059
437.69	8.501
438.04	8.263
438.39	8.655
438.75	8.284
439.10	9.080
439.45	8.596
439.81	8.313
440.16	9.101
440.51	8.918
440.86	9.129
441.22	8.663
441.57	9.653
441.92	8.605
442.27	8.550
442.63	8.773
442.98	8.218
443.33	9.199
443.68	8.751
444.03	9.190
444.39	9.122
444.74	8.062
445.09	8.645
445.44	9.521
445.79	8.312
446.15	8.708
446.50	9.086
446.85	8.926
447.20	8.782
447.55	9.010
447.91	8.764
448.26	8.748
448.61	8.228
448.96	9.169
449.31	9.252
449.66	9.254
450.02	8.982
450.37	9.283
450.72	8.668
451.07	9.028
451.42	8.671
451.77	8.886
452.12	8.794
452.47	8.844
452.83	9.021
453.18	8.975
453.53	9.206
453.88	8.614
454.23	9.333
454.58	9.007
454.93	9.173
455.28	8.992
455.63	8.235
455.98	8.521
456.34	8.773
456.69	8.626
457.04	9.288
457.39	9.260
457.74	8.737
458.09	9.123
458.44	8.872
458.79	8.951
459.14	9.157
459.49	9.207
459.84	8.681
460.19	8.043
460.54	9.915
460.89	9.122
461.24	9.063
461.59	9.239
461.94	10.493
462.29	8.824
462.64	9.037
462.99	9.524
463.34	9.185
463.69	9.794
464.04	8.764
464.39	8.969
464.74	8.968
465.09	8.184
465.44	9.877
465.79	9.201
466.14	9.179
466.49	8.563
466.84	8.667
467.19	9.554
467.54	9.721
467.89	9.679
468.24	9.096
468.59	10.006
468.94	10.089
469.29	9.121
469.64	9.275
469.99	9.172
470.34	9.575
470.68	8.996
471.03	10.155
471.38	9.944
471.73	9.877
472.08	9.897
472.43	10.752
472.78	10.210
473.13	9.103
473.48	9.393
473.83	9.353
474.17	9.831
474.52	9.061
474.87	9.168
475.22	9.058
475.57	9.593
475.92	9.433
476.27	8.800
476.61	9.400
476.96	9.309
477.31	9.493
477.66	9.718
478.01	9.121
478.36	9.428
478.70	9.721
479.05	9.822
479.40	9.620
479.75	9.617
480.10	9.383
480.45	9.514
480.79	9.657
481.14	9.878
481.49	9.620
481.84	9.425
482.19	9.588
482.53	9.571
482.88	9.396
483.23	9.240
483.58	9.546
483.92	9.484
484.27	9.378
484.62	9.277
484.97	9.788
485.31	8.705
485.66	8.545
486.01	8.421
486.36	8.276
486.70	8.264
487.05	8.797
487.40	9.065
487.75	9.360
488.09	9.102
488.44	9.604
488.79	10.106
489.13	9.742
489.48	9.705
489.83	9.781
490.17	10.077
490.52	10.238
490.87	9.828
491.22	9.845
491.56	10.494
491.91	9.794
492.26	9.816
492.60	9.716
492.95	10.447
493.30	10.320
493.64	10.024
493.99	10.097
494.34	9.971
494.68	10.119
495.03	9.634
495.37	9.440
495.72	9.674
496.07	9.596
496.41	9.546
496.76	9.872
497.11	10.000
497.45	10.311
497.80	9.844
498.14	10.680
498.49	10.388
498.84	9.970
499.18	10.254
499.53	9.355
499.87	9.995
500.22	9.856
500.56	9.729
500.91	10.614
501.26	10.246
501.60	10.049
501.95	9.966
502.29	10.194
502.64	10.366
502.98	10.597
503.33	10.122
503.67	10.224
504.02	10.049
504.36	10.302
504.71	9.959
505.06	9.985
505.40	10.258
505.75	10.987
506.09	10.833
506.44	10.181
506.78	10.361
507.13	10.759
507.47	10.392
507.82	10.466
508.16	10.765
508.51	10.279
508.85	10.368
509.19	10.423
509.54	11.850
509.88	10.591
510.23	10.632
510.57	10.646
510.92	10.991
511.26	11.111
511.61	10.648
511.95	9.978
512.30	11.549
512.64	11.805
512.98	11.136
513.33	10.986
513.67	10.392
514.02	11.688
514.36	10.843
514.70	11.374
515.05	11.995
515.39	10.731
515.74	11.072
516.08	11.563
516.42	11.751
516.77	10.486
517.11	11.464
517.46	12.365
517.80	12.470
518.14	11.390
518.49	11.995
518.83	11.158
519.17	11.325
519.52	11.520
519.86	11.415
520.20	11.280
520.55	11.692
520.89	12.081
521.23	12.500
521.58	11.947
521.92	11.816
522.26	11.191
522.61	12.023
522.95	12.565
523.29	11.810
523.64	12.333
523.98	12.008
524.32	12.350
524.66	12.078
525.01	13.172
525.35	12.442
525.69	12.061
526.04	11.857
526.38	12.874
526.72	12.623
527.06	12.637
527.41	11.383
527.75	12.150
528.09	13.615
528.43	12.619
528.78	13.049
529.12	12.290
529.46	12.604
529.80	12.686
530.15	12.484
530.49	13.342
530.83	12.322
531.17	12.671
531.51	12.542
531.86	12.873
532.20	12.198
532.54	12.759
532.88	12.594
533.22	13.064
533.57	13.444
533.91	12.516
534.25	12.500
534.59	12.420
534.93	12.564
535.27	12.484
535.62	11.842
535.96	13.142
536.30	12.832
536.64	12.577
536.98	12.544
537.32	12.883
537.66	14.175
538.01	13.384
538.35	12.500
538.69	11.237
539.03	12.685
539.37	12.676
539.71	12.619
540.05	12.888
540.39	12.663
540.73	12.779
541.07	13.401
541.42	13.468
541.76	13.532
542.10	12.593
542.44	12.682
542.78	11.797
543.12	13.140
543.46	12.163
543.80	12.967
544.14	13.558
544.48	12.342
544.82	13.181
545.16	12.238
545.50	13.774
545.84	14.025
546.18	12.272
546.52	13.620
546.86	12.509
547.20	12.223
547.54	11.794
547.88	12.618
548.22	13.420
548.56	12.742
548.90	12.314
549.24	13.681
549.58	12.384
549.92	13.793
550.26	14.834
550.60	13.438
550.94	13.060
551.28	13.475
551.62	13.985
551.96	13.324
552.30	12.809
552.64	13.489
552.98	13.494
553.32	14.203
553.66	12.693
554.00	13.823
554.34	13.626
554.68	14.019
555.02	12.799
555.36	13.767
555.69	12.673
556.03	14.081
556.37	12.731
556.71	13.385
557.05	12.841
557.39	13.263
557.73	13.616
558.07	11.454
558.41	13.626
558.75	13.472
559.08	13.392
559.42	14.870
559.76	14.450
560.10	13.528
560.44	13.633
560.78	13.813
561.12	12.754
561.45	12.245
561.79	13.549
562.13	13.643
562.47	13.000
562.81	13.059
563.15	12.748
563.48	13.076
563.82	13.543
564.16	12.999
564.50	13.026
564.84	12.905
565.17	13.709
565.51	12.834
565.85	12.991
566.19	13.377
566.52	12.582
566.86	13.148
567.20	13.073
567.54	12.723
567.88	12.038
568.21	11.787
568.55	11.633
568.89	11.864
569.23	12.099
569.56	11.932
569.90	11.235
570.24	10.722
570.57	10.918
570.91	11.385
571.25	10.605
571.59	10.343
571.92	10.648
572.26	10.454
572.60	10.841
572.93	10.403
573.27	10.659
573.61	10.884
573.95	10.444
574.28	10.724
574.62	10.096
574.96	10.359
575.29	10.356
575.63	10.537
575.97	10.897
576.30	10.518
576.64	10.348
576.98	10.318
577.31	10.616
577.65	9.697
577.98	9.745
578.32	9.890
578.66	10.304
578.99	10.399
579.33	10.095
579.67	10.158
580.00	10.186
580.34	10.446
580.67	10.877
581.01	10.448
581.35	9.977
581.68	9.994
582.02	10.000
582.35	10.162
582.69	10.048
583.02	10.356
583.36	10.365
583.70	10.675
584.03	10.865
584.37	10.574
584.70	10.599
585.04	10.342
585.37	9.842
585.71	10.275
586.04	10.426
586.38	10.629
586.72	10.396
587.05	10.998
587.39	10.643
587.72	10.293
588.06	10.397
588.39	10.719
588.73	10.981
589.06	10.508
589.40	11.214
589.73	10.672
590.07	11.411
590.40	11.208
590.73	10.697
591.07	11.032
591.40	11.261
591.74	11.249
592.07	11.091
592.41	11.798
592.74	11.613
593.08	10.427
593.41	10.951
593.75	10.433
594.08	11.088
594.41	10.786
594.75	10.832
595.08	11.240
595.42	10.344
595.75	11.208
596.09	10.739
596.42	11.193
596.75	11.716
597.09	11.556
597.42	11.664
597.75	11.333
598.09	11.202
598.42	11.812
598.76	10.747
599.09	11.405
599.42	10.989
599.76	10.890
600.09	11.333
600.42	11.262
600.76	10.680
601.09	11.186
601.42	11.094
601.76	10.888
602.09	11.715
602.42	11.308
602.76	10.780
603.09	11.581
603.42	11.275
603.76	10.756
604.09	11.107
604.42	10.925
604.76	10.956
605.09	11.781
605.42	12.191
605.75	10.493
606.09	10.844
606.42	11.388
606.75	10.519
607.09	11.392
607.42	11.165
607.75	10.853
608.08	11.091
608.42	11.434
608.75	11.371
609.08	11.367
609.41	11.972
609.75	11.649
610.08	11.785
610.41	11.808
610.74	11.165
611.07	11.774
611.41	11.771
611.74	11.128
612.07	11.881
612.40	11.946
612.73	11.636
613.07	11.696
613.40	11.729
613.73	12.189
614.06	11.774
614.39	12.285
614.72	13.326
615.06	12.056
615.39	12.031
615.72	11.339
616.05	11.712
616.38	12.085
616.71	11.338
617.05	12.408
617.38	11.892
617.71	11.642
618.04	11.456
618.37	12.618
618.70	12.290
619.03	12.715
619.36	13.025
619.69	12.061
620.03	12.650
620.36	12.248
620.69	12.206
621.02	11.462
621.35	12.510
621.68	13.366
622.01	14.401
622.34	12.768
622.67	12.060
623.00	13.754
623.33	11.294
623.66	12.491
623.99	13.578
624.32	12.693
624.65	12.834
624.99	12.785
625.32	13.069
625.65	13.798
625.98	14.060
626.31	13.551
626.64	12.812
626.97	13.581
627.30	13.601
627.63	12.630
627.96	13.160
628.29	14.140
628.62	14.797
628.95	14.028
629.28	14.975
629.61	15.502
629.94	14.990
630.26	15.369
630.59	15.185
630.92	14.257
631.25	14.521
631.58	15.739
631.91	13.043
632.24	14.599
632.57	13.778
632.90	14.586
633.23	15.228
633.56	16.187
633.89	17.823
634.22	16.843
634.55	16.078
634.88	13.848
635.20	16.500
635.53	13.953
635.86	14.231
636.19	15.633
636.52	15.000
636.85	16.526
637.18	13.033
637.51	15.356
637.83	14.491
638.16	14.933
638.49	14.019
638.82	15.294
639.15	16.489
639.48	14.305
639.81	15.833
640.13	14.648
640.46	15.254
640.79	17.986
641.12	15.385
641.45	15.575
641.77	15.906
642.10	17.852
642.43	18.553
642.76	14.984
643.09	16.773
643.41	16.427
643.74	15.509
644.07	16.019
644.40	17.413
644.73	14.746
645.05	14.136
645.38	14.618
645.71	15.816
646.04	15.320
646.36	17.014
646.69	16.608
647.02	17.668
647.35	18.647
647.67	16.636
648.00	17.572
648.33	14.407
648.66	16.694
