SpectraSuite Data File
++++++++++++++++++++++++++++++++++++
Date: Wed May 13 20:23:24 PDT 2015
User: schluterlab
Dark Spectrum Present: Yes
Reference Spectrum Present: Yes
Number of Sampled Component Spectra: 1
Spectrometers: USB2E3373
Integration Time (usec): 3000 (USB2E3373)
Spectra Averaged: 3 (USB2E3373)
Boxcar Smoothing: 0 (USB2E3373)
Correct for Electrical Dark: No (USB2E3373)
Strobe/Lamp Enabled: No (USB2E3373)
Correct for Detector Non-linearity: No (USB2E3373)
Correct for Stray Light: No (USB2E3373)
Number of Pixels in Processed Spectrum: 2048
>>>>>Begin Processed Spectral Data<<<<<
178.53	0.000
178.91	-1125.000
179.29	-1250.000
179.67	-244.444
180.04	-1175.000
180.42	2950.000
180.80	1040.000
181.18	-1125.000
181.56	585.714
181.94	0.000
182.31	-600.000
182.69	1900.000
183.07	-650.000
183.45	-500.000
183.83	563.636
184.20	-320.000
184.58	2300.000
184.96	5500.000
185.34	-920.000
185.72	-737.500
186.09	-2150.000
186.47	2650.000
186.85	2450.000
187.23	5200.000
187.61	-1600.000
187.98	1275.000
188.36	563.636
188.74	472.727
189.12	-1080.000
189.49	550.000
189.87	-5500.000
190.25	-1100.000
190.63	471.429
191.00	453.846
191.38	816.667
191.76	-1100.000
192.14	1300.000
192.51	637.500
192.89	950.000
193.27	612.500
193.65	-1175.000
194.02	560.000
194.40	980.000
194.78	470.000
195.15	575.000
195.53	640.000
195.91	-2200.000
196.29	343.750
196.66	305.263
197.04	-320.000
197.42	0.000
197.79	630.000
198.17	-4500.000
198.55	685.714
198.92	737.500
199.30	840.000
199.68	0.000
200.05	344.444
200.43	700.000
200.81	5300.000
201.18	1466.667
201.56	-1366.667
201.94	588.889
202.31	511.111
202.69	350.000
203.07	550.000
203.44	0.000
203.82	1100.000
204.19	771.429
204.57	478.571
204.95	637.500
205.32	1900.000
205.70	527.273
206.08	385.714
206.45	2450.000
206.83	318.750
207.20	1016.667
207.58	880.000
207.96	350.000
208.33	637.500
208.71	-766.667
209.08	642.857
209.46	522.222
209.84	390.909
210.21	-1266.667
210.59	1350.000
210.96	-425.000
211.34	2450.000
211.71	570.000
212.09	850.000
212.46	0.000
212.84	2133.333
213.22	1325.000
213.59	-5000.000
213.97	800.000
214.34	842.857
214.72	581.818
215.09	1020.000
215.47	-1850.000
215.84	-2700.000
216.22	1733.333
216.59	385.714
216.97	1500.000
217.34	372.727
217.72	-666.667
218.09	0.000
218.47	-4700.000
218.84	611.111
219.22	785.714
219.59	2100.000
219.97	-600.000
220.34	960.000
220.72	-2033.333
221.09	428.571
221.47	1500.000
221.84	-1016.667
222.22	0.000
222.59	1550.000
222.97	-2950.000
223.34	1240.000
223.72	469.231
224.09	1040.000
224.46	2300.000
224.84	-4700.000
225.21	-1180.000
225.59	-4800.000
225.96	630.000
226.34	280.000
226.71	2700.000
227.08	700.000
227.46	580.000
227.83	-800.000
228.21	-2150.000
228.58	622.222
228.95	-2750.000
229.33	-2100.000
229.70	1666.667
230.08	642.857
230.45	-1040.000
230.82	483.333
231.20	983.333
231.57	614.286
231.95	483.333
232.32	240.909
232.69	372.727
233.07	614.286
233.44	338.462
233.81	-1966.667
234.19	347.368
234.56	483.333
234.93	508.333
235.31	472.727
235.68	384.615
236.05	385.714
236.43	190.909
236.80	257.895
237.17	5700.000
237.55	261.905
237.92	246.429
238.29	285.714
238.67	206.452
239.04	234.483
239.41	211.111
239.79	152.174
240.16	166.667
240.53	147.727
240.91	141.176
241.28	130.000
241.65	112.000
242.02	142.029
242.40	111.290
242.77	125.000
243.14	97.849
243.51	107.865
243.89	90.588
244.26	87.778
244.63	96.774
245.00	94.681
245.38	106.931
245.75	97.196
246.12	75.229
246.49	84.672
246.87	83.200
247.24	85.385
247.61	77.143
247.98	75.163
248.36	70.946
248.73	77.707
249.10	82.166
249.47	76.271
249.84	65.241
250.22	59.893
250.59	69.822
250.96	68.687
251.33	67.299
251.70	69.307
252.08	66.190
252.45	62.780
252.82	63.043
253.19	67.660
253.56	60.000
253.94	63.485
254.31	63.672
254.68	60.385
255.05	60.886
255.42	65.041
255.79	62.132
256.16	61.372
256.54	56.890
256.91	58.719
257.28	56.835
257.65	59.076
258.02	56.832
258.39	56.151
258.76	54.849
259.14	58.036
259.51	54.407
259.88	53.106
260.25	59.517
260.62	52.601
260.99	58.696
261.36	58.258
261.73	58.739
262.10	54.070
262.47	55.775
262.85	55.153
263.22	51.852
263.59	54.701
263.96	53.846
264.33	53.003
264.70	56.316
265.07	54.220
265.44	53.283
265.81	50.122
266.18	54.020
266.55	53.659
266.92	52.334
267.29	52.315
267.66	52.294
268.03	52.273
268.40	52.336
268.77	48.210
269.14	53.153
269.51	50.790
269.88	53.846
270.25	53.499
270.62	51.461
270.99	52.688
271.36	50.858
271.73	53.972
272.10	51.304
272.47	52.903
272.84	50.649
273.21	49.057
273.58	51.528
273.95	50.105
274.32	49.380
274.69	50.964
275.06	46.850
275.43	51.277
275.80	47.695
276.17	49.695
276.54	49.480
276.91	49.209
277.28	48.633
277.65	50.290
278.02	49.689
278.39	51.562
278.76	45.818
279.13	47.547
279.50	47.300
279.87	45.418
280.23	47.106
280.60	47.969
280.97	45.102
281.34	46.903
281.71	46.909
282.08	47.025
282.45	46.364
282.82	44.583
283.19	45.989
283.56	44.211
283.92	46.193
284.29	43.210
284.66	45.191
285.03	47.559
285.40	45.775
285.77	47.306
286.14	46.459
286.51	46.000
286.87	45.641
287.24	45.603
287.61	45.104
287.98	45.455
288.35	40.412
288.72	42.835
289.08	41.471
289.45	42.834
289.82	43.252
290.19	41.130
290.56	39.816
290.93	37.462
291.29	43.405
291.66	41.003
292.03	41.860
292.40	41.997
292.77	39.941
293.13	40.149
293.50	39.650
293.87	39.556
294.24	37.481
294.60	38.719
294.97	36.483
295.34	38.787
295.71	38.636
296.08	38.319
296.44	37.552
296.81	36.460
297.18	36.179
297.55	33.245
297.91	36.148
298.28	36.948
298.65	36.554
299.02	36.495
299.38	36.388
299.75	34.771
300.12	34.227
300.48	33.750
300.85	33.539
301.22	34.650
301.59	33.965
301.95	35.013
302.32	34.275
302.69	33.094
303.05	33.697
303.42	32.469
303.79	33.069
304.15	33.566
304.52	32.561
304.89	31.823
305.25	32.251
305.62	32.956
305.99	33.884
306.35	32.886
306.72	33.969
307.09	33.518
307.45	32.320
307.82	32.478
308.19	32.119
308.55	32.794
308.92	32.760
309.29	30.306
309.65	31.601
310.02	33.404
310.38	32.796
310.75	32.418
311.12	33.265
311.48	31.766
311.85	34.067
312.22	32.154
312.58	30.977
312.95	33.263
313.31	32.524
313.68	34.719
314.05	33.235
314.41	34.372
314.78	33.837
315.14	33.962
315.51	35.942
315.87	35.446
316.24	34.657
316.61	34.211
316.97	35.029
317.34	34.638
317.70	35.373
318.07	37.344
318.43	37.867
318.80	37.207
319.16	39.454
319.53	37.711
319.89	39.429
320.26	40.200
320.62	40.972
320.99	40.000
321.35	41.717
321.72	42.608
322.08	43.929
322.45	45.373
322.81	46.996
323.18	47.495
323.54	46.289
323.91	46.792
324.27	47.897
324.64	48.462
325.00	47.160
325.37	51.228
325.73	52.873
326.10	52.692
326.46	54.122
326.83	54.616
327.19	55.508
327.56	56.707
327.92	59.143
328.29	59.716
328.65	60.958
329.01	61.733
329.38	61.517
329.74	62.604
330.11	65.316
330.47	64.279
330.84	63.879
331.20	65.027
331.56	65.688
331.93	66.759
332.29	64.419
332.66	67.788
333.02	67.002
333.38	66.847
333.75	67.201
334.11	68.238
334.48	68.678
334.84	68.750
335.20	70.727
335.57	68.994
335.93	69.643
336.29	70.879
336.66	71.145
337.02	70.317
337.38	72.130
337.75	70.053
338.11	71.441
338.47	73.481
338.84	72.227
339.20	73.394
339.56	77.828
339.93	72.455
340.29	72.011
340.65	72.549
341.02	74.171
341.38	75.890
341.74	73.158
342.11	73.624
342.47	75.507
342.83	73.373
343.20	75.238
343.56	74.052
343.92	73.246
344.28	74.490
344.65	75.924
345.01	73.822
345.37	74.271
345.73	75.296
346.10	75.448
346.46	76.695
346.82	74.712
347.19	75.689
347.55	75.123
347.91	77.184
348.27	77.896
348.63	76.923
349.00	75.243
349.36	75.041
349.72	74.900
350.08	75.770
350.45	77.217
350.81	75.142
351.17	77.472
351.53	77.314
351.89	76.568
352.26	76.401
352.62	76.985
352.98	77.958
353.34	77.896
353.70	78.232
354.07	77.016
354.43	75.873
354.79	75.865
355.15	76.856
355.51	78.098
355.87	78.776
356.24	78.827
356.60	77.145
356.96	78.117
357.32	80.376
357.68	78.661
358.04	77.910
358.40	78.306
358.77	78.404
359.13	76.401
359.49	77.647
359.85	78.413
360.21	78.788
360.57	79.922
360.93	79.000
361.29	77.929
361.66	77.012
362.02	77.164
362.38	78.783
362.74	80.432
363.10	78.682
363.46	77.843
363.82	77.173
364.18	77.606
364.54	80.758
364.90	77.975
365.26	79.632
365.62	80.278
365.98	79.401
366.35	77.149
366.71	78.886
367.07	80.044
367.43	80.987
367.79	81.299
368.15	79.382
368.51	80.087
368.87	79.015
369.23	80.395
369.59	80.232
369.95	78.971
370.31	78.490
370.67	77.029
371.03	80.000
371.39	79.300
371.75	80.074
372.11	78.023
372.47	81.012
372.83	79.323
373.19	78.974
373.55	80.488
373.91	81.001
374.27	77.388
374.63	80.145
374.99	80.297
375.35	80.809
375.71	78.753
376.07	80.384
376.42	79.092
376.78	79.324
377.14	80.122
377.50	79.934
377.86	78.657
378.22	79.204
378.58	78.070
378.94	79.698
379.30	80.280
379.66	79.315
380.02	79.730
380.38	78.689
380.74	79.472
381.09	78.423
381.45	80.025
381.81	79.177
382.17	78.790
382.53	79.182
382.89	78.642
383.25	78.111
383.61	80.235
383.97	78.987
384.32	77.355
384.68	78.748
385.04	78.980
385.40	77.585
385.76	78.071
386.12	78.821
386.48	78.414
386.83	79.666
387.19	80.148
387.55	78.169
387.91	78.356
388.27	78.296
388.62	77.935
388.98	77.457
389.34	79.036
389.70	78.541
390.06	78.264
390.42	78.923
390.77	77.163
391.13	79.834
391.49	78.617
391.85	77.912
392.20	79.117
392.56	78.346
392.92	78.693
393.28	77.811
393.64	78.237
393.99	75.870
394.35	76.489
394.71	77.227
395.07	76.262
395.42	79.172
395.78	75.954
396.14	76.536
396.50	77.694
396.85	77.241
397.21	75.277
397.57	76.813
397.92	76.142
398.28	74.608
398.64	75.448
399.00	76.105
399.35	75.071
399.71	77.662
400.07	75.931
400.42	77.301
400.78	75.090
401.14	76.159
401.49	75.582
401.85	74.592
402.21	73.593
402.57	74.707
402.92	76.356
403.28	75.453
403.63	74.134
403.99	75.350
404.35	73.636
404.70	72.902
405.06	73.151
405.42	73.986
405.77	74.057
406.13	73.420
406.49	74.039
406.84	73.715
407.20	72.695
407.55	73.325
407.91	74.400
408.27	74.537
408.62	71.824
408.98	72.243
409.34	72.386
409.69	74.452
410.05	72.986
410.40	71.927
410.76	72.820
411.11	71.592
411.47	70.607
411.83	72.083
412.18	72.727
412.54	71.980
412.89	71.687
413.25	71.724
413.60	71.896
413.96	70.795
414.31	71.385
414.67	72.624
415.03	71.656
415.38	71.843
415.74	71.383
416.09	73.089
416.45	71.419
416.80	69.927
417.16	71.984
417.51	72.130
417.87	69.878
418.22	70.032
418.58	70.884
418.93	70.025
419.29	70.401
419.64	70.907
420.00	69.634
420.35	68.696
420.71	70.353
421.06	69.272
421.42	68.187
421.77	69.843
422.12	68.052
422.48	69.887
422.83	69.482
423.19	69.558
423.54	69.356
423.90	68.986
424.25	68.230
424.61	68.631
424.96	69.679
425.31	67.885
425.67	66.629
426.02	67.543
426.38	68.742
426.73	69.397
427.09	67.599
427.44	66.763
427.79	67.855
428.15	67.679
428.50	67.466
428.85	67.998
429.21	67.090
429.56	66.615
429.92	66.029
430.27	65.889
430.62	66.820
430.98	67.878
431.33	66.134
431.68	67.225
432.04	66.454
432.39	67.333
432.74	67.624
433.10	67.572
433.45	67.172
433.80	66.519
434.16	64.904
434.51	64.789
434.86	66.306
435.22	66.148
435.57	66.505
435.92	65.360
436.28	65.718
436.63	65.066
436.98	65.369
437.34	65.951
437.69	66.161
438.04	64.250
438.39	65.134
438.75	66.822
439.10	65.307
439.45	64.581
439.81	64.894
440.16	64.540
440.51	64.675
440.86	65.142
441.22	64.405
441.57	64.915
441.92	64.278
442.27	65.931
442.63	63.244
442.98	65.183
443.33	62.935
443.68	64.481
444.03	63.202
444.39	63.291
444.74	65.639
445.09	64.367
445.44	63.040
445.79	63.384
446.15	61.885
446.50	64.136
446.85	64.388
447.20	63.029
447.55	63.987
447.91	64.589
448.26	63.606
448.61	63.652
448.96	64.064
449.31	63.611
449.66	63.253
450.02	62.507
450.37	61.621
450.72	63.283
451.07	61.913
451.42	61.459
451.77	62.654
452.12	61.374
452.47	61.816
452.83	63.112
453.18	61.553
453.53	62.523
453.88	62.138
454.23	61.387
454.58	62.023
454.93	63.764
455.28	61.284
455.63	61.954
455.98	62.262
456.34	62.249
456.69	61.866
457.04	62.353
457.39	61.660
457.74	61.405
458.09	60.092
458.44	61.288
458.79	59.707
459.14	61.343
459.49	59.837
459.84	58.892
460.19	61.402
460.54	58.796
460.89	60.724
461.24	60.777
461.59	60.895
461.94	60.419
462.29	60.475
462.64	60.051
462.99	58.751
463.34	61.333
463.69	59.725
464.04	58.551
464.39	59.536
464.74	58.764
465.09	58.745
465.44	57.507
465.79	58.949
466.14	57.854
466.49	57.341
466.84	58.377
467.19	58.781
467.54	59.375
467.89	58.283
468.24	57.592
468.59	57.692
468.94	57.544
469.29	58.805
469.64	59.170
469.99	58.254
470.34	59.511
470.68	57.974
471.03	57.551
471.38	58.860
471.73	57.362
472.08	58.289
472.43	56.847
472.78	57.340
473.13	56.611
473.48	57.553
473.83	57.866
474.17	57.747
474.52	56.824
474.87	56.801
475.22	56.703
475.57	56.206
475.92	56.187
476.27	56.032
476.61	55.598
476.96	55.910
477.31	54.840
477.66	56.783
478.01	54.522
478.36	55.473
478.70	54.621
479.05	54.420
479.40	54.197
479.75	55.872
480.10	55.268
480.45	53.403
480.79	54.515
481.14	54.697
481.49	54.817
481.84	53.818
482.19	55.020
482.53	53.440
482.88	54.816
483.23	55.374
483.58	54.550
483.92	55.530
484.27	52.462
484.62	53.190
484.97	52.661
485.31	54.178
485.66	51.745
486.01	50.700
486.36	50.161
486.70	51.171
487.05	51.556
487.40	51.685
487.75	53.532
488.09	53.806
488.44	53.169
488.79	54.828
489.13	54.163
489.48	54.038
489.83	53.259
490.17	52.915
490.52	52.436
490.87	51.877
491.22	52.433
491.56	51.207
491.91	52.443
492.26	51.677
492.60	51.935
492.95	50.795
493.30	52.196
493.64	51.330
493.99	51.207
494.34	52.451
494.68	51.374
495.03	51.128
495.37	51.419
495.72	51.852
496.07	51.183
496.41	51.726
496.76	51.099
497.11	51.824
497.45	51.141
497.80	50.912
498.14	50.483
498.49	50.585
498.84	51.103
499.18	50.238
499.53	50.237
499.87	49.907
500.22	50.259
500.56	51.893
500.91	50.192
501.26	49.502
501.60	50.166
501.95	49.083
502.29	52.109
502.64	50.093
502.98	50.444
503.33	49.177
503.67	49.745
504.02	50.234
504.36	49.883
504.71	50.318
505.06	49.157
505.40	49.490
505.75	48.361
506.09	49.174
506.44	50.715
506.78	49.878
507.13	50.480
507.47	49.343
507.82	50.051
508.16	49.645
508.51	50.431
508.85	48.709
509.19	49.133
509.54	48.316
509.88	48.377
510.23	48.432
510.57	49.794
510.92	49.197
511.26	48.510
511.61	49.741
511.95	48.069
512.30	48.462
512.64	49.167
512.98	48.017
513.33	48.126
513.67	47.919
514.02	48.160
514.36	50.027
514.70	49.253
515.05	49.470
515.39	48.345
515.74	48.930
516.08	48.575
516.42	49.223
516.77	47.882
517.11	48.724
517.46	47.178
517.80	48.142
518.14	47.829
518.49	48.891
518.83	47.443
519.17	47.633
519.52	46.916
519.86	46.948
520.20	48.439
520.55	48.713
520.89	49.331
521.23	47.226
521.58	46.879
521.92	48.561
522.26	46.858
522.61	47.726
522.95	46.716
523.29	46.622
523.64	47.744
523.98	48.244
524.32	47.587
524.66	46.723
525.01	47.426
525.35	46.964
525.69	46.367
526.04	46.542
526.38	46.248
526.72	45.951
527.06	48.274
527.41	44.926
527.75	47.524
528.09	47.848
528.43	46.973
528.78	46.343
529.12	46.545
529.46	47.397
529.80	46.163
530.15	46.542
530.49	45.231
530.83	45.949
531.17	46.606
531.51	48.379
531.86	46.581
532.20	47.197
532.54	46.060
532.88	45.122
533.22	44.909
533.57	45.432
533.91	44.431
534.25	45.079
534.59	46.004
534.93	44.854
535.27	45.383
535.62	45.788
535.96	45.700
536.30	46.217
536.64	44.881
536.98	45.654
537.32	45.227
537.66	45.733
538.01	46.083
538.35	45.701
538.69	45.182
539.03	44.444
539.37	44.281
539.71	44.070
540.05	44.837
540.39	44.651
540.73	44.567
541.07	45.036
541.42	45.988
541.76	44.968
542.10	44.890
542.44	45.828
542.78	44.071
543.12	43.314
543.46	45.115
543.80	45.283
544.14	44.159
544.48	44.000
544.82	44.772
545.16	45.543
545.50	43.252
545.84	44.758
546.18	44.512
546.52	45.492
546.86	45.842
547.20	44.842
547.54	44.623
547.88	43.686
548.22	43.773
548.56	44.403
548.90	43.854
549.24	44.444
549.58	43.997
549.92	43.338
550.26	46.023
550.60	43.499
550.94	44.155
551.28	42.794
551.62	45.075
551.96	43.228
552.30	43.959
552.64	43.070
552.98	44.542
553.32	43.763
553.66	44.035
554.00	43.995
554.34	42.926
554.68	44.063
555.02	42.525
555.36	42.937
555.69	42.625
556.03	43.540
556.37	42.906
556.71	43.520
557.05	42.717
557.39	44.297
557.73	42.131
558.07	43.655
558.41	43.994
558.75	43.130
559.08	43.699
559.42	43.008
559.76	43.162
560.10	43.183
560.44	42.278
560.78	41.583
561.12	41.887
561.45	42.243
561.79	42.123
562.13	41.851
562.47	43.306
562.81	43.096
563.15	41.940
563.48	41.844
563.82	42.466
564.16	42.446
564.50	42.122
564.84	41.846
565.17	41.506
565.51	41.597
565.85	41.053
566.19	40.263
566.52	41.735
566.86	40.145
567.20	40.920
567.54	41.324
567.88	41.173
568.21	41.164
568.55	40.040
568.89	41.196
569.23	40.152
569.56	38.866
569.90	39.283
570.24	38.608
570.57	39.408
570.91	37.654
571.25	38.450
571.59	39.087
571.92	39.286
572.26	40.035
572.60	39.790
572.93	39.310
573.27	39.988
573.61	39.280
573.95	38.889
574.28	38.367
574.62	38.946
574.96	38.686
575.29	38.749
575.63	39.126
575.97	39.677
576.30	39.060
576.64	39.399
576.98	39.256
577.31	38.678
577.65	38.393
577.98	37.656
578.32	38.443
578.66	38.637
578.99	38.964
579.33	38.949
579.67	38.093
580.00	39.031
580.34	39.393
580.67	38.691
581.01	38.251
581.35	38.515
581.68	38.702
582.02	37.555
582.35	37.848
582.69	37.787
583.02	38.104
583.36	38.852
583.70	39.710
584.03	39.289
584.37	39.341
584.70	39.133
585.04	38.845
585.37	37.512
585.71	38.228
586.04	37.763
586.38	38.662
586.72	38.194
587.05	38.060
587.39	37.704
587.72	37.980
588.06	38.074
588.39	38.656
588.73	38.076
589.06	38.797
589.40	38.620
589.73	38.930
590.07	38.078
590.40	38.254
590.73	38.954
591.07	39.601
591.40	39.182
591.74	39.221
592.07	38.045
592.41	38.776
592.74	37.341
593.08	37.575
593.41	37.457
593.75	36.415
594.08	37.546
594.41	38.035
594.75	37.893
595.08	37.759
595.42	37.548
595.75	38.390
596.09	38.415
596.42	38.271
596.75	38.624
597.09	38.918
597.42	37.015
597.75	38.292
598.09	38.000
598.42	37.844
598.76	37.576
599.09	36.830
599.42	36.754
599.76	38.507
600.09	37.341
600.42	36.523
600.76	36.571
601.09	37.013
601.42	37.367
601.76	37.761
602.09	38.024
602.42	38.137
602.76	37.727
603.09	36.271
603.42	37.759
603.76	37.005
604.09	37.107
604.42	37.383
604.76	37.790
605.09	36.566
605.42	37.110
605.75	36.631
606.09	36.966
606.42	36.984
606.75	37.370
607.09	37.045
607.42	36.970
607.75	36.878
608.08	37.386
608.42	37.517
608.75	36.429
609.08	36.586
609.41	37.887
609.75	37.065
610.08	37.088
610.41	36.592
610.74	37.323
611.07	37.204
611.41	37.291
611.74	36.903
612.07	37.164
612.40	36.674
612.73	37.053
613.07	37.716
613.40	37.019
613.73	36.602
614.06	36.828
614.39	36.654
614.72	35.737
615.06	37.237
615.39	35.934
615.72	35.992
616.05	36.257
616.38	36.298
616.71	38.420
617.05	36.572
617.38	36.921
617.71	35.375
618.04	37.200
618.37	36.132
618.70	36.714
619.03	37.303
619.36	36.796
619.69	37.817
620.03	37.363
620.36	37.032
620.69	36.438
621.02	37.021
621.35	36.883
621.68	36.215
622.01	37.074
622.34	37.595
622.67	38.175
623.00	35.583
623.33	36.240
623.66	36.097
623.99	36.230
624.32	36.805
624.65	35.311
624.99	35.836
625.32	35.409
625.65	36.739
625.98	36.818
626.31	37.092
626.64	37.061
626.97	37.905
627.30	36.658
627.63	36.833
627.96	38.099
628.29	36.658
628.62	36.688
628.95	36.698
629.28	35.766
629.61	37.672
629.94	38.095
630.26	37.083
630.59	36.797
