SpectraSuite Data File
++++++++++++++++++++++++++++++++++++
Date: Wed May 13 20:40:37 PDT 2015
User: schluterlab
Dark Spectrum Present: Yes
Reference Spectrum Present: Yes
Number of Sampled Component Spectra: 1
Spectrometers: USB2E3373
Integration Time (usec): 3000 (USB2E3373)
Spectra Averaged: 3 (USB2E3373)
Boxcar Smoothing: 0 (USB2E3373)
Correct for Electrical Dark: No (USB2E3373)
Strobe/Lamp Enabled: No (USB2E3373)
Correct for Detector Non-linearity: No (USB2E3373)
Correct for Stray Light: No (USB2E3373)
Number of Pixels in Processed Spectrum: 2048
>>>>>Begin Processed Spectral Data<<<<<
178.53	0.000
178.91	-975.000
179.29	-1050.000
179.67	-150.000
180.04	-975.000
180.42	1650.000
180.80	580.000
181.18	-825.000
181.56	414.286
181.94	0.000
182.31	-442.857
182.69	1300.000
183.07	-312.500
183.45	-355.556
183.83	363.636
184.20	-240.000
184.58	1450.000
184.96	3800.000
185.34	-700.000
185.72	-375.000
186.09	-1600.000
186.47	2000.000
186.85	1500.000
187.23	3600.000
187.61	-1100.000
187.98	950.000
188.36	372.727
188.74	327.273
189.12	-620.000
189.49	490.000
189.87	-3500.000
190.25	-950.000
190.63	300.000
191.00	292.308
191.38	533.333
191.76	-550.000
192.14	1125.000
192.51	412.500
192.89	716.667
193.27	312.500
193.65	-725.000
194.02	360.000
194.40	680.000
194.78	400.000
195.15	316.667
195.53	570.000
195.91	-1550.000
196.29	212.500
196.66	215.789
197.04	-180.000
197.42	0.000
197.79	400.000
198.17	-3100.000
198.55	471.429
198.92	412.500
199.30	800.000
199.68	0.000
200.05	227.778
200.43	571.429
200.81	2500.000
201.18	1133.333
201.56	-933.333
201.94	488.889
202.31	444.444
202.69	291.667
203.07	390.000
203.44	0.000
203.82	625.000
204.19	628.571
204.57	278.571
204.95	512.500
205.32	1133.333
205.70	400.000
206.08	242.857
206.45	1950.000
206.83	212.500
207.20	600.000
207.58	360.000
207.96	216.667
208.33	462.500
208.71	-450.000
209.08	514.286
209.46	522.222
209.84	363.636
210.21	-800.000
210.59	950.000
210.96	-362.500
211.34	2100.000
211.71	340.000
212.09	416.667
212.46	0.000
212.84	833.333
213.22	1225.000
213.59	-3600.000
213.97	650.000
214.34	714.286
214.72	327.273
215.09	580.000
215.47	-1400.000
215.84	-1900.000
216.22	966.667
216.59	235.714
216.97	400.000
217.34	363.636
217.72	-366.667
218.09	0.000
218.47	-3500.000
218.84	422.222
219.22	542.857
219.59	766.667
219.97	-500.000
220.34	560.000
220.72	-1166.667
221.09	321.429
221.47	875.000
221.84	-616.667
222.22	0.000
222.59	750.000
222.97	-1450.000
223.34	860.000
223.72	323.077
224.09	880.000
224.46	1600.000
224.84	-2900.000
225.21	-800.000
225.59	-3300.000
225.96	460.000
226.34	180.000
226.71	2050.000
227.08	400.000
227.46	340.000
227.83	-850.000
228.21	-1900.000
228.58	377.778
228.95	-1600.000
229.33	-1300.000
229.70	1200.000
230.08	642.857
230.45	-500.000
230.82	333.333
231.20	666.667
231.57	500.000
231.95	358.333
232.32	159.091
232.69	272.727
233.07	442.857
233.44	230.769
233.81	-1100.000
234.19	178.947
234.56	291.667
234.93	283.333
235.31	300.000
235.68	184.615
236.05	257.143
236.43	130.303
236.80	189.474
237.17	1900.000
237.55	133.333
237.92	135.714
238.29	185.714
238.67	83.871
239.04	124.138
239.41	102.778
239.79	65.217
240.16	88.095
240.53	77.273
240.91	64.706
241.28	76.000
241.65	54.000
242.02	56.522
242.40	54.839
242.77	60.000
243.14	43.011
243.51	53.933
243.89	38.824
244.26	33.333
244.63	35.484
245.00	29.787
245.38	25.743
245.75	29.907
246.12	26.606
246.49	33.577
246.87	32.800
247.24	22.308
247.61	26.429
247.98	23.529
248.36	12.838
248.73	20.382
249.10	20.382
249.47	20.339
249.84	21.390
250.22	18.717
250.59	18.343
250.96	17.677
251.33	19.905
251.70	15.347
252.08	16.667
252.45	13.453
252.82	17.391
253.19	15.745
253.56	13.725
253.94	17.427
254.31	15.234
254.68	15.769
255.05	15.129
255.42	11.789
255.79	11.029
256.16	16.606
256.54	12.721
256.91	13.879
257.28	8.633
257.65	9.901
258.02	11.491
258.39	9.779
258.76	10.033
259.14	11.012
259.51	8.511
259.88	8.696
260.25	12.689
260.62	9.827
260.99	11.801
261.36	11.712
261.73	10.315
262.10	7.849
262.47	14.085
262.85	9.471
263.22	8.262
263.59	12.251
263.96	10.165
264.33	8.094
264.70	8.947
265.07	11.509
265.44	7.828
265.81	9.002
266.18	6.281
266.55	6.585
266.92	7.125
267.29	9.259
267.66	8.257
268.03	9.091
268.40	7.944
268.77	6.205
269.14	5.631
269.51	9.481
269.88	6.993
270.25	7.449
270.62	7.416
270.99	9.892
271.36	11.159
271.73	6.542
272.10	6.304
272.47	7.957
272.84	8.225
273.21	7.757
273.58	7.424
273.95	7.966
274.32	7.025
274.69	8.994
275.06	8.268
275.43	7.447
275.80	6.814
276.17	6.925
276.54	7.277
276.91	7.312
277.28	6.445
277.65	8.124
278.02	3.934
278.39	8.203
278.76	7.636
279.13	6.604
279.50	7.076
279.87	9.163
280.23	6.587
280.60	4.255
280.97	5.176
281.34	7.257
281.71	7.091
282.08	6.526
282.45	6.000
282.82	6.927
283.19	4.456
283.56	6.842
283.92	7.276
284.29	6.349
284.66	4.719
285.03	5.063
285.40	5.986
285.77	6.229
286.14	5.009
286.51	7.833
286.87	4.957
287.24	5.863
287.61	4.976
287.98	6.818
288.35	6.022
288.72	6.386
289.08	5.947
289.45	5.272
289.82	5.691
290.19	3.925
290.56	4.747
290.93	3.323
291.29	5.215
291.66	5.310
292.03	6.831
292.40	6.608
292.77	4.290
293.13	5.373
293.50	5.394
293.87	4.593
294.24	4.148
294.60	5.240
294.97	5.669
295.34	6.206
295.71	5.682
296.08	4.131
296.44	4.127
296.81	4.095
297.18	7.046
297.55	5.013
297.91	3.958
298.28	6.827
298.65	4.700
299.02	4.875
299.38	3.453
299.75	1.078
300.12	4.087
300.48	4.750
300.85	4.192
301.22	3.949
301.59	3.283
301.95	3.526
302.32	3.209
302.69	3.823
303.05	3.515
303.42	3.704
303.79	2.831
304.15	2.681
304.52	4.056
304.89	3.368
305.25	3.828
305.62	4.643
305.99	4.723
306.35	3.915
306.72	4.709
307.09	4.772
307.45	4.167
307.82	1.786
308.19	3.753
308.55	4.099
308.92	4.296
309.29	2.640
309.65	3.499
310.02	4.440
310.38	3.118
310.75	4.224
311.12	4.811
311.48	4.702
311.85	3.983
312.22	2.081
312.58	2.911
312.95	4.752
313.31	2.816
313.68	3.534
314.05	5.424
314.41	3.819
314.78	4.230
315.14	3.078
315.51	4.016
315.87	3.465
316.24	4.469
316.61	3.801
316.97	3.229
317.34	2.740
317.70	3.537
318.07	4.042
318.43	3.718
318.80	4.686
319.16	3.578
319.53	3.002
319.89	3.238
320.26	4.400
320.62	3.869
320.99	3.737
321.35	3.939
321.72	4.928
322.08	4.047
322.45	4.080
322.81	4.554
323.18	4.046
323.54	4.174
323.91	4.906
324.27	4.398
324.64	3.541
325.00	3.607
325.37	4.004
325.73	4.399
326.10	3.707
326.46	3.226
326.83	4.228
327.19	4.184
327.56	4.007
327.92	3.325
328.29	3.904
328.65	4.328
329.01	3.069
329.38	3.885
329.74	3.601
330.11	3.016
330.47	3.673
330.84	5.331
331.20	3.188
331.56	4.954
331.93	3.796
332.29	3.993
332.66	6.018
333.02	3.473
333.38	4.607
333.75	5.080
334.11	4.537
334.48	3.904
334.84	4.228
335.20	3.818
335.57	4.261
335.93	4.286
336.29	3.114
336.66	4.238
337.02	2.805
337.38	4.815
337.75	3.119
338.11	2.954
338.47	3.775
338.84	4.308
339.20	2.936
339.56	5.201
339.93	2.636
340.29	3.895
340.65	3.743
341.02	4.276
341.38	4.181
341.74	3.421
342.11	3.493
342.47	3.436
342.83	4.966
343.20	4.675
343.56	4.128
343.92	3.684
344.28	3.656
344.65	3.611
345.01	4.125
345.37	2.830
345.73	3.892
346.10	4.092
346.46	3.644
346.82	3.954
347.19	2.840
347.55	3.530
347.91	4.126
348.27	4.355
348.63	3.512
349.00	2.508
349.36	3.530
349.72	4.491
350.08	4.052
350.45	4.068
350.81	3.981
351.17	3.728
351.53	2.457
351.89	2.723
352.26	3.867
352.62	4.170
352.98	3.485
353.34	3.944
353.70	2.209
354.07	3.790
354.43	3.333
354.79	2.896
355.15	3.990
355.51	4.876
355.87	4.163
356.24	3.257
356.60	3.528
356.96	2.816
357.32	3.434
357.68	3.465
358.04	3.405
358.40	3.325
358.77	3.599
359.13	3.078
359.49	3.294
359.85	2.460
360.21	2.791
360.57	4.047
360.93	3.231
361.29	3.628
361.66	2.864
362.02	3.582
362.38	3.194
362.74	3.051
363.10	3.405
363.46	2.641
363.82	3.326
364.18	3.744
364.54	3.938
364.90	4.178
365.26	3.309
365.62	3.506
365.98	2.703
366.35	3.295
366.71	3.760
367.07	3.569
367.43	3.266
367.79	4.069
368.15	3.807
368.51	1.599
368.87	3.926
369.23	2.487
369.59	2.969
369.95	2.794
370.31	4.487
370.67	2.899
371.03	3.970
371.39	3.499
371.75	3.382
372.11	3.414
372.47	3.959
372.83	3.170
373.19	3.107
373.55	2.513
373.91	4.050
374.27	3.574
374.63	3.200
374.99	3.531
375.35	2.722
375.71	2.536
376.07	3.909
376.42	2.613
376.78	4.042
377.14	3.189
377.50	3.974
377.86	2.926
378.22	2.845
378.58	2.694
378.94	2.891
379.30	2.608
379.66	3.046
380.02	3.071
380.38	1.821
380.74	2.941
381.09	3.362
381.45	2.827
381.81	3.501
382.17	3.439
382.53	2.956
382.89	2.716
383.25	2.752
383.61	2.974
383.97	3.189
384.32	2.932
384.68	2.478
385.04	3.319
385.40	2.724
385.76	2.457
386.12	2.915
386.48	3.335
386.83	2.373
387.19	2.845
387.55	3.340
387.91	2.600
388.27	2.330
388.62	3.442
388.98	2.396
389.34	3.504
389.70	2.575
390.06	3.359
390.42	2.853
390.77	3.244
391.13	2.616
391.49	2.982
391.85	2.610
392.20	2.271
392.56	2.778
392.92	2.707
393.28	2.012
393.64	2.758
393.99	2.566
394.35	2.730
394.71	2.635
395.07	2.866
395.42	2.596
395.78	2.926
396.14	2.731
396.50	3.446
396.85	3.179
397.21	2.651
397.57	2.914
397.92	3.185
398.28	1.850
398.64	3.106
399.00	2.966
399.35	2.538
399.71	2.778
400.07	2.898
400.42	2.945
400.78	3.257
401.14	2.195
401.49	2.925
401.85	2.541
402.21	2.575
402.57	2.961
402.92	2.585
403.28	2.811
403.63	2.970
403.99	2.229
404.35	2.848
404.70	2.158
405.06	1.864
405.42	2.121
405.77	2.629
406.13	3.104
406.49	2.720
406.84	3.367
407.20	1.950
407.55	2.361
407.91	2.667
408.27	1.723
408.62	2.890
408.98	2.574
409.34	2.768
409.69	2.323
410.05	2.478
410.40	2.813
410.76	2.748
411.11	3.076
411.47	2.684
411.83	2.871
412.18	1.979
412.54	2.428
412.89	3.554
413.25	3.070
413.60	2.285
413.96	2.125
414.31	2.369
414.67	2.978
415.03	2.252
415.38	2.706
415.74	2.379
416.09	3.135
416.45	1.740
416.80	2.710
417.16	3.217
417.51	2.721
417.87	2.441
418.22	2.839
418.58	2.905
418.93	3.133
419.29	2.801
419.64	2.771
420.00	2.988
420.35	3.130
420.71	3.168
421.06	2.745
421.42	2.398
421.77	2.635
422.12	1.741
422.48	2.051
422.83	2.388
423.19	2.652
423.54	2.438
423.90	2.551
424.25	2.680
424.61	1.905
424.96	2.566
425.31	2.990
425.67	2.303
426.02	2.686
426.38	2.320
426.73	3.101
427.09	2.249
427.44	2.185
427.79	2.358
428.15	3.631
428.50	2.867
428.85	2.920
429.21	2.154
429.56	1.763
429.92	2.516
430.27	1.639
430.62	1.895
430.98	2.854
431.33	2.784
431.68	2.461
432.04	2.343
432.39	2.113
432.74	1.975
433.10	1.981
433.45	2.974
433.80	2.494
434.16	2.618
434.51	3.000
434.86	2.737
435.22	2.112
435.57	2.249
435.92	2.106
436.28	2.610
436.63	3.201
436.98	2.175
437.34	2.922
437.69	2.625
438.04	2.698
438.39	2.448
438.75	2.905
439.10	2.737
439.45	2.361
439.81	1.994
440.16	2.484
440.51	2.226
440.86	2.432
441.22	2.336
441.57	2.176
441.92	2.815
442.27	2.530
442.63	2.212
442.98	3.042
443.33	2.717
443.68	2.788
444.03	2.147
444.39	1.558
444.74	2.056
445.09	2.534
445.44	1.914
445.79	2.474
446.15	3.070
446.50	2.369
446.85	2.518
447.20	2.142
447.55	2.178
447.91	1.765
448.26	2.615
448.61	2.261
448.96	2.769
449.31	2.587
449.66	2.645
450.02	1.838
450.37	2.324
450.72	1.918
451.07	1.523
451.42	2.067
451.77	2.642
452.12	2.714
452.47	2.114
452.83	2.273
453.18	2.139
453.53	2.474
453.88	1.654
454.23	2.630
454.58	3.150
454.93	3.369
455.28	1.559
455.63	2.609
455.98	2.976
456.34	2.324
456.69	3.006
457.04	2.291
457.39	2.046
457.74	2.438
458.09	2.760
458.44	2.223
458.79	2.223
459.14	2.652
459.49	2.510
459.84	2.327
460.19	2.593
460.54	2.720
460.89	2.743
461.24	2.247
461.59	3.486
461.94	1.850
462.29	3.145
462.64	2.361
462.99	2.017
463.34	3.067
463.69	2.502
464.04	2.435
464.39	2.783
464.74	3.209
465.09	2.835
465.44	2.105
465.79	2.125
466.14	2.518
466.49	2.058
466.84	2.452
467.19	2.535
467.54	2.938
467.89	1.801
468.24	3.025
468.59	3.053
468.94	2.749
469.29	2.442
469.64	3.949
469.99	2.774
470.34	2.378
470.68	2.514
471.03	2.245
471.38	2.571
471.73	3.398
472.08	2.961
472.43	2.575
472.78	2.436
473.13	3.273
473.48	2.559
473.83	2.622
474.17	2.302
474.52	2.916
474.87	3.094
475.22	2.844
475.57	2.149
475.92	2.177
476.27	1.860
476.61	2.648
476.96	1.979
477.31	1.779
477.66	2.133
478.01	2.509
478.36	2.327
478.70	1.973
479.05	2.343
479.40	1.689
479.75	1.779
480.10	2.137
480.45	2.380
480.79	1.863
481.14	1.957
481.49	2.373
481.84	1.738
482.19	1.863
482.53	2.339
482.88	2.420
483.23	2.150
483.58	2.639
483.92	2.484
484.27	1.743
484.62	1.983
484.97	2.128
485.31	1.918
485.66	0.983
486.01	0.976
486.36	0.918
486.70	1.116
487.05	1.083
487.40	1.328
487.75	1.232
488.09	1.668
488.44	1.501
488.79	1.664
489.13	1.719
489.48	1.672
489.83	2.201
490.17	1.885
490.52	1.904
490.87	1.900
491.22	2.092
491.56	1.595
491.91	2.001
492.26	1.791
492.60	2.166
492.95	1.450
493.30	2.056
493.64	1.913
493.99	1.811
494.34	1.850
494.68	2.518
495.03	2.256
495.37	2.094
495.72	1.754
496.07	2.088
496.41	1.416
496.76	1.847
497.11	2.071
497.45	1.863
497.80	2.495
498.14	1.643
498.49	1.463
498.84	2.157
499.18	1.905
499.53	2.422
499.87	1.678
500.22	2.261
500.56	2.427
500.91	1.683
501.26	1.991
501.60	1.946
501.95	1.558
502.29	2.109
502.64	2.142
502.98	2.338
503.33	1.874
503.67	1.810
504.02	1.777
504.36	2.153
504.71	2.003
505.06	2.217
505.40	1.847
505.75	1.495
506.09	2.041
506.44	1.727
506.78	1.802
507.13	2.171
507.47	2.525
507.82	2.229
508.16	2.736
508.51	1.826
508.85	1.787
509.19	2.143
509.54	2.245
509.88	2.009
510.23	1.902
510.57	2.477
510.92	2.952
511.26	2.158
511.61	2.593
511.95	1.775
512.30	1.644
512.64	1.988
512.98	2.358
513.33	2.677
513.67	2.775
514.02	1.353
514.36	2.185
514.70	2.656
515.05	1.562
515.39	2.243
515.74	2.083
516.08	3.298
516.42	2.386
516.77	3.400
517.11	1.942
517.46	2.483
517.80	2.439
518.14	1.737
518.49	2.392
518.83	2.898
519.17	2.309
519.52	1.868
519.86	3.195
520.20	2.948
520.55	2.873
520.89	2.190
521.23	3.860
521.58	2.041
521.92	2.939
522.26	2.135
522.61	2.243
522.95	1.903
523.29	2.009
523.64	2.500
523.98	2.834
524.32	1.749
524.66	2.465
525.01	2.819
525.35	2.292
525.69	2.340
526.04	2.305
526.38	2.624
526.72	3.374
527.06	2.888
527.41	1.733
527.75	2.379
528.09	1.220
528.43	2.167
528.78	2.581
529.12	2.424
529.46	2.633
529.80	3.280
530.15	3.427
530.49	3.015
530.83	2.468
531.17	3.003
531.51	3.632
531.86	2.000
532.20	2.868
532.54	3.395
532.88	2.824
533.22	2.936
533.57	2.346
533.91	2.709
534.25	2.734
534.59	2.685
534.93	2.736
535.27	2.173
535.62	2.747
535.96	2.260
536.30	2.034
536.64	2.962
536.98	2.787
537.32	2.567
537.66	2.600
538.01	3.489
538.35	2.715
538.69	3.255
539.03	1.884
539.37	2.045
539.71	1.167
540.05	2.614
540.39	2.060
540.73	2.846
541.07	3.374
541.42	3.066
541.76	3.548
542.10	3.428
542.44	3.046
542.78	2.964
543.12	2.623
543.46	4.066
543.80	3.318
544.14	2.439
544.48	3.111
544.82	3.143
545.16	2.147
545.50	2.828
545.84	2.957
546.18	3.636
546.52	2.684
546.86	3.299
547.20	3.237
547.54	3.273
547.88	3.635
548.22	2.989
548.56	2.893
548.90	3.137
549.24	1.751
549.58	3.070
549.92	3.091
550.26	2.628
550.60	2.974
550.94	2.817
551.28	1.756
551.62	2.301
551.96	2.246
552.30	3.140
552.64	3.245
552.98	3.390
553.32	2.967
553.66	3.476
554.00	2.196
554.34	2.761
554.68	3.433
555.02	2.609
555.36	3.062
555.69	2.977
556.03	3.432
556.37	2.797
556.71	2.251
557.05	2.591
557.39	3.009
557.73	2.541
558.07	2.756
558.41	2.243
558.75	2.939
559.08	2.759
559.42	2.494
559.76	3.309
560.10	2.784
560.44	2.725
560.78	2.794
561.12	2.177
561.45	3.259
561.79	3.098
562.13	2.549
562.47	2.391
562.81	3.138
563.15	2.676
563.48	2.520
563.82	2.218
564.16	1.831
564.50	2.018
564.84	2.528
565.17	2.896
565.51	2.748
565.85	2.982
566.19	2.004
566.52	2.470
566.86	2.230
567.20	2.300
567.54	2.340
567.88	2.390
568.21	2.751
568.55	2.022
568.89	1.800
569.23	1.738
569.56	1.903
569.90	1.736
570.24	1.615
570.57	1.360
570.91	1.681
571.25	1.482
571.59	1.473
571.92	1.440
572.26	1.271
572.60	1.441
572.93	1.529
573.27	1.597
573.61	1.535
573.95	1.499
574.28	1.055
574.62	1.045
574.96	1.171
575.29	1.164
575.63	1.296
575.97	1.120
576.30	1.699
576.64	1.036
576.98	1.045
577.31	0.786
577.65	1.107
577.98	1.045
578.32	1.132
578.66	1.237
578.99	1.301
579.33	1.017
579.67	1.046
580.00	1.199
580.34	1.187
580.67	1.276
581.01	1.349
581.35	0.961
581.68	1.041
582.02	0.822
582.35	0.814
582.69	1.175
583.02	1.067
583.36	1.153
583.70	1.199
584.03	1.176
584.37	1.423
584.70	0.967
585.04	1.370
585.37	1.514
585.71	1.457
586.04	0.991
586.38	1.019
586.72	1.657
587.05	1.385
587.39	0.976
587.72	1.443
588.06	1.067
588.39	1.454
588.73	1.291
589.06	1.683
589.40	1.616
589.73	1.478
590.07	1.993
590.40	1.388
590.73	1.522
591.07	1.587
591.40	1.603
591.74	2.251
592.07	1.832
592.41	2.067
592.74	1.798
593.08	1.699
593.41	1.455
593.75	1.593
594.08	1.374
594.41	1.661
594.75	1.331
595.08	1.539
595.42	1.506
595.75	1.353
596.09	2.028
596.42	2.200
596.75	2.068
597.09	2.381
597.42	1.349
597.75	1.897
598.09	2.348
598.42	2.019
598.76	1.662
599.09	1.520
599.42	1.492
599.76	1.611
600.09	1.676
600.42	1.753
600.76	1.821
601.09	1.384
601.42	1.750
601.76	1.594
602.09	1.660
602.42	1.951
602.76	2.539
603.09	1.810
603.42	1.718
603.76	1.372
604.09	1.124
604.42	1.753
604.76	2.573
605.09	1.573
605.42	2.180
605.75	1.863
606.09	1.383
606.42	1.635
606.75	1.991
607.09	2.470
607.42	1.455
607.75	1.688
608.08	1.607
608.42	2.107
608.75	2.029
609.08	1.850
609.41	2.523
609.75	2.382
610.08	2.215
610.41	1.164
610.74	1.561
611.07	2.322
611.41	2.208
611.74	2.665
612.07	2.847
612.40	2.676
612.73	2.474
613.07	2.155
613.40	2.580
613.73	1.468
614.06	3.011
614.39	2.674
614.72	2.737
615.06	2.468
615.39	2.282
615.72	2.454
616.05	2.180
616.38	2.057
616.71	2.613
617.05	2.591
617.38	2.405
617.71	1.862
618.04	2.043
618.37	2.425
618.70	2.987
619.03	3.684
619.36	2.580
619.69	3.380
620.03	2.953
620.36	3.008
620.69	3.493
621.02	2.286
621.35	2.584
621.68	2.882
622.01	2.941
622.34	3.555
622.67	2.814
623.00	3.008
623.33	2.573
623.66	2.788
623.99	2.872
624.32	2.710
624.65	3.037
624.99	2.266
625.32	2.172
625.65	2.479
625.98	2.844
626.31	3.344
626.64	3.837
626.97	3.824
627.30	1.912
627.63	3.199
627.96	3.616
628.29	2.975
628.62	3.568
628.95	5.000
629.28	3.102
629.61	5.316
629.94	3.619
630.26	3.432
630.59	3.908
630.92	2.490
631.25	2.962
631.58	4.204
631.91	4.462
632.24	3.376
632.57	3.673
632.90	4.934
633.23	3.579
633.56	4.068
633.89	3.511
634.22	3.292
634.55	4.734
634.88	4.311
635.20	5.615
635.53	5.904
635.86	3.837
636.19	3.882
636.52	5.075
636.85	4.009
637.18	3.917
637.51	5.674
637.83	1.356
638.16	3.708
638.49	5.542
638.82	5.563
639.15	4.500
639.48	3.990
639.81	4.424
640.13	4.948
640.46	5.503
640.79	5.020
641.12	4.677
641.45	4.469
641.77	4.860
642.10	5.409
642.43	3.754
642.76	5.108
643.09	4.294
643.41	4.856
643.74	6.636
644.07	5.640
644.40	6.748
644.73	7.402
645.05	7.132
645.38	3.476
645.71	4.831
646.04	5.482
646.36	7.012
646.69	7.023
647.02	5.612
647.35	5.842
647.67	4.779
648.00	6.829
648.33	3.465
648.66	5.152
648.98	7.646
649.31	4.185
649.64	4.335
649.96	5.514
650.29	5.213
650.62	5.340
650.94	5.511
651.27	7.095
651.60	5.824
651.92	8.147
652.25	5.863
652.58	5.452
652.90	5.371
653.23	4.006
653.56	4.724
653.88	6.973
654.21	7.267
654.54	4.290
654.86	5.607
655.19	4.865
655.52	2.092
655.84	0.851
656.17	0.637
