SpectraSuite Data File
++++++++++++++++++++++++++++++++++++
Date: Wed May 13 21:03:37 PDT 2015
User: schluterlab
Dark Spectrum Present: Yes
Reference Spectrum Present: Yes
Number of Sampled Component Spectra: 1
Spectrometers: USB2E3373
Integration Time (usec): 3000 (USB2E3373)
Spectra Averaged: 3 (USB2E3373)
Boxcar Smoothing: 0 (USB2E3373)
Correct for Electrical Dark: No (USB2E3373)
Strobe/Lamp Enabled: No (USB2E3373)
Correct for Detector Non-linearity: No (USB2E3373)
Correct for Stray Light: No (USB2E3373)
Number of Pixels in Processed Spectrum: 2048
>>>>>Begin Processed Spectral Data<<<<<
178.53	0.000
178.91	-50.000
179.29	108.333
179.67	100.000
180.04	-300.000
180.42	140.000
180.80	1500.000
181.18	216.667
181.56	-150.000
181.94	-75.000
182.31	36.364
182.69	107.692
183.07	-160.000
183.45	150.000
183.83	177.778
184.20	-0.000
184.58	0.000
184.96	266.667
185.34	142.857
185.72	0.000
186.09	-400.000
186.47	-60.000
186.85	-120.000
187.23	250.000
187.61	1050.000
187.98	800.000
188.36	75.000
188.74	0.000
189.12	72.727
189.49	70.000
189.87	66.667
190.25	240.000
190.63	1000.000
191.00	20.000
191.38	100.000
191.76	225.000
192.14	108.333
192.51	15.789
192.89	266.667
193.27	275.000
193.65	-120.000
194.02	172.727
194.40	70.000
194.78	-200.000
195.15	20.000
195.53	-120.000
195.91	87.500
196.29	133.333
196.66	0.000
197.04	350.000
197.42	-20.000
197.79	-10.000
198.17	-37.500
198.55	-33.333
198.92	150.000
199.30	-233.333
199.68	-30.000
200.05	-150.000
200.43	66.667
200.81	700.000
201.18	-100.000
201.56	-66.667
201.94	550.000
202.31	-4.348
202.69	71.429
203.07	-100.000
203.44	-80.000
203.82	-233.333
204.19	40.000
204.57	0.000
204.95	-133.333
205.32	0.000
205.70	100.000
206.08	-50.000
206.45	16.667
206.83	200.000
207.20	-400.000
207.58	-10.000
207.96	-600.000
208.33	142.857
208.71	-700.000
209.08	87.500
209.46	375.000
209.84	0.000
210.21	130.000
210.59	1400.000
210.96	280.000
211.34	700.000
211.71	-250.000
212.09	-133.333
212.46	-40.000
212.84	133.333
213.22	150.000
213.59	-100.000
213.97	200.000
214.34	-50.000
214.72	-15.385
215.09	50.000
215.47	111.111
215.84	700.000
216.22	-12.500
216.59	-100.000
216.97	200.000
217.34	144.444
217.72	0.000
218.09	-33.333
218.47	300.000
218.84	-71.429
219.22	0.000
219.59	-66.667
219.97	-100.000
220.34	-12.500
220.72	-120.000
221.09	0.000
221.47	-50.000
221.84	-400.000
222.22	0.000
222.59	600.000
222.97	0.000
223.34	-8.333
223.72	100.000
224.09	-250.000
224.46	0.000
224.84	0.000
225.21	14.286
225.59	-50.000
225.96	-16.667
226.34	60.000
226.71	-28.571
227.08	600.000
227.46	-62.500
227.83	800.000
228.21	25.000
228.58	-150.000
228.95	35.294
229.33	25.000
229.70	25.000
230.08	38.462
230.45	-37.500
230.82	41.667
231.20	200.000
231.57	-150.000
231.95	700.000
232.32	100.000
232.69	23.529
233.07	-300.000
233.44	4.348
233.81	-250.000
234.19	12.500
234.56	26.667
234.93	0.000
235.31	21.053
235.68	-23.077
236.05	15.385
236.43	33.333
236.80	36.364
237.17	6.667
237.55	0.000
237.92	20.690
238.29	-11.111
238.67	22.222
239.04	32.258
239.41	12.766
239.79	46.809
240.16	32.558
240.53	33.929
240.91	37.500
241.28	44.643
241.65	19.355
242.02	30.263
242.40	39.130
242.77	33.333
243.14	26.923
243.51	36.170
243.89	33.654
244.26	42.453
244.63	19.231
245.00	32.292
245.38	29.412
245.75	33.607
246.12	39.098
246.49	24.390
246.87	31.092
247.24	31.081
247.61	33.775
247.98	33.974
248.36	28.994
248.73	29.213
249.10	32.828
249.47	32.258
249.84	34.737
250.22	32.338
250.59	30.374
250.96	33.636
251.33	25.359
251.70	35.983
252.08	31.799
252.45	30.041
252.82	31.559
253.19	33.852
253.56	34.173
253.94	34.164
254.31	29.225
254.68	33.893
255.05	32.673
255.42	32.867
255.79	33.129
256.16	35.647
256.54	33.651
256.91	31.646
257.28	30.818
257.65	29.618
258.02	31.378
258.39	34.503
258.76	29.942
259.14	32.955
259.51	29.213
259.88	38.211
260.25	30.556
260.62	35.112
260.99	33.156
261.36	31.347
261.73	31.852
262.10	34.351
262.47	32.840
262.85	31.841
263.22	31.282
263.59	34.026
263.96	31.630
264.33	31.731
264.70	33.721
265.07	34.491
265.44	35.402
265.81	33.867
266.18	32.574
266.55	32.314
266.92	33.686
267.29	33.128
267.66	31.635
268.03	32.716
268.40	28.390
268.77	34.711
269.14	33.469
269.51	33.881
269.88	32.383
270.25	34.110
270.62	34.836
270.99	33.268
271.36	33.532
271.73	35.743
272.10	30.857
272.47	33.397
272.84	32.480
273.21	32.681
273.58	32.787
273.95	32.642
274.32	33.209
274.69	31.876
275.06	34.099
275.43	31.262
275.80	32.801
276.17	30.939
276.54	29.840
276.91	33.449
277.28	31.408
277.65	29.895
278.02	33.750
278.39	32.504
278.76	31.605
279.13	32.247
279.50	30.345
279.87	30.072
280.23	32.072
280.60	32.526
280.97	30.195
281.34	30.599
281.71	32.683
282.08	32.991
282.45	33.115
282.82	31.789
283.19	31.250
283.56	31.719
283.92	32.416
284.29	31.357
284.66	31.631
285.03	30.293
285.40	30.967
285.77	33.483
286.14	31.763
286.51	33.433
286.87	30.615
287.24	30.236
287.61	31.476
287.98	30.882
288.35	28.316
288.72	29.412
289.08	28.917
289.45	28.341
289.82	30.862
290.19	30.014
290.56	27.131
290.93	28.177
291.29	28.865
291.66	29.918
292.03	28.338
292.40	28.668
292.77	27.845
293.13	29.707
293.50	28.497
293.87	29.200
294.24	27.513
294.60	28.869
294.97	29.365
295.34	25.989
295.71	25.624
296.08	24.738
296.44	26.786
296.81	24.970
297.18	26.750
297.55	25.000
297.91	25.590
298.28	27.361
298.65	24.384
299.02	25.885
299.38	25.276
299.75	25.361
300.12	24.535
300.48	24.678
300.85	26.328
301.22	25.087
301.59	24.413
301.95	23.810
302.32	24.387
302.69	24.068
303.05	25.028
303.42	23.182
303.79	26.604
304.15	25.520
304.52	24.946
304.89	23.699
305.25	23.600
305.62	23.427
305.99	25.245
306.35	24.869
306.72	23.194
307.09	24.818
307.45	25.453
307.82	24.211
308.19	23.720
308.55	24.258
308.92	24.754
309.29	23.524
309.65	23.776
310.02	23.161
310.38	24.898
310.75	23.866
311.12	24.490
311.48	25.420
311.85	24.213
312.22	24.565
312.58	24.251
312.95	24.975
313.31	24.702
313.68	25.286
314.05	25.331
314.41	24.976
314.78	25.806
315.14	25.185
315.51	25.119
315.87	25.487
316.24	25.528
316.61	25.753
316.97	24.815
317.34	24.955
317.70	26.048
318.07	27.329
318.43	26.287
318.80	24.171
319.16	26.083
319.53	25.179
319.89	25.384
320.26	26.525
320.62	26.321
320.99	27.035
321.35	25.351
321.72	27.334
322.08	28.229
322.45	27.845
322.81	28.928
323.18	28.265
323.54	28.159
323.91	27.733
324.27	28.623
324.64	27.439
325.00	27.734
325.37	28.925
325.73	27.273
326.10	28.259
326.46	28.595
326.83	27.751
327.19	29.268
327.56	29.815
327.92	29.525
328.29	29.967
328.65	30.675
329.01	29.464
329.38	30.087
329.74	30.472
330.11	30.568
330.47	30.035
330.84	31.498
331.20	29.291
331.56	30.163
331.93	31.438
332.29	31.277
332.66	28.475
333.02	30.235
333.38	30.439
333.75	30.546
334.11	31.597
334.48	29.904
334.84	30.830
335.20	30.189
335.57	28.808
335.93	29.983
336.29	30.823
336.66	30.427
337.02	31.043
337.38	30.026
337.75	31.352
338.11	30.145
338.47	29.452
338.84	30.842
339.20	31.041
339.56	30.034
339.93	30.424
340.29	29.718
340.65	31.565
341.02	30.449
341.38	29.899
341.74	29.160
342.11	29.562
342.47	29.372
342.83	29.984
343.20	31.303
343.56	30.499
343.92	30.707
344.28	29.708
344.65	30.122
345.01	30.589
345.37	30.428
345.73	31.046
346.10	30.658
346.46	29.593
346.82	30.979
347.19	30.459
347.55	29.645
347.91	30.008
348.27	30.205
348.63	30.288
349.00	30.425
349.36	30.455
349.72	30.008
350.08	30.343
350.45	30.384
350.81	29.969
351.17	30.716
351.53	30.793
351.89	29.309
352.26	30.502
352.62	29.612
352.98	29.633
353.34	30.274
353.70	30.530
354.07	29.569
354.43	30.482
354.79	31.731
355.15	29.658
355.51	30.372
355.87	31.587
356.24	30.819
356.60	30.493
356.96	30.391
357.32	30.960
357.68	31.245
358.04	30.256
358.40	30.233
358.77	30.581
359.13	30.350
359.49	29.674
359.85	30.174
360.21	30.532
360.57	31.179
360.93	29.742
361.29	31.754
361.66	30.979
362.02	30.022
362.38	30.281
362.74	30.747
363.10	30.875
363.46	29.899
363.82	30.820
364.18	31.182
364.54	30.416
364.90	30.314
365.26	30.219
365.62	30.753
365.98	31.388
366.35	30.780
366.71	30.171
367.07	30.404
367.43	30.244
367.79	31.619
368.15	31.435
368.51	30.028
368.87	30.565
369.23	31.246
369.59	32.347
369.95	31.495
370.31	30.056
370.67	30.268
371.03	31.106
371.39	31.441
371.75	31.643
372.11	31.054
372.47	31.651
372.83	30.721
373.19	31.439
373.55	31.720
373.91	32.037
374.27	31.397
374.63	31.366
374.99	30.850
375.35	31.507
375.71	30.910
376.07	31.666
376.42	31.551
376.78	32.497
377.14	31.593
377.50	32.138
377.86	31.607
378.22	31.922
378.58	31.652
378.94	33.688
379.30	32.355
379.66	31.874
380.02	31.740
380.38	30.422
380.74	32.158
381.09	32.630
381.45	32.769
381.81	33.210
382.17	31.821
382.53	32.492
382.89	32.388
383.25	32.901
383.61	33.232
383.97	33.312
384.32	32.073
384.68	33.868
385.04	32.010
385.40	34.371
385.76	31.691
386.12	33.312
386.48	32.978
386.83	32.353
387.19	33.683
387.55	33.231
387.91	34.440
388.27	32.676
388.62	33.958
388.98	33.667
389.34	32.957
389.70	33.211
390.06	32.625
390.42	34.278
390.77	34.273
391.13	32.828
391.49	33.523
391.85	33.546
392.20	33.396
392.56	33.714
392.92	32.768
393.28	33.062
393.64	34.067
393.99	31.640
394.35	33.272
394.71	34.295
395.07	32.956
395.42	34.857
395.78	34.041
396.14	33.418
396.50	33.672
396.85	34.672
397.21	33.958
397.57	33.540
397.92	34.251
398.28	34.010
398.64	32.848
399.00	34.208
399.35	34.279
399.71	33.722
400.07	34.759
400.42	33.229
400.78	33.535
401.14	33.538
401.49	33.613
401.85	34.091
402.21	35.789
402.57	34.273
402.92	34.731
403.28	34.459
403.63	33.726
403.99	33.845
404.35	34.663
404.70	34.804
405.06	34.234
405.42	34.548
405.77	33.813
406.13	34.114
406.49	34.152
406.84	34.554
407.20	34.221
407.55	35.130
407.91	34.150
408.27	34.186
408.62	34.684
408.98	33.662
409.34	34.777
409.69	34.893
410.05	34.826
410.40	34.267
410.76	34.477
411.11	34.515
411.47	35.965
411.83	34.560
412.18	33.879
412.54	35.338
412.89	34.545
413.25	34.336
413.60	35.235
413.96	34.519
414.31	36.067
414.67	33.778
415.03	34.506
415.38	34.676
415.74	34.958
416.09	36.219
416.45	35.817
416.80	34.966
417.16	35.290
417.51	35.164
417.87	35.251
418.22	34.454
418.58	35.414
418.93	34.589
419.29	36.040
419.64	34.669
420.00	35.810
420.35	34.668
420.71	35.710
421.06	35.178
421.42	35.462
421.77	35.145
422.12	35.129
422.48	35.224
422.83	34.968
423.19	35.480
423.54	35.571
423.90	35.095
424.25	36.280
424.61	36.291
424.96	35.305
425.31	34.156
425.67	36.390
426.02	37.456
426.38	36.007
426.73	35.736
427.09	35.710
427.44	35.056
427.79	35.036
428.15	35.413
428.50	34.260
428.85	35.670
429.21	35.734
429.56	35.600
429.92	35.815
430.27	35.583
430.62	34.995
430.98	35.590
431.33	36.539
431.68	36.422
432.04	35.831
432.39	34.988
432.74	34.457
433.10	36.142
433.45	35.799
433.80	35.517
434.16	35.664
434.51	34.565
434.86	35.984
435.22	35.427
435.57	35.135
435.92	36.912
436.28	35.375
436.63	36.432
436.98	36.016
437.34	36.447
437.69	35.537
438.04	35.314
438.39	35.492
438.75	34.923
439.10	35.917
439.45	36.138
439.81	36.392
440.16	36.464
440.51	35.910
440.86	35.922
441.22	35.743
441.57	35.683
441.92	35.511
442.27	36.418
442.63	36.491
442.98	35.648
443.33	36.061
443.68	36.110
444.03	36.463
444.39	36.440
444.74	36.610
445.09	35.958
445.44	36.958
445.79	36.396
446.15	37.382
446.50	37.170
446.85	37.199
447.20	36.696
447.55	37.325
447.91	36.685
448.26	37.679
448.61	35.903
448.96	37.073
449.31	36.950
449.66	36.842
450.02	37.010
450.37	37.544
450.72	36.051
451.07	37.492
451.42	35.683
451.77	36.945
452.12	36.661
452.47	37.895
452.83	36.851
453.18	37.365
453.53	37.201
453.88	37.410
454.23	37.145
454.58	37.745
454.93	36.690
455.28	38.343
455.63	36.182
455.98	37.432
456.34	36.236
456.69	38.211
457.04	36.223
457.39	36.981
457.74	36.445
458.09	36.434
458.44	37.250
458.79	36.299
459.14	36.348
459.49	36.768
459.84	36.020
460.19	35.654
460.54	36.922
460.89	37.444
461.24	36.190
461.59	37.198
461.94	37.231
462.29	36.520
462.64	36.609
462.99	36.284
463.34	38.467
463.69	37.822
464.04	35.414
464.39	37.523
464.74	37.162
465.09	36.950
465.44	36.420
465.79	37.723
466.14	36.545
466.49	37.302
466.84	37.119
467.19	36.943
467.54	37.524
467.89	36.832
468.24	37.861
468.59	36.966
468.94	37.867
469.29	37.013
469.64	37.169
469.99	38.345
470.34	37.424
470.68	37.621
471.03	38.152
471.38	36.300
471.73	36.900
472.08	37.801
472.43	37.665
472.78	37.661
473.13	36.412
473.48	36.530
473.83	36.409
474.17	37.109
474.52	37.735
474.87	35.826
475.22	37.198
475.57	35.973
475.92	37.132
476.27	36.189
476.61	36.920
476.96	37.693
477.31	36.947
477.66	37.627
478.01	37.088
478.36	37.330
478.70	37.325
479.05	37.791
479.40	37.441
479.75	36.823
480.10	37.073
480.45	36.292
480.79	37.680
481.14	37.437
481.49	37.198
481.84	35.721
482.19	36.684
482.53	36.905
482.88	36.865
483.23	36.381
483.58	37.949
483.92	36.479
484.27	37.100
484.62	36.884
484.97	37.039
485.31	36.568
485.66	34.657
486.01	34.098
486.36	34.222
486.70	35.399
487.05	35.531
487.40	35.943
487.75	36.492
488.09	35.596
488.44	36.523
488.79	36.866
489.13	36.978
489.48	37.195
489.83	37.249
490.17	36.677
490.52	37.541
490.87	37.135
491.22	37.117
491.56	37.518
491.91	37.014
492.26	36.847
492.60	36.123
492.95	36.443
493.30	36.386
493.64	35.827
493.99	37.101
494.34	37.042
494.68	37.375
495.03	37.055
495.37	36.788
495.72	36.642
496.07	37.116
496.41	35.845
496.76	37.157
497.11	36.901
497.45	37.403
497.80	38.264
498.14	36.373
498.49	36.611
498.84	37.348
499.18	36.187
499.53	36.731
499.87	35.274
500.22	36.934
500.56	37.011
500.91	36.268
501.26	36.650
501.60	36.520
501.95	36.128
502.29	36.456
502.64	36.596
502.98	35.645
503.33	36.642
503.67	37.537
504.02	37.157
504.36	36.404
504.71	36.331
505.06	36.169
505.40	36.701
505.75	37.080
506.09	36.689
506.44	36.290
506.78	37.329
507.13	38.254
507.47	36.691
507.82	37.363
508.16	36.570
508.51	36.932
508.85	35.718
509.19	36.138
509.54	36.836
509.88	36.774
510.23	37.053
510.57	37.712
510.92	37.231
511.26	36.744
511.61	37.322
511.95	36.549
512.30	36.646
512.64	37.855
512.98	36.953
513.33	36.451
513.67	36.740
514.02	37.172
514.36	37.360
514.70	36.836
515.05	37.449
515.39	36.675
515.74	37.300
516.08	36.106
516.42	36.233
516.77	37.727
517.11	37.331
517.46	38.055
517.80	38.196
518.14	36.926
518.49	37.191
518.83	36.814
519.17	36.325
519.52	37.817
519.86	37.341
520.20	36.750
520.55	37.935
520.89	37.634
521.23	38.205
521.58	37.105
521.92	36.581
522.26	37.280
522.61	37.492
522.95	37.824
523.29	36.381
523.64	37.444
523.98	35.959
524.32	36.862
524.66	37.013
525.01	37.877
525.35	37.459
525.69	36.779
526.04	36.482
526.38	37.476
526.72	37.278
527.06	36.879
527.41	36.731
527.75	36.849
528.09	37.509
528.43	37.788
528.78	37.274
529.12	37.969
529.46	37.684
529.80	37.282
530.15	36.229
530.49	36.119
530.83	37.779
531.17	37.329
531.51	37.222
531.86	37.805
532.20	37.560
532.54	37.379
532.88	37.713
533.22	36.633
533.57	36.689
533.91	38.581
534.25	37.760
534.59	36.551
534.93	35.969
535.27	37.070
535.62	37.368
535.96	37.345
536.30	38.497
536.64	37.321
536.98	36.650
537.32	36.726
537.66	38.434
538.01	36.893
538.35	36.395
538.69	36.455
539.03	36.846
539.37	36.486
539.71	36.903
540.05	36.505
540.39	36.407
540.73	36.662
541.07	36.531
541.42	36.498
541.76	36.942
542.10	36.222
542.44	35.897
542.78	36.711
543.12	36.725
543.46	36.006
543.80	35.642
544.14	37.164
544.48	35.103
544.82	34.902
545.16	35.497
545.50	36.192
545.84	36.325
546.18	35.554
546.52	35.004
546.86	36.254
547.20	35.168
547.54	35.239
547.88	37.584
548.22	34.658
548.56	35.290
548.90	35.115
549.24	35.625
549.58	36.584
549.92	36.317
550.26	36.458
550.60	36.261
550.94	36.045
551.28	35.428
551.62	35.714
551.96	35.871
552.30	35.881
552.64	34.181
552.98	36.009
553.32	36.337
553.66	36.023
554.00	35.925
554.34	35.751
554.68	35.869
555.02	36.826
555.36	36.233
555.69	35.033
556.03	34.596
556.37	35.064
556.71	34.828
557.05	35.867
557.39	36.021
557.73	36.687
558.07	35.418
558.41	36.866
558.75	35.566
559.08	35.445
559.42	35.563
559.76	36.086
560.10	35.665
560.44	35.372
560.78	35.540
561.12	35.739
561.45	34.218
561.79	35.282
562.13	35.513
562.47	35.857
562.81	36.147
563.15	34.278
563.48	34.549
563.82	35.431
564.16	35.071
564.50	36.092
564.84	33.851
565.17	35.364
565.51	35.294
565.85	33.311
566.19	35.033
566.52	34.600
566.86	34.450
567.20	34.820
567.54	33.967
567.88	33.651
568.21	33.406
568.55	33.385
568.89	32.851
569.23	32.951
569.56	32.749
569.90	32.745
570.24	31.913
570.57	32.037
570.91	31.791
571.25	31.274
571.59	31.990
571.92	31.300
572.26	31.957
572.60	31.290
572.93	31.615
573.27	31.613
573.61	30.924
573.95	31.280
574.28	30.936
574.62	30.511
574.96	30.881
575.29	31.068
575.63	31.270
575.97	31.440
576.30	31.222
576.64	31.150
576.98	30.928
577.31	31.540
577.65	30.086
577.98	30.643
578.32	30.527
578.66	30.179
578.99	30.798
579.33	31.034
579.67	30.804
580.00	30.857
580.34	30.393
580.67	31.137
581.01	30.807
581.35	30.432
581.68	30.229
582.02	30.198
582.35	30.632
582.69	30.338
583.02	30.373
583.36	30.483
583.70	31.460
584.03	31.329
584.37	31.503
584.70	31.158
585.04	31.104
585.37	30.061
585.71	30.222
586.04	30.501
586.38	30.282
586.72	29.812
587.05	31.021
587.39	30.003
587.72	30.984
588.06	30.451
588.39	30.479
588.73	30.656
589.06	31.264
589.40	31.132
589.73	31.010
590.07	31.644
590.40	31.882
590.73	32.010
591.07	31.634
591.40	31.478
591.74	31.614
592.07	32.816
592.41	31.746
592.74	30.748
593.08	29.915
593.41	31.118
593.75	30.168
594.08	30.915
594.41	30.311
594.75	31.072
595.08	30.620
595.42	30.172
595.75	30.875
596.09	30.754
596.42	31.658
596.75	31.154
597.09	31.483
597.42	32.032
597.75	30.711
598.09	30.965
598.42	31.409
598.76	30.437
599.09	30.732
599.42	30.816
599.76	30.417
600.09	30.497
600.42	30.245
600.76	30.783
601.09	30.320
601.42	29.831
601.76	30.541
602.09	30.645
602.42	30.953
602.76	30.956
603.09	30.801
603.42	29.908
603.76	30.047
604.09	30.632
604.42	29.301
604.76	31.209
605.09	30.720
605.42	31.714
605.75	30.535
606.09	29.801
606.42	30.590
606.75	30.346
607.09	30.363
607.42	30.385
607.75	29.453
608.08	30.568
608.42	30.740
608.75	31.247
609.08	29.887
609.41	31.744
609.75	30.610
610.08	30.030
610.41	30.855
610.74	29.981
611.07	30.311
611.41	31.167
611.74	29.658
612.07	30.328
612.40	30.541
612.73	30.735
613.07	30.710
613.40	30.562
613.73	30.607
614.06	30.404
614.39	29.405
614.72	31.371
615.06	29.778
615.39	30.464
615.72	30.292
616.05	31.194
616.38	30.241
616.71	30.474
617.05	30.897
617.38	31.978
617.71	30.637
618.04	30.774
618.37	31.798
618.70	30.660
619.03	30.653
619.36	30.961
619.69	31.140
620.03	29.541
620.36	29.993
620.69	29.907
621.02	30.615
621.35	31.889
621.68	31.459
622.01	31.149
622.34	31.245
622.67	31.558
623.00	32.295
623.33	31.414
623.66	30.632
623.99	30.158
624.32	30.521
624.65	30.712
624.99	31.154
625.32	30.769
625.65	30.930
625.98	31.043
626.31	31.918
626.64	31.986
626.97	32.007
627.30	31.394
627.63	32.526
627.96	30.216
628.29	32.186
628.62	32.592
628.95	33.267
629.28	31.232
629.61	32.440
629.94	32.689
630.26	32.217
630.59	32.468
630.92	31.325
631.25	31.205
631.58	32.441
631.91	32.131
632.24	34.138
632.57	31.778
632.90	33.139
633.23	34.053
633.56	34.293
633.89	33.254
