SpectraSuite Data File
++++++++++++++++++++++++++++++++++++
Date: Wed May 13 21:03:50 PDT 2015
User: schluterlab
Dark Spectrum Present: Yes
Reference Spectrum Present: Yes
Number of Sampled Component Spectra: 1
Spectrometers: USB2E3373
Integration Time (usec): 3000 (USB2E3373)
Spectra Averaged: 3 (USB2E3373)
Boxcar Smoothing: 0 (USB2E3373)
Correct for Electrical Dark: No (USB2E3373)
Strobe/Lamp Enabled: No (USB2E3373)
Correct for Detector Non-linearity: No (USB2E3373)
Correct for Stray Light: No (USB2E3373)
Number of Pixels in Processed Spectrum: 2048
>>>>>Begin Processed Spectral Data<<<<<
178.53	0.000
178.91	-50.000
179.29	150.000
179.67	-300.000
180.04	-66.667
180.42	40.000
180.80	2000.000
181.18	250.000
181.56	-200.000
181.94	-25.000
182.31	9.091
182.69	69.231
183.07	-40.000
183.45	166.667
183.83	144.444
184.20	57.143
184.58	33.333
184.96	233.333
185.34	42.857
185.72	0.000
186.09	300.000
186.47	-300.000
186.85	20.000
187.23	350.000
187.61	600.000
187.98	600.000
188.36	0.000
188.74	0.000
189.12	36.364
189.49	60.000
189.87	91.667
190.25	20.000
190.63	-300.000
191.00	120.000
191.38	40.000
191.76	225.000
192.14	75.000
192.51	47.368
192.89	233.333
193.27	150.000
193.65	-240.000
194.02	181.818
194.40	120.000
194.78	-100.000
195.15	220.000
195.53	-120.000
195.91	87.500
196.29	133.333
196.66	0.000
197.04	50.000
197.42	80.000
197.79	100.000
198.17	-112.500
198.55	33.333
198.92	-50.000
199.30	-400.000
199.68	50.000
200.05	-0.000
200.43	16.667
200.81	-1300.000
201.18	-180.000
201.56	0.000
201.94	375.000
202.31	13.043
202.69	57.143
203.07	-266.667
203.44	-200.000
203.82	-66.667
204.19	0.000
204.57	0.000
204.95	-50.000
205.32	0.000
205.70	250.000
206.08	100.000
206.45	-66.667
206.83	400.000
207.20	-66.667
207.58	0.000
207.96	-1300.000
208.33	-114.286
208.71	-700.000
209.08	62.500
209.46	225.000
209.84	0.000
210.21	160.000
210.59	300.000
210.96	260.000
211.34	600.000
211.71	-300.000
212.09	-150.000
212.46	-40.000
212.84	233.333
213.22	-100.000
213.59	-100.000
213.97	-50.000
214.34	-800.000
214.72	15.385
215.09	62.500
215.47	111.111
215.84	450.000
216.22	25.000
216.59	-150.000
216.97	433.333
217.34	222.222
217.72	0.000
218.09	-33.333
218.47	300.000
218.84	-128.571
219.22	12.500
219.59	-66.667
219.97	-225.000
220.34	25.000
220.72	-100.000
221.09	0.000
221.47	-216.667
221.84	-200.000
222.22	0.000
222.59	900.000
222.97	-333.333
223.34	83.333
223.72	300.000
224.09	-350.000
224.46	-63.636
224.84	25.000
225.21	-71.429
225.59	-200.000
225.96	-33.333
226.34	10.000
226.71	28.571
227.08	300.000
227.46	-62.500
227.83	-1400.000
228.21	31.250
228.58	-50.000
228.95	-17.647
229.33	-12.500
229.70	-87.500
230.08	-30.769
230.45	-12.500
230.82	-33.333
231.20	114.286
231.57	-300.000
231.95	700.000
232.32	-16.667
232.69	-52.941
233.07	-600.000
233.44	-21.739
233.81	-200.000
234.19	20.833
234.56	-13.333
234.93	-40.000
235.31	-36.842
235.68	-69.231
236.05	38.462
236.43	-38.889
236.80	-12.121
237.17	-80.000
237.55	-23.529
237.92	-37.931
238.29	-40.741
238.67	0.000
239.04	-12.903
239.41	-19.149
239.79	-17.021
240.16	-9.302
240.53	3.571
240.91	-1.786
241.28	-1.786
241.65	3.226
242.02	-9.211
242.40	8.696
242.77	-17.391
243.14	-19.231
243.51	-2.128
243.89	11.538
244.26	14.151
244.63	6.731
245.00	1.042
245.38	5.042
245.75	1.639
246.12	1.504
246.49	-9.756
246.87	-20.168
247.24	2.027
247.61	-2.649
247.98	0.641
248.36	-3.550
248.73	-3.933
249.10	1.010
249.47	-1.613
249.84	5.263
250.22	3.980
250.59	-3.738
250.96	0.000
251.33	-10.526
251.70	4.184
252.08	-2.510
252.45	2.058
252.82	1.901
253.19	-1.556
253.56	-2.878
253.94	3.203
254.31	0.704
254.68	0.000
255.05	0.660
255.42	-3.846
255.79	0.613
256.16	2.839
256.54	-0.635
256.91	-3.481
257.28	0.000
257.65	-1.911
258.02	-3.519
258.39	-0.877
258.76	-2.035
259.14	0.284
259.51	-2.247
259.88	0.000
260.25	-1.667
260.62	0.843
260.99	0.796
261.36	2.850
261.73	-0.988
262.10	-1.018
262.47	-2.963
262.85	-0.746
263.22	1.026
263.59	-0.260
263.96	2.190
264.33	-1.683
264.70	0.465
265.07	0.463
265.44	0.920
265.81	-0.458
266.18	-2.733
266.55	-0.437
266.92	-0.424
267.29	1.646
267.66	0.425
268.03	1.646
268.40	-3.178
268.77	1.653
269.14	-0.612
269.51	3.285
269.88	-2.851
270.25	-1.271
270.62	-2.459
270.99	2.362
271.36	1.190
271.73	2.610
272.10	1.524
272.47	0.384
272.84	1.181
273.21	-2.153
273.58	-1.844
273.95	1.321
274.32	-0.746
274.69	0.911
275.06	1.237
275.43	1.883
275.80	0.000
276.17	0.184
276.54	1.066
276.91	-1.045
277.28	-2.166
277.65	0.699
278.02	-0.179
278.39	-0.710
278.76	0.836
279.13	-0.515
279.50	-0.862
279.87	0.000
280.23	0.000
280.60	-0.173
280.97	-0.649
281.34	0.315
281.71	-0.163
282.08	-1.197
282.45	0.492
282.82	0.000
283.19	2.744
283.56	2.188
283.92	1.376
284.29	0.468
284.66	0.659
285.03	0.000
285.40	0.302
285.77	0.450
286.14	0.304
286.51	0.750
286.87	0.615
287.24	-0.590
287.61	0.602
287.98	0.735
288.35	-0.745
288.72	2.296
289.08	1.852
289.45	-0.441
289.82	-0.303
290.19	0.982
290.56	-0.994
290.93	-0.276
291.29	0.137
291.66	1.366
292.03	0.545
292.40	0.404
292.77	0.268
293.13	0.000
293.50	1.569
293.87	1.467
294.24	-0.265
294.60	1.170
294.97	0.794
295.34	0.000
295.71	-1.577
296.08	1.047
296.44	-0.255
296.81	-0.122
297.18	1.625
297.55	0.708
297.91	0.994
298.28	0.363
298.65	0.493
299.02	1.099
299.38	0.000
299.75	0.962
300.12	-0.349
300.48	-0.351
300.85	0.000
301.22	1.974
301.59	0.117
301.95	-1.045
302.32	0.117
302.69	-0.226
303.05	0.443
303.42	0.227
303.79	1.893
304.15	0.329
304.52	1.720
304.89	0.443
305.25	0.000
305.62	1.085
305.99	2.285
306.35	2.299
306.72	0.712
307.09	1.668
307.45	1.065
307.82	0.211
308.19	-0.522
308.55	-0.205
308.92	1.572
309.29	1.201
309.65	0.500
310.02	1.690
310.38	1.016
310.75	1.381
311.12	1.846
311.48	1.286
311.85	2.067
312.22	3.288
312.58	1.353
312.95	0.697
313.31	3.489
313.68	1.718
314.05	3.119
314.41	3.362
314.78	3.890
315.14	3.981
315.51	3.425
315.87	4.356
316.24	5.142
316.61	5.936
316.97	4.722
317.34	4.367
317.70	6.601
318.07	6.122
318.43	5.872
318.80	5.759
319.16	6.454
319.53	6.720
319.89	7.498
320.26	7.763
320.62	8.248
320.99	7.849
321.35	8.513
321.72	9.047
322.08	9.502
322.45	9.621
322.81	11.645
323.18	10.286
323.54	11.733
323.91	11.924
324.27	11.881
324.64	11.498
325.00	11.811
325.37	13.311
325.73	14.815
326.10	12.616
326.46	16.054
326.83	15.534
327.19	14.959
327.56	16.438
327.92	16.653
328.29	16.778
328.65	17.791
329.01	16.887
329.38	18.435
329.74	18.369
330.11	17.493
330.47	18.142
330.84	18.953
331.20	18.617
331.56	18.931
331.93	19.208
332.29	20.591
332.66	19.407
333.02	19.983
333.38	20.614
333.75	20.819
334.11	21.788
334.48	20.663
334.84	19.700
335.20	21.784
335.57	21.410
335.93	20.189
336.29	22.067
336.66	20.427
337.02	22.696
337.38	21.323
337.75	22.050
338.11	21.605
338.47	21.661
338.84	20.103
339.20	22.751
339.56	22.782
339.93	21.867
340.29	22.032
340.65	22.412
341.02	21.298
341.38	21.622
341.74	21.597
342.11	23.287
342.47	22.427
342.83	23.611
343.20	22.927
343.56	22.159
343.92	22.827
344.28	23.782
344.65	23.837
345.01	22.760
345.37	25.082
345.73	25.000
346.10	24.960
346.46	24.715
346.82	24.478
347.19	24.446
347.55	24.960
347.91	23.227
348.27	24.132
348.63	25.240
349.00	24.292
349.36	25.196
349.72	25.135
350.08	25.039
350.45	24.980
350.81	25.117
351.17	25.558
351.53	25.687
351.89	25.020
352.26	25.328
352.62	26.279
352.98	25.160
353.34	26.006
353.70	25.000
354.07	26.902
354.43	25.117
354.79	26.763
355.15	27.096
355.51	25.740
355.87	26.192
356.24	25.843
356.60	25.098
356.96	26.708
357.32	25.851
357.68	26.585
358.04	26.377
358.40	27.054
358.77	27.523
359.13	26.615
359.49	27.706
359.85	26.156
360.21	26.600
360.57	27.681
360.93	28.528
361.29	27.387
361.66	28.322
362.02	26.686
362.38	27.179
362.74	27.339
363.10	27.260
363.46	26.369
363.82	28.973
364.18	27.774
364.54	27.498
364.90	27.247
365.26	27.459
365.62	27.486
365.98	27.829
366.35	27.801
366.71	27.247
367.07	28.065
367.43	28.014
367.79	27.589
368.15	28.833
368.51	27.778
368.87	28.960
369.23	27.616
369.59	28.682
369.95	28.665
370.31	28.033
370.67	28.458
371.03	29.547
371.39	29.028
371.75	28.786
372.11	29.202
372.47	27.830
372.83	29.404
373.19	29.424
373.55	28.540
373.91	30.057
374.27	28.769
374.63	29.161
374.99	29.178
375.35	29.384
375.71	28.533
376.07	29.130
376.42	29.011
376.78	29.260
377.14	29.831
377.50	29.465
377.86	29.681
378.22	30.152
378.58	30.265
378.94	31.000
379.30	31.106
379.66	30.949
380.02	30.453
380.38	30.120
380.74	31.022
381.09	30.398
381.45	29.807
381.81	30.499
382.17	30.813
382.53	31.385
382.89	31.665
383.25	31.111
383.61	31.235
383.97	31.250
384.32	31.191
384.68	30.475
385.04	31.032
385.40	31.694
385.76	31.569
386.12	31.892
386.48	31.850
386.83	31.977
387.19	31.647
387.55	31.882
387.91	31.857
388.27	31.566
388.62	32.210
388.98	33.605
389.34	32.393
389.70	31.990
390.06	32.250
390.42	32.861
390.77	31.775
391.13	32.323
391.49	31.120
391.85	32.843
392.20	32.707
392.56	32.889
392.92	32.768
393.28	32.016
393.64	32.416
393.99	31.579
394.35	33.457
394.71	32.179
395.07	31.447
395.42	32.785
395.78	32.497
396.14	31.833
396.50	32.657
396.85	33.142
397.21	33.021
397.57	32.795
397.92	32.695
398.28	32.205
398.64	32.665
399.00	32.254
399.35	32.917
399.71	32.382
400.07	32.651
400.42	32.476
400.78	31.360
401.14	32.373
401.49	33.014
401.85	32.555
402.21	32.384
402.57	33.231
402.92	33.730
403.28	31.957
403.63	33.292
403.99	33.589
404.35	33.167
404.70	32.205
405.06	33.235
405.42	32.789
405.77	32.316
406.13	32.171
406.49	32.894
406.84	32.479
407.20	32.682
407.55	32.532
407.91	32.627
408.27	32.564
408.62	33.149
408.98	32.244
409.34	32.488
409.69	32.489
410.05	31.903
410.40	31.589
410.76	32.732
411.11	32.152
411.47	32.979
411.83	32.190
412.18	31.234
412.54	32.707
412.89	31.661
413.25	31.150
413.60	32.414
413.96	31.086
414.31	32.182
414.67	31.873
415.03	32.206
415.38	32.431
415.74	32.164
416.09	31.989
416.45	32.262
416.80	31.141
417.16	32.389
417.51	31.815
417.87	30.688
418.22	32.191
418.58	30.815
418.93	31.011
419.29	31.617
419.64	30.534
420.00	31.937
420.35	30.903
420.71	30.652
421.06	31.796
421.42	31.509
421.77	31.734
422.12	31.805
422.48	31.189
422.83	31.778
423.19	31.167
423.54	31.920
423.90	30.998
424.25	31.138
424.61	31.300
424.96	30.396
425.31	30.174
425.67	30.923
426.02	31.213
426.38	31.405
426.73	30.483
427.09	29.894
427.44	30.887
427.79	29.869
428.15	30.703
428.50	29.668
428.85	29.090
429.21	29.544
429.56	30.340
429.92	29.308
430.27	29.908
430.62	29.643
430.98	29.773
431.33	30.360
431.68	29.606
432.04	30.254
432.39	29.388
432.74	28.326
433.10	30.564
433.45	28.757
433.80	30.632
434.16	28.782
434.51	29.674
434.86	28.269
435.22	28.183
435.57	28.808
435.92	29.071
436.28	29.069
436.63	28.868
436.98	28.672
437.34	28.571
437.69	28.630
438.04	27.900
438.39	28.331
438.75	27.592
439.10	28.803
439.45	28.935
439.81	28.756
440.16	28.058
440.51	27.705
440.86	27.919
441.22	27.768
441.57	27.711
441.92	27.527
442.27	27.652
442.63	26.534
442.98	26.736
443.33	26.862
443.68	26.410
444.03	26.528
444.39	27.169
444.74	27.057
445.09	27.478
445.44	28.056
445.79	27.672
446.15	27.510
446.50	27.148
446.85	26.617
447.20	27.287
447.55	26.917
447.91	27.022
448.26	26.358
448.61	26.180
448.96	26.765
449.31	26.556
449.66	27.357
450.02	26.777
450.37	26.498
450.72	26.349
451.07	27.712
451.42	25.390
451.77	25.624
452.12	24.361
452.47	26.727
452.83	25.177
453.18	24.761
453.53	26.040
453.88	27.048
454.23	25.896
454.58	25.613
454.93	25.208
455.28	25.755
455.63	25.265
455.98	25.502
456.34	25.238
456.69	25.495
457.04	26.006
457.39	26.097
457.74	24.955
458.09	24.704
458.44	24.971
458.79	24.822
459.14	24.551
459.49	24.878
459.84	24.521
460.19	23.709
460.54	24.331
460.89	24.662
461.24	24.168
461.59	24.577
461.94	25.284
462.29	23.958
462.64	23.879
462.99	24.413
463.34	24.793
463.69	24.678
464.04	23.709
464.39	23.124
464.74	23.464
465.09	23.497
465.44	23.120
465.79	23.404
466.14	22.748
466.49	23.050
466.84	22.893
467.19	22.548
467.54	24.498
467.89	23.633
468.24	22.803
468.59	23.327
468.94	23.308
469.29	22.538
469.64	22.734
469.99	22.828
470.34	22.792
470.68	22.379
471.03	22.990
471.38	23.296
471.73	21.605
472.08	22.955
472.43	22.559
472.78	22.448
473.13	20.976
473.48	20.678
473.83	22.222
474.17	20.638
474.52	22.718
474.87	21.170
475.22	21.437
475.57	21.249
475.92	21.374
476.27	21.154
476.61	21.518
476.96	21.131
477.31	20.766
477.66	21.130
478.01	19.945
478.36	20.218
478.70	20.999
479.05	21.088
479.40	20.437
479.75	20.670
480.10	19.990
480.45	20.255
480.79	20.806
481.14	20.871
481.49	20.671
481.84	19.981
482.19	20.426
482.53	19.619
482.88	19.847
483.23	19.634
483.58	20.038
483.92	19.698
484.27	18.984
484.62	19.530
484.97	20.116
485.31	19.515
485.66	19.276
486.01	19.154
486.36	18.740
486.70	18.908
487.05	19.339
487.40	19.443
487.75	18.863
488.09	18.955
488.44	18.962
488.79	19.304
489.13	18.648
489.48	18.640
489.83	18.714
490.17	18.611
490.52	19.542
490.87	18.405
491.22	18.323
491.56	18.927
491.91	18.579
492.26	18.327
492.60	18.086
492.95	18.416
493.30	17.926
493.64	17.746
493.99	18.068
494.34	18.353
494.68	17.804
495.03	17.540
495.37	17.518
495.72	17.393
496.07	18.266
496.41	17.361
496.76	17.413
497.11	16.995
497.45	17.510
497.80	17.769
498.14	18.489
498.49	17.347
498.84	17.409
499.18	17.571
499.53	17.479
499.87	17.031
500.22	16.476
500.56	17.051
500.91	17.757
501.26	16.995
501.60	17.059
501.95	16.914
502.29	16.650
502.64	17.020
502.98	16.618
503.33	16.691
503.67	17.186
504.02	16.324
504.36	16.691
504.71	16.209
505.06	16.913
505.40	16.495
505.75	17.141
506.09	16.863
506.44	16.331
506.78	16.811
507.13	16.320
507.47	16.437
507.82	16.222
508.16	16.253
508.51	15.961
508.85	15.397
509.19	16.296
509.54	16.515
509.88	15.914
510.23	15.579
510.57	16.419
510.92	15.948
511.26	16.392
511.61	15.642
511.95	15.270
512.30	15.214
512.64	16.459
512.98	15.291
513.33	16.113
513.67	15.162
514.02	15.792
514.36	15.281
514.70	15.762
515.05	15.097
515.39	14.564
515.74	14.861
516.08	15.280
516.42	14.516
516.77	14.821
517.11	15.168
517.46	15.426
517.80	15.254
518.14	14.881
518.49	14.708
518.83	15.573
519.17	15.301
519.52	14.475
519.86	14.572
520.20	14.251
520.55	15.236
520.89	14.485
521.23	15.385
521.58	14.665
521.92	14.896
522.26	13.663
522.61	14.609
522.95	15.285
523.29	14.349
523.64	14.558
523.98	13.787
524.32	14.997
524.66	13.961
525.01	14.875
525.35	14.944
525.69	15.043
526.04	14.267
526.38	14.149
526.72	14.661
527.06	14.507
527.41	14.560
527.75	13.017
528.09	14.432
528.43	14.450
528.78	13.372
529.12	14.166
529.46	13.436
529.80	14.304
530.15	12.934
530.49	14.084
530.83	13.135
531.17	13.767
531.51	13.419
531.86	13.347
532.20	14.197
532.54	13.034
532.88	14.159
533.22	14.007
533.57	13.974
533.91	14.323
534.25	14.128
534.59	13.449
534.93	13.457
535.27	13.567
535.62	13.684
535.96	13.273
536.30	14.029
536.64	13.329
536.98	12.614
537.32	12.384
537.66	12.482
538.01	12.344
538.35	13.052
538.69	12.575
539.03	12.617
539.37	12.609
539.71	12.142
540.05	12.281
540.39	13.076
540.73	12.500
541.07	13.401
541.42	12.593
541.76	13.870
542.10	12.661
542.44	12.128
542.78	12.491
543.12	12.601
543.46	11.818
543.80	12.288
544.14	12.939
544.48	12.342
544.82	13.046
545.16	11.832
545.50	12.492
545.84	12.132
546.18	11.290
546.52	12.632
546.86	11.025
547.20	12.009
547.54	11.294
547.88	12.888
548.22	12.638
548.56	11.875
548.90	12.314
549.24	13.472
549.58	11.388
549.92	12.399
550.26	12.472
550.60	11.937
550.94	10.746
551.28	11.431
551.62	11.880
551.96	12.592
552.30	10.917
552.64	11.582
552.98	13.068
553.32	11.680
553.66	11.445
554.00	11.015
554.34	11.062
554.68	11.857
555.02	12.126
555.36	10.968
555.69	10.488
556.03	11.008
556.37	12.162
556.71	12.193
557.05	11.070
557.39	11.454
557.73	10.817
558.07	11.228
558.41	11.279
558.75	12.009
559.08	9.222
559.42	12.352
559.76	10.474
560.10	12.145
560.44	11.717
560.78	10.719
561.12	10.722
561.45	10.952
561.79	11.967
562.13	11.814
562.47	11.000
562.81	10.895
563.15	11.190
563.48	10.943
563.82	10.465
564.16	10.900
564.50	10.719
564.84	10.676
565.17	11.126
565.51	10.361
565.85	10.326
566.19	11.523
566.52	11.009
566.86	10.303
567.20	11.179
567.54	11.169
567.88	9.798
568.21	10.320
568.55	10.694
568.89	10.120
569.23	10.999
569.56	10.430
569.90	10.391
570.24	10.036
570.57	10.474
570.91	10.652
571.25	10.064
571.59	9.651
571.92	10.238
572.26	10.157
572.60	10.163
572.93	10.278
573.27	10.234
573.61	10.366
573.95	10.550
574.28	10.363
574.62	10.244
574.96	9.793
575.29	9.980
575.63	10.011
575.97	10.054
576.30	10.490
576.64	9.877
576.98	10.293
577.31	10.167
577.65	9.985
577.98	9.580
578.32	10.074
578.66	9.894
578.99	10.188
579.33	10.220
579.67	10.234
580.00	9.764
580.34	9.937
580.67	10.020
581.01	9.841
581.35	9.873
581.68	10.070
582.02	9.694
582.35	10.033
582.69	9.797
583.02	9.618
583.36	9.823
583.70	10.136
584.03	10.299
584.37	9.727
584.70	9.720
585.04	9.879
585.37	9.818
585.71	9.600
586.04	9.524
586.38	9.261
586.72	9.834
587.05	10.011
587.39	9.639
587.72	9.362
588.06	9.521
588.39	9.712
588.73	9.266
589.06	9.667
589.40	9.701
589.73	9.738
590.07	9.953
590.40	9.618
590.73	10.251
591.07	10.280
591.40	9.391
591.74	9.293
592.07	9.585
592.41	9.695
592.74	9.414
593.08	9.436
593.41	9.602
593.75	8.721
594.08	9.568
594.41	9.543
594.75	9.370
595.08	9.522
595.42	8.876
595.75	9.219
596.09	9.507
596.42	9.477
596.75	9.522
597.09	10.055
597.42	9.017
597.75	9.378
598.09	8.971
598.42	9.888
598.76	9.026
599.09	9.604
599.42	9.630
599.76	9.651
600.09	9.036
600.42	9.567
600.76	9.239
601.09	9.190
601.42	9.565
601.76	9.112
602.09	9.566
602.42	9.699
602.76	9.396
603.09	9.199
603.42	8.916
603.76	9.236
604.09	9.605
604.42	8.497
604.76	9.385
605.09	9.289
605.42	10.121
605.75	8.565
606.09	8.940
606.42	9.227
606.75	8.485
607.09	9.176
607.42	9.501
607.75	8.490
608.08	9.423
608.42	9.044
608.75	9.603
609.08	9.260
609.41	10.084
609.75	8.875
610.08	8.728
610.41	9.184
610.74	8.903
611.07	9.218
611.41	8.854
611.74	8.954
612.07	8.859
612.40	9.676
612.73	8.672
613.07	8.869
613.40	9.251
613.73	8.938
614.06	9.232
614.39	9.005
614.72	9.883
615.06	8.500
615.39	8.775
615.72	7.829
616.05	8.671
616.38	9.565
616.71	8.878
617.05	9.398
617.38	8.688
617.71	9.436
618.04	8.653
618.37	8.707
618.70	9.250
619.03	8.522
619.36	8.399
619.69	8.333
620.03	8.551
620.36	9.743
620.69	7.138
621.02	9.154
621.35	8.667
621.68	8.720
622.01	9.709
622.34	8.327
622.67	9.554
623.00	9.878
623.33	9.125
623.66	7.658
623.99	9.152
624.32	8.731
624.65	8.309
624.99	8.817
625.32	8.887
625.65	9.225
625.98	8.057
626.31	8.980
626.64	9.200
626.97	8.218
627.30	8.896
627.63	8.045
627.96	7.879
628.29	9.674
628.62	8.317
628.95	8.717
629.28	8.079
629.61	9.665
629.94	8.317
630.26	8.966
630.59	6.993
630.92	7.631
631.25	8.445
631.58	8.244
631.91	6.999
632.24	9.111
632.57	8.333
632.90	8.985
633.23	6.115
633.56	9.353
633.89	9.689
634.22	11.543
634.55	10.110
634.88	6.863
635.20	9.500
635.53	6.072
635.86	8.590
636.19	8.065
636.52	7.561
636.85	7.358
637.18	8.039
637.51	7.865
637.83	8.486
638.16	8.267
638.49	6.943
638.82	8.235
639.15	7.181
639.48	8.824
639.81	9.722
640.13	8.451
640.46	9.322
640.79	9.353
