SpectraSuite Data File
++++++++++++++++++++++++++++++++++++
Date: Wed May 13 20:48:41 PDT 2015
User: schluterlab
Dark Spectrum Present: Yes
Reference Spectrum Present: Yes
Number of Sampled Component Spectra: 1
Spectrometers: USB2E3373
Integration Time (usec): 3000 (USB2E3373)
Spectra Averaged: 3 (USB2E3373)
Boxcar Smoothing: 0 (USB2E3373)
Correct for Electrical Dark: No (USB2E3373)
Strobe/Lamp Enabled: No (USB2E3373)
Correct for Detector Non-linearity: No (USB2E3373)
Correct for Stray Light: No (USB2E3373)
Number of Pixels in Processed Spectrum: 2048
>>>>>Begin Processed Spectral Data<<<<<
178.53	0.000
178.91	-700.000
179.29	-975.000
179.67	-105.556
180.04	-725.000
180.42	1550.000
180.80	680.000
181.18	-625.000
181.56	400.000
181.94	0.000
182.31	-471.429
182.69	900.000
183.07	-362.500
183.45	-222.222
183.83	290.909
184.20	-120.000
184.58	1350.000
184.96	3100.000
185.34	-480.000
185.72	-300.000
186.09	-1250.000
186.47	1400.000
186.85	1200.000
187.23	2800.000
187.61	-1066.667
187.98	650.000
188.36	354.545
188.74	309.091
189.12	-540.000
189.49	380.000
189.87	-2900.000
190.25	-600.000
190.63	221.429
191.00	200.000
191.38	616.667
191.76	-550.000
192.14	875.000
192.51	375.000
192.89	516.667
193.27	400.000
193.65	-625.000
194.02	290.000
194.40	520.000
194.78	360.000
195.15	333.333
195.53	360.000
195.91	-1050.000
196.29	200.000
196.66	221.053
197.04	-110.000
197.42	0.000
197.79	380.000
198.17	-2900.000
198.55	414.286
198.92	425.000
199.30	400.000
199.68	0.000
200.05	211.111
200.43	385.714
200.81	1800.000
201.18	1066.667
201.56	-633.333
201.94	322.222
202.31	311.111
202.69	225.000
203.07	360.000
203.44	0.000
203.82	800.000
204.19	385.714
204.57	357.143
204.95	412.500
205.32	1166.667
205.70	318.182
206.08	164.286
206.45	1750.000
206.83	218.750
207.20	516.667
207.58	300.000
207.96	205.556
208.33	487.500
208.71	-416.667
209.08	414.286
209.46	344.444
209.84	227.273
210.21	-866.667
210.59	975.000
210.96	-200.000
211.34	1300.000
211.71	330.000
212.09	350.000
212.46	0.000
212.84	1166.667
213.22	725.000
213.59	-2600.000
213.97	566.667
214.34	485.714
214.72	390.909
215.09	620.000
215.47	-1250.000
215.84	-1500.000
216.22	700.000
216.59	292.857
216.97	750.000
217.34	336.364
217.72	-416.667
218.09	0.000
218.47	-2500.000
218.84	388.889
219.22	500.000
219.59	1000.000
219.97	-342.857
220.34	560.000
220.72	-933.333
221.09	214.286
221.47	1125.000
221.84	-666.667
222.22	0.000
222.59	700.000
222.97	-1650.000
223.34	580.000
223.72	238.462
224.09	660.000
224.46	1050.000
224.84	-3200.000
225.21	-560.000
225.59	-3000.000
225.96	340.000
226.34	235.000
226.71	1600.000
227.08	312.500
227.46	450.000
227.83	-625.000
228.21	-1450.000
228.58	300.000
228.95	-1500.000
229.33	-950.000
229.70	800.000
230.08	485.714
230.45	-460.000
230.82	308.333
231.20	416.667
231.57	385.714
231.95	216.667
232.32	172.727
232.69	218.182
233.07	428.571
233.44	207.692
233.81	-700.000
234.19	173.684
234.56	266.667
234.93	133.333
235.31	290.909
235.68	153.846
236.05	185.714
236.43	118.182
236.80	184.211
237.17	2100.000
237.55	90.476
237.92	110.714
238.29	114.286
238.67	90.323
239.04	127.586
239.41	83.333
239.79	63.043
240.16	97.619
240.53	88.636
240.91	43.137
241.28	68.000
241.65	72.000
242.02	60.870
242.40	48.387
242.77	36.667
243.14	45.161
243.51	48.315
243.89	43.529
244.26	32.222
244.63	40.860
245.00	27.660
245.38	37.624
245.75	32.710
246.12	26.606
246.49	48.175
246.87	46.400
247.24	38.462
247.61	27.143
247.98	31.373
248.36	22.297
248.73	25.478
249.10	37.580
249.47	27.119
249.84	32.620
250.22	26.738
250.59	31.953
250.96	22.727
251.33	27.962
251.70	25.743
252.08	22.857
252.45	21.525
252.82	24.783
253.19	25.532
253.56	21.961
253.94	24.066
254.31	25.391
254.68	25.769
255.05	21.402
255.42	20.325
255.79	22.426
256.16	21.661
256.54	20.141
256.91	22.776
257.28	17.626
257.65	20.462
258.02	22.050
258.39	18.612
258.76	22.742
259.14	19.048
259.51	20.973
259.88	21.118
260.25	21.752
260.62	16.763
260.99	18.323
261.36	20.721
261.73	19.771
262.10	16.570
262.47	20.563
262.85	19.499
263.22	16.239
263.59	19.373
263.96	18.132
264.33	18.016
264.70	18.421
265.07	17.136
265.44	19.949
265.81	17.275
266.18	18.090
266.55	20.244
266.92	17.199
267.29	18.981
267.66	19.954
268.03	19.545
268.40	18.224
268.77	17.900
269.14	17.342
269.51	19.865
269.88	18.881
270.25	17.833
270.62	14.831
270.99	19.140
271.36	17.167
271.73	15.888
272.10	16.957
272.47	18.065
272.84	19.264
273.21	16.143
273.58	15.721
273.95	16.562
274.32	16.322
274.69	16.702
275.06	17.323
275.43	20.851
275.80	18.036
276.17	17.312
276.54	20.374
276.91	16.798
277.28	16.016
277.65	18.569
278.02	15.942
278.39	18.555
278.76	14.545
279.13	16.981
279.50	16.015
279.87	15.936
280.23	16.168
280.60	15.861
280.97	15.896
281.34	15.752
281.71	16.909
282.08	15.355
282.45	14.000
282.82	15.986
283.19	15.508
283.56	15.965
283.92	15.228
284.29	17.108
284.66	15.608
285.03	14.647
285.40	14.789
285.77	15.152
286.14	14.853
286.51	14.500
286.87	15.556
287.24	16.124
287.61	15.730
287.98	15.584
288.35	15.214
288.72	15.576
289.08	15.493
289.45	15.486
289.82	15.935
290.19	14.757
290.56	14.089
290.93	15.710
291.29	14.110
291.66	15.192
292.03	17.151
292.40	15.712
292.77	15.089
293.13	14.478
293.50	13.265
293.87	14.519
294.24	14.519
294.60	11.208
294.97	14.099
295.34	13.822
295.71	13.920
296.08	15.812
296.44	14.168
296.81	12.550
297.18	14.905
297.55	10.818
297.91	12.929
298.28	12.851
298.65	13.969
299.02	14.493
299.38	13.280
299.75	11.995
300.12	13.282
300.48	15.500
300.85	13.194
301.22	13.248
301.59	13.636
301.95	13.350
302.32	13.350
302.69	13.262
303.05	12.848
303.42	12.716
303.79	13.590
304.15	12.704
304.52	12.978
304.89	14.286
305.25	13.573
305.62	14.949
305.99	13.695
306.35	14.430
306.72	15.135
307.09	14.983
307.45	15.315
307.82	13.616
308.19	15.894
308.55	15.858
308.92	15.145
309.29	14.467
309.65	14.528
310.02	16.702
310.38	17.849
310.75	15.206
311.12	17.503
311.48	18.391
311.85	18.239
312.22	17.690
312.58	18.503
312.95	19.852
313.31	19.223
313.68	20.998
314.05	21.992
314.41	21.407
314.78	21.853
315.14	22.939
315.51	22.245
315.87	24.059
316.24	22.145
316.61	24.561
316.97	22.994
317.34	24.951
317.70	26.482
318.07	26.660
318.43	28.571
318.80	28.866
319.16	30.038
319.53	29.362
319.89	30.857
320.26	32.900
320.62	31.746
320.99	33.838
321.35	33.232
321.72	35.421
322.08	34.946
322.45	37.811
322.81	36.531
323.18	38.054
323.54	37.941
323.91	39.717
324.27	40.153
324.64	41.659
325.00	40.938
325.37	43.312
325.73	44.794
326.10	44.219
326.46	45.251
326.83	47.023
327.19	46.541
327.56	47.997
327.92	49.694
328.29	50.577
328.65	51.657
329.01	50.361
329.38	52.544
329.74	51.431
330.11	54.948
330.47	52.984
330.84	54.688
331.20	54.554
331.56	55.046
331.93	55.833
332.29	53.771
332.66	55.133
333.02	58.318
333.38	58.266
333.75	56.595
334.11	55.249
334.48	57.675
334.84	58.824
335.20	60.000
335.57	57.208
335.93	58.214
336.29	59.982
336.66	59.964
337.02	58.462
337.38	59.167
337.75	58.556
338.11	59.355
338.47	61.602
338.84	58.937
339.20	59.725
339.56	61.223
339.93	60.364
340.29	58.967
340.65	60.873
341.02	60.908
341.38	60.943
341.74	60.351
342.11	60.873
342.47	60.088
342.83	59.932
343.20	61.558
343.56	59.730
343.92	60.526
344.28	60.629
344.65	62.941
345.01	59.512
345.37	60.720
345.73	60.491
346.10	60.188
346.46	61.017
346.82	61.450
347.19	59.983
347.55	59.278
347.91	62.379
348.27	62.531
348.63	61.538
349.00	59.709
349.36	61.741
349.72	60.465
350.08	60.616
350.45	61.920
350.81	61.251
351.17	60.292
351.53	61.343
351.89	59.818
352.26	61.405
352.62	62.550
352.98	59.806
353.34	61.052
353.70	61.293
354.07	61.210
354.43	59.683
354.79	60.660
355.15	60.335
355.51	62.350
355.87	63.347
356.24	61.319
356.60	60.064
356.96	62.430
357.32	63.042
357.68	62.441
358.04	61.758
358.40	62.074
358.77	59.937
359.13	61.563
359.49	61.255
359.85	61.429
360.21	61.882
360.57	63.346
360.93	61.231
361.29	60.242
361.66	60.759
362.02	63.060
362.38	62.814
362.74	60.491
363.10	60.178
363.46	61.262
363.82	63.568
364.18	61.307
364.54	62.630
364.90	62.252
365.26	62.941
365.62	62.162
365.98	61.432
366.35	61.390
366.71	62.834
367.07	61.617
367.43	63.570
367.79	62.884
368.15	62.787
368.51	63.299
368.87	63.812
369.23	63.643
369.59	62.781
369.95	63.015
370.31	62.749
370.67	60.652
371.03	63.446
371.39	62.391
371.75	62.647
372.11	62.945
372.47	64.150
372.83	64.481
373.19	62.428
373.55	63.932
373.91	64.507
374.27	62.612
374.63	64.073
374.99	63.559
375.35	63.503
375.71	63.879
376.07	63.649
376.42	64.649
376.78	63.419
377.14	63.636
377.50	62.980
377.86	61.902
378.22	63.274
378.58	63.221
378.94	63.419
379.30	64.885
379.66	64.277
380.02	64.619
380.38	63.024
380.74	64.286
381.09	64.242
381.45	65.458
381.81	64.926
382.17	64.713
382.53	65.849
382.89	65.000
383.25	63.852
383.61	66.047
383.97	64.978
384.32	64.691
384.68	64.002
385.04	64.966
385.40	65.635
385.76	64.803
386.12	64.767
386.48	66.079
386.83	67.672
387.19	66.543
387.55	65.986
387.91	65.538
388.27	65.359
388.62	65.704
388.98	65.479
389.34	65.832
389.70	66.524
390.06	65.209
390.42	67.380
390.77	66.094
391.13	67.326
391.49	66.244
391.85	66.518
392.20	66.688
392.56	66.667
392.92	67.981
393.28	65.503
393.64	66.487
393.99	65.547
394.35	66.998
394.71	66.437
395.07	66.293
395.42	68.171
395.78	67.430
396.14	65.363
396.50	69.486
396.85	67.324
397.21	66.215
397.57	67.204
397.92	66.526
398.28	66.087
398.64	67.802
399.00	67.711
399.35	67.005
399.71	67.130
400.07	67.238
400.42	67.914
400.78	68.396
401.14	68.110
401.49	68.955
401.85	68.482
402.21	67.126
402.57	68.600
402.92	69.672
403.28	70.081
403.63	68.502
403.99	69.554
404.35	68.909
404.70	69.544
405.06	67.618
405.42	68.746
405.77	69.029
406.13	68.962
406.49	69.545
406.84	69.167
407.20	68.499
407.55	70.006
407.91	70.867
408.27	69.241
408.62	68.573
408.98	69.056
409.34	70.234
409.69	69.871
410.05	70.384
410.40	69.358
410.76	70.550
411.11	69.602
411.47	69.457
411.83	69.517
412.18	69.264
412.54	69.303
412.89	69.699
413.25	70.248
413.60	70.723
413.96	68.427
414.31	69.137
414.67	70.469
415.03	71.192
415.38	70.168
415.74	69.646
416.09	70.999
416.45	70.950
416.80	71.051
417.16	71.850
417.51	71.931
417.87	69.942
418.22	71.924
418.58	70.497
418.93	70.700
419.29	71.165
419.64	70.781
420.00	70.976
420.35	69.623
420.71	71.548
421.06	69.809
421.42	70.526
421.77	70.908
422.12	70.298
422.48	71.506
422.83	72.510
423.19	70.939
423.54	73.186
423.90	71.246
424.25	70.966
424.61	71.726
424.96	71.662
425.31	71.539
425.67	71.461
426.02	70.114
426.38	74.115
426.73	71.211
427.09	72.401
427.44	72.743
427.79	72.455
428.15	71.310
428.50	70.392
428.85	70.799
429.21	71.839
429.56	71.280
429.92	71.263
430.27	71.301
430.62	72.350
430.98	71.718
431.33	72.938
431.68	73.037
432.04	71.459
432.39	73.558
432.74	73.728
433.10	72.949
433.45	73.120
433.80	72.062
434.16	72.756
434.51	72.263
434.86	74.059
435.22	73.652
435.57	73.252
435.92	74.195
436.28	74.199
436.63	73.124
436.98	74.184
437.34	75.373
437.69	75.263
438.04	75.717
438.39	74.746
438.75	76.235
439.10	75.810
439.45	72.314
439.81	74.139
440.16	74.647
440.51	75.571
440.86	73.596
441.22	73.749
441.57	73.938
441.92	74.514
442.27	74.704
442.63	74.724
442.98	75.549
443.33	74.293
443.68	74.703
444.03	75.744
444.39	74.586
444.74	76.082
445.09	73.854
445.44	74.850
445.79	74.369
446.15	72.790
446.50	73.990
446.85	74.152
447.20	75.676
447.55	76.270
447.91	75.069
448.26	76.238
448.61	75.297
448.96	75.526
449.31	76.715
449.66	74.676
450.02	76.267
450.37	75.113
450.72	76.199
451.07	75.686
451.42	75.441
451.77	76.042
452.12	75.924
452.47	77.550
452.83	77.797
453.18	75.611
453.53	77.737
453.88	77.200
454.23	76.689
454.58	76.196
454.93	78.004
455.28	77.494
455.63	77.002
455.98	78.214
456.34	78.455
456.69	76.769
457.04	77.523
457.39	77.265
457.74	77.307
458.09	76.136
458.44	77.708
458.79	74.837
459.14	77.144
459.49	77.350
459.84	76.288
460.19	76.252
460.54	75.116
460.89	76.742
461.24	76.685
461.59	76.816
461.94	76.141
462.29	79.169
462.64	76.388
462.99	75.992
463.34	77.400
463.69	77.611
464.04	76.522
464.39	77.159
464.74	76.114
465.09	76.960
465.44	77.008
465.79	76.174
466.14	75.041
466.49	76.696
466.84	78.225
467.19	76.524
467.54	79.188
467.89	76.230
468.24	77.022
468.59	77.473
468.94	77.520
469.29	79.049
469.64	78.514
469.99	78.958
470.34	78.071
470.68	78.233
471.03	78.027
471.38	79.500
471.73	78.548
472.08	79.079
472.43	76.884
472.78	77.946
473.13	79.461
473.48	78.402
473.83	78.476
474.17	79.216
474.52	77.730
474.87	78.984
475.22	76.611
475.57	77.055
475.92	78.386
476.27	77.790
476.61	77.661
476.96	78.505
477.31	77.342
477.66	79.486
478.01	77.156
478.36	79.693
478.70	78.712
479.05	78.594
479.40	78.557
479.75	77.834
480.10	78.082
480.45	77.106
480.79	77.210
481.14	77.593
481.49	78.690
481.84	77.321
482.19	77.828
482.53	77.018
482.88	78.083
483.23	78.037
483.58	77.480
483.92	78.444
484.27	75.686
484.62	77.586
484.97	76.271
485.31	75.719
485.66	71.681
486.01	71.923
486.36	72.333
486.70	73.408
487.05	75.395
487.40	74.923
487.75	74.781
488.09	75.038
488.44	74.883
488.79	76.311
489.13	76.585
489.48	76.550
489.83	77.341
490.17	79.658
490.52	78.299
490.87	78.155
491.22	78.308
491.56	77.312
491.91	78.362
492.26	78.043
492.60	76.959
492.95	78.344
493.30	76.636
493.64	77.462
493.99	77.344
494.34	78.585
494.68	78.526
495.03	78.430
495.37	77.524
495.72	78.850
496.07	78.561
496.41	75.487
496.76	77.617
497.11	76.947
497.45	78.016
497.80	77.255
498.14	77.729
498.49	78.439
498.84	77.565
499.18	77.952
499.53	77.920
499.87	78.192
500.22	77.343
500.56	80.000
500.91	76.779
501.26	77.288
501.60	78.690
501.95	77.406
502.29	78.632
502.64	77.700
502.98	77.653
503.33	77.057
503.67	77.262
504.02	77.643
504.36	77.351
504.71	77.479
505.06	77.205
505.40	77.491
505.75	76.953
506.09	77.988
506.44	78.441
506.78	76.912
507.13	79.758
507.47	78.333
507.82	78.419
508.16	79.382
508.51	79.858
508.85	77.557
509.19	78.520
509.54	78.469
509.88	77.898
510.23	78.663
510.57	81.011
510.92	79.337
511.26	79.034
511.61	77.697
511.95	77.557
512.30	78.844
512.64	79.258
512.98	78.725
513.33	78.908
513.67	77.375
514.02	77.435
514.36	79.519
514.70	79.469
515.05	79.810
515.39	79.136
515.74	78.941
516.08	78.424
516.42	78.080
516.77	78.986
517.11	77.802
517.46	80.079
517.80	80.139
518.14	77.186
518.49	79.230
518.83	78.295
519.17	78.637
519.52	78.834
519.86	79.064
520.20	80.462
520.55	80.910
520.89	79.562
521.23	80.338
521.58	80.432
521.92	79.792
522.26	78.340
522.61	80.685
522.95	80.417
523.29	79.306
523.64	80.244
523.98	80.222
524.32	79.011
524.66	79.675
525.01	79.534
525.35	78.501
525.69	76.970
526.04	79.065
526.38	79.134
526.72	78.037
527.06	78.908
527.41	78.218
527.75	81.286
528.09	80.026
528.43	79.669
528.78	79.164
529.12	77.152
529.46	78.812
529.80	78.713
530.15	79.315
530.49	75.754
530.83	78.418
531.17	79.634
531.51	78.794
531.86	77.613
532.20	79.009
532.54	78.668
532.88	77.343
533.22	76.640
533.57	75.926
533.91	75.978
534.25	75.273
534.59	76.632
534.93	75.134
535.27	76.041
535.62	77.045
535.96	77.401
536.30	76.860
536.64	76.046
536.98	76.775
537.32	77.024
537.66	77.200
538.01	77.222
538.35	76.406
538.69	77.409
539.03	76.543
539.37	75.591
539.71	74.465
540.05	76.667
540.39	76.744
540.73	75.032
541.07	76.314
541.42	75.082
541.76	76.000
542.10	75.420
542.44	76.358
542.78	77.141
543.12	72.809
543.46	75.869
543.80	74.756
544.14	74.840
544.48	74.476
544.82	74.856
545.16	74.886
545.50	74.743
545.84	75.269
546.18	76.431
546.52	76.325
546.86	75.326
547.20	75.523
547.54	74.349
547.88	74.235
548.22	72.727
548.56	73.459
548.90	72.727
549.24	74.545
549.58	74.488
549.92	74.313
550.26	75.710
550.60	72.960
550.94	74.437
551.28	74.250
551.62	75.773
551.96	73.544
552.30	74.676
552.64	73.901
552.98	74.508
553.32	73.028
553.66	74.301
554.00	73.164
554.34	73.085
554.68	73.891
555.02	73.413
555.36	72.234
555.69	72.260
556.03	72.813
556.37	71.896
556.71	70.805
557.05	72.899
557.39	71.099
557.73	71.771
558.07	73.894
558.41	73.010
558.75	73.108
559.08	72.558
559.42	73.545
559.76	69.853
560.10	71.592
560.44	70.999
560.78	70.725
561.12	69.921
561.45	71.186
561.79	70.600
562.13	70.959
562.47	69.399
562.81	70.642
563.15	70.368
563.48	68.568
563.82	70.515
564.16	69.980
564.50	70.833
564.84	67.446
565.17	69.241
565.51	69.137
565.85	69.416
566.19	69.192
566.52	68.651
566.86	67.511
567.20	67.630
567.54	67.922
567.88	66.160
568.21	66.878
568.55	65.217
568.89	64.932
569.23	64.439
569.56	63.077
569.90	62.679
570.24	61.859
570.57	61.510
570.91	59.955
571.25	59.697
571.59	59.175
571.92	60.196
572.26	59.532
572.60	59.910
572.93	58.441
573.27	58.533
573.61	58.236
573.95	58.062
574.28	57.688
574.62	57.580
574.96	56.941
575.29	57.323
575.63	56.784
575.97	57.329
576.30	57.037
576.64	57.594
576.98	56.393
577.31	56.285
577.65	56.156
577.98	55.489
578.32	55.520
578.66	55.220
578.99	56.357
579.33	56.185
579.67	55.802
580.00	55.550
580.34	55.695
580.67	54.644
581.01	55.341
581.35	54.633
581.68	54.250
582.02	54.172
582.35	54.503
582.69	54.899
583.02	54.572
583.36	55.453
583.70	55.195
584.03	54.833
584.37	55.415
584.70	54.206
585.04	54.403
585.37	53.308
585.71	54.417
586.04	54.482
586.38	54.990
586.72	55.233
587.05	53.219
587.39	53.694
587.72	53.620
588.06	53.922
588.39	53.882
588.73	54.473
589.06	56.155
589.40	55.623
589.73	54.875
590.07	55.872
590.40	54.878
590.73	55.113
591.07	56.166
591.40	55.631
591.74	56.061
592.07	55.454
592.41	54.444
592.74	54.082
593.08	52.831
593.41	53.116
593.75	52.124
594.08	53.134
594.41	53.906
594.75	54.011
595.08	52.863
595.42	53.555
595.75	53.098
596.09	53.811
596.42	54.853
596.75	53.736
597.09	52.987
597.42	52.487
597.75	53.773
598.09	53.174
598.42	53.351
598.76	52.655
599.09	51.311
599.42	51.674
599.76	51.903
600.09	51.803
600.42	51.023
600.76	51.107
601.09	51.767
601.42	51.560
601.76	51.044
602.09	52.490
602.42	52.030
602.76	52.116
603.09	51.416
603.42	52.597
603.76	51.334
604.09	50.640
604.42	51.651
604.76	52.383
605.09	51.245
605.42	50.748
605.75	51.573
606.09	51.200
606.42	51.492
606.75	50.809
607.09	50.816
607.42	51.348
607.75	50.127
608.08	49.935
608.42	50.919
608.75	49.775
609.08	51.156
609.41	50.500
609.75	51.405
610.08	49.764
610.41	49.395
610.74	51.419
611.07	51.235
611.41	51.619
611.74	51.885
612.07	52.122
612.40	52.571
612.73	50.737
613.07	52.425
613.40	50.500
613.73	50.079
614.06	51.290
614.39	50.603
614.72	49.263
615.06	51.261
615.39	50.425
615.72	50.409
616.05	50.292
616.38	50.750
616.71	51.960
617.05	52.120
617.38	50.992
617.71	52.793
618.04	51.683
618.37	50.503
618.70	51.462
619.03	53.026
619.36	52.410
619.69	51.549
620.03	53.022
620.36	51.805
620.69	51.918
621.02	53.171
621.35	52.937
621.68	52.492
622.01	52.864
622.34	52.269
622.67	52.852
623.00	52.311
623.33	52.037
623.66	51.608
623.99	52.725
624.32	51.213
624.65	50.353
624.99	51.346
625.32	51.629
625.65	51.615
625.98	52.959
626.31	51.322
626.64	52.163
626.97	54.032
627.30	52.452
627.63	52.584
627.96	53.911
628.29	52.931
628.62	52.973
628.95	53.585
629.28	52.464
629.61	52.062
629.94	53.429
630.26	54.814
630.59	53.480
630.92	54.502
631.25	53.702
631.58	53.353
