SpectraSuite Data File
++++++++++++++++++++++++++++++++++++
Date: Wed May 13 21:00:41 PDT 2015
User: schluterlab
Dark Spectrum Present: Yes
Reference Spectrum Present: Yes
Number of Sampled Component Spectra: 1
Spectrometers: USB2E3373
Integration Time (usec): 3000 (USB2E3373)
Spectra Averaged: 3 (USB2E3373)
Boxcar Smoothing: 0 (USB2E3373)
Correct for Electrical Dark: No (USB2E3373)
Strobe/Lamp Enabled: No (USB2E3373)
Correct for Detector Non-linearity: No (USB2E3373)
Correct for Stray Light: No (USB2E3373)
Number of Pixels in Processed Spectrum: 2048
>>>>>Begin Processed Spectral Data<<<<<
178.53	0.000
178.91	150.000
179.29	91.667
179.67	-150.000
180.04	-266.667
180.42	-100.000
180.80	500.000
181.18	283.333
181.56	-50.000
181.94	50.000
182.31	0.000
182.69	130.769
183.07	-120.000
183.45	100.000
183.83	88.889
184.20	-57.143
184.58	166.667
184.96	166.667
185.34	71.429
185.72	0.000
186.09	-200.000
186.47	-180.000
186.85	40.000
187.23	-300.000
187.61	350.000
187.98	-0.000
188.36	100.000
188.74	0.000
189.12	54.545
189.49	70.000
189.87	25.000
190.25	20.000
190.63	400.000
191.00	0.000
191.38	160.000
191.76	100.000
192.14	116.667
192.51	21.053
192.89	100.000
193.27	75.000
193.65	-200.000
194.02	163.636
194.40	40.000
194.78	-200.000
195.15	-80.000
195.53	40.000
195.91	87.500
196.29	233.333
196.66	0.000
197.04	-50.000
197.42	80.000
197.79	40.000
198.17	0.000
198.55	233.333
198.92	-0.000
199.30	66.667
199.68	-20.000
200.05	250.000
200.43	83.333
200.81	-1000.000
201.18	160.000
201.56	66.667
201.94	275.000
202.31	65.217
202.69	-85.714
203.07	-33.333
203.44	-40.000
203.82	0.000
204.19	20.000
204.57	0.000
204.95	150.000
205.32	0.000
205.70	50.000
206.08	100.000
206.45	-66.667
206.83	75.000
207.20	-66.667
207.58	40.000
207.96	-700.000
208.33	57.143
208.71	-1600.000
209.08	-37.500
209.46	425.000
209.84	0.000
210.21	-0.000
210.59	1100.000
210.96	120.000
211.34	200.000
211.71	-600.000
212.09	66.667
212.46	-20.000
212.84	533.333
213.22	275.000
213.59	300.000
213.97	-450.000
214.34	-300.000
214.72	15.385
215.09	150.000
215.47	100.000
215.84	50.000
216.22	-12.500
216.59	250.000
216.97	366.667
217.34	22.222
217.72	0.000
218.09	233.333
218.47	1200.000
218.84	-85.714
219.22	50.000
219.59	200.000
219.97	-175.000
220.34	50.000
220.72	80.000
221.09	0.000
221.47	-50.000
221.84	1600.000
222.22	0.000
222.59	-1200.000
222.97	-200.000
223.34	50.000
223.72	-1100.000
224.09	-150.000
224.46	-9.091
224.84	-12.500
225.21	-14.286
225.59	-325.000
225.96	-33.333
226.34	10.000
226.71	71.429
227.08	450.000
227.46	87.500
227.83	300.000
228.21	31.250
228.58	-175.000
228.95	-29.412
229.33	56.250
229.70	12.500
230.08	-38.462
230.45	-87.500
230.82	-33.333
231.20	128.571
231.57	-100.000
231.95	900.000
232.32	108.333
232.69	76.471
233.07	-100.000
233.44	34.783
233.81	350.000
234.19	50.000
234.56	46.667
234.93	46.667
235.31	52.632
235.68	30.769
236.05	107.692
236.43	55.556
236.80	24.242
237.17	-20.000
237.55	5.882
237.92	6.897
238.29	11.111
238.67	38.889
239.04	41.935
239.41	23.404
239.79	27.660
240.16	44.186
240.53	46.429
240.91	53.571
241.28	30.357
241.65	20.968
242.02	28.947
242.40	46.377
242.77	34.783
243.14	42.308
243.51	28.723
243.89	30.769
244.26	50.000
244.63	25.962
245.00	37.500
245.38	39.496
245.75	32.787
246.12	33.083
246.49	26.829
246.87	31.092
247.24	38.514
247.61	32.450
247.98	35.256
248.36	36.095
248.73	34.270
249.10	31.313
249.47	32.258
249.84	41.579
250.22	36.816
250.59	32.243
250.96	37.727
251.33	25.359
251.70	37.238
252.08	33.891
252.45	35.802
252.82	32.319
253.19	34.241
253.56	30.935
253.94	38.078
254.31	36.268
254.68	37.584
255.05	32.343
255.42	33.217
255.79	32.515
256.16	34.385
256.54	36.190
256.91	32.911
257.28	34.906
257.65	33.758
258.02	28.152
258.39	34.503
258.76	32.849
259.14	35.227
259.51	31.461
259.88	33.333
260.25	31.944
260.62	33.708
260.99	33.422
261.36	30.829
261.73	33.827
262.10	32.570
262.47	31.605
262.85	32.090
263.22	33.077
263.59	30.390
263.96	33.577
264.33	31.731
264.70	32.558
265.07	34.722
265.44	35.402
265.81	34.783
266.18	34.396
266.55	32.969
266.92	33.051
267.29	32.305
267.66	33.970
268.03	35.597
268.40	31.780
268.77	33.058
269.14	33.061
269.51	34.497
269.88	32.179
270.25	35.381
270.62	32.172
270.99	33.268
271.36	34.524
271.73	34.137
272.10	32.762
272.47	32.246
272.84	32.874
273.21	34.442
273.58	35.451
273.95	31.887
274.32	31.903
274.69	32.605
275.06	34.099
275.43	30.885
275.80	31.915
276.17	34.254
276.54	31.972
276.91	32.230
277.28	31.949
277.65	31.469
278.02	33.750
278.39	32.327
278.76	32.609
279.13	34.477
279.50	31.034
279.87	32.971
280.23	30.811
280.60	31.488
280.97	31.169
281.34	33.596
281.71	30.732
282.08	32.479
282.45	32.131
282.82	30.192
283.19	31.860
283.56	32.812
283.92	31.193
284.29	29.329
284.66	30.807
285.03	29.153
285.40	30.060
285.77	32.733
286.14	31.307
286.51	32.534
286.87	30.769
287.24	31.121
287.61	30.723
287.98	30.000
288.35	29.955
288.72	29.842
289.08	29.202
289.45	29.662
289.82	29.955
290.19	29.313
290.56	27.699
290.93	28.867
291.29	28.181
291.66	26.913
292.03	29.837
292.40	27.860
292.77	27.845
293.13	29.847
293.50	28.105
293.87	28.267
294.24	28.836
294.60	28.609
294.97	26.323
295.34	25.198
295.71	25.361
296.08	26.178
296.44	26.148
296.81	25.213
297.18	27.125
297.55	25.590
297.91	25.590
298.28	24.697
298.65	25.739
299.02	27.106
299.38	25.644
299.75	25.962
300.12	24.070
300.48	25.029
300.85	24.596
301.22	23.577
301.59	25.704
301.95	23.461
302.32	23.687
302.69	23.842
303.05	23.699
303.42	26.250
303.79	23.870
304.15	25.192
304.52	25.591
304.89	24.142
305.25	23.600
305.62	25.163
305.99	25.789
306.35	26.646
306.72	25.941
307.09	25.443
307.45	25.559
307.82	23.789
308.19	22.466
308.55	24.258
308.92	24.558
309.29	22.923
309.65	25.574
310.02	24.950
310.38	23.679
310.75	24.359
311.12	25.656
311.48	25.519
311.85	25.787
312.22	26.209
312.58	25.024
312.95	26.567
313.31	26.538
313.68	25.382
314.05	27.788
314.41	27.474
314.78	27.609
315.14	27.222
315.51	28.164
315.87	27.525
316.24	28.926
316.61	28.950
316.97	29.907
317.34	29.144
317.70	29.438
318.07	29.459
318.43	30.443
318.80	29.843
319.16	30.946
319.53	30.376
319.89	30.894
320.26	32.532
320.62	31.881
320.99	31.686
321.35	30.776
321.72	33.301
322.08	34.225
322.45	34.875
322.81	33.734
323.18	34.168
323.54	36.282
323.91	35.140
324.27	36.904
324.64	35.540
325.00	35.608
325.37	36.945
325.73	37.037
326.10	36.501
326.46	38.127
326.83	37.783
327.19	38.780
327.56	39.001
327.92	38.214
328.29	39.983
328.65	39.790
329.01	41.161
329.38	41.043
329.74	40.086
330.11	41.659
330.47	41.233
330.84	42.329
331.20	39.539
331.56	42.301
331.93	41.688
332.29	42.224
332.66	41.525
333.02	42.398
333.38	42.456
333.75	42.833
334.11	44.705
334.48	42.633
334.84	43.198
335.20	41.509
335.57	42.124
335.93	42.526
336.29	41.506
336.66	43.077
337.02	42.435
337.38	41.427
337.75	42.205
338.11	41.674
338.47	42.209
338.84	40.378
339.20	43.651
339.56	42.150
339.93	42.524
340.29	41.845
340.65	41.317
341.02	41.764
341.38	42.145
341.74	41.681
342.11	41.536
342.47	42.008
342.83	41.912
343.20	42.640
343.56	40.965
343.92	41.024
344.28	41.315
344.65	41.796
345.01	40.839
345.37	42.105
345.73	41.748
346.10	41.734
346.46	41.057
346.82	41.894
347.19	41.456
347.55	42.084
347.91	41.231
348.27	42.587
348.63	41.266
349.00	41.116
349.36	41.601
349.72	40.681
350.08	41.810
350.45	41.660
350.81	41.706
351.17	41.416
351.53	40.534
351.89	39.793
352.26	40.463
352.62	40.620
352.98	40.815
353.34	41.063
353.70	39.953
354.07	40.706
354.43	40.980
354.79	41.987
355.15	40.683
355.51	39.711
355.87	40.344
356.24	40.690
356.60	40.735
356.96	40.522
357.32	39.783
357.68	41.253
358.04	40.807
358.40	41.318
358.77	41.208
359.13	40.000
359.49	40.802
359.85	40.561
360.21	40.786
360.57	40.837
360.93	40.895
361.29	40.563
361.66	40.926
362.02	40.252
362.38	40.103
362.74	40.102
363.10	41.432
363.46	40.418
363.82	40.281
364.18	38.361
364.54	40.773
364.90	40.557
365.26	39.278
365.62	39.276
365.98	39.786
366.35	39.291
366.71	39.515
367.07	40.184
367.43	39.094
367.79	40.028
368.15	39.662
368.51	38.959
368.87	41.242
369.23	39.786
369.59	40.310
369.95	40.131
370.31	39.191
370.67	40.695
371.03	39.866
371.39	38.822
371.75	38.786
372.11	40.242
372.47	40.519
372.83	39.251
373.19	39.712
373.55	39.957
373.91	39.604
374.27	39.557
374.63	39.972
374.99	40.460
375.35	39.932
375.71	39.266
376.07	39.890
376.42	38.503
376.78	39.960
377.14	40.475
377.50	40.482
377.86	40.505
378.22	40.202
378.58	39.975
378.94	39.438
379.30	39.663
379.66	40.382
380.02	40.074
380.38	39.398
380.74	40.586
381.09	40.229
381.45	40.145
381.81	40.173
382.17	39.130
382.53	38.769
382.89	38.902
383.25	39.630
383.61	41.223
383.97	38.750
384.32	40.580
384.68	39.975
385.04	39.951
385.40	39.539
385.76	40.693
386.12	39.832
386.48	39.687
386.83	39.362
387.19	40.407
387.55	39.424
387.91	40.775
388.27	40.444
388.62	40.512
388.98	40.175
389.34	39.223
389.70	39.683
390.06	39.750
390.42	40.077
390.77	38.885
391.13	40.846
391.49	39.911
391.85	40.000
392.20	39.850
392.56	40.000
392.92	39.438
393.28	39.163
393.64	40.122
393.99	38.862
394.35	40.679
394.71	40.128
395.07	39.434
395.42	40.646
395.78	38.932
396.14	39.696
396.50	40.140
396.85	40.854
397.21	40.075
397.57	39.938
397.92	39.162
398.28	39.255
398.64	40.194
399.00	40.346
399.35	40.182
399.71	40.070
400.07	40.000
400.42	40.376
400.78	38.973
401.14	40.221
401.49	40.623
401.85	40.233
402.21	40.186
402.57	40.343
402.92	40.175
403.28	39.837
403.63	40.298
403.99	40.115
404.35	40.461
404.70	40.423
405.06	39.695
405.42	40.013
405.77	40.207
406.13	39.886
406.49	39.365
406.84	39.255
407.20	39.195
407.55	41.364
407.91	39.246
408.27	39.676
408.62	40.147
408.98	40.444
409.34	40.037
409.69	40.481
410.05	40.547
410.40	39.014
410.76	40.915
411.11	40.050
411.47	40.876
411.83	40.487
412.18	40.995
412.54	40.977
412.89	39.248
413.25	40.000
413.60	40.690
413.96	39.451
414.31	39.704
414.67	40.190
415.03	39.783
415.38	39.168
415.74	40.091
416.09	39.921
416.45	40.260
416.80	41.275
417.16	40.891
417.51	39.518
417.87	37.963
418.22	39.819
418.58	40.670
418.93	39.548
419.29	41.122
419.64	40.013
420.00	40.571
420.35	39.988
420.71	39.366
421.06	41.267
421.42	41.910
421.77	41.098
422.12	40.860
422.48	40.131
422.83	40.520
423.19	40.023
423.54	40.518
423.90	40.855
424.25	41.306
424.61	41.405
424.96	40.154
425.31	39.035
425.67	41.623
426.02	41.343
426.38	42.040
426.73	41.112
427.09	40.713
427.44	40.810
427.79	40.499
428.15	41.223
428.50	40.242
428.85	41.328
429.21	40.630
429.56	40.755
429.92	40.968
430.27	39.724
430.62	41.133
430.98	41.089
431.33	40.677
431.68	41.693
432.04	40.958
432.39	41.051
432.74	41.447
433.10	41.488
433.45	41.716
433.80	40.345
434.16	41.289
434.51	41.087
434.86	41.873
435.22	42.501
435.57	41.523
435.92	41.797
436.28	41.261
436.63	41.801
436.98	41.422
437.34	41.880
437.69	41.027
438.04	40.917
438.39	42.154
438.75	41.478
439.10	42.105
439.45	41.949
439.81	42.796
440.16	42.551
440.51	41.439
440.86	42.146
441.22	43.373
441.57	41.811
441.92	41.524
442.27	41.017
442.63	41.550
442.98	41.840
443.33	42.889
443.68	41.645
444.03	42.226
444.39	42.439
444.74	41.855
445.09	41.134
445.44	43.211
445.79	42.127
446.15	42.928
446.50	41.300
446.85	42.758
447.20	42.185
447.55	42.250
447.91	42.416
448.26	42.882
448.61	42.002
448.96	43.052
449.31	42.947
449.66	43.031
450.02	42.410
450.37	42.773
450.72	42.365
451.07	42.759
451.42	41.921
451.77	43.457
452.12	42.781
452.47	42.350
452.83	43.160
453.18	43.921
453.53	42.749
453.88	44.096
454.23	43.758
454.58	43.750
454.93	44.131
455.28	43.160
455.63	42.795
455.98	44.370
456.34	42.784
456.69	44.728
457.04	43.715
457.39	43.836
457.74	42.968
458.09	43.187
458.44	44.301
458.79	42.889
459.14	43.146
459.49	43.110
459.84	43.123
460.19	43.097
460.54	43.005
460.89	44.369
461.24	43.465
461.59	44.324
461.94	43.173
462.29	44.240
462.64	44.855
462.99	44.936
463.34	44.890
463.69	45.103
464.04	42.677
464.39	43.197
464.74	43.120
465.09	43.273
465.44	43.266
465.79	43.703
466.14	42.474
466.49	44.809
466.84	43.873
467.19	44.968
467.54	44.264
467.89	44.060
468.24	44.991
468.59	44.168
468.94	44.508
469.29	45.010
469.64	45.258
469.99	45.724
470.34	45.718
470.68	46.394
471.03	45.346
471.38	45.828
471.73	44.856
472.08	45.842
472.43	45.317
472.78	45.030
473.13	43.602
473.48	44.945
473.83	46.453
474.17	45.378
474.52	46.019
474.87	44.753
475.22	45.411
475.57	45.064
475.92	44.220
476.27	44.988
476.61	44.960
476.96	46.088
477.31	44.444
477.66	45.424
478.01	45.000
478.36	46.104
478.70	44.898
479.05	45.450
479.40	44.098
479.75	45.058
480.10	44.416
480.45	44.483
480.79	44.450
481.14	45.289
481.49	45.585
481.84	43.968
482.19	44.743
482.53	44.714
482.88	44.631
483.23	44.321
483.58	44.802
483.92	44.455
484.27	45.197
484.62	43.675
484.97	43.758
485.31	43.025
485.66	41.292
486.01	40.545
486.36	39.832
486.70	39.956
487.05	40.882
487.40	41.540
487.75	42.492
488.09	42.039
488.44	43.183
488.79	44.247
489.13	44.095
489.48	45.447
489.83	45.690
490.17	44.576
490.52	46.190
490.87	45.155
491.22	44.701
491.56	46.670
491.91	45.271
492.26	46.083
492.60	45.455
492.95	46.210
493.30	45.640
493.64	45.228
493.99	47.005
494.34	45.231
494.68	46.158
495.03	45.800
495.37	45.791
495.72	46.516
496.07	45.738
496.41	44.923
496.76	45.795
497.11	45.681
497.45	45.720
497.80	47.501
498.14	47.254
498.49	46.041
498.84	46.862
499.18	46.093
499.53	45.889
499.87	44.493
500.22	47.437
500.56	46.790
500.91	46.730
501.26	46.305
501.60	46.176
501.95	46.382
502.29	45.583
502.64	46.528
502.98	46.339
503.33	46.180
503.67	45.910
504.02	46.225
504.36	46.161
504.71	46.494
505.06	47.020
505.40	47.423
505.75	46.745
506.09	46.602
506.44	46.673
506.78	46.978
507.13	46.778
507.47	47.296
507.82	46.991
508.16	47.230
508.51	46.488
508.85	46.656
509.19	46.984
509.54	47.828
509.88	46.344
510.23	47.474
510.57	48.093
510.92	48.222
511.26	48.735
511.61	47.366
511.95	47.630
512.30	47.640
512.64	49.886
512.98	46.039
513.33	48.394
513.67	47.700
514.02	48.119
514.36	47.921
514.70	50.000
515.05	48.859
515.39	48.939
515.74	48.313
516.08	48.319
516.42	48.041
516.77	48.506
517.11	48.854
517.46	49.820
517.80	50.605
518.14	47.949
518.49	48.222
518.83	48.449
519.17	49.458
519.52	50.362
519.86	50.273
520.20	49.363
520.55	49.689
520.89	49.842
521.23	50.321
521.58	48.989
521.92	49.591
522.26	50.293
522.61	49.386
522.95	50.648
523.29	49.841
523.64	49.777
523.98	49.555
524.32	50.473
524.66	50.519
525.01	50.721
525.35	50.955
525.69	50.033
526.04	49.121
526.38	50.414
526.72	50.427
527.06	49.001
527.41	48.908
527.75	49.866
528.09	51.327
528.43	50.271
528.78	49.483
529.12	51.035
529.46	49.456
529.80	49.838
530.15	49.743
530.49	50.741
530.83	50.440
531.17	50.753
531.51	49.292
531.86	49.119
532.20	49.345
532.54	50.276
532.88	50.647
533.22	49.764
533.57	48.278
533.91	49.548
534.25	49.740
534.59	47.941
534.93	49.235
535.27	49.172
535.62	48.750
535.96	48.211
536.30	48.737
536.64	48.325
536.98	49.965
537.32	51.744
537.66	48.942
538.01	50.069
538.35	49.378
538.69	47.692
539.03	49.060
539.37	48.558
539.71	49.045
540.05	48.988
540.39	48.727
540.73	49.162
541.07	48.980
541.42	49.495
541.76	48.106
542.10	47.800
542.44	48.995
542.78	48.855
543.12	49.124
543.46	47.823
543.80	48.880
544.14	50.034
544.48	48.640
544.82	48.420
545.16	47.465
545.50	48.886
545.84	47.896
546.18	48.107
546.52	48.130
546.86	47.562
547.20	48.177
547.54	48.678
547.88	47.099
548.22	47.818
548.56	48.499
548.90	47.497
549.24	48.958
549.58	48.327
549.92	50.770
550.26	49.373
550.60	49.925
550.94	48.507
551.28	49.432
551.62	49.850
551.96	48.316
552.30	48.472
552.64	47.316
552.98	48.580
553.32	48.161
553.66	47.982
554.00	48.164
554.34	47.399
554.68	48.173
555.02	49.401
555.36	50.076
555.69	48.143
556.03	48.177
556.37	48.933
556.71	48.283
557.05	49.225
557.39	48.003
557.73	50.605
558.07	48.455
558.41	49.584
558.75	47.960
559.08	49.078
559.42	50.511
559.76	49.618
560.10	49.962
560.44	49.668
560.78	49.137
561.12	48.003
561.45	47.007
561.79	47.799
562.13	48.101
562.47	49.500
562.81	48.268
563.15	49.292
563.48	47.488
563.82	47.743
564.16	47.461
564.50	48.372
564.84	48.378
565.17	45.828
565.51	46.992
565.85	47.102
566.19	47.748
566.52	47.117
566.86	46.397
567.20	45.999
567.54	45.078
567.88	44.457
568.21	43.726
568.55	43.818
568.89	43.719
569.23	42.896
569.56	41.385
569.90	41.526
570.24	40.144
570.57	39.748
570.91	39.581
571.25	39.108
571.59	38.936
571.92	38.428
572.26	38.699
572.60	38.867
572.93	39.550
573.27	38.567
573.61	38.842
573.95	37.969
574.28	37.767
574.62	37.719
574.96	38.041
575.29	37.437
575.63	37.592
575.97	38.179
576.30	37.059
576.64	37.307
576.98	37.740
577.31	37.485
577.65	36.868
577.98	36.892
578.32	36.085
578.66	36.581
578.99	37.136
579.33	37.181
579.67	37.424
580.00	36.994
580.34	37.155
580.67	38.094
581.01	36.730
581.35	37.007
581.68	36.002
582.02	36.198
582.35	36.347
582.69	36.425
583.02	36.321
583.36	36.537
583.70	37.542
584.03	37.692
584.37	36.995
584.70	37.443
585.04	37.330
585.37	36.695
585.71	37.313
586.04	36.967
586.38	37.069
586.72	37.117
587.05	38.043
587.39	37.307
587.72	37.527
588.06	37.647
588.39	37.196
588.73	37.756
589.06	38.086
589.40	38.356
589.73	38.879
590.07	39.227
590.40	39.909
590.73	40.073
591.07	40.410
591.40	40.174
591.74	40.640
592.07	40.575
592.41	40.541
592.74	39.120
593.08	38.735
593.41	38.953
593.75	37.597
594.08	39.102
594.41	38.720
594.75	38.268
595.08	38.872
595.42	38.440
595.75	39.407
596.09	39.069
596.42	39.461
596.75	40.061
597.09	39.763
597.42	40.781
597.75	40.978
598.09	40.255
598.42	41.387
598.76	40.176
599.09	40.496
599.42	38.557
599.76	38.941
600.09	38.742
600.42	38.644
600.76	38.987
601.09	38.531
601.42	39.200
601.76	39.151
602.09	39.968
602.42	40.735
602.76	39.765
603.09	40.575
603.42	39.864
603.76	38.581
604.09	39.012
604.42	39.807
604.76	39.808
605.09	41.187
605.42	41.251
605.75	40.000
606.09	38.783
606.42	40.233
606.75	40.043
607.09	40.736
607.42	39.536
607.75	38.950
608.08	40.848
608.42	40.206
608.75	40.325
609.08	40.764
609.41	41.381
609.75	41.150
610.08	41.617
610.41	41.254
610.74	39.846
611.07	41.283
611.41	41.453
611.74	41.822
612.07	41.219
612.40	43.243
612.73	42.700
613.07	42.683
613.40	42.456
613.73	41.712
614.06	41.349
614.39	41.134
614.72	42.643
615.06	41.667
615.39	41.998
615.72	41.523
616.05	41.892
616.38	41.753
616.71	42.352
617.05	43.919
617.38	43.007
617.71	43.321
618.04	42.474
618.37	44.038
618.70	42.561
619.03	43.299
619.36	44.128
619.69	44.956
620.03	44.240
620.36	44.468
620.69	43.897
621.02	45.154
621.35	46.443
621.68	46.129
622.01	47.654
622.34	45.757
622.67	46.359
623.00	46.429
623.33	45.924
623.66	45.279
623.99	46.662
624.32	44.461
624.65	45.401
624.99	45.334
625.32	45.855
625.65	45.814
625.98	46.919
626.31	46.776
626.64	47.206
626.97	46.367
627.30	48.503
627.63	47.059
627.96	46.753
628.29	51.442
628.62	51.451
628.95	49.499
629.28	49.557
629.61	50.144
629.94	49.613
630.26	49.458
630.59	50.250
630.92	49.096
631.25	51.081
631.58	51.499
631.91	50.371
632.24	49.286
632.57	48.889
632.90	54.492
633.23	53.717
633.56	53.118
633.89	52.871
634.22	52.297
