SpectraSuite Data File
++++++++++++++++++++++++++++++++++++
Date: Wed May 13 20:38:06 PDT 2015
User: schluterlab
Dark Spectrum Present: Yes
Reference Spectrum Present: Yes
Number of Sampled Component Spectra: 1
Spectrometers: USB2E3373
Integration Time (usec): 3000 (USB2E3373)
Spectra Averaged: 3 (USB2E3373)
Boxcar Smoothing: 0 (USB2E3373)
Correct for Electrical Dark: No (USB2E3373)
Strobe/Lamp Enabled: No (USB2E3373)
Correct for Detector Non-linearity: No (USB2E3373)
Correct for Stray Light: No (USB2E3373)
Number of Pixels in Processed Spectrum: 2048
>>>>>Begin Processed Spectral Data<<<<<
178.53	0.000
178.91	-1250.000
179.29	-1025.000
179.67	-122.222
180.04	-775.000
180.42	2200.000
180.80	820.000
181.18	-700.000
181.56	557.143
181.94	0.000
182.31	-471.429
182.69	1166.667
183.07	-350.000
183.45	-333.333
183.83	363.636
184.20	-340.000
184.58	2200.000
184.96	4900.000
185.34	-780.000
185.72	-462.500
186.09	-1650.000
186.47	2050.000
186.85	1700.000
187.23	2900.000
187.61	-1000.000
187.98	850.000
188.36	390.909
188.74	400.000
189.12	-560.000
189.49	480.000
189.87	-4200.000
190.25	-800.000
190.63	335.714
191.00	361.538
191.38	483.333
191.76	-925.000
192.14	1175.000
192.51	400.000
192.89	783.333
193.27	350.000
193.65	-1075.000
194.02	380.000
194.40	740.000
194.78	410.000
195.15	358.333
195.53	380.000
195.91	-1250.000
196.29	268.750
196.66	221.053
197.04	-180.000
197.42	0.000
197.79	480.000
198.17	-3800.000
198.55	600.000
198.92	412.500
199.30	720.000
199.68	0.000
200.05	244.444
200.43	514.286
200.81	2900.000
201.18	1266.667
201.56	-1500.000
201.94	422.222
202.31	488.889
202.69	308.333
203.07	420.000
203.44	0.000
203.82	925.000
204.19	614.286
204.57	335.714
204.95	437.500
205.32	1133.333
205.70	300.000
206.08	328.571
206.45	2300.000
206.83	250.000
207.20	783.333
207.58	560.000
207.96	194.444
208.33	612.500
208.71	-733.333
209.08	714.286
209.46	477.778
209.84	354.545
210.21	-1233.333
210.59	950.000
210.96	-312.500
211.34	2350.000
211.71	500.000
212.09	550.000
212.46	0.000
212.84	1133.333
213.22	975.000
213.59	-2800.000
213.97	616.667
214.34	571.429
214.72	563.636
215.09	880.000
215.47	-1750.000
215.84	-1650.000
216.22	1266.667
216.59	321.429
216.97	800.000
217.34	372.727
217.72	-450.000
218.09	0.000
218.47	-3400.000
218.84	466.667
219.22	571.429
219.59	833.333
219.97	-285.714
220.34	740.000
220.72	-1266.667
221.09	400.000
221.47	875.000
221.84	-750.000
222.22	0.000
222.59	850.000
222.97	-1550.000
223.34	760.000
223.72	315.385
224.09	660.000
224.46	1700.000
224.84	-3500.000
225.21	-940.000
225.59	-3100.000
225.96	550.000
226.34	230.000
226.71	1850.000
227.08	537.500
227.46	390.000
227.83	-925.000
228.21	-1400.000
228.58	522.222
228.95	-2150.000
229.33	-2100.000
229.70	1400.000
230.08	742.857
230.45	-600.000
230.82	358.333
231.20	583.333
231.57	371.429
231.95	466.667
232.32	163.636
232.69	290.909
233.07	400.000
233.44	276.923
233.81	-1366.667
234.19	242.105
234.56	266.667
234.93	308.333
235.31	281.818
235.68	276.923
236.05	271.429
236.43	139.394
236.80	210.526
237.17	4200.000
237.55	147.619
237.92	207.143
238.29	161.905
238.67	154.839
239.04	165.517
239.41	144.444
239.79	117.391
240.16	107.143
240.53	113.636
240.91	96.078
241.28	82.000
241.65	86.000
242.02	79.710
242.40	75.806
242.77	78.333
243.14	60.215
243.51	66.292
243.89	72.941
244.26	66.667
244.63	74.194
245.00	64.894
245.38	62.376
245.75	62.617
246.12	59.633
246.49	64.234
246.87	66.400
247.24	63.077
247.61	55.714
247.98	52.941
248.36	53.378
248.73	50.955
249.10	59.236
249.47	49.718
249.84	49.733
250.22	47.059
250.59	52.663
250.96	53.535
251.33	52.133
251.70	46.535
252.08	48.095
252.45	47.534
252.82	42.174
253.19	51.064
253.56	47.843
253.94	49.378
254.31	48.047
254.68	45.000
255.05	48.708
255.42	45.528
255.79	48.162
256.16	46.209
256.54	44.523
256.91	44.840
257.28	43.165
257.65	41.584
258.02	45.031
258.39	41.956
258.76	41.137
259.14	45.238
259.51	42.857
259.88	39.752
260.25	40.181
260.62	42.197
260.99	45.031
261.36	39.940
261.73	42.693
262.10	40.116
262.47	43.099
262.85	38.997
263.22	39.031
263.59	42.735
263.96	40.659
264.33	38.642
264.70	41.053
265.07	42.711
265.44	41.667
265.81	37.226
266.18	40.201
266.55	36.585
266.92	40.541
267.29	42.593
267.66	36.239
268.03	37.273
268.40	39.019
268.77	37.709
269.14	37.162
269.51	42.664
269.88	37.762
270.25	37.698
270.62	38.202
270.99	40.860
271.36	39.270
271.73	40.187
272.10	39.565
272.47	39.140
272.84	39.827
273.21	39.623
273.58	37.118
273.95	35.639
274.32	36.570
274.69	37.045
275.06	36.220
275.43	41.277
275.80	38.477
276.17	37.271
276.54	38.046
276.91	37.154
277.28	34.961
277.65	37.524
278.02	39.130
278.39	37.305
278.76	37.818
279.13	37.358
279.50	34.451
279.87	38.446
280.23	38.723
280.60	35.010
280.97	35.120
281.34	37.168
281.71	38.182
282.08	37.620
282.45	37.455
282.82	36.590
283.19	33.868
283.56	36.667
283.92	35.871
284.29	35.273
284.66	33.757
285.03	33.816
285.40	33.275
285.77	33.502
286.14	34.715
286.51	34.167
286.87	34.701
287.24	34.039
287.61	33.708
287.98	33.279
288.35	32.647
288.72	31.620
289.08	31.768
289.45	34.102
289.82	31.545
290.19	31.868
290.56	30.168
290.93	30.211
291.29	32.822
291.66	30.531
292.03	32.703
292.40	31.865
292.77	29.734
293.13	30.149
293.50	31.341
293.87	32.148
294.24	28.296
294.60	28.821
294.97	29.215
295.34	30.748
295.71	29.830
296.08	28.490
296.44	26.960
296.81	26.552
297.18	26.829
297.55	27.441
297.91	28.628
298.28	28.112
298.65	29.504
299.02	27.668
299.38	26.959
299.75	26.415
300.12	25.798
300.48	26.000
300.85	25.894
301.22	26.242
301.59	25.758
301.95	26.448
302.32	25.546
302.69	25.090
303.05	25.333
303.42	26.173
303.79	25.368
304.15	24.476
304.52	25.608
304.89	25.319
305.25	24.130
305.62	25.481
305.99	25.856
306.35	25.615
306.72	25.336
307.09	24.528
307.45	25.450
307.82	23.549
308.19	25.607
308.55	25.243
308.92	24.382
309.29	23.020
309.65	23.754
310.02	23.573
310.38	23.118
310.75	23.865
311.12	24.770
311.48	24.033
311.85	24.319
312.22	23.205
312.58	23.181
312.95	24.076
313.31	22.913
313.68	23.701
314.05	25.937
314.41	23.819
314.78	22.558
315.14	23.039
315.51	23.481
315.87	23.960
316.24	22.642
316.61	23.782
316.97	22.798
317.34	23.092
317.70	23.614
318.07	23.869
318.43	22.896
318.80	23.524
319.16	22.505
319.53	23.358
319.89	23.905
320.26	22.900
320.62	24.008
320.99	23.131
321.35	23.434
321.72	23.306
322.08	23.889
322.45	23.383
322.81	23.353
323.18	22.736
323.54	22.171
323.91	23.585
324.27	22.180
324.64	21.435
325.00	22.453
325.37	22.657
325.73	23.429
326.10	23.036
326.46	23.208
326.83	23.382
327.19	22.630
327.56	21.777
327.92	22.135
328.29	22.715
328.65	21.915
329.01	22.383
329.38	22.202
329.74	21.976
330.11	22.432
330.47	22.222
330.84	23.254
331.20	21.949
331.56	21.468
331.93	21.759
332.29	23.159
332.66	23.009
333.02	21.755
333.38	22.764
333.75	23.351
334.11	21.797
334.48	22.183
334.84	23.346
335.20	23.000
335.57	21.396
335.93	21.071
336.29	22.253
336.66	21.641
337.02	21.176
337.38	22.963
337.75	21.123
338.11	21.934
338.47	20.810
338.84	20.898
339.20	20.734
339.56	22.993
339.93	21.000
340.29	22.283
340.65	20.945
341.02	21.728
341.38	22.242
341.74	20.088
342.11	21.834
342.47	21.938
342.83	20.719
343.20	22.338
343.56	20.809
343.92	21.491
344.28	21.769
344.65	21.066
345.01	21.380
345.37	20.926
345.73	21.574
346.10	21.057
346.46	22.542
346.82	21.746
347.19	20.301
347.55	21.675
347.91	21.197
348.27	22.514
348.63	21.154
349.00	20.307
349.36	21.018
349.72	21.572
350.08	20.259
350.45	21.155
350.81	20.877
351.17	21.394
351.53	21.130
351.89	21.370
352.26	20.521
352.62	21.812
352.98	20.583
353.34	21.611
353.70	18.576
354.07	20.242
354.43	19.762
354.79	20.354
355.15	21.389
355.51	20.943
355.87	20.898
356.24	19.951
356.60	20.369
356.96	20.113
357.32	20.196
357.68	20.630
358.04	20.823
358.40	20.269
358.77	19.718
359.13	20.047
359.49	19.765
359.85	18.413
360.21	20.574
360.57	20.467
360.93	21.077
361.29	19.350
361.66	18.808
362.02	20.299
362.38	19.468
362.74	20.610
363.10	19.097
363.46	19.956
363.82	19.803
364.18	20.411
364.54	20.877
364.90	20.326
365.26	19.853
365.62	20.161
365.98	19.430
366.35	18.840
366.71	20.174
367.07	19.665
367.43	19.303
367.79	19.700
368.15	20.618
368.51	19.331
368.87	20.057
369.23	19.093
369.59	19.913
369.95	19.044
370.31	19.017
370.67	18.696
371.03	20.150
371.39	19.388
371.75	19.044
372.11	19.132
372.47	20.894
372.83	20.101
373.19	19.870
373.55	19.217
373.91	19.146
374.27	19.175
374.63	18.982
374.99	19.633
375.35	18.772
375.71	19.397
376.07	19.136
376.42	19.257
376.78	19.152
377.14	17.639
377.50	18.742
377.86	19.082
378.22	18.458
378.58	18.358
378.94	19.233
379.30	18.448
379.66	19.099
380.02	19.226
380.38	17.972
380.74	19.328
381.09	18.826
381.45	19.361
381.81	19.103
382.17	19.045
382.53	18.553
382.89	19.568
383.25	18.699
383.61	19.269
383.97	17.511
384.32	18.964
384.68	19.145
385.04	18.132
385.40	18.452
385.76	18.612
386.12	18.588
386.48	19.069
386.83	18.858
387.19	19.728
387.55	18.120
387.91	17.775
388.27	18.455
388.62	18.316
388.98	18.305
389.34	19.274
389.70	18.639
390.06	18.758
390.42	19.261
390.77	18.957
391.13	18.507
391.49	18.591
391.85	18.905
392.20	18.423
392.56	17.929
392.92	17.775
393.28	17.396
393.64	18.705
393.99	18.143
394.35	18.548
394.71	17.817
395.07	17.944
395.42	18.480
395.78	19.020
396.14	17.939
396.50	18.860
396.85	19.008
397.21	18.064
397.57	18.909
397.92	18.389
398.28	17.545
398.64	18.757
399.00	18.075
399.35	17.766
399.71	18.576
400.07	17.623
400.42	17.914
400.78	18.577
401.14	18.049
401.49	17.910
401.85	17.544
402.21	17.725
402.57	17.458
402.92	18.096
403.28	18.988
403.63	18.750
403.99	17.643
404.35	16.909
404.70	18.225
405.06	18.579
405.42	17.966
405.77	17.486
406.13	17.043
406.49	18.155
406.84	17.602
407.20	17.730
407.55	18.124
407.91	18.467
408.27	18.443
408.62	17.700
408.98	18.015
409.34	18.327
409.69	18.387
410.05	17.410
410.40	17.615
410.76	18.220
411.11	18.034
411.47	17.508
411.83	18.448
412.18	18.924
412.54	18.369
412.89	18.253
413.25	18.359
413.60	17.542
413.96	18.458
414.31	17.801
414.67	18.124
415.03	18.079
415.38	18.106
415.74	18.328
416.09	18.223
416.45	18.675
416.80	18.969
417.16	18.901
417.51	18.514
417.87	17.726
418.22	18.549
418.58	18.722
418.93	18.612
419.29	19.223
419.64	18.703
420.00	18.659
420.35	18.319
420.71	18.290
421.06	17.900
421.42	17.836
421.77	18.049
422.12	17.799
422.48	18.241
422.83	18.113
423.19	18.287
423.54	17.586
423.90	18.087
424.25	18.537
424.61	17.500
424.96	18.134
425.31	17.885
425.67	17.079
426.02	18.114
426.38	18.437
426.73	17.554
427.09	18.967
427.44	18.056
427.79	18.114
428.15	18.452
428.50	18.666
428.85	18.534
429.21	17.670
429.56	17.833
429.92	18.269
430.27	17.925
430.62	17.409
430.98	18.578
431.33	18.351
431.68	17.801
432.04	18.317
432.39	17.933
432.74	18.911
433.10	18.336
433.45	18.134
433.80	17.295
434.16	17.949
434.51	18.000
434.86	18.187
435.22	18.344
435.57	18.176
435.92	17.379
436.28	18.861
436.63	19.095
436.98	17.687
437.34	18.784
437.69	18.320
438.04	18.269
438.39	17.791
438.75	18.710
439.10	18.212
439.45	18.005
439.81	17.946
440.16	17.787
440.51	18.336
440.86	18.356
441.22	18.242
441.57	18.684
441.92	18.270
442.27	18.084
442.63	17.746
442.98	18.592
443.33	17.717
443.68	17.398
444.03	17.716
444.39	17.575
444.74	18.615
445.09	18.005
445.44	17.769
445.79	17.763
446.15	18.211
446.50	18.094
446.85	18.037
447.20	17.797
447.55	18.425
447.91	18.533
448.26	18.086
448.61	17.807
448.96	18.494
449.31	18.560
449.66	18.514
450.02	17.660
450.37	17.971
450.72	18.105
451.07	17.855
451.42	17.508
451.77	17.616
452.12	17.436
452.47	18.346
452.83	18.298
453.18	17.604
453.53	18.677
453.88	18.252
454.23	17.753
454.58	19.261
454.93	19.517
455.28	18.017
455.63	18.447
455.98	19.583
456.34	18.970
456.69	18.910
457.04	17.833
457.39	18.878
457.74	17.411
458.09	18.689
458.44	18.871
458.79	17.299
459.14	18.905
459.49	18.973
459.84	18.061
460.19	18.621
460.54	18.056
460.89	19.089
461.24	18.154
461.59	18.942
461.94	18.311
462.29	20.000
462.64	18.571
462.99	18.217
463.34	19.533
463.69	18.449
464.04	18.899
464.39	18.551
464.74	18.122
465.09	18.335
465.44	18.837
465.79	19.183
466.14	18.719
466.49	18.187
466.84	19.089
467.19	18.527
467.54	18.812
467.89	18.067
468.24	18.906
468.59	18.987
468.94	18.509
469.29	18.959
469.64	19.076
469.99	19.215
470.34	18.626
470.68	20.259
471.03	19.252
471.38	20.083
471.73	19.654
472.08	20.066
472.43	19.284
472.78	19.816
473.13	19.512
473.48	19.600
473.83	19.451
474.17	18.793
474.52	19.417
474.87	19.264
475.22	19.385
475.57	18.377
475.92	18.587
476.27	18.095
476.61	18.533
476.96	19.021
477.31	18.106
477.66	19.201
478.01	18.505
478.36	18.985
478.70	18.484
479.05	18.211
479.40	19.703
479.75	19.065
480.10	18.588
480.45	18.087
480.79	18.681
481.14	18.738
481.49	18.510
481.84	18.381
482.19	18.719
482.53	18.716
482.88	18.334
483.23	18.458
483.58	18.881
483.92	18.463
484.27	17.516
484.62	18.405
484.97	17.816
485.31	18.185
485.66	17.478
486.01	16.525
486.36	16.194
486.70	16.252
487.05	16.554
487.40	16.369
487.75	16.375
488.09	17.319
488.44	16.678
488.79	17.975
489.13	17.380
489.48	17.251
489.83	17.782
490.17	18.764
490.52	17.848
490.87	18.815
491.22	19.281
491.56	17.768
491.91	18.520
492.26	18.466
492.60	18.756
492.95	18.522
493.30	18.084
493.64	18.572
493.99	18.524
494.34	19.658
494.68	18.590
495.03	18.797
495.37	18.753
495.72	18.811
496.07	19.397
496.41	18.584
496.76	18.821
497.11	18.415
497.45	19.655
497.80	19.386
498.14	18.454
498.49	18.293
498.84	19.511
499.18	19.524
499.53	17.901
499.87	18.360
500.22	18.464
500.56	19.029
500.91	18.750
501.26	18.729
501.60	19.649
501.95	18.882
502.29	18.932
502.64	18.994
502.98	19.402
503.33	18.327
503.67	18.422
504.02	18.148
504.36	18.437
504.71	18.808
505.06	18.651
505.40	19.300
505.75	18.852
506.09	18.805
506.44	18.698
506.78	18.997
507.13	18.829
507.47	19.545
507.82	19.504
508.16	19.250
508.51	19.838
508.85	19.265
509.19	19.745
509.54	19.337
509.88	18.959
510.23	19.794
510.57	19.092
510.92	19.368
511.26	19.270
511.61	19.398
511.95	18.946
512.30	19.353
512.64	19.936
512.98	19.989
513.33	19.754
513.67	19.477
514.02	19.643
514.36	19.716
514.70	19.369
515.05	20.190
515.39	19.910
515.74	19.257
516.08	20.458
516.42	20.533
516.77	20.736
517.11	19.867
517.46	20.598
517.80	19.686
518.14	19.919
518.49	20.595
518.83	20.511
519.17	20.035
519.52	20.204
519.86	20.308
520.20	20.694
520.55	21.245
520.89	20.499
521.23	20.989
521.58	20.408
521.92	21.004
522.26	19.951
522.61	20.374
522.95	20.135
523.29	20.268
523.64	20.122
523.98	20.641
524.32	20.627
524.66	20.505
525.01	21.140
525.35	19.950
525.69	20.874
526.04	20.312
526.38	21.110
526.72	20.000
527.06	20.465
527.41	20.111
527.75	21.093
528.09	21.901
528.43	20.650
528.78	20.652
529.12	20.606
529.46	20.943
529.80	20.235
530.15	21.246
530.49	20.431
530.83	20.696
531.17	21.671
531.51	21.790
531.86	20.581
532.20	21.578
532.54	21.140
532.88	21.117
533.22	20.175
533.57	19.938
533.91	20.470
534.25	20.231
534.59	20.805
534.93	20.405
535.27	19.976
535.62	21.368
535.96	20.716
536.30	21.869
536.64	20.863
536.98	20.703
537.32	20.079
537.66	19.733
538.01	20.803
538.35	21.138
538.69	20.740
539.03	20.468
539.37	20.064
539.71	19.896
540.05	20.588
540.39	20.864
540.73	20.246
541.07	20.896
541.42	21.787
541.76	21.226
542.10	20.828
542.44	20.596
542.78	21.344
543.12	20.921
543.46	20.984
543.80	20.820
544.14	20.090
544.48	19.619
544.82	20.462
545.16	20.755
545.50	20.501
545.84	21.035
546.18	20.067
546.52	21.404
546.86	20.962
547.20	21.848
547.54	20.107
547.88	21.173
548.22	20.237
548.56	20.377
548.90	20.230
549.24	20.606
549.58	20.737
549.92	20.673
550.26	21.236
550.60	20.678
550.94	20.493
551.28	20.410
551.62	21.280
551.96	20.982
552.30	21.638
552.64	21.501
552.98	21.898
553.32	20.432
553.66	21.541
554.00	21.551
554.34	20.497
554.68	21.674
555.02	20.381
555.36	21.294
555.69	20.230
556.03	20.256
556.37	20.464
556.71	21.146
557.05	20.798
557.39	21.134
557.73	21.313
558.07	20.450
558.41	20.984
558.75	21.234
559.08	21.327
559.42	21.013
559.76	22.279
560.10	21.128
560.44	20.894
560.78	19.960
561.12	21.570
561.45	20.991
561.79	20.303
562.13	21.060
562.47	20.355
562.81	21.339
563.15	21.739
563.48	20.889
563.82	21.135
564.16	21.256
564.50	20.312
564.84	21.113
565.17	20.335
565.51	20.639
565.85	20.558
566.19	20.038
566.52	20.583
566.86	19.952
567.20	19.988
567.54	20.833
567.88	19.555
568.21	20.159
568.55	19.717
568.89	19.261
569.23	19.563
569.56	18.623
569.90	18.302
570.24	18.371
570.57	18.531
570.91	17.292
571.25	17.820
571.59	17.526
571.92	17.396
572.26	17.649
572.60	17.087
572.93	17.391
573.27	17.391
573.61	17.113
573.95	17.106
574.28	17.387
574.62	17.007
574.96	16.726
575.29	17.144
575.63	16.794
575.97	16.194
576.30	17.207
576.64	16.705
576.98	16.650
577.31	16.867
577.65	16.938
577.98	16.747
578.32	16.144
578.66	16.730
578.99	16.845
579.33	16.170
579.67	16.152
580.00	16.615
580.34	16.706
580.67	16.545
581.01	16.775
581.35	16.281
581.68	16.161
582.02	16.145
582.35	16.293
582.69	16.562
583.02	16.468
583.36	16.417
583.70	16.384
584.03	16.327
584.37	16.812
584.70	16.641
585.04	16.805
585.37	16.705
585.71	16.541
586.04	16.840
586.38	16.850
586.72	17.343
587.05	17.006
587.39	16.306
587.72	17.444
588.06	16.782
588.39	17.723
588.73	16.720
589.06	17.326
589.40	17.475
589.73	17.423
590.07	17.438
590.40	16.697
590.73	17.486
591.07	18.600
591.40	18.009
591.74	18.355
592.07	17.234
592.41	18.107
592.74	17.678
593.08	17.921
593.41	17.494
593.75	17.052
594.08	17.197
594.41	17.568
594.75	17.264
595.08	17.466
595.42	17.758
595.75	17.379
596.09	17.799
596.42	17.839
596.75	17.560
597.09	18.615
597.42	17.580
597.75	18.068
598.09	18.261
598.42	17.784
598.76	17.876
599.09	18.092
599.42	17.140
599.76	17.496
600.09	17.231
600.42	17.348
600.76	16.857
601.09	17.231
601.42	17.123
601.76	17.306
602.09	17.984
602.42	17.954
602.76	18.178
603.09	17.703
603.42	18.274
603.76	17.416
604.09	17.487
604.42	17.733
604.76	17.798
605.09	18.654
605.42	17.828
605.75	18.046
606.09	17.853
606.42	17.736
606.75	18.084
607.09	17.874
607.42	18.186
607.75	17.637
608.08	17.455
608.42	18.557
608.75	17.899
609.08	18.039
609.41	18.372
609.75	18.104
610.08	18.332
610.41	17.644
610.74	18.070
611.07	18.478
611.41	17.812
611.74	18.854
612.07	18.582
612.40	19.150
612.73	19.158
613.07	18.534
613.40	18.536
613.73	18.039
614.06	18.548
614.39	18.668
614.72	18.632
615.06	18.908
615.39	17.622
615.72	18.814
616.05	18.394
616.38	18.733
616.71	19.121
617.05	18.963
617.38	19.242
617.71	19.399
618.04	19.651
618.37	18.805
618.70	19.788
619.03	21.316
619.36	20.502
619.69	20.070
620.03	20.192
620.36	21.056
620.69	20.205
621.02	20.944
621.35	20.595
621.68	20.483
622.01	20.820
622.34	21.558
622.67	20.000
623.00	20.983
623.33	20.515
623.66	20.872
623.99	20.987
624.32	20.613
624.65	19.633
624.99	19.830
625.32	19.623
625.65	20.511
625.98	20.676
626.31	21.073
626.64	20.980
626.97	20.532
627.30	22.195
627.63	21.739
627.96	21.615
628.29	21.172
628.62	21.500
628.95	23.679
629.28	21.898
629.61	23.465
629.94	24.000
630.26	21.735
630.59	23.737
630.92	22.318
631.25	22.113
