SpectraSuite Data File
++++++++++++++++++++++++++++++++++++
Date: Wed May 13 20:59:16 PDT 2015
User: schluterlab
Dark Spectrum Present: Yes
Reference Spectrum Present: Yes
Number of Sampled Component Spectra: 1
Spectrometers: USB2E3373
Integration Time (usec): 3000 (USB2E3373)
Spectra Averaged: 3 (USB2E3373)
Boxcar Smoothing: 0 (USB2E3373)
Correct for Electrical Dark: No (USB2E3373)
Strobe/Lamp Enabled: No (USB2E3373)
Correct for Detector Non-linearity: No (USB2E3373)
Correct for Stray Light: No (USB2E3373)
Number of Pixels in Processed Spectrum: 2048
>>>>>Begin Processed Spectral Data<<<<<
178.53	0.000
178.91	-100.000
179.29	100.000
179.67	-50.000
180.04	-166.667
180.42	60.000
180.80	500.000
181.18	-0.000
181.56	-75.000
181.94	75.000
182.31	63.636
182.69	76.923
183.07	-100.000
183.45	133.333
183.83	55.556
184.20	-57.143
184.58	400.000
184.96	-0.000
185.34	171.429
185.72	0.000
186.09	800.000
186.47	-80.000
186.85	-80.000
187.23	100.000
187.61	200.000
187.98	100.000
188.36	37.500
188.74	0.000
189.12	81.818
189.49	60.000
189.87	83.333
190.25	40.000
190.63	100.000
191.00	-40.000
191.38	140.000
191.76	100.000
192.14	66.667
192.51	-21.053
192.89	100.000
193.27	150.000
193.65	20.000
194.02	136.364
194.40	90.000
194.78	500.000
195.15	220.000
195.53	-80.000
195.91	62.500
196.29	166.667
196.66	0.000
197.04	400.000
197.42	-20.000
197.79	110.000
198.17	-100.000
198.55	300.000
198.92	-25.000
199.30	266.667
199.68	80.000
200.05	-500.000
200.43	116.667
200.81	-100.000
201.18	-20.000
201.56	-83.333
201.94	725.000
202.31	-8.696
202.69	42.857
203.07	-366.667
203.44	100.000
203.82	133.333
204.19	60.000
204.57	0.000
204.95	-116.667
205.32	0.000
205.70	150.000
206.08	0.000
206.45	33.333
206.83	200.000
207.20	200.000
207.58	80.000
207.96	-900.000
208.33	-14.286
208.71	-100.000
209.08	237.500
209.46	200.000
209.84	0.000
210.21	-0.000
210.59	700.000
210.96	-20.000
211.34	100.000
211.71	-550.000
212.09	0.000
212.46	-10.000
212.84	233.333
213.22	350.000
213.59	400.000
213.97	-500.000
214.34	200.000
214.72	-7.692
215.09	100.000
215.47	122.222
215.84	200.000
216.22	-12.500
216.59	0.000
216.97	333.333
217.34	-11.111
217.72	0.000
218.09	-33.333
218.47	700.000
218.84	71.429
219.22	-37.500
219.59	-333.333
219.97	100.000
220.34	112.500
220.72	0.000
221.09	0.000
221.47	83.333
221.84	800.000
222.22	0.000
222.59	-400.000
222.97	0.000
223.34	41.667
223.72	-200.000
224.09	100.000
224.46	36.364
224.84	0.000
225.21	14.286
225.59	100.000
225.96	-16.667
226.34	160.000
226.71	-14.286
227.08	-700.000
227.46	62.500
227.83	200.000
228.21	-25.000
228.58	75.000
228.95	23.529
229.33	75.000
229.70	50.000
230.08	15.385
230.45	12.500
230.82	8.333
231.20	28.571
231.57	125.000
231.95	1200.000
232.32	116.667
232.69	76.471
233.07	-1100.000
233.44	-34.783
233.81	-150.000
234.19	37.500
234.56	-20.000
234.93	-26.667
235.31	21.053
235.68	0.000
236.05	15.385
236.43	16.667
236.80	15.152
237.17	-46.667
237.55	5.882
237.92	6.897
238.29	-11.111
238.67	16.667
239.04	-6.452
239.41	8.511
239.79	29.787
240.16	9.302
240.53	37.500
240.91	12.500
241.28	10.714
241.65	8.065
242.02	9.211
242.40	4.348
242.77	18.841
243.14	24.359
243.51	14.894
243.89	13.462
244.26	26.415
244.63	7.692
245.00	20.833
245.38	17.647
245.75	18.033
246.12	21.053
246.49	5.691
246.87	5.882
247.24	13.514
247.61	11.921
247.98	17.949
248.36	13.609
248.73	15.730
249.10	17.677
249.47	13.441
249.84	21.579
250.22	16.915
250.59	17.757
250.96	17.273
251.33	11.962
251.70	18.410
252.08	20.084
252.45	18.519
252.82	16.730
253.19	16.732
253.56	16.187
253.94	17.794
254.31	13.380
254.68	17.785
255.05	16.832
255.42	13.287
255.79	13.804
256.16	19.558
256.54	17.778
256.91	10.443
257.28	17.610
257.65	13.057
258.02	14.956
258.39	15.789
258.76	14.535
259.14	15.341
259.51	15.730
259.88	13.821
260.25	14.167
260.62	12.079
260.99	15.119
261.36	16.839
261.73	15.062
262.10	13.486
262.47	13.580
262.85	13.433
263.22	14.359
263.59	15.584
263.96	12.895
264.33	15.865
264.70	15.349
265.07	15.741
265.44	16.322
265.81	15.103
266.18	14.806
266.55	12.882
266.92	14.619
267.29	16.872
267.66	14.013
268.03	15.638
268.40	12.712
268.77	17.562
269.14	13.265
269.51	17.659
269.88	14.053
270.25	15.466
270.62	13.730
270.99	16.535
271.36	16.468
271.73	15.261
272.10	14.095
272.47	17.850
272.84	16.929
273.21	15.656
273.58	14.549
273.95	15.094
274.32	14.179
274.69	13.479
275.06	16.784
275.43	16.384
275.80	13.652
276.17	15.101
276.54	13.854
276.91	15.854
277.28	15.162
277.65	15.559
278.02	16.250
278.39	12.966
278.76	14.047
279.13	14.065
279.50	15.517
279.87	14.855
280.23	14.595
280.60	10.727
280.97	12.825
281.34	16.562
281.71	13.333
282.08	16.581
282.45	14.754
282.82	13.099
283.19	16.006
283.56	15.469
283.92	13.761
284.29	13.105
284.66	14.168
285.03	12.052
285.40	13.444
285.77	14.264
286.14	15.653
286.51	13.943
286.87	12.769
287.24	13.274
287.61	15.663
287.98	12.941
288.35	13.860
288.72	13.773
289.08	15.100
289.45	12.775
289.82	14.070
290.19	13.184
290.56	11.080
290.93	14.779
291.29	11.491
291.66	12.842
292.03	14.850
292.40	12.651
292.77	13.387
293.13	14.644
293.50	12.680
293.87	13.600
294.24	13.360
294.60	12.484
294.97	13.228
295.34	12.665
295.71	11.038
296.08	10.733
296.44	13.648
296.81	11.328
297.18	12.125
297.55	11.439
297.91	14.410
298.28	13.196
298.65	12.438
299.02	12.943
299.38	11.288
299.75	11.178
300.12	10.000
300.48	12.281
300.85	12.702
301.22	11.731
301.59	12.559
301.95	10.569
302.32	12.602
302.69	11.525
303.05	12.071
303.42	12.727
303.79	11.462
304.15	12.158
304.52	12.366
304.89	12.182
305.25	11.087
305.62	12.798
305.99	12.622
306.35	14.107
306.72	13.225
307.09	11.575
307.45	12.886
307.82	11.579
308.19	11.703
308.55	12.590
308.92	13.851
309.29	12.913
309.65	12.488
310.02	13.419
310.38	13.516
310.75	13.708
311.12	13.120
311.48	12.859
311.85	14.665
312.22	14.217
312.58	14.106
312.95	15.423
313.31	15.886
313.68	14.504
314.05	15.974
314.41	16.234
314.78	15.180
315.14	16.204
315.51	15.985
315.87	16.682
316.24	17.172
316.61	17.991
316.97	17.037
317.34	18.449
317.70	18.020
318.07	18.722
318.43	18.338
318.80	19.546
319.16	19.894
319.53	19.534
319.89	19.603
320.26	20.425
320.62	21.501
320.99	20.155
321.35	21.890
321.72	22.810
322.08	23.616
322.45	24.052
322.81	25.508
323.18	24.240
323.54	25.542
323.91	26.378
324.27	25.473
324.64	26.220
325.00	27.122
325.37	28.925
325.73	27.020
326.10	28.091
326.46	28.846
326.83	28.883
327.19	31.382
327.56	31.346
327.92	30.652
328.29	32.471
328.65	33.567
329.01	33.509
329.38	33.478
329.74	32.618
330.11	33.995
330.47	32.726
330.84	34.928
331.20	33.732
331.56	34.692
331.93	34.798
332.29	36.838
332.66	35.085
333.02	35.708
333.38	37.368
333.75	36.689
334.11	36.806
334.48	37.228
334.84	35.954
335.20	36.707
335.57	36.728
335.93	35.997
336.29	37.741
336.66	37.265
337.02	37.565
337.38	35.596
337.75	37.123
338.11	36.208
338.47	37.500
338.84	36.426
339.20	38.095
339.56	37.628
339.93	37.165
340.29	38.770
340.65	38.409
341.02	37.271
341.38	37.753
341.74	37.227
342.11	37.655
342.47	36.820
342.83	37.173
343.20	40.609
343.56	38.839
343.92	37.612
344.28	37.825
344.65	38.122
345.01	38.015
345.37	38.651
345.73	39.869
346.10	39.326
346.46	37.724
346.82	37.961
347.19	39.082
347.55	39.095
347.91	37.880
348.27	37.382
348.63	38.542
349.00	38.286
349.36	37.991
349.72	38.438
350.08	37.676
350.45	38.136
350.81	38.967
351.17	38.799
351.53	38.413
351.89	38.920
352.26	36.988
352.62	38.450
352.98	39.297
353.34	39.694
353.70	38.084
354.07	40.078
354.43	39.502
354.79	39.423
355.15	40.683
355.51	38.952
355.87	39.328
356.24	40.931
356.60	39.249
356.96	39.140
357.32	38.854
357.68	38.426
358.04	38.790
358.40	39.922
358.77	39.144
359.13	40.000
359.49	38.077
359.85	39.803
360.21	40.941
360.57	40.532
360.93	40.895
361.29	39.896
361.66	40.243
362.02	39.659
362.38	39.069
362.74	39.231
363.10	40.130
363.46	40.346
363.82	40.503
364.18	38.724
364.54	39.825
364.90	40.348
365.26	39.915
365.62	40.625
365.98	40.142
366.35	40.638
366.71	40.442
367.07	40.043
367.43	40.348
367.79	41.070
368.15	40.084
368.51	41.842
368.87	40.544
369.23	40.925
369.59	40.451
369.95	40.348
370.31	41.144
370.67	39.971
371.03	40.757
371.39	40.383
371.75	40.857
372.11	41.097
372.47	41.312
372.83	42.094
373.19	40.432
373.55	41.402
373.91	40.948
374.27	40.871
374.63	41.536
374.99	40.460
375.35	39.932
375.71	42.120
376.07	41.261
376.42	42.313
376.78	41.413
377.14	42.169
377.50	42.112
377.86	41.301
378.22	41.466
378.58	42.875
378.94	42.688
379.30	41.786
379.66	42.725
380.02	43.076
380.38	41.988
380.74	42.917
381.09	41.255
381.45	42.745
381.81	42.514
382.17	41.714
382.53	41.600
382.89	42.943
383.25	42.531
383.61	41.646
383.97	42.375
384.32	43.163
384.68	41.888
385.04	42.700
385.40	42.653
385.76	42.640
386.12	42.737
386.48	43.197
386.83	43.054
387.19	41.949
387.55	42.673
387.91	43.850
388.27	42.663
388.62	42.447
388.98	42.428
389.34	42.419
389.70	43.223
390.06	42.688
390.42	43.041
390.77	42.473
391.13	43.119
391.49	41.809
391.85	41.981
392.20	42.231
392.56	43.556
392.92	42.247
393.28	42.127
393.64	41.957
393.99	41.371
394.35	42.160
394.71	43.333
395.07	41.824
395.42	42.962
395.78	42.407
396.14	42.803
396.50	42.169
396.85	43.786
397.21	43.196
397.57	41.180
397.92	41.737
398.28	43.260
398.64	42.137
399.00	42.411
399.35	42.509
399.71	41.875
400.07	43.373
400.42	42.884
400.78	42.236
401.14	42.060
401.49	42.181
401.85	42.506
402.21	43.034
402.57	41.754
402.92	43.554
403.28	42.714
403.63	41.042
403.99	41.587
404.35	43.204
404.70	41.631
405.06	42.043
405.42	41.080
405.77	41.302
406.13	41.429
406.49	42.421
406.84	42.796
407.20	42.155
407.55	41.558
407.91	41.297
408.27	40.112
408.62	42.234
408.98	41.924
409.34	40.594
409.69	42.105
410.05	41.542
410.40	40.110
410.76	41.637
411.11	41.978
411.47	42.734
411.83	40.674
412.18	42.695
412.54	41.479
412.89	41.818
413.25	40.413
413.60	41.254
413.96	41.261
414.31	41.985
414.67	41.714
415.03	42.152
415.38	41.744
415.74	40.546
416.09	42.300
416.45	42.105
416.80	43.154
417.16	42.038
417.51	41.929
417.87	42.196
418.22	42.599
418.58	42.378
418.93	42.624
419.29	42.508
419.64	40.840
420.00	42.667
420.35	41.602
420.71	42.048
421.06	42.251
421.42	42.397
421.77	43.179
422.12	41.089
422.48	41.112
422.83	42.115
423.19	40.828
423.54	42.108
423.90	41.983
424.25	42.345
424.61	42.267
424.96	41.750
425.31	41.447
425.67	43.269
426.02	43.345
426.38	42.786
426.73	43.250
427.09	43.715
427.44	43.277
427.79	43.587
428.15	43.609
428.50	42.115
428.85	43.235
429.21	41.418
429.56	43.146
429.92	42.218
430.27	42.791
430.62	42.497
430.98	42.834
431.33	43.095
431.68	43.024
432.04	43.324
432.39	42.725
432.74	43.102
433.10	43.173
433.45	42.722
433.80	43.391
434.16	42.436
434.51	43.478
434.86	42.521
435.22	42.841
435.57	42.875
435.92	43.788
436.28	42.943
436.63	43.649
436.98	43.948
437.34	43.590
437.69	43.034
438.04	42.671
438.39	44.147
438.75	43.147
439.10	44.419
439.45	42.615
439.81	44.581
440.16	44.000
440.51	43.995
440.86	43.391
441.22	43.718
441.57	43.547
441.92	42.976
442.27	43.561
442.63	43.380
442.98	43.808
443.33	44.639
443.68	43.226
444.03	42.822
444.39	43.629
444.74	43.181
445.09	42.952
445.44	44.000
445.79	43.676
446.15	45.646
446.50	43.117
446.85	45.056
447.20	44.171
447.55	43.872
447.91	42.809
448.26	43.339
448.61	42.865
448.96	43.736
449.31	44.146
449.66	44.014
450.02	45.253
450.37	44.653
450.72	44.604
451.07	44.890
451.42	43.294
451.77	45.100
452.12	45.276
452.47	44.545
452.83	43.691
453.18	44.685
453.53	44.010
453.88	43.976
454.23	45.179
454.58	45.037
454.93	43.810
455.28	43.802
455.63	43.294
455.98	44.553
456.34	44.882
456.69	45.176
457.04	43.220
457.39	45.099
457.74	43.986
458.09	44.787
458.44	44.418
458.79	43.273
459.14	42.640
459.49	44.756
459.84	43.123
460.19	42.977
460.54	43.978
460.89	44.989
461.24	43.527
461.59	44.626
461.94	44.690
462.29	44.240
462.64	43.931
462.99	45.205
463.34	44.959
463.69	45.876
464.04	44.178
464.39	44.173
464.74	44.287
465.09	44.389
465.44	43.659
465.79	43.588
466.14	44.413
466.49	44.985
466.84	44.172
467.19	44.968
467.54	44.913
467.89	44.312
468.24	44.192
468.59	45.507
468.94	44.572
469.29	44.217
469.64	44.630
469.99	45.517
470.34	45.448
470.68	44.981
471.03	45.346
471.38	43.880
471.73	44.239
472.08	45.361
472.43	45.317
472.78	46.180
473.13	42.942
473.48	44.553
473.83	44.633
474.17	44.661
474.52	44.725
474.87	43.667
475.22	45.109
475.57	43.614
475.92	45.093
476.27	44.930
476.61	43.318
476.96	45.003
477.31	43.366
477.66	44.576
478.01	44.451
478.36	43.706
478.70	45.005
479.05	45.450
479.40	44.618
479.75	44.527
480.10	44.110
480.45	43.551
480.79	44.151
481.14	44.225
481.49	44.647
481.84	43.685
482.19	43.029
482.53	43.905
482.88	43.193
483.23	43.648
483.58	44.423
483.92	43.628
484.27	43.733
484.62	41.988
484.97	43.841
485.31	43.132
485.66	40.814
486.01	41.034
486.36	39.947
486.70	40.048
487.05	40.652
487.40	41.356
487.75	42.349
488.09	42.665
488.44	43.183
488.79	43.187
489.13	43.062
489.48	43.352
489.83	43.189
490.17	43.759
490.52	44.600
490.87	43.023
491.22	43.900
491.56	44.418
491.91	42.583
492.26	43.810
492.60	43.627
492.95	44.995
493.30	42.684
493.64	43.070
493.99	44.203
494.34	43.497
494.68	43.389
495.03	44.269
495.37	44.574
495.72	44.110
496.07	44.423
496.41	42.770
496.76	44.013
497.11	44.272
497.45	44.115
497.80	44.321
498.14	44.534
498.49	44.377
498.84	43.472
499.18	44.350
499.53	43.673
499.87	42.843
500.22	42.857
500.56	44.132
500.91	44.869
501.26	45.222
501.60	43.235
501.95	43.364
502.29	43.689
502.64	44.648
502.98	43.497
503.33	44.039
503.67	44.645
504.02	43.333
504.36	43.140
504.71	44.411
505.06	44.524
505.40	44.072
505.75	43.337
506.09	43.229
506.44	43.296
506.78	43.880
507.13	43.867
507.47	44.168
507.82	43.485
508.16	44.591
508.51	42.459
508.85	43.442
509.19	44.021
509.54	44.129
509.88	43.441
510.23	43.158
510.57	43.909
510.92	43.588
511.26	44.334
511.61	43.688
511.95	44.046
512.30	43.143
512.64	44.552
512.98	44.100
513.33	44.732
513.67	43.498
514.02	44.812
514.36	43.764
514.70	44.342
515.05	45.524
515.39	43.455
515.74	45.234
516.08	44.779
516.42	44.758
516.77	43.761
517.11	43.857
517.46	45.138
517.80	45.460
518.14	44.703
518.49	44.726
518.83	44.869
519.17	44.458
519.52	43.908
519.86	44.323
520.20	43.845
520.55	44.403
520.89	44.276
521.23	46.667
521.58	44.627
521.92	43.872
522.26	45.348
522.61	44.279
522.95	45.920
523.29	44.190
523.64	45.137
523.98	43.520
524.32	43.856
524.66	43.442
525.01	44.758
525.35	44.503
525.69	44.665
526.04	43.713
526.38	44.487
526.72	45.365
527.06	43.714
527.41	44.077
527.75	44.259
528.09	46.154
528.43	44.505
528.78	44.574
529.12	44.631
529.46	43.762
529.80	43.883
530.15	42.793
530.49	44.677
530.83	45.024
531.17	44.041
531.51	44.976
531.86	43.022
532.20	43.349
532.54	43.793
532.88	44.180
533.22	43.973
533.57	44.040
533.91	42.903
534.25	44.661
534.59	42.986
534.93	44.324
535.27	42.166
535.62	43.684
535.96	42.876
536.30	43.949
536.64	42.584
536.98	43.868
537.32	43.986
537.66	43.935
538.01	43.273
538.35	41.506
538.69	43.144
539.03	42.282
539.37	41.784
539.71	43.247
540.05	41.430
540.39	40.881
540.73	42.388
541.07	41.905
541.42	43.300
541.76	42.693
542.10	40.961
542.44	42.342
542.78	43.164
543.12	42.116
543.46	42.294
543.80	41.276
544.14	43.772
544.48	40.013
544.82	42.434
545.16	42.258
545.50	43.079
545.84	41.515
546.18	42.426
546.52	42.343
546.86	41.413
547.20	41.959
547.54	42.459
547.88	42.578
548.22	40.456
548.56	40.494
548.90	40.866
549.24	41.806
549.58	40.569
549.92	42.480
550.26	43.616
550.60	42.417
550.94	41.791
551.28	42.619
551.62	42.256
551.96	42.240
552.30	41.557
552.64	41.455
552.98	42.116
553.32	41.889
553.66	41.599
554.00	40.605
554.34	41.319
554.68	41.536
555.02	41.542
555.36	41.982
555.69	40.641
556.03	41.816
556.37	39.900
556.71	39.734
557.05	40.812
557.39	41.296
557.73	42.284
558.07	41.824
558.41	41.181
558.75	41.493
559.08	41.460
559.42	42.250
559.76	41.820
560.10	41.199
560.44	41.046
560.78	40.288
561.12	40.645
561.45	39.728
561.79	40.853
562.13	41.350
562.47	40.286
562.81	41.053
563.15	39.023
563.48	41.294
563.82	39.466
564.16	39.133
564.50	39.891
564.84	39.662
565.17	40.397
565.51	38.904
565.85	38.041
566.19	39.669
566.52	39.253
566.86	39.444
567.20	38.668
567.54	37.939
567.88	37.738
568.21	36.556
568.55	36.672
568.89	36.191
569.23	35.839
569.56	35.670
569.90	34.471
570.24	33.827
570.57	33.709
570.91	34.021
571.25	33.408
571.59	33.103
571.92	32.297
572.26	33.888
572.60	32.769
572.93	33.646
573.27	32.797
573.61	33.141
573.95	33.210
574.28	32.354
574.62	32.288
574.96	32.677
575.29	32.197
575.63	31.876
575.97	32.201
576.30	32.406
576.64	31.962
576.98	32.593
577.31	31.588
577.65	31.235
577.98	31.409
578.32	31.283
578.66	31.192
578.99	31.573
579.33	32.159
579.67	31.899
580.00	31.727
580.34	31.556
580.67	32.141
581.01	32.160
581.35	30.474
581.68	30.437
582.02	30.613
582.35	30.595
582.69	30.589
583.02	31.027
583.36	31.025
583.70	31.511
584.03	32.030
584.37	31.776
584.70	31.212
585.04	31.953
585.37	31.106
585.71	30.801
586.04	31.028
586.38	30.860
586.72	31.189
587.05	31.980
587.39	31.034
587.72	30.798
588.06	31.710
588.39	31.570
588.73	31.378
589.06	32.460
589.40	31.545
589.73	31.872
590.07	32.191
590.40	32.374
590.73	32.577
591.07	33.347
591.40	33.043
591.74	33.748
592.07	33.501
592.41	32.132
592.74	31.790
593.08	31.248
593.41	31.246
593.75	30.717
594.08	31.054
594.41	31.115
594.75	31.747
595.08	32.599
595.42	31.031
595.75	31.345
596.09	31.678
596.42	32.230
596.75	31.724
597.09	33.530
597.42	32.391
597.75	31.822
598.09	32.195
598.42	32.528
598.76	31.360
599.09	31.653
599.42	31.798
599.76	31.055
600.09	30.761
600.42	31.111
600.76	31.042
601.09	31.412
601.42	31.831
601.76	31.158
602.09	31.131
602.42	32.233
602.76	30.998
603.09	31.704
603.42	30.548
603.76	30.631
604.09	31.028
604.42	31.729
604.76	31.602
605.09	31.627
605.42	31.849
605.75	30.921
606.09	30.629
606.42	30.466
606.75	30.996
607.09	31.605
607.42	31.173
607.75	30.591
608.08	30.613
608.42	30.740
608.75	31.199
609.08	31.455
609.41	32.340
609.75	30.862
610.08	32.249
610.41	32.264
610.74	31.232
611.07	31.313
611.41	31.730
611.74	31.936
612.07	31.162
612.40	32.108
612.73	32.162
613.07	30.654
613.40	32.930
613.73	32.449
614.06	31.730
614.39	31.573
614.72	32.204
615.06	31.222
615.39	31.788
615.72	30.670
616.05	31.081
616.38	32.703
616.71	31.194
617.05	33.108
617.38	31.054
617.71	31.005
618.04	31.810
618.37	32.429
618.70	32.536
619.03	32.165
619.36	33.808
619.69	32.456
620.03	32.085
620.36	32.150
620.69	32.762
621.02	33.154
621.35	33.688
621.68	33.415
622.01	33.819
622.34	33.545
622.67	33.908
623.00	33.815
623.33	33.059
623.66	33.309
623.99	33.383
624.32	32.502
624.65	32.344
624.99	33.137
625.32	33.234
625.65	32.558
625.98	33.175
626.31	34.122
626.64	34.136
626.97	34.343
627.30	34.731
627.63	33.564
627.96	31.861
628.29	34.884
628.62	35.493
628.95	35.772
629.28	34.680
629.61	34.067
629.94	34.526
630.26	34.483
630.59	35.465
630.92	34.538
631.25	35.324
631.58	35.439
631.91	35.631
632.24	33.919
632.57	37.111
632.90	37.340
633.23	36.091
633.56	37.410
633.89	37.081
634.22	37.220
634.55	36.906
