SpectraSuite Data File
++++++++++++++++++++++++++++++++++++
Date: Wed May 13 20:23:14 PDT 2015
User: schluterlab
Dark Spectrum Present: Yes
Reference Spectrum Present: Yes
Number of Sampled Component Spectra: 1
Spectrometers: USB2E3373
Integration Time (usec): 3000 (USB2E3373)
Spectra Averaged: 3 (USB2E3373)
Boxcar Smoothing: 0 (USB2E3373)
Correct for Electrical Dark: No (USB2E3373)
Strobe/Lamp Enabled: No (USB2E3373)
Correct for Detector Non-linearity: No (USB2E3373)
Correct for Stray Light: No (USB2E3373)
Number of Pixels in Processed Spectrum: 2048
>>>>>Begin Processed Spectral Data<<<<<
178.53	0.000
178.91	-1275.000
179.29	-1275.000
179.67	-205.556
180.04	-1425.000
180.42	2350.000
180.80	1020.000
181.18	-1050.000
181.56	742.857
181.94	0.000
182.31	-657.143
182.69	1633.333
183.07	-562.500
183.45	-566.667
183.83	554.545
184.20	-430.000
184.58	2300.000
184.96	5600.000
185.34	-980.000
185.72	-512.500
186.09	-2200.000
186.47	2400.000
186.85	2600.000
187.23	4100.000
187.61	-1566.667
187.98	1325.000
188.36	590.909
188.74	609.091
189.12	-820.000
189.49	540.000
189.87	-5100.000
190.25	-1375.000
190.63	442.857
191.00	476.923
191.38	916.667
191.76	-1325.000
192.14	1550.000
192.51	600.000
192.89	850.000
193.27	600.000
193.65	-1325.000
194.02	490.000
194.40	1160.000
194.78	530.000
195.15	541.667
195.53	610.000
195.91	-2350.000
196.29	381.250
196.66	300.000
197.04	-340.000
197.42	0.000
197.79	570.000
198.17	-5000.000
198.55	714.286
198.92	637.500
199.30	880.000
199.68	0.000
200.05	288.889
200.43	757.143
200.81	4500.000
201.18	1766.667
201.56	-1866.667
201.94	533.333
202.31	588.889
202.69	550.000
203.07	570.000
203.44	0.000
203.82	1375.000
204.19	842.857
204.57	492.857
204.95	650.000
205.32	1566.667
205.70	518.182
206.08	414.286
206.45	2350.000
206.83	281.250
207.20	866.667
207.58	800.000
207.96	311.111
208.33	687.500
208.71	-800.000
209.08	742.857
209.46	566.667
209.84	518.182
210.21	-1600.000
210.59	1425.000
210.96	-525.000
211.34	2150.000
211.71	600.000
212.09	700.000
212.46	0.000
212.84	1533.333
213.22	1425.000
213.59	-5700.000
213.97	766.667
214.34	814.286
214.72	618.182
215.09	1000.000
215.47	-1950.000
215.84	-2550.000
216.22	1800.000
216.59	435.714
216.97	1275.000
217.34	527.273
217.72	-833.333
218.09	0.000
218.47	-4800.000
218.84	700.000
219.22	714.286
219.59	1666.667
219.97	-528.571
220.34	820.000
220.72	-1600.000
221.09	464.286
221.47	1200.000
221.84	-833.333
222.22	0.000
222.59	1525.000
222.97	-2500.000
223.34	1060.000
223.72	446.154
224.09	1100.000
224.46	2000.000
224.84	-4700.000
225.21	-1000.000
225.59	-4700.000
225.96	560.000
226.34	295.000
226.71	2950.000
227.08	612.500
227.46	520.000
227.83	-1025.000
228.21	-2250.000
228.58	600.000
228.95	-2150.000
229.33	-2600.000
229.70	2000.000
230.08	700.000
230.45	-900.000
230.82	433.333
231.20	966.667
231.57	542.857
231.95	433.333
232.32	231.818
232.69	381.818
233.07	757.143
233.44	369.231
233.81	-1700.000
234.19	336.842
234.56	475.000
234.93	341.667
235.31	536.364
235.68	469.231
236.05	392.857
236.43	196.970
236.80	326.316
237.17	5200.000
237.55	252.381
237.92	232.143
238.29	319.048
238.67	219.355
239.04	244.828
239.41	211.111
239.79	163.043
240.16	150.000
240.53	156.818
240.91	158.824
241.28	134.000
241.65	146.000
242.02	128.986
242.40	135.484
242.77	133.333
243.14	110.753
243.51	114.607
243.89	118.824
244.26	92.222
244.63	105.376
245.00	98.936
245.38	100.000
245.75	105.607
246.12	97.248
246.49	84.672
246.87	98.400
247.24	99.231
247.61	83.571
247.98	81.046
248.36	81.757
248.73	82.166
249.10	87.898
249.47	85.311
249.84	79.679
250.22	82.888
250.59	82.840
250.96	77.273
251.33	74.882
251.70	78.218
252.08	76.667
252.45	70.852
252.82	75.652
253.19	71.915
253.56	73.333
253.94	78.008
254.31	71.875
254.68	71.154
255.05	71.956
255.42	71.545
255.79	77.206
256.16	67.148
256.54	66.078
256.91	69.039
257.28	69.424
257.65	69.307
258.02	63.354
258.39	65.300
258.76	66.555
259.14	67.262
259.51	67.173
259.88	67.702
260.25	69.789
260.62	63.295
260.99	69.565
261.36	70.571
261.73	67.908
262.10	69.767
262.47	69.296
262.85	65.460
263.22	63.818
263.59	67.806
263.96	66.484
264.33	67.102
264.70	66.316
265.07	65.217
265.44	61.616
265.81	62.774
266.18	68.090
266.55	63.171
266.92	63.636
267.29	65.046
267.66	63.303
268.03	60.909
268.40	65.888
268.77	60.859
269.14	62.613
269.51	61.851
269.88	66.200
270.25	64.786
270.62	61.573
270.99	63.656
271.36	61.803
271.73	65.654
272.10	63.913
272.47	61.075
272.84	59.957
273.21	61.845
273.58	61.354
273.95	58.910
274.32	60.950
274.69	62.955
275.06	59.252
275.43	62.340
275.80	60.321
276.17	61.914
276.54	62.994
276.91	60.474
277.28	57.031
277.65	60.155
278.02	60.455
278.39	60.156
278.76	58.182
279.13	60.189
279.50	58.659
279.87	60.359
280.23	61.277
280.60	58.994
280.97	59.704
281.34	60.354
281.71	57.636
282.08	60.077
282.45	56.364
282.82	56.838
283.19	59.180
283.56	56.842
283.92	58.376
284.29	56.790
284.66	59.710
285.03	56.058
285.40	57.746
285.77	56.566
286.14	55.095
286.51	56.333
286.87	56.068
287.24	57.655
287.61	55.859
287.98	54.708
288.35	54.517
288.72	52.960
289.08	54.304
289.45	54.201
289.82	50.894
290.19	53.061
290.56	51.914
290.93	49.094
291.29	50.767
291.66	49.853
292.03	50.291
292.40	50.220
292.77	48.373
293.13	48.060
293.50	52.041
293.87	48.444
294.24	49.481
294.60	46.870
294.97	48.110
295.34	48.378
295.71	48.011
296.08	46.154
296.44	46.080
296.81	45.575
297.18	46.477
297.55	42.744
297.91	45.778
298.28	46.988
298.65	45.692
299.02	45.191
299.38	45.286
299.75	41.375
300.12	43.423
300.48	43.375
300.85	44.143
301.22	43.949
301.59	41.540
301.95	43.451
302.32	42.234
302.69	43.250
303.05	42.182
303.42	43.457
303.79	41.336
304.15	39.977
304.52	41.947
304.89	41.347
305.25	38.979
305.62	39.864
305.99	42.385
306.35	39.262
306.72	41.143
307.09	40.178
307.45	40.766
307.82	38.170
308.19	39.183
308.55	40.237
308.92	39.850
309.29	38.648
309.65	39.236
310.02	38.266
310.38	41.398
310.75	40.971
311.12	38.690
311.48	39.916
311.85	39.203
312.22	39.542
312.58	38.877
312.95	40.232
313.31	37.184
313.68	42.204
314.05	42.012
314.41	40.201
314.78	38.268
315.14	39.325
315.51	39.547
315.87	40.000
316.24	39.623
316.61	38.986
316.97	38.356
317.34	39.237
317.70	40.057
318.07	39.076
318.43	40.607
318.80	40.769
319.16	40.207
319.53	39.118
319.89	40.190
320.26	41.000
320.62	42.163
320.99	40.606
321.35	39.899
321.72	39.938
322.08	40.967
322.45	43.582
322.81	42.636
323.18	42.678
323.54	41.651
323.91	44.151
324.27	41.587
324.64	43.150
325.00	42.922
325.37	44.040
325.73	42.280
326.10	43.778
326.46	43.100
326.83	43.831
327.19	43.467
327.56	44.774
327.92	44.357
328.29	45.519
328.65	45.580
329.01	45.397
329.38	46.531
329.74	45.337
330.11	45.712
330.47	45.638
330.84	47.794
331.20	47.632
331.56	46.055
331.93	47.963
332.29	46.673
332.66	46.372
333.02	46.069
333.38	45.528
333.75	45.276
334.11	46.797
334.48	46.051
334.84	47.335
335.20	47.273
335.57	47.688
335.93	45.089
336.29	47.436
336.66	48.061
337.02	45.611
337.38	47.222
337.75	46.257
338.11	46.553
338.47	47.330
338.84	48.396
339.20	46.697
339.56	47.719
339.93	47.636
340.29	48.007
340.65	46.613
341.02	47.993
341.38	47.064
341.74	47.193
342.11	46.201
342.47	47.841
342.83	46.747
343.20	47.619
343.56	46.335
343.92	48.333
344.28	45.578
344.65	46.862
345.01	47.222
345.37	45.969
345.73	47.293
346.10	47.229
346.46	48.051
346.82	46.705
347.19	47.285
347.55	46.962
347.91	47.654
348.27	47.494
348.63	46.990
349.00	47.573
349.36	45.731
349.72	46.351
350.08	46.515
350.45	47.356
350.81	46.872
351.17	47.407
351.53	46.765
351.89	46.370
352.26	46.646
352.62	46.752
352.98	44.814
353.34	46.015
353.70	45.172
354.07	47.177
354.43	46.270
354.79	46.340
355.15	46.129
355.51	48.201
355.87	47.918
356.24	46.824
356.60	46.191
356.96	47.064
357.32	47.833
357.68	48.819
358.04	46.952
358.40	47.189
358.77	46.244
359.13	46.882
359.49	47.373
359.85	46.429
360.21	47.209
360.57	48.482
360.93	47.462
361.29	46.788
361.66	46.130
362.02	45.821
362.38	47.681
362.74	47.545
363.10	47.372
363.46	47.616
363.82	47.317
364.18	48.678
364.54	49.480
364.90	47.592
365.26	48.456
365.62	48.210
365.98	47.480
366.35	47.493
366.71	47.722
367.07	49.308
367.43	48.258
367.79	49.893
368.15	50.431
368.51	48.401
368.87	48.037
369.23	48.281
369.59	50.036
369.95	49.118
370.31	47.222
370.67	48.913
371.03	49.513
371.39	49.198
371.75	49.265
372.11	48.151
372.47	50.440
372.83	50.072
373.19	49.566
373.55	51.367
373.91	49.926
374.27	47.835
374.63	49.309
374.99	49.435
375.35	49.058
375.71	49.554
376.07	50.480
376.42	50.206
376.78	49.901
377.14	49.389
377.50	50.000
377.86	49.801
378.22	49.558
378.58	48.622
378.94	49.969
379.30	50.064
379.66	50.381
380.02	51.044
380.38	51.123
380.74	51.741
381.09	51.528
381.45	50.215
381.81	50.369
382.17	50.955
382.53	51.384
382.89	50.494
383.25	51.407
383.61	52.292
383.97	51.845
384.32	52.027
384.68	51.363
385.04	50.830
385.40	51.641
385.76	51.106
386.12	52.591
386.48	52.360
386.83	53.560
387.19	52.505
387.55	52.257
387.91	52.116
388.27	51.441
388.62	53.104
388.98	52.211
389.34	52.003
389.70	52.177
390.06	53.359
390.42	53.178
390.77	53.499
391.13	53.287
391.49	52.411
391.85	51.432
392.20	52.555
392.56	52.462
392.92	53.679
393.28	53.018
393.64	52.878
393.99	52.657
394.35	53.412
394.71	53.011
395.07	51.963
395.42	53.646
395.78	53.435
396.14	51.893
396.50	53.759
396.85	53.719
397.21	52.343
397.57	53.813
397.92	53.726
398.28	53.587
398.64	52.867
399.00	52.994
399.35	53.412
399.71	53.472
400.07	53.696
400.42	53.313
400.78	54.041
401.14	52.866
401.49	53.493
401.85	52.208
402.21	52.216
402.57	53.794
402.92	53.909
403.28	54.903
403.63	53.713
403.99	54.268
404.35	52.485
404.70	53.118
405.06	53.698
405.42	54.148
405.77	52.914
406.13	52.765
406.49	52.868
406.84	53.514
407.20	53.014
407.55	54.052
407.91	54.933
408.27	54.435
408.62	53.402
408.98	53.493
409.34	53.752
409.69	54.968
410.05	54.337
410.40	52.783
410.76	53.345
411.11	52.171
411.47	52.460
411.83	54.123
412.18	54.298
412.54	54.047
412.89	53.795
413.25	54.073
413.60	54.231
413.96	52.520
414.31	53.220
414.67	54.753
415.03	53.311
415.38	53.415
415.74	54.019
416.09	53.886
416.45	53.414
416.80	53.866
417.16	54.223
417.51	54.147
417.87	54.592
418.22	54.826
418.58	52.485
418.93	53.010
419.29	54.424
419.64	53.967
420.00	53.902
420.35	53.275
420.71	53.258
421.06	52.685
421.42	53.275
421.77	53.531
422.12	52.892
422.48	54.236
422.83	54.688
423.19	54.033
423.54	53.453
423.90	53.739
424.25	53.155
424.61	53.214
424.96	54.169
425.31	53.710
425.67	51.685
426.02	53.029
426.38	53.358
426.73	53.423
427.09	53.070
427.44	53.306
427.79	52.559
428.15	54.464
428.50	52.370
428.85	53.278
429.21	52.457
429.56	52.670
429.92	52.089
430.27	52.830
430.62	52.125
430.98	53.036
431.33	52.990
431.68	53.508
432.04	52.556
432.39	53.341
432.74	53.980
433.10	52.292
433.45	53.994
433.80	53.991
434.16	52.190
434.51	52.211
434.86	53.763
435.22	52.307
435.57	53.009
435.92	53.189
436.28	53.440
436.63	53.256
436.98	52.547
437.34	53.071
437.69	54.142
438.04	52.726
438.39	52.478
438.75	53.457
439.10	53.575
439.45	53.129
439.81	53.293
440.16	52.287
440.51	53.720
440.86	53.677
441.22	53.560
441.57	52.335
441.92	53.019
442.27	53.283
442.63	52.712
442.98	54.535
443.33	53.967
443.68	53.743
444.03	52.660
444.39	53.165
444.74	53.571
445.09	53.261
445.44	52.597
445.79	51.658
446.15	52.991
446.50	53.635
446.85	53.289
447.20	52.677
447.55	53.713
447.91	53.668
448.26	52.977
448.61	53.929
448.96	54.153
449.31	53.262
449.66	53.855
450.02	52.368
450.37	51.927
450.72	53.130
451.07	52.407
451.42	51.854
451.77	52.672
452.12	51.212
452.47	52.488
452.83	54.021
453.18	52.506
453.53	54.793
453.88	52.451
454.23	53.736
454.58	51.908
454.93	54.482
455.28	52.930
455.63	52.852
455.98	53.810
456.34	52.827
456.69	53.225
457.04	53.498
457.39	52.250
457.74	50.900
458.09	52.214
458.44	51.710
458.79	51.735
459.14	54.007
459.49	53.882
459.84	52.188
460.19	52.387
460.54	51.505
460.89	51.838
461.24	52.702
461.59	52.992
461.94	53.329
462.29	53.175
462.64	53.350
462.99	52.310
463.34	54.333
463.69	52.783
464.04	52.580
464.39	51.536
464.74	52.525
465.09	52.232
465.44	52.133
465.79	51.846
466.14	51.013
466.49	51.557
466.84	52.539
467.19	52.384
467.54	54.188
467.89	51.621
468.24	52.123
468.59	54.151
468.94	51.924
469.29	53.599
469.64	54.284
469.99	54.398
470.34	53.369
470.68	52.874
471.03	52.177
471.38	54.899
471.73	53.298
472.08	53.750
472.43	52.764
472.78	53.259
473.13	52.054
473.48	52.622
473.83	53.537
474.17	52.085
474.52	53.722
474.87	53.590
475.22	53.337
475.57	52.445
475.92	52.841
476.27	52.875
476.61	52.730
476.96	52.886
477.31	52.643
477.66	51.805
478.01	50.915
478.36	53.146
478.70	52.752
479.05	52.343
479.40	51.996
479.75	51.601
480.10	51.590
480.45	51.166
480.79	50.645
481.14	51.859
481.49	52.444
481.84	51.486
482.19	51.658
482.53	51.055
482.88	51.326
483.23	52.150
483.58	52.184
483.92	51.218
484.27	49.586
484.62	51.724
484.97	51.084
485.31	51.849
485.66	50.147
486.01	49.410
486.36	48.969
486.70	49.213
487.05	49.459
487.40	50.306
487.75	50.904
488.09	51.835
488.44	51.134
488.79	52.405
489.13	52.330
489.48	51.550
489.83	51.230
490.17	52.652
490.52	49.380
490.87	51.515
491.22	51.296
491.56	51.207
491.91	51.187
492.26	49.655
492.60	50.968
492.95	51.123
493.30	50.561
493.64	51.890
493.99	50.186
494.34	51.018
494.68	51.969
495.03	51.081
495.37	50.721
495.72	51.413
496.07	52.390
496.41	50.354
496.76	51.011
497.11	50.338
497.45	51.327
497.80	51.823
498.14	51.643
498.49	51.610
498.84	52.109
499.18	50.905
499.53	51.852
499.87	51.212
500.22	50.871
500.56	52.330
500.91	51.538
501.26	51.636
501.60	52.159
501.95	51.512
502.29	51.781
502.64	51.955
502.98	51.379
503.33	50.320
503.67	50.951
504.02	52.713
504.36	51.802
504.71	52.711
505.06	51.759
505.40	52.212
505.75	51.205
506.09	52.138
506.44	52.639
506.78	52.655
507.13	53.054
507.47	53.232
507.82	53.141
508.16	53.546
508.51	54.287
508.85	52.582
509.19	53.469
509.54	53.112
509.88	52.447
510.23	54.756
510.57	54.696
510.92	54.531
511.26	53.186
511.61	54.668
511.95	53.027
512.30	54.613
512.64	53.735
512.98	54.448
513.33	53.961
513.67	54.055
514.02	54.437
514.36	55.216
514.70	55.285
515.05	53.820
515.39	55.300
515.74	53.941
516.08	54.947
516.42	55.438
516.77	55.964
517.11	54.162
517.46	56.095
517.80	56.678
518.14	56.688
518.49	57.293
518.83	55.455
519.17	55.658
519.52	55.857
519.86	55.448
520.20	57.514
520.55	57.451
520.89	57.847
521.23	57.419
521.58	56.242
521.92	57.134
522.26	57.108
522.61	57.819
522.95	56.783
523.29	56.665
523.64	57.195
523.98	57.979
524.32	56.755
524.66	57.005
525.01	57.782
525.35	57.807
525.69	56.650
526.04	57.508
526.38	57.718
526.72	56.012
527.06	56.434
527.41	56.436
527.75	58.778
528.09	59.152
528.43	57.170
528.78	57.529
529.12	56.727
529.46	57.502
529.80	58.168
530.15	58.380
530.49	57.477
530.83	58.544
531.17	59.138
531.51	59.857
531.86	57.290
532.20	58.018
532.54	57.655
532.88	57.638
533.22	56.277
533.57	56.728
533.91	56.893
534.25	58.202
534.59	58.145
534.93	57.406
535.27	58.358
535.62	58.608
535.96	58.506
536.30	58.106
536.64	58.081
536.98	58.527
537.32	58.130
537.66	58.933
538.01	58.460
538.35	57.854
538.69	58.456
539.03	57.830
539.37	57.125
539.71	56.384
540.05	59.216
540.39	57.807
540.73	57.309
541.07	58.663
541.42	58.447
541.76	58.258
542.10	58.473
542.44	58.411
542.78	58.498
543.12	56.494
543.46	58.623
543.80	57.580
544.14	57.189
544.48	57.460
544.82	57.922
545.16	57.450
545.50	57.584
545.84	59.073
546.18	57.441
546.52	57.536
546.86	57.663
547.20	58.800
547.54	58.450
547.88	59.184
548.22	56.227
548.56	57.358
548.90	56.786
549.24	57.710
549.58	57.367
549.92	57.005
550.26	59.588
550.60	57.054
550.94	57.676
551.28	57.937
551.62	58.735
551.96	57.333
552.30	58.157
552.64	58.553
552.98	58.305
553.32	57.721
553.66	57.192
554.00	58.682
554.34	57.074
554.68	59.227
555.02	57.616
555.36	57.342
555.69	56.631
556.03	57.604
556.37	57.162
556.71	57.299
557.05	57.633
557.39	57.873
557.73	57.728
558.07	58.666
558.41	57.887
558.75	58.780
559.08	58.240
559.42	57.974
559.76	58.015
560.10	56.174
560.44	57.792
560.78	56.753
561.12	56.662
561.45	58.279
561.79	56.757
562.13	56.808
562.47	58.470
562.81	57.671
563.15	56.120
563.48	56.300
563.82	57.404
564.16	56.965
564.50	56.315
564.84	55.499
565.17	56.242
565.51	55.783
565.85	55.330
566.19	55.855
566.52	56.175
566.86	54.611
567.20	56.309
567.54	56.050
567.88	54.807
568.21	54.762
568.55	54.853
568.89	53.794
569.23	53.610
569.56	53.401
569.90	52.981
570.24	53.068
570.57	52.091
570.91	51.681
571.25	52.502
571.59	52.695
571.92	52.535
572.26	53.004
572.60	52.823
572.93	53.133
573.27	53.120
573.61	52.624
573.95	52.248
574.28	52.638
574.62	52.284
574.96	52.401
575.29	51.940
575.63	52.998
575.97	52.695
576.30	52.868
576.64	52.944
576.98	52.212
577.31	52.426
577.65	52.139
577.98	52.332
578.32	51.430
578.66	52.243
578.99	52.865
579.33	51.900
579.67	52.128
580.00	52.338
580.34	53.299
580.67	52.044
581.01	51.855
581.35	52.526
581.68	51.683
582.02	51.443
582.35	51.736
582.69	51.715
583.02	52.082
583.36	52.755
583.70	53.247
584.03	53.030
584.37	53.307
584.70	52.534
585.04	52.593
585.37	52.097
585.71	52.021
586.04	52.017
586.38	52.456
586.72	52.334
587.05	51.725
587.39	51.108
587.72	52.229
588.06	52.588
588.39	52.346
588.73	52.479
589.06	53.256
589.40	53.064
589.73	52.235
590.07	52.811
590.40	52.832
590.73	52.654
591.07	53.846
591.40	52.847
591.74	53.290
592.07	52.880
592.41	53.493
592.74	51.423
593.08	51.599
593.41	52.294
593.75	51.062
594.08	52.062
594.41	52.704
594.75	52.754
595.08	52.398
595.42	53.030
595.75	52.350
596.09	53.023
596.42	53.242
596.75	52.680
597.09	53.377
597.42	51.349
597.75	54.032
598.09	52.652
598.42	53.265
598.76	52.615
599.09	51.919
599.42	51.528
599.76	52.269
600.09	52.022
600.42	51.461
600.76	51.714
601.09	51.949
601.42	51.826
601.76	52.220
602.09	52.688
602.42	52.508
602.76	53.083
603.09	52.596
603.42	51.425
603.76	51.601
604.09	52.385
604.42	52.303
604.76	52.889
605.09	52.294
605.42	52.416
605.75	51.159
606.09	51.688
606.42	52.636
606.75	51.224
607.09	52.491
607.42	52.418
607.75	51.139
608.08	52.236
608.42	52.488
608.75	51.894
609.08	51.110
609.41	52.166
609.75	52.406
610.08	51.791
610.41	50.885
610.74	51.987
611.07	53.360
611.41	52.208
611.74	51.181
612.07	52.174
612.40	52.728
612.73	52.158
613.07	53.448
613.40	52.765
613.73	50.708
614.06	52.366
614.39	51.180
614.72	51.579
615.06	51.733
615.39	52.017
615.72	52.045
616.05	50.452
616.38	53.696
616.71	53.504
617.05	53.062
617.38	53.037
617.71	52.492
618.04	51.683
618.37	52.277
618.70	51.836
619.03	54.079
619.36	53.496
619.69	53.803
620.03	53.709
620.36	52.807
620.69	53.288
621.02	53.835
621.35	51.449
621.68	52.181
622.01	51.935
622.34	52.950
622.67	54.449
623.00	52.458
623.33	52.252
623.66	52.895
623.99	53.976
624.32	52.211
624.65	51.907
624.99	52.337
625.32	53.005
625.65	53.794
625.98	53.728
626.31	53.033
626.64	53.633
626.97	53.782
627.30	53.283
627.63	53.733
627.96	54.584
628.29	53.281
628.62	51.967
628.95	55.094
629.28	54.106
629.61	53.896
629.94	55.619
630.26	54.337
630.59	53.480
