SpectraSuite Data File
++++++++++++++++++++++++++++++++++++
Date: Wed May 13 20:48:20 PDT 2015
User: schluterlab
Dark Spectrum Present: Yes
Reference Spectrum Present: Yes
Number of Sampled Component Spectra: 1
Spectrometers: USB2E3373
Integration Time (usec): 3000 (USB2E3373)
Spectra Averaged: 3 (USB2E3373)
Boxcar Smoothing: 0 (USB2E3373)
Correct for Electrical Dark: No (USB2E3373)
Strobe/Lamp Enabled: No (USB2E3373)
Correct for Detector Non-linearity: No (USB2E3373)
Correct for Stray Light: No (USB2E3373)
Number of Pixels in Processed Spectrum: 2048
>>>>>Begin Processed Spectral Data<<<<<
178.53	0.000
178.91	-625.000
179.29	-650.000
179.67	-161.111
180.04	-800.000
180.42	1250.000
180.80	620.000
181.18	-675.000
181.56	371.429
181.94	0.000
182.31	-300.000
182.69	900.000
183.07	-225.000
183.45	-288.889
183.83	345.455
184.20	-110.000
184.58	1400.000
184.96	3000.000
185.34	-460.000
185.72	-337.500
186.09	-1300.000
186.47	2150.000
186.85	1450.000
187.23	3200.000
187.61	-1133.333
187.98	700.000
188.36	336.364
188.74	200.000
189.12	-520.000
189.49	260.000
189.87	-2600.000
190.25	-575.000
190.63	200.000
191.00	253.846
191.38	466.667
191.76	-650.000
192.14	775.000
192.51	350.000
192.89	566.667
193.27	262.500
193.65	-400.000
194.02	240.000
194.40	440.000
194.78	320.000
195.15	350.000
195.53	420.000
195.91	-1100.000
196.29	193.750
196.66	205.263
197.04	-90.000
197.42	0.000
197.79	380.000
198.17	-1700.000
198.55	285.714
198.92	450.000
199.30	600.000
199.68	0.000
200.05	222.222
200.43	542.857
200.81	1700.000
201.18	766.667
201.56	-533.333
201.94	288.889
202.31	377.778
202.69	216.667
203.07	340.000
203.44	0.000
203.82	550.000
204.19	514.286
204.57	321.429
204.95	375.000
205.32	233.333
205.70	254.545
206.08	200.000
206.45	1400.000
206.83	175.000
207.20	516.667
207.58	360.000
207.96	166.667
208.33	425.000
208.71	-616.667
209.08	528.571
209.46	388.889
209.84	227.273
210.21	-700.000
210.59	850.000
210.96	-262.500
211.34	1550.000
211.71	400.000
212.09	466.667
212.46	0.000
212.84	966.667
213.22	850.000
213.59	-2600.000
213.97	500.000
214.34	414.286
214.72	436.364
215.09	440.000
215.47	-1300.000
215.84	-1500.000
216.22	533.333
216.59	242.857
216.97	675.000
217.34	254.545
217.72	-466.667
218.09	0.000
218.47	-2700.000
218.84	355.556
219.22	385.714
219.59	733.333
219.97	-328.571
220.34	360.000
220.72	-933.333
221.09	214.286
221.47	975.000
221.84	-516.667
222.22	0.000
222.59	500.000
222.97	-950.000
223.34	580.000
223.72	253.846
224.09	620.000
224.46	1050.000
224.84	-2600.000
225.21	-540.000
225.59	-2400.000
225.96	380.000
226.34	180.000
226.71	1550.000
227.08	400.000
227.46	280.000
227.83	-350.000
228.21	-1350.000
228.58	300.000
228.95	-1650.000
229.33	-1200.000
229.70	900.000
230.08	585.714
230.45	-360.000
230.82	208.333
231.20	466.667
231.57	400.000
231.95	275.000
232.32	104.545
232.69	181.818
233.07	214.286
233.44	130.769
233.81	-766.667
234.19	142.105
234.56	225.000
234.93	241.667
235.31	209.091
235.68	107.692
236.05	178.571
236.43	106.061
236.80	126.316
237.17	2400.000
237.55	109.524
237.92	117.857
238.29	166.667
238.67	87.097
239.04	100.000
239.41	69.444
239.79	65.217
240.16	88.095
240.53	54.545
240.91	27.451
241.28	68.000
241.65	54.000
242.02	43.478
242.40	40.323
242.77	43.333
243.14	44.086
243.51	49.438
243.89	43.529
244.26	34.444
244.63	26.882
245.00	26.596
245.38	28.713
245.75	31.776
246.12	25.688
246.49	27.007
246.87	31.200
247.24	36.923
247.61	21.429
247.98	22.222
248.36	18.919
248.73	20.382
249.10	21.656
249.47	19.774
249.84	22.995
250.22	19.786
250.59	15.385
250.96	19.697
251.33	22.275
251.70	18.317
252.08	12.857
252.45	18.386
252.82	16.957
253.19	17.872
253.56	17.647
253.94	18.672
254.31	15.234
254.68	15.385
255.05	16.236
255.42	14.228
255.79	14.338
256.16	19.495
256.54	13.428
256.91	17.082
257.28	12.590
257.65	11.551
258.02	13.975
258.39	11.041
258.76	7.358
259.14	14.286
259.51	13.678
259.88	13.354
260.25	12.387
260.62	13.295
260.99	12.733
261.36	11.411
261.73	10.602
262.10	10.465
262.47	12.958
262.85	12.813
263.22	8.832
263.59	11.966
263.96	14.011
264.33	12.272
264.70	11.316
265.07	13.555
265.44	11.616
265.81	10.949
266.18	10.302
266.55	12.439
266.92	12.039
267.29	11.574
267.66	11.927
268.03	10.000
268.40	10.047
268.77	7.637
269.14	11.261
269.51	10.384
269.88	11.189
270.25	10.384
270.62	11.236
270.99	9.462
271.36	13.734
271.73	10.047
272.10	9.130
272.47	10.323
272.84	10.823
273.21	12.159
273.58	7.860
273.95	9.434
274.32	9.917
274.69	9.850
275.06	9.843
275.43	10.426
275.80	7.615
276.17	8.350
276.54	9.979
276.91	9.881
277.28	8.594
277.65	10.832
278.02	9.110
278.39	8.203
278.76	9.636
279.13	12.075
279.50	10.242
279.87	12.151
280.23	9.381
280.60	8.511
280.97	8.688
281.34	10.442
281.71	11.636
282.08	10.749
282.45	8.545
282.82	8.526
283.19	7.308
283.56	8.070
283.92	8.968
284.29	8.466
284.66	7.260
285.03	8.499
285.40	8.099
285.77	8.249
286.14	7.599
286.51	10.333
286.87	8.889
287.24	9.772
287.61	8.668
287.98	9.903
288.35	8.082
288.72	9.190
289.08	8.920
289.45	7.249
289.82	7.642
290.19	6.907
290.56	6.891
290.93	6.193
291.29	6.748
291.66	8.850
292.03	9.884
292.40	9.985
292.77	7.544
293.13	8.806
293.50	7.434
293.87	8.296
294.24	6.519
294.60	4.803
294.97	7.122
295.34	9.450
295.71	9.233
296.08	8.405
296.44	6.465
296.81	7.398
297.18	8.537
297.55	5.673
297.91	6.069
298.28	8.032
298.65	8.616
299.02	7.115
299.38	6.375
299.75	3.774
300.12	6.386
300.48	7.250
300.85	6.165
301.22	5.987
301.59	6.187
301.95	5.668
302.32	6.162
302.69	6.093
303.05	5.576
303.42	6.049
303.79	5.663
304.15	5.012
304.52	5.678
304.89	6.272
305.25	6.845
305.62	6.795
305.99	7.084
306.35	6.600
306.72	6.839
307.09	6.770
307.45	6.982
307.82	5.804
308.19	6.843
308.55	7.228
308.92	5.800
309.29	5.597
309.65	6.681
310.02	5.603
310.38	6.129
310.75	6.019
311.12	6.858
311.48	6.479
311.85	5.346
312.22	5.307
312.58	5.198
312.95	5.913
313.31	4.854
313.68	6.029
314.05	8.087
314.41	6.131
314.78	5.841
315.14	6.356
315.51	5.458
315.87	6.337
316.24	5.760
316.61	5.750
316.97	4.795
317.34	4.305
317.70	6.692
318.07	5.967
318.43	5.969
318.80	7.123
319.16	5.744
319.53	5.910
319.89	6.952
320.26	7.300
320.62	5.853
320.99	6.162
321.35	6.566
321.72	5.955
322.08	6.811
322.45	6.169
322.81	6.589
323.18	7.611
323.54	7.792
323.91	6.981
324.27	7.075
324.64	6.431
325.00	5.861
325.37	8.098
325.73	6.643
326.10	5.914
326.46	5.824
326.83	6.299
327.19	7.088
327.56	6.707
327.92	6.474
328.29	5.945
328.65	6.262
329.01	8.032
329.38	6.568
329.74	5.633
330.11	6.598
330.47	6.152
330.84	7.169
331.20	6.284
331.56	6.972
331.93	6.852
332.29	7.098
332.66	6.991
333.02	6.216
333.38	8.040
333.75	7.576
334.11	7.206
334.48	7.276
334.84	6.618
335.20	7.182
335.57	6.528
335.93	5.804
336.29	6.044
336.66	6.853
337.02	6.697
337.38	8.056
337.75	7.665
338.11	6.356
338.47	6.262
338.84	6.966
339.20	5.596
339.56	7.573
339.93	6.545
340.29	6.884
340.65	6.684
341.02	6.981
341.38	7.117
341.74	5.965
342.11	7.424
342.47	7.225
342.83	7.106
343.20	7.619
343.56	6.318
343.92	6.579
344.28	7.483
344.65	6.363
345.01	6.061
345.37	5.575
345.73	6.853
346.10	6.564
346.46	6.780
346.82	6.755
347.19	5.514
347.55	6.404
347.91	7.120
348.27	6.409
348.63	6.438
349.00	6.149
349.36	5.829
349.72	5.774
350.08	5.673
350.45	5.940
350.81	6.580
351.17	6.321
351.53	6.388
351.89	4.620
352.26	7.182
352.62	6.736
352.98	6.078
353.34	6.163
353.70	5.237
354.07	6.452
354.43	5.476
354.79	5.632
355.15	5.587
355.51	7.354
355.87	6.612
356.24	6.515
356.60	5.453
356.96	5.873
357.32	5.397
357.68	6.142
358.04	6.572
358.40	6.413
358.77	6.416
359.13	5.919
359.49	6.745
359.85	4.365
360.21	5.183
360.57	5.681
360.93	6.692
361.29	6.652
361.66	5.728
362.02	7.015
362.38	6.540
362.74	5.283
363.10	5.625
363.46	4.989
363.82	5.745
364.18	5.286
364.54	6.092
364.90	6.020
365.26	5.147
365.62	6.063
365.98	5.332
366.35	5.229
366.71	5.568
367.07	5.098
367.43	5.733
367.79	6.495
368.15	6.968
368.51	5.233
368.87	6.210
369.23	5.486
369.59	6.083
369.95	5.074
370.31	6.268
370.67	5.435
371.03	5.169
371.39	5.831
371.75	4.853
372.11	5.334
372.47	5.572
372.83	5.692
373.19	5.419
373.55	5.174
373.91	5.965
374.27	5.567
374.63	4.727
374.99	5.720
375.35	4.536
375.71	5.209
376.07	5.830
376.42	5.021
376.78	6.030
377.14	6.038
377.50	5.563
377.86	5.186
378.22	5.689
378.58	4.574
378.94	5.343
379.30	4.962
379.66	4.695
380.02	5.835
380.38	4.311
380.74	5.042
381.09	5.562
381.45	5.593
381.81	5.160
382.17	5.732
382.53	4.717
382.89	5.494
383.25	4.690
383.61	4.771
383.97	5.816
384.32	5.303
384.68	4.833
385.04	5.101
385.40	5.077
385.76	4.791
386.12	5.311
386.48	5.349
386.83	4.875
387.19	5.937
387.55	4.824
387.91	4.716
388.27	5.089
388.62	4.978
388.98	5.405
389.34	5.319
389.70	5.212
390.06	4.816
390.42	5.058
390.77	5.598
391.13	5.424
391.49	5.711
391.85	4.838
392.20	4.795
392.56	4.924
392.92	4.768
393.28	3.964
393.64	5.456
393.99	4.948
394.35	5.273
394.71	4.580
395.07	4.237
395.42	5.377
395.78	5.598
396.14	5.090
396.50	6.203
396.85	4.641
397.21	4.809
397.57	5.208
397.92	5.228
398.28	4.540
398.64	5.974
399.00	5.204
399.35	4.005
399.71	4.803
400.07	4.967
400.42	4.785
400.78	5.790
401.14	5.122
401.49	5.015
401.85	4.598
402.21	4.850
402.57	4.257
402.92	4.224
403.28	5.184
403.63	4.332
403.99	4.204
404.35	5.091
404.70	4.137
405.06	4.019
405.42	4.429
405.77	4.686
406.13	4.966
406.49	5.145
406.84	5.670
407.20	4.433
407.55	4.914
407.91	4.333
408.27	4.531
408.62	5.178
408.98	4.963
409.34	4.982
409.69	5.226
410.05	5.143
410.40	4.465
410.76	4.659
411.11	5.066
411.47	4.792
411.83	5.009
412.18	4.576
412.54	4.172
412.89	5.060
413.25	5.018
413.60	5.188
413.96	4.432
414.31	4.678
414.67	5.577
415.03	3.841
415.38	4.575
415.74	4.502
416.09	5.617
416.45	4.552
416.80	4.164
417.16	4.893
417.51	4.910
417.87	4.881
418.22	4.732
418.58	4.777
418.93	4.791
419.29	4.901
419.64	5.101
420.00	4.451
420.35	5.449
420.71	4.961
421.06	4.415
421.42	5.029
421.77	5.493
422.12	4.436
422.48	4.047
422.83	4.077
423.19	5.028
423.54	4.179
423.90	5.101
424.25	5.025
424.61	5.119
424.96	4.082
425.31	5.371
425.67	5.000
426.02	4.971
426.38	4.945
426.73	4.096
427.09	4.742
427.44	4.198
427.79	4.140
428.15	4.821
428.50	4.623
428.85	5.006
429.21	3.865
429.56	4.614
429.92	4.429
430.27	4.369
430.62	4.352
430.98	4.878
431.33	5.103
431.68	4.921
432.04	4.473
432.39	4.112
432.74	4.428
433.10	3.792
433.45	4.606
433.80	4.490
434.16	4.754
434.51	4.632
434.86	4.789
435.22	4.447
435.57	4.073
435.92	4.389
436.28	5.101
436.63	4.967
436.98	4.694
437.34	5.069
437.69	4.667
438.04	4.384
438.39	4.060
438.75	4.358
439.10	4.581
439.45	5.372
439.81	4.411
440.16	4.969
440.51	5.331
440.86	4.459
441.22	4.171
441.57	4.724
441.92	4.606
442.27	4.360
442.63	4.634
442.98	5.070
443.33	5.109
443.68	4.182
444.03	3.953
444.39	4.236
444.74	4.491
445.09	4.636
445.44	4.374
445.79	4.701
446.15	5.664
446.50	4.847
446.85	4.368
447.20	4.946
447.55	4.634
447.91	3.971
448.26	4.619
448.61	4.862
448.96	4.983
449.31	4.556
449.66	4.896
450.02	4.624
450.37	4.252
450.72	4.174
451.07	4.083
451.42	3.769
451.77	4.874
452.12	4.965
452.47	5.224
452.83	4.079
453.18	4.768
453.53	4.886
453.88	4.253
454.23	4.722
454.58	4.603
454.93	4.832
455.28	4.177
455.63	4.854
455.98	5.179
456.34	4.711
456.69	4.759
457.04	5.387
457.39	4.793
457.74	4.411
458.09	5.060
458.44	4.162
458.79	4.176
459.14	4.740
459.49	4.612
459.84	4.543
460.19	4.184
460.54	4.340
460.89	4.498
461.24	4.614
461.59	5.694
461.94	4.932
462.29	4.926
462.64	4.722
462.99	4.684
463.34	5.800
463.69	5.191
464.04	5.159
464.39	5.101
464.74	4.456
465.09	4.644
465.44	4.543
465.79	3.579
466.14	4.871
466.49	5.006
466.84	4.845
467.19	5.250
467.54	4.938
467.89	5.042
468.24	4.887
468.59	5.006
468.94	4.704
469.29	4.306
469.64	5.288
469.99	4.871
470.34	4.293
470.68	5.029
471.03	4.830
471.38	5.420
471.73	5.063
472.08	5.987
472.43	5.402
472.78	4.477
473.13	5.006
473.48	5.056
473.83	5.000
474.17	4.294
474.52	4.653
474.87	5.429
475.22	4.991
475.57	5.051
475.92	4.195
476.27	4.510
476.61	4.964
476.96	3.683
477.31	5.128
477.66	4.431
478.01	4.234
478.36	4.865
478.70	3.946
479.05	4.420
479.40	4.862
479.75	4.321
480.10	3.976
480.45	4.331
480.79	4.013
481.14	4.452
481.49	4.509
481.84	3.978
482.19	4.362
482.53	4.587
482.88	4.700
483.23	4.393
483.58	4.049
483.92	4.592
484.27	3.791
484.62	4.310
484.97	3.823
485.31	4.349
485.66	3.417
486.01	3.206
486.36	3.207
486.70	3.697
487.05	3.857
487.40	3.652
487.75	3.943
488.09	3.913
488.44	4.036
488.79	4.448
489.13	4.431
489.48	4.445
489.83	3.971
490.17	4.516
490.52	4.252
490.87	4.478
491.22	4.184
491.56	3.964
491.91	3.816
492.26	3.950
492.60	4.424
492.95	3.368
493.30	4.673
493.64	3.780
493.99	4.225
494.34	4.440
494.68	4.625
495.03	4.135
495.37	4.421
495.72	3.996
496.07	4.687
496.41	4.336
496.76	4.090
497.11	4.322
497.45	4.238
497.80	4.223
498.14	3.913
498.49	4.537
498.84	4.842
499.18	4.238
499.53	4.226
499.87	4.287
500.22	4.663
500.56	5.243
500.91	4.135
501.26	4.173
501.60	4.936
501.95	3.987
502.29	4.499
502.64	4.888
502.98	4.208
503.33	3.976
503.67	4.640
504.02	4.443
504.36	4.258
504.71	4.494
505.06	4.578
505.40	4.570
505.75	4.195
506.09	4.859
506.44	4.341
506.78	4.481
507.13	4.089
507.47	5.000
507.82	4.813
508.16	3.749
508.51	4.668
508.85	3.575
509.19	4.184
509.54	4.184
509.88	4.740
510.23	4.113
510.57	4.902
510.92	4.350
511.26	4.368
511.61	5.342
511.95	4.384
512.30	3.765
512.64	4.836
512.98	5.413
513.33	4.604
513.67	4.589
514.02	4.275
514.36	4.806
514.70	4.649
515.05	4.071
515.39	5.272
515.74	4.561
516.08	5.422
516.42	5.605
516.77	5.351
517.11	4.550
517.46	4.797
517.80	4.646
518.14	4.806
518.49	5.076
518.83	5.341
519.17	5.312
519.52	4.414
519.86	5.077
520.20	5.318
520.55	4.907
520.89	5.049
521.23	5.187
521.58	5.342
521.92	5.144
522.26	4.759
522.61	4.611
522.95	4.727
523.29	4.869
523.64	5.122
523.98	4.190
524.32	5.428
524.66	5.472
525.01	5.270
525.35	5.452
525.69	5.480
526.04	5.047
526.38	4.820
526.72	5.153
527.06	5.085
527.41	3.960
527.75	5.659
528.09	5.845
528.43	5.290
528.78	5.655
529.12	4.909
529.46	5.328
529.80	5.074
530.15	6.168
530.49	4.431
530.83	5.316
531.17	6.593
531.51	5.642
531.86	5.097
532.20	6.323
532.54	5.701
532.88	5.263
533.22	4.685
533.57	4.691
533.91	5.719
534.25	5.043
534.59	5.064
534.93	5.413
535.27	4.768
535.62	5.800
535.96	5.022
536.30	6.039
536.64	5.344
536.98	5.375
537.32	4.213
537.66	4.800
538.01	5.398
538.35	5.495
538.69	6.063
539.03	4.418
539.37	5.687
539.71	4.018
540.05	5.098
540.39	5.116
540.73	5.045
541.07	5.840
541.42	6.393
541.76	5.742
542.10	5.951
542.44	4.570
542.78	5.599
543.12	5.118
543.46	5.836
543.80	5.270
544.14	4.236
544.48	5.397
544.82	5.260
545.16	5.010
545.50	4.756
545.84	4.973
546.18	4.983
546.52	5.506
546.86	5.017
547.20	5.732
547.54	4.943
547.88	5.230
548.22	4.981
548.56	5.723
548.90	4.033
549.24	4.714
549.58	5.593
549.92	5.151
550.26	5.753
550.60	5.533
550.94	5.493
551.28	5.340
551.62	5.392
551.96	5.123
552.30	5.392
552.64	5.747
552.98	5.356
553.32	5.799
553.66	6.612
554.00	6.108
554.34	5.728
554.68	5.794
555.02	5.783
555.36	4.871
555.69	5.480
556.03	5.787
556.37	5.321
556.71	5.389
557.05	6.232
557.39	5.248
557.73	5.363
558.07	5.946
558.41	5.355
558.75	5.584
559.08	6.115
559.42	4.157
559.76	5.515
560.10	5.496
560.44	5.101
560.78	3.925
561.12	5.475
561.45	6.063
561.79	5.010
562.13	5.902
562.47	5.055
562.81	5.370
563.15	5.886
563.48	5.504
563.82	5.871
564.16	4.644
564.50	5.078
564.84	5.120
565.17	5.019
565.51	5.751
565.85	5.076
566.19	5.448
566.52	5.256
566.86	4.702
567.20	5.248
567.54	4.909
567.88	4.943
568.21	5.979
568.55	5.308
568.89	4.912
569.23	5.214
569.56	4.696
569.90	4.491
570.24	4.270
570.57	4.624
570.91	4.202
571.25	4.725
571.59	4.418
571.92	4.291
572.26	4.362
572.60	4.655
572.93	4.348
573.27	4.614
573.61	4.327
573.95	4.729
574.28	4.397
574.62	4.227
574.96	4.014
575.29	3.952
575.63	4.294
575.97	4.270
576.30	4.647
576.64	4.296
576.98	4.229
577.31	3.812
577.65	3.952
577.98	4.061
578.32	3.892
578.66	4.444
578.99	4.223
579.33	3.752
579.67	4.160
580.00	4.507
580.34	4.200
580.67	4.349
581.01	4.700
581.35	3.968
581.68	4.017
582.02	3.813
582.35	4.069
582.69	4.226
583.02	4.039
583.36	4.519
583.70	4.545
584.03	4.232
584.37	4.453
584.70	4.258
585.04	4.281
585.37	4.264
585.71	4.699
586.04	4.180
586.38	4.519
586.72	4.640
587.05	4.156
587.39	4.248
587.72	4.586
588.06	4.322
588.39	4.554
588.73	4.371
589.06	5.111
589.40	4.916
589.73	4.224
590.07	4.662
590.40	4.129
590.73	4.723
591.07	4.965
591.40	4.639
591.74	5.498
592.07	4.712
592.41	4.961
592.74	4.457
593.08	4.597
593.41	4.556
593.75	4.310
594.08	4.660
594.41	4.913
594.75	4.325
595.08	4.724
595.42	4.799
595.75	4.487
596.09	5.107
596.42	5.540
596.75	5.023
597.09	5.368
597.42	5.101
597.75	5.002
598.09	4.957
598.42	5.112
598.76	3.891
599.09	4.789
599.42	4.803
599.76	5.015
600.09	4.736
600.42	4.821
600.76	4.643
601.09	4.554
601.42	4.604
601.76	4.820
602.09	4.862
602.42	4.896
602.76	5.522
603.09	5.075
603.42	5.271
603.76	4.802
604.09	4.459
604.42	4.770
604.76	5.399
605.09	5.155
605.42	4.703
605.75	5.671
606.09	4.717
606.42	4.781
606.75	4.811
607.09	5.316
607.42	4.108
607.75	4.557
608.08	4.603
608.42	5.468
608.75	5.005
609.08	5.042
609.41	5.569
609.75	4.859
610.08	6.126
610.41	4.749
610.74	4.920
611.07	5.435
611.41	4.661
611.74	6.083
612.07	5.901
612.40	5.561
612.73	5.316
613.07	5.280
613.40	5.477
613.73	4.405
614.06	5.215
614.39	5.558
614.72	5.263
615.06	5.200
615.39	5.149
615.72	4.755
616.05	4.997
616.38	4.947
616.71	6.057
617.05	5.771
617.38	5.292
617.71	4.805
618.04	5.829
618.37	5.736
618.70	5.414
619.03	6.053
619.36	5.703
619.69	5.493
620.03	6.319
620.36	5.682
620.69	6.164
621.02	5.900
621.35	5.247
621.68	5.062
622.01	5.650
622.34	6.430
622.67	6.768
623.00	5.649
623.33	6.290
623.66	5.504
623.99	6.480
624.32	4.993
624.65	6.215
624.99	5.028
625.32	5.358
625.65	5.860
625.98	5.380
626.31	6.610
626.64	6.286
626.97	5.736
627.30	5.237
627.63	6.645
627.96	6.560
628.29	6.124
628.62	6.953
628.95	8.302
629.28	6.204
629.61	6.874
629.94	6.381
630.26	6.673
630.59	6.864
630.92	5.651
631.25	5.726
631.58	7.708
631.91	6.288
632.24	5.802
632.57	6.716
632.90	7.346
633.23	6.040
633.56	7.458
633.89	7.022
634.22	7.605
634.55	6.154
634.88	6.108
635.20	7.527
635.53	7.470
635.86	5.817
636.19	6.706
636.52	7.843
636.85	7.331
637.18	6.221
637.51	6.501
637.83	4.686
638.16	7.289
638.49	8.438
638.82	8.344
639.15	8.125
639.48	7.731
639.81	7.105
640.13	7.292
640.46	6.577
640.79	8.851
641.12	6.052
641.45	6.145
641.77	6.627
642.10	7.456
642.43	6.607
642.76	7.740
643.09	8.589
643.41	7.132
643.74	7.716
644.07	7.927
644.40	7.669
644.73	9.291
645.05	8.716
645.38	7.267
645.71	9.823
646.04	7.309
646.36	11.519
646.69	9.699
647.02	7.483
647.35	9.966
647.67	8.319
648.00	10.569
648.33	7.756
648.66	6.515
648.98	9.745
649.31	7.025
649.64	6.129
649.96	8.644
650.29	7.425
650.62	6.958
650.94	10.211
651.27	9.966
651.60	9.983
651.92	8.626
652.25	7.166
652.58	7.788
652.90	8.215
653.23	6.626
653.56	8.504
653.88	8.399
654.21	7.267
654.54	7.921
654.86	7.477
655.19	6.351
655.52	4.842
