SpectraSuite Data File
++++++++++++++++++++++++++++++++++++
Date: Wed May 13 20:41:01 PDT 2015
User: schluterlab
Dark Spectrum Present: Yes
Reference Spectrum Present: Yes
Number of Sampled Component Spectra: 1
Spectrometers: USB2E3373
Integration Time (usec): 3000 (USB2E3373)
Spectra Averaged: 3 (USB2E3373)
Boxcar Smoothing: 0 (USB2E3373)
Correct for Electrical Dark: No (USB2E3373)
Strobe/Lamp Enabled: No (USB2E3373)
Correct for Detector Non-linearity: No (USB2E3373)
Correct for Stray Light: No (USB2E3373)
Number of Pixels in Processed Spectrum: 2048
>>>>>Begin Processed Spectral Data<<<<<
178.53	0.000
178.91	-875.000
179.29	-1075.000
179.67	-188.889
180.04	-650.000
180.42	1900.000
180.80	760.000
181.18	-575.000
181.56	457.143
181.94	0.000
182.31	-414.286
182.69	1233.333
183.07	-400.000
183.45	-311.111
183.83	400.000
184.20	-320.000
184.58	1450.000
184.96	4000.000
185.34	-620.000
185.72	-437.500
186.09	-1400.000
186.47	2050.000
186.85	1700.000
187.23	4100.000
187.61	-1533.333
187.98	1125.000
188.36	409.091
188.74	327.273
189.12	-520.000
189.49	430.000
189.87	-3300.000
190.25	-700.000
190.63	292.857
191.00	292.308
191.38	533.333
191.76	-725.000
192.14	1200.000
192.51	525.000
192.89	716.667
193.27	400.000
193.65	-975.000
194.02	370.000
194.40	680.000
194.78	420.000
195.15	433.333
195.53	450.000
195.91	-950.000
196.29	268.750
196.66	247.368
197.04	-340.000
197.42	0.000
197.79	360.000
198.17	-3800.000
198.55	400.000
198.92	400.000
199.30	520.000
199.68	0.000
200.05	250.000
200.43	585.714
200.81	3200.000
201.18	1100.000
201.56	-1100.000
201.94	366.667
202.31	388.889
202.69	275.000
203.07	360.000
203.44	0.000
203.82	950.000
204.19	528.571
204.57	292.857
204.95	375.000
205.32	800.000
205.70	363.636
206.08	321.429
206.45	1850.000
206.83	268.750
207.20	566.667
207.58	380.000
207.96	255.556
208.33	487.500
208.71	-500.000
209.08	571.429
209.46	522.222
209.84	400.000
210.21	-866.667
210.59	1050.000
210.96	-287.500
211.34	2000.000
211.71	520.000
212.09	350.000
212.46	0.000
212.84	1166.667
213.22	1050.000
213.59	-2800.000
213.97	650.000
214.34	542.857
214.72	418.182
215.09	900.000
215.47	-1650.000
215.84	-1700.000
216.22	1166.667
216.59	271.429
216.97	1025.000
217.34	327.273
217.72	-650.000
218.09	0.000
218.47	-2700.000
218.84	477.778
219.22	628.571
219.59	1233.333
219.97	-514.286
220.34	560.000
220.72	-1333.333
221.09	264.286
221.47	925.000
221.84	-583.333
222.22	0.000
222.59	1025.000
222.97	-2050.000
223.34	760.000
223.72	284.615
224.09	780.000
224.46	1200.000
224.84	-3800.000
225.21	-660.000
225.59	-3700.000
225.96	420.000
226.34	210.000
226.71	2000.000
227.08	575.000
227.46	390.000
227.83	-500.000
228.21	-1850.000
228.58	422.222
228.95	-1600.000
229.33	-1600.000
229.70	1400.000
230.08	485.714
230.45	-640.000
230.82	300.000
231.20	600.000
231.57	457.143
231.95	416.667
232.32	168.182
232.69	345.455
233.07	485.714
233.44	200.000
233.81	-1066.667
234.19	236.842
234.56	283.333
234.93	341.667
235.31	363.636
235.68	261.538
236.05	321.429
236.43	139.394
236.80	200.000
237.17	3900.000
237.55	176.190
237.92	214.286
238.29	238.095
238.67	154.839
239.04	189.655
239.41	138.889
239.79	100.000
240.16	133.333
240.53	138.636
240.91	100.000
241.28	108.000
241.65	120.000
242.02	98.551
242.40	79.032
242.77	90.000
243.14	67.742
243.51	94.382
243.89	82.353
244.26	85.556
244.63	77.419
245.00	79.787
245.38	78.218
245.75	76.636
246.12	76.147
246.49	68.613
246.87	87.200
247.24	72.308
247.61	62.857
247.98	66.013
248.36	64.865
248.73	68.153
249.10	70.064
249.47	66.667
249.84	62.567
250.22	62.567
250.59	60.947
250.96	61.616
251.33	63.033
251.70	62.871
252.08	64.286
252.45	60.090
252.82	60.870
253.19	57.021
253.56	60.784
253.94	57.261
254.31	65.625
254.68	60.385
255.05	62.731
255.42	58.537
255.79	55.882
256.16	59.928
256.54	52.650
256.91	59.786
257.28	54.317
257.65	57.426
258.02	53.416
258.39	54.574
258.76	55.518
259.14	56.250
259.51	56.231
259.88	59.627
260.25	56.193
260.62	52.890
260.99	55.590
261.36	55.556
261.73	55.301
262.10	52.035
262.47	59.437
262.85	55.153
263.22	54.131
263.59	56.125
263.96	50.549
264.33	52.742
264.70	55.789
265.07	53.453
265.44	49.495
265.81	50.122
266.18	55.276
266.55	53.659
266.92	53.563
267.29	52.546
267.66	51.376
268.03	53.182
268.40	50.000
268.77	52.506
269.14	52.027
269.51	53.950
269.88	52.914
270.25	51.693
270.62	51.461
270.99	52.258
271.36	51.502
271.73	50.701
272.10	49.565
272.47	49.247
272.84	48.268
273.21	51.572
273.58	49.563
273.95	48.218
274.32	50.207
274.69	49.679
275.06	48.819
275.43	48.936
275.80	49.299
276.17	48.269
276.54	53.638
276.91	50.000
277.28	46.484
277.65	50.870
278.02	49.689
278.39	50.391
278.76	45.636
279.13	48.113
279.50	49.907
279.87	47.410
280.23	50.699
280.60	51.257
280.97	46.950
281.34	47.788
281.71	47.636
282.08	48.177
282.45	46.364
282.82	49.378
283.19	46.168
283.56	47.018
283.92	50.931
284.29	47.795
284.66	45.735
285.03	46.655
285.40	45.775
285.77	45.623
286.14	49.396
286.51	45.667
286.87	46.496
287.24	46.417
287.61	44.302
287.98	45.942
288.35	44.216
288.72	43.925
289.08	44.444
289.45	42.998
289.82	43.740
290.19	41.915
290.56	42.113
290.93	41.692
291.29	42.025
291.66	40.855
292.03	42.733
292.40	41.410
292.77	39.497
293.13	40.448
293.50	40.671
293.87	39.556
294.24	40.148
294.60	37.409
294.97	38.227
295.34	39.633
295.71	38.636
296.08	36.610
296.44	37.276
296.81	38.309
297.18	40.244
297.55	36.675
297.91	36.807
298.28	38.286
298.65	37.337
299.02	36.232
299.38	37.317
299.75	35.984
300.12	36.271
300.48	35.625
300.85	35.265
301.22	35.159
301.59	35.354
301.95	36.398
302.32	34.917
302.69	36.320
303.05	34.545
303.42	33.704
303.79	32.843
304.15	34.149
304.52	33.024
304.89	32.288
305.25	31.787
305.62	32.956
305.99	34.829
306.35	35.123
306.72	31.951
307.09	35.294
307.45	34.347
307.82	32.812
308.19	33.444
308.55	35.275
308.92	32.653
309.29	34.108
309.65	32.556
310.02	33.510
310.38	33.226
310.75	33.897
311.12	33.572
311.48	34.692
311.85	35.639
312.22	34.755
312.58	33.576
312.95	35.269
313.31	33.301
313.68	35.343
314.05	36.292
314.41	35.377
314.78	34.441
315.14	34.359
315.51	36.972
315.87	36.337
316.24	37.835
316.61	36.160
316.97	35.029
317.34	36.595
317.70	38.241
318.07	38.114
318.43	39.335
318.80	38.894
319.16	38.889
319.53	38.931
319.89	41.429
320.26	42.100
320.62	41.270
320.99	42.525
321.35	43.232
321.72	44.045
322.08	45.212
322.45	46.866
322.81	44.864
323.18	46.628
323.54	47.310
323.91	46.038
324.27	46.558
324.64	47.530
325.00	47.430
325.37	48.499
325.73	50.987
326.10	48.808
326.46	51.254
326.83	50.992
327.19	51.324
327.56	52.787
327.92	53.631
328.29	53.682
328.65	53.683
329.01	52.978
329.38	54.302
329.74	54.663
330.11	55.325
330.47	56.107
330.84	57.169
331.20	54.189
331.56	54.954
331.93	58.241
332.29	55.191
332.66	56.549
333.02	56.124
333.38	55.736
333.75	56.952
334.11	56.851
334.48	57.853
334.84	57.353
335.20	57.000
335.57	56.573
335.93	57.232
336.29	57.784
336.66	58.521
337.02	56.652
337.38	58.611
337.75	56.150
338.11	58.639
338.47	59.484
338.84	57.012
339.20	57.339
339.56	59.580
339.93	57.182
340.29	56.975
340.65	59.091
341.02	57.679
341.38	59.253
341.74	58.509
342.11	59.127
342.47	58.062
342.83	57.705
343.20	58.874
343.56	57.961
343.92	59.211
344.28	57.313
344.65	59.329
345.01	57.828
345.37	57.633
345.73	59.306
346.10	59.335
346.46	57.966
346.82	58.814
347.19	58.730
347.55	58.456
347.91	59.790
348.27	60.230
348.63	59.448
349.00	57.362
349.36	59.688
349.72	58.781
350.08	56.483
350.45	60.456
350.81	58.164
351.17	58.590
351.53	57.985
351.89	58.251
352.26	59.826
352.62	58.220
352.98	57.699
353.34	59.408
353.70	58.429
354.07	57.742
354.43	57.857
354.79	57.844
355.15	58.180
355.51	60.751
355.87	59.102
356.24	59.609
356.60	58.380
356.96	59.775
357.32	58.872
357.68	58.740
358.04	57.641
358.40	58.195
358.77	58.138
359.13	58.327
359.49	58.196
359.85	57.619
360.21	59.888
360.57	59.922
360.93	60.385
361.29	58.503
361.66	58.282
362.02	57.090
362.38	58.403
362.74	58.482
363.10	57.957
363.46	56.200
363.82	60.469
364.18	58.517
364.54	58.395
364.90	58.994
365.26	60.000
365.62	59.167
365.98	58.510
366.35	57.378
366.71	58.930
367.07	58.631
367.43	60.668
367.79	58.958
368.15	59.986
368.51	58.358
368.87	59.172
369.23	58.449
369.59	59.232
369.95	58.235
370.31	58.689
370.67	57.754
371.03	60.225
371.39	57.362
371.75	59.485
372.11	58.677
372.47	59.604
372.83	59.654
373.19	58.598
373.55	60.310
373.91	60.015
374.27	57.251
374.63	59.418
374.99	58.545
375.35	57.432
375.71	58.191
376.07	57.956
376.42	58.184
376.78	57.787
377.14	59.498
377.50	59.139
377.86	56.915
378.22	58.534
378.58	56.266
378.94	58.580
379.30	58.651
379.66	58.249
380.02	57.678
380.38	56.648
380.74	58.583
381.09	58.313
381.45	58.943
381.81	57.555
382.17	57.834
382.53	57.484
382.89	58.642
383.25	57.348
383.61	57.497
383.97	56.973
384.32	56.706
384.68	56.629
385.04	57.283
385.40	55.542
385.76	55.897
386.12	57.189
386.48	56.514
386.83	57.922
387.19	57.143
387.55	55.535
387.91	56.167
388.27	55.855
388.62	55.931
388.98	56.143
389.34	56.571
389.70	55.733
390.06	56.591
390.42	56.485
390.77	55.789
391.13	57.179
391.49	56.599
391.85	55.824
392.20	53.754
392.56	55.808
392.92	55.856
393.28	55.325
393.64	54.616
393.99	54.307
394.35	55.149
394.71	54.831
395.07	54.704
395.42	54.574
395.78	54.517
396.14	53.818
396.50	55.326
396.85	55.245
397.21	54.809
397.57	53.689
397.92	54.207
398.28	52.747
398.64	53.345
399.00	53.050
399.35	53.017
399.71	53.125
400.07	53.814
400.42	53.374
400.78	53.619
401.14	53.354
401.49	52.955
401.85	53.358
402.21	51.617
402.57	52.930
402.92	53.216
403.28	54.091
403.63	52.661
403.99	53.121
404.35	51.576
404.70	52.398
405.06	50.961
405.42	51.528
405.77	51.771
406.13	51.806
406.49	52.158
406.84	51.447
407.20	51.537
407.55	52.074
407.91	52.200
408.27	52.776
408.62	50.391
408.98	50.674
409.34	51.476
409.69	52.194
410.05	50.743
410.40	50.581
410.76	50.777
411.11	50.844
411.47	49.712
411.83	50.764
412.18	49.351
412.54	50.311
412.89	49.458
413.25	50.236
413.60	50.957
413.96	49.302
414.31	49.210
414.67	49.810
415.03	49.735
415.38	50.129
415.74	49.325
416.09	49.771
416.45	49.665
416.80	49.967
417.16	50.402
417.51	49.171
417.87	47.977
418.22	48.896
418.58	50.355
418.93	50.184
419.29	49.141
419.64	50.126
420.00	47.866
420.35	48.812
420.71	49.193
421.06	48.807
421.42	49.298
421.77	48.374
422.12	47.838
422.48	47.760
422.83	49.563
423.19	48.895
423.54	49.565
423.90	48.928
424.25	48.074
424.61	48.750
424.96	50.204
425.31	48.117
425.67	46.966
426.02	48.400
426.38	48.779
426.73	47.513
427.09	48.754
427.44	48.476
427.79	48.074
428.15	48.274
428.50	48.566
428.85	48.629
429.21	47.929
429.56	47.641
429.92	47.911
430.27	47.567
430.62	47.926
430.98	46.964
431.33	47.010
431.68	48.010
432.04	46.965
432.39	47.973
432.74	48.294
433.10	47.482
433.45	48.688
433.80	46.951
434.16	47.489
434.51	47.842
434.86	48.233
435.22	48.027
435.57	49.058
435.92	47.689
436.28	48.577
436.63	48.124
436.98	48.082
437.34	47.823
437.69	47.841
438.04	47.049
438.39	47.463
438.75	47.647
439.10	47.486
439.45	47.816
439.81	47.855
440.16	47.431
440.51	47.335
440.86	48.350
441.22	47.998
441.57	48.514
441.92	47.646
442.27	48.708
442.63	46.761
442.98	48.113
443.33	47.283
443.68	47.135
444.03	47.877
444.39	47.128
444.74	47.186
445.09	46.954
445.44	47.130
445.79	47.947
446.15	47.221
446.50	47.388
446.85	45.992
447.20	46.813
447.55	47.515
447.91	47.766
448.26	47.078
448.61	47.032
448.96	47.896
449.31	47.019
449.66	46.539
450.02	46.351
450.37	46.882
450.72	47.547
451.07	46.557
451.42	45.289
451.77	47.328
452.12	45.439
452.47	46.704
452.83	46.329
453.18	46.455
453.53	47.310
453.88	46.013
454.23	46.503
454.58	47.062
454.93	47.298
455.28	45.948
455.63	46.299
455.98	47.381
456.34	46.231
456.69	46.713
457.04	47.245
457.39	45.880
457.74	45.270
458.09	45.658
458.44	45.439
458.79	44.089
459.14	46.106
459.49	45.768
459.84	44.765
460.19	45.846
460.54	44.155
460.89	45.145
461.24	45.659
461.59	45.845
461.94	44.821
462.29	45.401
462.64	45.373
462.99	44.112
463.34	46.067
463.69	45.341
464.04	44.638
464.39	44.406
464.74	43.434
465.09	44.331
465.44	43.601
465.79	43.345
466.14	43.350
466.49	43.548
466.84	43.724
467.19	44.116
467.54	43.625
467.89	42.737
468.24	42.292
468.59	44.628
468.94	42.456
469.29	44.987
469.64	43.440
469.99	44.046
470.34	43.791
470.68	43.175
471.03	42.517
471.38	44.197
471.73	42.438
472.08	43.224
472.43	43.719
472.78	42.330
473.13	42.362
473.48	42.135
473.83	42.683
474.17	42.875
474.52	42.680
474.87	43.024
475.22	42.078
475.57	41.913
475.92	42.273
476.27	42.390
476.61	41.644
476.96	42.166
477.31	40.869
477.66	42.013
478.01	40.042
478.36	41.777
478.70	41.485
479.05	41.747
479.40	41.556
479.75	42.145
480.10	40.656
480.45	41.218
480.79	40.659
481.14	40.362
481.49	41.813
481.84	41.198
482.19	40.436
482.53	40.321
482.88	40.763
483.23	40.561
483.58	40.628
483.92	40.487
484.27	40.000
484.62	40.388
484.97	39.771
485.31	40.445
485.66	38.643
486.01	38.522
486.36	39.011
486.70	38.909
487.05	38.588
487.40	38.662
487.75	38.308
488.09	38.581
488.44	37.592
488.79	39.241
489.13	37.892
489.48	39.152
489.83	39.404
490.17	39.500
490.52	39.504
490.87	38.761
491.22	39.154
491.56	37.995
491.91	39.553
492.26	38.677
492.60	38.387
492.95	38.026
493.30	38.738
493.64	38.591
493.99	38.115
494.34	39.084
494.68	38.416
495.03	38.111
495.37	37.925
495.72	38.548
496.07	38.051
496.41	36.947
496.76	37.907
497.11	38.631
497.45	37.541
497.80	37.716
498.14	37.295
498.49	37.561
498.84	37.919
499.18	36.571
499.53	37.892
499.87	38.024
500.22	37.494
500.56	38.641
500.91	37.019
501.26	36.747
501.60	38.396
501.95	36.205
502.29	37.816
502.64	36.732
502.98	37.728
503.33	36.883
503.67	36.613
504.02	36.763
504.36	36.266
504.71	37.225
505.06	37.108
505.40	36.509
505.75	36.789
506.09	34.985
506.44	36.655
506.78	36.922
507.13	37.102
507.47	37.677
507.82	36.424
508.16	37.639
508.51	37.139
508.85	36.197
509.19	35.816
509.54	36.173
509.88	36.837
510.23	35.887
510.57	37.255
510.92	35.940
511.26	36.023
511.61	35.840
511.95	36.587
512.30	35.896
512.64	35.089
512.98	36.174
513.33	36.938
513.67	34.685
514.02	35.552
514.36	35.991
514.70	35.971
515.05	35.081
515.39	35.726
515.74	35.586
516.08	35.830
516.42	36.182
516.77	36.622
517.11	35.017
517.46	35.722
517.80	36.063
518.14	34.221
518.49	35.589
518.83	35.000
519.17	35.912
519.52	35.257
519.86	36.110
520.20	34.798
520.55	35.966
520.89	36.375
521.23	35.887
521.58	35.714
521.92	35.946
522.26	34.838
522.61	34.704
522.95	35.298
523.29	36.153
523.64	36.037
523.98	34.874
524.32	35.585
524.66	35.057
525.01	34.743
525.35	35.068
525.69	34.729
526.04	34.579
526.38	35.082
526.72	34.724
527.06	34.777
527.41	33.911
527.75	35.498
528.09	34.746
528.43	35.373
528.78	35.157
529.12	34.303
529.46	34.966
529.80	35.458
530.15	34.517
530.49	32.862
530.83	35.127
531.17	34.465
531.51	35.863
531.86	33.613
532.20	35.332
532.54	35.170
532.88	34.852
533.22	33.854
533.57	33.580
533.91	33.233
534.25	34.994
534.59	35.021
534.93	33.492
535.27	33.917
535.62	32.845
535.96	34.024
536.30	33.821
536.64	33.226
536.98	33.378
537.32	33.311
537.66	33.733
538.01	34.167
538.35	34.195
538.69	34.014
539.03	32.749
539.37	32.588
539.71	32.728
540.05	33.137
540.39	33.289
540.73	31.695
541.07	35.432
541.42	33.464
541.76	33.097
542.10	33.765
542.44	33.113
542.78	33.992
543.12	32.502
543.46	34.230
543.80	32.921
544.14	32.028
544.48	33.524
544.82	32.457
545.16	33.832
545.50	32.584
545.84	32.594
546.18	32.862
546.52	34.205
546.86	32.646
547.20	33.176
547.54	32.398
547.88	33.163
548.22	32.690
548.56	32.642
548.90	31.818
549.24	32.727
549.58	33.356
549.92	32.830
550.26	33.665
550.60	32.503
550.94	33.451
551.28	32.334
551.62	31.919
551.96	32.632
552.30	33.788
552.64	33.333
552.98	33.288
553.32	32.704
553.66	31.834
554.00	32.876
554.34	32.781
554.68	32.546
555.02	33.216
555.36	32.359
555.69	32.138
556.03	32.032
556.37	32.401
556.71	31.924
557.05	32.983
557.39	32.400
557.73	30.910
558.07	32.125
558.41	31.766
558.75	33.284
559.08	31.991
559.42	32.502
559.76	33.088
560.10	32.120
560.44	31.447
560.78	31.737
561.12	31.332
561.45	32.073
561.79	31.444
562.13	32.260
562.47	32.855
562.81	32.845
563.15	31.639
563.48	32.626
563.82	32.355
564.16	31.131
564.50	31.771
564.84	31.479
565.17	32.304
565.51	32.396
565.85	31.218
566.19	31.622
566.52	32.172
566.86	31.224
567.20	32.547
567.54	31.963
567.88	31.124
568.21	31.905
568.55	32.103
568.89	31.858
569.23	31.373
569.56	31.903
569.90	32.000
570.24	31.719
570.57	30.874
570.91	30.090
571.25	31.285
571.59	31.046
571.92	30.645
572.26	30.560
572.60	30.571
572.93	30.855
573.27	30.908
573.61	30.653
573.95	30.827
574.28	30.628
574.62	30.248
574.96	30.562
575.29	30.795
575.63	30.539
575.97	29.706
576.30	30.589
576.64	30.149
576.98	30.214
577.31	30.152
577.65	30.423
577.98	30.619
578.32	30.044
578.66	30.566
578.99	29.719
579.33	29.896
579.67	29.774
580.00	29.897
580.34	30.256
580.67	30.277
581.01	30.268
581.35	30.129
581.68	30.742
582.02	30.453
582.35	30.362
582.69	30.529
583.02	30.508
583.36	30.159
583.70	29.970
584.03	29.598
584.37	30.435
584.70	30.277
585.04	29.892
585.37	30.289
585.71	30.522
586.04	30.225
586.38	30.460
586.72	30.572
587.05	30.019
587.39	30.290
587.72	30.533
588.06	30.603
588.39	30.590
588.73	30.625
589.06	31.069
589.40	31.145
589.73	30.517
590.07	30.391
590.40	29.814
590.73	30.835
591.07	30.444
591.40	30.704
591.74	30.649
592.07	30.410
592.41	30.798
592.74	30.787
593.08	31.046
593.41	30.370
593.75	29.638
594.08	30.607
594.41	31.389
594.75	30.906
595.08	30.100
595.42	30.753
595.75	30.342
596.09	30.417
596.42	29.902
596.75	30.477
597.09	30.649
597.42	29.595
597.75	30.832
598.09	30.000
598.42	31.057
598.76	30.401
599.09	30.293
599.42	30.277
599.76	30.234
600.09	29.654
600.42	30.168
600.76	29.464
601.09	29.982
601.42	30.670
601.76	29.639
602.09	30.316
602.42	30.414
602.76	30.512
603.09	30.370
603.42	29.871
603.76	29.573
604.09	30.206
604.42	30.208
604.76	29.734
605.09	29.227
605.42	29.756
605.75	30.298
606.09	29.158
606.42	29.996
606.75	29.988
607.09	29.678
607.42	30.039
607.75	29.536
608.08	29.700
608.42	30.076
608.75	29.486
609.08	28.955
609.41	29.367
609.75	29.633
610.08	30.443
610.41	30.354
610.74	29.896
611.07	30.484
611.41	30.029
611.74	29.915
612.07	30.642
612.40	30.955
612.73	29.684
613.07	30.496
613.40	30.174
613.73	28.684
614.06	29.355
614.39	29.575
614.72	30.000
615.06	29.727
615.39	29.618
615.72	29.039
616.05	29.984
616.38	30.183
616.71	30.048
617.05	29.152
617.38	29.104
617.71	29.489
618.04	29.447
618.37	29.213
618.70	30.305
619.03	30.526
619.36	30.414
619.69	30.915
620.03	31.181
620.36	30.147
620.69	30.548
621.02	30.678
621.35	29.287
621.68	29.361
622.01	29.025
622.34	29.728
622.67	30.038
623.00	29.054
623.33	30.593
623.66	29.736
623.99	29.381
624.32	29.529
624.65	30.085
624.99	29.533
625.32	29.399
625.65	30.353
625.98	30.054
626.31	30.093
626.64	30.612
626.97	30.008
627.30	29.842
627.63	29.861
627.96	31.791
628.29	29.659
628.62	29.826
628.95	29.906
629.28	30.474
629.61	30.522
629.94	30.381
630.26	30.219
630.59	29.552
630.92	30.172
631.25	29.319
