SpectraSuite Data File
++++++++++++++++++++++++++++++++++++
Date: Wed May 13 21:00:28 PDT 2015
User: schluterlab
Dark Spectrum Present: Yes
Reference Spectrum Present: Yes
Number of Sampled Component Spectra: 1
Spectrometers: USB2E3373
Integration Time (usec): 3000 (USB2E3373)
Spectra Averaged: 3 (USB2E3373)
Boxcar Smoothing: 0 (USB2E3373)
Correct for Electrical Dark: No (USB2E3373)
Strobe/Lamp Enabled: No (USB2E3373)
Correct for Detector Non-linearity: No (USB2E3373)
Correct for Stray Light: No (USB2E3373)
Number of Pixels in Processed Spectrum: 2048
>>>>>Begin Processed Spectral Data<<<<<
178.53	0.000
178.91	-0.000
179.29	125.000
179.67	-550.000
180.04	33.333
180.42	-0.000
180.80	600.000
181.18	183.333
181.56	-75.000
181.94	200.000
182.31	36.364
182.69	46.154
183.07	80.000
183.45	233.333
183.83	111.111
184.20	85.714
184.58	233.333
184.96	233.333
185.34	57.143
185.72	0.000
186.09	800.000
186.47	0.000
186.85	80.000
187.23	500.000
187.61	150.000
187.98	-0.000
188.36	87.500
188.74	0.000
189.12	63.636
189.49	130.000
189.87	33.333
190.25	120.000
190.63	-0.000
191.00	160.000
191.38	120.000
191.76	225.000
192.14	75.000
192.51	21.053
192.89	166.667
193.27	-125.000
193.65	-140.000
194.02	81.818
194.40	120.000
194.78	-100.000
195.15	60.000
195.53	-60.000
195.91	112.500
196.29	33.333
196.66	0.000
197.04	200.000
197.42	100.000
197.79	-10.000
198.17	37.500
198.55	-66.667
198.92	-75.000
199.30	-166.667
199.68	50.000
200.05	-150.000
200.43	-66.667
200.81	-100.000
201.18	80.000
201.56	33.333
201.94	300.000
202.31	34.783
202.69	-42.857
203.07	33.333
203.44	240.000
203.82	33.333
204.19	60.000
204.57	0.000
204.95	-50.000
205.32	0.000
205.70	250.000
206.08	75.000
206.45	-116.667
206.83	175.000
207.20	-433.333
207.58	80.000
207.96	-700.000
208.33	-100.000
208.71	-700.000
209.08	62.500
209.46	175.000
209.84	0.000
210.21	10.000
210.59	400.000
210.96	160.000
211.34	-200.000
211.71	-300.000
212.09	-33.333
212.46	0.000
212.84	200.000
213.22	100.000
213.59	-200.000
213.97	100.000
214.34	450.000
214.72	0.000
215.09	75.000
215.47	55.556
215.84	550.000
216.22	0.000
216.59	150.000
216.97	500.000
217.34	44.444
217.72	0.000
218.09	-0.000
218.47	300.000
218.84	-57.143
219.22	-37.500
219.59	333.333
219.97	-150.000
220.34	12.500
220.72	-20.000
221.09	0.000
221.47	16.667
221.84	600.000
222.22	0.000
222.59	-300.000
222.97	133.333
223.34	41.667
223.72	-200.000
224.09	100.000
224.46	-54.545
224.84	-12.500
225.21	-14.286
225.59	-25.000
225.96	83.333
226.34	0.000
226.71	-100.000
227.08	300.000
227.46	-50.000
227.83	800.000
228.21	37.500
228.58	150.000
228.95	-5.882
229.33	25.000
229.70	125.000
230.08	46.154
230.45	100.000
230.82	-50.000
231.20	-0.000
231.57	-250.000
231.95	200.000
232.32	166.667
232.69	-11.765
233.07	-700.000
233.44	17.391
233.81	-150.000
234.19	33.333
234.56	20.000
234.93	13.333
235.31	26.316
235.68	23.077
236.05	38.462
236.43	16.667
236.80	39.394
237.17	20.000
237.55	47.059
237.92	37.931
238.29	14.815
238.67	55.556
239.04	25.806
239.41	38.298
239.79	63.830
240.16	34.884
240.53	26.786
240.91	25.000
241.28	32.143
241.65	50.000
242.02	17.105
242.40	44.928
242.77	36.232
243.14	38.462
243.51	38.298
243.89	33.654
244.26	54.717
244.63	22.115
245.00	30.208
245.38	26.050
245.75	37.705
246.12	36.842
246.49	29.268
246.87	30.252
247.24	35.135
247.61	36.424
247.98	32.692
248.36	39.053
248.73	35.955
249.10	32.828
249.47	33.333
249.84	36.842
250.22	29.851
250.59	35.514
250.96	33.636
251.33	31.100
251.70	36.402
252.08	34.310
252.45	37.037
252.82	37.643
253.19	36.576
253.56	32.374
253.94	34.520
254.31	35.211
254.68	37.248
255.05	38.284
255.42	37.413
255.79	35.890
256.16	34.069
256.54	30.476
256.91	30.696
257.28	34.906
257.65	35.669
258.02	34.311
258.39	38.596
258.76	32.849
259.14	34.659
259.51	34.270
259.88	32.520
260.25	35.833
260.62	33.989
260.99	37.135
261.36	33.679
261.73	34.321
262.10	34.860
262.47	32.346
262.85	32.587
263.22	37.179
263.59	36.623
263.96	35.036
264.33	33.654
264.70	36.512
265.07	36.111
265.44	38.621
265.81	34.783
266.18	38.497
266.55	32.314
266.92	35.381
267.29	33.128
267.66	37.155
268.03	34.979
268.40	32.627
268.77	34.917
269.14	35.306
269.51	38.398
269.88	31.976
270.25	36.441
270.62	31.762
270.99	33.465
271.36	33.929
271.73	35.944
272.10	34.286
272.47	36.276
272.84	35.433
273.21	34.051
273.58	35.041
273.95	33.962
274.32	33.209
274.69	34.608
275.06	36.219
275.43	35.217
275.80	33.511
276.17	34.807
276.54	31.616
276.91	34.843
277.28	33.935
277.65	35.490
278.02	34.286
278.39	34.458
278.76	34.281
279.13	35.334
279.50	33.621
279.87	33.696
280.23	34.054
280.60	33.910
280.97	33.766
281.34	32.177
281.71	30.732
282.08	33.675
282.45	34.098
282.82	34.505
283.19	33.079
283.56	33.281
283.92	32.569
284.29	30.889
284.66	32.784
285.03	32.248
285.40	31.571
285.77	31.682
286.14	32.979
286.51	34.933
286.87	31.538
287.24	33.333
287.61	32.229
287.98	32.500
288.35	33.234
288.72	31.564
289.08	33.048
289.45	31.865
289.82	32.829
290.19	31.417
290.56	29.830
290.93	30.387
291.29	30.096
291.66	31.011
292.03	30.926
292.40	30.013
292.77	29.317
293.13	28.731
293.50	29.804
293.87	28.400
294.24	27.249
294.60	29.129
294.97	30.688
295.34	26.913
295.71	27.464
296.08	26.309
296.44	26.786
296.81	26.918
297.18	28.000
297.55	28.656
297.91	28.075
298.28	28.935
298.65	25.862
299.02	29.426
299.38	26.626
299.75	25.962
300.12	23.488
300.48	25.731
300.85	24.711
301.22	25.900
301.59	25.000
301.95	23.345
302.32	25.904
302.69	25.989
303.05	25.138
303.42	25.795
303.79	25.342
304.15	25.849
304.52	26.344
304.89	24.142
305.25	22.722
305.62	25.271
305.99	24.701
306.35	24.556
306.72	24.517
307.09	25.235
307.45	24.068
307.82	24.316
308.19	23.406
308.55	24.872
308.92	24.853
309.29	24.525
309.65	24.376
310.02	23.956
310.38	25.305
310.75	22.682
311.12	23.615
311.48	24.135
311.85	24.409
312.22	24.758
312.58	24.058
312.95	26.169
313.31	24.977
313.68	23.473
314.05	23.629
314.41	24.496
314.78	24.668
315.14	23.981
315.51	24.929
315.87	25.023
316.24	23.600
316.61	25.114
316.97	25.000
317.34	23.797
317.70	25.691
318.07	24.667
318.43	25.474
318.80	23.997
319.16	24.580
319.53	24.821
319.89	25.203
320.26	25.693
320.62	24.930
320.99	24.031
321.35	25.819
321.72	25.120
322.08	27.030
322.45	25.902
322.81	26.433
323.18	26.476
323.54	25.812
323.91	27.191
324.27	26.733
324.64	25.958
325.00	26.684
325.37	27.986
325.73	25.505
326.10	26.745
326.46	27.843
326.83	26.861
327.19	27.480
327.56	30.298
327.92	28.399
328.29	28.214
328.65	29.623
329.01	29.112
329.38	28.957
329.74	29.099
330.11	28.855
330.47	28.125
330.84	28.971
331.20	29.377
331.56	29.438
331.93	29.027
332.29	30.235
332.66	27.627
333.02	30.148
333.38	29.561
333.75	28.840
334.11	30.295
334.48	30.253
334.84	30.035
335.20	29.331
335.57	30.374
335.93	29.553
336.29	29.072
336.66	30.427
337.02	30.783
337.38	29.417
337.75	29.630
338.11	29.462
338.47	26.798
338.84	29.553
339.20	30.335
339.56	29.778
339.93	29.991
340.29	29.120
340.65	29.769
341.02	29.451
341.38	28.547
341.74	28.235
342.11	30.471
342.47	29.456
342.83	29.739
343.20	29.949
343.56	30.090
343.92	29.813
344.28	29.708
344.65	30.449
345.01	29.701
345.37	28.865
345.73	30.310
346.10	28.973
346.46	28.943
346.82	29.535
347.19	28.481
347.55	31.099
347.91	29.384
348.27	29.574
348.63	30.369
349.00	29.403
349.36	29.435
349.72	30.240
350.08	29.641
350.45	29.366
350.81	30.829
351.17	30.793
351.53	29.772
351.89	28.118
352.26	28.880
352.62	29.380
352.98	30.431
353.34	30.113
353.70	30.763
354.07	29.882
354.43	29.860
354.79	30.449
355.15	30.047
355.51	29.233
355.87	29.945
356.24	29.936
356.60	30.336
356.96	29.931
357.32	29.489
357.68	30.405
358.04	29.868
358.40	30.155
358.77	30.199
359.13	30.895
359.49	30.734
359.85	29.113
360.21	30.609
360.57	31.103
360.93	31.411
361.29	30.866
361.66	31.663
362.02	30.689
362.38	30.576
362.74	29.804
363.10	29.935
363.46	30.692
363.82	30.081
364.18	30.239
364.54	30.562
364.90	29.965
365.26	31.139
365.62	30.185
365.98	31.459
366.35	31.348
366.71	31.598
367.07	31.042
367.43	31.010
367.79	31.272
368.15	30.802
368.51	30.802
368.87	31.891
369.23	31.032
369.59	31.008
369.95	30.842
370.31	31.032
370.67	30.413
371.03	31.626
371.39	31.583
371.75	31.714
372.11	31.980
372.47	31.939
372.83	32.594
373.19	31.727
373.55	31.936
373.91	32.390
374.27	30.152
374.63	32.504
374.99	31.685
375.35	31.575
375.71	31.658
376.07	32.214
376.42	32.286
376.78	32.827
377.14	33.153
377.50	31.356
377.86	32.669
378.22	32.491
378.58	32.472
378.94	33.500
379.30	32.917
379.66	32.182
380.02	32.659
380.38	32.470
380.74	33.353
381.09	32.690
381.45	33.736
381.81	32.409
382.17	33.522
382.53	31.692
382.89	32.750
383.25	32.346
383.61	33.172
383.97	33.562
384.32	32.892
384.68	33.498
385.04	32.987
385.40	33.562
385.76	33.394
386.12	33.118
386.48	32.790
386.83	32.353
387.19	33.806
387.55	33.415
387.91	34.317
388.27	33.539
388.62	34.332
388.98	34.230
389.34	32.895
389.70	32.967
390.06	34.062
390.42	34.729
390.77	32.671
391.13	33.018
391.49	33.713
391.85	34.058
392.20	34.023
392.56	33.968
392.92	34.114
393.28	33.759
393.64	33.639
393.99	33.660
394.35	34.383
394.71	33.205
395.07	31.509
395.42	34.369
395.78	34.878
396.14	34.559
396.50	34.179
396.85	34.034
397.21	34.145
397.57	33.789
397.92	34.611
398.28	34.518
398.64	34.669
399.00	34.933
399.35	35.131
399.71	34.013
400.07	34.277
400.42	34.044
400.78	34.743
401.14	34.090
401.49	34.212
401.85	35.872
402.21	35.604
402.57	34.335
402.92	34.981
403.28	35.960
403.63	34.904
403.99	34.741
404.35	34.352
404.70	34.079
405.06	35.291
405.42	34.987
405.77	35.196
406.13	33.371
406.49	35.710
406.84	35.958
407.20	34.517
407.55	36.169
407.91	35.473
408.27	34.997
408.62	35.114
408.98	35.943
409.34	35.025
409.69	35.867
410.05	35.510
410.40	34.693
410.76	36.161
411.11	36.692
411.47	36.894
411.83	36.120
412.18	35.579
412.54	36.404
412.89	36.928
413.25	35.221
413.60	35.047
413.96	35.019
414.31	35.635
414.67	35.238
415.03	36.130
415.38	35.799
415.74	35.478
416.09	36.682
416.45	36.705
416.80	35.906
417.16	36.235
417.51	34.963
417.87	36.839
418.22	36.264
418.58	36.465
418.93	36.472
419.29	36.634
419.64	36.323
420.00	37.714
420.35	36.342
420.71	36.868
421.06	37.638
421.42	36.253
421.77	37.514
422.12	36.676
422.48	36.369
422.83	37.153
423.19	37.090
423.54	36.985
423.90	36.580
424.25	37.435
424.61	35.983
424.96	37.374
425.31	36.119
425.67	36.861
426.02	36.749
426.38	36.754
426.73	37.752
427.09	37.211
427.44	37.346
427.79	36.936
428.15	36.697
428.50	36.495
428.85	37.269
429.21	35.847
429.56	37.407
429.92	37.012
430.27	37.168
430.62	36.936
430.98	37.916
431.33	37.668
431.68	38.179
432.04	36.901
432.39	37.298
432.74	36.910
433.10	37.653
433.45	36.627
433.80	36.264
434.16	37.029
434.51	37.717
434.86	37.691
435.22	38.653
435.57	37.654
435.92	37.274
436.28	37.297
436.63	36.836
436.98	38.073
437.34	37.363
437.69	37.426
438.04	36.786
438.39	38.107
438.75	37.008
439.10	38.172
439.45	38.196
439.81	39.347
440.16	38.493
440.51	37.218
440.86	38.826
441.22	37.522
441.57	37.364
441.92	38.103
442.27	36.959
442.63	37.890
442.98	37.500
443.33	38.262
443.68	37.217
444.03	36.910
444.39	37.283
444.74	37.272
445.09	37.059
445.44	38.648
445.79	37.997
446.15	37.493
446.50	37.665
446.85	38.108
447.20	36.696
447.55	37.997
447.91	37.022
448.26	37.507
448.61	37.457
448.96	38.155
449.31	37.636
449.66	37.825
450.02	37.806
450.37	37.603
450.72	37.715
451.07	37.053
451.42	36.681
451.77	37.918
452.12	37.017
452.47	37.573
452.83	35.672
453.18	38.001
453.53	37.074
453.88	37.349
454.23	37.206
454.58	36.887
454.93	37.460
455.28	37.701
455.63	36.432
455.98	38.040
456.34	36.046
456.69	37.061
457.04	37.214
457.39	37.583
457.74	36.864
458.09	36.434
458.44	37.309
458.79	37.672
459.14	35.843
459.49	37.195
459.84	37.091
460.19	36.194
460.54	37.165
460.89	37.331
461.24	37.053
461.59	37.802
461.94	36.979
462.29	36.703
462.64	36.807
462.99	36.888
463.34	37.707
463.69	37.307
464.04	36.194
464.39	36.974
464.74	36.486
465.09	37.322
465.44	36.308
465.79	37.665
466.14	36.716
466.49	37.595
466.84	36.641
467.19	37.389
467.54	37.265
467.89	36.895
468.24	37.124
468.59	37.859
468.94	37.548
469.29	36.946
469.64	36.402
469.99	38.483
470.34	36.885
470.68	37.175
471.03	36.953
471.38	36.718
471.73	36.763
472.08	36.838
472.43	37.665
472.78	36.646
473.13	35.422
473.48	36.334
473.83	35.405
474.17	35.807
474.52	36.375
474.87	36.128
475.22	36.353
475.57	35.806
475.92	36.423
476.27	36.131
476.61	36.523
476.96	35.865
477.31	35.868
477.66	36.384
478.01	35.989
478.36	36.076
478.70	36.144
479.05	35.960
479.40	35.569
479.75	36.185
480.10	35.696
480.45	35.557
480.79	35.938
481.14	36.069
481.49	36.458
481.84	34.731
482.19	35.572
482.53	35.381
482.88	35.858
483.23	35.082
483.58	36.106
483.92	35.409
484.27	35.773
484.62	35.109
484.97	35.380
485.31	35.890
485.66	33.224
486.01	34.286
486.36	33.662
486.70	34.071
487.05	34.520
487.40	34.577
487.75	35.544
488.09	34.689
488.44	35.191
488.79	36.071
489.13	35.388
489.48	34.630
489.83	34.971
490.17	35.315
490.52	35.531
490.87	35.095
491.22	35.469
491.56	35.553
491.91	34.614
492.26	35.203
492.60	35.257
492.95	35.423
493.30	34.593
493.64	34.197
493.99	35.169
494.34	34.489
494.68	35.036
495.03	35.623
495.37	35.182
495.72	34.085
496.07	34.827
496.41	33.552
496.76	34.598
497.11	34.601
497.45	34.922
497.80	34.730
498.14	35.466
498.49	34.846
498.84	34.514
499.18	34.495
499.53	34.121
499.87	34.837
500.22	35.391
500.56	35.456
500.91	35.111
501.26	35.714
501.60	33.578
501.95	34.691
502.29	34.029
502.64	35.391
502.98	34.345
503.33	34.939
503.67	34.761
504.02	35.294
504.36	34.869
504.71	34.350
505.06	35.150
505.40	35.309
505.75	35.097
506.09	33.827
506.44	34.980
506.78	34.383
507.13	34.823
507.47	34.411
507.82	34.537
508.16	34.987
508.51	33.884
508.85	33.696
509.19	34.444
509.54	34.692
509.88	34.677
510.23	33.947
510.57	33.528
510.92	34.752
511.26	35.369
511.61	34.413
511.95	33.462
512.30	33.648
512.64	34.847
512.98	33.573
513.33	34.817
513.67	33.788
514.02	35.405
514.36	33.708
514.70	34.180
515.05	33.645
515.39	33.962
515.74	35.406
516.08	34.336
516.42	33.929
516.77	33.743
517.11	33.686
517.46	34.994
517.80	34.625
518.14	33.313
518.49	34.237
518.83	34.308
519.17	34.036
519.52	34.922
519.86	35.883
520.20	33.839
520.55	34.204
520.89	34.029
521.23	35.128
521.58	34.450
521.92	34.067
522.26	34.157
522.61	33.743
522.95	34.521
523.29	32.952
523.64	34.011
523.98	33.926
524.32	33.585
524.66	34.286
525.01	34.207
525.35	34.628
525.69	35.454
526.04	33.616
526.38	34.481
526.72	35.240
527.06	33.527
527.41	34.480
527.75	34.312
528.09	35.262
528.43	35.278
528.78	34.367
529.12	34.605
529.46	34.037
529.80	34.498
530.15	33.977
530.49	34.704
530.83	35.274
531.17	34.932
531.51	34.322
531.86	33.808
532.20	33.839
532.54	34.138
532.88	34.990
533.22	34.074
533.57	33.974
533.91	33.806
534.25	35.417
534.59	33.462
534.93	34.247
535.27	35.032
535.62	33.750
535.96	34.157
536.30	33.710
536.64	32.946
536.98	34.548
537.32	33.452
537.66	34.767
538.01	33.773
538.35	33.287
538.69	33.445
539.03	32.617
539.37	32.461
539.71	33.220
540.05	32.591
540.39	33.930
540.73	33.589
541.07	34.082
541.42	34.074
541.76	33.897
542.10	33.852
542.44	33.957
542.78	33.588
543.12	32.210
543.46	32.412
543.80	33.401
544.14	33.861
544.48	31.719
544.82	32.952
545.16	32.184
545.50	33.086
545.84	34.222
546.18	32.959
546.52	33.169
546.86	32.792
547.20	33.381
547.54	34.024
547.88	34.076
548.22	32.443
548.56	33.823
548.90	32.679
549.24	33.750
549.58	33.025
549.92	34.116
550.26	33.727
550.60	33.408
550.94	32.388
551.28	32.778
551.62	32.632
551.96	33.382
552.30	32.169
552.64	32.274
552.98	34.020
553.32	33.093
553.66	33.309
554.00	32.181
554.34	32.161
554.68	33.781
555.02	32.186
555.36	32.300
555.69	32.119
556.03	32.952
556.37	31.650
556.71	32.516
557.05	32.620
557.39	32.329
557.73	33.283
558.07	33.233
558.41	34.141
558.75	32.948
559.08	32.558
559.42	33.596
559.76	31.881
560.10	32.513
560.44	31.982
560.78	31.871
561.12	32.376
561.45	32.517
561.79	32.462
562.13	31.575
562.47	32.143
562.81	31.457
563.15	31.586
563.48	31.246
563.82	32.627
564.16	31.821
564.50	31.954
564.84	31.622
565.17	31.854
565.51	31.684
565.85	31.512
566.19	31.523
566.52	30.996
566.86	30.910
567.20	31.643
567.54	31.664
567.88	31.299
568.21	30.473
568.55	30.516
568.89	30.409
569.23	30.568
569.56	30.204
569.90	30.560
570.24	29.531
570.57	29.410
570.91	29.427
571.25	29.204
571.59	28.623
571.92	29.363
572.26	29.997
572.60	29.319
572.93	29.210
573.27	28.576
573.61	29.110
573.95	29.112
574.28	28.822
574.62	28.684
574.96	28.937
575.29	28.761
575.63	28.451
575.97	29.212
576.30	28.084
576.64	28.792
576.98	28.784
577.31	28.521
577.65	28.319
577.98	28.305
578.32	28.341
578.66	28.498
578.99	28.967
579.33	28.361
579.67	28.615
580.00	28.248
580.34	29.060
580.67	28.809
581.01	28.638
581.35	28.387
581.68	28.336
582.02	28.613
582.35	28.519
582.69	28.348
583.02	28.138
583.36	28.481
583.70	28.868
584.03	28.741
584.37	28.497
584.70	28.415
585.04	29.251
585.37	28.408
585.71	28.148
586.04	28.271
586.38	28.229
586.72	28.379
587.05	28.765
587.39	28.537
587.72	28.351
588.06	28.509
588.39	28.603
588.73	28.911
589.06	28.516
589.40	28.965
589.73	28.135
590.07	27.926
590.40	29.193
590.73	29.457
591.07	28.583
591.40	29.000
591.74	29.302
592.07	29.119
592.41	29.301
592.74	29.012
593.08	27.521
593.41	28.709
593.75	28.295
594.08	28.497
594.41	28.336
594.75	29.198
595.08	28.715
595.42	28.024
595.75	27.910
596.09	28.868
596.42	28.636
596.75	28.258
597.09	28.753
597.42	28.847
597.75	29.067
598.09	29.007
598.42	28.770
598.76	28.212
599.09	28.091
599.42	28.550
599.76	29.103
600.09	28.351
600.42	28.286
600.76	27.827
601.09	28.512
601.42	28.028
601.76	27.954
602.09	28.820
602.42	29.757
602.76	27.936
603.09	28.747
603.42	28.429
603.76	28.332
604.09	28.419
604.42	28.589
604.76	28.285
605.09	28.455
605.42	29.015
605.75	27.966
606.09	28.104
606.42	28.470
606.75	28.052
607.09	27.748
607.42	28.940
607.75	27.352
608.08	28.449
608.42	28.538
608.75	29.193
609.08	28.123
609.41	28.515
609.75	29.097
610.08	28.945
610.41	28.426
610.74	28.537
611.07	28.858
611.41	28.557
611.74	28.934
612.07	27.410
612.40	29.297
612.73	28.101
613.07	28.880
613.40	29.515
613.73	28.386
614.06	27.695
614.39	28.405
614.72	30.205
615.06	28.667
615.39	28.698
615.72	27.700
616.05	27.590
616.38	28.408
616.71	27.415
617.05	28.624
617.38	28.219
617.71	27.880
618.04	27.605
618.37	28.580
618.70	28.978
619.03	29.622
619.36	28.470
619.69	27.632
620.03	29.823
620.36	28.392
620.69	28.694
621.02	28.538
621.35	28.536
621.68	29.177
622.01	30.583
622.34	29.342
622.67	28.896
623.00	29.787
623.33	28.571
623.66	27.509
623.99	29.332
624.32	28.026
624.65	28.709
624.99	28.288
625.32	29.052
625.65	27.597
625.98	28.278
626.31	30.122
626.64	28.031
626.97	29.931
627.30	30.026
627.63	30.017
627.96	29.177
628.29	30.791
628.62	29.787
628.95	29.058
629.28	29.261
629.61	30.431
629.94	29.884
630.26	30.542
630.59	29.770
630.92	27.811
631.25	30.175
631.58	29.764
631.91	29.268
632.24	28.430
632.57	28.667
632.90	31.622
633.23	29.976
633.56	31.535
633.89	30.861
634.22	32.038
634.55	30.816
