SpectraSuite Data File
++++++++++++++++++++++++++++++++++++
Date: Wed May 13 20:48:54 PDT 2015
User: schluterlab
Dark Spectrum Present: Yes
Reference Spectrum Present: Yes
Number of Sampled Component Spectra: 1
Spectrometers: USB2E3373
Integration Time (usec): 3000 (USB2E3373)
Spectra Averaged: 3 (USB2E3373)
Boxcar Smoothing: 0 (USB2E3373)
Correct for Electrical Dark: No (USB2E3373)
Strobe/Lamp Enabled: No (USB2E3373)
Correct for Detector Non-linearity: No (USB2E3373)
Correct for Stray Light: No (USB2E3373)
Number of Pixels in Processed Spectrum: 2048
>>>>>Begin Processed Spectral Data<<<<<
178.53	0.000
178.91	-600.000
179.29	-650.000
179.67	-105.556
180.04	-675.000
180.42	1450.000
180.80	400.000
181.18	-525.000
181.56	314.286
181.94	0.000
182.31	-242.857
182.69	933.333
183.07	-237.500
183.45	-266.667
183.83	236.364
184.20	-200.000
184.58	1150.000
184.96	3600.000
185.34	-460.000
185.72	-150.000
186.09	-800.000
186.47	1350.000
186.85	1300.000
187.23	1900.000
187.61	-666.667
187.98	825.000
188.36	345.455
188.74	345.455
189.12	-520.000
189.49	250.000
189.87	-2700.000
190.25	-775.000
190.63	250.000
191.00	292.308
191.38	616.667
191.76	-575.000
192.14	575.000
192.51	312.500
192.89	466.667
193.27	275.000
193.65	-500.000
194.02	280.000
194.40	420.000
194.78	330.000
195.15	350.000
195.53	520.000
195.91	-1350.000
196.29	200.000
196.66	189.474
197.04	-190.000
197.42	0.000
197.79	370.000
198.17	-2700.000
198.55	285.714
198.92	437.500
199.30	460.000
199.68	0.000
200.05	200.000
200.43	371.429
200.81	2300.000
201.18	766.667
201.56	-966.667
201.94	233.333
202.31	188.889
202.69	225.000
203.07	270.000
203.44	0.000
203.82	700.000
204.19	428.571
204.57	228.571
204.95	287.500
205.32	866.667
205.70	263.636
206.08	207.143
206.45	1500.000
206.83	181.250
207.20	500.000
207.58	380.000
207.96	211.111
208.33	387.500
208.71	-433.333
209.08	385.714
209.46	233.333
209.84	263.636
210.21	-600.000
210.59	825.000
210.96	-187.500
211.34	1350.000
211.71	350.000
212.09	416.667
212.46	0.000
212.84	866.667
213.22	750.000
213.59	-1200.000
213.97	366.667
214.34	457.143
214.72	309.091
215.09	340.000
215.47	-1000.000
215.84	-1250.000
216.22	866.667
216.59	178.571
216.97	700.000
217.34	336.364
217.72	-366.667
218.09	0.000
218.47	-3200.000
218.84	300.000
219.22	328.571
219.59	900.000
219.97	-357.143
220.34	380.000
220.72	-933.333
221.09	278.571
221.47	875.000
221.84	-466.667
222.22	0.000
222.59	825.000
222.97	-1650.000
223.34	720.000
223.72	215.385
224.09	480.000
224.46	1150.000
224.84	-2300.000
225.21	-460.000
225.59	-2700.000
225.96	380.000
226.34	165.000
226.71	1400.000
227.08	312.500
227.46	240.000
227.83	-350.000
228.21	-1000.000
228.58	333.333
228.95	-1200.000
229.33	-1250.000
229.70	700.000
230.08	571.429
230.45	-400.000
230.82	233.333
231.20	416.667
231.57	228.571
231.95	216.667
232.32	118.182
232.69	163.636
233.07	314.286
233.44	153.846
233.81	-766.667
234.19	110.526
234.56	183.333
234.93	141.667
235.31	245.455
235.68	130.769
236.05	150.000
236.43	87.879
236.80	105.263
237.17	1400.000
237.55	85.714
237.92	96.429
238.29	90.476
238.67	61.290
239.04	82.759
239.41	55.556
239.79	56.522
240.16	54.762
240.53	63.636
240.91	37.255
241.28	52.000
241.65	50.000
242.02	49.275
242.40	56.452
242.77	18.333
243.14	30.108
243.51	41.573
243.89	32.941
244.26	21.111
244.63	12.903
245.00	21.277
245.38	26.733
245.75	12.150
246.12	19.266
246.49	31.387
246.87	30.400
247.24	28.462
247.61	22.143
247.98	24.183
248.36	11.486
248.73	16.561
249.10	18.471
249.47	18.644
249.84	18.182
250.22	19.251
250.59	16.568
250.96	15.657
251.33	16.114
251.70	15.347
252.08	12.857
252.45	11.659
252.82	11.739
253.19	14.894
253.56	14.510
253.94	13.693
254.31	12.891
254.68	11.538
255.05	11.439
255.42	10.163
255.79	11.029
256.16	12.274
256.54	6.007
256.91	11.032
257.28	8.273
257.65	9.901
258.02	12.422
258.39	5.678
258.76	8.027
259.14	12.500
259.51	11.246
259.88	5.901
260.25	10.876
260.62	9.249
260.99	8.385
261.36	10.210
261.73	8.883
262.10	4.651
262.47	9.014
262.85	7.799
263.22	5.983
263.59	7.407
263.96	6.868
264.33	7.050
264.70	6.316
265.07	6.138
265.44	7.323
265.81	3.893
266.18	7.538
266.55	7.561
266.92	9.091
267.29	8.333
267.66	9.404
268.03	7.727
268.40	8.645
268.77	7.876
269.14	7.658
269.51	7.675
269.88	6.527
270.25	6.321
270.62	6.742
270.99	8.602
271.36	5.579
271.73	5.607
272.10	7.174
272.47	6.882
272.84	7.359
273.21	7.547
273.58	6.332
273.95	5.660
274.32	8.058
274.69	7.281
275.06	7.087
275.43	6.383
275.80	4.409
276.17	6.110
276.54	7.069
276.91	6.522
277.28	7.617
277.65	8.317
278.02	4.348
278.39	8.594
278.76	8.182
279.13	6.038
279.50	6.704
279.87	6.574
280.23	4.391
280.60	3.675
280.97	4.436
281.34	7.080
281.71	7.455
282.08	7.102
282.45	5.636
282.82	4.796
283.19	3.743
283.56	5.439
283.92	7.107
284.29	5.820
284.66	6.352
285.03	4.159
285.40	6.514
285.77	5.219
286.14	4.145
286.51	7.167
286.87	5.641
287.24	7.655
287.61	6.100
287.98	5.195
288.35	6.339
288.72	5.763
289.08	6.416
289.45	3.624
289.82	6.504
290.19	4.082
290.56	4.594
290.93	4.079
291.29	4.141
291.66	5.015
292.03	7.267
292.40	7.195
292.77	4.734
293.13	5.970
293.50	5.102
293.87	3.259
294.24	3.704
294.60	4.367
294.97	4.215
295.34	5.783
295.71	3.693
296.08	3.846
296.44	5.777
296.81	5.020
297.18	5.827
297.55	2.902
297.91	4.090
298.28	5.489
298.65	6.136
299.02	4.875
299.38	3.984
299.75	2.022
300.12	4.598
300.48	3.375
300.85	4.439
301.22	4.586
301.59	3.914
301.95	3.904
302.32	4.108
302.69	5.257
303.05	2.182
303.42	3.210
303.79	3.964
304.15	3.846
304.52	2.086
304.89	4.297
305.25	2.784
305.62	4.530
305.99	4.486
306.35	3.691
306.72	4.372
307.09	4.107
307.45	4.842
307.82	3.683
308.19	4.967
308.55	4.854
308.92	3.437
309.29	3.696
309.65	3.712
310.02	5.074
310.38	4.839
310.75	3.907
311.12	3.992
311.48	5.225
311.85	5.241
312.22	4.370
312.58	4.782
312.95	5.174
313.31	4.175
313.68	4.782
314.05	5.819
314.41	5.025
314.78	6.244
315.14	4.369
315.51	5.767
315.87	6.733
316.24	5.263
316.61	6.140
316.97	6.067
317.34	5.088
317.70	7.075
318.07	7.122
318.43	7.045
318.80	8.716
319.16	7.439
319.53	7.786
319.89	8.952
320.26	9.700
320.62	9.821
320.99	10.202
321.35	10.303
321.72	11.191
322.08	10.464
322.45	11.841
322.81	11.725
323.18	12.331
323.54	12.245
323.91	13.396
324.27	12.906
324.64	11.650
325.00	13.977
325.37	14.559
325.73	16.068
326.10	15.622
326.46	13.889
326.83	16.393
327.19	16.652
327.56	16.638
327.92	17.935
328.29	17.924
328.65	18.692
329.01	17.780
329.38	18.131
329.74	18.929
330.11	19.133
330.47	19.376
330.84	20.404
331.20	19.399
331.56	20.642
331.93	18.796
332.29	19.698
332.66	19.646
333.02	20.750
333.38	21.319
333.75	21.925
334.11	20.907
334.48	21.917
334.84	20.956
335.20	20.455
335.57	20.852
335.93	20.714
336.29	21.612
336.66	21.821
337.02	20.814
337.38	22.315
337.75	21.569
338.11	21.755
338.47	21.179
338.84	21.357
339.20	20.734
339.56	22.536
339.93	21.636
340.29	22.101
340.65	21.836
341.02	23.037
341.38	22.509
341.74	22.456
342.11	22.795
342.47	21.498
342.83	22.432
343.20	21.818
343.56	21.567
343.92	22.719
344.28	22.449
344.65	22.700
345.01	21.886
345.37	21.269
345.73	23.181
346.10	23.359
346.46	23.305
346.82	23.147
347.19	22.556
347.55	22.578
347.91	22.411
348.27	22.597
348.63	23.746
349.00	21.845
349.36	23.071
349.72	23.095
350.08	23.582
350.45	22.864
350.81	22.665
351.17	23.177
351.53	23.260
351.89	21.782
352.26	24.467
352.62	23.336
352.98	23.015
353.34	23.418
353.70	21.358
354.07	22.500
354.43	23.095
354.79	22.204
355.15	22.346
355.51	24.061
355.87	24.000
356.24	22.964
356.60	22.614
356.96	22.043
357.32	22.649
357.68	23.543
358.04	23.120
358.40	22.644
358.77	23.083
359.13	22.336
359.49	22.510
359.85	22.460
360.21	22.648
360.57	23.813
360.93	22.308
361.29	22.676
361.66	21.827
362.02	23.955
362.38	23.118
362.74	23.884
363.10	21.688
363.46	21.864
363.82	22.449
364.18	23.495
364.54	22.808
364.90	23.938
365.26	21.912
365.62	23.009
365.98	23.009
366.35	21.203
366.71	23.355
367.07	22.287
367.43	24.020
367.79	23.911
368.15	23.851
368.51	22.384
368.87	23.269
369.23	22.019
369.59	22.882
369.95	21.985
370.31	23.006
370.67	22.319
371.03	23.820
371.39	22.303
371.75	23.015
372.11	22.760
372.47	23.754
372.83	23.919
373.19	23.555
373.55	22.986
373.91	23.564
374.27	22.887
374.63	22.255
374.99	23.517
375.35	22.540
375.71	23.167
376.07	24.760
376.42	23.865
376.78	23.260
377.14	22.795
377.50	23.510
377.86	21.809
378.22	23.135
378.58	22.870
378.94	22.753
379.30	22.646
379.66	23.604
380.02	23.526
380.38	22.951
380.74	24.190
381.09	23.533
381.45	23.725
381.81	22.850
382.17	24.204
382.53	23.585
382.89	23.333
383.25	22.952
383.61	24.102
383.97	23.139
384.32	23.331
384.68	23.172
385.04	23.786
385.40	23.777
385.76	23.096
386.12	23.381
386.48	23.600
386.83	23.541
387.19	23.871
387.55	23.315
387.91	23.216
388.27	23.483
388.62	23.294
388.98	22.727
389.34	22.716
389.70	23.421
390.06	23.638
390.42	24.384
390.77	24.109
391.13	24.314
391.49	22.970
391.85	23.106
392.20	22.965
392.56	23.674
392.92	23.308
393.28	22.308
393.64	23.561
393.99	24.068
394.35	22.208
394.71	23.275
395.07	23.988
395.42	23.424
395.78	22.901
396.14	23.712
396.50	24.248
396.85	22.950
397.21	23.736
397.57	24.427
397.92	22.175
398.28	22.534
398.64	23.357
399.00	23.335
399.35	22.617
399.71	22.975
400.07	23.241
400.42	22.699
400.78	22.919
401.14	23.415
401.49	23.463
401.85	23.170
402.21	22.156
402.57	22.332
402.92	23.140
403.28	23.423
403.63	22.030
403.99	23.885
404.35	22.364
404.70	22.242
405.06	22.539
405.42	22.021
405.77	22.229
406.13	22.630
406.49	23.418
406.84	22.327
407.20	21.513
407.55	23.293
407.91	22.133
408.27	22.272
408.62	22.637
408.98	22.059
409.34	22.694
409.69	23.161
410.05	22.243
410.40	22.813
410.76	22.401
411.11	22.075
411.47	22.620
411.83	22.175
412.18	21.336
412.54	21.669
412.89	22.229
413.25	21.606
413.60	22.421
413.96	20.886
414.31	21.871
414.67	22.624
415.03	21.788
415.38	22.423
415.74	21.801
416.09	22.730
416.45	21.954
416.80	21.811
417.16	22.587
417.51	23.225
417.87	21.130
418.22	21.262
418.58	21.691
418.93	21.314
419.29	21.579
419.64	22.481
420.00	20.976
420.35	22.145
420.71	22.056
421.06	21.539
421.42	21.111
421.77	22.141
422.12	21.168
422.48	20.183
422.83	21.025
423.19	21.657
423.54	21.358
423.90	21.449
424.25	21.273
424.61	20.655
424.96	21.399
425.31	21.318
425.67	20.506
426.02	20.229
426.38	21.429
426.73	20.129
427.09	20.486
427.44	20.529
427.79	19.839
428.15	21.429
428.50	20.538
428.85	21.275
429.21	20.099
429.56	19.492
429.92	20.433
430.27	20.060
430.62	19.611
430.98	20.343
431.33	19.588
431.68	20.890
432.04	19.755
432.39	19.589
432.74	20.048
433.10	19.977
433.45	20.583
433.80	19.623
434.16	19.712
434.51	19.526
434.86	19.897
435.22	19.678
435.57	20.243
435.92	19.193
436.28	19.454
436.63	19.647
436.98	19.176
437.34	19.499
437.69	19.137
438.04	19.112
438.39	19.045
438.75	19.059
439.10	19.162
439.45	19.540
439.81	18.187
440.16	18.859
440.51	19.332
440.86	19.629
441.22	18.354
441.57	18.153
441.92	18.270
442.27	19.376
442.63	18.905
442.98	18.930
443.33	18.533
443.68	19.411
444.03	18.399
444.39	17.429
444.74	18.236
445.09	18.167
445.44	18.152
445.79	18.159
446.15	18.793
446.50	17.340
446.85	18.551
447.20	18.205
447.55	18.370
447.91	18.312
448.26	18.141
448.61	17.863
448.96	18.771
449.31	17.942
449.66	17.839
450.02	17.604
450.37	17.290
450.72	17.033
451.07	16.941
451.42	17.447
451.77	17.205
452.12	17.783
452.47	17.662
452.83	16.958
453.18	16.993
453.53	17.502
453.88	16.775
454.23	16.975
454.58	17.747
454.93	17.355
455.28	17.145
455.63	17.415
455.98	17.798
456.34	16.646
456.69	16.844
457.04	17.337
457.39	16.423
457.74	16.599
458.09	16.906
458.44	16.762
458.79	16.377
459.14	16.535
459.49	16.579
459.84	16.842
460.19	16.323
460.54	15.683
460.89	16.018
461.24	17.304
461.59	16.967
461.94	15.783
462.29	17.211
462.64	16.592
462.99	16.396
463.34	16.000
463.69	15.447
464.04	15.884
464.39	16.638
464.74	15.449
465.09	14.958
465.44	16.177
465.79	14.709
466.14	15.709
466.49	14.739
466.84	15.061
467.19	15.148
467.54	15.750
467.89	15.126
468.24	14.718
468.59	15.507
468.94	14.539
469.29	15.167
469.64	16.934
469.99	15.697
470.34	14.663
470.68	15.589
471.03	14.286
471.38	15.010
471.73	14.657
472.08	14.671
472.43	14.887
472.78	15.207
473.13	15.148
473.48	14.919
473.83	14.512
474.17	14.312
474.52	14.578
474.87	14.945
475.22	14.161
475.57	14.240
475.92	13.861
476.27	14.092
476.61	15.058
476.96	13.414
477.31	13.815
477.66	13.621
478.01	12.964
478.36	14.120
478.70	13.448
479.05	14.004
479.40	13.971
479.75	13.015
480.10	13.419
480.45	14.184
480.79	12.900
481.14	13.796
481.49	13.669
481.84	13.123
482.19	13.312
482.53	13.807
482.88	12.611
483.23	12.991
483.58	13.467
483.92	13.027
484.27	12.505
484.62	12.629
484.97	13.007
485.31	12.637
485.66	11.652
486.01	11.606
486.36	12.278
486.70	12.280
487.05	12.382
487.40	12.257
487.75	11.884
488.09	12.345
488.44	11.508
488.79	12.369
489.13	12.490
489.48	12.113
489.83	11.437
490.17	12.056
490.52	12.533
490.87	12.302
491.22	12.142
491.56	11.116
491.91	11.587
492.26	11.621
492.60	12.120
492.95	11.319
493.30	12.103
493.64	11.946
493.99	11.746
494.34	11.795
494.68	12.271
495.03	11.607
495.37	11.494
495.72	11.404
496.07	12.111
496.41	11.018
496.76	11.873
497.11	11.436
497.45	11.691
497.80	11.708
498.14	11.449
498.49	11.073
498.84	11.266
499.18	11.667
499.53	11.491
499.87	11.090
500.22	11.211
500.56	11.650
500.91	11.010
501.26	11.000
501.60	11.723
501.95	11.366
502.29	11.668
502.64	11.034
502.98	10.986
503.33	10.558
503.67	11.044
504.02	10.571
504.36	11.558
504.71	10.796
505.06	10.892
505.40	10.744
505.75	10.559
506.09	11.127
506.44	11.199
506.78	10.667
507.13	10.702
507.47	11.212
507.82	10.892
508.16	11.246
508.51	11.263
508.85	11.172
509.19	11.173
509.54	10.867
509.88	10.510
510.23	10.386
510.57	11.713
510.92	10.979
511.26	10.946
511.61	11.670
511.95	10.334
512.30	10.710
512.64	10.747
512.98	11.040
513.33	11.028
513.67	10.459
514.02	9.957
514.36	10.541
514.70	10.293
515.05	10.095
515.39	10.937
515.74	10.473
516.08	10.565
516.42	10.211
516.77	10.981
517.11	10.044
517.46	10.835
517.80	10.569
518.14	10.481
518.49	11.494
518.83	10.795
519.17	10.450
519.52	9.904
519.86	10.040
520.20	11.098
520.55	10.892
520.89	10.280
521.23	10.193
521.58	9.964
521.92	10.961
522.26	9.579
522.61	9.346
522.95	9.945
523.29	9.799
523.64	11.037
523.98	9.858
524.32	10.133
524.66	10.162
525.01	9.191
525.35	9.913
525.69	9.360
526.04	10.093
526.38	10.433
526.72	10.245
527.06	9.730
527.41	9.653
527.75	9.646
528.09	10.469
528.43	9.879
528.78	10.449
529.12	10.182
529.46	10.288
529.80	9.715
530.15	10.530
530.49	9.231
530.83	9.873
531.17	10.770
531.51	11.025
531.86	9.226
532.20	10.626
532.54	11.595
532.88	10.462
533.22	9.494
533.57	9.815
533.91	9.332
534.25	9.478
534.59	9.396
534.93	9.340
535.27	9.535
535.62	10.012
535.96	9.605
536.30	9.154
536.64	9.981
536.98	9.489
537.32	9.546
537.66	9.467
538.01	10.072
538.35	9.438
538.69	10.211
539.03	8.772
539.37	8.562
539.71	8.166
540.05	9.608
540.39	9.169
540.73	9.961
541.07	9.864
541.42	9.785
541.76	9.677
542.10	9.961
542.44	9.073
542.78	10.145
543.12	7.806
543.46	9.770
543.80	9.694
544.14	8.986
544.48	9.460
544.82	8.275
545.16	9.629
545.50	9.319
545.84	8.938
546.18	9.360
546.52	9.222
546.86	8.935
547.20	9.508
547.54	8.884
547.88	9.821
548.22	8.904
548.56	9.497
548.90	9.091
549.24	8.485
549.58	9.072
549.92	8.860
550.26	9.801
550.60	8.990
550.94	9.225
551.28	7.901
551.62	9.202
551.96	8.702
552.30	9.010
552.64	9.466
552.98	9.085
553.32	9.171
553.66	9.611
554.00	9.060
554.34	8.420
554.68	8.941
555.02	8.533
555.36	9.395
555.69	7.781
556.03	9.017
556.37	8.390
556.71	8.117
557.05	8.403
557.39	9.237
557.73	8.821
558.07	8.557
558.41	8.249
558.75	8.082
559.08	8.576
559.42	7.937
559.76	8.456
560.10	8.208
560.44	9.015
560.78	7.718
561.12	8.377
561.45	9.518
561.79	8.372
562.13	9.390
562.47	7.650
562.81	7.880
563.15	9.030
563.48	7.958
563.82	8.219
564.16	8.241
564.50	7.943
564.84	8.723
565.17	8.172
565.51	8.435
565.85	7.805
566.19	7.389
566.52	7.473
566.86	7.896
567.20	8.373
567.54	7.877
567.88	8.093
568.21	8.413
568.55	7.685
568.89	7.588
569.23	7.665
569.56	7.773
569.90	7.509
570.24	7.356
570.57	7.106
570.91	7.014
571.25	7.227
571.59	7.128
571.92	6.999
572.26	7.395
572.60	7.057
572.93	6.747
573.27	7.660
573.61	7.398
573.95	7.235
574.28	6.935
574.62	6.803
574.96	6.953
575.29	6.959
575.63	6.682
575.97	6.769
576.30	6.559
576.64	6.646
576.98	6.709
577.31	6.608
577.65	6.819
577.98	6.554
578.32	6.454
578.66	7.044
578.99	6.665
579.33	6.972
579.67	6.641
580.00	6.665
580.34	6.739
580.67	6.098
581.01	6.949
581.35	6.545
581.68	6.565
582.02	6.367
582.35	6.347
582.69	6.765
583.02	6.319
583.36	6.687
583.70	6.444
584.03	6.740
584.37	6.693
584.70	6.243
585.04	6.654
585.37	6.384
585.71	6.767
586.04	6.547
586.38	6.897
586.72	6.794
587.05	6.384
587.39	6.253
587.72	6.519
588.06	6.590
588.39	6.722
588.73	6.512
589.06	6.700
589.40	7.037
589.73	6.054
590.07	6.762
590.40	6.613
590.73	7.182
591.07	7.285
591.40	6.959
591.74	7.143
592.07	7.417
592.41	7.069
592.74	6.742
593.08	6.562
593.41	6.201
593.75	6.527
594.08	6.202
594.41	6.716
594.75	6.987
595.08	6.979
595.42	6.795
595.75	6.553
596.09	6.722
596.42	7.230
596.75	6.923
597.09	7.013
597.42	6.450
597.75	6.770
598.09	6.391
598.42	6.959
598.76	6.486
599.09	6.043
599.42	6.368
599.76	7.138
600.09	5.902
600.42	6.465
600.76	6.214
601.09	6.375
601.42	5.974
601.76	6.186
602.09	6.443
602.42	6.409
602.76	6.812
603.09	6.609
603.42	6.130
603.76	6.631
604.09	6.126
604.42	6.196
604.76	6.537
605.09	5.854
605.42	6.926
605.75	6.705
606.09	5.937
606.42	6.212
606.75	6.512
607.09	6.656
607.42	6.247
607.75	6.245
608.08	6.470
608.42	6.544
608.75	6.808
609.08	6.198
609.41	6.616
609.75	6.432
610.08	6.409
610.41	6.006
610.74	6.386
611.07	6.423
611.41	6.330
611.74	6.988
612.07	6.625
612.40	6.243
612.73	6.000
613.07	6.519
613.40	7.056
613.73	6.135
614.06	6.183
614.39	6.660
614.72	7.105
615.06	6.618
615.39	6.423
615.72	6.339
616.05	6.167
616.38	7.059
616.71	6.770
617.05	6.890
617.38	6.073
617.71	5.706
618.04	6.550
618.37	7.215
618.70	7.218
619.03	6.447
619.36	6.789
619.69	7.394
620.03	7.074
620.36	6.751
620.69	7.877
621.02	7.080
621.35	6.343
621.68	6.776
622.01	7.121
622.34	7.110
622.67	6.312
623.00	7.410
623.33	6.219
623.66	6.791
623.99	5.891
624.32	6.919
624.65	6.921
624.99	5.807
625.32	6.662
625.65	7.137
625.98	7.071
626.31	7.387
626.64	8.408
626.97	7.315
627.30	7.315
627.63	7.465
627.96	8.158
628.29	7.349
628.62	8.143
628.95	8.113
629.28	7.847
629.61	7.699
629.94	7.429
630.26	6.768
630.59	7.340
630.92	6.992
631.25	6.318
631.58	7.407
631.91	7.606
632.24	6.857
632.57	8.080
632.90	7.456
633.23	7.159
633.56	8.588
633.89	8.607
634.22	7.378
634.55	8.639
634.88	7.425
635.20	6.810
635.53	7.831
635.86	7.178
636.19	8.353
636.52	7.958
636.85	9.622
637.18	7.604
637.51	9.102
637.83	5.425
638.16	7.033
638.49	8.942
638.82	9.482
639.15	7.625
639.48	8.603
639.81	8.311
640.13	9.245
640.46	8.591
640.79	8.587
641.12	7.153
641.45	8.380
641.77	6.922
642.10	8.626
642.43	6.757
642.76	7.740
643.09	7.362
