SpectraSuite Data File
++++++++++++++++++++++++++++++++++++
Date: Wed May 13 20:41:10 PDT 2015
User: schluterlab
Dark Spectrum Present: Yes
Reference Spectrum Present: Yes
Number of Sampled Component Spectra: 1
Spectrometers: USB2E3373
Integration Time (usec): 3000 (USB2E3373)
Spectra Averaged: 3 (USB2E3373)
Boxcar Smoothing: 0 (USB2E3373)
Correct for Electrical Dark: No (USB2E3373)
Strobe/Lamp Enabled: No (USB2E3373)
Correct for Detector Non-linearity: No (USB2E3373)
Correct for Stray Light: No (USB2E3373)
Number of Pixels in Processed Spectrum: 2048
>>>>>Begin Processed Spectral Data<<<<<
178.53	0.000
178.91	-1150.000
179.29	-825.000
179.67	-166.667
180.04	-875.000
180.42	2100.000
180.80	740.000
181.18	-700.000
181.56	357.143
181.94	0.000
182.31	-428.571
182.69	966.667
183.07	-375.000
183.45	-366.667
183.83	409.091
184.20	-180.000
184.58	1700.000
184.96	4100.000
185.34	-520.000
185.72	-350.000
186.09	-1400.000
186.47	1650.000
186.85	1650.000
187.23	2900.000
187.61	-1266.667
187.98	1200.000
188.36	518.182
188.74	372.727
189.12	-700.000
189.49	380.000
189.87	-3200.000
190.25	-850.000
190.63	321.429
191.00	323.077
191.38	700.000
191.76	-700.000
192.14	1200.000
192.51	412.500
192.89	733.333
193.27	337.500
193.65	-825.000
194.02	360.000
194.40	760.000
194.78	320.000
195.15	316.667
195.53	420.000
195.91	-1200.000
196.29	218.750
196.66	289.474
197.04	-180.000
197.42	0.000
197.79	420.000
198.17	-3300.000
198.55	342.857
198.92	500.000
199.30	480.000
199.68	0.000
200.05	244.444
200.43	728.571
200.81	3300.000
201.18	1100.000
201.56	-1000.000
201.94	311.111
202.31	433.333
202.69	275.000
203.07	330.000
203.44	0.000
203.82	750.000
204.19	571.429
204.57	264.286
204.95	512.500
205.32	1000.000
205.70	390.909
206.08	271.429
206.45	1950.000
206.83	281.250
207.20	516.667
207.58	300.000
207.96	288.889
208.33	462.500
208.71	-683.333
209.08	628.571
209.46	488.889
209.84	390.909
210.21	-1233.333
210.59	700.000
210.96	-150.000
211.34	1500.000
211.71	540.000
212.09	616.667
212.46	0.000
212.84	1000.000
213.22	825.000
213.59	-3300.000
213.97	700.000
214.34	614.286
214.72	481.818
215.09	680.000
215.47	-2100.000
215.84	-1500.000
216.22	1133.333
216.59	250.000
216.97	1050.000
217.34	309.091
217.72	-483.333
218.09	0.000
218.47	-2500.000
218.84	522.222
219.22	585.714
219.59	1100.000
219.97	-400.000
220.34	740.000
220.72	-1033.333
221.09	335.714
221.47	1225.000
221.84	-600.000
222.22	0.000
222.59	925.000
222.97	-1700.000
223.34	780.000
223.72	292.308
224.09	820.000
224.46	1350.000
224.84	-2100.000
225.21	-480.000
225.59	-3300.000
225.96	370.000
226.34	195.000
226.71	2200.000
227.08	550.000
227.46	430.000
227.83	-750.000
228.21	-2100.000
228.58	466.667
228.95	-1500.000
229.33	-1800.000
229.70	1200.000
230.08	485.714
230.45	-560.000
230.82	325.000
231.20	533.333
231.57	542.857
231.95	341.667
232.32	145.455
232.69	281.818
233.07	300.000
233.44	215.385
233.81	-1200.000
234.19	200.000
234.56	308.333
234.93	258.333
235.31	290.909
235.68	192.308
236.05	242.857
236.43	145.455
236.80	115.789
237.17	2400.000
237.55	161.905
237.92	128.571
238.29	147.619
238.67	74.194
239.04	137.931
239.41	108.333
239.79	73.913
240.16	102.381
240.53	50.000
240.91	60.784
241.28	62.000
241.65	60.000
242.02	49.275
242.40	51.613
242.77	43.333
243.14	37.634
243.51	46.067
243.89	35.294
244.26	38.889
244.63	38.710
245.00	38.298
245.38	28.713
245.75	28.972
246.12	26.606
246.49	39.416
246.87	30.400
247.24	30.000
247.61	26.429
247.98	23.529
248.36	14.865
248.73	18.471
249.10	21.019
249.47	15.254
249.84	17.647
250.22	20.856
250.59	15.385
250.96	21.212
251.33	24.171
251.70	21.287
252.08	13.810
252.45	17.040
252.82	15.217
253.19	15.745
253.56	16.471
253.94	12.033
254.31	13.281
254.68	17.308
255.05	14.391
255.42	14.228
255.79	14.706
256.16	16.606
256.54	11.307
256.91	14.591
257.28	8.993
257.65	11.881
258.02	12.112
258.39	12.303
258.76	10.702
259.14	13.095
259.51	10.942
259.88	9.006
260.25	9.366
260.62	12.428
260.99	8.075
261.36	11.712
261.73	10.602
262.10	9.593
262.47	10.986
262.85	10.864
263.22	7.407
263.59	9.402
263.96	11.813
264.33	9.661
264.70	9.211
265.07	8.951
265.44	10.101
265.81	9.489
266.18	9.045
266.55	8.049
266.92	10.811
267.29	8.796
267.66	8.486
268.03	8.409
268.40	8.645
268.77	8.353
269.14	7.658
269.51	9.481
269.88	7.226
270.25	9.932
270.62	6.517
270.99	10.968
271.36	9.013
271.73	8.178
272.10	7.609
272.47	8.387
272.84	9.307
273.21	10.692
273.58	6.114
273.95	6.289
274.32	4.959
274.69	7.066
275.06	8.268
275.43	7.660
275.80	5.812
276.17	7.128
276.54	8.108
276.91	7.312
277.28	9.180
277.65	8.511
278.02	6.832
278.39	9.375
278.76	9.636
279.13	8.679
279.50	7.263
279.87	6.972
280.23	5.788
280.60	6.190
280.97	6.100
281.34	7.611
281.71	8.909
282.08	9.981
282.45	5.273
282.82	6.394
283.19	5.526
283.56	6.842
283.92	5.922
284.29	7.937
284.66	5.989
285.03	5.063
285.40	7.042
285.77	6.902
286.14	5.181
286.51	7.167
286.87	6.667
287.24	5.700
287.61	5.939
287.98	8.766
288.35	6.973
288.72	5.296
289.08	6.260
289.45	5.931
289.82	6.992
290.19	6.122
290.56	5.819
290.93	4.079
291.29	6.135
291.66	6.785
292.03	7.122
292.40	7.489
292.77	5.030
293.13	6.119
293.50	6.851
293.87	4.889
294.24	4.148
294.60	3.493
294.97	5.814
295.34	6.488
295.71	5.256
296.08	4.843
296.44	6.190
296.81	4.491
297.18	5.691
297.55	3.958
297.91	4.617
298.28	6.024
298.65	6.005
299.02	6.324
299.38	4.382
299.75	3.639
300.12	3.448
300.48	4.250
300.85	3.329
301.22	3.949
301.59	3.662
301.95	3.904
302.32	5.392
302.69	4.898
303.05	4.848
303.42	4.691
303.79	4.757
304.15	2.914
304.52	2.433
304.89	4.762
305.25	5.336
305.62	4.983
305.99	5.077
306.35	4.698
306.72	3.924
307.09	4.329
307.45	4.054
307.82	4.018
308.19	4.967
308.55	5.178
308.92	4.619
309.29	4.118
309.65	3.924
310.02	5.180
310.38	4.946
310.75	4.752
311.12	5.015
311.48	5.329
311.85	5.660
312.22	4.266
312.58	4.470
312.95	5.491
313.31	5.340
313.68	5.094
314.05	7.101
314.41	5.729
314.78	5.438
315.14	5.164
315.51	6.179
315.87	7.228
316.24	6.356
316.61	6.140
316.97	5.186
317.34	4.892
317.70	7.361
318.07	7.603
318.43	6.556
318.80	7.123
319.16	6.780
319.53	7.598
319.89	7.810
320.26	7.900
320.62	8.730
320.99	10.202
321.35	8.485
321.72	9.138
322.08	9.477
322.45	10.448
322.81	10.465
323.18	11.561
323.54	11.503
323.91	11.887
324.27	12.906
324.64	11.090
325.00	11.542
325.37	12.102
325.73	13.016
326.10	12.798
326.46	12.724
326.83	12.770
327.19	13.237
327.56	13.589
327.92	14.698
328.29	14.552
328.65	14.549
329.01	14.350
329.38	15.079
329.74	14.035
330.11	15.740
330.47	15.702
330.84	16.820
331.20	15.483
331.56	16.606
331.93	15.648
332.29	15.439
332.66	16.637
333.02	17.093
333.38	16.350
333.75	17.023
334.11	16.637
334.48	17.657
334.84	17.647
335.20	17.182
335.57	17.135
335.93	16.696
336.29	16.117
336.66	18.305
337.02	15.837
337.38	17.130
337.75	16.488
338.11	17.726
338.47	17.035
338.84	18.240
339.20	16.055
339.56	17.792
339.93	17.182
340.29	16.304
340.65	17.736
341.02	18.674
341.38	17.972
341.74	18.333
342.11	17.555
342.47	18.943
342.83	18.579
343.20	17.749
343.56	16.849
343.92	17.719
344.28	18.707
344.65	18.057
345.01	18.350
345.37	17.067
345.73	18.190
346.10	17.732
346.46	18.729
346.82	18.781
347.19	17.377
347.55	17.898
347.91	18.123
348.27	19.145
348.63	18.729
349.00	17.638
349.36	18.391
349.72	18.123
350.08	17.828
350.45	17.982
350.81	17.953
351.17	17.747
351.53	18.346
351.89	18.564
352.26	19.100
352.62	18.685
352.98	18.476
353.34	18.488
353.70	18.249
354.07	18.306
354.43	17.698
354.79	17.780
355.15	17.797
355.51	18.066
355.87	17.959
356.24	18.974
356.60	17.402
356.96	17.377
357.32	18.479
357.68	19.213
358.04	18.448
358.40	19.082
358.77	18.153
359.13	18.469
359.49	19.059
359.85	18.175
360.21	17.943
360.57	20.156
360.93	18.231
361.29	19.426
361.66	17.879
362.02	18.657
362.38	19.620
362.74	19.271
363.10	17.543
363.46	18.269
363.82	18.745
364.18	19.457
364.54	19.168
364.90	17.635
365.26	18.750
365.62	18.846
365.98	17.531
366.35	18.123
366.71	18.294
367.07	18.572
367.43	19.303
367.79	18.630
368.15	20.330
368.51	17.951
368.87	19.129
369.23	18.069
369.59	18.755
369.95	19.265
370.31	18.875
370.67	17.319
371.03	19.700
371.39	18.878
371.75	18.529
372.11	18.634
372.47	19.282
372.83	18.948
373.19	18.136
373.55	18.847
373.91	18.483
374.27	18.763
374.63	18.109
374.99	18.432
375.35	17.865
375.71	18.574
376.07	19.479
376.42	18.638
376.78	18.754
377.14	18.860
377.50	19.139
377.86	17.886
378.22	18.458
378.58	17.669
378.94	17.850
379.30	17.939
379.66	19.036
380.02	19.165
380.38	17.547
380.74	19.208
381.09	18.215
381.45	19.422
381.81	18.673
382.17	18.726
382.53	18.553
382.89	18.272
383.25	18.199
383.61	18.711
383.97	18.324
384.32	18.216
384.68	17.906
385.04	17.886
385.40	17.399
385.76	17.568
386.12	18.653
386.48	18.817
386.83	19.115
387.19	18.924
387.55	18.429
387.91	18.380
388.27	18.884
388.62	17.886
388.98	17.936
389.34	18.523
389.70	18.700
390.06	18.821
390.42	17.769
390.77	18.575
391.13	18.060
391.49	18.338
391.85	17.632
392.20	17.098
392.56	17.866
392.92	18.776
393.28	16.509
393.64	17.866
393.99	17.899
394.35	17.184
394.71	16.876
395.07	17.632
395.42	17.553
395.78	17.494
396.14	17.318
396.50	18.484
396.85	18.055
397.21	17.386
397.57	16.429
397.92	16.647
398.28	15.751
398.64	17.861
399.00	17.236
399.35	17.033
399.71	17.188
400.07	17.978
400.42	16.933
400.78	17.672
401.14	17.378
401.49	17.313
401.85	16.999
402.21	16.527
402.57	16.965
402.92	17.087
403.28	17.302
403.63	16.213
403.99	16.879
404.35	17.212
404.70	16.007
405.06	16.773
405.42	16.344
405.77	16.286
406.13	16.196
406.49	16.203
406.84	16.598
407.20	16.489
407.55	16.656
407.91	16.933
408.27	16.975
408.62	16.135
408.98	16.115
409.34	15.867
409.69	16.387
410.05	15.366
410.40	15.902
410.76	16.069
411.11	16.104
411.47	16.358
411.83	16.127
412.18	15.523
412.54	16.252
412.89	16.446
413.25	15.348
413.60	14.639
413.96	15.179
414.31	15.006
414.67	15.526
415.03	15.497
415.38	16.108
415.74	15.498
416.09	16.852
416.45	15.328
416.80	16.061
417.16	16.287
417.51	15.992
417.87	15.478
418.22	15.521
418.58	16.269
418.93	16.155
419.29	15.913
419.64	15.617
420.00	14.939
420.35	16.348
420.71	15.003
421.06	15.215
421.42	15.380
421.77	15.919
422.12	13.981
422.48	14.409
422.83	14.968
423.19	15.193
423.54	14.974
423.90	15.884
424.25	15.690
424.61	14.881
424.96	15.394
425.31	15.449
425.67	14.663
426.02	15.143
426.38	15.385
426.73	14.804
427.09	14.711
427.44	14.664
427.79	14.836
428.15	15.357
428.50	14.511
428.85	15.495
429.21	14.578
429.56	14.723
429.92	14.645
430.27	14.250
430.62	14.491
430.98	14.582
431.33	14.330
431.68	14.607
432.04	14.643
432.39	14.506
432.74	14.303
433.10	14.997
433.45	15.044
433.80	13.803
434.16	14.583
434.51	14.632
434.86	13.683
435.22	15.175
435.57	15.137
435.92	13.926
436.28	15.184
436.63	15.011
436.98	14.253
437.34	14.431
437.69	14.936
438.04	13.997
438.39	14.746
438.75	15.689
439.10	14.693
439.45	14.817
439.81	14.502
440.16	14.173
440.51	14.411
440.86	14.476
441.22	13.960
441.57	13.057
441.92	14.432
442.27	13.994
442.63	13.586
442.98	15.324
443.33	14.185
443.68	14.094
444.03	13.519
444.39	13.827
444.74	14.069
445.09	14.016
445.44	14.106
445.79	14.250
446.15	14.346
446.50	13.409
446.85	13.412
447.20	13.819
447.55	14.573
447.91	14.010
448.26	14.413
448.61	14.076
448.96	14.895
449.31	14.061
449.66	14.350
450.02	13.203
450.37	13.435
450.72	14.270
451.07	12.858
451.42	13.921
451.77	14.210
452.12	13.453
452.47	13.930
452.83	13.753
453.18	13.875
453.53	14.038
453.88	13.526
454.23	14.525
454.58	14.234
454.93	14.685
455.28	13.653
455.63	13.289
455.98	13.929
456.34	13.442
456.69	13.150
457.04	13.994
457.39	13.676
457.74	13.755
458.09	13.341
458.44	13.569
458.79	13.341
459.14	13.036
459.49	13.252
459.84	12.964
460.19	13.671
460.54	13.137
460.89	13.769
461.24	13.418
461.59	14.759
461.94	13.317
462.29	14.243
462.64	13.146
462.99	12.101
463.34	13.733
463.69	13.321
464.04	13.159
464.39	12.580
464.74	13.012
465.09	12.726
465.44	12.576
465.79	11.857
466.14	12.370
466.49	11.902
466.84	12.901
467.19	12.734
467.54	13.500
467.89	13.265
468.24	12.624
468.59	13.004
468.94	12.095
469.29	12.211
469.64	13.521
469.99	13.058
470.34	11.823
470.68	12.284
471.03	12.245
471.38	12.856
471.73	13.391
472.08	13.618
472.43	12.751
472.78	12.508
473.13	12.644
473.48	12.672
473.83	12.134
474.17	11.699
474.52	12.593
474.87	12.318
475.22	11.550
475.57	11.445
475.92	11.206
476.27	11.950
476.61	11.693
476.96	11.325
477.31	10.989
477.66	12.090
478.01	10.350
478.36	11.475
478.70	10.955
479.05	11.502
479.40	10.952
479.75	10.676
480.10	10.736
480.45	11.376
480.79	10.559
481.14	11.252
481.49	11.296
481.84	11.614
482.19	10.950
482.53	11.284
482.88	11.028
483.23	11.075
483.58	10.783
483.92	10.590
484.27	10.022
484.62	9.828
484.97	10.248
485.31	10.171
485.66	9.636
486.01	9.175
486.36	9.185
486.70	9.499
487.05	9.698
487.40	9.704
487.75	9.584
488.09	10.130
488.44	9.907
488.79	10.271
489.13	9.893
489.48	9.706
489.83	9.970
490.17	10.039
490.52	10.053
490.87	10.086
491.22	10.232
491.56	9.431
491.91	10.098
492.26	9.692
492.60	9.816
492.95	9.308
493.30	10.000
493.64	9.659
493.99	9.099
494.34	10.268
494.68	9.982
495.03	10.150
495.37	9.865
495.72	10.185
496.07	10.441
496.41	9.248
496.76	9.719
497.11	9.365
497.45	9.176
497.80	9.597
498.14	9.565
498.49	9.122
498.84	9.492
499.18	9.286
499.53	9.592
499.87	9.459
500.22	9.562
500.56	9.563
500.91	9.231
501.26	9.341
501.60	9.207
501.95	9.670
502.29	9.419
502.64	9.497
502.98	9.210
503.33	9.278
503.67	8.956
504.02	9.308
504.36	9.172
504.71	9.526
505.06	9.301
505.40	9.674
505.75	8.920
506.09	8.989
506.44	8.979
506.78	9.303
507.13	9.137
507.47	8.990
507.82	9.473
508.16	9.726
508.51	9.437
508.85	9.285
509.19	8.622
509.54	9.235
509.88	8.604
510.23	8.843
510.57	9.133
510.92	9.477
511.26	8.736
511.61	9.180
511.95	8.716
512.30	9.067
512.64	8.436
512.98	9.218
513.33	9.529
513.67	7.898
514.02	8.333
514.36	9.230
514.70	8.578
515.05	8.199
515.39	9.142
515.74	8.896
516.08	8.944
516.42	8.824
516.77	9.030
517.11	8.768
517.46	9.142
517.80	8.479
518.14	8.396
518.49	8.810
518.83	9.205
519.17	8.603
519.52	8.998
519.86	8.671
520.20	10.116
520.55	9.515
520.89	8.881
521.23	9.349
521.58	8.944
521.92	8.818
522.26	8.481
522.61	8.474
522.95	8.533
523.29	8.399
523.64	8.415
523.98	8.934
524.32	8.263
524.66	9.741
525.01	9.069
525.35	8.984
525.69	8.128
526.04	8.287
526.38	8.237
526.72	8.589
527.06	8.161
527.41	7.859
527.75	8.875
528.09	9.313
528.43	9.114
528.78	9.035
529.12	8.182
529.46	8.328
529.80	9.220
530.15	9.034
530.49	8.862
530.83	8.038
531.17	9.269
531.51	9.339
531.86	8.903
532.20	9.257
532.54	9.545
532.88	8.858
533.22	8.245
533.57	9.321
533.91	8.669
534.25	8.688
534.59	8.786
534.93	8.150
535.27	8.690
535.62	9.158
535.96	7.972
536.30	8.264
536.64	9.015
536.98	8.162
537.32	7.900
537.66	8.200
538.01	7.768
538.35	8.080
538.69	9.253
539.03	8.707
539.37	7.220
539.71	6.870
540.05	8.366
540.39	8.040
540.73	8.021
541.07	8.761
541.42	8.350
541.76	8.645
542.10	7.762
542.44	7.483
542.78	9.091
543.12	8.253
543.46	8.918
543.80	8.653
544.14	7.638
544.48	8.000
544.82	7.826
545.16	8.848
545.50	7.519
545.84	7.594
546.18	8.081
546.52	8.259
546.86	8.110
547.20	8.496
547.54	8.350
547.88	8.929
548.22	8.593
548.56	7.673
548.90	8.131
549.24	7.138
549.58	7.708
549.92	8.516
550.26	8.736
550.60	8.091
550.94	7.817
551.28	7.169
551.62	8.483
551.96	8.000
552.30	8.464
552.64	9.195
552.98	8.203
553.32	8.429
553.66	8.725
554.00	7.344
554.34	7.798
554.68	8.584
555.02	8.039
555.36	8.003
555.69	7.375
556.03	7.672
556.37	7.435
556.71	7.981
557.05	8.263
557.39	8.467
557.73	7.904
558.07	7.469
558.41	7.670
558.75	7.862
559.08	8.054
559.42	7.332
559.76	8.603
560.10	7.852
560.44	7.338
560.78	7.518
561.12	7.388
561.45	8.931
561.79	7.581
562.13	7.713
562.47	7.582
562.81	8.020
563.15	7.692
563.48	8.554
563.82	6.980
564.16	6.802
564.50	6.641
564.84	7.396
565.17	6.950
565.51	6.965
565.85	7.551
566.19	7.013
566.52	7.346
566.86	7.414
567.20	7.193
567.54	7.591
567.88	6.627
568.21	7.884
568.55	6.876
568.89	6.858
569.23	6.907
569.56	7.085
569.90	6.340
570.24	6.315
570.57	6.732
570.91	6.270
571.25	6.547
571.59	6.127
571.92	6.250
572.26	6.181
572.60	6.486
572.93	6.117
573.27	6.714
573.61	6.058
573.95	6.382
574.28	5.829
574.62	6.171
574.96	5.639
575.29	6.086
575.63	5.945
575.97	5.884
576.30	6.346
576.64	5.737
576.98	5.712
577.31	5.892
577.65	5.755
577.98	5.710
578.32	5.739
578.66	6.038
578.99	5.547
579.33	5.931
579.67	5.814
580.00	5.562
580.34	6.028
580.67	5.909
581.01	6.184
581.35	5.625
581.68	5.970
582.02	5.667
582.35	5.407
582.69	5.609
583.02	5.629
583.36	6.226
583.70	5.944
584.03	5.799
584.37	6.271
584.70	5.982
585.04	5.895
585.37	5.895
585.71	6.414
586.04	5.919
586.38	6.217
586.72	5.855
587.05	5.759
587.39	5.541
587.72	6.184
588.06	5.710
588.39	5.898
588.73	6.483
589.06	6.295
589.40	6.364
589.73	5.808
590.07	6.441
590.40	6.248
590.73	6.323
591.07	6.146
591.40	6.537
591.74	7.273
592.07	6.588
592.41	6.780
592.74	5.993
593.08	6.296
593.41	5.789
593.75	5.934
594.08	6.202
594.41	6.257
594.75	6.026
595.08	6.013
595.42	6.235
595.75	6.339
596.09	6.384
596.42	6.562
596.75	6.501
597.09	6.840
597.42	6.113
597.75	6.253
598.09	7.000
598.42	6.529
598.76	5.918
599.09	5.549
599.42	6.004
599.76	6.223
600.09	6.193
600.42	5.880
600.76	6.071
601.09	5.756
601.42	6.355
601.76	5.731
602.09	6.166
602.42	6.051
602.76	6.368
603.09	6.373
603.42	6.716
603.76	6.288
604.09	5.933
604.42	6.482
604.76	6.622
605.09	6.073
605.42	6.627
605.75	6.043
606.09	5.856
606.42	6.048
606.75	5.931
607.09	6.362
607.42	5.905
607.75	5.443
608.08	6.470
608.42	6.544
608.75	6.402
609.08	6.244
609.41	6.235
609.75	6.336
610.08	6.315
610.41	5.773
610.74	6.055
611.07	6.522
611.41	6.084
611.74	6.838
612.07	6.832
612.40	7.188
612.73	6.368
613.07	7.112
613.40	6.635
613.73	5.873
614.06	6.505
614.39	6.188
614.72	6.316
615.06	6.460
615.39	6.369
615.72	5.879
616.05	6.380
616.38	7.059
616.71	6.770
617.05	6.773
617.38	6.194
617.71	6.547
618.04	6.851
618.37	6.860
618.70	6.721
619.03	6.974
619.36	6.721
619.69	7.254
620.03	7.143
620.36	7.553
620.69	7.055
621.02	7.375
621.35	7.048
621.68	7.009
622.01	7.121
622.34	8.245
622.67	6.388
623.00	6.676
623.33	6.862
623.66	7.648
623.99	6.996
624.32	6.847
624.65	7.415
624.99	6.091
625.32	6.807
625.65	6.461
625.98	7.379
626.31	7.698
626.64	7.673
626.97	6.484
627.30	7.149
627.63	7.711
627.96	7.401
628.29	7.699
628.62	7.868
628.95	8.396
629.28	7.938
629.61	7.516
629.94	7.238
630.26	6.864
630.59	6.864
630.92	7.471
631.25	6.713
631.58	8.408
631.91	6.592
632.24	7.595
632.57	7.765
632.90	7.675
633.23	7.830
633.56	9.379
633.89	8.267
634.22	8.059
634.55	9.231
634.88	7.904
635.20	9.080
635.53	9.518
635.86	9.406
636.19	8.235
636.52	7.612
636.85	9.278
637.18	7.834
637.51	8.511
637.83	7.398
638.16	7.289
638.49	8.942
638.82	9.608
639.15	7.750
639.48	9.352
639.81	8.847
640.13	8.854
640.46	8.993
640.79	8.719
641.12	8.253
641.45	8.520
641.77	8.542
642.10	9.503
642.43	8.408
642.76	8.514
643.09	10.123
643.41	8.498
643.74	10.031
644.07	10.061
644.40	9.969
644.73	9.921
645.05	10.777
