SpectraSuite Data File
++++++++++++++++++++++++++++++++++++
Date: Wed May 13 20:48:47 PDT 2015
User: schluterlab
Dark Spectrum Present: Yes
Reference Spectrum Present: Yes
Number of Sampled Component Spectra: 1
Spectrometers: USB2E3373
Integration Time (usec): 3000 (USB2E3373)
Spectra Averaged: 3 (USB2E3373)
Boxcar Smoothing: 0 (USB2E3373)
Correct for Electrical Dark: No (USB2E3373)
Strobe/Lamp Enabled: No (USB2E3373)
Correct for Detector Non-linearity: No (USB2E3373)
Correct for Stray Light: No (USB2E3373)
Number of Pixels in Processed Spectrum: 2048
>>>>>Begin Processed Spectral Data<<<<<
178.53	0.000
178.91	-850.000
179.29	-1025.000
179.67	-72.222
180.04	-775.000
180.42	1200.000
180.80	480.000
181.18	-675.000
181.56	271.429
181.94	0.000
182.31	-271.429
182.69	1100.000
183.07	-100.000
183.45	-233.333
183.83	290.909
184.20	-170.000
184.58	1050.000
184.96	3900.000
185.34	-240.000
185.72	-325.000
186.09	-650.000
186.47	1250.000
186.85	1200.000
187.23	2500.000
187.61	-666.667
187.98	675.000
188.36	281.818
188.74	290.909
189.12	-380.000
189.49	390.000
189.87	-2600.000
190.25	-600.000
190.63	214.286
191.00	253.846
191.38	416.667
191.76	-675.000
192.14	925.000
192.51	362.500
192.89	483.333
193.27	300.000
193.65	-525.000
194.02	290.000
194.40	480.000
194.78	350.000
195.15	283.333
195.53	460.000
195.91	-850.000
196.29	262.500
196.66	200.000
197.04	-140.000
197.42	0.000
197.79	440.000
198.17	-1700.000
198.55	342.857
198.92	350.000
199.30	500.000
199.68	0.000
200.05	188.889
200.43	471.429
200.81	1700.000
201.18	733.333
201.56	-733.333
201.94	288.889
202.31	288.889
202.69	183.333
203.07	320.000
203.44	0.000
203.82	875.000
204.19	485.714
204.57	271.429
204.95	350.000
205.32	900.000
205.70	345.455
206.08	221.429
206.45	1350.000
206.83	206.250
207.20	633.333
207.58	400.000
207.96	194.444
208.33	337.500
208.71	-416.667
209.08	585.714
209.46	288.889
209.84	263.636
210.21	-766.667
210.59	700.000
210.96	-75.000
211.34	1750.000
211.71	380.000
212.09	516.667
212.46	0.000
212.84	1000.000
213.22	800.000
213.59	-2900.000
213.97	483.333
214.34	628.571
214.72	336.364
215.09	500.000
215.47	-1750.000
215.84	-1200.000
216.22	766.667
216.59	242.857
216.97	700.000
217.34	281.818
217.72	-366.667
218.09	0.000
218.47	-2800.000
218.84	366.667
219.22	342.857
219.59	866.667
219.97	-242.857
220.34	460.000
220.72	-800.000
221.09	214.286
221.47	575.000
221.84	-533.333
222.22	0.000
222.59	750.000
222.97	-1500.000
223.34	640.000
223.72	253.846
224.09	620.000
224.46	800.000
224.84	-2300.000
225.21	-680.000
225.59	-3300.000
225.96	480.000
226.34	175.000
226.71	1650.000
227.08	275.000
227.46	350.000
227.83	-800.000
228.21	-1050.000
228.58	377.778
228.95	-1050.000
229.33	-850.000
229.70	866.667
230.08	428.571
230.45	-440.000
230.82	208.333
231.20	483.333
231.57	328.571
231.95	308.333
232.32	136.364
232.69	245.455
233.07	314.286
233.44	176.923
233.81	-966.667
234.19	205.263
234.56	241.667
234.93	158.333
235.31	263.636
235.68	223.077
236.05	228.571
236.43	72.727
236.80	115.789
237.17	2100.000
237.55	100.000
237.92	153.571
238.29	152.381
238.67	90.323
239.04	96.552
239.41	80.556
239.79	89.130
240.16	85.714
240.53	65.909
240.91	70.588
241.28	62.000
241.65	50.000
242.02	50.725
242.40	35.484
242.77	45.000
243.14	44.086
243.51	38.202
243.89	40.000
244.26	31.111
244.63	43.011
245.00	39.362
245.38	30.693
245.75	29.907
246.12	28.440
246.49	45.255
246.87	41.600
247.24	30.769
247.61	27.857
247.98	28.105
248.36	21.622
248.73	27.389
249.10	29.299
249.47	25.424
249.84	29.412
250.22	21.925
250.59	23.077
250.96	25.253
251.33	24.645
251.70	29.208
252.08	23.810
252.45	27.803
252.82	22.609
253.19	22.128
253.56	19.608
253.94	19.502
254.31	21.094
254.68	21.923
255.05	20.664
255.42	19.919
255.79	20.588
256.16	24.910
256.54	18.021
256.91	18.861
257.28	14.748
257.65	20.462
258.02	26.398
258.39	19.558
258.76	17.057
259.14	21.429
259.51	21.581
259.88	14.596
260.25	19.335
260.62	21.965
260.99	18.944
261.36	18.919
261.73	18.625
262.10	18.023
262.47	15.493
262.85	20.613
263.22	16.239
263.59	17.379
263.96	17.308
264.33	19.582
264.70	16.579
265.07	19.693
265.44	15.152
265.81	16.788
266.18	16.583
266.55	16.829
266.92	16.953
267.29	18.056
267.66	15.596
268.03	16.591
268.40	14.252
268.77	15.513
269.14	14.865
269.51	20.090
269.88	16.084
270.25	16.027
270.62	16.180
270.99	18.280
271.36	15.665
271.73	17.523
272.10	16.087
272.47	17.419
272.84	16.017
273.21	15.723
273.58	16.157
273.95	14.465
274.32	13.636
274.69	12.848
275.06	15.945
275.43	13.617
275.80	14.228
276.17	13.849
276.54	17.464
276.91	14.625
277.28	15.039
277.65	14.313
278.02	14.286
278.39	16.797
278.76	15.091
279.13	13.585
279.50	14.711
279.87	15.139
280.23	16.966
280.60	12.766
280.97	14.048
281.34	15.044
281.71	15.636
282.08	15.739
282.45	14.182
282.82	13.677
283.19	11.765
283.56	13.509
283.92	14.721
284.29	13.228
284.66	14.156
285.03	13.020
285.40	12.148
285.77	13.636
286.14	14.853
286.51	14.167
286.87	13.504
287.24	15.961
287.61	14.607
287.98	13.636
288.35	13.788
288.72	14.174
289.08	14.397
289.45	12.026
289.82	14.797
290.19	11.774
290.56	13.629
290.93	13.142
291.29	12.117
291.66	13.274
292.03	14.826
292.40	12.335
292.77	12.574
293.13	11.940
293.50	13.411
293.87	11.704
294.24	13.926
294.60	10.917
294.97	14.390
295.34	14.104
295.71	13.636
296.08	12.108
296.44	12.792
296.81	13.078
297.18	14.228
297.55	10.158
297.91	11.214
298.28	13.521
298.65	12.794
299.02	12.912
299.38	11.952
299.75	10.512
300.12	12.388
300.48	11.250
300.85	13.070
301.22	11.465
301.59	10.354
301.95	12.217
302.32	12.837
302.69	11.828
303.05	13.455
303.42	10.988
303.79	12.797
304.15	10.606
304.52	11.819
304.89	13.124
305.25	12.993
305.62	13.137
305.99	13.223
306.35	11.857
306.72	13.341
307.09	14.428
307.45	14.640
307.82	12.054
308.19	14.680
308.55	13.808
308.92	13.319
309.29	14.361
309.65	15.270
310.02	15.011
310.38	16.452
310.75	15.734
311.12	15.763
311.48	16.092
311.85	17.191
312.22	16.753
312.58	16.736
312.95	18.585
313.31	17.961
313.68	19.439
314.05	20.513
314.41	20.402
314.78	19.839
315.14	20.854
315.51	22.348
315.87	22.178
316.24	23.237
316.61	21.832
316.97	23.581
317.34	23.875
317.70	24.761
318.07	26.564
318.43	26.027
318.80	28.116
319.16	28.814
319.53	29.174
319.89	29.333
320.26	31.300
320.62	30.258
320.99	31.414
321.35	30.707
321.72	32.444
322.08	32.971
322.45	34.925
322.81	35.853
323.18	36.031
323.54	36.549
323.91	36.604
324.27	38.528
324.64	38.770
325.00	39.044
325.37	39.763
325.73	40.305
326.10	41.659
326.46	43.280
326.83	42.882
327.19	43.211
327.56	45.906
327.92	45.232
328.29	47.205
328.65	48.895
329.01	47.473
329.38	48.474
329.74	47.645
330.11	50.707
330.47	50.138
330.84	52.022
331.20	51.548
331.56	52.385
331.93	52.963
332.29	51.730
332.66	54.159
333.02	52.925
333.38	55.194
333.75	54.902
334.11	53.737
334.48	54.392
334.84	55.607
335.20	56.273
335.57	55.576
335.93	54.018
336.29	55.769
336.66	56.447
337.02	55.837
337.38	56.944
337.75	56.506
338.11	54.969
338.47	56.814
338.84	56.462
339.20	57.615
339.56	59.124
339.93	57.636
340.29	57.518
340.65	56.595
341.02	59.075
341.38	57.117
341.74	57.982
342.11	57.031
342.47	57.797
342.83	58.647
343.20	59.481
343.56	58.045
343.92	57.807
344.28	58.844
344.65	58.813
345.01	57.239
345.37	58.491
345.73	58.376
346.10	58.824
346.46	57.881
346.82	57.743
347.19	58.312
347.55	58.210
347.91	59.466
348.27	58.998
348.63	58.528
349.00	58.091
349.36	58.703
349.72	58.220
350.08	58.428
350.45	60.944
350.81	59.545
351.17	59.157
351.53	59.378
351.89	60.314
352.26	60.221
352.62	59.503
352.98	58.428
353.34	59.655
353.70	59.165
354.07	59.194
354.43	58.254
354.79	59.212
355.15	59.298
355.51	60.831
355.87	62.041
356.24	58.469
356.60	58.701
356.96	60.901
357.32	60.670
357.68	59.921
358.04	59.620
358.40	58.987
358.77	60.094
359.13	58.327
359.49	60.784
359.85	59.524
360.21	61.962
360.57	61.401
360.93	60.923
361.29	59.637
361.66	61.455
362.02	62.015
362.38	61.065
362.74	61.086
363.10	60.696
363.46	61.849
363.82	61.602
364.18	59.325
364.54	61.813
364.90	61.190
365.26	61.691
365.62	60.847
365.98	60.701
366.35	59.814
366.71	61.244
367.07	62.272
367.43	62.046
367.79	62.527
368.15	61.710
368.51	61.555
368.87	63.169
369.23	63.277
369.59	63.577
369.95	63.015
370.31	62.892
370.67	61.594
371.03	63.446
371.39	62.901
371.75	64.118
372.11	62.020
372.47	62.610
372.83	63.977
373.19	61.850
373.55	63.267
373.91	64.138
374.27	61.924
374.63	64.291
374.99	63.559
375.35	62.666
375.71	62.851
376.07	63.443
376.42	64.374
376.78	63.685
377.14	64.450
377.50	63.841
377.86	63.098
378.22	62.958
378.58	62.970
378.94	63.985
379.30	65.267
379.66	63.579
380.02	65.295
380.38	64.420
380.74	64.766
381.09	65.526
381.45	65.519
381.81	65.479
382.17	64.713
382.53	63.522
382.89	65.432
383.25	65.103
383.61	66.171
383.97	63.852
384.32	64.379
384.68	64.994
385.04	64.966
385.40	64.954
385.76	64.373
386.12	65.544
386.48	66.079
386.83	66.068
387.19	67.038
387.55	66.481
387.91	65.901
388.27	65.849
388.62	66.503
388.98	65.786
389.34	66.270
389.70	66.217
390.06	67.490
390.42	67.510
390.77	66.412
391.13	66.879
391.49	65.736
391.85	65.818
392.20	65.994
392.56	66.793
392.92	67.334
393.28	65.858
393.64	66.787
393.99	66.402
394.35	66.005
394.71	66.437
395.07	65.047
395.42	67.553
395.78	66.603
396.14	67.784
396.50	67.669
396.85	69.358
397.21	66.831
397.57	67.514
397.92	67.488
398.28	66.480
398.64	66.308
399.00	67.208
399.35	66.554
399.71	66.956
400.07	68.185
400.42	67.117
400.78	68.034
401.14	67.500
401.49	68.896
401.85	67.816
402.21	66.168
402.57	68.044
402.92	69.042
403.28	68.832
403.63	67.265
403.99	68.217
404.35	67.273
404.70	67.926
405.06	68.026
405.42	69.058
405.77	67.543
406.13	68.341
406.49	68.539
406.84	67.100
407.20	67.908
407.55	69.177
407.91	70.600
408.27	70.262
408.62	68.694
408.98	67.953
409.34	69.065
409.69	70.194
410.05	69.331
410.40	69.664
410.76	69.654
411.11	68.938
411.47	69.073
411.83	71.045
412.18	69.882
412.54	70.859
412.89	67.892
413.25	69.421
413.60	69.734
413.96	68.670
414.31	69.198
414.67	68.504
415.03	70.331
415.38	69.394
415.74	69.582
416.09	71.065
416.45	70.147
416.80	71.315
417.16	70.241
417.51	70.869
417.87	69.685
418.22	71.293
418.58	69.852
418.93	70.147
419.29	70.019
419.64	72.481
420.00	71.463
420.35	70.319
420.71	70.472
421.06	70.346
421.42	68.772
421.77	70.291
422.12	70.129
422.48	70.588
422.83	70.705
423.19	70.387
423.54	71.677
423.90	71.362
424.25	70.687
424.61	69.702
424.96	71.195
425.31	71.096
425.67	69.719
426.02	70.971
426.38	71.551
426.73	70.977
427.09	71.915
427.44	71.995
427.79	71.995
428.15	70.595
428.50	70.509
428.85	72.050
429.21	71.839
429.56	70.399
429.92	70.106
430.27	70.506
430.62	71.173
430.98	71.406
431.33	71.289
431.68	72.880
432.04	70.181
432.39	72.701
432.74	71.275
433.10	71.986
433.45	72.128
433.80	70.676
434.16	71.848
434.51	71.526
434.86	71.779
435.22	73.374
435.57	72.036
435.92	72.382
436.28	73.310
436.63	70.916
436.98	72.696
437.34	73.047
437.69	74.037
438.04	72.513
438.39	72.776
438.75	72.923
439.10	72.346
439.45	72.845
439.81	73.716
440.16	72.558
440.51	72.056
440.86	71.859
441.22	74.138
441.57	71.868
441.92	73.439
442.27	73.681
442.63	72.775
442.98	73.803
443.33	72.880
443.68	72.483
444.03	73.206
444.39	73.028
444.74	73.214
445.09	72.938
445.44	72.389
445.79	71.153
446.15	71.784
446.50	73.290
446.85	72.045
447.20	73.075
447.55	73.981
447.91	72.642
448.26	73.178
448.61	72.923
448.96	73.920
449.31	73.566
449.66	73.157
450.02	73.426
450.37	73.243
450.72	73.209
451.07	72.821
451.42	72.827
451.77	72.989
452.12	72.575
452.47	72.886
452.83	74.126
453.18	72.188
453.53	74.706
453.88	73.597
454.23	73.222
454.58	73.834
454.93	75.143
455.28	72.818
455.63	73.180
455.98	75.357
456.34	76.382
456.69	74.828
457.04	74.427
457.39	73.992
457.74	73.302
458.09	74.583
458.44	74.059
458.79	72.668
459.14	74.323
459.49	73.322
459.84	73.019
460.19	73.070
460.54	71.933
460.89	73.889
461.24	74.924
461.59	73.911
461.94	73.305
462.29	75.312
462.64	72.176
462.99	72.544
463.34	73.133
463.69	75.047
464.04	73.449
464.39	72.754
464.74	72.787
465.09	73.221
465.44	72.410
465.79	72.819
466.14	72.687
466.49	71.413
466.84	72.680
467.19	72.480
467.54	74.062
467.89	72.089
468.24	71.844
468.59	73.138
468.94	72.999
469.29	73.843
469.64	74.699
469.99	74.696
470.34	73.778
470.68	75.000
471.03	73.810
471.38	75.469
471.73	74.017
472.08	73.289
472.43	73.618
472.78	73.009
473.13	72.529
473.48	73.658
473.83	73.293
474.17	73.304
474.52	74.442
474.87	74.081
475.22	73.535
475.57	71.252
475.92	72.703
476.27	72.886
476.61	72.863
476.96	72.292
477.31	72.109
477.66	74.070
478.01	70.936
478.36	73.982
478.70	72.066
479.05	73.269
479.40	73.439
479.75	72.547
480.10	73.708
480.45	71.347
480.79	71.620
481.14	72.652
481.49	73.185
481.84	71.696
482.19	72.603
482.53	71.972
482.88	72.127
483.23	73.224
483.58	72.157
483.92	72.493
484.27	71.155
484.62	71.767
484.97	70.635
485.31	69.863
485.66	66.642
486.01	66.765
486.36	66.935
486.70	69.070
487.05	69.147
487.40	69.637
487.75	68.921
488.09	70.155
488.44	69.480
488.79	69.512
489.13	69.862
489.48	70.065
489.83	70.263
490.17	71.986
490.52	72.276
490.87	72.230
491.22	71.623
491.56	71.116
491.91	72.964
492.26	70.280
492.60	70.507
492.95	70.346
493.30	69.486
493.64	71.162
493.99	70.845
494.34	70.907
494.68	71.429
495.03	71.523
495.37	71.010
495.72	72.125
496.07	71.090
496.41	69.912
496.76	69.921
497.11	69.788
497.45	70.750
497.80	71.353
498.14	71.304
498.49	70.732
498.84	70.614
499.18	69.571
499.53	71.178
499.87	70.736
500.22	70.137
500.56	71.650
500.91	69.279
501.26	70.365
501.60	72.520
501.95	69.707
502.29	70.150
502.64	70.484
502.98	69.892
503.33	70.018
503.67	69.930
504.02	69.645
504.36	69.818
504.71	70.249
505.06	69.783
505.40	70.588
505.75	68.949
506.09	69.728
506.44	69.117
506.78	68.875
507.13	71.126
507.47	69.040
507.82	71.074
508.16	69.200
508.51	71.487
508.85	69.215
509.19	70.204
509.54	69.847
509.88	69.140
510.23	70.077
510.57	71.207
510.92	69.394
511.26	69.836
511.61	69.917
511.95	67.432
512.30	68.611
512.64	69.694
512.98	70.150
513.33	70.182
513.67	68.890
514.02	68.669
514.36	69.143
514.70	69.397
515.05	69.046
515.39	69.994
515.74	68.694
516.08	70.095
516.42	70.810
516.77	69.287
517.11	68.868
517.46	69.413
517.80	71.603
518.14	68.269
518.49	68.553
518.83	68.693
519.17	69.400
519.52	69.213
519.86	69.766
520.20	70.289
520.55	69.958
520.89	69.586
521.23	69.421
521.58	69.328
521.92	70.545
522.26	67.663
522.61	69.283
522.95	69.490
523.29	68.837
523.64	69.390
523.98	69.809
524.32	68.275
524.66	69.393
525.01	68.505
525.35	68.649
525.69	66.810
526.04	68.037
526.38	67.114
526.72	67.178
527.06	68.927
527.41	65.842
527.75	69.968
528.09	68.593
528.43	68.388
528.78	67.732
529.12	67.091
529.46	67.055
529.80	67.389
530.15	69.221
530.49	67.015
530.83	68.228
531.17	69.778
531.51	69.585
531.86	68.452
532.20	67.797
532.54	67.457
532.88	65.854
533.22	64.647
533.57	66.481
533.91	65.262
534.25	65.492
534.59	65.162
534.93	64.128
535.27	64.575
535.62	64.957
535.96	65.599
536.30	65.925
536.64	64.134
536.98	65.096
537.32	65.372
537.66	64.200
538.01	66.557
538.35	65.029
538.69	65.795
539.03	64.847
539.37	64.920
539.71	64.679
540.05	65.294
540.39	65.249
540.73	62.872
541.07	65.088
541.42	64.775
541.76	64.065
542.10	64.295
542.44	64.570
542.78	65.415
543.12	63.084
543.46	64.590
543.80	63.696
544.14	62.323
544.48	64.127
544.82	63.117
545.16	63.761
545.50	63.303
545.84	65.255
546.18	64.377
546.52	63.661
546.86	63.505
547.20	62.306
547.54	63.126
547.88	62.500
548.22	62.204
548.56	61.006
548.90	61.332
549.24	61.347
549.58	60.914
549.92	62.431
550.26	63.494
550.60	62.794
550.94	62.535
551.28	62.326
551.62	62.042
551.96	60.632
552.30	61.911
552.64	61.460
552.98	60.542
553.32	60.283
553.66	61.963
554.00	62.320
554.34	61.491
554.68	61.731
555.02	61.283
555.36	62.004
555.69	59.946
556.03	59.085
556.37	60.437
556.71	59.072
557.05	60.574
557.39	60.182
557.73	59.068
558.07	60.986
558.41	59.479
558.75	61.425
559.08	60.254
559.42	61.376
559.76	60.588
560.10	59.029
560.44	60.377
560.78	57.884
561.12	58.905
561.45	58.605
561.79	57.086
562.13	58.484
562.47	59.290
562.81	59.205
563.15	56.054
563.48	58.289
563.82	57.860
564.16	58.143
564.50	58.529
564.84	55.436
565.17	57.658
565.51	57.252
565.85	56.789
566.19	56.794
566.52	57.695
566.86	54.792
567.20	56.958
567.54	56.849
567.88	55.513
568.21	55.185
568.55	53.842
568.89	54.912
569.23	52.807
569.56	51.984
569.90	52.075
570.24	51.525
570.57	50.663
570.91	50.679
571.25	50.185
571.59	49.956
571.92	50.058
572.26	50.087
572.60	50.000
572.93	49.745
573.27	49.009
573.61	49.274
573.95	49.173
574.28	48.317
574.62	47.570
574.96	47.455
575.29	47.454
575.63	47.739
575.97	47.800
576.30	47.637
576.64	47.081
576.98	46.621
577.31	46.927
577.65	46.775
577.98	46.462
578.32	46.346
578.66	47.149
578.99	47.158
579.33	46.066
579.67	46.315
580.00	46.584
580.34	46.179
580.67	46.136
581.01	46.548
581.35	45.694
581.68	44.746
582.02	44.726
582.35	45.967
582.69	45.954
583.02	45.512
583.36	45.907
583.70	46.029
584.03	46.290
584.37	46.219
584.70	45.690
585.04	44.936
585.37	44.501
585.71	45.254
586.04	44.576
586.38	46.264
586.72	45.595
587.05	45.205
587.39	44.406
587.72	44.988
588.06	44.824
588.39	45.542
588.73	44.676
589.06	45.715
589.40	45.286
589.73	45.090
590.07	44.840
590.40	44.867
590.73	46.526
591.07	46.520
591.40	46.647
591.74	46.840
592.07	45.026
592.41	45.639
592.74	44.719
593.08	43.971
593.41	44.005
593.75	43.129
594.08	44.552
594.41	44.928
594.75	44.695
595.08	43.593
595.42	44.623
595.75	44.444
596.09	45.024
596.42	45.422
596.75	44.154
597.09	45.195
597.42	43.718
597.75	44.674
598.09	44.478
598.42	43.686
598.76	43.818
599.09	43.596
599.42	42.431
599.76	43.741
600.09	43.461
600.42	43.024
600.76	42.536
601.09	42.441
601.42	43.531
601.76	42.998
602.09	43.597
602.42	42.635
602.76	41.878
603.09	42.801
603.42	43.499
603.76	42.378
604.09	42.536
604.42	43.294
604.76	43.484
605.09	42.682
605.42	42.369
605.75	42.301
606.09	42.375
606.42	42.787
606.75	42.348
607.09	41.900
607.42	42.105
607.75	41.477
608.08	42.076
608.42	41.999
608.75	41.659
609.08	41.813
609.41	41.123
609.75	42.687
610.08	41.847
610.41	41.713
610.74	41.864
611.07	43.478
611.41	42.198
611.74	42.886
612.07	43.685
612.40	42.917
612.73	42.211
613.07	42.349
613.40	43.549
613.73	41.531
614.06	42.204
614.39	41.689
614.72	42.053
615.06	41.754
615.39	41.030
615.72	41.360
616.05	42.212
616.38	41.690
616.71	43.587
617.05	42.992
617.38	41.732
617.71	41.862
618.04	43.750
618.37	40.863
618.70	42.999
619.03	42.303
619.36	42.974
619.69	43.310
620.03	42.857
620.36	41.711
620.69	43.630
621.02	44.174
621.35	44.714
621.68	43.146
622.01	43.963
622.34	42.814
622.67	43.422
623.00	43.287
623.33	41.673
623.66	43.174
623.99	42.784
624.32	42.582
624.65	42.938
624.99	41.714
625.32	42.288
625.65	43.050
625.98	44.043
626.31	43.779
626.64	43.592
626.97	43.973
627.30	42.062
627.63	44.053
627.96	43.902
628.29	43.395
628.62	44.099
628.95	45.660
629.28	44.799
629.61	44.638
629.94	45.238
630.26	43.851
630.59	44.614
630.92	43.295
631.25	43.731
631.58	44.244
631.91	43.915
