SpectraSuite Data File
++++++++++++++++++++++++++++++++++++
Date: Wed May 13 20:40:30 PDT 2015
User: schluterlab
Dark Spectrum Present: Yes
Reference Spectrum Present: Yes
Number of Sampled Component Spectra: 1
Spectrometers: USB2E3373
Integration Time (usec): 3000 (USB2E3373)
Spectra Averaged: 3 (USB2E3373)
Boxcar Smoothing: 0 (USB2E3373)
Correct for Electrical Dark: No (USB2E3373)
Strobe/Lamp Enabled: No (USB2E3373)
Correct for Detector Non-linearity: No (USB2E3373)
Correct for Stray Light: No (USB2E3373)
Number of Pixels in Processed Spectrum: 2048
>>>>>Begin Processed Spectral Data<<<<<
178.53	0.000
178.91	-1150.000
179.29	-950.000
179.67	-177.778
180.04	-950.000
180.42	2050.000
180.80	460.000
181.18	-575.000
181.56	471.429
181.94	0.000
182.31	-528.571
182.69	933.333
183.07	-387.500
183.45	-300.000
183.83	436.364
184.20	-270.000
184.58	2100.000
184.96	3900.000
185.34	-620.000
185.72	-437.500
186.09	-1150.000
186.47	2150.000
186.85	1550.000
187.23	4000.000
187.61	-933.333
187.98	800.000
188.36	400.000
188.74	354.545
189.12	-780.000
189.49	400.000
189.87	-3400.000
190.25	-700.000
190.63	314.286
191.00	300.000
191.38	716.667
191.76	-700.000
192.14	1075.000
192.51	512.500
192.89	733.333
193.27	537.500
193.65	-900.000
194.02	420.000
194.40	700.000
194.78	390.000
195.15	341.667
195.53	430.000
195.91	-1300.000
196.29	256.250
196.66	200.000
197.04	-170.000
197.42	0.000
197.79	480.000
198.17	-3200.000
198.55	442.857
198.92	362.500
199.30	740.000
199.68	0.000
200.05	305.556
200.43	528.571
200.81	3400.000
201.18	1000.000
201.56	-1166.667
201.94	422.222
202.31	477.778
202.69	325.000
203.07	450.000
203.44	0.000
203.82	775.000
204.19	571.429
204.57	350.000
204.95	575.000
205.32	1033.333
205.70	381.818
206.08	242.857
206.45	2000.000
206.83	281.250
207.20	500.000
207.58	500.000
207.96	205.556
208.33	550.000
208.71	-700.000
209.08	585.714
209.46	400.000
209.84	336.364
210.21	-766.667
210.59	950.000
210.96	-350.000
211.34	2400.000
211.71	470.000
212.09	633.333
212.46	0.000
212.84	1133.333
213.22	875.000
213.59	-3200.000
213.97	483.333
214.34	500.000
214.72	527.273
215.09	620.000
215.47	-1100.000
215.84	-2150.000
216.22	1166.667
216.59	307.143
216.97	675.000
217.34	336.364
217.72	-416.667
218.09	0.000
218.47	-3100.000
218.84	433.333
219.22	500.000
219.59	1200.000
219.97	-371.429
220.34	680.000
220.72	-1300.000
221.09	271.429
221.47	1150.000
221.84	-716.667
222.22	0.000
222.59	1125.000
222.97	-2150.000
223.34	920.000
223.72	300.000
224.09	840.000
224.46	1450.000
224.84	-2900.000
225.21	-740.000
225.59	-3600.000
225.96	500.000
226.34	190.000
226.71	2150.000
227.08	412.500
227.46	420.000
227.83	-775.000
228.21	-2000.000
228.58	411.111
228.95	-1650.000
229.33	-1600.000
229.70	966.667
230.08	628.571
230.45	-440.000
230.82	416.667
231.20	800.000
231.57	457.143
231.95	366.667
232.32	131.818
232.69	263.636
233.07	471.429
233.44	261.538
233.81	-1266.667
234.19	257.895
234.56	308.333
234.93	275.000
235.31	309.091
235.68	192.308
236.05	242.857
236.43	121.212
236.80	147.368
237.17	2300.000
237.55	147.619
237.92	142.857
238.29	209.524
238.67	138.710
239.04	141.379
239.41	100.000
239.79	63.043
240.16	92.857
240.53	90.909
240.91	74.510
241.28	80.000
241.65	92.000
242.02	68.116
242.40	62.903
242.77	46.667
243.14	58.065
243.51	60.674
243.89	61.176
244.26	40.000
244.63	39.785
245.00	38.298
245.38	33.663
245.75	35.514
246.12	29.358
246.49	38.686
246.87	41.600
247.24	44.615
247.61	33.571
247.98	33.333
248.36	24.324
248.73	24.841
249.10	33.121
249.47	31.638
249.84	34.225
250.22	32.086
250.59	31.361
250.96	27.273
251.33	26.540
251.70	32.178
252.08	27.143
252.45	27.803
252.82	22.609
253.19	25.532
253.56	28.235
253.94	29.876
254.31	28.125
254.68	30.385
255.05	23.247
255.42	22.764
255.79	22.059
256.16	20.939
256.54	21.201
256.91	21.352
257.28	18.345
257.65	18.812
258.02	22.671
258.39	19.874
258.76	19.064
259.14	22.321
259.51	19.149
259.88	18.323
260.25	20.242
260.62	21.098
260.99	16.149
261.36	19.520
261.73	20.057
262.10	18.023
262.47	21.127
262.85	20.613
263.22	14.245
263.59	20.798
263.96	19.780
264.33	19.321
264.70	17.632
265.07	19.949
265.44	16.919
265.81	15.815
266.18	18.844
266.55	20.000
266.92	17.445
267.29	18.750
267.66	17.890
268.03	18.636
268.40	20.093
268.77	16.945
269.14	18.243
269.51	20.090
269.88	18.415
270.25	16.253
270.62	14.607
270.99	22.796
271.36	15.880
271.73	18.458
272.10	16.957
272.47	18.280
272.84	20.130
273.21	19.706
273.58	16.157
273.95	15.933
274.32	15.083
274.69	17.345
275.06	16.732
275.43	16.383
275.80	17.635
276.17	15.682
276.54	17.256
276.91	16.403
277.28	16.602
277.65	17.795
278.02	16.563
278.39	17.773
278.76	15.636
279.13	15.660
279.50	16.760
279.87	16.932
280.23	17.365
280.60	13.346
280.97	15.527
281.34	16.991
281.71	15.818
282.08	16.315
282.45	14.727
282.82	16.874
283.19	14.260
283.56	15.263
283.92	16.074
284.29	15.344
284.66	15.064
285.03	13.924
285.40	17.077
285.77	14.310
286.14	13.990
286.51	17.000
286.87	16.068
287.24	14.007
287.61	13.162
287.98	14.123
288.35	13.471
288.72	13.863
289.08	16.745
289.45	14.168
289.82	14.146
290.19	13.972
290.56	14.242
290.93	12.689
291.29	14.571
291.66	13.569
292.03	14.244
292.40	14.097
292.77	12.278
293.13	13.881
293.50	12.974
293.87	12.741
294.24	12.296
294.60	10.771
294.97	10.756
295.34	12.976
295.71	12.784
296.08	12.678
296.44	13.480
296.81	10.436
297.18	13.821
297.55	9.631
297.91	10.158
298.28	13.655
298.65	11.749
299.02	11.726
299.38	11.155
299.75	9.030
300.12	11.111
300.48	11.750
300.85	11.097
301.22	10.318
301.59	10.354
301.95	11.839
302.32	10.270
302.69	11.231
303.05	10.545
303.42	10.247
303.79	11.438
304.15	10.023
304.52	8.806
304.89	10.685
305.25	10.325
305.62	10.985
305.99	10.744
306.35	11.186
306.72	10.090
307.09	10.211
307.45	12.387
307.82	9.152
308.19	11.038
308.55	11.327
308.92	11.278
309.29	9.715
309.65	9.650
310.02	10.888
310.38	10.215
310.75	10.243
311.12	10.747
311.48	11.285
311.85	10.063
312.22	10.718
312.58	9.667
312.95	9.820
313.31	9.515
313.68	9.356
314.05	11.045
314.41	10.553
314.78	10.574
315.14	10.030
315.51	10.711
315.87	10.792
316.24	9.335
316.61	9.552
316.97	9.687
317.34	10.372
317.70	10.038
318.07	11.550
318.43	10.372
318.80	10.965
319.16	11.017
319.53	9.475
319.89	11.333
320.26	10.900
320.62	10.516
320.99	11.010
321.35	11.212
321.72	11.396
322.08	11.846
322.45	11.841
322.81	11.919
323.18	12.909
323.54	11.781
323.91	13.302
324.27	12.715
324.64	12.861
325.00	13.616
325.37	13.649
325.73	13.645
326.10	13.945
326.46	14.068
326.83	15.962
327.19	15.542
327.56	16.463
327.92	16.885
328.29	18.190
328.65	19.153
329.01	18.321
329.38	17.299
329.74	19.298
330.11	19.887
330.47	19.927
330.84	21.875
331.20	21.494
331.56	22.018
331.93	22.222
332.29	22.538
332.66	22.301
333.02	23.949
333.38	23.758
333.75	24.510
334.11	24.110
334.48	23.514
334.84	26.103
335.20	25.091
335.57	24.479
335.93	24.018
336.29	25.641
336.66	25.428
337.02	26.154
337.38	28.241
337.75	27.094
338.11	27.484
338.47	26.980
338.84	28.506
339.20	28.349
339.56	29.927
339.93	28.818
340.29	28.714
340.65	28.164
341.02	29.756
341.38	28.826
341.74	29.211
342.11	29.432
342.47	29.339
342.83	30.651
343.20	30.909
343.56	29.402
343.92	29.561
344.28	31.293
344.65	30.095
345.01	30.135
345.37	29.674
345.73	30.541
346.10	30.605
346.46	30.508
346.82	30.972
347.19	30.911
347.55	31.691
347.91	32.039
348.27	31.717
348.63	31.522
349.00	32.362
349.36	31.363
349.72	32.558
350.08	31.524
350.45	33.442
350.81	32.819
351.17	32.415
351.53	32.432
351.89	31.683
352.26	32.360
352.62	34.242
352.98	34.846
353.34	33.854
353.70	33.633
354.07	32.823
354.43	33.333
354.79	34.191
355.15	33.041
355.51	34.532
355.87	34.694
356.24	34.202
356.60	34.242
356.96	34.755
357.32	35.568
357.68	35.512
358.04	34.996
358.40	35.471
358.77	35.915
359.13	35.517
359.49	35.765
359.85	34.841
360.21	35.726
360.57	35.953
360.93	36.077
361.29	36.130
361.66	36.920
362.02	36.045
362.38	37.262
362.74	36.533
363.10	36.862
363.46	36.317
363.82	36.886
364.18	36.270
364.54	37.444
364.90	37.819
365.26	38.382
365.62	38.422
365.98	37.253
366.35	37.894
366.71	38.106
367.07	38.529
367.43	39.768
367.79	39.543
368.15	40.014
368.51	36.919
368.87	38.330
369.23	39.795
369.59	40.188
369.95	39.485
370.31	39.601
370.67	38.478
371.03	40.674
371.39	40.087
371.75	38.971
372.11	39.403
372.47	40.689
372.83	40.850
373.19	39.668
373.55	41.316
373.91	40.133
374.27	39.450
374.63	39.855
374.99	42.161
375.35	40.963
375.71	39.890
376.07	40.672
376.42	41.747
376.78	41.617
377.14	41.045
377.50	42.384
377.86	40.226
378.22	41.593
378.58	41.729
378.94	42.175
379.30	42.048
379.66	43.020
380.02	42.998
380.38	41.773
380.74	42.377
381.09	41.809
381.45	43.393
381.81	42.998
382.17	42.166
382.53	41.698
382.89	43.951
383.25	42.964
383.61	43.494
383.97	43.277
384.32	42.233
384.68	42.193
385.04	42.717
385.40	42.848
385.76	42.813
386.12	43.394
386.48	44.053
386.83	43.874
387.19	45.022
387.55	44.218
387.91	43.954
388.27	43.899
388.62	43.454
388.98	43.366
389.34	44.118
389.70	43.532
390.06	43.473
390.42	43.904
390.77	44.211
391.13	43.778
391.49	44.099
391.85	44.176
392.20	43.470
392.56	44.381
392.92	44.085
393.28	42.012
393.64	43.405
393.99	43.494
394.35	43.486
394.71	44.542
395.07	42.804
395.42	44.747
395.78	43.830
396.14	43.886
396.50	45.113
396.85	43.675
397.21	42.848
397.57	43.769
397.92	43.810
398.28	42.601
398.64	43.250
399.00	43.369
399.35	42.132
399.71	43.461
400.07	44.412
400.42	44.356
400.78	43.667
401.14	44.085
401.49	44.478
401.85	43.013
402.21	43.293
402.57	42.690
402.92	44.767
403.28	44.410
403.63	43.193
403.99	43.567
404.35	44.303
404.70	43.525
405.06	42.691
405.42	44.105
405.77	42.971
406.13	42.607
406.49	43.643
406.84	43.001
407.20	42.553
407.55	43.459
407.91	43.133
408.27	43.714
408.62	42.986
408.98	42.647
409.34	43.296
409.69	43.032
410.05	43.185
410.40	43.180
410.76	43.011
411.11	42.461
411.47	41.150
411.83	43.128
412.18	42.177
412.54	42.466
412.89	43.494
413.25	43.920
413.60	43.545
413.96	42.744
414.31	42.831
414.67	43.663
415.03	43.113
415.38	42.204
415.74	43.151
416.09	44.415
416.45	42.905
416.80	43.027
417.16	44.303
417.51	43.132
417.87	42.582
418.22	43.344
418.58	44.093
418.93	43.980
419.29	42.903
419.64	43.766
420.00	43.049
420.35	43.652
420.71	43.694
421.06	42.243
421.42	42.281
421.77	43.722
422.12	43.066
422.48	43.443
422.83	43.856
423.19	43.315
423.54	43.122
423.90	43.072
424.25	43.495
424.61	43.631
424.96	44.548
425.31	43.134
425.67	42.584
426.02	43.371
426.38	45.177
426.73	43.534
427.09	43.283
427.44	44.163
427.79	43.646
428.15	43.988
428.50	44.236
428.85	43.921
429.21	43.457
429.56	42.716
429.92	43.332
430.27	43.098
430.62	44.086
430.98	44.318
431.33	43.402
431.68	45.079
432.04	42.545
432.39	44.318
432.74	45.242
433.10	44.709
433.45	44.023
433.80	43.681
434.16	43.910
434.51	44.632
434.86	45.667
435.22	45.303
435.57	44.255
435.92	44.763
436.28	44.899
436.63	45.419
436.98	45.220
437.34	46.094
437.69	45.216
438.04	45.419
438.39	45.433
438.75	46.426
439.10	46.480
439.45	45.100
439.81	46.405
440.16	46.245
440.51	46.221
440.86	45.628
441.22	45.273
441.57	45.382
441.92	46.264
442.27	46.286
442.63	46.130
442.98	47.944
443.33	46.250
443.68	46.360
444.03	46.657
444.39	46.349
444.74	46.374
445.09	45.553
445.44	46.255
445.79	46.710
446.15	46.003
446.50	46.473
446.85	46.557
447.20	46.864
447.55	48.353
447.91	47.656
448.26	46.299
448.61	47.371
448.96	47.785
449.31	47.244
449.66	47.383
450.02	46.852
450.37	47.732
450.72	47.321
451.07	46.130
451.42	47.112
451.77	47.622
452.12	46.882
452.47	48.259
452.83	47.611
453.18	47.188
453.53	48.485
453.88	46.486
454.23	47.938
454.58	47.184
454.93	48.061
455.28	46.384
455.63	48.786
455.98	48.036
456.34	47.990
456.69	48.215
457.04	47.988
457.39	46.932
457.74	47.475
458.09	47.211
458.44	47.377
458.79	46.909
459.14	47.573
459.49	47.694
459.84	47.147
460.19	46.671
460.54	45.544
460.89	46.901
461.24	49.302
461.59	48.576
461.94	47.287
462.29	48.427
462.64	47.607
462.99	46.324
463.34	46.867
463.69	47.217
464.04	46.899
464.39	46.551
464.74	47.178
465.09	46.924
465.44	46.094
465.79	46.253
466.14	46.196
466.49	46.607
466.84	46.293
467.19	47.435
467.54	47.625
467.89	46.218
468.24	47.004
468.59	47.375
468.94	46.487
469.29	46.658
469.64	47.590
469.99	46.955
470.34	47.556
470.68	48.348
471.03	46.599
471.38	47.672
471.73	46.636
472.08	47.697
472.43	48.744
472.78	46.478
473.13	47.433
473.48	46.504
473.83	47.195
474.17	46.982
474.52	47.333
474.87	47.461
475.22	46.489
475.57	46.212
475.92	46.415
476.27	45.941
476.61	46.442
476.96	45.739
477.31	46.102
477.66	46.827
478.01	45.112
478.36	46.642
478.70	45.535
479.05	46.273
479.40	46.571
479.75	45.704
480.10	45.527
480.45	46.168
480.79	45.819
481.14	45.401
481.49	46.464
481.84	45.085
482.19	47.024
482.53	46.422
482.88	45.742
483.23	44.953
483.58	46.315
483.92	45.736
484.27	43.529
484.62	45.216
484.97	43.674
485.31	43.767
485.66	42.699
486.01	42.354
486.36	42.233
486.70	42.313
487.05	42.535
487.40	42.543
487.75	42.881
488.09	43.433
488.44	43.763
488.79	43.978
489.13	44.691
489.48	43.597
489.83	44.886
490.17	44.235
490.52	44.686
490.87	44.279
491.22	44.702
491.56	43.690
491.91	44.114
492.26	43.684
492.60	44.885
492.95	44.013
493.30	44.299
493.64	44.097
493.99	43.686
494.34	44.635
494.68	45.559
495.03	44.972
495.37	44.346
495.72	44.786
496.07	45.012
496.41	44.071
496.76	44.547
497.11	43.809
497.45	44.341
497.80	44.194
498.14	44.638
498.49	44.195
498.84	44.247
499.18	44.524
499.53	44.065
499.87	44.828
500.22	44.795
500.56	44.612
500.91	43.846
501.26	44.571
501.60	45.183
501.95	43.171
502.29	44.330
502.64	45.345
502.98	43.525
503.33	43.327
503.67	43.898
504.02	43.966
504.36	44.034
504.71	44.944
505.06	44.867
505.40	45.211
505.75	43.394
506.09	43.878
506.44	45.634
506.78	45.007
507.13	46.239
507.47	45.808
507.82	45.542
508.16	45.390
508.51	44.850
508.85	45.035
509.19	45.357
509.54	44.541
509.88	44.822
510.23	45.347
510.57	46.543
510.92	45.417
511.26	44.656
511.61	44.191
511.95	44.520
512.30	44.698
512.64	45.782
512.98	45.338
513.33	46.360
513.67	44.984
514.02	45.292
514.36	45.986
514.70	45.877
515.05	45.678
515.39	45.878
515.74	46.509
516.08	45.892
516.42	46.004
516.77	46.711
517.11	45.782
517.46	46.332
517.80	46.516
518.14	44.470
518.49	47.550
518.83	45.739
519.17	46.709
519.52	46.746
519.86	46.492
520.20	46.705
520.55	47.098
520.89	48.236
521.23	48.010
521.58	47.179
521.92	47.152
522.26	45.699
522.61	47.975
522.95	46.225
523.29	46.683
523.64	47.378
523.98	47.197
524.32	46.743
524.66	46.542
525.01	47.243
525.35	45.353
525.69	46.367
526.04	46.417
526.38	46.248
526.72	46.626
527.06	47.144
527.41	45.297
527.75	48.167
528.09	47.013
528.43	47.801
528.78	47.142
529.12	46.727
529.46	46.418
529.80	48.329
530.15	46.355
530.49	46.154
530.83	47.215
531.17	49.869
531.51	47.665
531.86	46.710
532.20	47.588
532.54	46.381
532.88	47.304
533.22	47.158
533.57	46.173
533.91	45.154
534.25	45.930
534.59	46.248
534.93	46.996
535.27	44.900
535.62	46.886
535.96	46.202
536.30	46.345
536.64	46.684
536.98	48.109
537.32	46.741
537.66	46.467
538.01	47.070
538.35	45.378
538.69	46.713
539.03	46.524
539.37	45.367
539.71	46.273
540.05	47.190
540.39	46.645
540.73	45.860
541.07	47.567
541.42	47.619
541.76	46.839
542.10	47.413
542.44	45.497
542.78	46.772
543.12	44.786
543.46	47.213
543.80	46.064
544.14	44.994
544.48	46.286
544.82	45.221
545.16	47.105
545.50	46.080
545.84	45.363
546.18	47.071
546.52	46.180
546.86	47.216
547.20	46.123
547.54	46.426
547.88	45.855
548.22	44.832
548.56	45.597
548.90	45.903
549.24	46.061
549.58	46.317
549.92	47.115
550.26	48.509
550.60	46.473
550.94	46.549
551.28	45.574
551.62	47.160
551.96	45.825
552.30	45.529
552.64	46.788
552.98	46.441
553.32	45.988
553.66	46.967
554.00	46.191
554.34	45.825
554.68	45.994
555.02	45.698
555.36	46.068
555.69	45.196
556.03	45.828
556.37	45.566
556.71	46.180
557.05	46.008
557.39	45.976
557.73	47.283
558.07	46.338
558.41	46.382
558.75	46.363
559.08	47.054
559.42	46.863
559.76	46.691
560.10	44.754
560.44	45.143
560.78	45.243
561.12	45.053
561.45	45.828
561.79	45.419
562.13	45.808
562.47	46.790
562.81	46.304
563.15	45.151
563.48	45.955
563.82	45.532
564.16	45.389
564.50	45.378
564.84	44.564
565.17	45.882
565.51	46.262
565.85	45.305
566.19	44.271
566.52	45.725
566.86	43.520
567.20	47.170
567.54	44.749
567.88	43.672
568.21	44.656
568.55	44.641
568.89	42.996
569.23	43.449
569.56	42.834
569.90	43.170
570.24	42.088
570.57	41.482
570.91	41.564
571.25	40.334
571.59	41.355
571.92	41.071
572.26	40.555
572.60	40.991
572.93	40.870
573.27	40.875
573.61	41.011
573.95	40.749
574.28	39.824
574.62	39.917
574.96	40.382
575.29	39.840
575.63	40.295
575.97	39.938
576.30	40.175
576.64	40.030
576.98	39.961
577.31	39.995
577.65	39.696
577.98	40.068
578.32	39.674
578.66	39.748
578.99	40.173
579.33	39.966
579.67	39.942
580.00	40.206
580.34	40.484
580.67	39.778
581.01	40.027
581.35	40.049
581.68	39.074
582.02	39.461
582.35	40.235
582.69	39.663
583.02	39.611
583.36	39.636
583.70	40.485
584.03	40.569
584.37	40.711
584.70	40.204
585.04	40.020
585.37	39.748
585.71	39.944
586.04	40.445
586.38	41.667
586.72	41.508
587.05	40.342
587.39	40.211
587.72	40.660
588.06	41.142
588.39	40.686
588.73	40.950
589.06	41.851
589.40	41.852
589.73	42.098
590.07	41.210
590.40	41.176
590.73	42.428
591.07	42.694
591.40	41.712
591.74	43.117
592.07	42.932
592.41	41.835
592.74	41.760
593.08	41.006
593.41	41.126
593.75	40.537
594.08	41.804
594.41	41.676
594.75	42.107
595.08	41.553
595.42	41.366
595.75	41.952
596.09	42.771
596.42	41.611
596.75	41.832
597.09	42.338
597.42	40.683
597.75	41.958
598.09	42.391
598.42	41.409
598.76	41.711
599.09	41.087
599.42	40.902
599.76	41.435
600.09	40.947
600.42	41.161
600.76	40.893
601.09	41.311
601.42	41.933
601.76	41.860
602.09	41.186
602.42	41.441
602.76	41.919
603.09	41.817
603.42	41.820
603.76	41.578
604.09	41.915
604.42	42.397
604.76	43.273
605.09	42.377
605.42	40.829
605.75	41.225
606.09	41.928
606.42	42.705
606.75	41.974
607.09	41.984
607.42	41.849
607.75	41.814
608.08	41.511
608.42	42.178
608.75	42.200
609.08	41.582
609.41	41.694
609.75	42.687
610.08	42.601
610.41	41.853
610.74	43.945
611.07	43.429
611.41	43.032
611.74	42.936
612.07	42.495
612.40	43.757
612.73	42.421
613.07	43.427
613.40	42.233
613.73	42.370
614.06	43.710
614.39	42.213
614.72	42.737
615.06	43.172
615.39	43.524
615.72	41.922
616.05	42.424
616.38	43.357
616.71	44.181
617.05	43.581
617.38	42.874
617.71	42.763
618.04	45.312
618.37	43.170
618.70	43.684
619.03	44.211
619.36	44.060
619.69	43.521
620.03	44.712
620.36	44.519
620.69	45.411
621.02	46.755
621.35	45.106
621.68	43.769
622.01	45.743
622.34	44.856
622.67	45.019
623.00	44.828
623.33	44.031
623.66	44.603
623.99	44.035
624.32	43.795
624.65	45.056
624.99	43.555
625.32	44.171
625.65	43.727
625.98	45.042
626.31	46.112
626.64	45.061
626.97	45.553
627.30	46.717
627.63	45.611
627.96	44.912
628.29	45.057
628.62	46.661
628.95	49.340
629.28	45.803
629.61	46.746
629.94	48.762
630.26	46.044
630.59	46.520
630.92	46.264
631.25	46.199
631.58	46.747
631.91	46.349
