SpectraSuite Data File
++++++++++++++++++++++++++++++++++++
Date: Wed May 13 20:45:35 PDT 2015
User: schluterlab
Dark Spectrum Present: Yes
Reference Spectrum Present: Yes
Number of Sampled Component Spectra: 1
Spectrometers: USB2E3373
Integration Time (usec): 3000 (USB2E3373)
Spectra Averaged: 3 (USB2E3373)
Boxcar Smoothing: 0 (USB2E3373)
Correct for Electrical Dark: No (USB2E3373)
Strobe/Lamp Enabled: No (USB2E3373)
Correct for Detector Non-linearity: No (USB2E3373)
Correct for Stray Light: No (USB2E3373)
Number of Pixels in Processed Spectrum: 2048
>>>>>Begin Processed Spectral Data<<<<<
178.53	0.000
178.91	-700.000
179.29	-775.000
179.67	-83.333
180.04	-925.000
180.42	1750.000
180.80	800.000
181.18	-550.000
181.56	457.143
181.94	0.000
182.31	-214.286
182.69	1166.667
183.07	-312.500
183.45	-300.000
183.83	372.727
184.20	-190.000
184.58	1250.000
184.96	3200.000
185.34	-500.000
185.72	-387.500
186.09	-1050.000
186.47	1400.000
186.85	1300.000
187.23	3000.000
187.61	-1100.000
187.98	1025.000
188.36	363.636
188.74	272.727
189.12	-520.000
189.49	300.000
189.87	-1300.000
190.25	-625.000
190.63	335.714
191.00	253.846
191.38	483.333
191.76	-825.000
192.14	875.000
192.51	475.000
192.89	666.667
193.27	400.000
193.65	-625.000
194.02	370.000
194.40	820.000
194.78	370.000
195.15	341.667
195.53	390.000
195.91	-1000.000
196.29	256.250
196.66	194.737
197.04	-160.000
197.42	0.000
197.79	350.000
198.17	-2800.000
198.55	300.000
198.92	462.500
199.30	620.000
199.68	0.000
200.05	244.444
200.43	600.000
200.81	1900.000
201.18	1133.333
201.56	-533.333
201.94	311.111
202.31	333.333
202.69	266.667
203.07	340.000
203.44	0.000
203.82	800.000
204.19	614.286
204.57	364.286
204.95	387.500
205.32	1066.667
205.70	409.091
206.08	207.143
206.45	1200.000
206.83	256.250
207.20	500.000
207.58	500.000
207.96	244.444
208.33	425.000
208.71	-700.000
209.08	571.429
209.46	422.222
209.84	227.273
210.21	-1133.333
210.59	800.000
210.96	-312.500
211.34	1550.000
211.71	340.000
212.09	500.000
212.46	0.000
212.84	1233.333
213.22	775.000
213.59	-2900.000
213.97	650.000
214.34	600.000
214.72	409.091
215.09	600.000
215.47	-1200.000
215.84	-1850.000
216.22	1033.333
216.59	257.143
216.97	825.000
217.34	263.636
217.72	-350.000
218.09	0.000
218.47	-2900.000
218.84	422.222
219.22	442.857
219.59	1133.333
219.97	-328.571
220.34	540.000
220.72	-733.333
221.09	271.429
221.47	875.000
221.84	-683.333
222.22	0.000
222.59	600.000
222.97	-1150.000
223.34	760.000
223.72	307.692
224.09	660.000
224.46	1200.000
224.84	-3100.000
225.21	-660.000
225.59	-1900.000
225.96	430.000
226.34	190.000
226.71	1750.000
227.08	525.000
227.46	340.000
227.83	-700.000
228.21	-1400.000
228.58	444.444
228.95	-1000.000
229.33	-1600.000
229.70	1000.000
230.08	342.857
230.45	-540.000
230.82	308.333
231.20	516.667
231.57	414.286
231.95	350.000
232.32	127.273
232.69	318.182
233.07	557.143
233.44	192.308
233.81	-1000.000
234.19	247.368
234.56	333.333
234.93	350.000
235.31	263.636
235.68	192.308
236.05	271.429
236.43	142.424
236.80	184.211
237.17	2600.000
237.55	114.286
237.92	153.571
238.29	171.429
238.67	129.032
239.04	165.517
239.41	166.667
239.79	91.304
240.16	100.000
240.53	125.000
240.91	78.431
241.28	90.000
241.65	80.000
242.02	84.058
242.40	75.806
242.77	76.667
243.14	56.989
243.51	67.416
243.89	71.765
244.26	72.222
244.63	55.914
245.00	57.447
245.38	68.317
245.75	48.598
246.12	51.376
246.49	59.854
246.87	68.000
247.24	61.538
247.61	52.857
247.98	49.020
248.36	54.730
248.73	47.771
249.10	53.503
249.47	49.153
249.84	50.267
250.22	52.406
250.59	53.254
250.96	51.515
251.33	54.028
251.70	46.040
252.08	51.429
252.45	44.395
252.82	40.000
253.19	48.085
253.56	48.627
253.94	49.793
254.31	48.828
254.68	46.923
255.05	46.863
255.42	43.089
255.79	45.956
256.16	45.487
256.54	41.343
256.91	43.772
257.28	39.928
257.65	42.574
258.02	43.168
258.39	42.271
258.76	42.475
259.14	43.750
259.51	41.945
259.88	42.236
260.25	44.713
260.62	42.486
260.99	39.441
261.36	42.042
261.73	42.693
262.10	40.698
262.47	42.535
262.85	40.669
263.22	37.037
263.59	42.165
263.96	40.385
264.33	39.687
264.70	42.632
265.07	39.130
265.44	40.657
265.81	40.389
266.18	39.950
266.55	38.049
266.92	40.295
267.29	37.269
267.66	38.991
268.03	37.500
268.40	39.252
268.77	38.186
269.14	39.640
269.51	40.406
269.88	39.161
270.25	36.795
270.62	39.551
270.99	39.785
271.36	39.270
271.73	37.383
272.10	40.217
272.47	39.355
272.84	39.827
273.21	36.897
273.58	38.210
273.95	34.801
274.32	36.570
274.69	38.330
275.06	36.024
275.43	38.298
275.80	36.874
276.17	37.678
276.54	38.046
276.91	38.735
277.28	33.398
277.65	36.557
278.02	38.302
278.39	38.086
278.76	37.091
279.13	37.736
279.50	36.127
279.87	36.853
280.23	36.527
280.60	35.397
280.97	37.708
281.34	36.283
281.71	36.182
282.08	37.812
282.45	34.909
282.82	37.300
283.19	34.581
283.56	34.912
283.92	37.225
284.29	37.390
284.66	33.394
285.03	33.092
285.40	33.979
285.77	33.502
286.14	32.470
286.51	36.833
286.87	34.359
287.24	35.668
287.61	33.868
287.98	34.740
288.35	31.854
288.72	32.087
289.08	33.959
289.45	32.784
289.82	33.333
290.19	31.868
290.56	33.384
290.93	27.341
291.29	30.675
291.66	32.006
292.03	31.977
292.40	32.159
292.77	30.178
293.13	30.149
293.50	30.758
293.87	32.889
294.24	26.963
294.60	29.840
294.97	29.360
295.34	31.594
295.71	28.693
296.08	28.917
296.44	29.023
296.81	26.948
297.18	30.352
297.55	25.594
297.91	25.989
298.28	29.451
298.65	27.154
299.02	27.800
299.38	26.428
299.75	25.472
300.12	25.670
300.48	25.500
300.85	27.004
301.22	26.497
301.59	23.864
301.95	26.196
302.32	25.674
302.69	26.523
303.05	26.545
303.42	25.926
303.79	25.368
304.15	24.359
304.52	24.218
304.89	24.855
305.25	24.826
305.62	24.915
305.99	25.266
306.35	25.280
306.72	26.345
307.09	25.527
307.45	26.014
307.82	24.442
308.19	25.938
308.55	25.782
308.92	24.705
309.29	24.498
309.65	25.875
310.02	25.581
310.38	25.699
310.75	23.759
311.12	24.565
311.48	24.138
311.85	25.681
312.22	25.494
312.58	23.493
312.95	25.343
313.31	23.010
313.68	25.260
314.05	26.529
314.41	25.126
314.78	25.680
315.14	24.926
315.51	25.232
315.87	25.545
316.24	24.131
316.61	25.536
316.97	26.027
317.34	26.223
317.70	28.011
318.07	26.468
318.43	27.984
318.80	28.585
319.16	29.944
319.53	28.612
319.89	29.524
320.26	31.200
320.62	29.762
320.99	31.313
321.35	32.222
321.72	31.725
322.08	31.885
322.45	32.438
322.81	33.527
323.18	33.141
323.54	33.673
323.91	33.868
324.27	34.799
324.64	36.067
325.00	34.806
325.37	37.125
325.73	37.971
326.10	38.129
326.46	40.502
326.83	41.415
327.19	39.880
327.56	39.895
327.92	42.782
328.29	43.212
328.65	42.634
329.01	44.314
329.38	44.496
329.74	45.614
330.11	44.958
330.47	44.904
330.84	46.048
331.20	46.175
331.56	46.697
331.93	48.333
332.29	45.342
332.66	47.257
333.02	47.898
333.38	48.238
333.75	47.950
334.11	48.843
334.48	49.157
334.84	49.173
335.20	49.364
335.57	49.411
335.93	47.768
336.29	50.366
336.66	50.045
337.02	48.959
337.38	50.741
337.75	50.980
338.11	51.746
338.47	52.210
338.84	52.521
339.20	50.459
339.56	53.376
339.93	52.273
340.29	51.268
340.65	53.922
341.02	51.920
341.38	52.046
341.74	52.807
342.11	52.576
342.47	53.392
342.83	52.312
343.20	53.074
343.56	51.811
343.92	51.930
344.28	53.486
344.65	54.944
345.01	53.956
345.37	53.602
345.73	53.723
346.10	53.964
346.46	53.475
346.82	54.695
347.19	53.718
347.55	53.366
347.91	53.803
348.27	54.560
348.63	54.766
349.00	56.311
349.36	53.941
349.72	55.493
350.08	55.916
350.45	56.143
350.81	56.377
351.17	56.159
351.53	55.037
351.89	56.106
352.26	57.459
352.62	56.937
352.98	57.861
353.34	57.765
353.70	56.219
354.07	57.823
354.43	55.238
354.79	55.833
355.15	56.345
355.51	58.114
355.87	57.959
356.24	56.678
356.60	57.257
356.96	58.166
357.32	58.217
357.68	58.583
358.04	57.561
358.40	58.432
358.77	57.590
359.13	57.695
359.49	58.667
359.85	57.381
360.21	58.612
360.57	59.144
360.93	59.462
361.29	59.864
361.66	58.746
362.02	59.254
362.38	59.544
362.74	58.110
363.10	59.363
363.46	59.648
363.82	59.713
364.18	59.398
364.54	60.773
364.90	59.348
365.26	59.118
365.62	61.359
365.98	59.971
366.35	59.026
366.71	61.750
367.07	59.723
367.43	60.813
367.79	61.456
368.15	61.494
368.51	60.174
368.87	60.956
369.23	60.790
369.59	62.129
369.95	60.735
370.31	60.043
370.67	60.362
371.03	62.772
371.39	62.318
371.75	60.147
372.11	60.455
372.47	63.123
372.83	63.329
373.19	60.043
373.55	63.119
373.91	61.340
374.27	59.931
374.63	60.655
374.99	61.582
375.35	60.851
375.71	60.795
376.07	63.306
376.42	62.311
376.78	61.498
377.14	60.991
377.50	61.391
377.86	62.367
378.22	62.326
378.58	61.090
378.94	61.094
379.30	62.023
379.66	62.056
380.02	62.469
380.38	61.688
380.74	62.245
381.09	61.919
381.45	63.430
381.81	61.486
382.17	62.293
382.53	62.453
382.89	60.556
383.25	62.101
383.61	62.825
383.97	62.289
384.32	62.071
384.68	62.020
385.04	61.401
385.40	60.743
385.76	60.688
386.12	62.759
386.48	62.933
386.83	61.770
387.19	61.967
387.55	62.152
387.91	62.636
388.27	61.680
388.62	61.955
388.98	61.302
389.34	63.830
389.70	60.331
390.06	62.041
390.42	61.608
390.77	60.687
391.13	63.050
391.49	61.612
391.85	61.108
392.20	60.568
392.56	61.364
392.92	61.389
393.28	60.947
393.64	62.110
393.99	61.271
394.35	61.104
394.71	61.794
395.07	58.879
395.42	62.114
395.78	60.878
396.14	61.080
396.50	60.902
396.85	62.238
397.21	60.666
397.57	60.694
397.92	61.538
398.28	58.520
398.64	60.275
399.00	59.093
399.35	59.898
399.71	60.706
400.07	60.733
400.42	58.773
400.78	59.409
401.14	60.122
401.49	59.881
401.85	58.621
402.21	58.503
402.57	60.333
402.92	59.710
403.28	60.525
403.63	59.653
403.99	60.000
404.35	58.909
404.70	58.513
405.06	59.639
405.42	59.326
405.77	57.657
406.13	57.844
406.49	59.551
406.84	57.708
407.20	57.801
407.55	58.711
407.91	58.200
408.27	59.477
408.62	56.592
408.98	58.762
409.34	58.549
409.69	57.032
410.05	58.488
410.40	57.187
410.76	57.706
411.11	57.298
411.47	56.933
411.83	57.422
412.18	57.019
412.54	58.032
412.89	56.205
413.25	55.844
413.60	57.937
413.96	56.466
414.31	55.832
414.67	56.147
415.03	56.424
415.38	56.959
415.74	56.849
416.09	57.283
416.45	56.894
416.80	57.171
417.16	58.244
417.51	56.536
417.87	55.363
418.22	57.098
418.58	57.198
418.93	56.204
419.29	56.270
419.64	55.982
420.00	56.341
420.35	54.899
420.71	56.724
421.06	55.072
421.42	56.082
421.77	55.774
422.12	55.025
422.48	55.100
422.83	55.329
423.19	55.746
423.54	55.252
423.90	55.884
424.25	54.104
424.61	54.405
424.96	55.685
425.31	55.039
425.67	54.157
426.02	54.743
426.38	55.739
426.73	53.365
427.09	54.164
427.44	54.227
427.79	55.147
428.15	55.060
428.50	54.476
428.85	54.768
429.21	54.666
429.56	53.758
429.92	53.800
430.27	54.220
430.62	54.275
430.98	54.229
431.33	53.608
431.68	54.188
432.04	53.461
432.39	53.855
432.74	53.202
433.10	55.178
433.45	54.577
433.80	53.492
434.16	53.526
434.51	54.474
434.86	54.219
435.22	53.863
435.57	55.684
435.92	54.418
436.28	54.745
436.63	53.918
436.98	53.520
437.34	55.337
437.69	54.259
438.04	54.918
438.39	53.612
438.75	55.607
439.10	53.687
439.45	53.955
439.81	56.012
440.16	54.037
440.51	54.071
440.86	54.082
441.22	53.838
441.57	54.512
441.92	55.169
442.27	54.898
442.63	54.450
442.98	54.592
443.33	53.261
443.68	54.466
444.03	54.954
444.39	54.138
444.74	54.383
445.09	55.040
445.44	53.636
445.79	53.290
446.15	52.673
446.50	54.604
446.85	54.676
447.20	53.952
447.55	54.160
447.91	54.495
448.26	54.647
448.61	54.042
448.96	53.765
449.31	54.668
449.66	53.236
450.02	53.705
450.37	53.061
450.72	53.694
451.07	52.712
451.42	52.523
451.77	54.198
452.12	53.349
452.47	53.607
452.83	54.371
453.18	53.973
453.53	54.855
453.88	53.278
454.23	52.720
454.58	52.816
454.93	53.401
455.28	52.431
455.63	54.794
455.98	54.583
456.34	54.209
456.69	54.352
457.04	53.313
457.39	52.601
457.74	53.569
458.09	53.076
458.44	52.851
458.79	52.711
459.14	53.442
459.49	52.890
459.84	53.463
460.19	53.565
460.54	52.431
460.89	52.331
461.24	52.641
461.59	53.748
461.94	52.651
462.29	52.463
462.64	51.627
462.99	52.049
463.34	51.933
463.69	51.407
464.04	52.290
464.39	51.536
464.74	52.228
465.09	51.448
465.44	51.302
465.79	50.503
466.14	49.863
466.49	49.889
466.84	51.255
467.19	50.513
467.54	51.375
467.89	48.860
468.24	51.018
468.59	50.733
468.94	50.397
469.29	51.093
469.64	50.803
469.99	51.353
470.34	50.727
470.68	50.862
471.03	50.204
471.38	51.147
471.73	49.634
472.08	50.461
472.43	50.063
472.78	50.165
473.13	49.679
473.48	49.688
473.83	49.695
474.17	49.844
474.52	50.868
474.87	49.562
475.22	49.216
475.57	48.630
475.92	48.540
476.27	49.718
476.61	48.483
476.96	48.378
477.31	48.561
477.66	48.523
478.01	47.935
478.36	49.656
478.70	47.819
479.05	48.882
479.40	48.618
479.75	48.449
480.10	48.956
480.45	48.120
480.79	47.874
481.14	48.043
481.49	48.600
481.84	48.514
482.19	47.297
482.53	47.248
482.88	47.231
483.23	47.897
483.58	46.952
483.92	47.282
484.27	45.752
484.62	46.767
484.97	46.157
485.31	46.473
485.66	45.723
486.01	46.076
486.36	46.246
486.70	46.120
487.05	46.437
487.40	45.735
487.75	45.016
488.09	44.829
488.44	44.363
488.79	44.521
489.13	44.882
489.48	45.188
489.83	45.706
490.17	46.120
490.52	45.616
490.87	45.952
491.22	45.657
491.56	44.738
491.91	44.951
492.26	44.373
492.60	45.392
492.95	45.182
493.30	44.907
493.64	45.357
493.99	45.636
494.34	44.727
494.68	45.238
495.03	44.831
495.37	44.067
495.72	45.224
496.07	45.244
496.41	43.805
496.76	44.987
497.11	44.755
497.45	43.503
497.80	44.530
498.14	44.976
498.49	43.805
498.84	44.151
499.18	43.238
499.53	44.065
499.87	44.362
500.22	44.465
500.56	44.612
500.91	43.029
501.26	43.385
501.60	44.661
501.95	43.126
502.29	43.393
502.64	43.389
502.98	43.759
503.33	43.190
503.67	43.619
504.02	43.920
504.36	43.191
504.71	44.064
505.06	43.518
505.40	42.295
505.75	41.851
506.09	42.566
506.44	42.723
506.78	42.962
507.13	44.271
507.47	43.081
507.82	43.313
508.16	42.553
508.51	43.937
508.85	41.311
509.19	42.347
509.54	41.327
509.88	42.658
510.23	42.468
510.57	43.860
510.92	42.879
511.26	42.240
511.61	42.531
511.95	41.441
512.30	41.251
512.64	42.289
512.98	41.265
513.33	41.595
513.67	41.569
514.02	40.909
514.36	42.327
514.70	42.280
515.05	41.718
515.39	41.727
515.74	41.892
516.08	42.146
516.42	42.064
516.77	42.363
517.11	41.287
517.46	42.381
517.80	42.683
518.14	40.764
518.49	42.065
518.83	41.364
519.17	40.589
519.52	41.766
519.86	41.015
520.20	40.578
520.55	42.430
520.89	41.667
521.23	41.375
521.58	40.696
521.92	40.968
522.26	40.696
522.61	41.682
522.95	41.559
523.29	40.779
523.64	41.829
523.98	41.466
524.32	39.867
524.66	40.830
525.01	40.502
525.35	40.025
525.69	40.517
526.04	40.187
526.38	39.963
526.72	39.080
527.06	40.804
527.41	39.666
527.75	41.286
528.09	40.077
528.43	40.535
528.78	40.934
529.12	39.152
529.46	40.416
529.80	41.275
530.15	40.997
530.49	38.462
530.83	39.304
531.17	41.384
531.51	40.467
531.86	38.903
532.20	39.244
532.54	40.231
532.88	40.116
533.22	39.413
533.57	39.198
533.91	39.013
534.25	39.490
534.59	39.780
534.93	38.965
535.27	38.202
535.62	39.927
535.96	40.427
536.30	38.525
536.64	39.665
536.98	39.549
537.32	38.973
537.66	37.933
538.01	40.158
538.35	39.108
538.69	39.821
539.03	37.817
539.37	38.658
539.71	36.487
540.05	38.889
540.39	38.605
540.73	39.069
541.07	38.611
541.42	38.226
541.76	38.774
542.10	38.163
542.44	38.146
542.78	39.328
543.12	38.132
543.46	39.279
543.80	38.321
544.14	37.805
544.48	38.476
544.82	37.716
545.16	38.256
545.50	36.632
545.84	38.374
546.18	37.980
546.52	38.266
546.86	38.625
547.20	37.964
547.54	37.742
547.88	38.202
548.22	37.111
548.56	38.113
548.90	37.324
549.24	38.047
549.58	37.995
549.92	37.431
550.26	37.784
550.60	36.238
550.94	36.901
551.28	36.211
551.62	37.455
551.96	37.333
552.30	37.611
552.64	38.675
552.98	38.441
553.32	37.559
553.66	37.423
554.00	37.337
554.34	36.715
554.68	37.911
555.02	36.530
555.36	37.022
555.69	36.739
556.03	36.541
556.37	37.722
556.71	35.812
557.05	37.465
557.39	35.829
557.73	36.415
558.07	37.491
558.41	36.903
558.75	37.399
559.08	37.211
559.42	37.566
559.76	36.103
560.10	35.332
560.44	36.198
560.78	35.995
561.12	36.873
561.45	37.158
561.79	36.915
562.13	35.681
562.47	36.612
562.81	36.750
563.15	36.187
563.48	35.610
563.82	36.791
564.16	35.644
564.50	35.547
564.84	35.588
565.17	35.199
565.51	35.591
565.85	36.104
566.19	35.128
566.52	36.669
566.86	35.624
567.20	36.262
567.54	36.358
567.88	36.285
568.21	36.296
568.55	36.097
568.89	35.895
569.23	34.982
569.56	35.101
569.90	35.698
570.24	35.522
570.57	35.124
570.91	34.098
571.25	34.898
571.59	34.639
571.92	34.332
572.26	34.720
572.60	34.595
572.93	33.913
573.27	34.280
573.61	34.618
573.95	34.264
574.28	33.719
574.62	34.062
574.96	33.907
575.29	33.899
575.63	33.689
575.97	33.299
576.30	33.829
576.64	33.864
576.98	33.690
577.31	33.711
577.65	34.072
577.98	34.077
578.32	33.122
578.66	33.962
578.99	33.326
579.33	33.043
579.67	32.644
580.00	32.942
580.34	33.460
580.67	32.876
581.01	32.966
581.35	33.524
581.68	33.625
582.02	33.619
582.35	33.906
582.69	33.144
583.02	33.564
583.36	33.549
583.70	32.867
584.03	33.046
584.37	32.885
584.70	32.941
585.04	32.461
585.37	33.341
585.71	33.717
586.04	32.786
586.38	33.595
586.72	33.112
587.05	32.980
587.39	32.770
587.72	33.393
588.06	32.951
588.39	33.251
588.73	33.470
589.06	33.842
589.40	33.636
589.73	32.981
590.07	32.705
590.40	32.298
590.73	33.802
591.07	33.455
591.40	33.151
591.74	33.896
592.07	32.635
592.41	34.022
592.74	33.371
593.08	33.877
593.41	33.724
593.75	33.136
594.08	33.289
594.41	33.015
594.75	33.013
595.08	32.785
595.42	33.555
595.75	32.621
596.09	33.496
596.42	33.674
596.75	32.630
597.09	33.636
597.42	31.788
597.75	32.945
598.09	33.304
598.42	33.162
598.76	33.482
599.09	32.117
599.42	32.351
599.76	33.089
600.09	32.969
600.42	32.798
600.76	32.214
601.09	32.277
601.42	32.458
601.76	32.106
602.09	32.806
602.42	32.683
602.76	32.447
603.09	32.376
603.42	32.878
603.76	32.431
604.09	32.610
604.42	32.246
604.76	32.644
605.09	32.460
605.42	32.150
605.75	32.119
606.09	32.046
606.42	32.366
606.75	32.352
607.09	32.901
607.42	32.306
607.75	31.392
608.08	32.306
608.42	32.183
608.75	31.740
609.08	31.036
609.41	31.318
609.75	32.063
610.08	32.469
610.41	31.890
610.74	32.403
611.07	31.522
611.41	32.924
611.74	31.775
612.07	32.609
612.40	31.689
612.73	31.421
613.07	33.082
613.40	32.227
613.73	31.987
614.06	32.419
614.39	31.725
614.72	32.158
615.06	31.670
615.39	31.369
615.72	32.618
616.05	31.579
616.38	31.795
616.71	32.423
617.05	32.509
617.38	31.209
617.71	32.733
618.04	31.671
618.37	30.751
618.70	32.358
619.03	32.434
619.36	30.957
619.69	31.901
620.03	33.242
620.36	31.885
620.69	33.356
621.02	31.563
621.35	32.185
621.68	32.243
622.01	31.269
622.34	32.148
622.67	32.319
623.00	31.695
623.33	32.023
623.66	33.238
623.99	33.063
624.32	31.526
624.65	32.980
624.99	31.020
625.32	32.585
625.65	32.307
625.98	32.744
626.31	32.115
626.64	32.980
626.97	32.170
627.30	32.253
627.63	32.650
627.96	32.464
628.29	31.234
628.62	32.571
628.95	33.208
629.28	32.847
629.61	31.897
629.94	32.286
630.26	30.982
630.59	31.363
630.92	31.609
631.25	30.602
631.58	30.531
