SpectraSuite Data File
++++++++++++++++++++++++++++++++++++
Date: Wed May 13 20:38:17 PDT 2015
User: schluterlab
Dark Spectrum Present: Yes
Reference Spectrum Present: Yes
Number of Sampled Component Spectra: 1
Spectrometers: USB2E3373
Integration Time (usec): 3000 (USB2E3373)
Spectra Averaged: 3 (USB2E3373)
Boxcar Smoothing: 0 (USB2E3373)
Correct for Electrical Dark: No (USB2E3373)
Strobe/Lamp Enabled: No (USB2E3373)
Correct for Detector Non-linearity: No (USB2E3373)
Correct for Stray Light: No (USB2E3373)
Number of Pixels in Processed Spectrum: 2048
>>>>>Begin Processed Spectral Data<<<<<
178.53	0.000
178.91	-975.000
179.29	-775.000
179.67	-188.889
180.04	-925.000
180.42	1850.000
180.80	860.000
181.18	-725.000
181.56	342.857
181.94	0.000
182.31	-457.143
182.69	1233.333
183.07	-362.500
183.45	-422.222
183.83	463.636
184.20	-250.000
184.58	1250.000
184.96	3800.000
185.34	-600.000
185.72	-500.000
186.09	-1850.000
186.47	2200.000
186.85	1750.000
187.23	3200.000
187.61	-1233.333
187.98	1075.000
188.36	409.091
188.74	309.091
189.12	-600.000
189.49	440.000
189.87	-2800.000
190.25	-925.000
190.63	328.571
191.00	253.846
191.38	600.000
191.76	-525.000
192.14	825.000
192.51	425.000
192.89	700.000
193.27	475.000
193.65	-1000.000
194.02	340.000
194.40	720.000
194.78	490.000
195.15	316.667
195.53	450.000
195.91	-1200.000
196.29	300.000
196.66	231.579
197.04	-200.000
197.42	0.000
197.79	510.000
198.17	-2200.000
198.55	414.286
198.92	537.500
199.30	780.000
199.68	0.000
200.05	327.778
200.43	614.286
200.81	3200.000
201.18	1233.333
201.56	-900.000
201.94	377.778
202.31	344.444
202.69	366.667
203.07	390.000
203.44	0.000
203.82	1075.000
204.19	714.286
204.57	357.143
204.95	562.500
205.32	1100.000
205.70	381.818
206.08	357.143
206.45	1950.000
206.83	300.000
207.20	500.000
207.58	500.000
207.96	222.222
208.33	550.000
208.71	-533.333
209.08	628.571
209.46	466.667
209.84	400.000
210.21	-1233.333
210.59	1025.000
210.96	-312.500
211.34	1300.000
211.71	390.000
212.09	700.000
212.46	0.000
212.84	1533.333
213.22	975.000
213.59	-3100.000
213.97	650.000
214.34	457.143
214.72	463.636
215.09	760.000
215.47	-1900.000
215.84	-2050.000
216.22	1100.000
216.59	278.571
216.97	725.000
217.34	290.909
217.72	-600.000
218.09	0.000
218.47	-3500.000
218.84	511.111
219.22	528.571
219.59	1433.333
219.97	-400.000
220.34	760.000
220.72	-1200.000
221.09	285.714
221.47	925.000
221.84	-566.667
222.22	0.000
222.59	875.000
222.97	-1750.000
223.34	800.000
223.72	353.846
224.09	840.000
224.46	1450.000
224.84	-3400.000
225.21	-740.000
225.59	-2800.000
225.96	440.000
226.34	225.000
226.71	1850.000
227.08	425.000
227.46	390.000
227.83	-675.000
228.21	-1500.000
228.58	466.667
228.95	-1600.000
229.33	-1100.000
229.70	1433.333
230.08	471.429
230.45	-380.000
230.82	275.000
231.20	583.333
231.57	371.429
231.95	300.000
232.32	140.909
232.69	300.000
233.07	371.429
233.44	238.462
233.81	-1433.333
234.19	200.000
234.56	341.667
234.93	250.000
235.31	327.273
235.68	223.077
236.05	285.714
236.43	124.242
236.80	157.895
237.17	2500.000
237.55	161.905
237.92	157.143
238.29	157.143
238.67	109.677
239.04	96.552
239.41	105.556
239.79	71.739
240.16	85.714
240.53	81.818
240.91	56.863
241.28	76.000
241.65	56.000
242.02	52.174
242.40	48.387
242.77	56.667
243.14	38.710
243.51	48.315
243.89	30.588
244.26	38.889
244.63	40.860
245.00	42.553
245.38	24.752
245.75	22.430
246.12	22.936
246.49	34.307
246.87	38.400
247.24	38.462
247.61	19.286
247.98	24.837
248.36	17.568
248.73	21.019
249.10	22.293
249.47	19.209
249.84	15.508
250.22	16.043
250.59	17.160
250.96	18.687
251.33	23.697
251.70	21.782
252.08	14.286
252.45	16.143
252.82	14.783
253.19	14.468
253.56	16.078
253.94	17.012
254.31	14.453
254.68	14.615
255.05	16.974
255.42	13.008
255.79	10.294
256.16	14.801
256.54	9.541
256.91	11.032
257.28	9.353
257.65	11.551
258.02	12.733
258.39	12.934
258.76	9.365
259.14	14.583
259.51	10.942
259.88	9.627
260.25	12.085
260.62	11.561
260.99	8.696
261.36	9.910
261.73	8.883
262.10	9.593
262.47	10.704
262.85	6.964
263.22	5.413
263.59	10.541
263.96	10.714
264.33	11.227
264.70	8.684
265.07	10.486
265.44	10.101
265.81	7.299
266.18	7.286
266.55	9.756
266.92	7.371
267.29	8.796
267.66	9.174
268.03	10.227
268.40	9.813
268.77	5.489
269.14	5.631
269.51	9.029
269.88	7.692
270.25	6.095
270.62	8.764
270.99	10.968
271.36	9.013
271.73	7.009
272.10	8.478
272.47	8.817
272.84	8.442
273.21	8.805
273.58	3.493
273.95	5.660
274.32	7.438
274.69	9.208
275.06	5.315
275.43	8.298
275.80	8.617
276.17	7.536
276.54	9.148
276.91	6.324
277.28	8.594
277.65	8.897
278.02	6.625
278.39	5.664
278.76	6.545
279.13	7.547
279.50	8.939
279.87	7.171
280.23	6.387
280.60	5.029
280.97	6.654
281.34	7.611
281.71	7.818
282.08	6.142
282.45	7.273
282.82	6.750
283.19	3.209
283.56	6.491
283.92	6.599
284.29	6.878
284.66	6.534
285.03	5.063
285.40	5.458
285.77	4.040
286.14	5.527
286.51	6.833
286.87	7.179
287.24	5.375
287.61	5.778
287.98	5.357
288.35	5.388
288.72	7.009
289.08	7.355
289.45	5.601
289.82	6.829
290.19	5.024
290.56	5.207
290.93	5.438
291.29	4.755
291.66	5.900
292.03	6.105
292.40	7.195
292.77	4.882
293.13	5.373
293.50	5.394
293.87	5.630
294.24	4.148
294.60	2.475
294.97	6.250
295.34	5.783
295.71	5.682
296.08	4.274
296.44	4.814
296.81	3.831
297.18	6.233
297.55	3.694
297.91	5.013
298.28	5.355
298.65	7.050
299.02	6.456
299.38	4.781
299.75	2.156
300.12	3.576
300.48	3.500
300.85	5.055
301.22	5.096
301.59	3.030
301.95	3.904
302.32	4.236
302.69	3.943
303.05	5.333
303.42	4.074
303.79	3.851
304.15	3.846
304.52	3.824
304.89	3.600
305.25	4.640
305.62	5.889
305.99	3.778
306.35	3.356
306.72	2.915
307.09	4.883
307.45	4.842
307.82	3.237
308.19	3.532
308.55	5.070
308.92	3.759
309.29	3.379
309.65	3.181
310.02	3.911
310.38	5.054
310.75	3.907
311.12	4.094
311.48	3.866
311.85	4.717
312.22	3.746
312.58	4.054
312.95	4.013
313.31	2.913
313.68	3.430
314.05	5.523
314.41	3.116
314.78	2.920
315.14	3.972
315.51	3.708
315.87	4.950
316.24	3.277
316.61	2.924
316.97	3.523
317.34	3.033
317.70	3.920
318.07	4.427
318.43	3.033
318.80	4.217
319.16	3.390
319.53	3.283
319.89	4.000
320.26	4.600
320.62	4.167
320.99	3.838
321.35	4.242
321.72	3.799
322.08	3.356
322.45	3.582
322.81	3.876
323.18	3.757
323.54	4.360
323.91	4.623
324.27	2.772
324.64	2.423
325.00	2.705
325.37	3.367
325.73	4.129
326.10	3.795
326.46	3.315
326.83	3.883
327.19	3.757
327.56	3.310
327.92	3.325
328.29	4.082
328.65	2.947
329.01	3.520
329.38	2.498
329.74	3.047
330.11	2.639
330.47	3.214
330.84	5.055
331.20	3.097
331.56	3.303
331.93	2.685
332.29	4.170
332.66	3.805
333.02	4.113
333.38	3.884
333.75	4.100
334.11	3.648
334.48	3.194
334.84	3.768
335.20	2.727
335.57	2.539
335.93	2.143
336.29	2.747
336.66	4.148
337.02	2.624
337.38	3.426
337.75	2.941
338.11	2.686
338.47	2.578
338.84	3.300
339.20	3.303
339.56	3.467
339.93	2.727
340.29	2.083
340.65	3.565
341.02	3.839
341.38	2.936
341.74	3.070
342.11	4.192
342.47	2.907
342.83	3.168
343.20	4.416
343.56	3.201
343.92	3.333
344.28	2.976
344.65	2.837
345.01	3.367
345.37	1.715
345.73	2.707
346.10	3.666
346.46	3.559
346.82	2.636
347.19	2.673
347.55	3.120
347.91	2.832
348.27	3.451
348.63	3.428
349.00	2.670
349.36	2.299
349.72	3.769
350.08	2.107
350.45	3.011
350.81	3.656
351.17	3.485
351.53	3.112
351.89	2.063
352.26	3.394
352.62	3.368
352.98	3.485
353.34	2.629
353.70	2.128
354.07	2.339
354.43	2.778
354.79	2.414
355.15	2.793
355.51	3.038
355.87	2.531
356.24	3.176
356.60	3.128
356.96	3.138
357.32	2.862
357.68	2.913
358.04	2.692
358.40	2.930
358.77	3.052
359.13	2.841
359.49	2.745
359.85	1.508
360.21	1.675
360.57	3.502
360.93	2.538
361.29	2.192
361.66	2.632
362.02	2.910
362.38	2.510
362.74	2.753
363.10	2.591
363.46	2.715
363.82	2.797
364.18	3.084
364.54	3.195
364.90	3.116
365.26	2.500
365.62	2.337
365.98	2.045
366.35	2.006
366.71	3.181
367.07	2.258
367.43	1.959
367.79	2.712
368.15	3.592
368.51	2.035
368.87	3.283
369.23	1.683
369.59	2.824
369.95	2.574
370.31	2.707
370.67	2.319
371.03	3.521
371.39	3.061
371.75	2.500
372.11	2.632
372.47	3.079
372.83	3.602
373.19	2.095
373.55	2.735
373.91	3.314
374.27	2.680
374.63	1.673
374.99	2.613
375.35	1.884
375.71	2.262
376.07	3.018
376.42	1.857
376.78	3.645
377.14	1.900
377.50	2.649
377.86	1.729
378.22	3.097
378.58	1.692
378.94	1.760
379.30	1.463
379.66	1.777
380.02	2.396
380.38	2.125
380.74	2.581
381.09	1.956
381.45	2.397
381.81	2.580
382.17	2.484
382.53	2.704
382.89	2.469
383.25	1.751
383.61	2.664
383.97	2.376
384.32	2.121
384.68	1.859
385.04	1.598
385.40	2.415
385.76	1.966
386.12	1.878
386.48	2.266
386.83	2.245
387.19	2.536
387.55	2.474
387.91	2.297
388.27	1.962
388.62	2.459
388.98	1.536
389.34	3.254
389.70	2.207
390.06	2.345
390.42	2.399
390.77	2.545
391.13	1.723
391.49	3.299
391.85	2.101
392.20	0.883
392.56	1.515
392.92	1.707
393.28	1.420
393.64	2.818
393.99	2.932
394.35	2.233
394.71	2.008
395.07	1.745
395.42	2.163
395.78	2.481
396.14	2.359
396.50	2.506
396.85	2.861
397.21	1.726
397.57	1.860
397.92	2.704
398.28	1.345
398.64	2.330
399.00	2.238
399.35	2.200
399.71	2.546
400.07	3.016
400.42	2.086
400.78	2.111
401.14	2.134
401.49	1.970
401.85	1.633
402.21	1.796
402.57	2.529
402.92	2.081
403.28	2.498
403.63	1.980
403.99	1.720
404.35	2.364
404.70	1.499
405.06	2.038
405.42	1.622
405.77	1.943
406.13	2.483
406.49	2.425
406.84	1.654
407.20	1.714
407.55	2.170
407.91	2.067
408.27	1.276
408.62	2.167
408.98	2.451
409.34	2.153
409.69	2.194
410.05	2.354
410.40	1.896
410.76	1.852
411.11	2.352
411.47	2.556
411.83	2.443
412.18	1.670
412.54	2.179
412.89	2.711
413.25	2.066
413.60	2.409
413.96	2.489
414.31	2.552
414.67	2.535
415.03	1.854
415.38	2.835
415.74	1.994
416.09	2.221
416.45	2.544
416.80	2.115
417.16	2.413
417.51	2.455
417.87	1.991
418.22	2.650
418.58	2.518
418.93	2.088
419.29	2.037
419.64	2.645
420.00	1.890
420.35	2.203
420.71	3.467
421.06	2.148
421.42	2.573
421.77	2.915
422.12	1.684
422.48	1.079
422.83	1.980
423.19	2.431
423.54	1.915
423.90	2.667
424.25	2.233
424.61	2.202
424.96	2.507
425.31	2.381
425.67	1.854
426.02	2.000
426.38	2.930
426.73	2.224
427.09	1.884
427.44	2.645
427.79	2.933
428.15	2.440
428.50	2.224
428.85	2.324
429.21	1.767
429.56	1.192
429.92	1.409
430.27	1.589
430.62	1.434
430.98	2.076
431.33	2.113
431.68	1.990
432.04	2.396
432.39	1.599
432.74	2.274
433.10	1.981
433.45	1.458
433.80	1.386
434.16	2.350
434.51	2.158
434.86	1.767
435.22	2.001
435.57	1.945
435.92	1.989
436.28	2.313
436.63	2.980
436.98	1.431
437.34	2.326
437.69	2.100
438.04	1.967
438.39	1.970
438.75	2.382
439.10	2.123
439.45	2.479
439.81	1.692
440.16	2.202
440.51	1.992
440.86	2.490
441.22	1.835
441.57	2.070
441.92	2.098
442.27	1.938
442.63	1.790
442.98	2.085
443.33	2.500
443.68	2.065
444.03	1.367
444.39	1.607
444.74	2.706
445.09	2.156
445.44	2.078
445.79	2.128
446.15	2.647
446.50	1.454
446.85	1.850
447.20	1.734
447.55	1.843
447.91	1.875
448.26	2.393
448.61	1.922
448.96	2.159
449.31	1.912
449.66	2.476
450.02	1.337
450.37	1.757
450.72	1.918
451.07	1.280
451.42	1.641
451.77	2.408
452.12	2.483
452.47	2.301
452.83	2.098
453.18	2.017
453.53	2.412
453.88	1.536
454.23	2.152
454.58	2.241
454.93	2.670
455.28	1.808
455.63	2.731
455.98	2.560
456.34	1.759
456.69	2.254
457.04	2.415
457.39	2.338
457.74	1.509
458.09	1.553
458.44	2.223
458.79	1.627
459.14	1.806
459.49	1.810
459.84	1.994
460.19	1.296
460.54	1.562
460.89	2.194
461.24	2.125
461.59	3.196
461.94	2.281
462.29	2.671
462.64	2.489
462.99	1.496
463.34	2.533
463.69	2.689
464.04	2.609
464.39	2.319
464.74	2.852
465.09	1.689
465.44	1.939
465.79	1.957
466.14	2.025
466.49	1.780
466.84	2.043
467.19	2.112
467.54	2.625
467.89	2.041
468.24	2.269
468.59	2.625
468.94	1.772
469.29	1.864
469.64	3.146
469.99	1.962
470.34	2.312
470.68	1.580
471.03	2.313
471.38	2.154
471.73	2.532
472.08	2.566
472.43	2.450
472.78	2.172
473.13	3.017
473.48	1.873
473.83	2.073
474.17	1.493
474.52	2.667
474.87	2.335
475.22	2.322
475.57	1.558
475.92	1.859
476.27	1.973
476.61	1.765
476.96	1.704
477.31	1.465
477.66	1.860
478.01	1.725
478.36	2.327
478.70	1.090
479.05	1.597
479.40	2.354
479.75	1.983
480.10	1.441
480.45	1.904
480.79	1.672
481.14	2.397
481.49	2.373
481.84	1.783
482.19	1.318
482.53	1.514
482.88	1.768
483.23	1.963
483.58	1.956
483.92	1.968
484.27	1.656
484.62	1.724
484.97	1.419
485.31	1.062
485.66	0.836
486.01	0.424
486.36	0.435
486.70	0.476
487.05	0.722
487.40	0.894
487.75	0.904
488.09	1.244
488.44	1.201
488.79	1.483
489.13	1.566
489.48	1.305
489.83	1.252
490.17	1.797
490.52	1.904
490.87	1.945
491.22	1.955
491.56	1.549
491.91	1.489
492.26	1.516
492.60	1.567
492.95	1.497
493.30	1.589
493.64	1.680
493.99	1.346
494.34	1.758
494.68	1.969
495.03	1.269
495.37	1.349
495.72	1.462
496.07	1.624
496.41	1.195
496.76	2.111
497.11	1.891
497.45	1.770
497.80	2.015
498.14	1.836
498.49	1.268
498.84	1.678
499.18	1.857
499.53	1.614
499.87	2.237
500.22	1.460
500.56	1.942
500.91	1.394
501.26	1.517
501.60	1.993
501.95	1.650
502.29	1.968
502.64	2.095
502.98	1.964
503.33	1.691
503.67	1.531
504.02	1.543
504.36	2.059
504.71	1.368
505.06	2.120
505.40	1.896
505.75	1.736
506.09	1.409
506.44	1.381
506.78	1.266
507.13	1.413
507.47	2.424
507.82	2.381
508.16	2.178
508.51	1.522
508.85	1.589
509.19	1.429
509.54	1.939
509.88	1.494
510.23	1.131
510.57	2.683
510.92	2.227
511.26	1.953
511.61	2.178
511.95	1.931
512.30	1.909
512.64	2.042
512.98	2.144
513.33	1.606
513.67	1.814
514.02	1.894
514.36	2.021
514.70	2.048
515.05	2.008
515.39	2.356
515.74	2.703
516.08	2.627
516.42	2.664
516.77	2.787
517.11	1.665
517.46	2.427
517.80	2.033
518.14	1.274
518.49	1.867
518.83	1.932
519.17	1.848
519.52	2.037
519.86	1.997
520.20	2.601
520.55	2.274
520.89	2.190
521.23	2.171
521.58	1.741
521.92	2.388
522.26	1.830
522.61	1.682
522.95	1.964
523.29	2.374
523.64	2.073
523.98	2.711
524.32	2.232
524.66	2.225
525.01	1.900
525.35	1.611
525.69	2.032
526.04	2.305
526.38	2.379
526.72	2.270
527.06	1.444
527.41	1.733
527.75	2.251
528.09	2.119
528.43	1.848
528.78	2.336
529.12	1.818
529.46	2.143
529.80	1.980
530.15	2.305
530.49	2.154
530.83	2.215
531.17	2.546
531.51	2.983
531.86	2.581
532.20	2.477
532.54	3.075
532.88	2.953
533.22	2.249
533.57	2.963
533.91	2.709
534.25	1.701
534.59	2.013
534.93	2.082
535.27	2.293
535.62	1.954
535.96	1.695
536.30	1.716
536.64	2.189
536.98	2.654
537.32	2.238
537.66	1.667
538.01	2.831
538.35	2.069
538.69	2.680
539.03	2.209
539.37	2.173
539.71	1.685
540.05	2.680
540.39	2.525
540.73	2.135
541.07	3.374
541.42	2.674
541.76	2.710
542.10	3.169
542.44	1.722
542.78	3.360
543.12	2.431
543.46	2.951
543.80	3.253
544.14	2.375
544.48	3.111
544.82	2.373
545.16	2.733
545.50	2.571
545.84	2.554
546.18	2.559
546.52	2.684
546.86	2.062
547.20	2.697
547.54	2.605
547.88	3.125
548.22	2.802
548.56	2.327
548.90	1.985
549.24	1.818
549.58	2.524
549.92	2.747
550.26	2.628
550.60	2.213
550.94	2.746
551.28	1.097
551.62	2.301
551.96	2.316
552.30	2.867
552.64	2.569
552.98	3.119
553.32	2.630
553.66	3.204
554.00	2.814
554.34	2.761
554.68	2.647
555.02	2.186
555.36	2.018
555.69	2.233
556.03	2.423
556.37	2.524
556.71	2.524
557.05	2.801
557.39	3.429
557.73	2.541
558.07	1.813
558.41	2.171
558.75	1.763
559.08	2.685
559.42	2.570
559.76	2.500
560.10	2.141
560.44	2.306
560.78	2.329
561.12	2.045
561.45	3.259
561.79	1.912
562.13	2.616
562.47	2.664
562.81	2.232
563.15	2.876
563.48	2.454
563.82	1.826
564.16	2.224
564.50	1.367
564.84	2.402
565.17	2.317
565.51	2.428
565.85	2.348
566.19	1.252
566.52	2.343
566.86	1.688
567.20	2.771
567.54	1.941
567.88	1.467
568.21	2.116
568.55	1.567
568.89	1.362
569.23	1.693
569.56	1.457
569.90	1.434
570.24	1.220
570.57	1.122
570.91	0.711
571.25	1.204
571.59	1.149
571.92	1.094
572.26	1.011
572.60	1.411
572.93	1.319
573.27	1.065
573.61	1.256
573.95	1.034
574.28	0.729
574.62	0.850
574.96	0.932
575.29	0.849
575.63	1.067
575.97	1.250
576.30	1.221
576.64	0.733
576.98	0.705
577.31	0.531
577.65	0.630
577.98	0.543
578.32	0.814
578.66	0.797
578.99	0.776
579.33	0.871
579.67	0.535
580.00	0.791
580.34	0.807
580.67	0.922
581.01	1.124
581.35	0.716
581.68	0.781
582.02	0.490
582.35	0.542
582.69	0.758
583.02	0.774
583.36	0.761
583.70	0.974
584.03	0.993
584.37	0.870
584.70	0.758
585.04	1.174
585.37	1.142
585.71	1.292
586.04	1.063
586.38	0.888
586.72	1.353
587.05	0.869
587.39	1.055
587.72	0.979
588.06	1.014
588.39	1.043
588.73	1.085
589.06	1.402
589.40	0.842
589.73	1.126
590.07	1.495
590.40	0.986
590.73	1.171
591.07	1.343
591.40	1.771
591.74	1.948
592.07	1.396
592.41	1.778
592.74	1.086
593.08	1.466
593.41	0.949
593.75	1.437
594.08	1.341
594.41	1.273
594.75	1.109
595.08	1.288
595.42	1.156
595.75	1.282
596.09	1.765
596.42	1.650
596.75	1.688
597.09	2.208
597.42	1.096
597.75	1.552
598.09	1.478
598.42	1.503
598.76	1.135
599.09	1.368
599.42	1.528
599.76	1.428
600.09	1.129
600.42	1.059
600.76	1.071
601.09	1.020
601.42	1.712
601.76	1.822
602.09	1.146
602.42	1.632
602.76	2.015
603.09	1.338
603.42	1.679
603.76	1.067
604.09	1.086
604.42	1.427
604.76	2.024
605.09	1.616
605.42	1.411
605.75	1.490
606.09	0.691
606.42	1.144
606.75	2.074
607.09	1.884
607.42	1.412
607.75	1.392
608.08	1.650
608.42	1.972
608.75	1.894
609.08	1.573
609.41	1.618
609.75	1.334
610.08	1.791
610.41	1.071
610.74	1.277
611.07	2.075
611.41	2.012
611.74	2.112
612.07	2.226
612.40	2.256
612.73	1.211
613.07	2.047
613.40	2.159
613.73	1.259
614.06	1.828
614.39	2.569
614.72	2.263
615.06	2.258
615.39	1.752
615.72	1.892
616.05	1.223
616.38	2.057
616.71	2.316
617.05	2.356
617.38	2.105
617.71	1.562
618.04	2.224
618.37	1.952
618.70	2.427
619.03	2.895
619.36	2.919
619.69	2.324
620.03	2.610
620.36	2.741
620.69	2.877
621.02	2.434
621.35	2.662
621.68	2.882
622.01	3.096
622.34	3.480
622.67	2.586
623.00	2.201
623.33	1.787
623.66	2.931
623.99	2.283
624.32	2.068
624.65	2.966
624.99	2.408
625.32	2.100
625.65	2.930
625.98	2.537
626.31	3.888
626.64	3.510
626.97	3.242
627.30	2.494
627.63	3.610
627.96	2.775
628.29	2.450
628.62	4.026
628.95	4.434
629.28	3.102
629.61	4.216
629.94	2.571
630.26	2.574
630.59	4.766
630.92	2.586
631.25	2.073
631.58	3.704
631.91	3.245
632.24	2.743
632.57	4.617
632.90	3.180
633.23	4.027
633.56	4.972
633.89	4.870
634.22	4.200
634.55	4.497
634.88	3.353
635.20	4.062
635.53	4.699
635.86	3.713
636.19	3.765
636.52	4.498
636.85	4.467
637.18	3.802
637.51	4.610
637.83	2.589
638.16	4.476
638.49	5.416
638.82	5.436
639.15	4.000
639.48	5.237
639.81	5.362
640.13	5.078
640.46	6.040
640.79	5.416
641.12	4.264
641.45	4.609
641.77	6.186
642.10	3.655
642.43	3.604
642.76	5.573
643.09	4.448
643.41	3.035
643.74	6.944
644.07	5.945
644.40	6.135
644.73	7.717
645.05	6.656
645.38	6.635
645.71	5.958
646.04	5.482
646.36	5.509
646.69	5.853
647.02	5.102
647.35	5.842
647.67	5.841
648.00	7.317
648.33	4.950
648.66	5.909
648.98	6.297
649.31	2.990
649.64	5.082
649.96	5.514
650.29	4.423
650.62	4.045
650.94	6.159
651.27	8.277
651.60	6.489
651.92	7.668
652.25	3.583
652.58	5.607
652.90	6.003
653.23	4.777
653.56	4.252
653.88	5.388
654.21	5.213
654.54	5.941
654.86	5.296
655.19	2.432
655.52	1.195
655.84	0.374
656.17	0.212
