SpectraSuite Data File
++++++++++++++++++++++++++++++++++++
Date: Wed May 13 21:03:41 PDT 2015
User: schluterlab
Dark Spectrum Present: Yes
Reference Spectrum Present: Yes
Number of Sampled Component Spectra: 1
Spectrometers: USB2E3373
Integration Time (usec): 3000 (USB2E3373)
Spectra Averaged: 3 (USB2E3373)
Boxcar Smoothing: 0 (USB2E3373)
Correct for Electrical Dark: No (USB2E3373)
Strobe/Lamp Enabled: No (USB2E3373)
Correct for Detector Non-linearity: No (USB2E3373)
Correct for Stray Light: No (USB2E3373)
Number of Pixels in Processed Spectrum: 2048
>>>>>Begin Processed Spectral Data<<<<<
178.53	0.000
178.91	-50.000
179.29	116.667
179.67	-600.000
180.04	-400.000
180.42	180.000
180.80	1300.000
181.18	216.667
181.56	-200.000
181.94	-25.000
182.31	45.455
182.69	30.769
183.07	-80.000
183.45	100.000
183.83	133.333
184.20	71.429
184.58	-133.333
184.96	233.333
185.34	142.857
185.72	0.000
186.09	-700.000
186.47	0.000
186.85	60.000
187.23	200.000
187.61	250.000
187.98	600.000
188.36	50.000
188.74	0.000
189.12	-54.545
189.49	70.000
189.87	33.333
190.25	220.000
190.63	300.000
191.00	20.000
191.38	-20.000
191.76	275.000
192.14	116.667
192.51	10.526
192.89	300.000
193.27	50.000
193.65	-40.000
194.02	136.364
194.40	180.000
194.78	-800.000
195.15	160.000
195.53	-260.000
195.91	62.500
196.29	0.000
196.66	0.000
197.04	450.000
197.42	20.000
197.79	20.000
198.17	-100.000
198.55	-66.667
198.92	25.000
199.30	-366.667
199.68	-40.000
200.05	-200.000
200.43	50.000
200.81	-600.000
201.18	-160.000
201.56	-33.333
201.94	550.000
202.31	-17.391
202.69	-14.286
203.07	-100.000
203.44	-60.000
203.82	-200.000
204.19	0.000
204.57	0.000
204.95	-16.667
205.32	0.000
205.70	50.000
206.08	-275.000
206.45	-16.667
206.83	200.000
207.20	-166.667
207.58	30.000
207.96	-1300.000
208.33	42.857
208.71	-800.000
209.08	25.000
209.46	125.000
209.84	0.000
210.21	30.000
210.59	2200.000
210.96	20.000
211.34	800.000
211.71	-700.000
212.09	-250.000
212.46	-40.000
212.84	-166.667
213.22	0.000
213.59	-600.000
213.97	-600.000
214.34	-450.000
214.72	76.923
215.09	175.000
215.47	100.000
215.84	250.000
216.22	75.000
216.59	0.000
216.97	300.000
217.34	66.667
217.72	0.000
218.09	-100.000
218.47	900.000
218.84	-14.286
219.22	-25.000
219.59	-100.000
219.97	-150.000
220.34	62.500
220.72	-60.000
221.09	0.000
221.47	-266.667
221.84	-300.000
222.22	0.000
222.59	600.000
222.97	-33.333
223.34	-66.667
223.72	-800.000
224.09	-50.000
224.46	-36.364
224.84	-100.000
225.21	-14.286
225.59	-50.000
225.96	0.000
226.34	20.000
226.71	-114.286
227.08	300.000
227.46	25.000
227.83	100.000
228.21	-6.250
228.58	75.000
228.95	23.529
229.33	25.000
229.70	-37.500
230.08	-15.385
230.45	-12.500
230.82	-108.333
231.20	171.429
231.57	-150.000
231.95	1100.000
232.32	0.000
232.69	0.000
233.07	100.000
233.44	0.000
233.81	-100.000
234.19	50.000
234.56	-20.000
234.93	-13.333
235.31	-10.526
235.68	-23.077
236.05	-15.385
236.43	-16.667
236.80	3.030
237.17	-80.000
237.55	-35.294
237.92	-17.241
238.29	-3.704
238.67	11.111
239.04	3.226
239.41	-2.128
239.79	14.894
240.16	18.605
240.53	30.357
240.91	25.000
241.28	1.786
241.65	11.290
242.02	23.684
242.40	23.188
242.77	2.899
243.14	16.667
243.51	10.638
243.89	15.385
244.26	20.755
244.63	19.231
245.00	10.417
245.38	15.126
245.75	13.934
246.12	14.286
246.49	13.821
246.87	8.403
247.24	15.541
247.61	11.921
247.98	12.821
248.36	8.284
248.73	12.360
249.10	11.616
249.47	8.602
249.84	18.947
250.22	12.935
250.59	14.486
250.96	18.182
251.33	9.091
251.70	17.992
252.08	17.155
252.45	14.815
252.82	17.490
253.19	17.121
253.56	11.871
253.94	18.861
254.31	17.254
254.68	18.121
255.05	17.492
255.42	16.783
255.79	15.644
256.16	14.826
256.54	12.698
256.91	10.443
257.28	14.780
257.65	12.739
258.02	12.610
258.39	13.743
258.76	13.663
259.14	16.193
259.51	14.888
259.88	15.447
260.25	13.889
260.62	12.921
260.99	18.037
261.36	16.062
261.73	16.049
262.10	15.267
262.47	13.086
262.85	12.935
263.22	13.077
263.59	15.325
263.96	13.869
264.33	13.702
264.70	14.419
265.07	15.278
265.44	16.552
265.81	14.188
266.18	14.351
266.55	13.319
266.92	14.619
267.29	13.992
267.66	14.225
268.03	15.638
268.40	12.712
268.77	14.256
269.14	14.286
269.51	16.632
269.88	13.646
270.25	14.195
270.62	14.959
270.99	13.386
271.36	14.286
271.73	12.651
272.10	16.381
272.47	14.012
272.84	15.354
273.21	13.307
273.58	14.139
273.95	11.509
274.32	14.179
274.69	14.754
275.06	12.014
275.43	13.183
275.80	12.943
276.17	13.628
276.54	11.012
276.91	13.763
277.28	13.538
277.65	15.210
278.02	15.536
278.39	12.789
278.76	13.211
279.13	12.178
279.50	11.897
279.87	11.232
280.23	12.432
280.60	12.111
280.97	13.799
281.34	14.826
281.71	11.545
282.08	12.991
282.45	14.590
282.82	13.099
283.19	14.329
283.56	13.125
283.92	14.067
284.29	12.949
284.66	13.674
285.03	11.889
285.40	12.840
285.77	13.213
286.14	14.590
286.51	14.693
286.87	12.308
287.24	12.094
287.61	12.048
287.98	14.412
288.35	13.711
288.72	12.195
289.08	12.963
289.45	12.335
289.82	11.952
290.19	13.043
290.56	12.074
290.93	11.326
291.29	12.312
291.66	11.885
292.03	10.627
292.40	13.055
292.77	13.119
293.13	11.018
293.50	13.072
293.87	12.400
294.24	10.979
294.60	10.663
294.97	11.772
295.34	10.290
295.71	9.724
296.08	9.555
296.44	10.714
296.81	11.571
297.18	11.000
297.55	11.203
297.91	11.801
298.28	10.775
298.65	10.099
299.02	11.844
299.38	10.429
299.75	11.418
300.12	8.256
300.48	10.409
300.85	11.432
301.22	10.337
301.59	9.624
301.95	10.685
302.32	9.568
302.69	9.831
303.05	10.853
303.42	10.795
303.79	11.041
304.15	10.186
304.52	11.505
304.89	10.520
305.25	9.879
305.62	11.171
305.99	10.990
306.35	12.435
306.72	10.885
307.09	11.575
307.45	11.182
307.82	11.789
308.19	10.345
308.55	11.259
308.92	13.163
309.29	11.512
309.65	10.689
310.02	11.332
310.38	11.687
310.75	11.736
311.12	11.856
311.48	11.573
311.85	13.091
312.22	13.636
312.58	12.754
312.95	13.632
313.31	15.519
313.68	12.595
314.05	14.461
314.41	15.466
314.78	14.991
315.14	15.370
315.51	14.653
315.87	16.775
316.24	16.713
316.61	16.712
316.97	17.407
317.34	17.112
317.70	19.269
318.07	18.900
318.43	17.254
318.80	18.586
319.16	18.391
319.53	19.803
319.89	20.687
320.26	21.165
320.62	21.779
320.99	21.512
321.35	21.422
321.72	23.195
322.08	22.878
322.45	24.514
322.81	25.970
323.18	25.224
323.54	27.256
323.91	27.642
324.27	28.263
324.64	27.875
325.00	28.871
325.37	29.437
325.73	31.145
326.10	31.539
326.46	33.696
326.83	32.201
327.19	34.390
327.56	34.247
327.92	34.272
328.29	37.145
328.65	37.862
329.01	36.588
329.38	37.652
329.74	38.112
330.11	38.593
330.47	38.281
330.84	39.621
331.20	38.941
331.56	40.851
331.93	40.052
332.29	40.052
332.66	39.915
333.02	41.529
333.38	41.140
333.75	41.212
334.11	42.448
334.48	41.935
334.84	42.403
335.20	41.338
335.57	42.385
335.93	41.838
336.29	42.557
336.66	42.308
337.02	42.522
337.38	41.340
337.75	43.152
338.11	41.588
338.47	41.353
338.84	42.182
339.20	43.122
339.56	41.980
339.93	42.437
340.29	42.442
340.65	43.285
341.02	41.930
341.38	43.834
341.74	42.857
342.11	41.618
342.47	43.347
342.83	42.075
343.20	44.755
343.56	42.191
343.92	42.080
344.28	41.883
344.65	43.265
345.01	42.131
345.37	43.174
345.73	43.056
346.10	42.937
346.46	42.764
346.82	43.981
347.19	42.405
347.55	42.569
347.91	41.855
348.27	41.798
348.63	40.625
349.00	41.509
349.36	41.680
349.72	42.769
350.08	43.214
350.45	43.148
350.81	42.410
351.17	41.416
351.53	43.912
351.89	40.826
352.26	41.622
352.62	42.558
352.98	42.252
353.34	42.834
353.70	42.757
354.07	42.353
354.43	41.524
354.79	42.869
355.15	42.081
355.51	42.825
355.87	41.595
356.24	42.857
356.60	42.220
356.96	42.364
357.32	42.724
357.68	40.871
358.04	42.203
358.40	42.326
358.77	41.820
359.13	43.891
359.49	41.105
359.85	42.229
360.21	43.022
360.57	41.749
360.93	41.958
361.29	41.747
361.66	42.749
362.02	41.067
362.38	41.728
362.74	41.624
363.10	42.299
363.46	41.499
363.82	42.129
364.18	41.189
364.54	43.107
364.90	42.300
365.26	41.331
365.62	40.980
365.98	42.562
366.35	42.199
366.71	41.726
367.07	40.397
367.43	41.603
367.79	41.348
368.15	41.772
368.51	40.014
368.87	41.242
369.23	40.854
369.59	41.015
369.95	41.147
370.31	41.144
370.67	40.768
371.03	41.871
371.39	41.164
371.75	41.357
372.11	41.524
372.47	41.240
372.83	40.707
373.19	40.216
373.55	41.980
373.91	40.806
374.27	40.387
374.63	41.465
374.99	40.251
375.35	40.753
375.71	40.829
376.07	40.507
376.42	39.973
376.78	41.281
377.14	41.424
377.50	41.460
377.86	40.505
378.22	40.771
378.58	39.786
378.94	41.875
379.30	40.974
379.66	39.334
380.02	40.748
380.38	39.096
380.74	40.108
381.09	40.350
381.45	41.233
381.81	40.111
382.17	40.328
382.53	40.615
382.89	40.893
383.25	40.494
383.61	41.768
383.97	39.062
384.32	40.076
384.68	39.790
385.04	41.051
385.40	39.352
385.76	40.268
386.12	40.801
386.48	40.564
386.83	39.362
387.19	39.790
387.55	40.098
387.91	38.868
388.27	39.149
388.62	39.139
388.98	40.175
389.34	39.474
389.70	38.706
390.06	39.938
390.42	40.528
390.77	39.270
391.13	40.215
391.49	37.318
391.85	37.572
392.20	39.035
392.56	38.794
392.92	38.561
393.28	38.117
393.64	39.083
393.99	38.066
394.35	38.889
394.71	38.205
395.07	37.484
395.42	37.843
395.78	37.838
396.14	38.998
396.50	38.427
396.85	39.006
397.21	37.578
397.57	37.764
397.92	36.048
398.28	38.240
398.64	37.098
399.00	36.607
399.35	37.911
399.71	36.634
400.07	37.651
400.42	36.677
400.78	35.650
401.14	36.910
401.49	36.729
401.85	36.855
402.21	36.718
402.57	36.542
402.92	36.984
403.28	36.335
403.63	36.578
403.99	36.788
404.35	36.970
404.70	35.770
405.06	36.054
405.42	36.495
405.77	34.793
406.13	36.571
406.49	35.291
406.84	34.615
407.20	36.234
407.55	35.779
407.91	35.407
408.27	35.309
408.62	36.219
408.98	34.895
409.34	34.220
409.69	35.543
410.05	34.701
410.40	34.693
410.76	35.199
411.11	35.572
411.47	35.965
411.83	34.248
412.18	35.390
412.54	35.401
412.89	34.420
413.25	33.687
413.60	34.734
413.96	34.395
414.31	34.525
414.67	33.397
415.03	33.694
415.38	34.148
415.74	33.983
416.09	33.311
416.45	34.586
416.80	34.161
417.16	34.345
417.51	35.164
417.87	33.730
418.22	33.743
418.58	33.574
418.93	34.149
419.29	34.785
419.64	32.888
420.00	33.905
420.35	32.935
420.71	33.394
421.06	34.194
421.42	33.942
421.77	33.931
422.12	33.066
422.48	32.770
422.83	33.373
423.19	33.237
423.54	32.744
423.90	33.195
424.25	33.044
424.61	33.457
424.96	32.289
425.31	32.305
425.67	34.450
426.02	34.629
426.38	33.955
426.73	32.254
427.09	32.958
427.44	32.707
427.79	32.304
428.15	32.783
428.50	32.689
428.85	32.595
429.21	32.077
429.56	32.359
429.92	32.639
430.27	32.362
430.62	32.057
430.98	32.205
431.33	32.294
431.68	33.387
432.04	32.451
432.39	32.737
432.74	33.109
433.10	32.365
433.45	31.893
433.80	32.069
434.16	31.841
434.51	31.739
434.86	33.863
435.22	32.937
435.57	31.880
435.92	32.268
436.28	31.532
436.63	31.178
436.98	31.492
437.34	31.807
437.69	31.995
438.04	31.070
438.39	32.005
438.75	32.300
439.10	32.215
439.45	32.324
439.81	31.650
440.16	32.754
440.51	31.570
440.86	32.306
441.22	31.956
441.57	31.725
441.92	32.348
442.27	31.764
442.63	30.893
442.98	31.481
443.33	31.885
443.68	31.313
444.03	31.694
444.39	32.722
444.74	30.922
445.09	31.443
445.44	31.211
445.79	31.905
446.15	32.224
446.50	30.892
446.85	31.694
447.20	31.887
447.55	32.345
447.91	31.966
448.26	32.247
448.61	31.703
448.96	31.093
449.31	32.439
449.66	30.654
450.02	31.950
450.37	31.316
450.72	31.860
451.07	31.599
451.42	31.129
451.77	31.284
452.12	31.491
452.47	32.989
452.83	31.073
453.18	31.190
453.53	31.967
453.88	31.325
454.23	32.509
454.58	30.944
454.93	30.597
455.28	32.241
455.63	30.755
455.98	30.980
456.34	31.087
456.69	31.757
457.04	30.341
457.39	30.728
457.74	30.640
458.09	30.154
458.44	29.260
458.79	30.588
459.14	30.337
459.49	30.915
459.84	29.820
460.19	28.631
460.54	30.596
460.89	30.574
461.24	31.011
461.59	30.133
461.94	30.278
462.29	30.331
462.64	30.607
462.99	30.516
463.34	31.699
463.69	29.897
464.04	30.072
464.39	30.628
464.74	30.713
465.09	30.874
465.44	30.696
465.79	31.052
466.14	29.647
466.49	30.499
466.84	30.723
467.19	30.127
467.54	30.331
467.89	30.924
468.24	30.178
468.59	30.338
468.94	30.524
469.29	29.941
469.64	30.474
469.99	31.310
470.34	30.411
470.68	30.260
471.03	30.465
471.38	30.668
471.73	29.973
472.08	30.790
472.43	29.551
472.78	29.953
473.13	29.288
473.48	30.137
473.83	29.127
474.17	29.818
474.52	30.356
474.87	29.554
475.22	30.374
475.57	30.396
475.92	30.098
476.27	28.904
476.61	28.313
476.96	29.526
477.31	29.126
477.66	30.113
478.01	29.011
478.36	28.665
478.70	28.947
479.05	30.133
479.40	29.745
479.75	29.224
480.10	30.546
480.45	29.230
480.79	29.069
481.14	29.230
481.49	29.107
481.84	28.982
482.19	29.180
482.53	29.857
482.88	29.530
483.23	28.056
483.58	29.112
483.92	28.696
484.27	28.225
484.62	28.540
484.97	29.448
485.31	28.220
485.66	26.640
486.01	26.466
486.36	26.670
486.70	26.434
487.05	27.951
487.40	27.693
487.75	28.854
488.09	28.277
488.44	28.461
488.79	28.955
489.13	28.748
489.48	29.329
489.83	28.495
490.17	28.552
490.52	29.032
490.87	28.280
491.22	29.157
491.56	28.749
491.91	29.237
492.26	29.110
492.60	28.042
492.95	29.252
493.30	27.229
493.64	28.585
493.99	28.889
494.34	28.131
494.68	28.831
495.03	29.150
495.37	27.786
495.72	28.972
496.07	28.641
496.41	27.796
496.76	27.971
497.11	28.263
497.45	28.453
497.80	28.925
498.14	29.270
498.49	28.543
498.84	28.036
499.18	28.223
499.53	28.557
499.87	28.093
500.22	28.472
500.56	29.137
500.91	28.571
501.26	28.374
501.60	28.039
501.95	28.366
502.29	27.961
502.64	28.640
502.98	27.890
503.33	27.737
503.67	28.870
504.02	28.039
504.36	28.232
504.71	27.947
505.06	28.732
505.40	28.402
505.75	28.484
506.09	27.338
506.44	28.226
506.78	28.085
507.13	28.222
507.47	28.261
507.82	27.473
508.16	29.340
508.51	27.634
508.85	27.372
509.19	28.466
509.54	28.043
509.88	27.796
510.23	27.632
510.57	27.807
510.92	27.425
511.26	28.108
511.61	28.430
511.95	27.122
512.30	27.707
512.64	29.171
512.98	28.199
513.33	27.662
513.67	27.939
514.02	28.335
514.36	28.202
514.70	27.887
515.05	28.847
515.39	28.184
515.74	28.478
516.08	28.673
516.42	28.053
516.77	27.299
517.11	28.571
517.46	28.451
517.80	28.692
518.14	27.557
518.49	27.908
518.83	27.864
519.17	27.771
519.52	27.865
519.86	28.597
520.20	27.653
520.55	28.358
520.89	28.463
521.23	28.397
521.58	28.951
521.92	27.907
522.26	28.367
522.61	28.636
522.95	28.433
523.29	28.317
523.64	28.163
523.98	28.272
524.32	27.977
524.66	27.338
525.01	27.982
525.35	27.979
525.69	27.568
526.04	28.143
526.38	27.852
526.72	28.271
527.06	27.595
527.41	27.267
527.75	27.503
528.09	28.591
528.43	28.155
528.78	28.230
529.12	27.555
529.46	27.255
529.80	27.961
530.15	27.027
530.49	27.426
530.83	28.436
531.17	28.151
531.51	26.972
531.86	27.642
532.20	27.636
532.54	27.379
532.88	27.229
533.22	28.081
533.57	27.483
533.91	27.613
534.25	26.823
534.59	26.641
534.93	27.679
535.27	26.815
535.62	27.895
535.96	27.066
536.30	26.995
536.64	26.931
536.98	27.120
537.32	27.117
537.66	25.882
538.01	27.254
538.35	27.003
538.69	26.288
539.03	26.174
539.37	26.425
539.71	27.217
540.05	26.518
540.39	26.703
540.73	26.816
541.07	27.007
541.42	26.936
541.76	27.199
542.10	26.743
542.44	27.027
542.78	27.689
543.12	27.022
543.46	25.639
543.80	26.069
544.14	27.392
544.48	25.879
544.82	25.891
545.16	26.910
545.50	26.806
545.84	26.297
546.18	27.139
546.52	25.900
546.86	26.926
547.20	25.876
547.54	26.447
547.88	26.451
548.22	25.407
548.56	26.217
548.90	24.899
549.24	25.625
549.58	26.192
549.92	26.853
550.26	27.454
550.60	26.502
550.94	25.448
551.28	25.511
551.62	26.466
551.96	25.549
552.30	25.109
552.64	25.989
552.98	27.628
553.32	26.244
553.66	26.853
554.00	26.062
554.34	25.934
554.68	26.696
555.02	26.123
555.36	26.324
555.69	25.127
556.03	25.947
556.37	26.316
556.71	26.419
557.05	25.387
557.39	26.225
557.73	27.458
558.07	26.375
558.41	27.025
558.75	27.560
559.08	24.379
559.42	26.279
559.76	26.529
560.10	25.903
560.44	25.497
560.78	25.252
561.12	25.018
561.45	25.374
561.79	25.928
562.13	26.793
562.47	25.786
562.81	25.541
563.15	24.575
563.48	25.671
563.82	26.471
564.16	25.525
564.50	25.645
564.84	25.608
565.17	25.497
565.51	25.201
565.85	24.650
566.19	24.636
566.52	25.098
566.86	23.767
567.20	24.985
567.54	24.525
567.88	24.412
568.21	24.063
568.55	23.526
568.89	23.579
569.23	24.060
569.56	23.321
569.90	23.121
570.24	22.094
570.57	22.825
570.91	22.470
571.25	22.070
571.59	22.550
571.92	22.147
572.26	22.394
572.60	22.667
572.93	22.243
573.27	22.229
573.61	22.545
573.95	22.131
574.28	22.248
574.62	21.945
574.96	21.777
575.29	21.715
575.63	22.023
575.97	21.658
576.30	21.696
576.64	21.954
576.98	21.973
577.31	21.491
577.65	21.339
577.98	21.477
578.32	21.557
578.66	21.470
578.99	22.136
579.33	21.614
579.67	21.869
580.00	21.118
580.34	21.910
580.67	21.705
581.01	21.315
581.35	21.436
581.68	21.314
582.02	21.243
582.35	21.242
582.69	21.372
583.02	21.282
583.36	21.979
583.70	21.735
584.03	22.297
584.37	21.776
584.70	21.545
585.04	21.791
585.37	21.555
585.71	21.466
586.04	21.328
586.38	20.626
586.72	21.579
587.05	21.489
587.39	21.043
587.72	21.596
588.06	21.423
588.39	21.662
588.73	21.239
589.06	21.985
589.40	21.981
589.73	21.631
590.07	22.020
590.40	22.113
590.73	22.083
591.07	22.357
591.40	22.435
591.74	22.232
592.07	22.455
592.41	22.823
592.74	21.412
593.08	21.197
593.41	21.644
593.75	21.189
594.08	21.174
594.41	21.426
594.75	21.214
595.08	21.546
595.42	20.508
595.75	21.620
596.09	21.901
596.42	21.773
596.75	22.729
597.09	22.975
597.42	22.746
597.75	22.578
598.09	22.222
598.42	21.924
598.76	21.746
599.09	21.649
599.42	21.715
599.76	21.217
600.09	21.310
600.42	21.582
600.76	21.249
601.09	21.657
601.42	21.129
601.76	21.197
602.09	21.524
602.42	21.750
602.76	21.435
603.09	21.725
603.42	21.351
603.76	21.434
604.09	21.186
604.42	20.971
604.76	20.995
605.09	21.522
605.42	22.762
605.75	21.499
606.09	21.192
606.42	21.820
606.75	21.645
607.09	21.853
607.42	20.928
607.75	20.219
608.08	21.912
608.42	21.181
608.75	22.360
609.08	21.950
609.41	22.255
609.75	21.230
610.08	22.189
610.41	21.817
610.74	21.992
611.07	20.942
611.41	22.006
611.74	22.205
612.07	20.479
612.40	22.811
612.73	21.844
613.07	21.452
613.40	22.412
613.73	22.319
614.06	22.001
614.39	21.512
614.72	22.932
615.06	21.556
615.39	21.634
615.72	21.004
616.05	21.509
616.38	22.165
616.71	21.596
617.05	22.543
617.38	21.873
617.71	20.221
618.04	21.450
618.37	22.902
618.70	21.863
619.03	21.924
619.36	22.776
619.69	22.076
620.03	22.049
620.36	21.851
620.69	21.413
621.02	21.538
621.35	22.486
621.68	23.146
622.01	23.139
622.34	22.125
622.67	22.318
623.00	22.264
623.33	22.139
623.66	22.156
623.99	23.256
624.32	22.084
624.65	21.884
624.99	22.924
625.32	22.181
625.65	22.248
625.98	22.275
626.31	22.204
626.64	22.528
626.97	22.491
627.30	23.867
627.63	21.886
627.96	22.511
628.29	24.093
628.62	23.985
628.95	24.148
629.28	22.660
629.61	22.679
629.94	23.404
630.26	23.645
630.59	23.377
630.92	23.494
631.25	22.554
631.58	23.340
631.91	22.587
632.24	23.052
632.57	23.333
632.90	24.037
633.23	22.422
633.56	23.981
633.89	24.641
