SpectraSuite Data File
++++++++++++++++++++++++++++++++++++
Date: Wed May 13 21:02:27 PDT 2015
User: schluterlab
Dark Spectrum Present: Yes
Reference Spectrum Present: Yes
Number of Sampled Component Spectra: 1
Spectrometers: USB2E3373
Integration Time (usec): 3000 (USB2E3373)
Spectra Averaged: 3 (USB2E3373)
Boxcar Smoothing: 0 (USB2E3373)
Correct for Electrical Dark: No (USB2E3373)
Strobe/Lamp Enabled: No (USB2E3373)
Correct for Detector Non-linearity: No (USB2E3373)
Correct for Stray Light: No (USB2E3373)
Number of Pixels in Processed Spectrum: 2048
>>>>>Begin Processed Spectral Data<<<<<
178.53	0.000
178.91	350.000
179.29	83.333
179.67	-350.000
180.04	-33.333
180.42	180.000
180.80	1300.000
181.18	133.333
181.56	0.000
181.94	0.000
182.31	54.545
182.69	107.692
183.07	-20.000
183.45	16.667
183.83	77.778
184.20	142.857
184.58	200.000
184.96	-166.667
185.34	185.714
185.72	0.000
186.09	100.000
186.47	-240.000
186.85	-80.000
187.23	300.000
187.61	-100.000
187.98	800.000
188.36	50.000
188.74	0.000
189.12	63.636
189.49	100.000
189.87	58.333
190.25	260.000
190.63	400.000
191.00	-40.000
191.38	160.000
191.76	100.000
192.14	108.333
192.51	0.000
192.89	333.333
193.27	200.000
193.65	-20.000
194.02	118.182
194.40	90.000
194.78	300.000
195.15	80.000
195.53	40.000
195.91	50.000
196.29	366.667
196.66	0.000
197.04	150.000
197.42	160.000
197.79	20.000
198.17	62.500
198.55	-100.000
198.92	100.000
199.30	66.667
199.68	50.000
200.05	500.000
200.43	-50.000
200.81	-600.000
201.18	60.000
201.56	-100.000
201.94	275.000
202.31	13.043
202.69	85.714
203.07	-233.333
203.44	-100.000
203.82	-266.667
204.19	50.000
204.57	0.000
204.95	33.333
205.32	0.000
205.70	-250.000
206.08	100.000
206.45	116.667
206.83	125.000
207.20	-333.333
207.58	50.000
207.96	-500.000
208.33	-185.714
208.71	-1000.000
209.08	137.500
209.46	200.000
209.84	0.000
210.21	30.000
210.59	1500.000
210.96	260.000
211.34	-300.000
211.71	-450.000
212.09	-216.667
212.46	-80.000
212.84	66.667
213.22	225.000
213.59	-600.000
213.97	-250.000
214.34	-450.000
214.72	0.000
215.09	212.500
215.47	44.444
215.84	500.000
216.22	-125.000
216.59	300.000
216.97	466.667
217.34	44.444
217.72	0.000
218.09	233.333
218.47	500.000
218.84	71.429
219.22	50.000
219.59	-133.333
219.97	-100.000
220.34	-62.500
220.72	20.000
221.09	0.000
221.47	-66.667
221.84	100.000
222.22	0.000
222.59	-500.000
222.97	0.000
223.34	16.667
223.72	-700.000
224.09	-800.000
224.46	-36.364
224.84	50.000
225.21	-71.429
225.59	-250.000
225.96	-100.000
226.34	-40.000
226.71	-28.571
227.08	350.000
227.46	37.500
227.83	0.000
228.21	37.500
228.58	-250.000
228.95	-5.882
229.33	12.500
229.70	-12.500
230.08	7.692
230.45	-75.000
230.82	-50.000
231.20	-14.286
231.57	-50.000
231.95	-0.000
232.32	66.667
232.69	0.000
233.07	-100.000
233.44	-8.696
233.81	-1050.000
234.19	45.833
234.56	-26.667
234.93	6.667
235.31	15.789
235.68	-38.462
236.05	23.077
236.43	-27.778
236.80	-15.152
237.17	-53.333
237.55	-47.059
237.92	-10.345
238.29	-40.741
238.67	11.111
239.04	-3.226
239.41	12.766
239.79	23.404
240.16	32.558
240.53	0.000
240.91	10.714
241.28	0.000
241.65	-4.839
242.02	13.158
242.40	2.899
242.77	-5.797
243.14	2.564
243.51	11.702
243.89	7.692
244.26	20.755
244.63	-6.731
245.00	8.333
245.38	5.882
245.75	4.918
246.12	1.504
246.49	-3.252
246.87	-9.244
247.24	7.432
247.61	6.623
247.98	5.128
248.36	0.000
248.73	7.865
249.10	6.061
249.47	5.914
249.84	5.263
250.22	9.950
250.59	8.411
250.96	8.636
251.33	-0.478
251.70	13.389
252.08	5.439
252.45	14.403
252.82	6.464
253.19	8.949
253.56	6.475
253.94	13.879
254.31	4.930
254.68	9.732
255.05	7.261
255.42	10.140
255.79	6.442
256.16	9.148
256.54	7.937
256.91	4.430
257.28	8.491
257.65	3.185
258.02	6.745
258.39	7.602
258.76	5.233
259.14	6.818
259.51	8.989
259.88	9.214
260.25	6.944
260.62	3.933
260.99	10.080
261.36	11.399
261.73	7.901
262.10	4.835
262.47	4.691
262.85	6.716
263.22	7.949
263.59	8.312
263.96	7.056
264.33	7.452
264.70	9.302
265.07	7.407
265.44	9.195
265.81	8.924
266.18	7.745
266.55	5.022
266.92	5.932
267.29	6.173
267.66	7.856
268.03	8.848
268.40	5.085
268.77	5.372
269.14	7.959
269.51	10.062
269.88	8.147
270.25	6.992
270.62	5.533
270.99	9.843
271.36	7.341
271.73	7.028
272.10	7.810
272.47	9.789
272.84	9.843
273.21	6.654
273.58	7.992
273.95	8.679
274.32	8.209
274.69	7.832
275.06	8.657
275.43	6.403
275.80	8.865
276.17	7.919
276.54	6.039
276.91	8.014
277.28	5.596
277.65	7.517
278.02	6.607
278.39	6.217
278.76	8.863
279.13	8.062
279.50	7.241
279.87	7.428
280.23	5.946
280.60	4.671
280.97	6.818
281.34	9.937
281.71	6.667
282.08	7.350
282.45	7.541
282.82	7.188
283.19	7.470
283.56	7.031
283.92	7.187
284.29	6.084
284.66	7.414
285.03	8.143
285.40	6.042
285.77	5.856
286.14	5.015
286.51	8.546
286.87	5.692
287.24	6.490
287.61	7.380
287.98	9.265
288.35	6.259
288.72	8.034
289.08	7.550
289.45	6.167
289.82	8.018
290.19	6.732
290.56	8.665
290.93	7.182
291.29	6.703
291.66	6.557
292.03	7.766
292.40	6.191
292.77	7.764
293.13	8.229
293.50	8.235
293.87	5.867
294.24	6.217
294.60	6.892
294.97	8.730
295.34	4.749
295.71	6.045
296.08	5.890
296.44	6.250
296.81	4.872
297.18	7.125
297.55	6.840
297.91	5.466
298.28	7.264
298.65	5.911
299.02	8.059
299.38	5.890
299.75	7.572
300.12	6.395
300.48	6.901
300.85	6.582
301.22	7.085
301.59	5.986
301.95	6.039
302.32	5.018
302.69	4.520
303.05	5.537
303.42	6.250
303.79	6.204
304.15	6.024
304.52	7.312
304.89	4.873
305.25	5.379
305.62	6.833
305.99	6.964
306.35	7.106
306.72	6.918
307.09	6.986
307.45	6.922
307.82	4.526
308.19	5.747
308.55	5.425
308.92	6.680
309.29	6.507
309.65	5.495
310.02	6.461
310.38	6.402
310.75	6.312
311.12	7.386
311.48	7.517
311.85	6.890
312.22	7.640
312.58	6.957
312.95	6.468
313.31	7.622
313.68	8.206
314.05	7.089
314.41	8.934
314.78	8.349
315.14	8.241
315.51	7.802
315.87	7.878
316.24	9.642
316.61	8.858
316.97	9.907
317.34	8.734
317.70	10.526
318.07	9.317
318.43	9.575
318.80	10.471
319.16	10.698
319.53	11.022
319.89	9.846
320.26	12.569
320.62	11.770
320.99	12.112
321.35	11.413
321.72	13.186
322.08	12.823
322.45	14.246
322.81	13.216
323.18	13.864
323.54	15.614
323.91	14.363
324.27	14.851
324.64	14.808
325.00	13.911
325.37	16.382
325.73	16.414
326.10	16.148
326.46	16.555
326.83	16.990
327.19	17.480
327.56	17.647
327.92	17.377
328.29	19.199
328.65	18.668
329.01	18.734
329.38	20.522
329.74	19.828
330.11	19.387
330.47	18.837
330.84	19.675
331.20	20.154
331.56	19.928
331.93	21.447
332.29	22.415
332.66	20.000
333.02	21.373
333.38	21.579
333.75	19.795
334.11	21.441
334.48	21.970
334.84	20.848
335.20	21.355
335.57	20.540
335.93	20.790
336.29	23.117
336.66	20.940
337.02	20.783
337.38	21.149
337.75	23.084
338.11	21.776
338.47	21.747
338.84	21.564
339.20	21.693
339.56	21.758
339.93	21.175
340.29	22.374
340.65	23.610
341.02	21.381
341.38	22.973
341.74	21.681
342.11	21.883
342.47	21.088
342.83	22.059
343.20	23.096
343.56	22.813
343.92	22.665
344.28	22.565
344.65	22.776
345.01	22.437
345.37	25.082
345.73	24.346
346.10	22.873
346.46	21.951
346.82	22.953
347.19	23.576
347.55	23.990
347.91	22.058
348.27	23.975
348.63	23.798
349.00	23.428
349.36	24.176
349.72	23.511
350.08	24.337
350.45	22.709
350.81	24.335
351.17	25.173
351.53	25.216
351.89	23.749
352.26	23.861
352.62	23.333
352.98	23.403
353.34	24.718
353.70	23.910
354.07	24.471
354.43	24.806
354.79	24.760
355.15	23.525
355.51	24.146
355.87	24.394
356.24	25.120
356.60	23.612
356.96	25.096
357.32	24.613
357.68	23.988
358.04	25.136
358.40	24.961
358.77	25.459
359.13	24.514
359.49	24.754
359.85	24.564
360.21	26.137
360.57	25.247
360.93	25.645
361.29	25.315
361.66	25.437
362.02	24.685
362.38	25.702
362.74	24.946
363.10	25.090
363.46	25.432
363.82	24.760
364.18	25.961
364.54	24.945
364.90	25.366
365.26	25.478
365.62	25.994
365.98	26.192
366.35	27.163
366.71	25.820
367.07	25.443
367.43	26.132
367.79	26.963
368.15	26.723
368.51	26.160
368.87	26.727
369.23	27.117
369.59	25.722
369.95	26.778
370.31	25.872
370.67	25.851
371.03	26.652
371.39	27.253
371.75	26.500
372.11	26.282
372.47	26.460
372.83	26.144
373.19	26.978
373.55	26.879
373.91	26.308
374.27	26.418
374.63	26.743
374.99	26.323
375.35	26.438
375.71	26.630
376.07	27.210
376.42	26.738
376.78	28.005
377.14	28.000
377.50	27.119
377.86	27.158
378.22	27.750
378.58	27.869
378.94	27.375
379.30	27.233
379.66	26.572
380.02	27.635
380.38	28.434
380.74	26.599
381.09	27.503
381.45	27.509
381.81	26.925
382.17	27.599
382.53	28.246
382.89	27.624
383.25	27.654
383.61	27.966
383.97	27.875
384.32	27.410
384.68	28.192
385.04	27.184
385.40	28.456
385.76	28.406
386.12	27.502
386.48	27.335
386.83	27.284
387.19	27.144
387.55	27.897
387.91	28.844
388.27	27.682
388.62	27.965
388.98	28.786
389.34	28.070
389.70	28.327
390.06	28.500
390.42	28.866
390.77	28.123
391.13	28.535
391.49	28.526
391.85	28.243
392.20	28.697
392.56	28.508
392.92	27.501
393.28	28.937
393.64	27.951
393.99	27.785
394.35	28.333
394.71	28.269
395.07	27.233
395.42	28.885
395.78	28.507
396.14	28.535
396.50	28.091
396.85	28.489
397.21	28.152
397.57	27.453
397.92	27.126
398.28	28.878
398.64	27.322
399.00	28.460
399.35	28.604
399.71	27.781
400.07	28.072
400.42	28.150
400.78	27.976
401.14	28.326
401.49	27.561
401.85	27.703
402.21	28.669
402.57	27.713
402.92	29.599
403.28	28.080
403.63	27.464
403.99	27.767
404.35	28.367
404.70	27.553
405.06	27.775
405.42	26.570
405.77	27.707
406.13	27.314
406.49	27.142
406.84	26.984
407.20	26.880
407.55	27.532
407.91	26.870
408.27	26.887
408.62	28.300
408.98	26.819
409.34	25.804
409.69	27.615
410.05	27.363
410.40	26.598
410.76	27.196
411.11	27.239
411.47	27.074
411.83	27.137
412.18	26.511
412.54	26.504
412.89	26.270
413.25	26.372
413.60	26.395
413.96	26.654
414.31	26.695
414.67	27.873
415.03	26.793
415.38	25.495
415.74	26.966
416.09	26.966
416.45	26.384
416.80	26.376
417.16	27.598
417.51	26.055
417.87	26.190
418.22	25.856
418.58	25.624
418.93	25.926
419.29	27.129
419.64	25.891
420.00	27.175
420.35	25.822
420.71	26.508
421.06	25.646
421.42	26.217
421.77	25.896
422.12	25.673
422.48	25.136
422.83	25.989
423.19	25.417
423.54	26.678
423.90	26.128
424.25	26.112
424.61	25.816
424.96	25.547
425.31	24.061
425.67	25.867
426.02	26.148
426.38	25.311
426.73	25.412
427.09	25.016
427.44	26.835
427.79	24.762
428.15	24.648
428.50	24.834
428.85	25.646
429.21	24.986
429.56	24.973
429.92	25.612
430.27	24.233
430.62	24.554
430.98	25.119
431.33	24.718
431.68	25.027
432.04	25.465
432.39	25.173
432.74	24.770
433.10	25.160
433.45	25.562
433.80	24.770
434.16	24.358
434.51	24.293
434.86	25.029
435.22	24.844
435.57	24.324
435.92	24.367
436.28	23.904
436.63	23.845
436.98	23.619
437.34	24.359
437.69	24.439
438.04	23.486
438.39	24.595
438.75	23.361
439.10	24.870
439.45	24.213
439.81	24.200
440.16	24.464
440.51	24.138
440.86	23.651
441.22	24.383
441.57	24.187
441.92	23.795
442.27	24.134
442.63	22.982
442.98	23.206
443.33	23.928
443.68	23.247
444.03	23.696
444.39	23.946
444.74	23.026
445.09	23.678
445.44	24.225
445.79	23.129
446.15	24.237
446.50	23.403
446.85	23.410
447.20	22.791
447.55	22.552
447.91	23.258
448.26	23.385
448.61	23.188
448.96	23.633
449.31	23.758
449.66	22.788
450.02	22.456
450.37	22.738
450.72	22.503
451.07	22.884
451.42	22.645
451.77	24.528
452.12	22.698
452.47	23.047
452.83	23.290
453.18	22.279
453.53	22.446
453.88	22.892
454.23	22.621
454.58	22.304
454.93	22.899
455.28	22.736
455.63	21.896
455.98	21.850
456.34	21.869
456.69	21.150
457.04	21.796
457.39	21.347
457.74	21.364
458.09	21.445
458.44	22.033
458.79	20.923
459.14	20.899
459.49	21.768
459.84	21.984
460.19	22.029
460.54	21.290
460.89	21.453
461.24	21.763
461.59	21.558
461.94	22.440
462.29	20.650
462.64	21.570
462.99	20.993
463.34	21.133
463.69	21.134
464.04	20.348
464.39	21.110
464.74	21.130
465.09	20.583
465.44	20.932
465.79	21.162
466.14	20.525
466.49	19.531
466.84	20.383
467.19	20.573
467.54	21.387
467.89	19.987
468.24	20.590
468.59	20.905
468.94	20.881
469.29	20.820
469.64	20.851
469.99	20.759
470.34	20.297
470.68	20.967
471.03	19.746
471.38	20.306
471.73	19.547
472.08	19.863
472.43	20.844
472.78	20.554
473.13	19.063
473.48	19.243
473.83	19.335
474.17	19.792
474.52	18.576
474.87	18.999
475.22	18.478
475.57	18.740
475.92	19.248
476.27	19.522
476.61	18.969
476.96	19.303
477.31	19.040
477.66	19.492
478.01	19.066
478.36	18.856
478.70	18.904
479.05	19.978
479.40	18.201
479.75	19.182
480.10	19.633
480.45	18.146
480.79	18.865
481.14	19.149
481.49	18.944
481.84	17.861
482.19	18.898
482.53	18.476
482.88	18.936
483.23	17.854
483.58	19.234
483.92	18.045
484.27	17.749
484.62	17.532
484.97	18.125
485.31	18.052
485.66	17.039
486.01	17.011
486.36	16.420
486.70	17.063
487.05	17.271
487.40	17.525
487.75	18.088
488.09	17.297
488.44	17.911
488.79	18.509
489.13	17.535
489.48	17.614
489.83	17.463
490.17	17.295
490.52	18.139
490.87	17.339
491.22	17.664
491.56	17.920
491.91	17.811
492.26	17.070
492.60	16.979
492.95	17.784
493.30	17.587
493.64	16.835
493.99	17.826
494.34	17.486
494.68	17.136
495.03	16.897
495.37	17.324
495.72	17.093
496.07	17.340
496.41	16.144
496.76	16.865
497.11	17.042
497.45	16.780
497.80	17.012
498.14	17.683
498.49	16.894
498.84	16.903
499.18	16.974
499.53	16.494
499.87	15.623
500.22	16.625
500.56	17.553
500.91	17.153
501.26	16.897
501.60	16.422
501.95	16.627
502.29	16.942
502.64	17.502
502.98	16.715
503.33	16.107
503.67	17.089
504.02	16.520
504.36	16.295
504.71	16.108
505.06	17.015
505.40	16.856
505.75	17.040
506.09	16.760
506.44	16.129
506.78	16.557
507.13	16.788
507.47	16.331
507.82	16.117
508.16	16.781
508.51	16.219
508.85	16.433
509.19	16.296
509.54	16.944
509.88	16.559
510.23	16.211
510.57	16.419
510.92	16.002
511.26	16.722
511.61	16.465
511.95	16.207
512.30	15.713
512.64	16.288
512.98	16.676
513.33	15.606
513.67	16.468
514.02	16.306
514.36	16.124
514.70	15.935
515.05	16.501
515.39	15.979
515.74	15.867
516.08	16.460
516.42	15.783
516.77	15.407
517.11	16.108
517.46	16.086
517.80	15.981
518.14	16.228
518.49	15.973
518.83	16.050
519.17	16.386
519.52	16.707
519.86	16.029
520.20	16.555
520.55	15.423
520.89	16.003
521.23	16.667
521.58	15.992
521.92	15.902
522.26	16.396
522.61	16.484
522.95	15.415
523.29	17.079
523.64	15.385
523.98	14.994
524.32	15.879
524.66	16.104
525.01	16.448
525.35	17.248
525.69	16.501
526.04	15.375
526.38	15.551
526.72	16.108
527.06	16.505
527.41	15.420
527.75	16.021
528.09	16.406
528.43	15.875
528.78	15.052
529.12	15.718
529.46	15.931
529.80	15.599
530.15	15.058
530.49	16.509
530.83	16.385
531.17	15.479
531.51	15.577
531.86	16.057
532.20	16.058
532.54	16.069
532.88	15.589
533.22	15.960
533.57	15.695
533.91	16.194
534.25	16.146
534.59	15.251
534.93	15.306
535.27	15.414
535.62	15.197
535.96	15.224
536.30	15.758
536.64	15.243
536.98	15.417
537.32	15.943
537.66	15.867
538.01	16.158
538.35	15.262
538.69	14.783
539.03	15.101
539.37	15.292
539.71	14.529
540.05	15.047
540.39	14.797
540.73	15.084
541.07	16.054
541.42	15.488
541.76	15.900
542.10	15.437
542.44	15.523
542.78	14.851
543.12	15.229
543.46	14.858
543.80	14.460
544.14	16.036
544.48	14.267
544.82	15.333
545.16	15.010
545.50	15.598
545.84	14.586
546.18	15.498
546.52	15.808
546.86	14.417
547.20	14.582
547.54	13.867
547.88	15.655
548.22	14.984
548.56	14.343
548.90	14.411
549.24	14.514
549.58	14.448
549.92	15.187
550.26	15.277
550.60	14.489
550.94	13.507
551.28	13.929
551.62	14.812
551.96	15.227
552.30	13.464
552.64	13.771
552.98	14.773
553.32	14.203
553.66	14.160
554.00	13.535
554.34	14.799
554.68	14.541
555.02	14.521
555.36	15.129
555.69	13.547
556.03	14.010
556.37	13.300
556.71	14.506
557.05	14.244
557.39	13.489
557.73	15.431
558.07	14.393
558.41	15.216
558.75	14.319
559.08	14.595
559.42	13.690
559.76	14.985
560.10	13.759
560.44	13.854
560.78	13.885
561.12	13.875
561.45	13.946
561.79	14.718
562.13	14.627
562.47	14.357
562.81	14.141
563.15	14.306
563.48	13.627
563.82	14.569
564.16	14.557
564.50	14.790
564.84	13.986
565.17	14.172
565.51	14.171
565.85	13.924
566.19	14.570
566.52	13.696
566.86	13.527
567.20	13.745
567.54	13.702
567.88	13.438
568.21	14.123
568.55	13.146
568.89	12.612
569.23	13.428
569.56	13.225
569.90	12.922
570.24	12.274
570.57	13.204
570.91	12.683
571.25	12.325
571.59	12.748
571.92	12.320
572.26	12.890
572.60	12.411
572.93	12.277
573.27	11.995
573.61	12.900
573.95	12.189
574.28	12.452
574.62	12.614
574.96	12.525
575.29	12.387
575.63	12.250
575.97	12.364
576.30	11.867
576.64	11.894
576.98	12.311
577.31	12.267
577.65	11.906
577.98	11.959
578.32	12.137
578.66	12.222
578.99	12.582
579.33	12.644
579.67	12.500
580.00	12.447
580.34	12.167
580.67	12.641
581.01	11.824
581.35	12.210
581.68	12.076
582.02	11.964
582.35	12.201
582.69	12.290
583.02	12.466
583.36	12.250
583.70	12.522
584.03	12.753
584.37	12.432
584.70	12.091
585.04	12.529
585.37	11.981
585.71	12.180
586.04	11.980
586.38	12.286
586.72	12.251
587.05	12.775
587.39	12.571
587.72	12.074
588.06	12.120
588.39	12.678
588.73	12.575
589.06	11.898
589.40	12.109
589.73	12.109
590.07	12.432
590.40	12.571
590.73	12.844
591.07	12.829
591.40	12.217
591.74	12.361
592.07	13.373
592.41	12.527
592.74	12.230
593.08	11.761
593.41	11.978
593.75	11.854
594.08	11.917
594.41	12.029
594.75	12.406
595.08	12.808
595.42	12.455
595.75	12.509
596.09	12.086
596.42	12.092
596.75	12.725
597.09	13.285
597.42	12.248
597.75	13.067
598.09	11.566
598.42	12.752
598.76	12.259
599.09	13.165
599.42	12.198
599.76	12.167
600.09	12.011
600.42	11.864
600.76	11.641
601.09	12.919
601.42	11.838
601.76	12.239
602.09	12.769
602.42	12.134
602.76	12.248
603.09	12.485
603.42	12.435
603.76	12.276
604.09	12.134
604.42	12.223
604.76	11.654
605.09	12.143
605.42	12.551
605.75	11.820
606.09	11.962
606.42	12.469
606.75	11.818
607.09	12.145
607.42	12.391
607.75	11.554
608.08	11.948
608.42	12.277
608.75	12.422
609.08	11.906
609.41	12.717
609.75	12.456
610.08	11.933
610.41	11.856
610.74	12.175
611.07	12.525
611.41	12.897
611.74	12.422
612.07	12.454
612.40	13.027
612.73	11.965
613.07	12.417
613.40	12.004
613.73	12.947
614.06	12.106
614.39	12.062
614.72	12.549
615.06	12.056
615.39	12.362
615.72	11.177
616.05	11.768
616.38	12.257
616.71	11.938
617.05	12.531
617.38	12.508
617.71	11.397
618.04	12.675
618.37	12.492
618.70	13.066
619.03	11.271
619.36	12.811
619.69	12.208
620.03	12.297
620.36	11.830
620.69	11.849
621.02	11.846
621.35	12.756
621.68	12.388
622.01	12.460
622.34	12.054
622.67	13.547
623.00	12.766
623.33	12.865
623.66	11.970
623.99	13.653
624.32	12.766
624.65	12.240
624.99	11.536
625.32	13.069
625.65	13.333
625.98	12.401
626.31	12.653
626.64	11.608
626.97	11.851
627.30	12.746
627.63	12.457
627.96	11.429
628.29	12.930
628.62	13.636
628.95	12.425
629.28	13.005
629.61	13.397
629.94	13.346
630.26	13.695
630.59	12.687
630.92	12.048
631.25	11.535
631.58	12.741
631.91	12.407
632.24	13.941
632.57	11.333
632.90	12.952
633.23	11.751
633.56	14.508
633.89	13.995
634.22	15.312
634.55	14.129
634.88	12.623
635.20	12.500
635.53	12.920
635.86	13.077
636.19	14.516
636.52	11.585
636.85	12.304
637.18	12.058
637.51	12.734
637.83	13.708
638.16	11.200
