SpectraSuite Data File
++++++++++++++++++++++++++++++++++++
Date: Wed May 13 20:38:56 PDT 2015
User: schluterlab
Dark Spectrum Present: Yes
Reference Spectrum Present: Yes
Number of Sampled Component Spectra: 1
Spectrometers: USB2E3373
Integration Time (usec): 3000 (USB2E3373)
Spectra Averaged: 3 (USB2E3373)
Boxcar Smoothing: 0 (USB2E3373)
Correct for Electrical Dark: No (USB2E3373)
Strobe/Lamp Enabled: No (USB2E3373)
Correct for Detector Non-linearity: No (USB2E3373)
Correct for Stray Light: No (USB2E3373)
Number of Pixels in Processed Spectrum: 2048
>>>>>Begin Processed Spectral Data<<<<<
178.53	0.000
178.91	-725.000
179.29	-750.000
179.67	-122.222
180.04	-925.000
180.42	1550.000
180.80	760.000
181.18	-850.000
181.56	557.143
181.94	0.000
182.31	-385.714
182.69	1366.667
183.07	-337.500
183.45	-400.000
183.83	418.182
184.20	-240.000
184.58	1350.000
184.96	3300.000
185.34	-640.000
185.72	-400.000
186.09	-1300.000
186.47	2050.000
186.85	1550.000
187.23	3900.000
187.61	-1266.667
187.98	1050.000
188.36	418.182
188.74	445.455
189.12	-540.000
189.49	430.000
189.87	-3200.000
190.25	-850.000
190.63	307.143
191.00	307.692
191.38	683.333
191.76	-850.000
192.14	1000.000
192.51	362.500
192.89	633.333
193.27	412.500
193.65	-850.000
194.02	360.000
194.40	720.000
194.78	350.000
195.15	375.000
195.53	470.000
195.91	-1550.000
196.29	243.750
196.66	236.842
197.04	-230.000
197.42	0.000
197.79	450.000
198.17	-3800.000
198.55	642.857
198.92	487.500
199.30	640.000
199.68	0.000
200.05	244.444
200.43	514.286
200.81	3000.000
201.18	1433.333
201.56	-1266.667
201.94	377.778
202.31	500.000
202.69	341.667
203.07	380.000
203.44	0.000
203.82	825.000
204.19	628.571
204.57	400.000
204.95	537.500
205.32	1166.667
205.70	363.636
206.08	278.571
206.45	1900.000
206.83	256.250
207.20	733.333
207.58	500.000
207.96	255.556
208.33	637.500
208.71	-583.333
209.08	614.286
209.46	433.333
209.84	363.636
210.21	-933.333
210.59	750.000
210.96	-375.000
211.34	2000.000
211.71	430.000
212.09	816.667
212.46	0.000
212.84	1166.667
213.22	925.000
213.59	-2800.000
213.97	566.667
214.34	514.286
214.72	500.000
215.09	740.000
215.47	-1400.000
215.84	-1950.000
216.22	1266.667
216.59	242.857
216.97	1075.000
217.34	318.182
217.72	-683.333
218.09	0.000
218.47	-4400.000
218.84	444.444
219.22	442.857
219.59	1100.000
219.97	-428.571
220.34	440.000
220.72	-1233.333
221.09	378.571
221.47	1100.000
221.84	-750.000
222.22	0.000
222.59	875.000
222.97	-2200.000
223.34	860.000
223.72	353.846
224.09	780.000
224.46	1600.000
224.84	-3600.000
225.21	-620.000
225.59	-4100.000
225.96	400.000
226.34	210.000
226.71	1850.000
227.08	650.000
227.46	450.000
227.83	-900.000
228.21	-1750.000
228.58	422.222
228.95	-1850.000
229.33	-2100.000
229.70	1166.667
230.08	614.286
230.45	-680.000
230.82	350.000
231.20	550.000
231.57	300.000
231.95	325.000
232.32	163.636
232.69	300.000
233.07	528.571
233.44	269.231
233.81	-1233.333
234.19	215.789
234.56	325.000
234.93	258.333
235.31	390.909
235.68	238.462
236.05	292.857
236.43	136.364
236.80	194.737
237.17	3900.000
237.55	219.048
237.92	178.571
238.29	200.000
238.67	138.710
239.04	165.517
239.41	102.778
239.79	86.957
240.16	140.476
240.53	120.455
240.91	80.392
241.28	96.000
241.65	90.000
242.02	85.507
242.40	69.355
242.77	81.667
243.14	74.194
243.51	66.292
243.89	69.412
244.26	56.667
244.63	56.989
245.00	69.149
245.38	65.347
245.75	57.944
246.12	45.872
246.49	64.234
246.87	64.000
247.24	54.615
247.61	56.429
247.98	51.634
248.36	49.324
248.73	50.318
249.10	46.497
249.47	44.633
249.84	49.198
250.22	45.989
250.59	50.296
250.96	53.030
251.33	49.763
251.70	45.545
252.08	43.333
252.45	37.668
252.82	45.217
253.19	42.553
253.56	40.784
253.94	48.133
254.31	40.625
254.68	43.077
255.05	41.328
255.42	42.276
255.79	41.544
256.16	40.433
256.54	39.223
256.91	41.637
257.28	37.050
257.65	38.944
258.02	41.304
258.39	39.117
258.76	39.799
259.14	39.286
259.51	37.690
259.88	34.783
260.25	41.088
260.62	37.283
260.99	36.025
261.36	44.745
261.73	36.676
262.10	37.209
262.47	37.746
262.85	36.490
263.22	33.048
263.59	39.316
263.96	34.341
264.33	35.248
264.70	36.316
265.07	36.829
265.44	35.859
265.81	32.117
266.18	33.920
266.55	35.854
266.92	34.152
267.29	37.269
267.66	36.697
268.03	33.409
268.40	35.748
268.77	35.084
269.14	35.360
269.51	36.117
269.88	35.198
270.25	33.183
270.62	35.955
270.99	36.344
271.36	34.764
271.73	35.514
272.10	34.130
272.47	36.129
272.84	36.797
273.21	37.526
273.58	33.624
273.95	31.866
274.32	34.504
274.69	34.047
275.06	32.283
275.43	35.106
275.80	33.868
276.17	32.179
276.54	33.888
276.91	32.806
277.28	33.008
277.65	34.816
278.02	34.161
278.39	33.789
278.76	33.455
279.13	31.887
279.50	32.961
279.87	31.873
280.23	31.337
280.60	30.368
280.97	34.750
281.34	32.920
281.71	34.182
282.08	33.397
282.45	31.273
282.82	33.215
283.19	31.551
283.56	29.825
283.92	32.487
284.29	30.159
284.66	29.583
285.03	32.188
285.40	29.577
285.77	31.313
286.14	30.052
286.51	30.167
286.87	30.940
287.24	31.596
287.61	28.892
287.98	29.870
288.35	29.794
288.72	29.595
289.08	28.482
289.45	29.654
289.82	30.244
290.19	27.630
290.56	27.871
290.93	27.492
291.29	28.221
291.66	25.959
292.03	30.814
292.40	30.984
292.77	28.550
293.13	27.015
293.50	26.531
293.87	26.370
294.24	26.074
294.60	26.638
294.97	26.890
295.34	27.362
295.71	27.557
296.08	25.214
296.44	25.585
296.81	24.835
297.18	26.423
297.55	22.823
297.91	24.406
298.28	24.632
298.65	25.196
299.02	24.111
299.38	24.568
299.75	22.237
300.12	23.499
300.48	25.000
300.85	23.798
301.22	23.567
301.59	22.601
301.95	24.559
302.32	23.107
302.69	23.417
303.05	24.606
303.42	24.568
303.79	23.103
304.15	22.261
304.52	22.827
304.89	21.603
305.25	23.318
305.62	22.990
305.99	23.613
306.35	22.483
306.72	23.318
307.09	24.195
307.45	24.437
307.82	20.871
308.19	23.068
308.55	23.085
308.92	23.631
309.29	23.231
309.65	22.375
310.02	23.679
310.38	22.473
310.75	23.865
311.12	23.030
311.48	23.824
311.85	23.375
312.22	23.621
312.58	22.557
312.95	23.759
313.31	22.913
313.68	23.285
314.05	24.162
314.41	23.417
314.78	22.961
315.14	22.939
315.51	23.275
315.87	24.752
316.24	24.330
316.61	24.464
316.97	23.777
317.34	24.364
317.70	25.048
318.07	25.602
318.43	25.538
318.80	26.429
319.16	26.742
319.53	24.390
319.89	25.810
320.26	26.700
320.62	27.083
320.99	25.758
321.35	25.859
321.72	26.797
322.08	27.345
322.45	28.557
322.81	28.876
323.18	29.961
323.54	27.829
323.91	28.208
324.27	28.585
324.64	25.815
325.00	27.683
325.37	28.753
325.73	27.828
326.10	28.155
326.46	28.136
326.83	29.422
327.19	28.864
327.56	28.571
327.92	29.571
328.29	28.571
328.65	30.387
329.01	29.603
329.38	30.805
329.74	28.994
330.11	29.029
330.47	30.303
330.84	30.147
331.20	28.324
331.56	30.092
331.93	29.537
332.29	30.169
332.66	29.912
333.02	30.165
333.38	30.443
333.75	29.234
334.11	28.826
334.48	29.193
334.84	30.147
335.20	30.727
335.57	28.921
335.93	28.393
336.29	28.022
336.66	29.576
337.02	28.054
337.38	28.333
337.75	28.253
338.11	29.722
338.47	29.558
338.84	30.247
339.20	28.807
339.56	30.383
339.93	29.727
340.29	28.714
340.65	29.323
341.02	29.494
341.38	30.071
341.74	28.333
342.11	29.520
342.47	28.811
342.83	28.510
343.20	29.957
343.56	29.907
343.92	30.175
344.28	28.741
344.65	29.751
345.01	27.525
345.37	27.787
345.73	27.919
346.10	28.900
346.46	29.746
346.82	28.336
347.19	27.652
347.55	28.900
347.91	29.288
348.27	29.252
348.63	29.431
349.00	28.964
349.36	28.654
349.72	28.228
350.08	28.120
350.45	27.909
350.81	27.376
351.17	27.796
351.53	27.928
351.89	26.980
352.26	28.650
352.62	27.987
352.98	28.687
353.34	28.924
353.70	25.368
354.07	27.742
354.43	26.825
354.79	27.675
355.15	27.374
355.51	28.297
355.87	28.571
356.24	27.362
356.60	27.426
356.96	27.675
357.32	29.109
357.68	28.189
358.04	26.366
358.40	27.474
358.77	27.152
359.13	27.230
359.49	27.059
359.85	26.349
360.21	28.230
360.57	26.770
360.93	28.077
361.29	26.153
361.66	27.322
362.02	27.164
362.38	27.072
362.74	27.679
363.10	25.981
363.46	27.219
363.82	26.833
364.18	26.505
364.54	27.563
364.90	26.204
365.26	25.441
365.62	27.977
365.98	27.027
366.35	25.573
366.71	26.753
367.07	26.584
367.43	26.125
367.79	26.838
368.15	27.011
368.51	25.799
368.87	26.838
369.23	26.993
369.59	27.227
369.95	26.691
370.31	26.496
370.67	25.725
371.03	26.592
371.39	26.166
371.75	25.809
372.11	25.391
372.47	27.493
372.83	26.369
373.19	25.506
373.55	26.016
373.91	26.510
374.27	26.254
374.63	25.745
374.99	26.836
375.35	26.308
375.71	25.497
376.07	26.132
376.42	26.066
376.78	26.309
377.14	25.916
377.50	25.298
377.86	24.601
378.22	26.043
378.58	25.376
378.94	24.827
379.30	26.145
379.66	24.746
380.02	25.123
380.38	24.651
380.74	25.450
381.09	26.039
381.45	26.306
381.81	26.044
382.17	24.777
382.53	25.346
382.89	25.432
383.25	24.828
383.61	25.465
383.97	25.141
384.32	24.329
384.68	23.916
385.04	24.647
385.40	23.715
385.76	26.044
386.12	24.935
386.48	25.488
386.83	25.273
387.19	25.417
387.55	25.170
387.91	24.305
388.27	24.280
388.62	25.138
388.98	24.386
389.34	26.033
389.70	24.525
390.06	25.856
390.42	24.578
390.77	25.127
391.13	24.633
391.49	25.508
391.85	24.316
392.20	23.659
392.56	24.747
392.92	23.602
393.28	23.728
393.64	24.700
393.99	24.252
394.35	23.821
394.71	23.965
395.07	23.240
395.42	24.598
395.78	24.364
396.14	23.712
396.50	24.749
396.85	23.903
397.21	23.613
397.57	24.117
397.92	23.558
398.28	22.870
398.64	23.895
399.00	24.175
399.35	23.745
399.71	24.016
400.07	23.773
400.42	23.681
400.78	24.065
401.14	23.780
401.49	24.000
401.85	23.593
402.21	23.234
402.57	23.257
402.92	23.266
403.28	23.610
403.63	22.772
403.99	22.357
404.35	23.091
404.70	23.082
405.06	23.122
405.42	22.583
405.77	22.629
406.13	22.573
406.49	22.235
406.84	22.859
407.20	23.109
407.55	23.548
407.91	23.067
408.27	23.293
408.62	22.095
408.98	21.998
409.34	22.263
409.69	22.968
410.05	23.110
410.40	22.875
410.76	21.326
411.11	23.221
411.47	23.962
411.83	22.358
412.18	21.645
412.54	22.540
412.89	22.108
413.25	22.550
413.60	23.039
413.96	22.040
414.31	21.507
414.67	22.243
415.03	21.656
415.38	22.938
415.74	22.058
416.09	22.077
416.45	21.084
416.80	22.406
417.16	22.989
417.51	22.893
417.87	21.259
418.22	21.830
418.58	22.272
418.93	22.297
419.29	22.406
419.64	21.033
420.00	22.622
420.35	22.029
420.71	21.160
421.06	21.539
421.42	21.520
421.77	22.365
422.12	21.561
422.48	20.453
422.83	21.607
423.19	21.878
423.54	21.474
423.90	22.609
424.25	22.446
424.61	21.786
424.96	22.449
425.31	21.595
425.67	21.685
426.02	21.371
426.38	22.100
426.73	21.416
427.09	22.188
427.44	21.334
427.79	21.679
428.15	21.667
428.50	21.592
428.85	21.812
429.21	21.535
429.56	20.892
429.92	20.986
430.27	21.301
430.62	19.969
430.98	21.847
431.33	21.340
431.68	22.199
432.04	21.672
432.39	21.588
432.74	21.604
433.10	21.845
433.45	21.749
433.80	21.120
434.16	21.795
434.51	21.579
434.86	22.520
435.22	21.512
435.57	21.884
435.92	21.650
436.28	22.835
436.63	22.296
436.98	20.836
437.34	21.348
437.69	22.112
438.04	21.529
438.39	21.313
438.75	22.022
439.10	21.620
439.45	21.724
439.81	21.692
440.16	21.344
440.51	21.910
440.86	22.119
441.22	21.357
441.57	21.285
441.92	22.262
442.27	21.798
442.63	21.906
442.98	22.479
443.33	22.337
443.68	21.890
444.03	20.986
444.39	21.227
444.74	22.132
445.09	21.779
445.44	21.487
445.79	21.326
446.15	21.810
446.50	21.809
446.85	21.634
447.20	21.775
447.55	21.720
447.91	21.456
448.26	22.204
448.61	22.329
448.96	21.872
449.31	22.272
449.66	21.722
450.02	21.894
450.37	21.088
450.72	22.109
451.07	21.328
451.42	21.702
451.77	22.196
452.12	22.286
452.47	22.637
452.83	21.911
453.18	22.005
453.53	22.696
453.88	21.796
454.23	21.399
454.58	23.561
454.93	22.950
455.28	22.382
455.63	22.087
455.98	22.679
456.34	21.985
456.69	21.979
457.04	22.043
457.39	22.209
457.74	21.590
458.09	22.542
458.44	21.380
458.79	20.607
459.14	21.614
459.49	21.541
459.84	22.105
460.19	21.626
460.54	21.296
460.89	21.887
461.24	22.890
461.59	23.068
461.94	21.270
462.29	21.662
462.64	21.953
462.99	22.121
463.34	22.400
463.69	21.576
464.04	22.551
464.39	21.913
464.74	21.687
465.09	21.351
465.44	21.274
465.79	20.861
466.14	21.018
466.49	21.580
466.84	21.716
467.19	20.881
467.54	22.188
467.89	21.008
468.24	21.291
468.59	22.039
468.94	21.258
469.29	21.144
469.64	22.289
469.99	22.192
470.34	21.731
470.68	22.126
471.03	21.701
471.38	22.029
471.73	21.452
472.08	22.434
472.43	22.362
472.78	21.659
473.13	21.181
473.48	21.910
473.83	22.256
474.17	21.344
474.52	21.402
474.87	21.133
475.22	20.604
475.57	20.849
475.92	21.190
476.27	20.688
476.61	21.291
476.96	20.726
477.31	19.833
477.66	21.171
478.01	20.021
478.36	20.888
478.70	20.872
479.05	21.246
479.40	20.829
479.75	21.505
480.10	20.527
480.45	20.609
480.79	20.354
481.14	21.037
481.49	21.025
481.84	20.439
482.19	20.536
482.53	20.780
482.88	20.800
483.23	21.168
483.58	20.701
483.92	20.056
484.27	19.695
484.62	20.690
484.97	20.339
485.31	19.932
485.66	18.559
486.01	18.073
486.36	17.999
486.70	18.686
487.05	19.463
487.40	19.203
487.75	20.016
488.09	20.716
488.44	20.414
488.79	21.591
489.13	20.588
489.48	20.555
489.83	19.853
490.17	20.167
490.52	20.195
490.87	19.855
491.22	20.646
491.56	19.089
491.91	19.591
492.26	19.522
492.60	19.124
492.95	18.943
493.30	20.187
493.64	20.159
493.99	19.824
494.34	20.028
494.68	20.467
495.03	20.489
495.37	19.963
495.72	20.614
496.07	19.814
496.41	19.602
496.76	19.965
497.11	19.901
497.45	19.981
497.80	20.250
498.14	19.758
498.49	19.951
498.84	20.566
499.18	20.095
499.53	19.516
499.87	19.711
500.22	19.878
500.56	20.243
500.91	19.038
501.26	19.678
501.60	20.266
501.95	19.798
502.29	21.040
502.64	20.345
502.98	20.290
503.33	19.607
503.67	19.814
504.02	20.253
504.36	19.888
504.71	19.785
505.06	19.614
505.40	19.883
505.75	18.949
506.09	19.534
506.44	19.684
506.78	19.094
507.13	20.242
507.47	20.152
507.82	20.061
508.16	20.061
508.51	20.294
508.85	19.662
509.19	20.204
509.54	20.714
509.88	20.196
510.23	19.897
510.57	20.588
510.92	20.093
511.26	19.938
511.61	20.073
511.95	19.624
512.30	19.459
512.64	19.882
512.98	20.579
513.33	20.450
513.67	19.104
514.02	20.617
514.36	20.481
514.70	19.590
515.05	19.911
515.39	20.359
515.74	20.214
516.08	21.800
516.42	20.588
516.77	21.906
517.11	20.200
517.46	20.711
517.80	20.790
518.14	19.861
518.49	21.470
518.83	20.000
519.17	20.035
519.52	20.147
519.86	19.966
520.20	20.520
520.55	21.005
520.89	21.472
521.23	20.869
521.58	20.408
521.92	19.841
522.26	19.646
522.61	20.062
522.95	20.135
523.29	19.537
523.64	21.463
523.98	20.826
524.32	20.205
524.66	20.084
525.01	19.730
525.35	20.260
525.69	19.951
526.04	20.561
526.38	19.890
526.72	19.448
527.06	20.339
527.41	19.554
527.75	19.936
528.09	20.617
528.43	20.331
528.78	19.975
529.12	20.182
529.46	19.106
529.80	20.545
530.15	21.121
530.49	20.308
530.83	20.506
531.17	21.671
531.51	21.466
531.86	20.645
532.20	21.252
532.54	20.692
532.88	20.347
533.22	20.175
533.57	20.000
533.91	19.928
534.25	19.684
534.59	20.561
534.93	19.274
535.27	19.252
535.62	20.635
535.96	20.527
536.30	19.835
536.64	20.541
536.98	20.239
537.32	19.618
537.66	20.267
538.01	19.684
538.35	20.427
538.69	20.804
539.03	19.688
539.37	20.128
539.71	18.535
540.05	19.608
540.39	20.532
540.73	19.922
541.07	20.311
541.42	20.613
541.76	20.194
542.10	20.246
542.44	19.205
542.78	20.356
543.12	19.258
543.46	20.656
543.80	19.974
544.14	18.742
544.48	20.317
544.82	19.564
545.16	20.039
545.50	19.087
545.84	19.288
546.18	20.135
546.52	20.372
546.86	19.519
547.20	20.634
547.54	20.641
547.88	20.408
548.22	19.178
548.56	19.560
548.90	19.718
549.24	19.327
549.58	20.191
549.92	19.712
550.26	20.241
550.60	20.401
550.94	18.944
551.28	19.020
551.62	19.554
551.96	19.509
552.30	19.590
552.64	19.675
552.98	19.864
553.32	20.162
553.66	20.382
554.00	20.728
554.34	19.669
554.68	20.029
555.02	19.887
555.36	19.485
555.69	19.824
556.03	19.179
556.37	19.100
556.71	19.236
557.05	19.188
557.39	18.824
557.73	19.760
558.07	19.869
558.41	19.682
558.75	19.398
559.08	19.911
559.42	20.484
559.76	19.338
560.10	20.414
560.44	20.615
560.78	18.563
561.12	18.668
561.45	20.404
561.79	19.117
562.13	19.115
562.47	19.672
562.81	19.665
563.15	18.729
563.48	18.833
563.82	18.852
564.16	19.555
564.50	19.010
564.84	19.469
565.17	18.919
565.51	19.872
565.85	19.860
566.19	19.036
566.52	18.873
566.86	18.867
567.20	19.693
567.54	18.493
567.88	18.848
568.21	19.471
568.55	18.605
568.89	18.385
569.23	18.449
569.56	17.773
569.90	17.774
570.24	17.653
570.57	17.273
570.91	17.227
571.25	17.295
571.59	17.732
571.92	17.483
572.26	18.313
572.60	17.988
572.93	17.871
573.27	17.450
573.61	17.504
573.95	17.442
574.28	17.688
574.62	17.541
574.96	17.085
575.29	17.459
575.63	17.226
575.97	17.183
576.30	17.153
576.64	17.640
576.98	17.453
577.31	16.774
577.65	16.895
577.98	16.948
578.32	16.640
578.66	16.960
578.99	17.462
579.33	17.720
579.67	17.052
580.00	17.286
580.34	17.655
580.67	17.230
581.01	17.720
581.35	16.670
581.68	16.831
582.02	16.827
582.35	16.781
582.69	17.472
583.02	17.619
583.36	17.846
583.70	17.957
584.03	17.842
584.37	17.997
584.70	17.503
585.04	17.955
585.37	17.218
585.71	17.293
586.04	17.371
586.38	17.816
586.72	18.034
587.05	17.658
587.39	17.045
587.72	17.599
588.06	17.850
588.39	17.641
588.73	18.158
589.06	18.323
589.40	17.710
589.73	18.268
590.07	18.363
590.40	18.195
590.73	19.048
591.07	18.844
591.40	18.347
591.74	18.874
592.07	18.063
592.41	18.355
592.74	17.715
593.08	17.089
593.41	17.241
593.75	16.771
594.08	17.734
594.41	18.275
594.75	18.447
595.08	17.502
595.42	18.109
595.75	17.842
596.09	18.438
596.42	18.664
596.75	18.320
597.09	18.961
597.42	18.086
597.75	17.982
598.09	18.348
598.42	17.612
598.76	17.998
599.09	17.484
599.42	17.249
599.76	17.716
600.09	17.268
600.42	17.458
600.76	17.464
601.09	17.632
601.42	17.580
601.76	18.254
602.09	17.747
602.42	18.471
602.76	18.460
603.09	17.703
603.42	18.079
603.76	18.216
604.09	17.294
604.42	18.182
604.76	18.684
605.09	18.174
605.42	17.914
605.75	17.922
606.09	18.259
606.42	18.022
606.75	18.208
607.09	18.669
607.42	17.929
607.75	17.131
608.08	18.063
608.42	18.288
608.75	18.170
609.08	18.131
609.41	18.229
609.75	18.533
610.08	19.227
610.41	16.899
610.74	18.401
611.07	18.923
611.41	17.910
611.74	18.401
612.07	18.944
612.40	18.520
612.73	18.895
613.07	18.750
613.40	19.115
613.73	17.777
614.06	17.849
614.39	18.983
614.72	18.789
615.06	18.908
615.39	18.524
615.72	18.916
616.05	18.501
616.38	18.733
616.71	18.943
617.05	20.318
617.38	18.882
617.71	18.739
618.04	19.291
618.37	19.042
618.70	19.042
619.03	19.737
619.36	19.145
619.69	18.592
620.03	19.986
620.36	18.182
620.69	19.452
621.02	19.395
621.35	19.577
621.68	18.925
622.01	19.969
622.34	20.045
622.67	19.392
623.00	18.929
623.33	18.084
623.66	19.442
623.99	18.925
624.32	18.759
624.65	19.209
624.99	18.909
625.32	18.103
625.65	19.459
625.98	20.446
626.31	18.896
626.64	20.327
626.97	20.116
627.30	20.532
627.63	19.524
627.96	20.185
628.29	20.297
628.62	20.952
628.95	21.415
629.28	19.982
629.61	20.440
629.94	20.381
630.26	19.924
630.59	19.447
630.92	19.349
631.25	18.954
