SpectraSuite Data File
++++++++++++++++++++++++++++++++++++
Date: Wed May 13 21:30:59 PDT 2015
User: schluterlab
Dark Spectrum Present: Yes
Reference Spectrum Present: Yes
Number of Sampled Component Spectra: 1
Spectrometers: USB2E3373
Integration Time (usec): 3000 (USB2E3373)
Spectra Averaged: 3 (USB2E3373)
Boxcar Smoothing: 0 (USB2E3373)
Correct for Electrical Dark: No (USB2E3373)
Strobe/Lamp Enabled: No (USB2E3373)
Correct for Detector Non-linearity: No (USB2E3373)
Correct for Stray Light: No (USB2E3373)
Number of Pixels in Processed Spectrum: 2048
>>>>>Begin Processed Spectral Data<<<<<
178.53	0.000
178.91	200.000
179.29	233.333
179.67	-550.000
180.04	-366.667
180.42	240.000
180.80	1400.000
181.18	350.000
181.56	-425.000
181.94	-350.000
182.31	36.364
182.69	84.615
183.07	-100.000
183.45	183.333
183.83	77.778
184.20	257.143
184.58	-66.667
184.96	533.333
185.34	228.571
185.72	0.000
186.09	0.000
186.47	-200.000
186.85	260.000
187.23	-450.000
187.61	50.000
187.98	1600.000
188.36	0.000
188.74	0.000
189.12	-81.818
189.49	80.000
189.87	133.333
190.25	360.000
190.63	500.000
191.00	-260.000
191.38	280.000
191.76	675.000
192.14	183.333
192.51	15.789
192.89	433.333
193.27	475.000
193.65	-220.000
194.02	227.273
194.40	280.000
194.78	0.000
195.15	180.000
195.53	-240.000
195.91	0.000
196.29	-66.667
196.66	0.000
197.04	450.000
197.42	40.000
197.79	0.000
198.17	62.500
198.55	-600.000
198.92	350.000
199.30	-400.000
199.68	-10.000
200.05	-0.000
200.43	116.667
200.81	-600.000
201.18	-140.000
201.56	-250.000
201.94	400.000
202.31	13.043
202.69	-128.571
203.07	-433.333
203.44	-400.000
203.82	-633.333
204.19	-30.000
204.57	0.000
204.95	-216.667
205.32	0.000
205.70	-600.000
206.08	-150.000
206.45	-66.667
206.83	425.000
207.20	-133.333
207.58	-130.000
207.96	-1700.000
208.33	-171.429
208.71	-1200.000
209.08	175.000
209.46	425.000
209.84	0.000
210.21	110.000
210.59	1000.000
210.96	340.000
211.34	400.000
211.71	-900.000
212.09	-216.667
212.46	-190.000
212.84	0.000
213.22	-25.000
213.59	-500.000
213.97	-800.000
214.34	-750.000
214.72	-38.462
215.09	225.000
215.47	111.111
215.84	650.000
216.22	-187.500
216.59	-350.000
216.97	466.667
217.34	133.333
217.72	0.000
218.09	266.667
218.47	0.000
218.84	-171.429
219.22	-75.000
219.59	-366.667
219.97	-125.000
220.34	-162.500
220.72	-260.000
221.09	0.000
221.47	-116.667
221.84	-600.000
222.22	0.000
222.59	1100.000
222.97	-200.000
223.34	-133.333
223.72	-700.000
224.09	-500.000
224.46	27.273
224.84	-37.500
225.21	-142.857
225.59	-400.000
225.96	-233.333
226.34	0.000
226.71	-185.714
227.08	850.000
227.46	-212.500
227.83	400.000
228.21	-50.000
228.58	-25.000
228.95	-52.941
229.33	18.750
229.70	12.500
230.08	-61.538
230.45	-162.500
230.82	-75.000
231.20	142.857
231.57	-400.000
231.95	1200.000
232.32	-25.000
232.69	5.882
233.07	-700.000
233.44	-21.739
233.81	-350.000
234.19	4.167
234.56	20.000
234.93	-40.000
235.31	10.526
235.68	-69.231
236.05	-15.385
236.43	5.556
236.80	9.091
237.17	-33.333
237.55	-23.529
237.92	-27.586
238.29	-33.333
238.67	38.889
239.04	-9.677
239.41	2.128
239.79	21.277
240.16	27.907
240.53	17.857
240.91	35.714
241.28	23.214
241.65	35.484
242.02	15.789
242.40	36.232
242.77	24.638
243.14	16.667
243.51	30.851
243.89	25.962
244.26	39.623
244.63	19.231
245.00	44.792
245.38	33.613
245.75	24.590
246.12	36.090
246.49	18.699
246.87	19.328
247.24	31.081
247.61	33.775
247.98	30.769
248.36	28.994
248.73	27.528
249.10	24.242
249.47	33.871
249.84	33.158
250.22	39.801
250.59	28.037
250.96	36.818
251.33	26.316
251.70	34.310
252.08	35.565
252.45	31.687
252.82	31.559
253.19	32.296
253.56	29.856
253.94	35.231
254.31	33.099
254.68	35.570
255.05	32.343
255.42	31.818
255.79	32.822
256.16	36.278
256.54	32.063
256.91	30.696
257.28	34.591
257.65	30.573
258.02	31.672
258.39	36.550
258.76	31.686
259.14	32.386
259.51	35.674
259.88	35.501
260.25	34.722
260.62	32.022
260.99	35.013
261.36	36.528
261.73	29.877
262.10	32.570
262.47	34.321
262.85	34.328
263.22	33.590
263.59	30.909
263.96	33.820
264.33	33.173
264.70	37.209
265.07	35.185
265.44	37.701
265.81	36.156
266.18	33.030
266.55	35.808
266.92	33.475
267.29	33.128
267.66	37.580
268.03	37.037
268.40	33.475
268.77	34.504
269.14	33.878
269.51	36.961
269.88	31.568
270.25	35.381
270.62	33.811
270.99	35.630
271.36	31.944
271.73	31.928
272.10	33.143
272.47	35.317
272.84	34.646
273.21	32.877
273.58	36.270
273.95	34.528
274.32	34.888
274.69	33.151
275.06	34.629
275.43	34.840
275.80	32.979
276.17	33.886
276.54	30.728
276.91	35.540
277.28	33.394
277.65	34.441
278.02	34.107
278.39	30.906
278.76	32.943
279.13	33.276
279.50	33.793
279.87	31.159
280.23	34.414
280.60	32.872
280.97	34.578
281.34	34.069
281.71	31.220
282.08	33.846
282.45	32.951
282.82	33.227
283.19	33.384
283.56	32.969
283.92	32.875
284.29	31.357
284.66	32.290
285.03	32.085
285.40	29.909
285.77	32.733
286.14	31.459
286.51	33.733
286.87	30.923
287.24	31.268
287.61	32.380
287.98	30.441
288.35	29.210
288.72	31.851
289.08	31.054
289.45	29.809
289.82	32.526
290.19	29.734
290.56	29.261
290.93	28.039
291.29	29.138
291.66	30.738
292.03	30.245
292.40	27.995
292.77	28.514
293.13	28.731
293.50	29.542
293.87	29.333
294.24	28.042
294.60	28.218
294.97	29.894
295.34	27.177
295.71	27.989
296.08	26.178
296.44	24.872
296.81	26.797
297.18	28.375
297.55	27.005
297.91	27.329
298.28	26.755
298.65	26.847
299.02	27.106
299.38	24.540
299.75	25.601
300.12	25.116
300.48	25.263
300.85	24.249
301.22	26.945
301.59	25.000
301.95	24.274
302.32	25.438
302.69	24.520
303.05	24.917
303.42	24.318
303.79	24.711
304.15	25.411
304.52	25.269
304.89	23.699
305.25	22.503
305.62	24.512
305.99	25.571
306.35	24.974
306.72	24.619
307.09	24.505
307.45	23.323
307.82	22.632
308.19	22.362
308.55	24.565
308.92	24.067
309.29	25.325
309.65	22.278
310.02	22.863
310.38	24.797
310.75	24.852
311.12	23.712
311.48	24.431
311.85	24.409
312.22	25.338
312.58	23.961
312.95	24.080
313.31	24.151
313.68	24.141
314.05	24.764
314.41	25.264
314.78	24.953
315.14	23.981
315.51	24.929
315.87	26.135
316.24	24.702
316.61	25.388
316.97	25.648
317.34	24.866
317.70	25.870
318.07	27.507
318.43	27.913
318.80	26.702
319.16	26.083
319.53	26.613
319.89	28.094
320.26	28.558
320.62	28.823
320.99	29.264
321.35	28.812
321.72	28.874
322.08	29.428
322.45	29.325
322.81	28.743
323.18	29.159
323.54	31.137
323.91	31.436
324.27	31.683
324.64	31.707
325.00	32.283
325.37	34.471
325.73	33.333
326.10	33.894
326.46	35.117
326.83	35.761
327.19	34.797
327.56	34.972
327.92	34.755
328.29	37.229
328.65	36.635
329.01	36.324
329.38	38.783
329.74	37.768
330.11	38.683
330.47	38.281
330.84	38.448
331.20	37.916
331.56	39.764
331.93	37.812
332.29	40.834
332.66	38.390
333.02	38.836
333.38	39.386
333.75	39.078
334.11	39.410
334.48	40.628
334.84	39.223
335.20	39.365
335.57	40.905
335.93	39.948
336.29	40.193
336.66	40.940
337.02	41.043
337.38	39.164
337.75	41.602
338.11	40.222
338.47	38.784
338.84	40.722
339.20	40.653
339.56	40.700
339.93	40.449
340.29	41.161
340.65	42.087
341.02	40.349
341.38	41.723
341.74	42.185
342.11	40.958
342.47	41.004
342.83	40.196
343.20	41.032
343.56	40.965
343.92	40.617
344.28	40.584
344.65	41.796
345.01	41.404
345.37	42.105
345.73	42.484
346.10	42.295
346.46	42.114
346.82	42.536
347.19	41.772
347.55	43.053
347.91	43.102
348.27	42.744
348.63	44.071
349.00	41.903
349.36	43.407
349.72	43.155
350.08	41.654
350.45	43.774
350.81	43.505
351.17	43.341
351.53	43.912
351.89	43.765
352.26	44.324
352.62	43.798
352.98	44.569
353.34	44.444
353.70	43.224
354.07	44.471
354.43	42.068
354.79	45.353
355.15	45.109
355.51	44.723
355.87	45.113
356.24	44.302
356.60	42.846
356.96	44.513
357.32	46.594
357.68	46.142
358.04	44.919
358.40	44.496
358.77	45.642
359.13	46.615
359.49	45.799
359.85	46.702
360.21	48.111
360.57	47.529
360.93	48.103
361.29	47.224
361.66	47.077
362.02	47.665
362.38	46.898
362.74	46.701
363.10	48.445
363.46	47.406
363.82	48.115
364.18	46.846
364.54	48.359
364.90	48.362
365.26	47.205
365.62	48.224
365.98	49.680
366.35	50.426
366.71	49.001
367.07	49.539
367.43	50.662
367.79	50.104
368.15	50.563
368.51	49.719
368.87	51.151
369.23	50.249
369.59	50.881
369.95	50.871
370.31	50.558
370.67	50.978
371.03	51.151
371.39	51.313
371.75	52.286
372.11	52.350
372.47	52.487
372.83	51.040
373.19	52.878
373.55	52.890
373.91	52.334
374.27	52.766
374.63	54.196
374.99	52.994
375.35	54.315
375.71	53.804
376.07	55.586
376.42	53.342
376.78	53.963
377.14	56.068
377.50	54.368
377.86	56.972
378.22	56.258
378.58	56.620
378.94	56.375
379.30	56.839
379.66	56.967
380.02	57.598
380.38	56.988
380.74	57.262
381.09	56.031
381.45	57.013
381.81	57.240
382.17	57.152
382.53	56.738
382.89	56.092
383.25	59.259
383.61	58.596
383.97	58.937
384.32	59.042
384.68	57.804
385.04	59.071
385.40	59.900
385.76	58.942
386.12	60.620
386.48	58.934
386.83	59.950
387.19	60.025
387.55	60.208
387.91	62.054
388.27	60.049
388.62	61.985
388.98	61.014
389.34	62.030
389.70	62.210
390.06	60.688
390.42	62.436
390.77	62.588
391.13	60.985
391.49	61.796
391.85	61.214
392.20	62.281
392.56	62.984
392.92	62.376
393.28	62.870
393.64	62.813
393.99	61.750
394.35	62.346
394.71	63.397
395.07	60.943
395.42	62.279
395.78	62.870
396.14	63.982
396.50	62.524
396.85	64.627
397.21	63.358
397.57	61.863
397.92	62.216
398.28	63.959
398.64	63.024
399.00	63.783
399.35	64.472
399.71	63.483
400.07	64.398
400.42	64.263
400.78	63.565
401.14	63.703
401.49	64.470
401.85	63.329
402.21	64.892
402.57	64.684
402.92	64.894
403.28	64.790
403.63	63.484
403.99	64.107
404.35	64.963
404.70	63.746
405.06	64.592
405.42	64.636
405.77	64.689
406.13	63.886
406.49	64.949
406.84	65.263
407.20	64.654
407.55	64.545
407.91	62.872
408.27	63.568
408.62	65.500
408.98	64.858
409.34	63.428
409.69	65.237
410.05	63.682
410.40	64.151
410.76	63.899
411.11	64.552
411.47	64.167
411.83	65.315
412.18	64.736
412.54	65.539
412.89	64.326
413.25	63.599
413.60	65.392
413.96	62.921
414.31	64.365
414.67	63.302
415.03	64.141
415.38	64.399
415.74	64.068
416.09	64.970
416.45	65.072
416.80	64.430
417.16	65.722
417.51	64.099
417.87	66.468
418.22	66.063
418.58	64.060
418.93	64.093
419.29	65.215
419.64	63.677
420.00	65.397
420.35	64.913
420.71	63.681
421.06	64.084
421.42	65.389
421.77	65.145
422.12	65.043
422.48	63.032
422.83	64.501
423.19	63.945
423.54	65.194
423.90	63.717
424.25	64.009
424.61	63.093
424.96	63.808
425.31	63.545
425.67	63.433
426.02	64.311
426.38	65.361
426.73	64.447
427.09	62.602
427.44	63.300
427.79	63.955
428.15	63.242
428.50	63.202
428.85	64.760
429.21	63.365
429.56	64.293
429.92	63.144
430.27	64.162
430.62	63.589
430.98	63.511
431.33	63.461
431.68	63.099
432.04	63.944
432.39	62.991
432.74	63.151
433.10	62.638
433.45	63.136
433.80	62.989
434.16	62.261
434.51	63.587
434.86	62.898
435.22	63.328
435.57	62.039
435.92	62.545
436.28	62.883
436.63	63.453
436.98	64.042
437.34	62.759
437.69	61.629
438.04	61.800
438.39	63.076
438.75	62.157
439.10	63.331
439.45	63.075
439.81	63.978
440.16	62.087
440.51	61.831
440.86	62.893
441.22	62.020
441.57	61.876
441.92	63.453
442.27	62.229
442.63	61.572
442.98	62.095
443.33	62.980
443.68	61.202
444.03	62.295
444.39	62.469
444.74	62.507
445.09	61.839
445.44	62.423
445.79	62.261
446.15	61.730
446.50	60.628
446.85	63.335
447.20	61.683
447.55	62.003
447.91	61.236
448.26	61.063
448.61	60.242
448.96	61.276
449.31	60.708
449.66	61.654
450.02	61.967
450.37	61.163
450.72	61.883
451.07	61.066
451.42	59.825
451.77	61.473
452.12	59.239
452.47	62.169
452.83	60.259
453.18	60.598
453.53	59.962
453.88	60.060
454.23	59.827
454.58	58.640
454.93	59.140
455.28	60.951
455.63	59.451
455.98	60.864
456.34	59.441
456.69	59.617
457.04	58.514
457.39	58.689
457.74	58.049
458.09	59.301
458.44	59.988
458.79	57.716
459.14	58.090
459.49	58.476
459.84	58.286
460.19	57.863
460.54	57.786
460.89	57.601
461.24	59.309
461.59	57.729
461.94	56.511
462.29	56.801
462.64	57.058
462.99	57.679
463.34	58.978
463.69	58.441
464.04	58.223
464.39	59.182
464.74	56.757
465.09	57.471
465.44	57.520
465.79	58.252
466.14	57.469
466.49	58.182
466.84	58.099
467.19	56.433
467.54	56.254
467.89	56.505
468.24	57.160
468.59	56.660
468.94	56.322
469.29	56.907
469.64	55.997
469.99	57.931
470.34	55.226
470.68	56.357
471.03	55.783
471.38	54.868
471.73	54.733
472.08	55.739
472.43	56.794
472.78	55.646
473.13	54.222
473.48	55.447
473.83	54.865
474.17	55.534
474.52	55.469
474.87	55.308
475.22	54.650
475.57	54.713
475.92	54.471
476.27	54.720
476.61	53.794
476.96	54.140
477.31	54.746
477.66	55.198
478.01	53.462
478.36	54.169
478.70	54.511
479.05	55.383
479.40	53.406
479.75	53.294
480.10	54.003
480.45	52.722
480.79	54.604
481.14	54.255
481.49	54.514
481.84	53.440
482.19	53.126
482.53	53.048
482.88	53.164
483.23	52.406
483.58	53.544
483.92	52.432
484.27	52.059
484.62	52.508
484.97	52.592
485.31	52.551
485.66	53.883
486.01	54.774
486.36	54.919
486.70	53.920
487.05	52.710
487.40	50.867
487.75	50.761
488.09	48.983
488.44	49.527
488.79	50.151
489.13	49.821
489.48	49.295
489.83	50.022
490.17	50.386
490.52	50.257
490.87	49.281
491.22	49.788
491.56	51.126
491.91	49.016
492.26	51.451
492.60	49.158
492.95	50.486
493.30	49.855
493.64	48.681
493.99	49.324
494.34	49.374
494.68	49.308
495.03	49.555
495.37	49.002
495.72	48.922
496.07	49.294
496.41	48.526
496.76	48.995
497.11	47.887
497.45	49.319
497.80	48.915
498.14	47.355
498.49	47.958
498.84	47.925
499.18	47.735
499.53	48.498
499.87	47.841
500.22	49.029
500.56	48.395
500.91	48.139
501.26	47.143
501.60	48.382
501.95	46.670
502.29	48.058
502.64	47.878
502.98	46.628
503.33	47.835
503.67	47.420
504.02	46.029
504.36	46.607
504.71	47.205
505.06	46.561
505.40	47.165
505.75	47.508
506.09	46.091
506.44	46.321
506.78	46.216
507.13	45.738
507.47	45.228
507.82	46.311
508.16	46.174
508.51	44.680
508.85	45.982
509.19	45.238
509.54	46.005
509.88	46.022
510.23	45.105
510.57	46.239
510.92	46.444
511.26	46.370
511.61	45.005
511.95	44.598
512.30	44.808
512.64	46.198
512.98	43.213
513.33	45.014
513.67	44.861
514.02	44.527
514.36	44.438
514.70	45.150
515.05	45.699
515.39	44.988
515.74	43.813
516.08	44.189
516.42	43.030
516.77	43.761
517.11	43.386
517.46	45.018
517.80	45.460
518.14	43.723
518.49	43.520
518.83	44.212
519.17	43.795
519.52	44.511
519.86	43.837
520.20	42.207
520.55	43.284
520.89	43.390
521.23	43.590
521.58	43.110
521.92	41.860
522.26	42.355
522.61	42.922
522.95	43.070
523.29	42.794
523.64	42.467
523.98	43.139
524.32	42.974
524.66	43.052
525.01	42.595
525.35	41.672
525.69	42.346
526.04	41.303
526.38	42.320
526.72	41.552
527.06	41.651
527.41	42.555
527.75	40.788
528.09	43.159
528.43	42.469
528.78	42.119
529.12	42.950
529.46	42.546
529.80	42.201
530.15	40.026
530.49	41.038
530.83	41.909
531.17	41.370
531.51	40.459
531.86	40.312
532.20	40.524
532.54	40.483
532.88	40.300
533.22	41.751
533.57	41.788
533.91	41.742
534.25	42.904
534.59	40.927
534.93	41.135
535.27	40.573
535.62	40.000
535.96	41.184
536.30	40.691
536.64	38.688
536.98	40.364
537.32	39.288
537.66	40.197
538.01	41.054
538.35	40.193
538.69	40.067
539.03	39.597
539.37	38.833
539.71	39.427
540.05	38.731
540.39	38.816
540.73	39.036
541.07	39.116
541.42	38.788
541.76	39.783
542.10	38.524
542.44	39.016
542.78	37.960
543.12	38.410
543.46	38.148
543.80	38.221
544.14	38.334
544.48	37.027
544.82	37.794
545.16	37.525
545.50	38.420
545.84	37.307
546.18	36.886
546.52	37.403
546.86	36.749
547.20	36.741
547.54	37.455
547.88	38.124
548.22	37.590
548.56	37.959
548.90	37.145
549.24	37.778
549.58	35.516
549.92	37.491
550.26	37.269
550.60	37.838
550.94	36.940
551.28	35.655
551.62	36.316
551.96	36.969
552.30	36.026
552.64	36.299
552.98	37.500
553.32	37.203
553.66	35.803
554.00	36.861
554.34	35.165
554.68	36.018
555.02	34.880
555.36	37.065
555.69	35.834
556.03	35.597
556.37	34.495
556.71	35.459
557.05	34.982
557.39	34.815
557.73	35.477
558.07	35.795
558.41	35.201
558.75	35.489
559.08	34.643
559.42	34.697
559.76	34.098
560.10	34.819
560.44	35.004
560.78	35.396
561.12	35.179
561.45	34.626
561.79	35.076
562.13	34.880
562.47	35.143
562.81	34.921
563.15	33.499
563.48	32.897
563.82	34.610
564.16	34.326
564.50	34.125
564.84	35.135
565.17	34.768
565.51	33.957
565.85	33.711
566.19	34.702
566.52	33.879
566.86	33.312
567.20	34.759
567.54	33.679
567.88	33.931
568.21	34.329
568.55	35.055
568.89	35.045
569.23	36.022
569.56	35.920
569.90	34.624
570.24	34.657
570.57	34.527
570.91	35.286
571.25	35.414
571.59	35.719
571.92	34.438
572.26	35.165
572.60	34.370
572.93	34.177
573.27	34.163
573.61	35.186
573.95	34.876
574.28	34.287
574.62	33.819
574.96	34.719
575.29	35.155
575.63	34.220
575.97	34.864
576.30	33.866
576.64	33.901
576.98	34.006
577.31	34.301
577.65	34.129
577.98	34.927
578.32	34.389
578.66	34.210
578.99	33.944
579.33	34.158
579.67	33.452
580.00	33.317
580.34	33.083
580.67	33.415
581.01	33.349
581.35	34.419
581.68	34.715
582.02	34.919
582.35	34.381
582.69	34.029
583.02	32.778
583.36	32.344
583.70	31.819
584.03	32.138
584.37	31.967
584.70	32.250
585.04	33.342
585.37	33.560
585.71	33.599
586.04	32.707
586.38	32.334
586.72	32.509
587.05	33.051
587.39	33.424
587.72	33.165
588.06	33.160
588.39	32.102
588.73	31.799
589.06	31.846
589.40	31.682
589.73	31.405
590.07	31.826
590.40	31.579
590.73	31.726
591.07	31.300
591.40	31.130
591.74	31.347
592.07	31.766
592.41	31.446
592.74	32.253
593.08	32.786
593.41	32.980
593.75	32.009
594.08	32.090
594.41	31.298
594.75	31.109
595.08	31.591
595.42	31.603
595.75	31.164
596.09	30.947
596.42	29.616
596.75	30.057
597.09	31.847
597.42	30.776
597.75	32.089
598.09	30.556
598.42	30.962
598.76	30.605
599.09	32.613
599.42	32.175
599.76	31.243
600.09	30.572
600.42	31.036
600.76	30.488
601.09	31.149
601.42	31.125
601.76	30.270
602.09	30.604
602.42	31.160
602.76	30.411
603.09	30.678
603.42	31.427
603.76	30.631
604.09	30.435
604.42	29.720
604.76	30.467
605.09	30.449
605.42	30.589
605.75	30.064
606.09	30.091
606.42	30.756
606.75	29.697
607.09	29.566
607.42	30.210
607.75	29.103
608.08	30.072
608.42	29.475
608.75	30.530
609.08	29.397
609.41	29.260
609.75	30.005
610.08	29.487
610.41	29.738
610.74	30.029
611.07	28.808
611.41	29.836
611.74	29.658
612.07	29.286
612.40	30.054
612.73	29.034
613.07	28.714
613.40	29.350
613.73	29.632
614.06	29.132
614.39	28.961
614.72	29.595
615.06	29.111
615.39	28.698
615.72	28.294
616.05	28.153
616.38	28.866
616.71	28.434
617.05	28.931
617.38	28.959
617.71	28.186
618.04	28.336
618.37	28.833
618.70	28.008
619.03	27.973
619.36	27.402
619.69	28.509
620.03	27.350
620.36	27.697
620.69	26.196
621.02	26.615
621.35	26.656
621.68	26.650
622.01	27.994
622.34	27.359
622.67	28.426
623.00	28.343
623.33	28.272
623.66	27.658
623.99	28.732
624.32	27.366
624.65	27.819
624.99	27.921
625.32	27.857
625.65	27.519
625.98	27.330
626.31	27.184
626.64	26.827
626.97	27.076
627.30	27.459
627.63	26.125
627.96	25.368
628.29	26.977
628.62	26.499
628.95	27.455
629.28	24.335
629.61	25.933
629.94	26.112
630.26	25.320
630.59	25.574
630.92	25.402
631.25	24.305
631.58	26.124
631.91	24.496
632.24	24.698
632.57	23.111
632.90	27.071
