SpectraSuite Data File
++++++++++++++++++++++++++++++++++++
Date: Wed May 13 21:25:03 PDT 2015
User: schluterlab
Dark Spectrum Present: Yes
Reference Spectrum Present: Yes
Number of Sampled Component Spectra: 1
Spectrometers: USB2E3373
Integration Time (usec): 3000 (USB2E3373)
Spectra Averaged: 3 (USB2E3373)
Boxcar Smoothing: 0 (USB2E3373)
Correct for Electrical Dark: No (USB2E3373)
Strobe/Lamp Enabled: No (USB2E3373)
Correct for Detector Non-linearity: No (USB2E3373)
Correct for Stray Light: No (USB2E3373)
Number of Pixels in Processed Spectrum: 2048
>>>>>Begin Processed Spectral Data<<<<<
178.53	0.000
178.91	350.000
179.29	250.000
179.67	-1050.000
180.04	-333.333
180.42	300.000
180.80	700.000
181.18	300.000
181.56	-450.000
181.94	-100.000
182.31	-18.182
182.69	23.077
183.07	-160.000
183.45	166.667
183.83	144.444
184.20	85.714
184.58	0.000
184.96	533.333
185.34	242.857
185.72	0.000
186.09	100.000
186.47	-200.000
186.85	120.000
187.23	50.000
187.61	550.000
187.98	1100.000
188.36	-25.000
188.74	0.000
189.12	-36.364
189.49	-10.000
189.87	200.000
190.25	440.000
190.63	1500.000
191.00	-120.000
191.38	260.000
191.76	450.000
192.14	141.667
192.51	-15.789
192.89	366.667
193.27	400.000
193.65	-140.000
194.02	200.000
194.40	220.000
194.78	-1400.000
195.15	280.000
195.53	-120.000
195.91	-75.000
196.29	-100.000
196.66	0.000
197.04	100.000
197.42	-80.000
197.79	-120.000
198.17	-200.000
198.55	-266.667
198.92	425.000
199.30	-233.333
199.68	-100.000
200.05	800.000
200.43	300.000
200.81	-1000.000
201.18	-200.000
201.56	-33.333
201.94	450.000
202.31	-21.739
202.69	-114.286
203.07	-400.000
203.44	-220.000
203.82	-400.000
204.19	110.000
204.57	0.000
204.95	-116.667
205.32	0.000
205.70	-1000.000
206.08	-325.000
206.45	-300.000
206.83	475.000
207.20	-533.333
207.58	-60.000
207.96	-1800.000
208.33	-114.286
208.71	-1500.000
209.08	200.000
209.46	525.000
209.84	0.000
210.21	140.000
210.59	1400.000
210.96	160.000
211.34	200.000
211.71	-750.000
212.09	-216.667
212.46	-120.000
212.84	-133.333
213.22	175.000
213.59	-500.000
213.97	-350.000
214.34	-500.000
214.72	-46.154
215.09	137.500
215.47	11.111
215.84	600.000
216.22	-87.500
216.59	-550.000
216.97	600.000
217.34	122.222
217.72	0.000
218.09	366.667
218.47	-900.000
218.84	-200.000
219.22	-125.000
219.59	-300.000
219.97	-175.000
220.34	-200.000
220.72	-100.000
221.09	0.000
221.47	-233.333
221.84	-200.000
222.22	0.000
222.59	1500.000
222.97	-233.333
223.34	-75.000
223.72	-1700.000
224.09	-500.000
224.46	-63.636
224.84	-25.000
225.21	-157.143
225.59	-200.000
225.96	-133.333
226.34	-20.000
226.71	-157.143
227.08	700.000
227.46	-200.000
227.83	-1200.000
228.21	-56.250
228.58	-450.000
228.95	-23.529
229.33	-31.250
229.70	-125.000
230.08	-53.846
230.45	-187.500
230.82	-108.333
231.20	328.571
231.57	-275.000
231.95	1200.000
232.32	-25.000
232.69	5.882
233.07	-1800.000
233.44	-21.739
233.81	-800.000
234.19	-4.167
234.56	-100.000
234.93	-46.667
235.31	-5.263
235.68	-169.231
236.05	-84.615
236.43	-66.667
236.80	-27.273
237.17	-106.667
237.55	-70.588
237.92	-44.828
238.29	-66.667
238.67	-27.778
239.04	-48.387
239.41	-23.404
239.79	0.000
240.16	-9.302
240.53	-5.357
240.91	1.786
241.28	-3.571
241.65	-9.677
242.02	-9.211
242.40	7.246
242.77	-4.348
243.14	-7.692
243.51	4.255
243.89	-8.654
244.26	7.547
244.63	-13.462
245.00	-1.042
245.38	-1.681
245.75	4.918
246.12	3.759
246.49	-5.691
246.87	-4.202
247.24	8.108
247.61	0.000
247.98	2.564
248.36	3.550
248.73	2.247
249.10	0.000
249.47	1.075
249.84	11.053
250.22	0.995
250.59	5.140
250.96	5.000
251.33	-6.220
251.70	10.042
252.08	5.439
252.45	9.465
252.82	4.943
253.19	7.393
253.56	7.194
253.94	8.897
254.31	8.451
254.68	8.054
255.05	9.901
255.42	5.944
255.79	9.816
256.16	6.309
256.54	6.984
256.91	5.380
257.28	7.547
257.65	4.140
258.02	7.331
258.39	7.602
258.76	6.686
259.14	3.693
259.51	3.090
259.88	6.775
260.25	5.556
260.62	5.337
260.99	7.427
261.36	8.808
261.73	7.901
262.10	4.580
262.47	5.185
262.85	5.473
263.22	6.410
263.59	6.234
263.96	4.866
264.33	6.731
264.70	5.116
265.07	5.787
265.44	5.747
265.81	7.780
266.18	8.656
266.55	5.895
266.92	7.415
267.29	5.350
267.66	5.945
268.03	7.407
268.40	5.085
268.77	7.025
269.14	5.918
269.51	10.472
269.88	6.110
270.25	8.051
270.62	5.533
270.99	7.480
271.36	7.738
271.73	6.426
272.10	5.905
272.47	7.678
272.84	7.480
273.21	5.871
273.58	6.557
273.95	7.547
274.32	7.463
274.69	7.286
275.06	9.717
275.43	7.721
275.80	5.851
276.17	7.366
276.54	6.750
276.91	6.794
277.28	5.054
277.65	6.818
278.02	8.036
278.39	7.282
278.76	7.692
279.13	7.719
279.50	8.793
279.87	7.246
280.23	6.486
280.60	5.190
280.97	5.844
281.34	8.675
281.71	5.691
282.08	5.983
282.45	7.377
282.82	6.869
283.19	7.470
283.56	7.656
283.92	7.645
284.29	7.644
284.66	5.272
285.03	4.560
285.40	6.647
285.77	7.658
286.14	6.839
286.51	8.096
286.87	5.385
287.24	7.965
287.61	8.283
287.98	7.059
288.35	5.961
288.72	5.882
289.08	7.835
289.45	6.314
289.82	5.900
290.19	6.452
290.56	5.824
290.93	4.006
291.29	5.746
291.66	3.962
292.03	5.995
292.40	5.922
292.77	5.622
293.13	6.276
293.50	6.144
293.87	7.600
294.24	7.937
294.60	5.722
294.97	5.556
295.34	4.354
295.71	4.074
296.08	6.283
296.44	5.102
296.81	5.359
297.18	7.250
297.55	6.368
297.91	6.087
298.28	5.327
298.65	5.911
299.02	7.570
299.38	5.399
299.75	7.212
300.12	5.233
300.48	4.327
300.85	5.889
301.22	5.691
301.59	5.869
301.95	4.878
302.32	5.251
302.69	4.407
303.05	5.205
303.42	6.477
303.79	6.730
304.15	5.038
304.52	6.559
304.89	4.983
305.25	4.940
305.62	5.640
305.99	5.550
306.35	6.897
306.72	6.816
307.09	6.674
307.45	5.431
307.82	6.421
308.19	5.852
308.55	6.141
308.92	8.546
309.29	7.107
309.65	8.092
310.02	6.561
310.38	6.402
310.75	5.819
311.12	7.872
311.48	7.616
311.85	8.268
312.22	8.511
312.58	6.957
312.95	8.955
313.31	8.356
313.68	8.874
314.05	8.979
314.41	10.086
314.78	9.203
315.14	10.926
315.51	10.276
315.87	11.585
316.24	11.570
316.61	12.055
316.97	11.296
317.34	11.319
317.70	13.470
318.07	13.398
318.43	13.550
318.80	12.391
319.16	13.882
319.53	14.695
319.89	15.176
320.26	14.880
320.62	15.385
320.99	15.310
321.35	16.651
321.72	16.939
322.08	17.712
322.45	18.964
322.81	18.484
323.18	19.320
323.54	19.134
323.91	19.783
324.27	19.442
324.64	19.686
325.00	19.685
325.37	21.672
325.73	21.633
326.10	20.606
326.46	21.070
326.83	22.249
327.19	23.089
327.56	22.724
327.92	22.848
328.29	23.623
328.65	23.751
329.01	22.603
329.38	24.783
329.74	23.948
330.11	22.994
330.47	24.826
330.84	25.181
331.20	23.399
331.56	25.634
331.93	24.978
332.29	25.195
332.66	24.068
333.02	25.369
333.38	24.035
333.75	24.744
334.11	25.260
334.48	25.458
334.84	24.382
335.20	25.557
335.57	24.630
335.93	25.258
336.29	25.306
336.66	23.846
337.02	24.522
337.38	23.934
337.75	24.720
338.11	22.886
338.47	22.945
338.84	25.172
339.20	24.515
339.56	25.171
339.93	24.460
340.29	23.228
340.65	25.749
341.02	24.542
341.38	23.142
341.74	23.697
342.11	23.699
342.47	24.017
342.83	23.529
343.20	24.958
343.56	24.448
343.92	24.858
344.28	24.026
344.65	24.163
345.01	23.729
345.37	23.684
345.73	25.327
346.10	23.435
346.46	23.333
346.82	23.676
347.19	24.288
347.55	24.152
347.91	23.772
348.27	23.817
348.63	24.279
349.00	22.877
349.36	22.841
349.72	24.517
350.08	23.791
350.45	23.414
350.81	23.787
351.17	23.326
351.53	23.959
351.89	22.478
352.26	21.853
352.62	23.411
352.98	22.125
353.34	23.510
353.70	23.364
354.07	23.529
354.43	23.484
354.79	23.317
355.15	22.748
355.51	22.855
355.87	22.752
356.24	23.114
356.60	21.658
356.96	22.794
357.32	22.446
357.68	23.377
358.04	22.653
358.40	23.256
358.77	23.165
359.13	23.035
359.49	22.861
359.85	22.820
360.21	22.591
360.57	22.510
360.93	22.610
361.29	23.390
361.66	23.083
362.02	21.497
362.38	22.452
362.74	22.625
363.10	21.837
363.46	22.334
363.82	22.173
364.18	22.408
364.54	21.882
364.90	21.603
365.26	22.081
365.62	22.017
365.98	22.349
366.35	23.333
366.71	22.040
367.07	22.537
367.43	22.230
367.79	22.377
368.15	22.152
368.51	22.925
368.87	22.540
369.23	21.708
369.59	22.269
369.95	21.190
370.31	20.990
370.67	21.217
371.03	22.791
371.39	21.576
371.75	22.429
372.11	22.436
372.47	21.485
372.83	22.469
373.19	21.942
373.55	21.965
373.91	22.772
374.27	21.715
374.63	23.542
374.99	21.727
375.35	22.603
375.71	21.671
376.07	22.755
376.42	22.126
376.78	22.853
377.14	22.847
377.50	22.621
377.86	21.780
378.22	21.302
378.58	22.320
378.94	23.000
379.30	22.861
379.66	22.873
380.02	23.039
380.38	22.229
380.74	22.953
381.09	21.713
381.45	22.854
381.81	22.551
382.17	21.991
382.53	22.892
382.89	21.110
383.25	22.284
383.61	23.305
383.97	22.062
384.32	22.306
384.68	22.517
385.04	21.625
385.40	22.540
385.76	22.202
386.12	22.660
386.48	22.633
386.83	22.403
387.19	22.579
387.55	22.379
387.91	22.755
388.27	22.318
388.62	22.659
388.98	22.966
389.34	22.243
389.70	21.917
390.06	22.687
390.42	23.776
390.77	22.486
391.13	22.412
391.49	21.316
391.85	22.684
392.20	22.118
392.56	22.857
392.92	22.703
393.28	22.196
393.64	22.691
393.99	21.420
394.35	22.284
394.71	22.244
395.07	21.698
395.42	22.974
395.78	22.072
396.14	22.321
396.50	21.814
396.85	21.861
397.21	22.097
397.57	22.484
397.92	22.934
398.28	22.786
398.64	21.797
399.00	22.824
399.35	22.758
399.71	22.190
400.07	22.410
400.42	22.006
400.78	21.269
401.14	22.502
401.49	22.049
401.85	22.604
402.21	22.601
402.57	22.134
402.92	23.404
403.28	21.388
403.63	22.195
403.99	22.521
404.35	21.820
404.70	21.994
405.06	22.901
405.42	21.608
405.77	21.544
406.13	22.000
406.49	21.630
406.84	22.589
407.20	21.374
407.55	22.338
407.91	22.700
408.27	20.898
408.62	22.406
408.98	21.085
409.34	21.163
409.69	22.482
410.05	22.201
410.40	20.633
410.76	22.623
411.11	22.699
411.47	23.490
411.83	22.146
412.18	22.670
412.54	22.807
412.89	21.567
413.25	21.947
413.60	22.194
413.96	22.097
414.31	22.072
414.67	22.095
415.03	22.327
415.38	21.797
415.74	21.897
416.09	21.877
416.45	22.625
416.80	21.946
417.16	22.605
417.51	21.835
417.87	23.016
418.22	22.172
418.58	21.682
418.93	21.783
419.29	22.310
419.64	22.328
420.00	22.730
420.35	22.295
420.71	21.755
421.06	23.247
421.42	22.749
421.77	22.428
422.12	23.095
422.48	22.137
422.83	22.682
423.19	22.829
423.54	22.850
423.90	21.853
424.25	22.935
424.61	23.598
424.96	22.531
425.31	23.163
425.67	23.574
426.02	23.910
426.38	23.134
426.73	22.236
427.09	23.452
427.44	22.901
427.79	22.565
428.15	23.180
428.50	22.961
428.85	22.940
429.21	23.467
429.56	23.379
429.92	24.050
430.27	23.313
430.62	23.662
430.98	23.427
431.33	23.213
431.68	23.962
432.04	23.380
432.39	23.557
432.74	23.299
433.10	24.346
433.45	22.899
433.80	23.793
434.16	23.157
434.51	22.880
434.86	23.439
435.22	23.543
435.57	22.973
435.92	24.186
436.28	23.123
436.63	23.095
436.98	24.501
437.34	23.504
437.69	23.672
438.04	23.599
438.39	24.471
438.75	23.480
439.10	24.407
439.45	23.910
439.81	24.384
440.16	24.000
440.51	24.316
440.86	24.600
441.22	23.982
441.57	24.675
441.92	24.624
442.27	24.459
442.63	23.251
442.98	24.942
443.33	24.379
443.68	23.669
444.03	24.391
444.39	24.442
444.74	24.186
445.09	24.174
445.44	25.014
445.79	24.109
446.15	24.737
446.50	24.504
446.85	25.334
447.20	24.673
447.55	24.454
447.91	24.045
448.26	24.585
448.61	24.281
448.96	25.000
449.31	23.872
449.66	24.060
450.02	24.901
450.37	24.501
450.72	24.627
451.07	25.392
451.42	23.893
451.77	24.711
452.12	24.896
452.47	25.500
452.83	25.177
453.18	24.952
453.53	24.653
453.88	24.518
454.23	25.031
454.58	24.816
454.93	24.439
455.28	24.727
455.63	24.579
455.98	24.893
456.34	23.776
456.69	25.495
457.04	25.015
457.39	24.354
457.74	24.476
458.09	24.704
458.44	23.796
458.79	24.822
459.14	24.045
459.49	24.817
459.84	24.577
460.19	24.310
460.54	25.122
460.89	25.056
461.24	24.414
461.59	25.302
461.94	24.463
462.29	24.265
462.64	24.934
462.99	24.078
463.34	25.345
463.69	24.485
464.04	23.950
464.39	24.466
464.74	24.447
465.09	24.923
465.44	24.635
465.79	25.129
466.14	25.029
466.49	24.575
466.84	24.806
467.19	24.650
467.54	24.368
467.89	25.016
468.24	24.647
468.59	24.793
468.94	25.032
469.29	24.653
469.64	25.244
469.99	24.552
470.34	24.612
470.68	25.056
471.03	25.388
471.38	24.687
471.73	25.652
472.08	25.636
472.43	24.736
472.78	24.206
473.13	24.538
473.48	23.810
473.83	24.357
474.17	25.065
474.52	24.660
474.87	24.125
475.22	24.819
475.57	24.205
475.92	24.646
476.27	24.009
476.61	24.575
476.96	24.957
477.31	24.973
477.66	24.237
478.01	24.011
478.36	24.578
478.70	24.382
479.05	25.139
479.40	25.273
479.75	24.336
480.10	25.038
480.45	23.884
480.79	24.440
481.14	25.329
481.49	25.654
481.84	23.845
482.19	24.270
482.53	25.000
482.88	24.784
483.23	23.917
483.58	24.291
483.92	24.125
484.27	24.840
484.62	24.234
484.97	25.052
485.31	24.295
485.66	23.549
486.01	23.214
486.36	23.758
486.70	23.944
487.05	24.828
487.40	24.829
487.75	25.065
488.09	24.898
488.44	25.096
488.79	24.603
489.13	24.414
489.48	24.156
489.83	24.252
490.17	25.238
490.52	25.152
490.87	23.319
491.22	24.541
491.56	24.054
491.91	23.476
492.26	23.936
492.60	23.377
492.95	24.587
493.30	23.740
493.64	23.070
493.99	25.024
494.34	24.711
494.68	24.344
495.03	23.913
495.37	23.893
495.72	23.459
496.07	24.452
496.41	23.117
496.76	24.589
497.11	24.085
497.45	24.416
497.80	24.785
498.14	24.131
498.49	23.550
498.84	23.482
499.18	23.395
499.53	24.126
499.87	22.999
500.22	23.644
500.56	23.872
500.91	23.239
501.26	23.153
501.60	23.235
501.95	23.670
502.29	23.544
502.64	24.783
502.98	23.555
503.33	23.796
503.67	24.197
504.02	23.186
504.36	24.022
504.71	23.476
505.06	23.332
505.40	23.196
505.75	23.652
506.09	23.301
506.44	23.891
506.78	23.616
507.13	23.649
507.47	23.171
507.82	22.711
508.16	23.905
508.51	23.089
508.85	22.913
509.19	23.757
509.54	22.895
509.88	23.118
510.23	23.000
510.57	23.252
510.92	22.953
511.26	23.157
511.61	22.173
511.95	23.539
512.30	22.765
512.64	23.723
512.98	23.102
513.33	23.606
513.67	23.169
514.02	22.748
514.36	22.978
514.70	22.517
515.05	22.820
515.39	22.936
515.74	23.091
516.08	22.596
516.42	22.350
516.77	21.968
517.11	22.928
517.46	23.529
517.80	22.276
518.14	21.800
518.49	22.242
518.83	21.778
519.17	22.108
519.52	22.195
519.86	22.344
520.20	21.892
520.55	22.388
520.89	22.138
521.23	23.205
521.58	23.135
521.92	21.936
522.26	22.576
522.61	22.043
522.95	22.021
523.29	22.413
523.64	22.505
523.98	21.665
524.32	22.621
524.66	21.299
525.01	22.084
525.35	22.054
525.69	21.405
526.04	21.824
526.38	22.626
526.72	22.814
527.06	21.470
527.41	21.840
527.75	21.429
528.09	21.784
528.43	22.931
528.78	21.318
529.12	21.992
529.46	21.625
529.80	22.395
530.15	21.171
530.49	21.092
530.83	20.853
531.17	22.397
531.51	20.836
531.86	20.190
532.20	22.536
532.54	19.862
532.88	20.967
533.22	21.684
533.57	20.596
533.91	21.613
534.25	22.201
534.59	21.042
534.93	20.982
535.27	21.465
535.62	20.724
535.96	21.666
536.30	20.545
536.64	20.574
536.98	19.972
537.32	20.925
537.66	20.663
538.01	19.834
538.35	20.028
538.69	20.870
539.03	20.940
539.37	19.517
539.71	20.532
540.05	18.893
540.39	20.028
540.73	19.693
541.07	20.000
541.42	20.943
541.76	21.110
542.10	19.634
542.44	20.582
542.78	19.847
543.12	20.013
543.46	19.074
543.80	20.095
544.14	19.890
544.48	18.978
544.82	20.040
545.16	19.811
545.50	20.054
545.84	20.617
546.18	19.285
546.52	19.619
546.86	20.000
547.20	18.656
547.54	19.085
547.88	19.501
548.22	19.349
548.56	18.679
548.90	20.365
549.24	20.764
549.58	20.071
549.92	19.883
550.26	20.295
550.60	19.219
550.94	18.955
551.28	19.379
551.62	19.398
551.96	18.960
552.30	18.195
552.64	18.997
552.98	19.531
553.32	20.187
553.66	19.369
554.00	18.647
554.34	18.901
554.68	18.121
555.02	19.985
555.36	18.381
555.69	17.771
556.03	18.370
556.37	17.852
556.71	19.061
557.05	18.303
557.39	18.237
557.73	18.079
558.07	18.689
558.41	19.304
558.75	18.630
559.08	18.123
559.42	19.906
559.76	19.190
560.10	19.216
560.44	19.307
560.78	18.129
561.12	18.711
561.45	17.415
561.79	19.464
562.13	18.495
562.47	19.071
562.81	17.821
563.15	18.130
563.48	17.619
563.82	19.015
564.16	17.806
564.50	17.775
564.84	17.770
565.17	18.344
565.51	18.449
565.85	17.455
566.19	17.881
566.52	17.955
566.86	17.573
567.20	17.227
567.54	17.329
567.88	17.245
568.21	16.676
568.55	16.954
568.89	16.002
569.23	17.644
569.56	16.771
569.90	16.948
570.24	16.354
570.57	16.888
570.91	16.877
571.25	16.561
571.59	17.017
571.92	16.955
572.26	16.632
572.60	16.908
572.93	17.151
573.27	17.006
573.61	17.103
573.95	16.631
574.28	16.705
574.62	16.786
574.96	16.781
575.29	16.725
575.63	16.675
575.97	17.228
576.30	16.410
576.64	16.872
576.98	16.473
577.31	16.844
577.65	16.501
577.98	16.077
578.32	16.040
578.66	16.771
578.99	16.315
579.33	16.692
579.67	16.930
580.00	16.497
580.34	16.651
580.67	17.026
581.01	16.418
581.35	16.343
581.68	16.014
582.02	16.216
582.35	16.428
582.69	16.657
583.02	16.241
583.36	16.396
583.70	16.500
584.03	17.174
584.37	16.230
584.70	16.698
585.04	16.362
585.37	16.574
585.71	16.064
586.04	16.190
586.38	15.838
586.72	15.960
587.05	16.751
587.39	16.155
587.72	16.144
588.06	16.142
588.39	16.289
588.73	16.065
589.06	15.972
589.40	16.409
589.73	15.918
590.07	16.770
590.40	15.676
590.73	16.167
591.07	16.256
591.40	16.043
591.74	15.918
592.07	16.294
592.41	16.130
592.74	15.972
593.08	14.701
593.41	15.189
593.75	14.922
594.08	15.406
594.41	15.941
594.75	15.780
595.08	15.571
595.42	15.175
595.75	16.016
596.09	15.743
596.42	15.972
596.75	16.323
597.09	15.469
597.42	15.702
597.75	15.867
598.09	15.847
598.42	15.973
598.76	15.323
599.09	15.806
599.42	15.408
599.76	15.434
600.09	15.851
600.42	15.480
600.76	15.262
601.09	15.254
601.42	15.367
601.76	14.865
602.09	15.890
602.42	16.013
602.76	15.562
603.09	16.222
603.42	15.474
603.76	14.965
604.09	15.099
604.42	14.776
604.76	15.146
605.09	15.134
605.42	15.430
605.75	14.904
606.09	14.942
606.42	14.963
606.75	14.848
607.09	14.849
607.42	15.412
607.75	13.961
608.08	15.014
608.42	15.089
608.75	14.811
609.08	14.797
609.41	15.251
609.75	14.675
610.08	14.694
610.41	14.772
610.74	14.678
611.07	15.431
611.41	15.251
611.74	15.062
612.07	14.070
612.40	15.568
612.73	14.819
613.07	14.135
613.40	14.758
613.73	15.276
614.06	14.483
614.39	14.175
614.72	14.992
615.06	14.222
615.39	14.680
615.72	14.363
616.05	13.908
616.38	15.006
616.71	13.857
617.05	15.418
617.38	14.603
617.71	13.971
618.04	14.321
618.37	14.700
618.70	15.071
619.03	14.364
619.36	14.662
619.69	15.205
620.03	13.993
620.36	14.057
620.69	14.347
621.02	13.385
621.35	13.491
621.68	14.344
622.01	14.482
622.34	14.354
622.67	14.800
623.00	15.046
623.33	13.538
623.66	13.903
623.99	14.254
624.32	13.940
624.65	13.947
624.99	13.446
625.32	13.219
625.65	13.566
625.98	14.455
626.31	13.469
626.64	13.844
626.97	14.360
627.30	14.457
627.63	14.360
627.96	12.554
628.29	13.581
628.62	14.894
628.95	13.226
629.28	13.103
629.61	15.407
629.94	14.894
630.26	14.581
630.59	14.286
630.92	14.056
631.25	12.873
631.58	14.775
631.91	12.831
632.24	11.636
632.57	13.333
632.90	13.536
633.23	12.110
633.56	13.669
633.89	14.713
634.22	13.074
634.55	11.815
634.88	11.642
635.20	14.000
635.53	12.016
635.86	13.974
