SpectraSuite Data File
++++++++++++++++++++++++++++++++++++
Date: Wed May 13 21:09:53 PDT 2015
User: schluterlab
Dark Spectrum Present: Yes
Reference Spectrum Present: Yes
Number of Sampled Component Spectra: 1
Spectrometers: USB2E3373
Integration Time (usec): 3000 (USB2E3373)
Spectra Averaged: 3 (USB2E3373)
Boxcar Smoothing: 0 (USB2E3373)
Correct for Electrical Dark: No (USB2E3373)
Strobe/Lamp Enabled: No (USB2E3373)
Correct for Detector Non-linearity: No (USB2E3373)
Correct for Stray Light: No (USB2E3373)
Number of Pixels in Processed Spectrum: 2048
>>>>>Begin Processed Spectral Data<<<<<
178.53	0.000
178.91	500.000
179.29	208.333
179.67	-1000.000
180.04	-266.667
180.42	100.000
180.80	1700.000
181.18	266.667
181.56	-425.000
181.94	-250.000
182.31	-45.455
182.69	138.462
183.07	-180.000
183.45	233.333
183.83	88.889
184.20	185.714
184.58	-566.667
184.96	266.667
185.34	85.714
185.72	0.000
186.09	-1000.000
186.47	-180.000
186.85	160.000
187.23	-250.000
187.61	650.000
187.98	2100.000
188.36	-75.000
188.74	0.000
189.12	-72.727
189.49	90.000
189.87	133.333
190.25	220.000
190.63	1500.000
191.00	-200.000
191.38	340.000
191.76	300.000
192.14	125.000
192.51	26.316
192.89	266.667
193.27	350.000
193.65	-140.000
194.02	190.909
194.40	90.000
194.78	-900.000
195.15	240.000
195.53	-40.000
195.91	-75.000
196.29	-100.000
196.66	0.000
197.04	400.000
197.42	20.000
197.79	0.000
198.17	-112.500
198.55	-566.667
198.92	125.000
199.30	-233.333
199.68	-80.000
200.05	550.000
200.43	266.667
200.81	-800.000
201.18	-80.000
201.56	50.000
201.94	675.000
202.31	-17.391
202.69	-28.571
203.07	-433.333
203.44	-140.000
203.82	-366.667
204.19	20.000
204.57	0.000
204.95	-116.667
205.32	0.000
205.70	-250.000
206.08	-425.000
206.45	-233.333
206.83	525.000
207.20	-566.667
207.58	-60.000
207.96	-1700.000
208.33	-128.571
208.71	-1100.000
209.08	312.500
209.46	350.000
209.84	0.000
210.21	150.000
210.59	2000.000
210.96	280.000
211.34	1200.000
211.71	-750.000
212.09	-66.667
212.46	-50.000
212.84	-366.667
213.22	-225.000
213.59	-700.000
213.97	-750.000
214.34	-950.000
214.72	15.385
215.09	275.000
215.47	188.889
215.84	300.000
216.22	-100.000
216.59	0.000
216.97	766.667
217.34	177.778
217.72	0.000
218.09	533.333
218.47	500.000
218.84	-128.571
219.22	-112.500
219.59	-600.000
219.97	0.000
220.34	-87.500
220.72	-60.000
221.09	0.000
221.47	-250.000
221.84	0.000
222.22	0.000
222.59	1000.000
222.97	-266.667
223.34	-41.667
223.72	-1100.000
224.09	-750.000
224.46	-127.273
224.84	-75.000
225.21	-128.571
225.59	-275.000
225.96	-150.000
226.34	10.000
226.71	-171.429
227.08	750.000
227.46	87.500
227.83	-800.000
228.21	-75.000
228.58	-500.000
228.95	-35.294
229.33	18.750
229.70	-87.500
230.08	-30.769
230.45	-162.500
230.82	-108.333
231.20	214.286
231.57	-250.000
231.95	1000.000
232.32	25.000
232.69	-11.765
233.07	-700.000
233.44	-8.696
233.81	-150.000
234.19	-4.167
234.56	-46.667
234.93	-40.000
235.31	-21.053
235.68	-130.769
236.05	-38.462
236.43	0.000
236.80	-3.030
237.17	-93.333
237.55	-88.235
237.92	-55.172
238.29	-44.444
238.67	0.000
239.04	-6.452
239.41	-19.149
239.79	21.277
240.16	2.326
240.53	7.143
240.91	5.357
241.28	-5.357
241.65	6.452
242.02	-15.789
242.40	18.841
242.77	0.000
243.14	1.282
243.51	4.255
243.89	10.577
244.26	18.868
244.63	8.654
245.00	13.542
245.38	4.202
245.75	13.934
246.12	7.519
246.49	-4.065
246.87	2.521
247.24	7.432
247.61	11.258
247.98	12.821
248.36	7.692
248.73	4.494
249.10	8.081
249.47	9.677
249.84	10.000
250.22	10.448
250.59	7.944
250.96	10.455
251.33	5.742
251.70	16.318
252.08	8.368
252.45	11.934
252.82	11.787
253.19	7.393
253.56	11.151
253.94	13.523
254.31	11.972
254.68	9.732
255.05	10.561
255.42	8.741
255.79	8.282
256.16	11.356
256.54	9.206
256.91	7.911
257.28	10.377
257.65	9.236
258.02	10.557
258.39	13.450
258.76	8.140
259.14	10.511
259.51	9.270
259.88	11.653
260.25	10.556
260.62	10.393
260.99	12.467
261.36	12.176
261.73	10.864
262.10	10.687
262.47	10.617
262.85	8.458
263.22	11.026
263.59	10.909
263.96	9.246
264.33	9.375
264.70	12.093
265.07	11.574
265.44	13.333
265.81	9.611
266.18	10.251
266.55	10.480
266.92	10.593
267.29	11.111
267.66	12.314
268.03	12.551
268.40	11.441
268.77	13.430
269.14	11.633
269.51	15.606
269.88	10.794
270.25	10.593
270.62	11.066
270.99	13.780
271.36	11.310
271.73	11.245
272.10	12.000
272.47	12.092
272.84	12.402
273.21	10.959
273.58	10.246
273.95	12.075
274.32	12.687
274.69	10.200
275.06	12.544
275.43	12.806
275.80	11.348
276.17	11.050
276.54	11.012
276.91	10.801
277.28	10.469
277.65	10.490
278.02	11.964
278.39	12.789
278.76	12.709
279.13	11.664
279.50	13.448
279.87	11.051
280.23	10.811
280.60	9.170
280.97	9.740
281.34	11.514
281.71	10.894
282.08	10.769
282.45	10.164
282.82	11.022
283.19	12.348
283.56	10.469
283.92	11.468
284.29	10.140
284.66	9.390
285.03	10.423
285.40	10.272
285.77	11.111
286.14	11.550
286.51	12.744
286.87	10.308
287.24	10.619
287.61	10.994
287.98	11.912
288.35	9.836
288.72	11.191
289.08	11.254
289.45	11.013
289.82	11.649
290.19	9.677
290.56	10.227
290.93	10.773
291.29	9.713
291.66	9.836
292.03	11.172
292.40	9.017
292.77	9.237
293.13	8.787
293.50	10.850
293.87	10.000
294.24	9.259
294.60	10.403
294.97	10.317
295.34	9.235
295.71	9.593
296.08	8.246
296.44	8.418
296.81	8.892
297.18	11.750
297.55	8.962
297.91	9.938
298.28	8.838
298.65	8.990
299.02	9.158
299.38	7.607
299.75	10.817
300.12	7.907
300.48	8.070
300.85	10.277
301.22	9.524
301.59	7.981
301.95	8.479
302.32	9.568
302.69	7.797
303.05	8.638
303.42	9.091
303.79	10.305
304.15	8.653
304.52	10.538
304.89	7.530
305.25	8.013
305.62	7.701
305.99	9.358
306.35	8.464
306.72	9.766
307.09	8.446
307.45	9.372
307.82	8.211
308.19	7.628
308.55	8.802
308.92	9.725
309.29	8.609
309.65	8.392
310.02	8.748
310.38	8.333
310.75	8.087
311.12	8.455
311.48	7.913
311.85	8.071
312.22	9.091
312.58	6.957
312.95	8.657
313.31	9.183
313.68	8.588
314.05	8.034
314.41	9.414
314.78	8.824
315.14	9.074
315.51	9.039
315.87	8.897
316.24	9.183
316.61	9.680
316.97	8.796
317.34	8.467
317.70	9.545
318.07	9.938
318.43	9.485
318.80	9.250
319.16	8.488
319.53	9.857
319.89	8.401
320.26	10.628
320.62	8.156
320.99	8.915
321.35	8.887
321.72	9.625
322.08	9.871
322.45	9.806
322.81	9.519
323.18	10.376
323.54	10.018
323.91	10.569
324.27	8.551
324.64	9.408
325.00	8.574
325.37	11.007
325.73	10.690
326.10	10.177
326.46	9.615
326.83	11.327
327.19	10.650
327.56	11.201
327.92	10.941
328.29	11.269
328.65	11.131
329.01	9.059
329.38	10.609
329.74	10.901
330.11	10.730
330.47	11.458
330.84	11.101
331.20	12.980
331.56	11.957
331.93	11.628
332.29	11.816
332.66	11.695
333.02	12.858
333.38	10.526
333.75	12.201
334.11	11.719
334.48	12.990
334.84	11.396
335.20	11.664
335.57	11.314
335.93	12.113
336.29	11.208
336.66	11.624
337.02	12.261
337.38	11.140
337.75	11.456
338.11	11.016
338.47	11.130
338.84	12.543
339.20	10.582
339.56	11.775
339.93	11.582
340.29	13.407
340.65	10.693
341.02	11.564
341.38	11.993
341.74	9.748
342.11	11.808
342.47	11.046
342.83	12.500
343.20	11.760
343.56	12.592
343.92	12.998
344.28	12.256
344.65	11.020
345.01	11.461
345.37	12.418
345.73	12.663
346.10	12.841
346.46	11.545
346.82	10.915
347.19	11.867
347.55	11.551
347.91	11.068
348.27	12.382
348.63	11.218
349.00	11.714
349.36	11.538
349.72	12.529
350.08	11.778
350.45	12.451
350.81	12.598
351.17	13.010
351.53	11.469
351.89	12.629
352.26	11.120
352.62	12.403
352.98	12.061
353.34	10.386
353.70	11.371
354.07	11.608
354.43	12.286
354.79	12.500
355.15	12.422
355.51	12.908
355.87	12.666
356.24	12.119
356.60	11.884
356.96	12.510
357.32	12.693
357.68	12.529
358.04	12.723
358.40	13.101
358.77	13.456
359.13	12.218
359.49	12.339
359.85	12.282
360.21	12.722
360.57	12.395
360.93	13.126
361.29	12.805
361.66	12.908
362.02	12.824
362.38	12.334
362.74	11.893
363.10	12.726
363.46	12.104
363.82	13.230
364.18	12.835
364.54	13.056
364.90	12.474
365.26	12.880
365.62	12.855
365.98	13.025
366.35	13.191
366.71	13.124
367.07	13.182
367.43	13.101
367.79	13.273
368.15	13.502
368.51	12.658
368.87	13.678
369.23	13.665
369.59	13.531
369.95	12.627
370.31	13.040
370.67	13.106
371.03	13.140
371.39	14.123
371.75	13.214
372.11	12.963
372.47	14.059
372.83	14.008
373.19	13.885
373.55	12.934
373.91	14.074
374.27	12.517
374.63	13.442
374.99	13.231
375.35	13.356
375.71	13.111
376.07	14.325
376.42	12.834
376.78	13.804
377.14	13.559
377.50	13.885
377.86	13.878
378.22	13.970
378.58	13.934
378.94	14.625
379.30	14.241
379.66	14.673
380.02	14.216
380.38	13.795
380.74	14.585
381.09	14.475
381.45	14.389
381.81	14.849
382.17	13.611
382.53	14.646
382.89	15.199
383.25	14.321
383.61	14.831
383.97	14.062
384.32	14.493
384.68	14.497
385.04	13.622
385.40	14.695
385.76	14.599
386.12	14.655
386.48	14.545
386.83	15.645
387.19	14.065
387.55	14.592
387.91	14.391
388.27	15.598
388.62	14.669
388.98	15.081
389.34	15.100
389.70	15.446
390.06	15.625
390.42	15.722
390.77	15.567
391.13	15.783
391.49	14.611
391.85	15.208
392.20	15.727
392.56	16.127
392.92	15.916
393.28	14.759
393.64	15.291
393.99	14.565
394.35	16.173
394.71	15.128
395.07	14.277
395.42	16.027
395.78	15.444
396.14	16.170
396.50	15.536
396.85	15.806
397.21	15.730
397.57	15.839
397.92	15.509
398.28	15.736
398.64	15.847
399.00	15.904
399.35	16.232
399.71	16.191
400.07	15.843
400.42	15.549
400.78	15.952
401.14	15.205
401.49	15.758
401.85	16.032
402.21	15.728
402.57	17.167
402.92	16.959
403.28	16.448
403.63	16.677
403.99	15.675
404.35	16.272
404.70	15.710
405.06	17.264
405.42	15.955
405.77	16.071
406.13	16.457
406.49	17.076
406.84	17.155
407.20	16.459
407.55	16.688
407.91	17.141
408.27	16.407
408.62	16.329
408.98	16.215
409.34	17.450
409.69	17.544
410.05	17.786
410.40	18.077
410.76	17.509
411.11	17.351
411.47	17.518
411.83	17.530
412.18	16.940
412.54	18.609
412.89	16.928
413.25	16.637
413.60	16.991
413.96	18.040
414.31	18.187
414.67	17.968
415.03	17.321
415.38	17.900
415.74	17.999
416.09	19.035
416.45	18.319
416.80	17.450
417.16	18.961
417.51	18.486
417.87	19.378
418.22	18.100
418.58	17.806
418.93	18.581
419.29	19.076
419.64	18.321
420.00	18.222
420.35	18.948
420.71	17.550
421.06	19.127
421.42	18.309
421.77	18.555
422.12	18.739
422.48	17.939
422.83	18.606
423.19	19.436
423.54	18.905
423.90	19.181
424.25	19.469
424.61	19.039
424.96	18.273
425.31	18.620
425.67	19.283
426.02	19.552
426.38	19.652
426.73	18.876
427.09	19.137
427.44	19.730
427.79	19.596
428.15	19.205
428.50	18.792
428.85	19.803
429.21	19.190
429.56	19.501
429.92	20.042
430.27	19.581
430.62	18.678
430.98	19.355
431.33	20.043
431.68	19.169
432.04	19.380
432.39	19.861
432.74	19.559
433.10	20.163
433.45	19.645
433.80	19.540
434.16	19.880
434.51	19.837
434.86	20.495
435.22	19.864
435.57	19.840
435.92	19.240
436.28	19.580
436.63	19.977
436.98	19.330
437.34	19.963
437.69	20.189
438.04	19.921
438.39	20.112
438.75	19.845
439.10	20.706
439.45	20.036
439.81	20.751
440.16	20.058
440.51	20.095
440.86	20.628
441.22	20.138
441.57	20.011
441.92	20.321
442.27	19.697
442.63	20.183
442.98	20.197
443.33	20.711
443.68	19.663
444.03	19.871
444.39	21.120
444.74	19.216
445.09	19.493
445.44	21.127
445.79	21.115
446.15	20.854
446.50	20.430
446.85	19.936
447.20	20.491
447.55	20.873
447.91	19.775
448.26	20.755
448.61	20.081
448.96	20.216
449.31	20.503
449.66	21.110
450.02	20.125
450.37	20.447
450.72	20.494
451.07	21.129
451.42	19.152
451.77	19.659
452.12	20.974
452.47	21.175
452.83	19.693
453.18	19.669
453.53	20.177
453.88	20.542
454.23	20.210
454.58	20.466
454.93	20.718
455.28	19.396
455.63	19.214
455.98	20.390
456.34	19.517
456.69	20.831
457.04	19.876
457.39	20.084
457.74	19.689
458.09	20.083
458.44	20.564
458.79	19.440
459.14	20.562
459.49	20.000
459.84	19.222
460.19	19.868
460.54	19.647
460.89	20.158
461.24	19.544
461.59	20.592
461.94	20.417
462.29	18.750
462.64	19.129
462.99	19.920
463.34	20.235
463.69	20.103
464.04	18.727
464.39	19.646
464.74	19.779
465.09	20.025
465.44	19.192
465.79	19.954
466.14	19.384
466.49	20.000
466.84	19.665
467.19	19.172
467.54	20.350
467.89	19.547
468.24	20.098
468.59	20.140
468.94	19.157
469.29	19.696
469.64	20.363
469.99	20.207
470.34	19.622
470.68	19.777
471.03	20.381
471.38	20.515
471.73	20.576
472.08	19.656
472.43	20.844
472.78	20.216
473.13	19.063
473.48	19.635
473.83	19.900
474.17	19.401
474.52	19.547
474.87	18.818
475.22	19.505
475.57	18.405
475.92	19.084
476.27	19.464
476.61	19.649
476.96	19.018
477.31	19.471
477.66	20.000
478.01	19.505
478.36	19.346
478.70	19.388
479.05	20.089
479.40	19.397
479.75	18.916
480.10	18.103
480.45	19.127
480.79	18.118
481.14	19.048
481.49	19.240
481.84	18.190
482.19	18.296
482.53	18.905
482.88	19.463
483.23	18.768
483.58	18.620
483.92	18.482
484.27	18.710
484.62	18.154
484.97	18.499
485.31	18.230
485.66	17.718
486.01	17.801
486.36	17.539
486.70	17.322
487.05	18.282
487.40	18.261
487.75	18.289
488.09	18.142
488.44	18.577
488.79	18.395
489.13	19.046
489.48	18.341
489.83	18.401
490.17	19.065
490.52	19.168
490.87	18.869
491.22	18.983
491.56	18.687
491.91	18.531
492.26	18.375
492.60	18.422
492.95	18.707
493.30	18.266
493.64	17.458
493.99	18.937
494.34	18.642
494.68	18.663
495.03	18.577
495.37	18.200
495.72	18.546
496.07	19.094
496.41	18.016
496.76	18.419
497.11	18.967
497.45	18.337
497.80	18.829
498.14	18.992
498.49	17.801
498.84	18.219
499.18	18.517
499.53	17.971
499.87	17.952
500.22	18.417
500.56	18.104
500.91	18.561
501.26	18.030
501.60	17.549
501.95	18.735
502.29	18.447
502.64	18.901
502.98	18.160
503.33	17.908
503.67	17.722
504.02	18.039
504.36	18.029
504.71	18.852
505.06	18.798
505.40	18.918
505.75	18.871
506.09	17.680
506.44	18.397
506.78	17.928
507.13	18.503
507.47	17.975
507.82	18.367
508.16	18.575
508.51	19.008
508.85	17.989
509.19	18.042
509.54	18.606
509.88	18.548
510.23	18.105
510.57	18.167
510.92	18.157
511.26	18.922
511.61	18.277
511.95	18.853
512.30	17.934
512.64	18.956
512.98	17.839
513.33	18.479
513.67	18.285
514.02	19.327
514.36	18.258
514.70	18.764
515.05	18.198
515.39	18.219
515.74	18.591
516.08	18.761
516.42	17.972
516.77	17.809
517.11	17.695
517.46	17.587
517.80	18.281
518.14	18.432
518.49	18.023
518.83	18.377
519.17	17.952
519.52	18.335
519.86	19.186
520.20	18.739
520.55	17.848
520.89	18.406
521.23	19.231
521.58	19.406
521.92	17.850
522.26	18.152
522.61	18.164
522.95	18.135
523.29	17.714
523.64	18.945
523.98	18.806
524.32	18.715
524.66	18.831
525.01	18.938
525.35	18.367
525.69	18.555
526.04	18.567
526.38	18.228
526.72	18.869
527.06	18.569
527.41	17.538
527.75	19.092
528.09	18.516
528.43	18.182
528.78	18.798
529.12	18.887
529.46	17.594
529.80	18.576
530.15	17.375
530.49	18.396
530.83	18.957
531.17	18.014
531.51	17.734
531.86	17.886
532.20	18.401
532.54	18.966
532.88	18.516
533.22	18.721
533.57	18.344
533.91	18.581
534.25	18.685
534.59	17.310
534.93	18.240
535.27	18.280
535.62	18.553
535.96	18.347
536.30	19.149
536.64	17.908
536.98	17.379
537.32	17.509
537.66	18.618
538.01	17.614
538.35	18.025
538.69	18.194
539.03	17.315
539.37	16.633
539.71	17.599
540.05	17.746
540.39	18.032
540.73	17.528
541.07	17.959
541.42	17.441
541.76	17.794
542.10	18.009
542.44	17.325
542.78	17.210
543.12	18.396
543.46	17.830
543.80	18.601
544.14	18.513
544.48	17.452
544.82	18.225
545.16	17.106
545.50	18.231
545.84	17.602
546.18	18.443
546.52	17.996
546.86	16.820
547.20	17.513
547.54	17.298
547.88	17.544
548.22	17.915
548.56	16.811
548.90	17.050
549.24	17.986
549.58	17.936
549.92	17.461
550.26	19.188
550.60	17.342
550.94	17.388
551.28	16.200
551.62	17.218
551.96	16.984
552.30	16.303
552.64	16.949
552.98	18.608
553.32	18.313
553.66	18.269
554.00	16.703
554.34	17.216
554.68	18.270
555.02	16.916
555.36	16.566
555.69	16.679
556.03	17.155
556.37	16.856
556.71	17.169
557.05	16.384
557.39	16.654
557.73	17.700
558.07	17.031
558.41	17.487
558.75	17.475
559.08	16.520
559.42	17.545
559.76	17.890
560.10	17.294
560.44	17.244
560.78	16.187
561.12	16.608
561.45	17.415
561.79	16.644
562.13	16.878
562.47	17.500
562.81	15.368
563.15	17.068
563.48	16.724
563.82	16.553
564.16	17.129
564.50	16.621
564.84	16.284
565.17	16.424
565.51	16.644
565.85	16.056
566.19	16.556
566.52	16.841
566.86	15.929
567.20	16.738
567.54	16.753
567.88	15.006
568.21	16.078
568.55	16.015
568.89	15.055
569.23	15.720
569.56	15.227
569.90	15.491
570.24	14.368
570.57	15.353
570.91	14.214
571.25	14.522
571.59	14.582
571.92	14.374
572.26	14.583
572.60	14.906
572.93	14.558
573.27	14.485
573.61	14.829
573.95	14.463
574.28	14.179
574.62	14.293
574.96	14.222
575.29	13.867
575.63	14.199
575.97	14.293
576.30	13.794
576.64	14.069
576.98	14.102
577.31	14.319
577.65	13.828
577.98	13.760
578.32	14.303
578.66	14.400
578.99	13.920
579.33	14.143
579.67	14.078
580.00	13.689
580.34	13.912
580.67	13.939
581.01	13.923
581.35	13.630
581.68	14.026
582.02	14.036
582.35	14.076
582.69	13.874
583.02	14.005
583.36	13.687
583.70	14.113
584.03	14.047
584.37	13.716
584.70	14.194
585.04	14.433
585.37	13.779
585.71	13.652
586.04	13.910
586.38	13.996
586.72	14.246
587.05	14.636
587.39	14.037
587.72	13.670
588.06	14.008
588.39	14.162
588.73	13.929
589.06	14.549
589.40	13.863
589.73	13.547
590.07	14.182
590.40	14.464
590.73	14.141
591.07	14.835
591.40	13.739
591.74	14.673
592.07	15.244
592.41	14.243
592.74	14.352
593.08	14.051
593.41	14.066
593.75	13.663
594.08	13.782
594.41	14.442
594.75	14.543
595.08	14.190
595.42	13.636
595.75	13.521
596.09	14.473
596.42	14.297
596.75	14.656
597.09	14.513
597.42	14.625
597.75	13.644
598.09	14.117
598.42	13.870
598.76	13.896
599.09	14.326
599.42	13.746
599.76	13.819
600.09	14.157
600.42	13.635
600.76	13.784
601.09	14.652
601.42	13.759
601.76	13.900
602.09	14.268
602.42	14.362
602.76	14.597
603.09	14.086
603.42	13.994
603.76	13.640
604.09	14.308
604.42	13.939
604.76	14.448
605.09	14.409
605.42	15.160
605.75	13.490
606.09	13.328
606.42	13.840
606.75	13.853
607.09	14.849
607.42	13.923
607.75	13.435
608.08	14.337
608.42	14.574
608.75	14.238
609.08	13.817
609.41	14.406
609.75	13.767
610.08	14.349
610.41	14.626
610.74	14.148
611.07	14.128
611.41	14.739
611.74	14.700
612.07	15.112
612.40	14.486
612.73	14.435
613.07	15.244
613.40	14.042
613.73	14.139
614.06	14.373
614.39	13.730
614.72	15.436
615.06	14.111
615.39	14.404
615.72	13.931
616.05	13.739
616.38	14.204
616.71	13.077
617.05	15.049
617.38	14.603
617.71	14.583
618.04	14.930
618.37	14.132
618.70	14.295
619.03	13.883
619.36	14.093
619.69	14.401
620.03	14.488
620.36	14.892
620.69	13.990
621.02	14.769
621.35	14.309
621.68	15.159
622.01	15.453
622.34	14.909
622.67	14.957
623.00	14.894
623.33	14.959
623.66	15.019
623.99	15.679
624.32	15.114
624.65	14.911
624.99	14.548
625.32	15.609
625.65	15.349
625.98	15.166
626.31	16.163
626.64	15.649
626.97	14.619
627.30	15.569
627.63	14.533
627.96	15.325
628.29	16.372
628.62	14.894
628.95	16.132
629.28	13.892
629.61	16.268
629.94	15.861
630.26	17.044
630.59	16.384
630.92	14.859
631.25	15.860
631.58	16.702
631.91	14.528
632.24	15.477
632.57	14.556
632.90	16.569
633.23	14.628
633.56	17.986
633.89	15.431
634.22	18.375
634.55	15.591
634.88	16.912
635.20	16.625
