SpectraSuite Data File
++++++++++++++++++++++++++++++++++++
Date: Wed May 13 21:25:46 PDT 2015
User: schluterlab
Dark Spectrum Present: Yes
Reference Spectrum Present: Yes
Number of Sampled Component Spectra: 1
Spectrometers: USB2E3373
Integration Time (usec): 3000 (USB2E3373)
Spectra Averaged: 3 (USB2E3373)
Boxcar Smoothing: 0 (USB2E3373)
Correct for Electrical Dark: No (USB2E3373)
Strobe/Lamp Enabled: No (USB2E3373)
Correct for Detector Non-linearity: No (USB2E3373)
Correct for Stray Light: No (USB2E3373)
Number of Pixels in Processed Spectrum: 2048
>>>>>Begin Processed Spectral Data<<<<<
178.53	0.000
178.91	500.000
179.29	191.667
179.67	-300.000
180.04	-433.333
180.42	40.000
180.80	1000.000
181.18	216.667
181.56	-400.000
181.94	-300.000
182.31	-27.273
182.69	138.462
183.07	-360.000
183.45	233.333
183.83	288.889
184.20	285.714
184.58	-366.667
184.96	600.000
185.34	242.857
185.72	0.000
186.09	-1100.000
186.47	-260.000
186.85	240.000
187.23	-400.000
187.61	1100.000
187.98	2300.000
188.36	0.000
188.74	0.000
189.12	-54.545
189.49	-10.000
189.87	83.333
190.25	360.000
190.63	1900.000
191.00	60.000
191.38	180.000
191.76	400.000
192.14	166.667
192.51	5.263
192.89	566.667
193.27	125.000
193.65	-240.000
194.02	245.455
194.40	120.000
194.78	-1600.000
195.15	260.000
195.53	-220.000
195.91	-100.000
196.29	-266.667
196.66	0.000
197.04	550.000
197.42	-100.000
197.79	-70.000
198.17	-212.500
198.55	-466.667
198.92	100.000
199.30	-366.667
199.68	-30.000
200.05	450.000
200.43	166.667
200.81	-1100.000
201.18	-120.000
201.56	-300.000
201.94	525.000
202.31	4.348
202.69	-114.286
203.07	-500.000
203.44	-280.000
203.82	-266.667
204.19	-100.000
204.57	0.000
204.95	0.000
205.32	0.000
205.70	-150.000
206.08	-400.000
206.45	-33.333
206.83	450.000
207.20	33.333
207.58	-30.000
207.96	-1800.000
208.33	-71.429
208.71	-1300.000
209.08	250.000
209.46	425.000
209.84	0.000
210.21	160.000
210.59	1800.000
210.96	480.000
211.34	1000.000
211.71	-700.000
212.09	-150.000
212.46	-200.000
212.84	-266.667
213.22	175.000
213.59	-1700.000
213.97	-400.000
214.34	-150.000
214.72	-46.154
215.09	250.000
215.47	211.111
215.84	750.000
216.22	-125.000
216.59	-300.000
216.97	766.667
217.34	111.111
217.72	0.000
218.09	266.667
218.47	-200.000
218.84	-128.571
219.22	-237.500
219.59	-500.000
219.97	-175.000
220.34	-100.000
220.72	-160.000
221.09	0.000
221.47	-150.000
221.84	-700.000
222.22	0.000
222.59	900.000
222.97	-266.667
223.34	-50.000
223.72	-1100.000
224.09	-200.000
224.46	-63.636
224.84	-100.000
225.21	-185.714
225.59	-300.000
225.96	-200.000
226.34	-150.000
226.71	-57.143
227.08	600.000
227.46	-37.500
227.83	100.000
228.21	-25.000
228.58	-200.000
228.95	-76.471
229.33	-43.750
229.70	-100.000
230.08	-38.462
230.45	-212.500
230.82	-108.333
231.20	128.571
231.57	-425.000
231.95	1000.000
232.32	33.333
232.69	41.176
233.07	-2000.000
233.44	-30.435
233.81	-1000.000
234.19	29.167
234.56	-66.667
234.93	-13.333
235.31	26.316
235.68	-53.846
236.05	-15.385
236.43	38.889
236.80	0.000
237.17	-66.667
237.55	-47.059
237.92	10.345
238.29	-18.519
238.67	8.333
239.04	-9.677
239.41	4.255
239.79	21.277
240.16	25.581
240.53	16.071
240.91	33.929
241.28	33.929
241.65	17.742
242.02	17.105
242.40	33.333
242.77	14.493
243.14	28.205
243.51	34.043
243.89	23.077
244.26	31.132
244.63	26.923
245.00	38.542
245.38	27.731
245.75	35.246
246.12	36.090
246.49	28.455
246.87	21.008
247.24	36.486
247.61	35.099
247.98	33.974
248.36	34.320
248.73	30.337
249.10	36.869
249.47	33.871
249.84	36.842
250.22	33.333
250.59	32.710
250.96	37.273
251.33	31.579
251.70	39.749
252.08	33.054
252.45	35.802
252.82	35.741
253.19	34.630
253.56	33.813
253.94	37.367
254.31	36.620
254.68	38.591
255.05	35.644
255.42	36.014
255.79	34.049
256.16	37.224
256.54	39.048
256.91	33.861
257.28	37.421
257.65	35.350
258.02	32.551
258.39	37.719
258.76	35.465
259.14	34.943
259.51	35.674
259.88	36.856
260.25	35.556
260.62	35.674
260.99	36.870
261.36	35.751
261.73	33.333
262.10	37.150
262.47	32.840
262.85	37.313
263.22	36.410
263.59	35.844
263.96	36.010
264.33	35.817
264.70	35.349
265.07	38.426
265.44	38.851
265.81	37.757
266.18	39.408
266.55	36.026
266.92	33.686
267.29	35.802
267.66	35.456
268.03	37.654
268.40	33.051
268.77	39.463
269.14	38.163
269.51	37.166
269.88	36.660
270.25	37.924
270.62	35.246
270.99	37.992
271.36	34.325
271.73	35.341
272.10	36.571
272.47	35.893
272.84	39.173
273.21	34.051
273.58	35.451
273.95	36.792
274.32	37.500
274.69	37.523
275.06	37.102
275.43	34.652
275.80	34.397
276.17	37.017
276.54	36.057
276.91	36.760
277.28	34.296
277.65	36.014
278.02	37.321
278.39	35.346
278.76	36.622
279.13	36.878
279.50	33.103
279.87	36.413
280.23	37.297
280.60	35.467
280.97	34.091
281.34	37.697
281.71	34.959
282.08	35.043
282.45	36.393
282.82	35.144
283.19	36.433
283.56	34.531
283.92	33.639
284.29	35.881
284.66	36.244
285.03	33.876
285.40	33.988
285.77	37.538
286.14	34.650
286.51	35.382
286.87	31.538
287.24	33.333
287.61	34.940
287.98	33.529
288.35	33.681
288.72	34.003
289.08	31.766
289.45	32.452
289.82	32.829
290.19	32.819
290.56	30.682
290.93	32.320
291.29	31.053
291.66	31.831
292.03	31.744
292.40	30.283
292.77	31.058
293.13	31.660
293.50	32.026
293.87	32.000
294.24	29.894
294.60	29.389
294.97	30.291
295.34	27.045
295.71	27.989
296.08	29.319
296.44	28.316
296.81	29.111
297.18	28.000
297.55	29.245
297.91	29.441
298.28	28.208
298.65	28.325
299.02	28.327
299.38	28.589
299.75	27.163
300.12	26.512
300.48	28.070
300.85	28.176
301.22	27.294
301.59	27.230
301.95	26.481
302.32	27.421
302.69	25.989
303.05	27.907
303.42	26.818
303.79	27.865
304.15	26.177
304.52	27.957
304.89	26.246
305.25	25.247
305.62	26.573
305.99	26.768
306.35	26.123
306.72	26.857
307.09	25.235
307.45	25.879
307.82	24.421
308.19	24.242
308.55	26.407
308.92	27.308
309.29	23.924
309.65	25.774
310.02	26.541
310.38	26.728
310.75	25.345
311.12	26.336
311.48	27.102
311.85	26.870
312.22	26.596
312.58	25.024
312.95	26.269
313.31	24.610
313.68	26.240
314.05	25.425
314.41	25.841
314.78	25.047
315.14	25.741
315.51	26.166
315.87	25.765
316.24	25.712
316.61	25.753
316.97	25.185
317.34	25.401
317.70	25.513
318.07	26.087
318.43	26.197
318.80	25.829
319.16	24.845
319.53	25.358
319.89	24.390
320.26	25.139
320.62	25.209
320.99	23.062
321.35	24.977
321.72	25.217
322.08	25.646
322.45	23.682
322.81	25.416
323.18	23.345
323.54	25.632
323.91	25.203
324.27	24.572
324.64	23.693
325.00	24.584
325.37	24.317
325.73	24.579
326.10	23.886
326.46	25.418
326.83	24.272
327.19	24.878
327.56	25.060
327.92	24.055
328.29	25.876
328.65	24.978
329.01	25.066
329.38	25.652
329.74	23.605
330.11	23.805
330.47	24.132
330.84	24.458
331.20	24.338
331.56	24.457
331.93	23.342
332.29	25.282
332.66	23.898
333.02	25.109
333.38	24.386
333.75	23.720
334.11	23.872
334.48	23.888
334.84	23.410
335.20	24.185
335.57	24.108
335.93	23.540
336.29	22.855
336.66	23.932
337.02	23.304
337.38	24.195
337.75	24.117
338.11	24.765
338.47	23.459
338.84	22.423
339.20	24.250
339.56	23.891
339.93	24.287
340.29	24.082
340.65	23.439
341.02	22.795
341.38	23.564
341.74	23.613
342.11	23.865
342.47	23.515
342.83	24.592
343.20	23.350
343.56	24.285
343.92	24.370
344.28	23.782
344.65	24.327
345.01	22.922
345.37	23.437
345.73	23.693
346.10	23.596
346.46	23.171
346.82	22.873
347.19	23.418
347.55	23.910
347.91	22.369
348.27	23.423
348.63	23.798
349.00	23.349
349.36	23.234
349.72	23.743
350.08	22.543
350.45	22.396
350.81	23.709
351.17	23.634
351.53	22.545
351.89	22.637
352.26	21.931
352.62	22.636
352.98	22.764
353.34	23.188
353.70	23.364
354.07	22.588
354.43	23.017
354.79	24.038
355.15	23.292
355.51	23.994
355.87	23.299
356.24	23.274
356.60	22.518
356.96	23.408
357.32	22.601
357.68	23.377
358.04	22.653
358.40	21.705
358.77	23.012
359.13	22.568
359.49	22.634
359.85	22.517
360.21	23.130
360.57	22.738
360.93	22.458
361.29	23.316
361.66	23.538
362.02	22.387
362.38	23.191
362.74	22.335
363.10	22.560
363.46	22.406
363.82	23.134
364.18	21.247
364.54	22.976
364.90	21.951
365.26	22.859
365.62	22.727
365.98	21.566
366.35	23.121
366.71	22.539
367.07	22.183
367.43	21.812
367.79	22.516
368.15	23.066
368.51	21.941
368.87	21.842
369.23	21.922
369.59	23.185
369.95	21.045
370.31	22.106
370.67	21.289
371.03	23.311
371.39	22.143
371.75	21.214
372.11	22.222
372.47	21.413
372.83	21.983
373.19	22.158
373.55	22.254
373.91	22.631
374.27	21.715
374.63	22.048
374.99	22.354
375.35	21.507
375.71	20.992
376.07	21.659
376.42	22.259
376.78	22.061
377.14	22.441
377.50	22.751
377.86	22.244
378.22	21.555
378.58	22.194
378.94	21.500
379.30	22.236
379.66	22.441
380.02	21.569
380.38	21.928
380.74	21.996
381.09	22.014
381.45	20.617
381.81	21.627
382.17	21.109
382.53	21.538
382.89	21.773
383.25	22.037
383.61	22.700
383.97	22.438
384.32	20.731
384.68	22.579
385.04	21.747
385.40	22.478
385.76	21.959
386.12	22.143
386.48	21.944
386.83	22.278
387.19	21.283
387.55	22.195
387.91	21.956
388.27	21.147
388.62	21.036
388.98	21.527
389.34	22.431
389.70	21.184
390.06	21.938
390.42	22.101
390.77	22.550
391.13	20.833
391.49	21.189
391.85	21.661
392.20	22.243
392.56	21.651
392.92	21.475
393.28	21.848
393.64	21.651
393.99	20.685
394.35	21.543
394.71	21.154
395.07	21.132
395.42	22.182
395.78	20.721
396.14	21.306
396.50	20.926
396.85	22.945
397.21	21.598
397.57	21.677
397.92	21.078
398.28	21.658
398.64	21.615
399.00	21.596
399.35	22.134
399.71	21.491
400.07	21.265
400.42	20.690
400.78	21.027
401.14	20.356
401.49	20.312
401.85	21.499
402.21	21.053
402.57	21.766
402.92	21.652
403.28	20.700
403.63	21.699
403.99	21.689
404.35	21.509
404.70	21.329
405.06	21.844
405.42	20.540
405.77	21.429
406.13	20.629
406.49	21.210
406.84	21.490
407.20	21.314
407.55	21.558
407.91	20.781
408.27	19.963
408.62	21.547
408.98	20.654
409.34	20.050
409.69	21.897
410.05	21.082
410.40	20.085
410.76	21.600
411.11	21.206
411.47	21.765
411.83	20.711
412.18	21.348
412.54	22.055
412.89	20.752
413.25	20.649
413.60	21.254
413.96	21.286
414.31	21.147
414.67	20.571
415.03	21.245
415.38	21.466
415.74	20.663
416.09	21.943
416.45	21.189
416.80	21.141
417.16	20.850
417.51	20.831
417.87	21.825
418.22	21.461
418.58	21.025
418.93	21.343
419.29	20.924
419.64	20.229
420.00	21.143
420.35	20.741
420.71	20.902
421.06	21.402
421.42	21.411
421.77	21.156
422.12	21.547
422.48	20.774
422.83	21.146
423.19	20.472
423.54	21.143
423.90	20.071
424.25	22.010
424.61	21.072
424.96	19.988
425.31	20.303
425.67	21.928
426.02	21.084
426.38	21.828
426.73	21.075
427.09	20.638
427.44	20.787
427.79	20.962
428.15	21.040
428.50	20.967
428.85	21.587
429.21	21.272
429.56	22.210
429.92	20.666
430.27	21.115
430.62	21.196
430.98	21.100
431.33	21.494
431.68	21.778
432.04	20.845
432.39	20.785
432.74	20.356
433.10	22.138
433.45	21.006
433.80	21.092
434.16	21.354
434.51	21.359
434.86	21.378
435.22	20.713
435.57	21.622
435.92	21.532
436.28	20.901
436.63	20.785
436.98	21.387
437.34	21.001
437.69	21.370
438.04	19.977
438.39	20.859
438.75	21.097
439.10	21.342
439.45	21.308
439.81	21.244
440.16	21.739
440.51	21.225
440.86	21.340
441.22	21.916
441.57	22.180
441.92	22.188
442.27	20.887
442.63	21.421
442.98	21.238
443.33	21.840
443.68	20.611
444.03	20.666
444.39	21.269
444.74	20.541
445.09	20.980
445.44	21.408
445.79	21.115
446.15	20.965
446.50	21.311
446.85	20.791
447.20	20.700
447.55	21.880
447.91	20.281
448.26	21.384
448.61	21.346
448.96	20.957
449.31	21.074
449.66	21.168
450.02	21.489
450.37	21.269
450.72	20.953
451.07	20.502
451.42	20.087
451.77	20.998
452.12	20.915
452.47	21.240
452.83	20.814
453.18	20.878
453.53	20.618
453.88	21.265
454.23	22.002
454.58	21.569
454.93	20.911
455.28	21.066
455.63	21.959
455.98	21.546
456.34	20.598
456.69	20.831
457.04	20.681
457.39	21.167
457.74	21.185
458.09	21.327
458.44	20.740
458.79	21.252
459.14	20.449
459.49	21.220
459.84	21.026
460.19	20.648
460.54	21.229
460.89	20.327
461.24	21.640
461.59	20.773
461.94	21.681
462.29	20.466
462.64	20.317
462.99	20.657
463.34	20.994
463.69	21.714
464.04	20.408
464.39	20.805
464.74	21.867
465.09	21.017
465.44	21.100
465.79	21.852
466.14	20.639
466.49	20.762
466.84	20.980
467.19	20.318
467.54	20.868
467.89	21.056
468.24	20.283
468.59	20.778
468.94	21.711
469.29	21.216
469.64	20.851
469.99	21.586
470.34	20.364
470.68	19.703
471.03	20.592
471.38	20.723
471.73	21.056
472.08	21.031
472.43	20.251
472.78	21.163
473.13	20.449
473.48	19.439
473.83	20.653
474.17	20.508
474.52	20.518
474.87	20.808
475.22	21.135
475.57	20.970
475.92	20.611
476.27	21.212
476.61	20.951
476.96	20.503
477.31	20.874
477.66	21.130
478.01	20.549
478.36	20.599
478.70	20.892
479.05	20.810
479.40	20.905
479.75	20.670
480.10	21.469
480.45	20.549
480.79	20.906
481.14	21.733
481.49	21.115
481.84	20.641
482.19	20.704
482.53	20.762
482.88	20.614
483.23	20.115
483.58	21.314
483.92	20.477
484.27	20.448
484.62	20.417
484.97	21.402
485.31	21.156
485.66	22.116
486.01	22.594
486.36	22.902
486.70	22.062
487.05	21.865
487.40	21.729
487.75	21.275
488.09	20.488
488.44	19.628
488.79	20.477
489.13	19.881
489.48	20.693
489.83	20.813
490.17	20.018
490.52	21.412
490.87	20.399
491.22	20.443
491.56	20.795
491.91	20.595
492.26	21.035
492.60	19.817
492.95	20.603
493.30	20.397
493.64	19.904
493.99	20.048
494.34	20.472
494.68	20.382
495.03	20.652
495.37	20.438
495.72	20.451
496.07	21.189
496.41	20.122
496.76	20.887
497.11	20.986
497.45	20.525
497.80	21.050
498.14	20.101
498.49	20.020
498.84	20.445
499.18	19.711
499.53	19.941
499.87	19.651
500.22	20.856
500.56	20.461
500.91	21.227
501.26	21.084
501.60	20.539
501.95	20.508
502.29	20.000
502.64	20.444
502.98	20.809
503.33	20.633
503.67	21.081
504.02	20.490
504.36	20.505
504.71	19.563
505.06	20.785
505.40	20.000
505.75	21.160
506.09	19.775
506.44	20.212
506.78	20.112
507.13	20.998
507.47	19.512
507.82	20.879
508.16	20.792
508.51	20.300
508.85	20.166
509.19	20.159
509.54	20.697
509.88	20.000
510.23	19.842
510.57	20.286
510.92	19.828
511.26	21.122
511.61	20.362
511.95	20.342
512.30	19.878
512.64	20.772
512.98	20.554
513.33	20.451
513.67	19.989
514.02	21.095
514.36	20.674
514.70	20.266
515.05	19.895
515.39	20.401
515.74	20.545
516.08	19.174
516.42	20.392
516.77	19.098
517.11	19.577
517.46	21.128
517.80	21.308
518.14	19.780
518.49	19.892
518.83	20.883
519.17	20.663
519.52	19.421
519.86	20.522
520.20	19.770
520.55	20.149
520.89	19.228
521.23	20.385
521.58	19.722
521.92	20.050
522.26	19.519
522.61	20.362
522.95	20.855
523.29	20.317
523.64	20.788
523.98	20.394
524.32	19.597
524.66	19.870
525.01	20.970
525.35	20.474
525.69	19.284
526.04	20.065
526.38	20.778
526.72	19.527
527.06	20.374
527.41	19.193
527.75	20.093
528.09	20.082
528.43	21.031
528.78	19.509
529.12	20.246
529.46	20.282
529.80	19.741
530.15	20.463
530.49	19.407
530.83	20.718
531.17	21.096
531.51	18.881
531.86	20.054
532.20	20.469
532.54	19.517
532.88	19.401
533.22	20.202
533.57	20.861
533.91	21.161
534.25	21.615
534.59	20.399
534.93	20.344
535.27	20.000
535.62	20.132
535.96	20.820
536.30	21.011
536.64	20.096
536.98	20.252
537.32	21.352
537.66	19.887
538.01	20.250
538.35	19.820
538.69	19.532
539.03	19.933
539.37	19.987
539.71	20.396
540.05	20.243
540.39	19.477
540.73	19.902
541.07	21.156
541.42	20.202
541.76	20.704
542.10	20.244
542.44	20.166
542.78	20.958
543.12	20.957
543.46	19.696
543.80	20.434
544.14	20.922
544.48	18.447
544.82	20.982
545.16	19.675
545.50	19.851
545.84	19.425
546.18	19.635
546.52	20.819
546.86	19.435
547.20	20.229
547.54	20.014
547.88	20.648
548.22	20.391
548.56	19.813
548.90	20.298
549.24	20.000
549.58	20.498
549.92	20.690
550.26	21.550
550.60	19.069
550.94	20.373
551.28	19.606
551.62	19.173
551.96	20.717
552.30	20.087
552.64	19.421
552.98	20.526
553.32	19.755
553.66	20.103
554.00	20.806
554.34	18.828
554.68	20.582
555.02	19.087
555.36	20.045
555.69	19.956
556.03	20.372
556.37	18.919
556.71	20.533
557.05	19.483
557.39	19.970
557.73	20.197
558.07	19.442
558.41	19.833
558.75	19.092
559.08	18.043
559.42	19.670
559.76	19.113
560.10	19.062
560.44	19.823
560.78	19.353
561.12	19.061
561.45	19.932
561.79	20.151
562.13	19.620
562.47	19.929
562.81	17.821
563.15	19.547
563.48	19.270
563.82	20.793
564.16	19.702
564.50	19.674
564.84	19.324
565.17	20.331
565.51	20.388
565.85	19.454
566.19	19.603
566.52	20.446
566.86	19.216
567.20	20.525
567.54	20.380
567.88	19.485
568.21	20.967
568.55	20.083
568.89	20.887
569.23	20.715
569.56	21.777
569.90	21.549
570.24	21.011
570.57	21.801
570.91	21.438
571.25	21.624
571.59	21.377
571.92	21.531
572.26	21.592
572.60	21.189
572.93	21.587
573.27	20.862
573.61	21.394
573.95	21.735
574.28	21.629
574.62	21.526
574.96	21.383
575.29	21.364
575.63	21.786
575.97	22.092
576.30	21.613
576.64	21.561
576.98	21.922
577.31	21.703
577.65	21.979
577.98	22.760
578.32	22.068
578.66	21.556
578.99	21.643
579.33	21.214
579.67	21.334
580.00	21.019
580.34	21.352
580.67	21.852
581.01	21.945
581.35	21.937
581.68	22.336
582.02	22.306
582.35	22.381
582.69	22.048
583.02	21.367
583.36	20.966
583.70	21.247
584.03	20.922
584.37	20.546
584.70	21.332
585.04	21.353
585.37	21.847
585.71	21.370
586.04	21.378
586.38	21.258
586.72	21.214
587.05	21.461
587.39	21.504
587.72	21.516
588.06	20.903
588.39	21.075
588.73	21.089
589.06	20.854
589.40	20.605
589.73	20.230
590.07	21.363
590.40	20.485
590.73	20.665
591.07	20.476
591.40	19.696
591.74	20.454
592.07	20.447
592.41	20.721
592.74	21.373
593.08	21.573
593.41	22.351
593.75	21.479
594.08	20.794
594.41	20.987
594.75	21.102
595.08	20.799
595.42	20.795
595.75	20.824
596.09	20.747
596.42	20.425
596.75	20.316
597.09	21.065
597.42	20.951
597.75	20.711
598.09	20.583
598.42	20.358
598.76	20.781
599.09	21.849
599.42	21.677
599.76	21.217
600.09	21.423
600.42	21.281
600.76	21.101
601.09	20.527
601.42	21.521
601.76	20.502
602.09	20.470
602.42	21.337
602.76	20.596
603.09	21.478
603.42	20.952
603.76	21.278
604.09	20.909
604.42	20.553
604.76	21.475
605.09	20.662
605.42	21.278
605.75	20.214
606.09	20.364
606.42	21.072
606.75	20.087
607.09	20.346
607.42	20.490
607.75	20.481
608.08	21.100
608.42	20.712
608.75	20.258
609.08	20.186
609.41	20.616
609.75	20.222
610.08	21.302
610.41	20.505
610.74	20.356
611.07	19.890
611.41	19.908
611.74	20.393
612.07	19.802
612.40	20.324
612.73	19.868
613.07	19.290
613.40	20.705
613.73	19.989
614.06	20.343
614.39	19.566
614.72	20.877
615.06	20.500
615.39	20.254
615.72	20.302
616.05	20.664
616.38	19.874
616.71	19.616
617.05	19.779
617.38	19.224
617.71	19.853
618.04	19.317
618.37	20.000
618.70	19.664
619.03	19.519
619.36	19.786
619.69	18.567
620.03	19.293
620.36	19.485
620.69	18.844
621.02	18.154
621.35	17.743
621.68	17.196
622.01	19.741
622.34	17.764
622.67	18.951
623.00	19.985
623.33	20.419
623.66	18.662
623.99	19.955
624.32	19.883
624.65	19.807
624.99	19.912
625.32	18.969
625.65	18.760
625.98	18.720
626.31	19.184
626.64	18.745
626.97	17.388
627.30	18.991
627.63	19.291
627.96	17.835
628.29	20.186
628.62	17.698
628.95	18.437
629.28	18.424
629.61	19.139
629.94	16.634
630.26	18.227
630.59	17.183
630.92	19.177
631.25	15.036
631.58	17.987
631.91	15.907
632.24	17.892
