SpectraSuite Data File
++++++++++++++++++++++++++++++++++++
Date: Wed May 13 21:28:42 PDT 2015
User: schluterlab
Dark Spectrum Present: Yes
Reference Spectrum Present: Yes
Number of Sampled Component Spectra: 1
Spectrometers: USB2E3373
Integration Time (usec): 3000 (USB2E3373)
Spectra Averaged: 3 (USB2E3373)
Boxcar Smoothing: 0 (USB2E3373)
Correct for Electrical Dark: No (USB2E3373)
Strobe/Lamp Enabled: No (USB2E3373)
Correct for Detector Non-linearity: No (USB2E3373)
Correct for Stray Light: No (USB2E3373)
Number of Pixels in Processed Spectrum: 2048
>>>>>Begin Processed Spectral Data<<<<<
178.53	0.000
178.91	650.000
179.29	200.000
179.67	-650.000
180.04	-466.667
180.42	60.000
180.80	1800.000
181.18	200.000
181.56	-375.000
181.94	-100.000
182.31	-27.273
182.69	123.077
183.07	-140.000
183.45	366.667
183.83	111.111
184.20	85.714
184.58	-33.333
184.96	333.333
185.34	228.571
185.72	0.000
186.09	-800.000
186.47	-380.000
186.85	20.000
187.23	-350.000
187.61	1050.000
187.98	2200.000
188.36	-87.500
188.74	0.000
189.12	-81.818
189.49	50.000
189.87	125.000
190.25	420.000
190.63	900.000
191.00	-200.000
191.38	240.000
191.76	225.000
192.14	116.667
192.51	-10.526
192.89	500.000
193.27	375.000
193.65	-180.000
194.02	163.636
194.40	270.000
194.78	-1000.000
195.15	340.000
195.53	-20.000
195.91	0.000
196.29	-333.333
196.66	0.000
197.04	500.000
197.42	-200.000
197.79	-50.000
198.17	-262.500
198.55	-133.333
198.92	125.000
199.30	-366.667
199.68	-10.000
200.05	-0.000
200.43	33.333
200.81	-1500.000
201.18	-80.000
201.56	-300.000
201.94	775.000
202.31	-8.696
202.69	-28.571
203.07	-333.333
203.44	-240.000
203.82	-233.333
204.19	20.000
204.57	0.000
204.95	-216.667
205.32	0.000
205.70	-200.000
206.08	-250.000
206.45	-66.667
206.83	550.000
207.20	-266.667
207.58	-160.000
207.96	-900.000
208.33	-100.000
208.71	-1600.000
209.08	250.000
209.46	200.000
209.84	0.000
210.21	100.000
210.59	2000.000
210.96	320.000
211.34	800.000
211.71	-850.000
212.09	-150.000
212.46	-200.000
212.84	-66.667
213.22	-50.000
213.59	-600.000
213.97	-450.000
214.34	-850.000
214.72	-53.846
215.09	225.000
215.47	188.889
215.84	750.000
216.22	-25.000
216.59	-400.000
216.97	500.000
217.34	288.889
217.72	0.000
218.09	200.000
218.47	-400.000
218.84	-185.714
219.22	-100.000
219.59	-33.333
219.97	-150.000
220.34	-37.500
220.72	-280.000
221.09	0.000
221.47	-50.000
221.84	-300.000
222.22	0.000
222.59	1000.000
222.97	-466.667
223.34	-16.667
223.72	-1400.000
224.09	-400.000
224.46	-18.182
224.84	100.000
225.21	-171.429
225.59	-375.000
225.96	50.000
226.34	-100.000
226.71	-157.143
227.08	750.000
227.46	-137.500
227.83	100.000
228.21	-6.250
228.58	-125.000
228.95	-58.824
229.33	-50.000
229.70	-75.000
230.08	-84.615
230.45	-87.500
230.82	-150.000
231.20	214.286
231.57	-275.000
231.95	1200.000
232.32	-16.667
232.69	-5.882
233.07	-1100.000
233.44	-4.348
233.81	-300.000
234.19	16.667
234.56	-46.667
234.93	-26.667
235.31	-26.316
235.68	-100.000
236.05	-107.692
236.43	-5.556
236.80	3.030
237.17	-53.333
237.55	-58.824
237.92	10.345
238.29	-37.037
238.67	5.556
239.04	16.129
239.41	14.894
239.79	23.404
240.16	27.907
240.53	30.357
240.91	23.214
241.28	3.571
241.65	24.194
242.02	18.421
242.40	26.087
242.77	7.246
243.14	20.513
243.51	27.660
243.89	18.269
244.26	31.132
244.63	20.192
245.00	20.833
245.38	17.647
245.75	19.672
246.12	20.301
246.49	20.325
246.87	16.807
247.24	23.649
247.61	20.530
247.98	24.359
248.36	29.586
248.73	19.101
249.10	22.222
249.47	19.892
249.84	32.105
250.22	29.851
250.59	22.897
250.96	28.182
251.33	18.660
251.70	25.105
252.08	28.870
252.45	30.453
252.82	26.616
253.19	26.848
253.56	23.741
253.94	31.673
254.31	27.465
254.68	28.188
255.05	29.703
255.42	25.874
255.79	26.380
256.16	32.808
256.54	26.349
256.91	26.899
257.28	27.673
257.65	28.344
258.02	27.566
258.39	28.363
258.76	27.326
259.14	25.568
259.51	26.685
259.88	27.642
260.25	27.778
260.62	25.562
260.99	27.586
261.36	26.684
261.73	27.901
262.10	26.718
262.47	25.432
262.85	23.134
263.22	30.513
263.59	30.909
263.96	30.414
264.33	26.683
264.70	27.209
265.07	28.704
265.44	25.747
265.81	28.833
266.18	27.107
266.55	25.983
266.92	27.754
267.29	29.424
267.66	30.573
268.03	28.189
268.40	26.695
268.77	26.653
269.14	26.735
269.51	31.006
269.88	28.513
270.25	28.814
270.62	25.410
270.99	28.937
271.36	26.190
271.73	29.719
272.10	28.952
272.47	28.599
272.84	30.315
273.21	24.266
273.58	29.918
273.95	26.792
274.32	27.612
274.69	28.780
275.06	27.385
275.43	29.190
275.80	28.546
276.17	26.151
276.54	27.353
276.91	28.571
277.28	27.437
277.65	25.524
278.02	28.929
278.39	27.709
278.76	27.592
279.13	28.645
279.50	27.414
279.87	27.717
280.23	27.027
280.60	28.028
280.97	27.273
281.34	30.126
281.71	25.528
282.08	27.179
282.45	28.197
282.82	26.837
283.19	27.896
283.56	28.594
283.92	26.453
284.29	26.209
284.66	26.030
285.03	24.267
285.40	28.852
285.77	26.276
286.14	27.052
286.51	26.537
286.87	27.385
287.24	26.549
287.61	26.657
287.98	25.882
288.35	26.230
288.72	25.681
289.08	26.781
289.45	25.404
289.82	25.416
290.19	26.087
290.56	24.432
290.93	25.138
291.29	23.393
291.66	24.863
292.03	26.158
292.40	22.611
292.77	25.569
293.13	24.826
293.50	22.092
293.87	26.133
294.24	23.942
294.60	22.497
294.97	24.868
295.34	21.636
295.71	21.288
296.08	21.335
296.44	22.066
296.81	21.924
297.18	23.000
297.55	22.759
297.91	22.609
298.28	22.276
298.65	23.645
299.02	22.955
299.38	21.104
299.75	22.476
300.12	20.116
300.48	19.064
300.85	21.478
301.22	20.906
301.59	22.535
301.95	20.093
302.32	19.487
302.69	20.226
303.05	20.266
303.42	20.114
303.79	19.348
304.15	21.030
304.52	21.290
304.89	21.484
305.25	19.868
305.62	20.499
305.99	21.328
306.35	20.272
306.72	20.346
307.09	20.229
307.45	21.086
307.82	17.895
308.19	18.391
308.55	19.038
308.92	20.138
309.29	20.821
309.65	20.579
310.02	19.881
310.38	20.732
310.75	19.231
311.12	19.145
311.48	18.595
311.85	20.079
312.22	19.729
312.58	19.517
312.95	19.502
313.31	19.651
313.68	20.134
314.05	19.565
314.41	19.789
314.78	20.873
315.14	19.167
315.51	19.696
315.87	20.760
316.24	19.100
316.61	19.635
316.97	18.704
317.34	18.895
317.70	20.339
318.07	18.988
318.43	20.687
318.80	19.721
319.16	19.363
319.53	18.190
319.89	18.338
320.26	19.963
320.62	18.999
320.99	18.798
321.35	18.148
321.72	18.768
322.08	18.819
322.45	20.537
322.81	20.425
323.18	18.605
323.54	19.856
323.91	20.416
324.27	18.722
324.64	17.509
325.00	18.898
325.37	19.198
325.73	18.182
326.10	18.167
326.46	19.398
326.83	19.337
327.19	18.537
327.56	20.145
327.92	19.389
328.29	20.033
328.65	19.106
329.01	18.558
329.38	21.043
329.74	18.884
330.11	19.116
330.47	19.010
330.84	19.946
331.20	19.727
331.56	19.475
331.93	19.724
332.29	20.156
332.66	19.576
333.02	19.809
333.38	19.035
333.75	20.051
334.11	19.878
334.48	19.006
334.84	18.021
335.20	20.240
335.57	19.930
335.93	18.127
336.29	18.039
336.66	18.376
337.02	19.652
337.38	18.712
337.75	19.466
338.11	17.933
338.47	19.092
338.84	17.955
339.20	19.136
339.56	18.771
339.93	20.052
340.29	17.848
340.65	20.103
341.02	18.968
341.38	19.257
341.74	17.731
342.11	18.084
342.47	18.326
342.83	19.036
343.20	19.712
343.56	18.724
343.92	19.415
344.28	19.643
344.65	18.449
345.01	17.353
345.37	19.655
345.73	19.608
346.10	20.385
346.46	19.512
346.82	18.379
347.19	18.750
347.55	19.225
347.91	18.394
348.27	17.192
348.63	19.311
349.00	18.789
349.36	18.917
349.72	19.335
350.08	18.721
350.45	19.577
350.81	18.310
351.17	18.938
351.53	17.832
351.89	17.236
352.26	17.220
352.62	19.147
352.98	18.131
353.34	16.747
353.70	18.146
354.07	18.980
354.43	18.585
354.79	18.510
355.15	18.711
355.51	18.679
355.87	17.748
356.24	18.620
356.60	18.217
356.96	17.575
357.32	18.034
357.68	16.960
358.04	18.929
358.40	17.752
358.77	18.119
359.13	18.288
359.49	18.244
359.85	17.741
360.21	18.196
360.57	17.947
360.93	19.120
361.29	17.691
361.66	18.831
362.02	17.939
362.38	18.685
362.74	16.969
363.10	18.510
363.46	17.579
363.82	16.999
364.18	17.549
364.54	17.870
364.90	17.143
365.26	17.834
365.62	18.324
365.98	17.936
366.35	18.014
366.71	16.976
367.07	17.222
367.43	17.770
367.79	18.416
368.15	17.018
368.51	17.159
368.87	18.772
369.23	16.370
369.59	18.041
369.95	17.199
370.31	17.434
370.67	16.582
371.03	17.966
371.39	18.524
371.75	17.929
372.11	17.094
372.47	18.097
372.83	17.961
373.19	16.978
373.55	17.991
373.91	17.468
374.27	17.220
374.63	17.923
374.99	17.201
375.35	17.877
375.71	17.459
376.07	18.095
376.42	16.444
376.78	17.768
377.14	17.695
377.50	18.840
377.86	17.795
378.22	18.078
378.58	16.961
378.94	18.438
379.30	18.301
379.66	18.372
380.02	17.341
380.38	18.133
380.74	17.812
381.09	17.491
381.45	18.017
381.81	16.574
382.17	16.635
382.53	17.846
382.89	17.612
383.25	16.790
383.61	18.341
383.97	17.500
384.32	17.958
384.68	17.582
385.04	17.532
385.40	17.621
385.76	17.762
386.12	18.076
386.48	17.743
386.83	18.148
387.19	15.916
387.55	18.516
387.91	17.712
388.27	17.694
388.62	16.979
388.98	18.023
389.34	17.982
389.70	17.827
390.06	18.125
390.42	17.977
390.77	18.322
391.13	18.119
391.49	16.635
391.85	16.805
392.20	16.917
392.56	17.270
392.92	17.554
393.28	17.083
393.64	17.309
393.99	17.013
394.35	17.840
394.71	17.692
395.07	16.855
395.42	17.794
395.78	16.088
396.14	18.199
396.50	17.438
396.85	17.655
397.21	16.979
397.57	17.205
397.92	17.485
398.28	17.823
398.64	18.276
399.00	17.355
399.35	17.764
399.71	16.832
400.07	18.193
400.42	16.614
400.78	17.402
401.14	16.554
401.49	17.555
401.85	17.998
402.21	17.833
402.57	17.167
402.92	17.459
403.28	17.073
403.63	17.297
403.99	18.490
404.35	17.643
404.70	16.858
405.06	18.086
405.42	16.834
405.77	16.993
406.13	17.771
406.49	17.675
406.84	17.582
407.20	16.815
407.55	17.208
407.91	17.737
408.27	17.592
408.62	17.864
408.98	16.769
409.34	17.203
409.69	18.129
410.05	17.351
410.40	16.859
410.76	17.208
411.11	18.284
411.47	18.514
411.83	17.031
412.18	17.254
412.54	17.857
412.89	18.182
413.25	17.404
413.60	17.492
413.96	17.728
414.31	17.386
414.67	17.143
415.03	17.727
415.38	17.173
415.74	17.479
416.09	18.572
416.45	17.772
416.80	17.718
417.16	18.219
417.51	18.084
417.87	17.593
418.22	17.518
418.58	17.740
418.93	16.698
419.29	18.482
419.64	17.748
420.00	17.460
420.35	17.812
420.71	17.246
421.06	18.266
421.42	17.822
421.77	18.555
422.12	18.510
422.48	18.375
422.83	17.779
423.19	18.516
423.54	18.139
423.90	18.171
424.25	17.100
424.61	18.115
424.96	18.273
425.31	17.611
425.67	18.283
426.02	18.905
426.38	17.413
426.73	17.471
427.09	17.511
427.44	17.557
427.79	17.755
428.15	17.982
428.50	17.764
428.85	18.327
429.21	17.783
429.56	18.438
429.92	18.168
430.27	18.405
430.62	18.363
430.98	18.297
431.33	18.646
431.68	18.584
432.04	18.085
432.39	18.014
432.74	17.167
433.10	18.942
433.45	18.047
433.80	19.080
434.16	18.405
434.51	18.587
434.86	18.021
435.22	17.374
435.57	18.366
435.92	18.275
436.28	17.898
436.63	17.667
436.98	18.978
437.34	18.437
437.69	18.359
438.04	17.827
438.39	17.808
438.75	18.594
439.10	19.202
439.45	17.373
439.81	19.212
440.16	19.594
440.51	18.371
440.86	18.969
441.22	18.187
441.57	18.818
441.92	18.663
442.27	18.777
442.63	18.138
442.98	18.287
443.33	18.397
443.68	18.397
444.03	17.685
444.39	18.691
444.74	18.388
445.09	18.447
445.44	18.310
445.79	19.308
446.15	18.136
446.50	18.888
446.85	18.920
447.20	18.819
447.55	18.970
447.91	18.708
448.26	18.296
448.61	18.354
448.96	18.736
449.31	18.218
449.66	19.144
450.02	18.761
450.37	18.684
450.72	19.001
451.07	18.558
451.42	18.777
451.77	18.929
452.12	19.311
452.47	19.432
452.83	18.632
453.18	18.778
453.53	19.672
453.88	18.976
454.23	18.912
454.58	19.056
454.93	18.538
455.28	19.589
455.63	18.840
455.98	18.564
456.34	18.881
456.69	19.233
457.04	19.505
457.39	19.242
457.74	18.372
458.09	19.550
458.44	19.741
458.79	19.550
459.14	18.539
459.49	19.024
459.84	18.940
460.19	18.487
460.54	19.404
460.89	19.651
461.24	18.989
461.59	19.505
461.94	19.532
462.29	19.914
462.64	18.338
462.99	19.920
463.34	19.751
463.69	19.459
464.04	18.667
464.39	19.524
464.74	19.840
465.09	19.095
465.44	19.416
465.79	20.414
466.14	18.985
466.49	18.651
466.84	20.143
467.19	18.981
467.54	19.961
467.89	19.987
468.24	20.098
468.59	19.248
468.94	19.987
469.29	19.498
469.64	19.177
469.99	21.172
470.34	19.960
470.68	19.851
471.03	21.086
471.38	19.958
471.73	20.439
472.08	19.381
472.43	20.251
472.78	20.014
473.13	19.261
473.48	20.483
473.83	20.527
474.17	19.727
474.52	19.935
474.87	19.481
475.22	19.384
475.57	19.799
475.92	20.065
476.27	20.396
476.61	19.649
476.96	19.475
477.31	20.065
477.66	20.056
478.01	19.451
478.36	20.218
478.70	20.247
479.05	20.477
479.40	19.761
479.75	20.298
480.10	19.990
480.45	19.863
480.79	20.707
481.14	21.125
481.49	20.030
481.84	20.170
482.19	19.917
482.53	20.238
482.88	20.470
483.23	19.586
483.58	20.841
483.92	20.233
484.27	20.494
484.62	19.396
484.97	19.909
485.31	20.300
485.66	19.276
486.01	18.421
486.36	18.641
486.70	18.816
487.05	18.925
487.40	18.681
487.75	20.040
488.09	19.581
488.44	19.839
488.79	20.477
489.13	20.596
489.48	19.624
489.83	20.768
490.17	20.926
490.52	21.412
490.87	20.491
491.22	21.479
491.56	21.035
491.91	19.923
492.26	20.261
492.60	20.443
492.95	20.311
493.30	20.107
493.64	19.712
493.99	21.691
494.34	20.135
494.68	21.241
495.03	20.208
495.37	20.535
495.72	21.353
496.07	21.432
496.41	19.841
496.76	20.932
497.11	20.939
497.45	20.768
497.80	20.596
498.14	21.662
498.49	20.676
498.84	20.850
499.18	20.906
499.53	20.876
499.87	20.330
500.22	21.354
500.56	21.163
500.91	21.328
501.26	20.788
501.60	20.931
501.95	20.652
502.29	20.874
502.64	20.685
502.98	20.713
503.33	20.730
503.67	20.935
504.02	20.490
504.36	21.298
504.71	20.732
505.06	20.377
505.40	21.134
505.75	21.668
506.09	20.082
506.44	21.472
506.78	20.874
507.13	22.245
507.47	20.891
507.82	21.507
508.16	21.741
508.51	20.868
508.85	21.514
509.19	21.429
509.54	22.788
509.88	21.505
510.23	21.842
510.57	21.822
510.92	22.522
511.26	22.112
511.61	22.064
511.95	21.720
512.30	22.321
512.64	23.553
512.98	21.828
513.33	21.972
513.67	22.374
514.02	22.178
514.36	23.202
514.70	23.152
515.05	22.294
515.39	23.054
515.74	22.735
516.08	22.950
516.42	22.062
516.77	22.906
517.11	23.104
517.46	22.749
517.80	23.789
518.14	22.780
518.49	21.700
518.83	22.792
519.17	22.530
519.52	23.764
519.86	23.558
520.20	22.984
520.55	23.010
520.89	23.213
521.23	23.910
521.58	23.894
521.92	22.879
522.26	23.292
522.61	23.400
522.95	24.352
523.29	23.238
523.64	23.077
523.98	22.681
524.32	22.999
524.66	22.662
525.01	23.460
525.35	23.568
525.69	23.857
526.04	23.453
526.38	23.709
526.72	23.669
527.06	23.275
527.41	22.766
527.75	24.232
528.09	23.962
528.43	24.423
528.78	22.868
529.12	23.674
529.46	24.632
529.80	23.819
530.15	23.166
530.49	23.922
530.83	24.509
531.17	23.630
531.51	22.522
531.86	23.035
532.20	23.501
532.54	23.103
532.88	23.690
533.22	24.242
533.57	23.709
533.91	24.258
534.25	25.195
534.59	23.423
534.93	23.087
535.27	23.822
535.62	23.355
535.96	23.943
536.30	24.402
536.64	22.556
536.98	23.125
537.32	24.128
537.66	24.894
538.01	24.272
538.35	23.204
538.69	23.813
539.03	22.483
539.37	23.944
539.71	22.783
540.05	22.740
540.39	22.505
540.73	23.603
541.07	23.673
541.42	23.569
541.76	23.410
542.10	22.613
542.44	23.146
542.78	23.248
543.12	24.057
543.46	23.151
543.80	23.422
544.14	23.193
544.48	22.628
544.82	23.336
545.16	23.259
545.50	24.308
545.84	22.020
546.18	22.651
546.52	24.206
546.86	23.039
547.20	22.445
547.54	22.445
547.88	23.347
548.22	23.779
548.56	23.282
548.90	23.207
549.24	23.264
549.58	23.274
549.92	24.431
550.26	24.945
550.60	23.348
550.94	23.358
551.28	23.467
551.62	24.361
551.96	23.280
552.30	22.707
552.64	22.599
552.98	24.006
553.32	23.792
553.66	24.431
554.00	23.326
554.34	23.590
554.68	23.937
555.02	23.503
555.36	24.054
555.69	23.234
556.03	23.731
556.37	23.542
556.71	23.336
557.05	23.469
557.39	23.738
557.73	24.054
558.07	23.587
558.41	24.754
558.75	23.941
559.08	23.737
559.42	23.839
559.76	23.547
560.10	23.444
560.44	24.024
560.78	22.878
561.12	23.406
561.45	22.789
561.79	23.315
562.13	24.262
562.47	23.643
562.81	23.377
563.15	22.521
563.48	23.744
563.82	23.051
564.16	24.238
564.50	23.609
564.84	22.568
565.17	23.576
565.51	22.794
565.85	23.318
566.19	23.444
566.52	22.477
566.86	21.871
567.20	23.824
567.54	22.683
567.88	21.501
568.21	22.216
568.55	22.118
568.89	21.535
569.23	22.044
569.56	21.277
569.90	20.974
570.24	20.542
570.57	19.891
570.91	20.273
571.25	20.223
571.59	20.114
571.92	20.446
572.26	20.820
572.60	20.727
572.93	19.588
573.27	19.739
573.61	20.040
573.95	19.699
574.28	19.876
574.62	19.551
574.96	19.611
575.29	19.784
575.63	19.863
575.97	19.185
576.30	19.411
576.64	19.728
576.98	19.677
577.31	19.981
577.65	18.997
577.98	19.181
578.32	19.085
578.66	19.379
578.99	19.695
579.33	19.715
579.67	20.036
580.00	19.528
580.34	19.438
580.67	19.623
581.01	19.450
581.35	19.224
581.68	19.231
582.02	19.171
582.35	19.239
582.69	18.976
583.02	19.342
583.36	19.293
583.70	19.810
584.03	19.817
584.37	19.317
584.70	19.787
585.04	20.015
585.37	19.490
585.71	19.682
586.04	19.499
586.38	19.179
586.72	19.697
587.05	19.712
587.39	19.522
587.72	20.080
588.06	19.672
588.39	19.479
588.73	20.066
589.06	19.528
589.40	19.608
589.73	19.583
590.07	20.270
590.40	20.220
590.73	20.583
591.07	20.936
591.40	20.609
591.74	20.498
592.07	21.086
592.41	20.721
592.74	20.139
593.08	19.966
593.41	20.135
593.75	19.380
594.08	19.482
594.41	20.256
594.75	20.540
595.08	20.015
595.42	19.971
595.75	20.137
596.09	19.938
596.42	20.588
596.75	20.579
597.09	20.428
597.42	20.458
597.75	20.578
598.09	21.038
598.42	20.850
598.76	19.983
599.09	20.248
599.42	20.128
599.76	20.053
600.09	20.595
600.42	20.452
600.76	19.882
601.09	19.623
601.42	20.149
601.76	20.386
602.09	20.876
602.42	20.883
602.76	20.428
603.09	20.698
603.42	20.392
603.76	20.148
604.09	20.435
604.42	19.422
604.76	20.428
605.09	20.933
605.42	20.513
605.75	19.914
606.09	19.578
606.42	20.989
606.75	19.827
607.09	19.814
607.42	20.447
607.75	19.168
608.08	20.965
608.42	21.087
608.75	21.022
609.08	20.970
609.41	20.765
609.75	20.071
610.08	20.365
610.41	20.991
610.74	20.693
611.07	20.190
611.41	21.034
611.74	20.963
612.07	21.001
612.40	21.081
612.73	21.460
613.07	20.898
613.40	20.760
613.73	20.639
614.06	20.951
614.39	20.956
614.72	21.433
615.06	20.889
615.39	21.468
615.72	20.626
616.05	21.340
616.38	20.447
616.71	20.096
617.05	21.683
617.38	21.380
617.71	20.833
618.04	21.389
618.37	21.451
618.70	21.798
619.03	21.100
619.36	21.993
619.69	22.295
620.03	21.908
620.36	20.738
620.69	20.771
621.02	21.615
621.35	22.404
621.68	23.146
622.01	22.573
622.34	21.887
622.67	22.631
623.00	22.188
623.33	22.064
623.66	22.007
623.99	22.956
624.32	22.157
624.65	21.365
624.99	22.263
625.32	22.554
625.65	21.783
625.98	22.117
626.31	23.184
626.64	21.754
626.97	22.664
627.30	23.610
627.63	22.318
627.96	22.078
628.29	24.744
628.62	23.501
628.95	24.649
629.28	24.828
629.61	23.541
629.94	23.888
630.26	22.660
630.59	23.077
630.92	24.398
631.25	22.966
631.58	23.983
631.91	23.118
632.24	23.820
