SpectraSuite Data File
++++++++++++++++++++++++++++++++++++
Date: Wed May 13 21:27:02 PDT 2015
User: schluterlab
Dark Spectrum Present: Yes
Reference Spectrum Present: Yes
Number of Sampled Component Spectra: 1
Spectrometers: USB2E3373
Integration Time (usec): 3000 (USB2E3373)
Spectra Averaged: 3 (USB2E3373)
Boxcar Smoothing: 0 (USB2E3373)
Correct for Electrical Dark: No (USB2E3373)
Strobe/Lamp Enabled: No (USB2E3373)
Correct for Detector Non-linearity: No (USB2E3373)
Correct for Stray Light: No (USB2E3373)
Number of Pixels in Processed Spectrum: 2048
>>>>>Begin Processed Spectral Data<<<<<
178.53	0.000
178.91	550.000
179.29	291.667
179.67	-700.000
180.04	-200.000
180.42	200.000
180.80	1200.000
181.18	466.667
181.56	-400.000
181.94	-300.000
182.31	-27.273
182.69	200.000
183.07	-140.000
183.45	300.000
183.83	177.778
184.20	142.857
184.58	0.000
184.96	500.000
185.34	200.000
185.72	0.000
186.09	-800.000
186.47	-240.000
186.85	120.000
187.23	-200.000
187.61	100.000
187.98	1200.000
188.36	-112.500
188.74	0.000
189.12	-136.364
189.49	50.000
189.87	58.333
190.25	480.000
190.63	1500.000
191.00	-200.000
191.38	460.000
191.76	350.000
192.14	91.667
192.51	10.526
192.89	300.000
193.27	75.000
193.65	-240.000
194.02	200.000
194.40	170.000
194.78	-900.000
195.15	480.000
195.53	-260.000
195.91	12.500
196.29	-133.333
196.66	0.000
197.04	850.000
197.42	-40.000
197.79	-100.000
198.17	-25.000
198.55	-233.333
198.92	275.000
199.30	-400.000
199.68	0.000
200.05	-0.000
200.43	183.333
200.81	-1400.000
201.18	-240.000
201.56	-166.667
201.94	550.000
202.31	-8.696
202.69	-128.571
203.07	-133.333
203.44	-60.000
203.82	-233.333
204.19	-50.000
204.57	0.000
204.95	-216.667
205.32	0.000
205.70	-600.000
206.08	-525.000
206.45	-250.000
206.83	350.000
207.20	-400.000
207.58	-40.000
207.96	-1700.000
208.33	-128.571
208.71	-2100.000
209.08	200.000
209.46	525.000
209.84	0.000
210.21	210.000
210.59	2100.000
210.96	280.000
211.34	1200.000
211.71	-950.000
212.09	-150.000
212.46	-140.000
212.84	-166.667
213.22	-75.000
213.59	-800.000
213.97	-700.000
214.34	-600.000
214.72	-100.000
215.09	200.000
215.47	200.000
215.84	950.000
216.22	-87.500
216.59	-350.000
216.97	700.000
217.34	211.111
217.72	0.000
218.09	666.667
218.47	-600.000
218.84	-300.000
219.22	-187.500
219.59	-66.667
219.97	-250.000
220.34	-50.000
220.72	-280.000
221.09	0.000
221.47	-316.667
221.84	-500.000
222.22	0.000
222.59	1300.000
222.97	-66.667
223.34	-91.667
223.72	-800.000
224.09	-750.000
224.46	-54.545
224.84	-62.500
225.21	-128.571
225.59	-550.000
225.96	-150.000
226.34	-80.000
226.71	-214.286
227.08	100.000
227.46	-200.000
227.83	-800.000
228.21	-50.000
228.58	-500.000
228.95	-17.647
229.33	-6.250
229.70	-25.000
230.08	-53.846
230.45	-100.000
230.82	-91.667
231.20	171.429
231.57	-250.000
231.95	1300.000
232.32	-75.000
232.69	-11.765
233.07	-500.000
233.44	-30.435
233.81	-700.000
234.19	-29.167
234.56	-40.000
234.93	0.000
235.31	-36.842
235.68	-69.231
236.05	-30.769
236.43	-33.333
236.80	-3.030
237.17	-126.667
237.55	-88.235
237.92	-24.138
238.29	-77.778
238.67	-13.889
239.04	-70.968
239.41	-14.894
239.79	6.383
240.16	-37.209
240.53	-16.071
240.91	12.500
241.28	-5.357
241.65	1.613
242.02	-5.263
242.40	14.493
242.77	0.000
243.14	1.282
243.51	-1.064
243.89	1.923
244.26	5.660
244.63	-3.846
245.00	-10.417
245.38	0.000
245.75	0.000
246.12	1.504
246.49	-1.626
246.87	-7.563
247.24	0.676
247.61	1.987
247.98	7.051
248.36	1.183
248.73	1.124
249.10	2.525
249.47	-1.075
249.84	8.947
250.22	5.970
250.59	0.467
250.96	6.364
251.33	-0.478
251.70	5.439
252.08	0.418
252.45	4.115
252.82	4.943
253.19	3.502
253.56	0.719
253.94	13.523
254.31	3.873
254.68	7.718
255.05	5.281
255.42	8.741
255.79	5.828
256.16	5.047
256.54	7.302
256.91	4.430
257.28	3.145
257.65	2.229
258.02	4.692
258.39	4.386
258.76	4.070
259.14	3.693
259.51	3.371
259.88	5.149
260.25	5.000
260.62	1.966
260.99	6.366
261.36	4.404
261.73	5.185
262.10	2.545
262.47	1.975
262.85	3.234
263.22	2.821
263.59	2.338
263.96	3.163
264.33	4.567
264.70	4.651
265.07	3.009
265.44	6.437
265.81	7.551
266.18	6.606
266.55	1.528
266.92	4.237
267.29	5.144
267.66	6.582
268.03	4.733
268.40	4.237
268.77	5.992
269.14	7.347
269.51	9.446
269.88	5.092
270.25	6.568
270.62	4.713
270.99	5.709
271.36	5.357
271.73	6.225
272.10	6.476
272.47	4.031
272.84	8.071
273.21	3.914
273.58	4.098
273.95	3.962
274.32	5.970
274.69	6.557
275.06	7.951
275.43	5.838
275.80	5.851
276.17	5.157
276.54	5.861
276.91	4.878
277.28	3.430
277.65	6.294
278.02	5.714
278.39	3.375
278.76	6.020
279.13	5.317
279.50	6.207
279.87	3.804
280.23	4.505
280.60	4.152
280.97	5.032
281.34	6.467
281.71	5.203
282.08	4.274
282.45	5.410
282.82	7.029
283.19	7.927
283.56	7.031
283.92	3.670
284.29	4.836
284.66	3.789
285.03	4.072
285.40	4.079
285.77	8.408
286.14	4.103
286.51	5.997
286.87	5.538
287.24	4.425
287.61	5.723
287.98	6.618
288.35	4.024
288.72	5.739
289.08	7.692
289.45	4.405
289.82	5.749
290.19	6.171
290.56	3.835
290.93	5.249
291.29	4.925
291.66	5.464
292.03	5.041
292.40	3.634
292.77	5.489
293.13	5.439
293.50	5.359
293.87	6.400
294.24	5.820
294.60	5.462
294.97	7.275
295.34	4.222
295.71	2.891
296.08	5.628
296.44	3.571
296.81	4.507
297.18	6.250
297.55	5.189
297.91	4.969
298.28	4.600
298.65	4.433
299.02	5.006
299.38	3.926
299.75	4.808
300.12	3.023
300.48	3.977
300.85	3.349
301.22	4.994
301.59	3.169
301.95	3.252
302.32	4.084
302.69	3.842
303.05	3.322
303.42	4.205
303.79	4.732
304.15	3.614
304.52	4.516
304.89	4.430
305.25	3.293
305.62	4.447
305.99	3.700
306.35	5.434
306.72	4.374
307.09	4.380
307.45	3.940
307.82	3.474
308.19	2.194
308.55	4.606
308.92	5.010
309.29	3.403
309.65	4.396
310.02	5.268
310.38	5.081
310.75	3.254
311.12	3.790
311.48	2.770
311.85	4.429
312.22	5.706
312.58	3.188
312.95	3.582
313.31	5.234
313.68	5.630
314.05	4.442
314.41	4.323
314.78	5.598
315.14	4.444
315.51	5.043
315.87	6.024
316.24	4.500
316.61	4.292
316.97	4.167
317.34	4.545
317.70	5.531
318.07	5.856
318.43	5.330
318.80	5.236
319.16	3.448
319.53	4.122
319.89	5.239
320.26	3.604
320.62	4.263
320.99	4.070
321.35	4.864
321.72	4.524
322.08	4.520
322.45	6.013
322.81	4.713
323.18	5.725
323.54	4.693
323.91	5.239
324.27	5.851
324.64	4.007
325.00	4.812
325.37	6.143
325.73	4.882
326.10	5.299
326.46	4.348
326.83	5.583
327.19	5.610
327.56	5.560
327.92	5.149
328.29	5.927
328.65	5.697
329.01	4.485
329.38	7.043
329.74	5.837
330.11	5.050
330.47	5.035
330.84	4.874
331.20	6.319
331.56	5.707
331.93	5.512
332.29	6.169
332.66	4.915
333.02	6.169
333.38	6.228
333.75	4.522
334.11	6.076
334.48	6.626
334.84	4.947
335.20	6.089
335.57	4.961
335.93	5.241
336.29	5.254
336.66	5.214
337.02	5.652
337.38	6.266
337.75	5.685
338.11	4.270
338.47	5.308
338.84	5.326
339.20	5.203
339.56	5.802
339.93	5.445
340.29	5.465
340.65	5.475
341.02	5.907
341.38	5.321
341.74	4.958
342.11	4.624
342.47	5.941
342.83	4.902
343.20	6.091
343.56	6.296
343.92	4.955
344.28	5.032
344.65	5.551
345.01	4.923
345.37	5.428
345.73	5.310
346.10	5.136
346.46	5.935
346.82	5.136
347.19	4.668
347.55	4.523
347.91	5.222
348.27	4.811
348.63	4.728
349.00	4.481
349.36	5.259
349.72	6.032
350.08	4.836
350.45	5.403
350.81	5.321
351.17	5.312
351.53	5.734
351.89	4.369
352.26	4.479
352.62	4.884
352.98	4.073
353.34	5.072
353.70	5.062
354.07	4.706
354.43	4.355
354.79	4.407
355.15	5.124
355.51	5.543
355.87	5.082
356.24	4.334
356.60	4.613
356.96	4.835
357.32	5.263
357.68	4.736
358.04	5.043
358.40	5.504
358.77	4.969
359.13	5.058
359.49	5.375
359.85	4.473
360.21	5.551
360.57	4.715
360.93	4.856
361.29	5.477
361.66	5.315
362.02	4.893
362.38	5.391
362.74	4.569
363.10	5.351
363.46	4.395
363.82	4.952
364.18	5.076
364.54	5.106
364.90	4.390
365.26	4.671
365.62	4.687
365.98	4.484
366.35	5.390
366.71	3.566
367.07	4.394
367.43	4.669
367.79	5.073
368.15	5.556
368.51	4.571
368.87	5.862
369.23	5.267
369.59	4.510
369.95	4.064
370.31	4.951
370.67	3.910
371.03	5.197
371.39	5.394
371.75	4.929
372.11	4.487
372.47	4.831
372.83	5.479
373.19	4.173
373.55	5.491
373.91	4.173
374.27	4.011
374.63	4.481
374.99	4.457
375.35	5.068
375.71	3.940
376.07	4.935
376.42	5.080
376.78	5.812
377.14	4.949
377.50	5.215
377.86	6.109
378.22	5.057
378.58	4.729
378.94	5.813
379.30	4.310
379.66	5.795
380.02	5.086
380.38	5.241
380.74	5.260
381.09	4.825
381.45	5.079
381.81	4.683
382.17	4.285
382.53	4.615
382.89	4.644
383.25	5.309
383.61	5.811
383.97	5.250
384.32	4.348
384.68	5.120
385.04	4.704
385.40	4.545
385.76	5.231
386.12	5.487
386.48	4.702
386.83	4.819
387.19	4.627
387.55	5.457
387.91	4.244
388.27	4.316
388.62	4.931
388.98	4.944
389.34	4.887
389.70	4.518
390.06	5.438
390.42	5.541
390.77	4.869
391.13	4.924
391.49	5.123
391.85	4.537
392.20	5.326
392.56	4.762
392.92	4.389
393.28	4.823
393.64	4.098
393.99	3.978
394.35	4.259
394.71	4.679
395.07	3.899
395.42	4.692
395.78	4.698
396.14	5.073
396.50	4.249
396.85	5.226
397.21	5.056
397.57	4.286
397.92	4.491
398.28	4.794
398.64	4.493
399.00	5.636
399.35	5.335
399.71	4.485
400.07	4.940
400.42	3.887
400.78	5.076
401.14	4.353
401.49	4.913
401.85	4.975
402.21	4.272
402.57	5.273
402.92	5.006
403.28	5.066
403.63	5.022
403.99	4.926
404.35	4.426
404.70	4.773
405.06	5.402
405.42	3.769
405.77	4.896
406.13	4.686
406.49	4.314
406.84	4.762
407.20	4.440
407.55	4.481
407.91	5.625
408.27	5.240
408.62	5.218
408.98	5.549
409.34	4.950
409.69	5.588
410.05	5.286
410.40	4.687
410.76	4.272
411.11	4.353
411.47	5.109
411.83	4.304
412.18	4.975
412.54	5.576
412.89	4.451
413.25	4.484
413.60	5.078
413.96	4.432
414.31	5.055
414.67	5.016
415.03	5.345
415.38	4.161
415.74	5.523
416.09	5.552
416.45	5.332
416.80	5.034
417.16	5.263
417.51	4.555
417.87	4.299
418.22	4.202
418.58	4.928
418.93	4.269
419.29	5.281
419.64	5.471
420.00	4.762
420.35	4.961
420.71	4.509
421.06	5.412
421.42	5.535
421.77	4.913
422.12	5.100
422.48	5.180
422.83	5.257
423.19	4.600
423.54	5.241
423.90	5.048
424.25	5.084
424.61	5.237
424.96	3.903
425.31	5.272
425.67	5.761
426.02	6.007
426.38	5.162
426.73	5.070
427.09	5.441
427.44	5.578
427.79	4.632
428.15	5.076
428.50	4.653
428.85	5.228
429.21	5.459
429.56	5.473
429.92	4.945
430.27	5.266
430.62	5.194
430.98	5.235
431.33	5.266
431.68	5.964
432.04	5.183
432.39	4.965
432.74	4.844
433.10	5.520
433.45	5.740
433.80	4.770
434.16	5.789
434.51	5.707
434.86	5.300
435.22	5.150
435.57	5.221
435.92	4.825
436.28	4.745
436.63	4.965
436.98	5.229
437.34	5.311
437.69	5.077
438.04	5.433
438.39	5.604
438.75	5.364
439.10	5.321
439.45	5.569
439.81	5.419
440.16	6.029
440.51	5.232
440.86	5.987
441.22	5.164
441.57	4.772
441.92	5.340
442.27	4.870
442.63	5.005
442.98	5.208
443.33	5.530
443.68	5.219
444.03	5.117
444.39	5.107
444.74	5.025
445.09	5.452
445.44	6.366
445.79	5.266
446.15	5.435
446.50	5.507
446.85	5.398
447.20	5.855
447.55	5.652
447.91	5.281
448.26	5.603
448.61	5.409
448.96	5.809
449.31	6.225
449.66	6.015
450.02	5.856
450.37	5.405
450.72	5.626
451.07	5.580
451.42	5.303
451.77	5.417
452.12	5.764
452.47	5.552
452.83	5.248
453.18	4.583
453.53	5.675
453.88	5.422
454.23	5.748
454.58	5.699
454.93	6.414
455.28	5.780
455.63	4.741
455.98	5.417
456.34	6.294
456.69	5.495
457.04	6.440
457.39	5.713
457.74	5.446
458.09	5.865
458.44	4.818
458.79	5.931
459.14	5.281
459.49	5.427
459.84	5.242
460.19	4.802
460.54	5.718
460.89	5.574
461.24	5.857
461.59	5.254
461.94	5.752
462.29	5.453
462.64	5.409
462.99	6.439
463.34	6.837
463.69	6.765
464.04	5.642
464.39	4.942
464.74	5.344
465.09	5.208
465.44	6.734
465.79	6.671
466.14	5.644
466.49	5.455
466.84	5.678
467.19	4.777
467.54	5.509
467.89	5.405
468.24	5.778
468.59	5.481
468.94	5.875
469.29	6.213
469.64	6.555
469.99	6.621
470.34	5.866
470.68	5.353
471.03	5.924
471.38	6.745
471.73	6.722
472.08	5.704
472.43	6.926
472.78	6.220
473.13	6.332
473.48	5.023
473.83	6.215
474.17	5.273
474.52	5.890
474.87	5.850
475.22	6.280
475.57	5.912
475.92	6.107
476.27	5.828
476.61	6.342
476.96	5.654
477.31	6.095
477.66	5.989
478.01	5.824
478.36	5.559
478.70	5.747
479.05	6.493
479.40	6.084
479.75	5.685
480.10	6.221
480.45	5.738
480.79	5.824
481.14	6.282
481.49	6.068
481.84	6.032
482.19	5.882
482.53	5.952
482.88	6.136
483.23	5.534
483.58	5.577
483.92	5.788
484.27	6.038
484.62	5.992
484.97	5.807
485.31	5.601
485.66	5.906
486.01	5.789
486.36	5.479
486.70	5.294
487.05	6.086
487.40	5.465
487.75	6.058
488.09	5.755
488.44	6.099
488.79	6.510
489.13	6.123
489.48	6.370
489.83	6.297
490.17	5.901
490.52	6.639
490.87	6.166
491.22	5.888
491.56	6.037
491.91	6.673
492.26	6.528
492.60	6.061
492.95	6.122
493.30	6.202
493.64	5.372
493.99	6.715
494.34	6.310
494.68	6.778
495.03	5.583
495.37	6.131
495.72	6.516
496.07	5.894
496.41	5.428
496.76	6.490
497.11	6.338
497.45	6.031
497.80	5.957
498.14	6.448
498.49	5.799
498.84	6.225
499.18	6.073
499.53	6.056
499.87	5.968
500.22	6.670
500.56	6.219
500.91	6.338
501.26	6.502
501.60	6.078
501.95	6.277
502.29	6.359
502.64	6.943
502.98	6.744
503.33	6.423
503.67	6.037
504.02	6.422
504.36	6.488
504.71	5.539
505.06	6.928
505.40	5.773
505.75	6.511
506.09	6.336
506.44	6.502
506.78	6.552
507.13	6.653
507.47	6.575
507.82	7.169
508.16	6.702
508.51	6.560
508.85	6.480
509.19	6.190
509.54	7.078
509.88	6.720
510.23	6.368
510.57	6.992
510.92	7.058
511.26	6.711
511.61	6.696
511.95	6.725
512.30	5.886
512.64	6.810
512.98	6.482
513.33	6.930
513.67	6.985
514.02	6.385
514.36	7.360
514.70	6.813
515.05	7.080
515.39	6.427
515.74	6.513
516.08	6.667
516.42	6.221
516.77	6.034
517.11	7.466
517.46	6.723
517.80	7.446
518.14	6.062
518.49	6.751
518.83	7.279
519.17	6.446
519.52	6.634
519.86	6.800
520.20	6.671
520.55	6.903
520.89	6.831
521.23	7.436
521.58	7.396
521.92	6.348
522.26	6.311
522.61	6.852
522.95	7.189
523.29	7.302
523.64	8.137
523.98	6.480
524.32	7.183
524.66	6.753
525.01	7.143
525.35	7.571
525.69	8.019
526.04	6.840
526.38	7.776
526.72	5.983
527.06	7.221
527.41	6.883
527.75	6.609
528.09	6.807
528.43	7.734
528.78	6.395
529.12	7.633
529.46	7.422
529.80	6.537
530.15	7.207
530.49	7.682
530.83	7.177
531.17	6.849
531.51	7.148
531.86	6.775
532.20	6.685
532.54	6.483
532.88	6.739
533.22	7.744
533.57	6.887
533.91	8.258
534.25	7.617
534.59	5.920
534.93	6.760
535.27	6.815
535.62	6.579
535.96	7.677
536.30	7.380
536.64	6.015
536.98	6.797
537.32	7.402
537.66	7.052
538.01	7.282
538.35	6.699
538.69	6.689
539.03	6.913
539.37	6.707
539.71	7.572
540.05	6.950
540.39	6.607
540.73	6.494
541.07	7.143
541.42	7.071
541.76	7.037
542.10	6.635
542.44	5.752
542.78	7.911
543.12	8.019
543.46	6.012
543.80	6.857
544.14	7.364
544.48	6.370
544.82	7.801
545.16	6.829
545.50	8.035
545.84	6.381
546.18	6.452
546.52	7.128
546.86	6.572
547.20	5.504
547.54	6.576
547.88	7.760
548.22	7.101
548.56	7.405
548.90	7.240
549.24	6.597
549.58	7.544
549.92	7.850
550.26	8.782
550.60	6.682
550.94	7.388
551.28	6.662
551.62	6.165
551.96	7.101
552.30	6.186
552.64	6.497
552.98	7.670
553.32	7.714
553.66	7.117
554.00	6.335
554.34	5.934
554.68	7.084
555.02	6.737
555.36	7.564
555.69	6.482
556.03	6.505
556.37	6.757
556.71	7.148
557.05	6.347
557.39	6.782
557.73	7.110
558.07	7.837
558.41	7.419
558.75	7.467
559.08	5.533
559.42	7.081
559.76	7.263
560.10	7.302
560.44	6.927
560.78	7.122
561.12	6.377
561.45	7.279
561.79	7.153
562.13	6.821
562.47	6.857
562.81	5.988
563.15	6.728
563.48	7.502
563.82	6.498
564.16	7.244
564.50	7.191
564.84	6.554
565.17	7.881
565.51	7.152
565.85	6.129
566.19	6.623
566.52	6.356
566.86	6.700
567.20	6.964
567.54	6.505
567.88	6.215
568.21	7.279
568.55	5.999
568.89	6.431
569.23	6.141
569.56	6.174
569.90	6.212
570.24	5.884
570.57	6.380
570.91	6.125
571.25	5.955
571.59	5.652
571.92	6.101
572.26	5.762
572.60	5.698
572.93	5.967
573.27	5.770
573.61	6.162
573.95	6.108
574.28	5.800
574.62	5.505
574.96	5.930
575.29	5.642
575.63	5.822
575.97	6.060
576.30	5.589
576.64	5.685
576.98	5.701
577.31	6.251
577.65	5.611
577.98	5.442
578.32	5.578
578.66	5.605
578.99	5.892
579.33	6.047
579.67	5.754
580.00	5.689
580.34	5.938
580.67	5.928
581.01	5.690
581.35	5.865
581.68	5.811
582.02	5.892
582.35	5.899
582.69	6.048
583.02	5.927
583.36	5.819
583.70	5.876
584.03	5.797
584.37	6.148
584.70	5.939
585.04	5.840
585.37	5.468
585.71	5.933
586.04	5.815
586.38	5.630
586.72	6.097
587.05	6.514
587.39	5.865
587.72	6.197
588.06	5.964
588.39	6.073
588.73	6.408
589.06	5.723
589.40	6.226
589.73	5.857
590.07	6.380
590.40	6.058
590.73	6.037
591.07	6.143
591.40	6.435
591.74	6.358
592.07	6.070
592.41	6.735
592.74	5.826
593.08	5.812
593.41	6.423
593.75	5.523
594.08	6.079
594.41	5.923
594.75	5.997
595.08	5.751
595.42	5.870
595.75	6.074
596.09	6.197
596.42	5.964
596.75	6.099
597.09	6.369
597.42	6.505
597.75	6.756
598.09	6.193
598.42	7.114
598.76	6.213
599.09	6.563
599.42	5.929
599.76	6.534
600.09	5.836
600.42	6.516
600.76	6.024
601.09	6.139
601.42	6.468
601.76	6.602
602.09	6.648
602.42	6.727
602.76	5.621
603.09	6.283
603.42	6.517
603.76	6.235
604.09	6.324
604.42	5.609
604.76	5.980
605.09	6.298
605.42	6.343
605.75	6.039
606.09	6.416
606.42	6.318
606.75	5.758
607.09	6.383
607.42	6.173
607.75	5.383
608.08	6.402
608.42	6.420
608.75	6.832
609.08	6.173
609.41	6.408
609.75	5.497
610.08	6.558
610.41	6.122
610.74	6.737
611.07	6.764
611.41	5.988
611.74	6.522
612.07	6.826
612.40	7.189
612.73	6.147
613.07	6.430
613.40	6.883
613.73	6.717
614.06	6.523
614.39	6.059
614.72	7.052
615.06	6.278
615.39	6.678
615.72	6.533
616.05	5.743
616.38	6.472
616.71	6.419
617.05	6.634
617.38	6.346
617.71	6.066
618.04	5.850
618.37	6.814
618.70	6.533
619.03	6.117
619.36	6.477
619.69	6.652
620.03	6.502
620.36	7.516
620.69	5.710
621.02	7.077
621.35	6.705
621.68	7.498
622.01	6.634
622.34	6.979
622.67	6.735
623.00	8.055
623.33	6.432
623.66	6.320
623.99	7.127
624.32	6.750
624.65	6.602
624.99	6.539
625.32	7.244
625.65	6.589
625.98	5.845
626.31	6.857
626.64	6.707
626.97	7.093
627.30	6.929
627.63	6.747
627.96	6.147
628.29	7.721
628.62	7.544
628.95	6.713
629.28	7.094
629.61	7.368
629.94	8.317
630.26	6.502
630.59	6.593
630.92	6.627
631.25	6.900
631.58	7.388
631.91	6.575
632.24	7.135
632.57	5.778
632.90	6.884
633.23	6.954
633.56	7.674
633.89	7.656
634.22	10.012
634.55	7.186
634.88	7.843
635.20	8.250
635.53	5.297
635.86	7.564
636.19	7.940
636.52	6.951
636.85	7.238
637.18	5.968
637.51	7.740
637.83	7.572
638.16	7.200
638.49	6.676
638.82	7.451
639.15	7.048
639.48	7.353
639.81	6.667
640.13	8.028
640.46	8.898
640.79	6.043
641.12	6.361
641.45	7.569
641.77	5.891
642.10	8.169
642.43	7.547
642.76	6.625
643.09	6.550
643.41	9.091
643.74	7.431
644.07	7.767
644.40	8.458
644.73	6.949
645.05	5.934
645.38	6.977
645.71	6.973
646.04	4.714
646.36	7.118
646.69	8.392
647.02	8.015
647.35	7.495
647.67	8.318
648.00	6.159
648.33	8.136
648.66	5.175
648.98	8.075
649.31	6.748
649.64	6.416
649.96	9.953
650.29	7.516
650.62	7.908
650.94	6.379
651.27	8.304
651.60	6.643
651.92	6.452
652.25	8.040
652.58	7.591
652.90	6.229
653.23	3.905
653.56	5.950
653.88	6.314
654.21	6.314
654.54	8.306
654.86	7.154
655.19	6.863
655.52	7.028
655.84	5.609
656.17	6.953
656.49	8.976
656.82	8.672
657.15	6.423
657.47	4.785
657.80	3.683
