SpectraSuite Data File
++++++++++++++++++++++++++++++++++++
Date: Wed May 13 21:27:43 PDT 2015
User: schluterlab
Dark Spectrum Present: Yes
Reference Spectrum Present: Yes
Number of Sampled Component Spectra: 1
Spectrometers: USB2E3373
Integration Time (usec): 3000 (USB2E3373)
Spectra Averaged: 3 (USB2E3373)
Boxcar Smoothing: 0 (USB2E3373)
Correct for Electrical Dark: No (USB2E3373)
Strobe/Lamp Enabled: No (USB2E3373)
Correct for Detector Non-linearity: No (USB2E3373)
Correct for Stray Light: No (USB2E3373)
Number of Pixels in Processed Spectrum: 2048
>>>>>Begin Processed Spectral Data<<<<<
178.53	0.000
178.91	600.000
179.29	258.333
179.67	-750.000
180.04	-533.333
180.42	100.000
180.80	1100.000
181.18	200.000
181.56	-525.000
181.94	-250.000
182.31	-90.909
182.69	161.538
183.07	-80.000
183.45	266.667
183.83	211.111
184.20	57.143
184.58	-66.667
184.96	166.667
185.34	314.286
185.72	0.000
186.09	-1100.000
186.47	-220.000
186.85	200.000
187.23	-350.000
187.61	500.000
187.98	1900.000
188.36	-187.500
188.74	0.000
189.12	0.000
189.49	-30.000
189.87	175.000
190.25	380.000
190.63	1700.000
191.00	-80.000
191.38	160.000
191.76	600.000
192.14	158.333
192.51	10.526
192.89	533.333
193.27	225.000
193.65	-200.000
194.02	218.182
194.40	150.000
194.78	300.000
195.15	340.000
195.53	-60.000
195.91	0.000
196.29	-33.333
196.66	0.000
197.04	700.000
197.42	0.000
197.79	-30.000
198.17	-162.500
198.55	-466.667
198.92	200.000
199.30	-500.000
199.68	-30.000
200.05	500.000
200.43	300.000
200.81	-1900.000
201.18	-220.000
201.56	-166.667
201.94	575.000
202.31	-26.087
202.69	-71.429
203.07	-366.667
203.44	-240.000
203.82	-100.000
204.19	60.000
204.57	0.000
204.95	-116.667
205.32	0.000
205.70	-500.000
206.08	-350.000
206.45	-300.000
206.83	475.000
207.20	-100.000
207.58	-50.000
207.96	-2000.000
208.33	-128.571
208.71	-1400.000
209.08	187.500
209.46	325.000
209.84	0.000
210.21	240.000
210.59	1900.000
210.96	320.000
211.34	1100.000
211.71	-500.000
212.09	-300.000
212.46	-140.000
212.84	33.333
213.22	-225.000
213.59	-1300.000
213.97	-750.000
214.34	-550.000
214.72	-23.077
215.09	300.000
215.47	211.111
215.84	1200.000
216.22	-150.000
216.59	-250.000
216.97	700.000
217.34	188.889
217.72	0.000
218.09	233.333
218.47	800.000
218.84	-57.143
219.22	-75.000
219.59	-466.667
219.97	-475.000
220.34	-50.000
220.72	-40.000
221.09	0.000
221.47	-200.000
221.84	-900.000
222.22	0.000
222.59	900.000
222.97	-433.333
223.34	-108.333
223.72	-400.000
224.09	-950.000
224.46	-72.727
224.84	-137.500
225.21	-85.714
225.59	-475.000
225.96	-166.667
226.34	-70.000
226.71	-171.429
227.08	700.000
227.46	-87.500
227.83	-500.000
228.21	-37.500
228.58	-400.000
228.95	-76.471
229.33	-25.000
229.70	-137.500
230.08	-92.308
230.45	-237.500
230.82	-66.667
231.20	100.000
231.57	-225.000
231.95	1700.000
232.32	-16.667
232.69	17.647
233.07	-2500.000
233.44	-39.130
233.81	-700.000
234.19	-20.833
234.56	-66.667
234.93	-80.000
235.31	-47.368
235.68	-138.462
236.05	-38.462
236.43	-22.222
236.80	-15.152
237.17	-126.667
237.55	-41.176
237.92	-55.172
238.29	-48.148
238.67	-13.889
239.04	-70.968
239.41	-34.043
239.79	-29.787
240.16	4.651
240.53	-12.500
240.91	-3.571
241.28	-19.643
241.65	-3.226
242.02	-14.474
242.40	-10.145
242.77	-20.290
243.14	-19.231
243.51	-2.128
243.89	-8.654
244.26	1.887
244.63	-10.577
245.00	-6.250
245.38	-6.723
245.75	-6.557
246.12	0.000
246.49	-17.886
246.87	-14.286
247.24	-4.054
247.61	-4.636
247.98	-5.128
248.36	-7.101
248.73	-7.303
249.10	-5.556
249.47	-9.140
249.84	-3.684
250.22	-1.493
250.59	-5.140
250.96	1.364
251.33	-11.005
251.70	-3.766
252.08	-4.184
252.45	-0.412
252.82	2.662
253.19	-2.724
253.56	-2.518
253.94	0.356
254.31	-4.225
254.68	0.336
255.05	-3.960
255.42	-2.448
255.79	-0.307
256.16	-0.631
256.54	-1.905
256.91	-3.165
257.28	-3.459
257.65	-7.006
258.02	-1.760
258.39	-1.170
258.76	-4.360
259.14	-4.261
259.51	-2.809
259.88	-2.439
260.25	-1.667
260.62	-5.899
260.99	0.265
261.36	-0.259
261.73	-1.728
262.10	-4.580
262.47	-1.975
262.85	-3.980
263.22	-0.513
263.59	-3.377
263.96	-0.730
264.33	-2.404
264.70	-1.163
265.07	-0.926
265.44	-0.460
265.81	-4.577
266.18	-4.100
266.55	-3.275
266.92	-0.847
267.29	-2.675
267.66	-1.699
268.03	-0.617
268.40	-0.847
268.77	-1.653
269.14	-1.633
269.51	1.027
269.88	-4.073
270.25	-3.814
270.62	-3.279
270.99	-0.984
271.36	0.000
271.73	0.602
272.10	-2.476
272.47	-1.152
272.84	-1.575
273.21	-2.740
273.58	-2.459
273.95	-0.943
274.32	-1.866
274.69	-2.732
275.06	1.413
275.43	-1.883
275.80	-2.128
276.17	-3.315
276.54	-1.599
276.91	0.523
277.28	-3.430
277.65	-1.399
278.02	0.179
278.39	-2.664
278.76	0.502
279.13	-0.858
279.50	-1.724
279.87	-2.717
280.23	-1.081
280.60	-2.768
280.97	-1.948
281.34	0.158
281.71	-0.813
282.08	-1.026
282.45	-1.311
282.82	-0.479
283.19	0.152
283.56	-1.250
283.92	-1.529
284.29	-0.312
284.66	-0.659
285.03	-3.583
285.40	-0.151
285.77	-1.351
286.14	-1.368
286.51	0.450
286.87	-1.385
287.24	-1.917
287.61	-1.205
287.98	-0.882
288.35	-1.490
288.72	1.578
289.08	-0.142
289.45	-1.175
289.82	-0.303
290.19	0.140
290.56	-1.847
290.93	-0.691
291.29	-0.410
291.66	-0.546
292.03	-0.681
292.40	-0.538
292.77	0.000
293.13	-0.558
293.50	0.784
293.87	0.000
294.24	-0.529
294.60	0.000
294.97	0.132
295.34	-1.451
295.71	-1.708
296.08	-2.225
296.44	-1.276
296.81	-0.244
297.18	-0.750
297.55	-1.297
297.91	-0.994
298.28	0.121
298.65	-0.739
299.02	-0.366
299.38	-0.982
299.75	-0.120
300.12	-1.512
300.48	-1.404
300.85	-0.693
301.22	-1.161
301.59	-1.174
301.95	-2.207
302.32	-0.933
302.69	-0.791
303.05	-0.111
303.42	-0.455
303.79	-0.421
304.15	0.000
304.52	0.323
304.89	-0.997
305.25	-2.086
305.62	-0.217
305.99	-0.218
306.35	0.627
306.72	0.610
307.09	-0.938
307.45	-0.745
307.82	-0.737
308.19	-1.045
308.55	-1.535
308.92	0.884
309.29	-0.601
309.65	-1.399
310.02	0.398
310.38	-0.305
310.75	-1.282
311.12	0.000
311.48	-0.495
311.85	0.000
312.22	-0.097
312.58	-0.386
312.95	-0.697
313.31	1.194
313.68	0.286
314.05	0.662
314.41	0.961
314.78	0.190
315.14	1.204
315.51	0.951
315.87	1.112
316.24	1.469
316.61	1.644
316.97	1.852
317.34	1.515
317.70	1.784
318.07	2.484
318.43	2.078
318.80	2.880
319.16	1.857
319.53	2.867
319.89	2.258
320.26	2.773
320.62	3.614
320.99	3.295
321.35	3.087
321.72	3.369
322.08	2.768
322.45	4.163
322.81	5.360
323.18	4.562
323.54	3.881
323.91	5.330
324.27	5.311
324.64	4.965
325.00	5.862
325.37	5.973
325.73	5.471
326.10	6.056
326.46	6.438
326.83	6.958
327.19	7.480
327.56	7.977
327.92	6.597
328.29	8.681
328.65	8.501
329.01	7.828
329.38	10.087
329.74	8.755
330.11	8.927
330.47	8.854
330.84	9.386
331.20	9.564
331.56	8.062
331.93	9.561
332.29	10.947
332.66	10.254
333.02	10.947
333.38	9.649
333.75	10.495
334.11	10.243
334.48	10.985
334.84	9.717
335.20	9.777
335.57	9.399
335.93	10.481
336.29	10.595
336.66	9.487
337.02	9.826
337.38	10.531
337.75	9.561
338.11	10.333
338.47	9.247
338.84	10.137
339.20	10.406
339.56	10.922
339.93	10.804
340.29	10.589
340.65	11.121
341.02	10.732
341.38	10.811
341.74	9.496
342.11	12.056
342.47	9.791
342.83	10.784
343.20	10.406
343.56	11.038
343.92	11.373
344.28	10.877
344.65	11.184
345.01	11.219
345.37	11.020
345.73	11.601
346.10	10.433
346.46	11.951
346.82	11.236
347.19	10.601
347.55	11.470
347.91	11.068
348.27	10.647
348.63	10.657
349.00	11.557
349.36	11.774
349.72	12.065
350.08	12.402
350.45	10.963
350.81	11.737
351.17	13.472
351.53	11.548
351.89	11.279
352.26	11.583
352.62	12.016
352.98	10.064
353.34	12.319
353.70	12.539
354.07	12.235
354.43	11.975
354.79	11.939
355.15	12.034
355.51	12.301
355.87	12.353
356.24	12.440
356.60	11.415
356.96	12.893
357.32	12.616
357.68	12.758
358.04	12.723
358.40	12.171
358.77	13.685
359.13	11.518
359.49	12.793
359.85	13.647
360.21	13.184
360.57	12.776
360.93	12.215
361.29	13.472
361.66	12.149
362.02	12.898
362.38	13.442
362.74	12.545
363.10	13.449
363.46	13.112
363.82	14.930
364.18	12.618
364.54	13.713
364.90	12.962
365.26	13.093
365.62	13.849
365.98	14.306
366.35	14.326
366.71	13.267
367.07	14.387
367.43	14.146
367.79	14.315
368.15	13.924
368.51	14.135
368.87	14.515
369.23	13.950
369.59	14.024
369.95	13.425
370.31	14.156
370.67	13.324
371.03	14.477
371.39	14.123
371.75	14.571
372.11	15.812
372.47	14.708
372.83	15.534
373.19	14.460
373.55	15.029
373.91	14.993
374.27	15.076
374.63	14.865
374.99	15.390
375.35	15.274
375.71	14.402
376.07	16.724
376.42	14.973
376.78	16.182
377.14	14.915
377.50	16.037
377.86	16.069
378.22	15.740
378.58	15.700
378.94	17.625
379.30	16.615
379.66	16.831
380.02	15.686
380.38	15.904
380.74	16.497
381.09	16.104
381.45	16.747
381.81	17.375
382.17	15.690
382.53	16.862
382.89	16.948
383.25	17.160
383.61	17.797
383.97	16.625
384.32	16.698
384.68	17.582
385.04	15.761
385.40	16.625
385.76	17.032
386.12	17.753
386.48	16.552
386.83	16.959
387.19	17.150
387.55	17.167
387.91	17.589
388.27	17.509
388.62	17.665
388.98	17.397
389.34	17.544
389.70	17.277
390.06	17.938
390.42	18.299
390.77	17.425
391.13	17.361
391.49	17.710
391.85	16.358
392.20	17.857
392.56	17.714
392.92	17.554
393.28	17.664
393.64	18.349
393.99	16.463
394.35	17.531
394.71	18.333
395.07	17.170
395.42	17.916
395.78	17.246
396.14	18.136
396.50	17.882
396.85	17.782
397.21	17.416
397.57	17.702
397.92	17.365
398.28	17.428
398.64	17.911
399.00	18.248
399.35	17.991
399.71	17.123
400.07	17.711
400.42	17.555
400.78	16.858
401.14	17.474
401.49	16.717
401.85	17.260
402.21	17.585
402.57	18.026
402.92	18.335
403.28	17.886
403.63	17.545
403.99	18.234
404.35	17.394
404.70	16.979
405.06	18.144
405.42	16.269
405.77	17.166
406.13	16.914
406.49	17.136
406.84	16.178
407.20	17.111
407.55	17.792
407.91	17.207
408.27	16.469
408.62	17.618
408.98	17.386
409.34	16.584
409.69	17.739
410.05	17.475
410.40	16.129
410.76	16.306
411.11	16.853
411.47	17.452
411.83	16.032
412.18	16.751
412.54	17.419
412.89	17.367
413.25	16.637
413.60	16.677
413.96	16.042
414.31	17.694
414.67	15.873
415.03	16.712
415.38	15.852
415.74	17.219
416.09	17.052
416.45	16.746
416.80	15.705
417.16	16.667
417.51	16.343
417.87	16.997
418.22	15.579
418.58	16.886
418.93	16.384
419.29	17.096
419.64	16.539
420.00	16.127
420.35	16.079
420.71	16.392
421.06	16.913
421.42	17.762
421.77	16.994
422.12	16.905
422.48	16.412
422.83	16.243
423.19	16.216
423.54	16.196
423.90	15.914
424.25	16.291
424.61	16.513
424.96	15.612
425.31	15.760
425.67	16.814
426.02	17.020
426.38	17.351
426.73	16.249
427.09	16.573
427.44	16.970
427.79	15.796
428.15	15.535
428.50	15.347
428.85	16.236
429.21	15.532
429.56	16.472
429.92	16.502
430.27	16.002
430.62	16.684
430.98	16.658
431.33	16.389
431.68	16.507
432.04	15.944
432.39	15.300
432.74	15.512
433.10	15.863
433.45	16.095
433.80	15.402
434.16	15.674
434.51	15.815
434.86	16.667
435.22	15.507
435.57	15.418
435.92	15.862
436.28	15.435
436.63	14.896
436.98	15.805
437.34	16.117
437.69	15.702
438.04	14.431
438.39	15.068
438.75	14.899
439.10	15.211
439.45	15.799
439.81	15.825
440.16	16.058
440.51	14.863
440.86	15.353
441.22	16.179
441.57	15.672
441.92	14.982
442.27	15.152
442.63	15.231
442.98	14.468
443.33	15.858
443.68	13.811
444.03	15.549
444.39	15.716
444.74	14.301
445.09	15.419
445.44	15.944
445.79	15.488
446.15	15.086
446.50	15.363
446.85	15.126
447.20	15.316
447.55	15.557
447.91	14.944
448.26	15.209
448.61	15.190
448.96	15.376
449.31	14.734
449.66	15.674
450.02	14.667
450.37	14.512
450.72	15.040
451.07	13.856
451.42	13.475
451.77	14.425
452.12	14.557
452.47	14.396
452.83	14.269
453.18	14.704
453.53	14.250
453.88	15.000
454.23	15.019
454.58	14.216
454.93	13.727
455.28	14.836
455.63	13.350
455.98	14.547
456.34	13.668
456.69	14.441
457.04	15.046
457.39	14.552
457.74	14.961
458.09	14.396
458.44	13.984
458.79	14.113
459.14	13.539
459.49	13.476
459.84	13.923
460.19	13.926
460.54	13.686
460.89	14.189
461.24	14.180
461.59	14.251
461.94	13.464
462.29	13.419
462.64	13.456
462.99	14.152
463.34	13.329
463.69	13.724
464.04	12.785
464.39	13.484
464.74	13.636
465.09	12.957
465.44	13.412
465.79	14.376
466.14	12.429
466.49	12.551
466.84	12.971
467.19	13.121
467.54	13.221
467.89	13.514
468.24	12.969
468.59	12.365
468.94	13.857
469.29	13.020
469.64	13.180
469.99	13.793
470.34	12.340
470.68	12.268
471.03	12.906
471.38	12.865
471.73	12.689
472.08	12.577
472.43	12.995
472.78	12.170
473.13	11.412
473.48	12.198
473.83	12.116
474.17	11.133
474.52	11.780
474.87	11.580
475.22	11.775
475.57	12.493
475.92	12.214
476.27	12.005
476.61	11.495
476.96	11.536
477.31	11.812
477.66	11.469
478.01	10.330
478.36	11.390
478.70	10.687
479.05	11.820
479.40	11.596
479.75	11.955
480.10	11.576
480.45	12.065
480.79	11.747
481.14	11.398
481.49	11.495
481.84	10.179
482.19	10.931
482.53	11.095
482.88	10.786
483.23	10.395
483.58	11.106
483.92	10.409
484.27	10.567
484.62	10.741
484.97	10.659
485.31	10.560
485.66	10.807
486.01	10.883
486.36	10.925
486.70	10.847
487.05	10.818
487.40	10.878
487.75	10.910
488.09	10.572
488.44	10.480
488.79	10.484
489.13	10.179
489.48	9.577
489.83	10.540
490.17	10.259
490.52	10.986
490.87	9.782
491.22	10.645
491.56	9.391
491.91	10.082
492.26	9.574
492.60	9.764
492.95	9.815
493.30	8.963
493.64	8.969
493.99	9.420
494.34	9.586
494.68	9.737
495.03	9.091
495.37	9.051
495.72	8.672
496.07	9.547
496.41	8.657
496.76	9.735
497.11	9.108
497.45	9.095
497.80	9.541
498.14	9.320
498.49	9.027
498.84	9.464
499.18	8.960
499.53	8.961
499.87	8.540
500.22	9.358
500.56	8.977
500.91	9.557
501.26	9.064
501.60	8.627
501.95	8.481
502.29	8.738
502.64	9.065
502.98	8.622
503.33	8.078
503.67	8.763
504.02	8.186
504.36	7.826
504.71	8.181
505.06	8.660
505.40	8.247
505.75	8.342
506.09	8.278
506.44	8.216
506.78	7.974
507.13	7.952
507.47	8.006
507.82	7.954
508.16	8.813
508.51	7.955
508.85	7.413
509.19	7.831
509.54	8.365
509.88	8.495
510.23	7.842
510.57	7.998
510.92	8.028
511.26	7.811
511.61	7.519
511.95	7.938
512.30	6.996
512.64	8.343
512.98	7.756
513.33	8.000
513.67	8.575
514.02	7.469
514.36	7.584
514.70	8.141
515.05	7.139
515.39	7.252
515.74	6.868
516.08	7.375
516.42	7.431
516.77	6.620
517.11	6.526
517.46	7.983
517.80	7.930
518.14	6.797
518.49	7.655
518.83	7.757
519.17	7.470
519.52	6.755
519.86	7.104
520.20	6.913
520.55	7.027
520.89	7.590
521.23	7.308
521.58	7.016
521.92	7.040
522.26	7.157
522.61	7.046
522.95	7.189
523.29	7.175
523.64	7.120
523.98	6.989
524.32	7.309
524.66	7.403
525.01	7.405
525.35	6.386
525.69	7.290
526.04	6.645
526.38	8.031
526.72	7.692
527.06	7.092
527.41	6.618
527.75	6.142
528.09	6.535
528.43	6.581
528.78	6.525
529.12	7.309
529.46	6.974
529.80	7.120
530.15	6.049
530.49	6.604
530.83	6.093
531.17	6.233
531.51	6.878
531.86	6.640
532.20	6.065
532.54	5.517
532.88	6.535
533.22	6.397
533.57	5.629
533.91	6.516
534.25	7.031
534.59	6.499
534.93	6.760
535.27	7.006
535.62	5.789
535.96	6.766
536.30	6.117
536.64	5.947
536.98	6.027
537.32	6.335
537.66	6.206
538.01	6.727
538.35	6.077
538.69	6.288
539.03	5.570
539.37	5.835
539.71	7.162
540.05	5.938
540.39	5.988
540.73	6.006
541.07	6.054
541.42	6.734
541.76	6.698
542.10	5.755
542.44	5.059
542.78	6.593
543.12	6.402
543.46	4.907
543.80	6.449
544.14	6.194
544.48	4.844
544.82	6.052
545.16	4.395
545.50	5.604
545.84	5.750
546.18	6.241
546.52	6.140
546.86	5.371
547.20	4.789
547.54	5.289
547.88	5.938
548.22	6.059
548.56	5.804
548.90	5.277
549.24	6.042
549.58	5.196
549.92	5.943
550.26	6.790
550.60	4.204
550.94	5.448
551.28	5.753
551.62	5.414
551.96	5.564
552.30	4.512
552.64	5.085
552.98	5.327
553.32	5.263
553.66	5.576
554.00	5.544
554.34	5.275
554.68	5.518
555.02	4.641
555.36	5.068
555.69	4.807
556.03	4.861
556.37	4.908
556.71	5.606
557.05	5.461
557.39	4.974
557.73	5.749
558.07	5.350
558.41	5.223
558.75	4.927
559.08	3.769
559.42	5.507
559.76	4.281
560.10	5.688
560.44	5.674
560.78	4.245
561.12	4.765
561.45	5.170
561.79	5.915
562.13	5.696
562.47	5.357
562.81	4.978
563.15	5.028
563.48	4.611
563.82	4.925
564.16	4.942
564.50	5.088
564.84	4.595
565.17	5.828
565.51	3.944
565.85	4.330
566.19	4.702
566.52	5.046
566.86	4.362
567.20	5.131
567.54	5.584
567.88	4.479
568.21	4.671
568.55	5.164
568.89	4.138
569.23	4.766
569.56	5.131
569.90	5.943
570.24	5.018
570.57	5.561
570.91	5.526
571.25	4.618
571.59	5.111
571.92	5.163
572.26	5.702
572.60	5.482
572.93	5.311
573.27	4.980
573.61	5.557
573.95	5.394
574.28	5.311
574.62	5.307
574.96	5.733
575.29	4.965
575.63	5.321
575.97	5.380
576.30	5.286
576.64	5.083
576.98	5.020
577.31	5.732
577.65	5.169
577.98	5.152
578.32	4.986
578.66	5.432
578.99	5.469
579.33	5.247
579.67	4.786
580.00	4.944
580.34	5.211
580.67	5.365
581.01	5.014
581.35	5.343
581.68	5.451
582.02	5.477
582.35	5.494
582.69	5.449
583.02	5.252
583.36	4.923
583.70	5.363
584.03	5.473
584.37	5.055
584.70	5.353
585.04	5.171
585.37	5.030
585.71	5.306
586.04	5.163
586.38	4.788
586.72	5.001
587.05	5.274
587.39	5.376
587.72	5.106
588.06	5.034
588.39	5.038
588.73	5.114
589.06	4.656
589.40	4.885
589.73	4.995
590.07	5.213
590.40	4.657
590.73	5.186
591.07	5.182
591.40	5.087
591.74	5.158
592.07	4.564
592.41	4.848
592.74	4.977
593.08	4.615
593.41	5.202
593.75	5.039
594.08	4.940
594.41	4.717
594.75	5.247
595.08	5.041
595.42	4.438
595.75	4.736
596.09	4.426
596.42	4.657
596.75	4.520
597.09	4.595
597.42	5.249
597.75	4.933
598.09	4.417
598.42	5.369
598.76	4.828
599.09	5.082
599.42	4.947
599.76	4.807
600.09	4.744
600.42	5.009
600.76	4.841
601.09	5.009
601.42	4.822
601.76	4.942
602.09	5.472
602.42	5.035
602.76	4.656
603.09	4.641
603.42	4.638
603.76	4.832
604.09	4.387
604.42	4.479
604.76	4.321
605.09	5.029
605.42	5.263
605.75	4.411
606.09	4.346
606.42	4.697
606.75	4.545
607.09	4.300
607.42	5.254
607.75	4.070
608.08	5.005
608.42	4.217
608.75	4.778
609.08	4.459
609.41	4.968
609.75	4.236
610.08	4.635
610.41	4.082
610.74	4.764
611.07	4.709
611.41	5.527
611.74	4.865
612.07	4.898
612.40	4.649
612.73	4.281
613.07	3.769
613.40	4.130
613.73	5.146
614.06	4.367
614.39	4.336
614.72	4.553
615.06	3.944
615.39	3.918
615.72	4.212
616.05	3.998
616.38	4.868
616.71	4.379
617.05	5.098
617.38	4.436
617.71	3.676
618.04	4.266
618.37	4.858
618.70	3.946
619.03	3.849
619.36	4.626
619.69	4.459
620.03	3.746
620.36	3.897
620.69	2.427
621.02	3.154
621.35	3.189
621.68	3.586
622.01	3.803
622.34	3.569
622.67	4.307
623.00	4.559
623.33	3.740
623.66	3.717
623.99	4.126
624.32	3.888
624.65	3.783
624.99	3.674
625.32	4.108
625.65	4.109
625.98	3.633
626.31	3.755
626.64	4.557
626.97	4.066
627.30	4.876
627.63	4.152
627.96	3.203
628.29	4.837
628.62	3.868
628.95	3.607
629.28	3.251
629.61	3.349
629.94	4.159
630.26	3.941
630.59	3.397
630.92	2.610
631.25	3.399
631.58	3.854
631.91	3.075
632.24	2.854
632.57	3.000
632.90	4.201
633.23	0.360
633.56	3.957
633.89	4.187
634.22	4.829
634.55	4.994
634.88	3.554
635.20	4.500
635.53	3.488
635.86	2.179
636.19	5.335
636.52	3.293
636.85	3.016
637.18	3.045
637.51	2.996
637.83	3.264
638.16	1.200
638.49	2.003
638.82	2.745
639.15	4.920
639.48	3.610
639.81	3.611
640.13	3.521
640.46	3.672
640.79	3.453
641.12	0.148
641.45	1.601
641.77	3.829
642.10	3.328
642.43	3.145
642.76	2.366
643.09	3.674
643.41	2.552
643.74	1.777
