SpectraSuite Data File
++++++++++++++++++++++++++++++++++++
Date: Wed May 13 21:35:20 PDT 2015
User: schluterlab
Dark Spectrum Present: Yes
Reference Spectrum Present: Yes
Number of Sampled Component Spectra: 1
Spectrometers: USB2E3373
Integration Time (usec): 3000 (USB2E3373)
Spectra Averaged: 3 (USB2E3373)
Boxcar Smoothing: 0 (USB2E3373)
Correct for Electrical Dark: No (USB2E3373)
Strobe/Lamp Enabled: No (USB2E3373)
Correct for Detector Non-linearity: No (USB2E3373)
Correct for Stray Light: No (USB2E3373)
Number of Pixels in Processed Spectrum: 2048
>>>>>Begin Processed Spectral Data<<<<<
178.53	0.000
178.91	700.000
179.29	233.333
179.67	-600.000
180.04	-500.000
180.42	220.000
180.80	1100.000
181.18	233.333
181.56	-500.000
181.94	-325.000
182.31	-36.364
182.69	169.231
183.07	-100.000
183.45	400.000
183.83	222.222
184.20	185.714
184.58	-233.333
184.96	533.333
185.34	185.714
185.72	0.000
186.09	-700.000
186.47	-220.000
186.85	320.000
187.23	-300.000
187.61	1000.000
187.98	1900.000
188.36	-25.000
188.74	0.000
189.12	-118.182
189.49	80.000
189.87	91.667
190.25	540.000
190.63	1600.000
191.00	-360.000
191.38	300.000
191.76	525.000
192.14	183.333
192.51	-73.684
192.89	566.667
193.27	475.000
193.65	-400.000
194.02	181.818
194.40	310.000
194.78	-600.000
195.15	400.000
195.53	-360.000
195.91	-75.000
196.29	-333.333
196.66	0.000
197.04	700.000
197.42	-120.000
197.79	-100.000
198.17	-87.500
198.55	-433.333
198.92	350.000
199.30	-266.667
199.68	-100.000
200.05	800.000
200.43	266.667
200.81	-1400.000
201.18	-220.000
201.56	-116.667
201.94	525.000
202.31	-17.391
202.69	-214.286
203.07	-300.000
203.44	-220.000
203.82	-566.667
204.19	-80.000
204.57	0.000
204.95	-350.000
205.32	0.000
205.70	-800.000
206.08	-325.000
206.45	-166.667
206.83	500.000
207.20	-600.000
207.58	-60.000
207.96	-1700.000
208.33	-328.571
208.71	-2400.000
209.08	137.500
209.46	500.000
209.84	0.000
210.21	170.000
210.59	1400.000
210.96	460.000
211.34	2400.000
211.71	-550.000
212.09	-266.667
212.46	-150.000
212.84	-466.667
213.22	-250.000
213.59	-1500.000
213.97	-900.000
214.34	-900.000
214.72	-107.692
215.09	200.000
215.47	233.333
215.84	950.000
216.22	-175.000
216.59	-650.000
216.97	766.667
217.34	244.444
217.72	0.000
218.09	300.000
218.47	-500.000
218.84	-271.429
219.22	-225.000
219.59	-66.667
219.97	-350.000
220.34	-87.500
220.72	-60.000
221.09	0.000
221.47	-250.000
221.84	-1400.000
222.22	0.000
222.59	1300.000
222.97	-266.667
223.34	-50.000
223.72	-1500.000
224.09	-550.000
224.46	-100.000
224.84	-25.000
225.21	-257.143
225.59	-550.000
225.96	-183.333
226.34	-110.000
226.71	-200.000
227.08	950.000
227.46	-187.500
227.83	-1000.000
228.21	-93.750
228.58	-425.000
228.95	-41.176
229.33	-25.000
229.70	-237.500
230.08	-76.923
230.45	-150.000
230.82	-75.000
231.20	200.000
231.57	-275.000
231.95	1300.000
232.32	-16.667
232.69	-41.176
233.07	-1700.000
233.44	-34.783
233.81	-550.000
234.19	4.167
234.56	-66.667
234.93	-26.667
235.31	-15.789
235.68	-138.462
236.05	-61.538
236.43	-77.778
236.80	-33.333
237.17	-133.333
237.55	-88.235
237.92	3.448
238.29	-55.556
238.67	-16.667
239.04	-29.032
239.41	-40.426
239.79	-4.255
240.16	-11.628
240.53	-16.071
240.91	1.786
241.28	0.000
241.65	-16.129
242.02	7.895
242.40	-2.899
242.77	-15.942
243.14	2.564
243.51	9.574
243.89	2.885
244.26	16.981
244.63	-2.885
245.00	22.917
245.38	5.042
245.75	5.738
246.12	9.774
246.49	0.000
246.87	4.202
247.24	8.784
247.61	16.556
247.98	8.974
248.36	8.284
248.73	14.607
249.10	9.596
249.47	6.452
249.84	6.842
250.22	13.930
250.59	15.421
250.96	14.091
251.33	2.871
251.70	12.552
252.08	10.460
252.45	11.934
252.82	11.027
253.19	9.728
253.56	11.871
253.94	15.658
254.31	11.620
254.68	11.409
255.05	11.881
255.42	11.538
255.79	10.429
256.16	11.356
256.54	13.651
256.91	9.177
257.28	13.208
257.65	9.554
258.02	10.850
258.39	16.082
258.76	10.756
259.14	8.807
259.51	10.112
259.88	9.756
260.25	13.611
260.62	11.798
260.99	15.119
261.36	15.026
261.73	15.309
262.10	13.232
262.47	11.605
262.85	11.940
263.22	15.128
263.59	13.247
263.96	12.895
264.33	12.500
264.70	12.558
265.07	16.435
265.44	15.862
265.81	12.586
266.18	12.073
266.55	9.389
266.92	12.712
267.29	11.934
267.66	14.225
268.03	15.226
268.40	13.559
268.77	13.223
269.14	13.878
269.51	16.016
269.88	13.646
270.25	13.347
270.62	12.295
270.99	14.173
271.36	13.889
271.73	13.655
272.10	13.905
272.47	15.547
272.84	14.961
273.21	12.524
273.58	12.705
273.95	13.962
274.32	13.246
274.69	14.390
275.06	15.901
275.43	12.429
275.80	12.234
276.17	13.996
276.54	11.901
276.91	12.369
277.28	11.191
277.65	12.937
278.02	15.357
278.39	13.321
278.76	13.712
279.13	14.408
279.50	12.414
279.87	12.681
280.23	12.432
280.60	12.457
280.97	12.175
281.34	14.038
281.71	11.707
282.08	12.308
282.45	13.770
282.82	14.217
283.19	13.872
283.56	14.531
283.92	13.150
284.29	13.573
284.66	14.168
285.03	12.052
285.40	13.293
285.77	14.264
286.14	10.790
286.51	14.543
286.87	10.154
287.24	12.832
287.61	12.801
287.98	13.676
288.35	12.370
288.72	12.626
289.08	13.533
289.45	13.216
289.82	14.221
290.19	13.043
290.56	11.790
290.93	11.464
291.29	11.902
291.66	12.978
292.03	12.943
292.40	12.382
292.77	13.119
293.13	11.855
293.50	13.333
293.87	12.933
294.24	12.831
294.60	13.784
294.97	11.640
295.34	10.818
295.71	11.301
296.08	11.911
296.44	11.862
296.81	9.866
297.18	11.875
297.55	10.377
297.91	10.932
298.28	11.864
298.65	11.576
299.02	11.477
299.38	9.693
299.75	11.298
300.12	9.070
300.48	10.409
300.85	10.046
301.22	11.266
301.59	9.624
301.95	10.337
302.32	10.385
302.69	8.927
303.05	9.302
303.42	9.659
303.79	10.410
304.15	9.748
304.52	11.398
304.89	9.302
305.25	10.209
305.62	10.412
305.99	10.664
306.35	10.763
306.72	10.071
307.09	10.323
307.45	9.691
307.82	10.526
308.19	10.031
308.55	9.621
308.92	11.100
309.29	9.610
309.65	9.990
310.02	10.437
310.38	9.756
310.75	8.974
311.12	10.593
311.48	9.792
311.85	10.827
312.22	11.122
312.58	11.401
312.95	10.050
313.31	10.101
313.68	9.828
314.05	10.302
314.41	10.183
314.78	9.772
315.14	9.815
315.51	10.276
315.87	10.843
316.24	9.366
316.61	10.411
316.97	10.093
317.34	10.339
317.70	9.367
318.07	11.091
318.43	10.117
318.80	9.599
319.16	10.256
319.53	9.140
319.89	10.840
320.26	10.536
320.62	10.380
320.99	9.981
321.35	9.729
321.72	11.357
322.08	10.055
322.45	10.083
322.81	9.889
323.18	10.912
323.54	10.289
323.91	10.479
324.27	10.261
324.64	10.540
325.00	9.974
325.37	11.007
325.73	10.438
326.10	10.177
326.46	11.873
326.83	10.599
327.19	10.407
327.56	11.604
327.92	9.895
328.29	12.020
328.65	10.429
329.01	8.267
329.38	11.565
329.74	10.644
330.11	10.460
330.47	9.896
330.84	9.928
331.20	11.102
331.56	10.507
331.93	11.197
332.29	12.685
332.66	10.339
333.02	11.642
333.38	10.702
333.75	11.348
334.11	10.764
334.48	11.072
334.84	10.159
335.20	10.206
335.57	9.835
335.93	10.997
336.29	10.070
336.66	11.453
337.02	10.783
337.38	10.618
337.75	10.336
338.11	10.333
338.47	10.702
338.84	10.997
339.20	10.053
339.56	10.239
339.93	10.717
340.29	10.418
340.65	10.522
341.02	10.233
341.38	11.149
341.74	10.084
342.11	10.487
342.47	10.293
342.83	10.212
343.20	9.898
343.56	10.548
343.92	9.911
344.28	10.065
344.65	9.796
345.01	10.008
345.37	11.431
345.73	10.294
346.10	10.112
346.46	9.593
346.82	9.872
347.19	9.968
347.55	10.824
347.91	10.133
348.27	10.489
348.63	10.096
349.00	9.906
349.36	10.754
349.72	10.828
350.08	10.452
350.45	10.102
350.81	9.937
351.17	10.624
351.53	9.427
351.89	9.293
352.26	8.803
352.62	9.302
352.98	10.144
353.34	9.662
353.70	11.215
354.07	9.176
354.43	9.876
354.79	10.176
355.15	9.550
355.51	9.643
355.87	10.086
356.24	9.791
356.60	10.164
356.96	9.977
357.32	10.449
357.68	9.931
358.04	9.465
358.40	9.535
358.77	11.086
359.13	10.272
359.49	9.917
359.85	10.462
360.21	9.021
360.57	9.962
360.93	9.029
361.29	10.141
361.66	10.023
362.02	9.044
362.38	9.306
362.74	10.080
363.10	10.051
363.46	9.438
363.82	10.791
364.18	10.297
364.54	9.628
364.90	9.268
365.26	8.917
365.62	10.156
365.98	10.249
366.35	9.858
366.71	8.702
367.07	8.930
367.43	9.129
367.79	10.146
368.15	9.986
368.51	9.353
368.87	10.398
369.23	9.466
369.59	9.091
369.95	8.781
370.31	9.414
370.67	8.762
371.03	9.503
371.39	9.297
371.75	8.643
372.11	9.259
372.47	9.156
372.83	9.847
373.19	9.209
373.55	9.610
373.91	9.052
374.27	9.405
374.63	9.317
374.99	8.914
375.35	9.589
375.71	8.628
376.07	9.116
376.42	10.160
376.78	9.313
377.14	9.695
377.50	9.322
377.86	9.562
378.22	9.861
378.58	8.827
378.94	9.625
379.30	10.119
379.66	8.878
380.02	9.130
380.38	9.157
380.74	9.085
381.09	8.987
381.45	9.976
381.81	8.688
382.17	9.515
382.53	9.108
382.89	8.926
383.25	8.457
383.61	9.383
383.97	9.438
384.32	9.578
384.68	9.377
385.04	8.125
385.40	9.776
385.76	9.672
386.12	9.296
386.48	8.966
386.83	8.949
387.19	9.130
387.55	9.442
387.91	8.979
388.27	9.309
388.62	9.051
388.98	9.512
389.34	8.960
389.70	9.035
390.06	9.000
390.42	9.987
390.77	9.289
391.13	9.596
391.49	8.539
391.85	9.010
392.20	8.396
392.56	8.508
392.92	9.245
393.28	8.774
393.64	8.807
393.99	8.935
394.35	9.815
394.71	8.910
395.07	8.302
395.42	9.445
395.78	8.172
396.14	9.195
396.50	9.195
396.85	9.943
397.21	8.552
397.57	9.379
397.92	9.341
398.28	9.306
398.64	9.168
399.00	9.263
399.35	8.910
399.71	8.154
400.07	9.398
400.42	8.339
400.78	9.063
401.14	9.503
401.49	8.688
401.85	8.538
402.21	8.359
402.57	9.503
402.92	10.013
403.28	9.256
403.63	9.485
403.99	8.765
404.35	8.603
404.70	8.701
405.06	9.336
405.42	8.794
405.77	8.756
406.13	9.143
406.49	9.227
406.84	9.035
407.20	8.585
407.55	8.377
407.91	8.802
408.27	9.046
408.62	9.699
408.98	8.755
409.34	8.911
409.69	9.942
410.05	9.950
410.40	8.460
410.76	9.025
411.11	8.955
411.47	9.356
411.83	8.422
412.18	8.879
412.54	9.649
412.89	8.527
413.25	9.558
413.60	8.527
413.96	8.614
414.31	10.604
414.67	9.841
415.03	7.916
415.38	8.917
415.74	8.707
416.09	9.584
416.45	8.544
416.80	9.329
417.16	9.109
417.51	8.908
417.87	9.193
418.22	8.920
418.58	9.461
418.93	9.291
419.29	9.373
419.64	8.715
420.00	9.397
420.35	8.787
420.71	8.897
421.06	9.102
421.42	9.732
421.77	9.480
422.12	9.169
422.48	9.269
422.83	9.096
423.19	8.396
423.54	9.717
423.90	9.323
424.25	9.936
424.61	10.105
424.96	9.048
425.31	8.357
425.67	9.112
426.02	9.658
426.38	8.893
426.73	8.858
427.09	9.881
427.44	9.102
427.79	8.729
428.15	9.969
428.50	8.278
428.85	9.471
429.21	9.060
429.56	9.033
429.92	9.943
430.27	9.151
430.62	9.286
430.98	10.365
431.33	8.974
431.68	9.425
432.04	10.535
432.39	8.834
432.74	8.461
433.10	10.285
433.45	9.112
433.80	8.736
434.16	9.175
434.51	9.130
434.86	9.187
435.22	8.998
435.57	8.968
435.92	9.650
436.28	8.949
436.63	9.642
436.98	9.166
437.34	9.524
437.69	8.914
438.04	9.451
438.39	8.468
438.75	8.522
439.10	8.329
439.45	9.746
439.81	9.175
440.16	9.971
440.51	9.037
440.86	9.603
441.22	8.606
441.57	9.219
441.92	8.968
442.27	9.416
442.63	9.203
442.98	9.144
443.33	9.029
443.68	9.331
444.03	9.488
444.39	9.817
444.74	9.001
445.09	8.700
445.44	9.803
445.79	9.086
446.15	8.874
446.50	9.306
446.85	9.246
447.20	9.566
447.55	9.737
447.91	9.663
448.26	9.205
448.61	9.551
448.96	9.624
449.31	9.366
449.66	9.717
450.02	9.153
450.37	9.107
450.72	9.587
451.07	8.652
451.42	9.420
451.77	9.556
452.12	9.566
452.47	10.265
452.83	8.373
453.18	9.421
453.53	8.701
453.88	8.735
454.23	9.456
454.58	9.620
454.93	8.852
455.28	9.891
455.63	9.233
455.98	8.825
456.34	8.582
456.69	9.521
457.04	8.793
457.39	9.561
457.74	9.695
458.09	9.538
458.44	9.577
458.79	9.665
459.14	8.989
459.49	9.268
459.84	8.963
460.19	8.223
460.54	9.976
460.89	9.741
461.24	9.248
461.59	9.601
461.94	9.545
462.29	8.395
462.64	8.179
462.99	8.987
463.34	9.738
463.69	9.149
464.04	9.064
464.39	9.152
464.74	9.951
465.09	9.609
465.44	9.933
465.79	9.718
466.14	9.122
466.49	9.208
466.84	9.384
467.19	9.236
467.54	9.786
467.89	9.239
468.24	8.974
468.59	9.242
468.94	9.451
469.29	9.121
469.64	9.135
469.99	10.552
470.34	9.171
470.68	9.219
471.03	9.873
471.38	9.666
471.73	9.259
472.08	9.553
472.43	9.894
472.78	9.466
473.13	8.179
473.48	8.806
473.83	9.918
474.17	8.008
474.52	8.997
474.87	9.650
475.22	8.998
475.57	9.426
475.92	9.542
476.27	9.149
476.61	9.796
476.96	9.309
477.31	8.954
477.66	9.209
478.01	9.286
478.36	8.610
478.70	9.076
479.05	8.990
479.40	9.880
479.75	9.564
480.10	9.842
480.45	9.416
480.79	10.105
481.14	9.878
481.49	9.472
481.84	9.048
482.19	9.773
482.53	8.905
482.88	9.396
483.23	9.577
483.58	9.641
483.92	8.852
484.27	9.286
484.62	8.700
484.97	9.913
485.31	9.133
485.66	9.776
486.01	9.680
486.36	10.036
486.70	9.906
487.05	9.761
487.40	9.432
487.75	9.676
488.09	8.977
488.44	9.183
488.79	9.122
489.13	9.225
489.48	9.491
489.83	9.469
490.17	9.033
490.52	9.958
490.87	9.550
491.22	9.845
491.56	9.871
491.91	9.361
492.26	9.333
492.60	9.235
492.95	9.572
493.30	9.302
493.64	9.448
493.99	9.710
494.34	9.971
494.68	9.833
495.03	8.992
495.37	9.830
495.72	9.524
496.07	9.450
496.41	9.406
496.76	9.735
497.11	9.765
497.45	9.825
497.80	9.844
498.14	10.076
498.49	9.733
498.84	9.919
499.18	9.557
499.53	9.503
499.87	9.316
500.22	10.005
500.56	10.231
500.91	9.658
501.26	9.606
501.60	8.873
501.95	9.966
502.29	9.854
502.64	10.174
502.98	10.164
503.33	9.732
503.67	9.591
504.02	9.412
504.36	9.262
504.71	9.400
505.06	9.985
505.40	9.381
505.75	9.969
506.09	9.709
506.44	9.173
506.78	9.853
507.13	9.667
507.47	8.537
507.82	10.361
508.16	9.499
508.51	9.143
508.85	9.590
509.19	8.889
509.54	9.651
509.88	10.108
510.23	9.316
510.57	10.117
510.92	10.453
511.26	9.736
511.61	9.385
511.95	7.883
512.30	8.828
512.64	9.137
512.98	9.695
513.33	9.859
513.67	9.370
514.02	9.920
514.36	9.157
514.70	9.873
515.05	9.713
515.39	9.729
515.74	9.059
516.08	9.735
516.42	9.332
516.77	9.139
517.11	8.760
517.46	9.904
517.80	10.291
518.14	8.696
518.49	9.825
518.83	9.368
519.17	9.699
519.52	8.806
519.86	9.107
520.20	10.006
520.55	9.888
520.89	10.120
521.23	10.128
521.58	9.545
521.92	9.051
522.26	9.694
522.61	9.825
522.95	9.585
523.29	9.524
523.64	9.854
523.98	9.085
524.32	8.759
524.66	9.026
525.01	9.371
525.35	9.612
525.69	10.007
526.04	8.664
526.38	9.178
526.72	9.993
527.06	9.542
527.41	9.133
527.75	8.745
528.09	10.075
528.43	9.498
528.78	9.561
529.12	10.414
529.46	9.917
529.80	9.968
530.15	9.331
530.49	10.782
530.83	9.885
531.17	9.795
531.51	8.901
531.86	9.485
532.20	9.717
532.54	9.103
532.88	9.666
533.22	9.495
533.57	9.338
533.91	9.742
534.25	10.286
534.59	9.588
534.93	9.375
535.27	10.510
535.62	9.539
535.96	10.995
536.30	10.505
536.64	10.390
536.98	9.881
537.32	8.826
537.66	9.732
538.01	9.847
538.35	9.116
538.69	9.498
539.03	8.725
539.37	8.518
539.71	9.891
540.05	8.974
540.39	9.498
540.73	9.846
541.07	9.388
541.42	10.370
541.76	9.540
542.10	9.546
542.44	9.771
542.78	9.022
543.12	9.569
543.46	9.399
543.80	8.690
544.14	9.979
544.48	8.494
544.82	8.742
545.16	8.452
545.50	10.939
545.84	9.397
546.18	8.555
546.52	9.598
546.86	9.329
547.20	9.078
547.54	8.435
547.88	9.447
548.22	9.642
548.56	8.539
548.90	8.322
549.24	10.556
549.58	9.110
549.92	9.758
550.26	10.627
550.60	9.234
550.94	8.955
551.28	9.084
551.62	9.699
551.96	9.883
552.30	9.243
552.64	8.616
552.98	10.085
553.32	9.517
553.66	9.391
554.00	8.495
554.34	8.498
554.68	9.471
555.02	8.757
555.36	8.926
555.69	8.521
556.03	9.078
556.37	8.748
556.71	9.040
557.05	9.077
557.39	10.249
557.73	9.607
558.07	9.269
558.41	9.690
558.75	9.546
559.08	8.741
559.42	9.520
559.76	9.786
560.10	8.609
560.44	9.727
560.78	9.065
561.12	8.970
561.45	8.912
561.79	9.904
562.13	9.705
562.47	10.071
562.81	8.730
563.15	9.065
563.48	10.048
563.82	9.439
564.16	9.072
564.50	10.109
564.84	8.716
565.17	9.603
565.51	9.091
565.85	8.728
566.19	9.470
566.52	9.109
566.86	8.723
567.20	9.346
567.54	9.614
567.88	9.630
568.21	9.288
568.55	10.329
568.89	8.624
569.23	9.395
569.56	10.054
569.90	9.509
570.24	8.881
570.57	9.792
570.91	9.621
571.25	9.108
571.59	9.441
571.92	9.240
572.26	9.682
572.60	9.578
572.93	9.247
573.27	9.323
573.61	9.732
573.95	9.730
574.28	9.435
574.62	9.627
574.96	10.113
575.29	9.579
575.63	9.247
575.97	9.538
576.30	9.526
576.64	9.431
576.98	9.511
577.31	9.649
577.65	9.476
577.98	9.125
578.32	9.461
578.66	9.183
578.99	9.437
579.33	9.145
579.67	9.216
580.00	9.565
580.34	9.501
580.67	9.432
581.01	9.142
581.35	9.580
581.68	9.767
582.02	9.658
582.35	9.629
582.69	9.565
583.02	9.682
583.36	9.352
583.70	9.007
584.03	9.410
584.37	8.989
584.70	9.028
585.04	9.082
585.37	9.210
585.71	9.551
586.04	9.323
586.38	9.524
586.72	9.357
587.05	9.391
587.39	9.449
587.72	9.282
588.06	9.767
588.39	9.236
588.73	8.694
589.06	8.923
589.40	9.219
589.73	8.947
590.07	8.604
590.40	9.125
590.73	9.157
591.07	8.734
591.40	8.652
591.74	9.337
592.07	9.174
592.41	9.653
592.74	9.684
593.08	9.026
593.41	9.441
593.75	9.109
594.08	9.257
594.41	8.885
594.75	9.633
595.08	9.149
595.42	8.912
595.75	9.255
596.09	9.122
596.42	9.109
596.75	9.346
597.09	9.372
597.42	9.870
597.75	8.933
598.09	8.698
598.42	9.485
598.76	8.858
599.09	9.484
599.42	9.101
599.76	9.350
600.09	9.488
600.42	8.927
600.76	9.054
601.09	8.851
601.42	8.624
601.76	9.228
602.09	9.404
602.42	9.699
602.76	8.683
603.09	9.281
603.42	9.476
603.76	9.080
604.09	9.605
604.42	8.790
604.76	9.341
605.09	8.700
605.42	9.537
605.75	8.308
606.09	8.609
606.42	8.978
606.75	8.442
607.09	8.688
607.42	9.238
607.75	8.972
608.08	9.333
608.42	8.669
608.75	8.266
609.08	8.721
609.41	9.935
609.75	8.371
610.08	8.679
610.41	8.989
610.74	8.758
611.07	9.018
611.41	9.980
611.74	9.006
612.07	9.901
612.40	8.811
612.73	8.562
613.07	7.927
613.40	9.031
613.73	8.830
614.06	8.181
614.39	9.061
614.72	9.883
615.06	8.889
615.39	8.113
615.72	8.693
616.05	8.390
616.38	9.107
616.71	8.158
617.05	9.214
617.38	9.057
617.71	8.333
618.04	9.019
618.37	8.770
618.70	8.473
619.03	8.729
619.36	8.256
619.69	8.991
620.03	8.693
620.36	7.724
620.69	8.494
621.02	7.231
621.35	8.177
621.68	7.987
622.01	8.252
622.34	8.961
622.67	9.475
623.00	9.878
623.33	8.078
623.66	8.550
623.99	9.002
624.32	9.024
624.65	8.828
624.99	8.376
625.32	9.485
625.65	8.760
625.98	9.005
626.31	8.898
626.64	8.169
626.97	8.997
627.30	9.068
627.63	8.045
627.96	8.139
628.29	8.744
628.62	8.317
628.95	8.016
629.28	8.177
629.61	9.856
629.94	8.607
630.26	6.897
630.59	8.991
630.92	6.928
631.25	7.621
631.58	8.137
631.91	7.105
632.24	8.013
632.57	7.667
632.90	8.985
633.23	7.434
633.56	8.753
633.89	9.450
634.22	10.483
634.55	9.257
634.88	6.740
635.20	9.625
635.53	7.494
635.86	8.205
636.19	9.926
636.52	6.707
636.85	8.323
637.18	5.481
637.51	7.990
637.83	8.094
638.16	6.933
638.49	6.542
638.82	8.758
639.15	7.979
639.48	9.358
639.81	9.167
640.13	8.310
640.46	8.898
640.79	7.626
641.12	8.136
641.45	8.297
641.77	7.806
642.10	8.623
642.43	8.333
642.76	6.782
643.09	8.466
643.41	7.656
643.74	8.562
644.07	7.443
644.40	8.624
644.73	7.288
645.05	6.981
645.38	7.475
645.71	7.823
646.04	6.397
646.36	8.507
646.69	7.692
647.02	7.468
647.35	8.592
647.67	6.100
648.00	6.522
648.33	8.475
648.66	8.681
648.98	6.366
649.31	7.515
649.64	5.947
649.96	7.899
650.29	5.556
