SpectraSuite Data File
++++++++++++++++++++++++++++++++++++
Date: Wed May 13 21:13:10 PDT 2015
User: schluterlab
Dark Spectrum Present: Yes
Reference Spectrum Present: Yes
Number of Sampled Component Spectra: 1
Spectrometers: USB2E3373
Integration Time (usec): 3000 (USB2E3373)
Spectra Averaged: 3 (USB2E3373)
Boxcar Smoothing: 0 (USB2E3373)
Correct for Electrical Dark: No (USB2E3373)
Strobe/Lamp Enabled: No (USB2E3373)
Correct for Detector Non-linearity: No (USB2E3373)
Correct for Stray Light: No (USB2E3373)
Number of Pixels in Processed Spectrum: 2048
>>>>>Begin Processed Spectral Data<<<<<
178.53	0.000
178.91	400.000
179.29	208.333
179.67	-450.000
180.04	-166.667
180.42	140.000
180.80	2000.000
181.18	316.667
181.56	-275.000
181.94	-275.000
182.31	-9.091
182.69	123.077
183.07	-260.000
183.45	216.667
183.83	144.444
184.20	114.286
184.58	-133.333
184.96	466.667
185.34	200.000
185.72	0.000
186.09	-800.000
186.47	-220.000
186.85	400.000
187.23	-250.000
187.61	950.000
187.98	1500.000
188.36	-62.500
188.74	0.000
189.12	18.182
189.49	-20.000
189.87	108.333
190.25	360.000
190.63	1700.000
191.00	-240.000
191.38	340.000
191.76	275.000
192.14	141.667
192.51	-42.105
192.89	500.000
193.27	325.000
193.65	-320.000
194.02	236.364
194.40	250.000
194.78	-600.000
195.15	380.000
195.53	-80.000
195.91	-100.000
196.29	-200.000
196.66	0.000
197.04	550.000
197.42	-160.000
197.79	10.000
198.17	-75.000
198.55	-200.000
198.92	150.000
199.30	-466.667
199.68	-20.000
200.05	400.000
200.43	316.667
200.81	-1800.000
201.18	-120.000
201.56	-83.333
201.94	625.000
202.31	21.739
202.69	0.000
203.07	-600.000
203.44	-140.000
203.82	-433.333
204.19	-80.000
204.57	0.000
204.95	-183.333
205.32	0.000
205.70	-300.000
206.08	-350.000
206.45	-150.000
206.83	425.000
207.20	-500.000
207.58	-130.000
207.96	-1100.000
208.33	-328.571
208.71	-1500.000
209.08	225.000
209.46	400.000
209.84	0.000
210.21	200.000
210.59	2200.000
210.96	320.000
211.34	800.000
211.71	-850.000
212.09	-166.667
212.46	-110.000
212.84	-233.333
213.22	25.000
213.59	-400.000
213.97	-450.000
214.34	-750.000
214.72	-61.538
215.09	137.500
215.47	166.667
215.84	400.000
216.22	-50.000
216.59	-150.000
216.97	666.667
217.34	211.111
217.72	0.000
218.09	400.000
218.47	200.000
218.84	-57.143
219.22	-225.000
219.59	-433.333
219.97	-225.000
220.34	-150.000
220.72	-140.000
221.09	0.000
221.47	-183.333
221.84	-1100.000
222.22	0.000
222.59	500.000
222.97	-333.333
223.34	-58.333
223.72	-700.000
224.09	-500.000
224.46	-81.818
224.84	-112.500
225.21	-71.429
225.59	-650.000
225.96	-300.000
226.34	-10.000
226.71	-128.571
227.08	450.000
227.46	-112.500
227.83	-800.000
228.21	-62.500
228.58	-300.000
228.95	-29.412
229.33	-56.250
229.70	-100.000
230.08	-115.385
230.45	-225.000
230.82	-83.333
231.20	171.429
231.57	-500.000
231.95	1900.000
232.32	-75.000
232.69	-17.647
233.07	-1000.000
233.44	-39.130
233.81	-400.000
234.19	-8.333
234.56	-80.000
234.93	-6.667
235.31	-57.895
235.68	-184.615
236.05	-76.923
236.43	-27.778
236.80	3.030
237.17	-73.333
237.55	-82.353
237.92	-41.379
238.29	-48.148
238.67	-8.333
239.04	-29.032
239.41	6.383
239.79	12.766
240.16	-2.326
240.53	5.357
240.91	-5.357
241.28	12.500
241.65	1.613
242.02	5.263
242.40	17.391
242.77	-4.348
243.14	10.256
243.51	7.447
243.89	7.692
244.26	24.528
244.63	-1.923
245.00	9.375
245.38	5.882
245.75	9.016
246.12	7.519
246.49	13.008
246.87	4.202
247.24	9.459
247.61	5.298
247.98	7.051
248.36	18.343
248.73	6.180
249.10	12.626
249.47	5.376
249.84	14.737
250.22	13.433
250.59	11.215
250.96	11.364
251.33	5.263
251.70	17.992
252.08	12.971
252.45	14.815
252.82	15.589
253.19	11.284
253.56	11.871
253.94	17.082
254.31	14.085
254.68	15.772
255.05	12.871
255.42	9.790
255.79	15.951
256.16	14.826
256.54	11.429
256.91	12.658
257.28	13.208
257.65	11.783
258.02	14.370
258.39	15.497
258.76	12.209
259.14	11.648
259.51	13.483
259.88	15.718
260.25	13.056
260.62	14.326
260.99	12.997
261.36	13.990
261.73	14.321
262.10	13.486
262.47	13.086
262.85	15.174
263.22	12.308
263.59	13.766
263.96	12.165
264.33	14.423
264.70	12.791
265.07	15.509
265.44	16.552
265.81	14.188
266.18	13.212
266.55	13.537
266.92	14.619
267.29	12.963
267.66	16.561
268.03	15.844
268.40	13.983
268.77	14.256
269.14	15.510
269.51	18.070
269.88	14.257
270.25	15.890
270.62	12.295
270.99	13.583
271.36	15.278
271.73	12.651
272.10	15.048
272.47	14.012
272.84	15.551
273.21	15.264
273.58	15.779
273.95	13.962
274.32	13.619
274.69	16.758
275.06	16.254
275.43	13.371
275.80	13.830
276.17	14.549
276.54	14.920
276.91	15.505
277.28	13.899
277.65	12.937
278.02	15.714
278.39	13.321
278.76	15.385
279.13	13.551
279.50	12.241
279.87	12.500
280.23	14.955
280.60	12.976
280.97	14.935
281.34	15.300
281.71	12.195
282.08	14.188
282.45	13.770
282.82	13.898
283.19	14.177
283.56	14.844
283.92	13.914
284.29	12.949
284.66	13.180
285.03	12.378
285.40	13.293
285.77	12.763
286.14	13.526
286.51	14.093
286.87	14.462
287.24	13.569
287.61	14.307
287.98	14.706
288.35	14.158
288.72	16.356
289.08	15.100
289.45	12.335
289.82	14.070
290.19	15.288
290.56	11.364
290.93	11.326
291.29	12.996
291.66	12.705
292.03	13.624
292.40	12.921
292.77	12.851
293.13	13.250
293.50	12.941
293.87	13.067
294.24	13.757
294.60	12.354
294.97	15.344
295.34	11.214
295.71	10.644
296.08	12.958
296.44	11.097
296.81	11.937
297.18	11.250
297.55	11.675
297.91	12.298
298.28	12.349
298.65	12.438
299.02	13.309
299.38	11.902
299.75	12.019
300.12	10.000
300.48	11.696
300.85	10.970
301.22	11.731
301.59	8.803
301.95	9.756
302.32	11.785
302.69	9.718
303.05	10.853
303.42	11.705
303.79	9.884
304.15	10.296
304.52	10.753
304.89	9.302
305.25	10.428
305.62	10.846
305.99	10.664
306.35	12.121
306.72	10.987
307.09	10.636
307.45	10.543
307.82	10.000
308.19	9.613
308.55	10.133
308.92	10.413
309.29	11.011
309.65	9.491
310.02	11.133
310.38	10.874
310.75	10.750
311.12	11.273
311.48	10.188
311.85	11.122
312.22	10.735
312.58	10.338
312.95	10.249
313.31	9.826
313.68	10.592
314.05	10.491
314.41	11.239
314.78	11.385
315.14	10.463
315.51	11.798
315.87	10.658
316.24	11.019
316.61	10.959
316.97	11.944
317.34	10.873
317.70	11.329
318.07	10.914
318.43	11.563
318.80	10.995
319.16	10.698
319.53	10.663
319.89	10.117
320.26	11.091
320.62	11.492
320.99	10.950
321.35	9.542
321.72	11.453
322.08	10.517
322.45	11.286
322.81	10.444
323.18	10.644
323.54	11.191
323.91	10.930
324.27	11.071
324.64	11.150
325.00	10.149
325.37	11.433
325.73	10.522
326.10	11.102
326.46	11.288
326.83	11.812
327.19	10.244
327.56	11.765
327.92	10.700
328.29	13.272
328.65	12.095
329.01	11.346
329.38	12.087
329.74	10.472
330.11	11.091
330.47	11.458
330.84	11.282
331.20	10.845
331.56	11.594
331.93	10.594
332.29	11.468
332.66	10.678
333.02	12.945
333.38	11.053
333.75	12.116
334.11	12.587
334.48	10.898
334.84	10.247
335.20	11.149
335.57	10.618
335.93	11.168
336.29	10.858
336.66	10.342
337.02	11.652
337.38	11.140
337.75	11.197
338.11	10.931
338.47	8.990
338.84	10.997
339.20	11.817
339.56	10.324
339.93	11.668
340.29	10.931
340.65	11.035
341.02	11.148
341.38	11.064
341.74	9.664
342.11	11.230
342.47	10.293
342.83	11.275
343.20	11.506
343.56	11.365
343.92	11.454
344.28	11.282
344.65	9.878
345.01	11.057
345.37	11.266
345.73	10.866
346.10	12.360
346.46	10.650
346.82	9.952
347.19	10.522
347.55	11.712
347.91	10.990
348.27	10.726
348.63	10.978
349.00	10.849
349.36	11.068
349.72	10.596
350.08	11.154
350.45	11.355
350.81	11.502
351.17	12.471
351.53	10.448
351.89	10.802
352.26	10.502
352.62	10.543
352.98	9.665
353.34	11.111
353.70	10.514
354.07	11.059
354.43	10.420
354.79	10.417
355.15	11.491
355.51	10.175
355.87	11.806
356.24	10.754
356.60	10.164
356.96	10.898
357.32	10.217
357.68	11.688
358.04	11.327
358.40	10.853
358.77	10.092
359.13	11.362
359.49	10.674
359.85	10.538
360.21	11.025
360.57	10.342
360.93	10.774
361.29	11.103
361.66	11.617
362.02	10.304
362.38	11.374
362.74	10.442
363.10	10.774
363.46	10.303
363.82	11.604
364.18	9.355
364.54	10.722
364.90	10.035
365.26	10.191
365.62	10.440
365.98	9.893
366.35	10.071
366.71	11.056
367.07	9.426
367.43	10.453
367.79	10.771
368.15	10.900
368.51	9.986
368.87	10.886
369.23	10.391
369.59	10.994
369.95	9.652
370.31	10.739
370.67	10.355
371.03	10.245
371.39	11.143
371.75	10.357
372.11	11.182
372.47	10.454
372.83	10.957
373.19	10.647
373.55	10.405
373.91	9.830
374.27	10.028
374.63	10.526
374.99	10.376
375.35	10.616
375.71	10.054
376.07	10.144
376.42	10.294
376.78	10.898
377.14	10.644
377.50	10.169
377.86	10.691
378.22	10.936
378.58	10.467
378.94	11.188
379.30	10.244
379.66	11.282
380.02	10.110
380.38	10.542
380.74	10.879
381.09	10.314
381.45	10.399
381.81	10.290
382.17	9.956
382.53	10.769
382.89	10.012
383.25	10.123
383.61	10.109
383.97	10.188
384.32	9.767
384.68	10.179
385.04	10.202
385.40	11.208
385.76	10.706
386.12	10.200
386.48	10.972
386.83	10.451
387.19	9.685
387.55	10.423
387.91	11.009
388.27	10.481
388.62	9.551
388.98	9.449
389.34	9.712
389.70	9.890
390.06	10.438
390.42	11.018
390.77	10.634
391.13	10.985
391.49	9.614
391.85	10.479
392.20	9.774
392.56	11.365
392.92	10.532
393.28	10.459
393.64	10.092
393.99	9.792
394.35	10.679
394.71	9.872
395.07	9.497
395.42	10.725
395.78	9.717
396.14	10.336
396.50	10.209
396.85	11.281
397.21	9.613
397.57	10.311
397.92	9.760
398.28	10.603
398.64	10.200
399.00	9.989
399.35	10.102
399.71	9.843
400.07	9.157
400.42	9.781
400.78	10.151
401.14	9.749
401.49	9.766
401.85	10.258
402.21	10.836
402.57	10.362
402.92	10.951
403.28	10.069
403.63	10.043
403.99	9.917
404.35	10.349
404.70	9.607
405.06	10.511
405.42	9.548
405.77	9.447
406.13	9.714
406.49	10.066
406.84	10.012
407.20	10.243
407.55	10.649
407.91	9.795
408.27	9.794
408.62	11.172
408.98	9.309
409.34	9.901
409.69	10.006
410.05	10.448
410.40	9.556
410.76	9.747
411.11	10.634
411.47	10.949
411.83	9.794
412.18	9.320
412.54	11.216
412.89	9.279
413.25	10.383
413.60	10.533
413.96	10.050
414.31	9.803
414.67	9.968
415.03	9.675
415.38	9.313
415.74	10.331
416.09	10.178
416.45	9.228
416.80	10.000
417.16	9.649
417.51	9.980
417.87	9.987
418.22	10.278
418.58	10.250
418.93	10.044
419.29	9.571
419.64	9.860
420.00	10.286
420.35	10.341
420.71	9.689
421.06	9.717
421.42	10.706
421.77	9.653
422.12	10.086
422.48	10.360
422.83	10.159
423.19	10.638
423.54	10.247
423.90	10.273
424.25	9.359
424.61	9.612
424.96	9.166
425.31	9.871
425.67	10.347
426.02	10.306
426.38	9.391
426.73	9.469
427.09	9.443
427.44	10.335
427.79	9.798
428.15	10.642
428.50	9.184
428.85	10.517
429.21	10.467
429.56	10.521
429.92	10.411
430.27	9.663
430.62	10.388
430.98	9.995
431.33	10.210
431.68	10.596
432.04	10.366
432.39	9.469
432.74	10.239
433.10	11.098
433.45	10.118
433.80	9.943
434.16	9.776
434.51	10.435
434.86	10.542
435.22	10.243
435.57	10.627
435.92	9.469
436.28	9.790
436.63	9.700
436.98	10.693
437.34	9.585
437.69	9.445
438.04	9.960
438.39	10.149
438.75	9.833
439.10	10.411
439.45	10.169
439.81	10.406
440.16	10.377
440.51	10.404
440.86	10.136
441.22	10.614
441.57	10.358
441.92	10.264
442.27	10.227
442.63	10.118
442.98	10.127
443.33	11.117
443.68	10.121
444.03	10.184
444.39	10.461
444.74	9.994
445.09	10.518
445.44	10.648
445.79	10.274
446.15	10.538
446.50	10.683
446.85	10.102
447.20	10.403
447.55	10.073
447.91	10.562
448.26	10.749
448.61	10.127
448.96	10.194
449.31	10.908
449.66	10.931
450.02	10.460
450.37	10.576
450.72	10.046
451.07	10.909
451.42	9.919
451.77	10.773
452.12	10.517
452.47	10.717
452.83	10.731
453.18	10.312
453.53	10.782
453.88	10.964
454.23	10.692
454.58	11.152
454.93	10.071
455.28	11.111
455.63	10.231
455.98	10.347
456.34	10.490
456.69	10.799
457.04	10.712
457.39	10.463
457.74	10.114
458.09	10.486
458.44	10.693
458.79	10.434
459.14	10.337
459.49	10.244
459.84	10.598
460.19	9.724
460.54	10.462
460.89	10.586
461.24	10.543
461.59	9.903
461.94	10.240
462.29	10.172
462.64	10.224
462.99	10.798
463.34	10.843
463.69	10.825
464.04	9.724
464.39	10.799
464.74	10.319
465.09	10.601
465.44	10.831
465.79	10.523
466.14	10.547
466.49	10.557
466.84	10.640
467.19	10.127
467.54	11.082
467.89	10.371
468.24	10.756
468.59	10.516
468.94	10.089
469.29	10.377
469.64	11.367
469.99	12.207
470.34	10.722
470.68	9.963
471.03	10.649
471.38	10.848
471.73	10.562
472.08	10.722
472.43	10.488
472.78	11.224
473.13	10.422
473.48	9.785
473.83	10.546
474.17	10.352
474.52	10.744
474.87	10.314
475.22	10.507
475.57	11.433
475.92	10.687
476.27	9.848
476.61	10.589
476.96	10.109
477.31	10.464
477.66	10.339
478.01	10.275
478.36	10.790
478.70	11.010
479.05	10.988
479.40	11.284
479.75	10.255
480.10	10.964
480.45	10.250
480.79	10.951
481.14	10.385
481.49	11.001
481.84	9.991
482.19	10.283
482.53	10.810
482.88	10.642
483.23	9.865
483.58	11.720
483.92	10.263
484.27	10.659
484.62	10.386
484.97	11.282
485.31	10.881
485.66	10.656
486.01	10.865
486.36	10.892
486.70	10.681
487.05	11.369
487.40	10.536
487.75	10.680
488.09	10.479
488.44	10.480
488.79	10.863
489.13	10.815
489.48	11.159
489.83	10.808
490.17	10.213
490.52	11.127
490.87	10.292
491.22	10.787
491.56	11.260
491.91	10.898
492.26	10.542
492.60	11.015
492.95	10.447
493.30	10.804
493.64	10.552
493.99	11.401
494.34	11.031
494.68	10.788
495.03	10.721
495.37	11.144
495.72	10.927
496.07	10.278
496.41	10.482
496.76	11.015
497.11	10.610
497.45	10.798
497.80	11.762
498.14	11.184
498.49	10.842
498.84	10.678
499.18	10.801
499.53	10.734
499.87	10.432
500.22	11.299
500.56	10.983
500.91	10.915
501.26	10.887
501.60	10.833
501.95	10.494
502.29	10.922
502.64	10.897
502.98	11.031
503.33	11.241
503.67	10.808
504.02	11.324
504.36	10.748
504.71	10.925
505.06	11.360
505.40	10.619
505.75	11.597
506.09	10.782
506.44	11.341
506.78	11.275
507.13	11.227
507.47	11.400
507.82	10.884
508.16	11.135
508.51	11.054
508.85	10.575
509.19	11.164
509.54	11.099
509.88	10.054
510.23	10.579
510.57	11.388
510.92	11.261
511.26	11.166
511.61	10.757
511.95	10.364
512.30	10.328
512.64	11.464
512.98	11.247
513.33	11.155
513.67	10.392
514.02	10.889
514.36	10.562
514.70	12.182
515.05	10.532
515.39	11.026
515.74	10.835
516.08	10.796
516.42	10.829
516.77	10.545
517.11	10.288
517.46	11.164
517.80	11.622
518.14	10.227
518.49	10.850
518.83	11.396
519.17	10.301
519.52	10.736
519.86	11.050
520.20	10.916
520.55	10.945
520.89	11.006
521.23	10.962
521.58	11.125
521.92	11.314
522.26	10.865
522.61	10.989
522.95	10.946
523.29	10.159
523.64	12.333
523.98	11.563
524.32	11.027
524.66	11.623
525.01	11.664
525.35	11.652
525.69	11.199
526.04	10.423
526.38	11.409
526.72	10.848
527.06	11.283
527.41	10.390
527.75	11.348
528.09	11.572
528.43	11.262
528.78	10.401
529.12	11.384
529.46	10.940
529.80	11.197
530.15	11.068
530.49	11.119
530.83	12.187
531.17	10.753
531.51	10.452
531.86	11.247
532.20	10.958
532.54	10.828
532.88	11.096
533.22	11.785
533.57	10.795
533.91	11.419
534.25	11.849
534.59	10.489
534.93	11.671
535.27	11.401
535.62	11.118
535.96	11.581
536.30	11.769
536.64	11.688
536.98	10.582
537.32	11.886
537.66	11.495
538.01	11.026
538.35	11.326
538.69	10.769
539.03	10.940
539.37	10.731
539.71	11.528
540.05	10.594
540.39	10.805
540.73	10.824
541.07	11.769
541.42	10.842
541.76	10.758
542.10	11.239
542.44	10.949
542.78	11.797
543.12	12.062
543.46	11.057
543.80	11.405
544.14	11.631
544.48	10.484
544.82	11.836
545.16	10.683
545.50	12.289
545.84	10.449
546.18	11.150
546.52	11.503
546.86	10.530
547.20	11.437
547.54	11.723
547.88	10.796
548.22	10.228
548.56	10.340
548.90	11.164
549.24	11.944
549.58	10.890
549.92	11.665
550.26	12.103
550.60	11.261
550.94	11.119
551.28	10.825
551.62	11.654
551.96	10.835
552.30	9.607
552.64	10.734
552.98	11.435
553.32	11.464
553.66	11.445
554.00	10.727
554.34	9.963
554.68	11.037
555.02	11.153
555.36	12.027
555.69	11.143
556.03	10.293
556.37	10.740
556.71	11.282
557.05	11.144
557.39	10.852
557.73	11.195
558.07	11.454
558.41	11.128
558.75	10.701
559.08	9.944
559.42	11.408
559.76	11.544
560.10	10.607
560.44	11.864
560.78	10.288
561.12	10.722
561.45	11.701
561.79	11.967
562.13	10.549
562.47	11.143
562.81	11.328
563.15	11.119
563.48	11.149
563.82	11.628
564.16	11.848
564.50	11.737
564.84	11.486
565.17	12.053
565.51	10.896
565.85	10.060
566.19	10.861
566.52	10.288
566.86	11.062
567.20	11.057
567.54	11.054
567.88	10.806
568.21	10.809
568.55	11.163
568.89	10.319
569.23	10.862
569.56	11.890
569.90	11.081
570.24	10.614
570.57	10.986
570.91	11.618
571.25	10.764
571.59	10.854
571.92	11.558
572.26	10.930
572.60	11.026
572.93	10.684
573.27	10.963
573.61	11.546
573.95	11.158
574.28	10.647
574.62	10.615
574.96	11.442
575.29	10.908
575.63	11.170
575.97	10.951
576.30	10.655
576.64	11.187
576.98	10.898
577.31	11.300
577.65	10.934
577.98	10.987
578.32	10.666
578.66	10.886
578.99	10.915
579.33	10.945
579.67	10.998
580.00	10.932
580.34	11.125
580.67	11.244
581.01	10.588
581.35	11.104
581.68	10.998
582.02	11.405
582.35	11.191
582.69	10.879
583.02	11.031
583.36	10.978
583.70	11.137
584.03	10.892
584.37	10.710
584.70	11.158
585.04	10.857
585.37	10.984
585.71	11.240
586.04	11.103
586.38	10.681
586.72	10.733
587.05	11.280
587.39	11.214
587.72	11.223
588.06	10.889
588.39	11.111
588.73	11.071
589.06	11.251
589.40	10.630
589.73	11.103
590.07	11.301
590.40	10.754
590.73	10.859
591.07	10.990
591.40	11.565
591.74	10.671
592.07	10.817
592.41	11.497
592.74	11.265
593.08	10.838
593.41	11.336
593.75	10.853
594.08	10.915
594.41	11.042
594.75	11.132
595.08	10.941
595.42	10.809
595.75	10.954
596.09	11.393
596.42	10.784
596.75	11.716
597.09	10.874
597.42	11.620
597.75	10.889
598.09	10.929
598.42	11.275
598.76	10.789
599.09	11.685
599.42	10.725
599.76	11.040
600.09	11.709
600.42	11.111
600.76	10.791
601.09	10.960
601.42	10.819
601.76	10.811
602.09	11.066
602.42	11.267
602.76	10.906
603.09	11.129
603.42	11.236
603.76	10.951
604.09	11.146
604.42	10.716
604.76	11.087
605.09	10.965
605.42	11.516
605.75	11.049
606.09	11.382
606.42	11.097
606.75	10.260
607.09	10.771
607.42	11.208
607.75	9.628
608.08	11.542
608.42	10.497
608.75	10.368
609.08	11.220
609.41	11.724
609.75	10.893
610.08	11.391
610.41	11.273
610.74	11.357
611.07	10.772
611.41	11.464
611.74	11.698
612.07	10.891
612.40	11.730
612.73	10.648
613.07	11.031
613.40	11.289
613.73	11.701
614.06	10.337
614.39	10.117
614.72	11.938
615.06	11.056
615.39	10.817
615.72	10.691
616.05	10.304
616.38	10.882
616.71	10.438
617.05	11.425
617.38	10.967
617.71	10.539
618.04	10.847
618.37	10.032
618.70	11.384
619.03	10.515
619.36	10.605
619.69	9.795
620.03	11.307
620.36	11.552
620.69	10.278
621.02	10.231
621.35	10.630
621.68	10.839
622.01	11.408
622.34	11.023
622.67	11.981
623.00	12.006
623.33	10.546
623.66	9.740
623.99	11.178
624.32	11.299
624.65	11.573
624.99	11.168
625.32	11.128
625.65	10.543
625.98	10.506
626.31	10.286
626.64	10.060
626.97	11.246
627.30	11.634
627.63	11.159
627.96	10.390
628.29	11.070
628.62	11.412
628.95	10.020
629.28	10.739
629.61	11.866
629.94	9.961
630.26	12.217
630.59	10.589
630.92	11.145
631.25	9.063
631.58	12.206
631.91	10.498
632.24	8.452
632.57	12.111
632.90	10.968
633.23	9.832
633.56	10.911
633.89	11.483
634.22	10.365
634.55	9.744
634.88	10.539
