SpectraSuite Data File
++++++++++++++++++++++++++++++++++++
Date: Wed May 13 21:06:49 PDT 2015
User: schluterlab
Dark Spectrum Present: Yes
Reference Spectrum Present: Yes
Number of Sampled Component Spectra: 1
Spectrometers: USB2E3373
Integration Time (usec): 3000 (USB2E3373)
Spectra Averaged: 3 (USB2E3373)
Boxcar Smoothing: 0 (USB2E3373)
Correct for Electrical Dark: No (USB2E3373)
Strobe/Lamp Enabled: No (USB2E3373)
Correct for Detector Non-linearity: No (USB2E3373)
Correct for Stray Light: No (USB2E3373)
Number of Pixels in Processed Spectrum: 2048
>>>>>Begin Processed Spectral Data<<<<<
178.53	0.000
178.91	350.000
179.29	166.667
179.67	-950.000
180.04	-800.000
180.42	240.000
180.80	2300.000
181.18	200.000
181.56	-350.000
181.94	-150.000
182.31	9.091
182.69	153.846
183.07	20.000
183.45	250.000
183.83	55.556
184.20	157.143
184.58	233.333
184.96	433.333
185.34	142.857
185.72	0.000
186.09	-1100.000
186.47	-280.000
186.85	120.000
187.23	-200.000
187.61	700.000
187.98	200.000
188.36	-87.500
188.74	0.000
189.12	-54.545
189.49	-10.000
189.87	100.000
190.25	420.000
190.63	1200.000
191.00	-40.000
191.38	200.000
191.76	450.000
192.14	116.667
192.51	-26.316
192.89	300.000
193.27	325.000
193.65	-60.000
194.02	181.818
194.40	130.000
194.78	-100.000
195.15	-0.000
195.53	-140.000
195.91	87.500
196.29	-333.333
196.66	0.000
197.04	200.000
197.42	-120.000
197.79	30.000
198.17	-137.500
198.55	-33.333
198.92	300.000
199.30	-300.000
199.68	-30.000
200.05	200.000
200.43	150.000
200.81	-100.000
201.18	-180.000
201.56	-66.667
201.94	600.000
202.31	-21.739
202.69	114.286
203.07	-233.333
203.44	-60.000
203.82	-266.667
204.19	-10.000
204.57	0.000
204.95	-50.000
205.32	0.000
205.70	250.000
206.08	-250.000
206.45	-33.333
206.83	350.000
207.20	-300.000
207.58	30.000
207.96	-600.000
208.33	-114.286
208.71	-200.000
209.08	187.500
209.46	275.000
209.84	0.000
210.21	180.000
210.59	1200.000
210.96	80.000
211.34	500.000
211.71	-1050.000
212.09	-183.333
212.46	-100.000
212.84	0.000
213.22	-350.000
213.59	-100.000
213.97	-500.000
214.34	-750.000
214.72	-76.923
215.09	100.000
215.47	311.111
215.84	950.000
216.22	-62.500
216.59	0.000
216.97	400.000
217.34	44.444
217.72	0.000
218.09	200.000
218.47	-200.000
218.84	-71.429
219.22	-162.500
219.59	-400.000
219.97	-125.000
220.34	-37.500
220.72	-240.000
221.09	0.000
221.47	-150.000
221.84	600.000
222.22	0.000
222.59	1100.000
222.97	-300.000
223.34	-8.333
223.72	-500.000
224.09	-550.000
224.46	-9.091
224.84	-75.000
225.21	-100.000
225.59	-200.000
225.96	-116.667
226.34	-80.000
226.71	-171.429
227.08	250.000
227.46	-150.000
227.83	-100.000
228.21	-50.000
228.58	-300.000
228.95	5.882
229.33	-50.000
229.70	0.000
230.08	-30.769
230.45	-87.500
230.82	-58.333
231.20	114.286
231.57	-375.000
231.95	1000.000
232.32	0.000
232.69	17.647
233.07	100.000
233.44	-39.130
233.81	-750.000
234.19	-8.333
234.56	-86.667
234.93	-13.333
235.31	-5.263
235.68	-123.077
236.05	-61.538
236.43	16.667
236.80	-36.364
237.17	-60.000
237.55	-88.235
237.92	-72.414
238.29	-48.148
238.67	-11.111
239.04	-41.935
239.41	-21.277
239.79	0.000
240.16	-6.977
240.53	-8.929
240.91	-7.143
241.28	-12.500
241.65	-11.290
242.02	-13.158
242.40	7.246
242.77	-23.188
243.14	2.564
243.51	-4.255
243.89	-9.615
244.26	16.981
244.63	-6.731
245.00	4.167
245.38	-5.882
245.75	0.820
246.12	-1.504
246.49	-19.512
246.87	-11.765
247.24	1.351
247.61	-2.649
247.98	-1.923
248.36	-4.734
248.73	-2.247
249.10	-1.515
249.47	-7.527
249.84	2.105
250.22	-3.483
250.59	1.402
250.96	2.273
251.33	-7.177
251.70	2.510
252.08	0.000
252.45	2.881
252.82	-0.380
253.19	-2.724
253.56	-1.439
253.94	3.559
254.31	-0.352
254.68	0.671
255.05	1.980
255.42	-1.748
255.79	-0.613
256.16	0.631
256.54	1.270
256.91	-2.848
257.28	2.516
257.65	-4.459
258.02	0.587
258.39	1.170
258.76	-4.070
259.14	0.568
259.51	-2.528
259.88	0.271
260.25	-0.556
260.62	-2.809
260.99	0.265
261.36	1.554
261.73	-0.741
262.10	-1.527
262.47	-1.235
262.85	0.000
263.22	-1.538
263.59	-0.260
263.96	0.487
264.33	-0.481
264.70	-0.465
265.07	0.694
265.44	0.000
265.81	-2.517
266.18	-1.367
266.55	-0.218
266.92	-1.059
267.29	1.235
267.66	0.212
268.03	-0.617
268.40	-1.271
268.77	1.653
269.14	-0.204
269.51	2.259
269.88	-1.426
270.25	0.847
270.62	-2.459
270.99	1.969
271.36	-0.794
271.73	-2.209
272.10	2.095
272.47	0.384
272.84	0.787
273.21	-0.978
273.58	-0.615
273.95	-0.377
274.32	1.493
274.69	0.911
275.06	0.353
275.43	0.377
275.80	2.128
276.17	-1.657
276.54	0.533
276.91	0.000
277.28	-2.166
277.65	-0.699
278.02	1.250
278.39	0.178
278.76	1.839
279.13	-0.172
279.50	0.000
279.87	-1.087
280.23	-1.081
280.60	-0.692
280.97	0.325
281.34	1.577
281.71	1.301
282.08	0.342
282.45	0.164
282.82	0.000
283.19	1.677
283.56	0.156
283.92	-0.153
284.29	-1.560
284.66	-0.824
285.03	-2.117
285.40	0.755
285.77	-1.051
286.14	0.760
286.51	2.249
286.87	0.154
287.24	-0.147
287.61	0.904
287.98	-0.294
288.35	0.298
288.72	0.574
289.08	1.852
289.45	-0.441
289.82	1.362
290.19	1.683
290.56	0.426
290.93	0.414
291.29	0.684
291.66	0.820
292.03	2.452
292.40	1.884
292.77	1.205
293.13	0.976
293.50	0.915
293.87	1.333
294.24	0.529
294.60	1.951
294.97	1.587
295.34	0.264
295.71	-0.131
296.08	0.131
296.44	-1.786
296.81	0.122
297.18	1.000
297.55	0.825
297.91	0.000
298.28	1.453
298.65	0.369
299.02	1.709
299.38	-0.613
299.75	0.962
300.12	0.116
300.48	0.117
300.85	0.924
301.22	0.813
301.59	0.587
301.95	0.232
302.32	-0.350
302.69	0.113
303.05	0.332
303.42	-0.341
303.79	1.157
304.15	-0.438
304.52	1.398
304.89	-0.443
305.25	-0.329
305.62	0.868
305.99	0.435
306.35	1.567
306.72	2.136
307.09	1.251
307.45	-0.106
307.82	0.105
308.19	-0.418
308.55	-0.102
308.92	0.589
309.29	0.300
309.65	0.500
310.02	1.590
310.38	1.220
310.75	0.197
311.12	0.583
311.48	-0.495
311.85	1.378
312.22	1.354
312.58	0.483
312.95	1.095
313.31	1.377
313.68	0.573
314.05	1.418
314.41	0.384
314.78	0.949
315.14	1.389
315.51	1.618
315.87	0.649
316.24	2.296
316.61	2.192
316.97	0.556
317.34	1.426
317.70	1.606
318.07	1.863
318.43	0.903
318.80	0.524
319.16	0.884
319.53	1.523
319.89	0.632
320.26	1.571
320.62	1.390
320.99	1.163
321.35	0.842
321.72	0.385
322.08	1.937
322.45	1.110
322.81	1.201
323.18	1.431
323.54	0.812
323.91	1.897
324.27	0.810
324.64	0.697
325.00	1.487
325.37	0.597
325.73	0.589
326.10	0.757
326.46	1.338
326.83	0.890
327.19	1.301
327.56	2.015
327.92	2.333
328.29	2.588
328.65	1.227
329.01	1.847
329.38	2.261
329.74	1.459
330.11	1.262
330.47	1.042
330.84	1.354
331.20	1.452
331.56	0.634
331.93	1.809
332.29	2.346
332.66	1.525
333.02	2.606
333.38	2.105
333.75	1.706
334.11	2.083
334.48	1.656
334.84	1.060
335.20	2.230
335.57	1.915
335.93	1.804
336.29	0.788
336.66	1.197
337.02	1.565
337.38	1.654
337.75	1.895
338.11	1.879
338.47	0.514
338.84	2.234
339.20	1.764
339.56	1.536
339.93	1.901
340.29	1.623
340.65	1.198
341.02	1.997
341.38	1.605
341.74	0.504
342.11	1.982
342.47	2.092
342.83	1.797
343.20	1.861
343.56	2.535
343.92	1.868
344.28	1.867
344.65	1.714
345.01	0.888
345.37	1.974
345.73	1.797
346.10	2.729
346.46	0.976
346.82	1.525
347.19	1.187
347.55	1.696
347.91	0.468
348.27	1.104
348.63	1.522
349.00	1.258
349.36	0.863
349.72	1.547
350.08	2.106
350.45	0.861
350.81	1.174
351.17	2.848
351.53	1.650
351.89	1.112
352.26	0.772
352.62	2.326
352.98	0.719
353.34	0.644
353.70	1.713
354.07	0.863
354.43	1.089
354.79	1.122
355.15	1.475
355.51	1.822
355.87	1.407
356.24	1.284
356.60	0.860
356.96	1.458
357.32	1.471
357.68	1.910
358.04	1.552
358.40	1.705
358.77	1.300
359.13	1.868
359.49	1.893
359.85	1.820
360.21	1.157
360.57	1.749
360.93	0.986
361.29	1.406
361.66	2.050
362.02	0.667
362.38	0.886
362.74	0.580
363.10	1.302
363.46	1.153
363.82	0.813
364.18	1.015
364.54	1.459
364.90	1.045
365.26	1.203
365.62	1.065
365.98	1.779
366.35	1.135
366.71	0.856
367.07	1.559
367.43	1.672
367.79	1.320
368.15	1.477
368.51	1.406
368.87	1.117
369.23	1.566
369.59	0.916
369.95	0.363
370.31	1.046
370.67	1.086
371.03	0.965
371.39	0.852
371.75	1.714
372.11	1.068
372.47	1.442
372.83	1.526
373.19	1.942
373.55	1.879
373.91	1.768
374.27	0.830
374.63	1.138
374.99	1.045
375.35	1.301
375.71	0.883
376.07	2.056
376.42	1.471
376.78	2.180
377.14	2.169
377.50	2.021
377.86	1.129
378.22	1.643
378.58	1.892
378.94	2.000
379.30	1.811
379.66	1.726
380.02	1.593
380.38	1.084
380.74	2.271
381.09	1.146
381.45	1.028
381.81	1.356
382.17	1.134
382.53	1.292
382.89	1.387
383.25	1.481
383.61	1.755
383.97	0.875
384.32	0.441
384.68	1.481
385.04	0.794
385.40	1.370
385.76	1.460
386.12	1.808
386.48	0.940
386.83	1.502
387.19	0.370
387.55	1.533
387.91	1.169
388.27	1.356
388.62	0.811
388.98	0.814
389.34	0.815
389.70	1.099
390.06	1.812
390.42	1.869
390.77	0.897
391.13	1.452
391.49	1.518
391.85	1.022
392.20	0.564
392.56	1.270
392.92	1.404
393.28	1.685
393.64	0.856
393.99	1.285
394.35	1.481
394.71	1.218
395.07	0.943
395.42	2.316
395.78	0.193
396.14	1.522
396.50	1.078
396.85	1.785
397.21	1.124
397.57	1.615
397.92	0.719
398.28	1.466
398.64	1.093
399.00	1.897
399.35	1.249
399.71	1.107
400.07	1.265
400.42	0.251
400.78	1.088
401.14	0.490
401.49	1.138
401.85	0.983
402.21	1.053
402.57	1.410
402.92	1.815
403.28	1.063
403.63	1.488
403.99	0.640
404.35	0.686
404.70	0.181
405.06	0.646
405.42	0.126
405.77	0.691
406.13	1.200
406.49	0.419
406.84	0.916
407.20	0.770
407.55	0.000
407.91	0.397
408.27	0.936
408.62	1.535
408.98	0.370
409.34	0.928
409.69	2.469
410.05	0.995
410.40	1.217
410.76	1.023
411.11	1.244
411.47	1.858
411.83	0.998
412.18	0.882
412.54	0.752
412.89	0.690
413.25	0.708
413.60	0.188
413.96	0.936
414.31	1.603
414.67	1.016
415.03	1.015
415.38	0.132
415.74	1.429
416.09	1.124
416.45	1.162
416.80	1.074
417.16	2.024
417.51	1.206
417.87	1.389
418.22	0.711
418.58	0.329
418.93	1.130
419.29	0.858
419.64	0.954
420.00	1.333
420.35	0.777
420.71	1.158
421.06	1.230
421.42	1.338
421.77	0.809
422.12	1.032
422.48	0.436
422.83	0.413
423.19	0.633
423.54	1.413
423.90	0.594
424.25	1.098
424.61	0.863
424.96	0.651
425.31	0.449
425.67	1.058
426.02	1.708
426.38	1.057
426.73	0.977
427.09	0.063
427.44	1.644
427.79	0.891
428.15	1.713
428.50	0.483
428.85	1.107
429.21	1.125
429.56	0.956
429.92	1.562
430.27	1.125
430.62	0.787
430.98	1.481
431.33	1.128
431.68	1.438
432.04	0.676
432.39	0.635
432.74	1.226
433.10	1.336
433.45	1.598
433.80	0.690
434.16	1.693
434.51	1.087
434.86	0.942
435.22	1.075
435.57	1.106
435.92	1.025
436.28	0.961
436.63	1.212
436.98	1.821
437.34	1.343
437.69	0.767
438.04	0.905
438.39	0.809
438.75	1.073
439.10	1.446
439.45	1.090
439.81	1.293
440.16	1.971
440.51	0.892
440.86	1.067
441.22	1.434
441.57	1.356
441.92	1.296
442.27	1.245
442.63	0.646
442.98	0.810
443.33	0.903
443.68	0.949
444.03	1.441
444.39	1.388
444.74	0.497
445.09	0.661
445.44	1.859
445.79	0.723
446.15	0.998
446.50	1.101
446.85	1.336
447.20	1.830
447.55	1.567
447.91	1.180
448.26	1.544
448.61	1.323
448.96	1.253
449.31	1.028
449.66	1.851
450.02	1.535
450.37	0.353
450.72	0.746
451.07	1.317
451.42	0.624
451.77	1.339
452.12	1.010
452.47	1.679
452.83	0.884
453.18	0.827
453.53	1.261
453.88	1.145
454.23	1.607
454.58	0.797
454.93	1.219
455.28	1.734
455.63	1.123
455.98	0.243
456.34	0.890
456.69	1.725
457.04	1.424
457.39	0.481
457.74	0.000
458.09	1.836
458.44	0.764
458.79	1.593
459.14	0.955
459.49	0.671
459.84	0.958
460.19	0.720
460.54	1.703
460.89	1.520
461.24	0.801
461.59	1.087
461.94	1.264
462.29	1.042
462.64	0.858
462.99	1.476
463.34	1.381
463.69	0.709
464.04	0.960
464.39	0.732
464.74	1.229
465.09	0.992
465.44	1.684
465.79	1.840
466.14	0.912
466.49	0.704
466.84	1.076
467.19	0.828
467.54	1.555
467.89	0.503
468.24	0.799
468.59	0.701
468.94	2.299
469.29	1.124
469.64	1.185
469.99	1.724
470.34	1.349
470.68	0.595
471.03	1.128
471.38	1.530
471.73	1.303
472.08	1.443
472.43	1.781
472.78	1.758
473.13	0.462
473.48	0.718
473.83	1.130
474.17	1.042
474.52	0.712
474.87	0.724
475.22	1.329
475.57	1.673
475.92	1.363
476.27	1.399
476.61	0.623
476.96	0.914
477.31	1.241
477.66	1.808
478.01	1.209
478.36	0.981
478.70	0.913
479.05	1.332
479.40	1.300
479.75	0.744
480.10	1.275
480.45	1.864
480.79	1.344
481.14	1.368
481.49	1.579
481.84	0.895
482.19	1.343
482.53	1.476
482.88	1.534
483.23	1.059
483.58	1.560
483.92	1.265
484.27	1.006
484.62	0.799
484.97	1.244
485.31	1.213
485.66	1.684
486.01	1.654
486.36	1.218
486.70	1.384
487.05	1.860
487.40	1.261
487.75	1.809
488.09	1.470
488.44	1.297
488.79	1.514
489.13	1.511
489.48	1.325
489.83	1.117
490.17	0.953
490.52	1.777
490.87	1.669
491.22	1.743
491.56	1.390
491.91	1.584
492.26	0.484
492.60	1.395
492.95	1.944
493.30	1.793
493.64	0.767
493.99	1.836
494.34	1.445
494.68	1.098
495.03	1.038
495.37	1.655
495.72	1.303
496.07	1.364
496.41	1.076
496.76	1.645
497.11	1.268
497.45	1.313
497.80	1.868
498.14	1.461
498.49	1.513
498.84	1.518
499.18	1.244
499.53	1.132
499.87	0.873
500.22	1.344
500.56	1.053
500.91	1.308
501.26	1.773
501.60	1.471
501.95	1.629
502.29	1.699
502.64	1.543
502.98	1.879
503.33	1.119
503.67	1.412
504.02	0.980
504.36	1.189
504.71	1.220
505.06	1.477
505.40	1.392
505.75	1.221
506.09	1.686
506.44	1.764
506.78	1.676
507.13	1.351
507.47	1.273
507.82	1.518
508.16	2.164
508.51	1.395
508.85	1.192
509.19	1.217
509.54	1.823
509.88	1.559
510.23	1.947
510.57	2.119
510.92	1.616
511.26	1.540
511.61	1.317
511.95	1.268
512.30	1.333
512.64	2.100
512.98	1.274
513.33	1.296
513.67	1.647
514.02	1.368
514.36	1.910
514.70	1.848
515.05	1.346
515.39	1.533
515.74	1.599
516.08	1.298
516.42	1.210
516.77	0.879
517.11	1.646
517.46	1.921
517.80	2.179
518.14	1.164
518.49	1.326
518.83	2.088
519.17	1.265
519.52	1.448
519.86	1.396
520.20	1.698
520.55	1.182
520.89	1.834
521.23	2.051
521.58	1.707
521.92	1.320
522.26	1.301
522.61	1.939
522.95	1.684
523.29	1.270
523.64	1.716
523.98	2.478
524.32	1.890
524.66	1.234
525.01	1.769
525.35	1.251
525.69	1.193
526.04	1.107
526.38	2.294
526.72	1.907
527.06	2.063
527.41	1.522
527.75	1.202
528.09	1.702
528.43	1.967
528.78	1.227
529.12	2.975
529.46	1.599
529.80	2.654
530.15	1.673
530.49	1.685
530.83	1.557
531.17	1.849
531.51	1.888
531.86	1.423
532.20	1.172
532.54	0.345
532.88	0.817
533.22	1.279
533.57	1.126
533.91	1.290
534.25	2.083
534.59	1.094
534.93	1.212
535.27	1.656
535.62	1.447
535.96	2.407
536.30	2.194
536.64	0.684
536.98	0.981
537.32	1.851
537.66	1.340
538.01	1.040
538.35	1.588
538.69	1.405
539.03	1.141
539.37	1.811
539.71	2.115
540.05	0.405
540.39	1.032
540.73	1.327
541.07	1.497
541.42	1.751
541.76	1.759
542.10	2.167
542.44	0.485
542.78	1.874
543.12	1.887
543.46	1.866
543.80	1.018
544.14	1.445
544.48	1.062
544.82	1.547
545.16	1.487
545.50	2.296
545.84	0.631
546.18	1.192
546.52	2.399
546.86	0.565
547.20	1.144
547.54	0.715
547.88	2.159
548.22	2.410
548.56	0.534
548.90	1.691
549.24	2.431
549.58	0.925
549.92	1.834
550.26	2.214
550.60	1.126
550.94	0.821
551.28	1.060
551.62	2.406
551.96	2.123
552.30	0.801
552.64	1.059
552.98	1.634
553.32	1.081
553.66	1.981
554.00	1.440
554.34	1.245
554.68	1.939
555.02	1.347
555.36	0.908
555.69	1.529
556.03	1.215
556.37	1.494
556.71	1.682
557.05	1.845
557.39	1.206
557.73	1.740
558.07	1.658
558.41	2.422
558.75	1.694
559.08	0.481
559.42	1.495
559.76	1.606
560.10	0.769
560.44	1.695
560.78	0.935
561.12	1.542
561.45	1.293
561.79	1.857
562.13	1.899
562.47	1.500
562.81	1.227
563.15	1.487
563.48	1.308
563.82	1.368
564.16	1.490
564.50	1.900
564.84	1.149
565.17	1.987
565.51	1.738
565.85	0.333
566.19	1.722
566.52	1.507
566.86	0.379
567.20	2.260
567.54	1.670
567.88	1.736
568.21	1.738
568.55	2.243
568.89	0.997
569.23	1.833
569.56	1.335
569.90	1.649
570.24	1.336
570.57	2.354
570.91	1.997
571.25	1.720
571.59	1.894
571.92	1.760
572.26	1.841
572.60	1.694
572.93	1.406
573.27	2.004
573.61	1.987
573.95	1.983
574.28	1.985
574.62	1.728
574.96	1.919
575.29	1.479
575.63	1.475
575.97	1.766
576.30	1.735
576.64	1.703
576.98	1.665
577.31	2.029
577.65	1.745
577.98	1.717
578.32	1.594
578.66	1.768
578.99	1.972
579.33	1.999
579.67	1.808
580.00	1.739
580.34	1.672
580.67	2.033
581.01	1.702
581.35	1.920
581.68	1.817
582.02	1.820
582.35	1.948
582.69	1.797
583.02	2.109
583.36	1.743
583.70	2.079
584.03	1.995
584.37	1.831
584.70	1.864
585.04	2.058
585.37	1.580
585.71	2.098
586.04	1.955
586.38	1.815
586.72	1.770
587.05	2.059
587.39	2.226
587.72	1.968
588.06	1.696
588.39	1.959
588.73	2.046
589.06	1.649
589.40	2.098
589.73	1.437
590.07	1.677
590.40	2.007
590.73	1.742
591.07	2.089
591.40	1.913
591.74	2.134
592.07	1.689
592.41	1.888
592.74	2.045
593.08	1.949
593.41	2.119
593.75	2.035
594.08	1.658
594.41	1.718
594.75	1.949
595.08	1.830
595.42	1.646
595.75	1.952
596.09	1.578
596.42	1.920
596.75	1.975
597.09	1.911
597.42	2.153
597.75	1.822
598.09	2.004
598.42	1.969
598.76	1.847
599.09	1.921
599.42	2.417
599.76	2.140
600.09	1.770
600.42	1.770
600.76	1.737
601.09	2.222
601.42	1.803
601.76	2.317
602.09	2.392
602.42	2.229
602.76	1.468
603.09	1.930
603.42	1.559
603.76	1.715
604.09	2.095
604.42	1.298
604.76	2.008
605.09	1.858
605.42	2.699
605.75	1.499
606.09	1.863
606.42	2.286
606.75	1.818
607.09	1.330
607.42	2.058
607.75	1.532
608.08	1.623
608.42	1.359
608.75	1.481
609.08	2.058
609.41	1.987
609.75	1.311
610.08	1.824
610.41	1.603
610.74	1.781
611.07	2.405
611.41	2.098
611.74	2.277
612.07	1.824
612.40	1.784
612.73	1.811
613.07	0.942
613.40	2.313
613.73	2.221
614.06	1.658
614.39	1.334
614.72	2.887
615.06	1.667
615.39	2.097
615.72	1.836
616.05	1.858
616.38	1.546
616.71	1.440
617.05	1.413
617.38	2.341
617.71	0.613
618.04	1.402
618.37	1.262
618.70	1.876
619.03	1.306
619.36	1.210
619.69	1.462
620.03	1.625
620.36	1.531
620.69	1.285
621.02	1.308
621.35	0.981
621.68	1.467
622.01	1.699
622.34	1.110
622.67	1.958
623.00	1.672
623.33	1.197
623.66	-0.223
623.99	1.275
624.32	1.687
624.65	1.558
624.99	1.763
625.32	1.494
625.65	1.783
625.98	1.580
626.31	2.612
626.64	1.462
626.97	1.471
627.30	1.454
627.63	0.865
627.96	1.039
628.29	2.326
628.62	2.611
628.95	2.405
629.28	0.099
629.61	2.105
629.94	2.418
630.26	3.054
630.59	1.499
630.92	0.904
631.25	0.824
631.58	2.248
631.91	1.485
632.24	1.317
632.57	0.778
632.90	3.267
633.23	0.120
633.56	1.799
633.89	1.794
634.22	3.887
634.55	3.045
634.88	1.348
635.20	0.125
635.53	1.034
635.86	0.897
636.19	3.598
636.52	1.220
636.85	1.448
637.18	1.218
637.51	1.748
637.83	0.653
638.16	-0.267
638.49	0.134
638.82	1.699
639.15	1.995
639.48	2.674
639.81	1.111
640.13	2.254
640.46	2.119
640.79	1.295
641.12	1.479
641.45	0.873
641.77	1.915
642.10	2.118
642.43	1.415
642.76	0.158
643.09	1.278
643.41	1.276
643.74	1.777
644.07	0.000
644.40	1.327
644.73	1.864
645.05	-1.396
645.38	-0.498
645.71	1.871
646.04	1.178
646.36	1.910
646.69	0.175
647.02	-0.729
647.35	1.280
647.67	-0.185
648.00	0.906
648.33	1.356
648.66	0.334
648.98	2.484
649.31	1.227
649.64	0.782
649.96	3.318
650.29	0.490
650.62	1.647
650.94	1.379
651.27	-1.413
651.60	1.923
651.92	0.896
652.25	1.340
652.58	1.815
652.90	1.347
653.23	0.000
653.56	0.496
653.88	-0.683
654.21	-1.195
654.54	1.661
654.86	0.000
655.19	1.821
655.52	2.515
655.84	1.870
656.17	2.456
656.49	3.140
