SpectraSuite Data File
++++++++++++++++++++++++++++++++++++
Date: Wed May 13 21:27:12 PDT 2015
User: schluterlab
Dark Spectrum Present: Yes
Reference Spectrum Present: Yes
Number of Sampled Component Spectra: 1
Spectrometers: USB2E3373
Integration Time (usec): 3000 (USB2E3373)
Spectra Averaged: 3 (USB2E3373)
Boxcar Smoothing: 0 (USB2E3373)
Correct for Electrical Dark: No (USB2E3373)
Strobe/Lamp Enabled: No (USB2E3373)
Correct for Detector Non-linearity: No (USB2E3373)
Correct for Stray Light: No (USB2E3373)
Number of Pixels in Processed Spectrum: 2048
>>>>>Begin Processed Spectral Data<<<<<
178.53	0.000
178.91	850.000
179.29	258.333
179.67	-600.000
180.04	-433.333
180.42	140.000
180.80	2100.000
181.18	200.000
181.56	-550.000
181.94	-550.000
182.31	27.273
182.69	138.462
183.07	20.000
183.45	150.000
183.83	66.667
184.20	200.000
184.58	0.000
184.96	133.333
185.34	271.429
185.72	0.000
186.09	-1000.000
186.47	-200.000
186.85	300.000
187.23	-150.000
187.61	800.000
187.98	400.000
188.36	-162.500
188.74	0.000
189.12	-72.727
189.49	70.000
189.87	150.000
190.25	360.000
190.63	600.000
191.00	-280.000
191.38	340.000
191.76	475.000
192.14	91.667
192.51	5.263
192.89	433.333
193.27	275.000
193.65	-380.000
194.02	190.909
194.40	180.000
194.78	-1200.000
195.15	300.000
195.53	-200.000
195.91	-50.000
196.29	-200.000
196.66	0.000
197.04	-150.000
197.42	-100.000
197.79	-80.000
198.17	-112.500
198.55	-166.667
198.92	125.000
199.30	-166.667
199.68	-80.000
200.05	700.000
200.43	50.000
200.81	-1800.000
201.18	-240.000
201.56	-33.333
201.94	625.000
202.31	4.348
202.69	-171.429
203.07	-366.667
203.44	60.000
203.82	-466.667
204.19	-50.000
204.57	0.000
204.95	-100.000
205.32	0.000
205.70	-300.000
206.08	-275.000
206.45	-83.333
206.83	425.000
207.20	-200.000
207.58	-10.000
207.96	-1500.000
208.33	-157.143
208.71	-800.000
209.08	187.500
209.46	375.000
209.84	0.000
210.21	150.000
210.59	2000.000
210.96	560.000
211.34	1200.000
211.71	-750.000
212.09	-300.000
212.46	-160.000
212.84	-200.000
213.22	-325.000
213.59	-800.000
213.97	-350.000
214.34	-850.000
214.72	-46.154
215.09	225.000
215.47	177.778
215.84	450.000
216.22	-62.500
216.59	-450.000
216.97	833.333
217.34	122.222
217.72	0.000
218.09	333.333
218.47	-700.000
218.84	-142.857
219.22	-75.000
219.59	-200.000
219.97	-400.000
220.34	-150.000
220.72	-100.000
221.09	0.000
221.47	-50.000
221.84	-1200.000
222.22	0.000
222.59	400.000
222.97	-500.000
223.34	-133.333
223.72	-1400.000
224.09	-550.000
224.46	-81.818
224.84	-125.000
225.21	-128.571
225.59	-400.000
225.96	-200.000
226.34	-20.000
226.71	-185.714
227.08	500.000
227.46	-25.000
227.83	-500.000
228.21	-25.000
228.58	-425.000
228.95	-23.529
229.33	62.500
229.70	-175.000
230.08	-23.077
230.45	-137.500
230.82	-58.333
231.20	214.286
231.57	-500.000
231.95	1200.000
232.32	-33.333
232.69	-17.647
233.07	-1500.000
233.44	-30.435
233.81	-500.000
234.19	-4.167
234.56	-80.000
234.93	-26.667
235.31	-21.053
235.68	-100.000
236.05	-100.000
236.43	-72.222
236.80	-36.364
237.17	-106.667
237.55	-23.529
237.92	-55.172
238.29	-29.630
238.67	-22.222
239.04	-45.161
239.41	-23.404
239.79	-12.766
240.16	-11.628
240.53	5.357
240.91	1.786
241.28	-7.143
241.65	9.677
242.02	-6.579
242.40	-7.246
242.77	-7.246
243.14	-15.385
243.51	-1.064
243.89	5.769
244.26	12.264
244.63	-7.692
245.00	6.250
245.38	-5.882
245.75	-3.279
246.12	9.023
246.49	-7.317
246.87	-2.521
247.24	6.081
247.61	1.987
247.98	4.487
248.36	-0.592
248.73	-1.124
249.10	-2.020
249.47	3.763
249.84	4.211
250.22	3.483
250.59	6.075
250.96	6.818
251.33	-1.914
251.70	10.042
252.08	6.695
252.45	8.642
252.82	4.183
253.19	5.058
253.56	6.475
253.94	8.185
254.31	5.282
254.68	10.403
255.05	5.281
255.42	4.545
255.79	3.067
256.16	8.202
256.54	3.810
256.91	4.430
257.28	4.717
257.65	2.229
258.02	4.106
258.39	4.386
258.76	6.977
259.14	6.818
259.51	8.146
259.88	7.317
260.25	6.389
260.62	4.775
260.99	9.284
261.36	8.290
261.73	5.926
262.10	2.799
262.47	7.160
262.85	4.478
263.22	6.667
263.59	5.455
263.96	9.246
264.33	6.731
264.70	7.209
265.07	6.481
265.44	6.667
265.81	8.009
266.18	3.645
266.55	5.895
266.92	5.508
267.29	5.350
267.66	7.431
268.03	7.819
268.40	3.814
268.77	6.198
269.14	9.388
269.51	10.062
269.88	3.666
270.25	8.263
270.62	5.943
270.99	9.055
271.36	6.548
271.73	8.032
272.10	7.429
272.47	6.334
272.84	8.661
273.21	8.023
273.58	6.148
273.95	7.170
274.32	8.582
274.69	8.015
275.06	8.127
275.43	7.721
275.80	5.851
276.17	8.287
276.54	7.638
276.91	8.711
277.28	5.957
277.65	7.692
278.02	7.679
278.39	6.750
278.76	7.860
279.13	8.062
279.50	6.034
279.87	7.246
280.23	7.568
280.60	7.093
280.97	5.519
281.34	7.729
281.71	7.317
282.08	6.838
282.45	6.230
282.82	8.466
283.19	8.079
283.56	7.344
283.92	6.422
284.29	8.580
284.66	5.601
285.03	5.863
285.40	5.589
285.77	8.108
286.14	8.663
286.51	8.096
286.87	6.923
287.24	6.047
287.61	7.229
287.98	7.647
288.35	6.408
288.72	7.891
289.08	7.835
289.45	7.048
289.82	7.716
290.19	6.732
290.56	6.250
290.93	6.354
291.29	6.566
291.66	6.284
292.03	8.447
292.40	7.268
292.77	7.898
293.13	6.555
293.50	5.229
293.87	7.600
294.24	6.349
294.60	6.892
294.97	5.820
295.34	5.541
295.71	5.782
296.08	5.890
296.44	4.974
296.81	4.507
297.18	8.125
297.55	6.604
297.91	6.460
298.28	5.811
298.65	6.897
299.02	6.471
299.38	4.294
299.75	6.370
300.12	4.186
300.48	6.199
300.85	5.543
301.22	5.226
301.59	6.221
301.95	3.484
302.32	6.184
302.69	4.294
303.05	5.537
303.42	4.773
303.79	6.099
304.15	5.038
304.52	5.591
304.89	3.765
305.25	3.842
305.62	5.531
305.99	5.550
306.35	6.688
306.72	6.511
307.09	5.944
307.45	5.325
307.82	4.632
308.19	4.807
308.55	4.708
308.92	5.894
309.29	5.405
309.65	5.395
310.02	5.567
310.38	5.793
310.75	5.030
311.12	5.539
311.48	5.638
311.85	4.921
312.22	5.126
312.58	5.217
312.95	4.279
313.31	6.703
313.68	5.821
314.05	5.955
314.41	6.532
314.78	4.554
315.14	5.185
315.51	5.233
315.87	6.487
316.24	6.520
316.61	5.205
316.97	6.852
317.34	4.545
317.70	7.047
318.07	6.389
318.43	5.962
318.80	4.974
319.16	6.189
319.53	5.914
319.89	5.239
320.26	5.915
320.62	5.283
320.99	6.008
321.35	5.613
321.72	5.390
322.08	5.996
322.45	6.198
322.81	5.638
323.18	6.530
323.54	4.332
323.91	5.872
324.27	5.941
324.64	6.010
325.00	4.549
325.37	6.143
325.73	6.061
326.10	5.719
326.46	6.355
326.83	6.634
327.19	5.854
327.56	6.527
327.92	7.643
328.29	6.845
328.65	6.223
329.01	5.805
329.38	7.391
329.74	6.953
330.11	5.861
330.47	6.076
330.84	5.596
331.20	6.149
331.56	6.612
331.93	5.254
332.29	7.211
332.66	6.017
333.02	7.385
333.38	5.965
333.75	6.997
334.11	6.684
334.48	6.016
334.84	5.477
335.20	6.175
335.57	5.570
335.93	5.670
336.29	5.954
336.66	6.239
337.02	6.000
337.38	6.179
337.75	6.115
338.11	5.722
338.47	5.993
338.84	6.357
339.20	6.349
339.56	5.631
339.93	5.964
340.29	6.490
340.65	6.245
341.02	5.657
341.38	5.912
341.74	4.874
342.11	6.358
342.47	5.523
342.83	5.147
343.20	6.261
343.56	6.623
343.92	6.499
344.28	6.331
344.65	7.020
345.01	6.457
345.37	6.332
345.73	6.291
346.10	6.340
346.46	6.667
346.82	6.019
347.19	6.013
347.55	6.543
347.91	5.066
348.27	5.442
348.63	5.929
349.00	5.660
349.36	6.358
349.72	6.883
350.08	6.006
350.45	6.030
350.81	6.182
351.17	6.236
351.53	5.027
351.89	5.322
352.26	5.714
352.62	4.961
352.98	5.831
353.34	5.072
353.70	6.308
354.07	5.333
354.43	5.288
354.79	5.609
355.15	5.280
355.51	5.315
355.87	5.786
356.24	5.136
356.60	4.613
356.96	5.833
357.32	6.424
357.68	6.417
358.04	5.741
358.40	5.349
358.77	6.346
359.13	5.525
359.49	5.223
359.85	5.459
360.21	5.705
360.57	6.692
360.93	6.525
361.29	5.922
361.66	5.847
362.02	5.634
362.38	5.465
362.74	5.076
363.10	6.074
363.46	5.908
363.82	5.395
364.18	6.309
364.54	5.908
364.90	5.505
365.26	5.732
365.62	5.682
365.98	5.623
366.35	6.312
366.71	5.635
367.07	5.103
367.43	6.063
367.79	6.115
368.15	6.329
368.51	5.977
368.87	6.281
369.23	5.338
369.59	5.285
369.95	5.370
370.31	6.346
370.67	5.793
371.03	5.716
371.39	5.394
371.75	5.357
372.11	5.840
372.47	4.831
372.83	7.004
373.19	4.604
373.55	5.058
373.91	5.658
374.27	4.288
374.63	6.046
374.99	6.058
375.35	6.301
375.71	5.367
376.07	5.963
376.42	5.080
376.78	6.539
377.14	5.356
377.50	6.975
377.86	5.710
378.22	6.005
378.58	5.422
378.94	6.812
379.30	5.122
379.66	5.734
380.02	6.679
380.38	5.422
380.74	6.396
381.09	6.273
381.45	5.441
381.81	5.669
382.17	5.104
382.53	6.154
382.89	5.911
383.25	5.802
383.61	5.206
383.97	5.562
384.32	4.915
384.68	5.922
385.04	5.620
385.40	6.040
385.76	6.873
386.12	6.133
386.48	6.082
386.83	5.945
387.19	5.614
387.55	6.131
387.91	6.027
388.27	6.289
388.62	5.618
388.98	5.382
389.34	5.514
389.70	5.800
390.06	6.062
390.42	5.799
390.77	6.342
391.13	6.376
391.49	4.681
391.85	4.920
392.20	5.702
392.56	5.397
392.92	5.793
393.28	6.043
393.64	5.443
393.99	5.080
394.35	6.235
394.71	5.641
395.07	4.969
395.42	6.155
395.78	5.019
396.14	6.531
396.50	6.024
396.85	5.354
397.21	5.181
397.57	5.714
397.92	5.569
398.28	5.302
398.64	6.132
399.00	5.915
399.35	5.278
399.71	5.242
400.07	5.361
400.42	5.016
400.78	4.834
401.14	5.457
401.49	5.512
401.85	5.344
402.21	5.944
402.57	5.763
402.92	6.258
403.28	6.504
403.63	5.580
403.99	5.182
404.35	5.736
404.70	5.619
405.06	5.755
405.42	5.716
405.77	5.012
406.13	5.257
406.49	5.752
406.84	6.166
407.20	5.921
407.55	6.364
407.91	5.559
408.27	4.928
408.62	6.139
408.98	5.672
409.34	4.579
409.69	6.303
410.05	6.281
410.40	5.782
410.76	5.836
411.11	5.410
411.47	6.171
411.83	5.989
412.18	6.234
412.54	6.391
412.89	5.768
413.25	5.664
413.60	5.831
413.96	5.805
414.31	6.350
414.67	5.651
415.03	5.683
415.38	5.416
415.74	5.718
416.09	5.552
416.45	5.810
416.80	5.503
417.16	6.410
417.51	6.430
417.87	5.225
418.22	5.753
418.58	5.191
418.93	5.838
419.29	6.271
419.64	5.789
420.00	6.222
420.35	5.559
420.71	5.911
421.06	5.966
421.42	6.569
421.77	6.532
422.12	5.845
422.48	6.052
422.83	5.907
423.19	5.405
423.54	6.949
423.90	5.463
424.25	6.124
424.61	5.853
424.96	6.564
425.31	5.889
425.67	5.761
426.02	6.714
426.38	6.841
426.73	5.315
427.09	5.816
427.44	6.400
427.79	5.404
428.15	5.872
428.50	5.438
428.85	7.011
429.21	5.627
429.56	6.536
429.92	6.559
430.27	6.084
430.62	6.506
430.98	6.081
431.33	5.911
431.68	6.017
432.04	5.634
432.39	6.062
432.74	5.702
433.10	6.856
433.45	6.154
433.80	6.092
434.16	6.171
434.51	5.435
434.86	5.771
435.22	5.659
435.57	6.327
435.92	5.489
436.28	6.426
436.63	6.871
436.98	6.463
437.34	6.166
437.69	5.313
438.04	6.282
438.39	6.476
438.75	5.721
439.10	6.767
439.45	6.295
439.81	5.973
440.16	6.551
440.51	7.253
440.86	6.758
441.22	6.024
441.57	6.941
441.92	6.169
442.27	6.006
442.63	6.297
442.98	5.150
443.33	6.377
443.68	6.484
444.03	7.004
444.39	6.544
444.74	6.737
445.09	6.167
445.44	6.704
445.79	6.763
446.15	6.656
446.50	6.883
446.85	6.521
447.20	6.064
447.55	6.715
447.91	6.292
448.26	5.374
448.61	6.272
448.96	6.948
449.31	6.625
449.66	6.478
450.02	6.481
450.37	6.639
450.72	6.602
451.07	6.395
451.42	7.112
451.77	6.999
452.12	6.774
452.47	6.843
452.83	6.191
453.18	6.302
453.53	6.431
453.88	6.446
454.23	7.108
454.58	7.230
454.93	6.479
455.28	6.037
455.63	6.363
455.98	5.904
456.34	5.722
456.69	6.901
457.04	7.121
457.39	6.615
457.74	6.224
458.09	6.931
458.44	6.580
458.79	6.700
459.14	7.022
459.49	6.463
459.84	6.032
460.19	6.603
460.54	6.995
460.89	7.264
461.24	6.473
461.59	6.341
461.94	6.258
462.29	6.250
462.64	7.124
462.99	6.975
463.34	7.320
463.69	6.379
464.04	6.242
464.39	7.322
464.74	6.695
465.09	6.572
465.44	7.520
465.79	7.073
466.14	6.328
466.49	6.510
466.84	6.216
467.19	5.860
467.54	6.675
467.89	6.348
468.24	6.515
468.59	6.246
468.94	6.322
469.29	6.477
469.64	6.555
469.99	7.172
470.34	6.608
470.68	6.097
471.03	7.334
471.38	7.650
471.73	7.064
472.08	6.529
472.43	7.124
472.78	6.897
473.13	5.937
473.48	6.654
473.83	7.031
474.17	5.794
474.52	6.926
474.87	5.308
475.22	6.582
475.57	7.195
475.92	6.652
476.27	6.352
476.61	6.682
476.96	6.853
477.31	6.688
477.66	6.554
478.01	6.484
478.36	6.431
478.70	6.498
479.05	7.159
479.40	6.656
479.75	7.279
480.10	7.292
480.45	7.406
480.79	6.770
481.14	6.839
481.49	6.857
481.84	5.891
482.19	6.716
482.53	6.429
482.88	6.759
483.23	6.304
483.58	6.711
483.92	5.982
484.27	6.404
484.62	6.525
484.97	6.885
485.31	6.636
485.66	6.660
486.01	6.579
486.36	6.680
486.70	6.604
487.05	6.959
487.40	7.252
487.75	7.063
488.09	7.007
488.44	7.291
488.79	6.927
489.13	6.680
489.48	6.841
489.83	6.699
490.17	6.809
490.52	7.059
490.87	6.861
491.22	7.537
491.56	7.044
491.91	6.817
492.26	6.721
492.60	6.253
492.95	7.434
493.30	6.541
493.64	5.947
493.99	7.150
494.34	7.129
494.68	6.492
495.03	6.571
495.37	7.056
495.72	7.018
496.07	6.673
496.41	5.990
496.76	6.673
497.11	7.089
497.45	6.809
497.80	7.219
498.14	6.801
498.49	6.505
498.84	7.439
499.18	6.720
499.53	6.893
499.87	6.114
500.22	6.869
500.56	7.222
500.91	7.143
501.26	7.143
501.60	6.422
501.95	6.900
502.29	7.087
502.64	6.991
502.98	6.696
503.33	6.423
503.67	7.059
504.02	7.010
504.36	7.033
504.71	6.504
505.06	7.234
505.40	7.010
505.75	7.935
506.09	7.307
506.44	6.754
506.78	7.364
507.13	7.277
507.47	6.946
507.82	7.117
508.16	7.230
508.51	7.128
508.85	6.739
509.19	6.825
509.54	7.560
509.88	7.419
510.23	7.158
510.57	7.309
510.92	7.166
511.26	6.766
511.61	6.147
511.95	6.946
512.30	6.496
512.64	7.719
512.98	7.867
513.33	6.986
513.67	6.701
514.02	7.127
514.36	7.472
514.70	7.102
515.05	7.080
515.39	6.604
515.74	7.282
516.08	6.844
516.42	6.912
516.77	7.147
517.11	7.172
517.46	7.563
517.80	7.203
518.14	6.981
518.49	6.992
518.83	7.578
519.17	7.410
519.52	6.514
519.86	6.861
520.20	6.792
520.55	7.090
520.89	7.211
521.23	7.115
521.58	8.028
521.92	7.480
522.26	7.157
522.61	8.016
522.95	7.254
523.29	8.254
523.64	7.629
523.98	7.243
524.32	7.750
524.66	6.623
525.01	7.667
525.35	7.110
525.69	7.356
526.04	7.036
526.38	8.158
526.72	7.166
527.06	7.930
527.41	6.883
527.75	7.143
528.09	7.897
528.43	7.531
528.78	7.817
529.12	7.115
529.46	7.678
529.80	7.508
530.15	7.593
530.49	7.480
530.83	7.448
531.17	7.329
531.51	7.283
531.86	6.911
532.20	7.030
532.54	6.483
532.88	7.965
533.22	8.148
533.57	8.146
533.91	7.677
534.25	7.878
534.59	6.564
534.93	7.526
535.27	7.771
535.62	7.039
535.96	8.003
536.30	7.247
536.64	7.656
536.98	7.218
537.32	7.189
537.66	7.405
538.01	7.212
538.35	7.251
538.69	6.957
539.03	7.383
539.37	6.774
539.71	7.572
540.05	6.140
540.39	7.295
540.73	7.402
541.07	7.891
541.42	7.811
541.76	7.916
542.10	6.703
542.44	6.514
542.78	7.356
543.12	7.278
543.46	7.740
543.80	6.925
544.14	7.777
544.48	6.304
544.82	7.666
545.16	6.423
545.50	7.765
545.84	7.574
546.18	7.083
546.52	7.975
546.86	6.926
547.20	8.077
547.54	6.934
547.88	7.287
548.22	8.208
548.56	6.871
548.90	7.037
549.24	7.917
549.58	6.690
549.92	7.190
550.26	8.708
550.60	6.982
550.94	7.090
551.28	7.494
551.62	7.444
551.96	7.760
552.30	5.895
552.64	6.285
552.98	8.097
553.32	7.787
553.66	7.557
554.00	7.271
554.34	7.253
554.68	7.457
555.02	7.560
555.36	7.035
555.69	6.701
556.03	7.648
556.37	6.188
556.71	7.288
557.05	6.347
557.39	7.234
557.73	7.867
558.07	7.536
558.41	6.889
558.75	8.237
559.08	5.854
559.42	6.688
559.76	7.875
560.10	7.840
560.44	8.401
560.78	6.115
561.12	7.779
561.45	6.667
561.79	7.221
562.13	7.736
562.47	8.071
562.81	7.576
563.15	6.941
563.48	7.708
563.82	6.908
564.16	7.921
564.50	8.005
564.84	7.432
565.17	8.013
565.51	7.219
565.85	6.596
566.19	7.483
566.52	6.356
566.86	6.764
567.20	7.208
567.54	6.908
567.88	6.719
568.21	6.898
568.55	7.251
568.89	6.481
569.23	7.379
569.56	6.925
569.90	7.247
570.24	7.040
570.57	7.574
570.91	6.558
571.25	6.911
571.59	7.126
571.92	6.747
572.26	6.861
572.60	7.114
572.93	6.935
573.27	6.742
573.61	6.997
573.95	6.980
574.28	6.909
574.62	6.887
574.96	7.013
575.29	6.971
575.63	6.770
575.97	7.065
576.30	6.993
576.64	6.628
576.98	7.089
577.31	7.148
577.65	6.605
577.98	7.076
578.32	6.763
578.66	7.114
578.99	7.535
579.33	7.021
579.67	7.052
580.00	6.733
580.34	7.247
580.67	7.031
581.01	7.066
581.35	6.992
581.68	7.041
582.02	6.577
582.35	6.964
582.69	6.976
583.02	6.939
583.36	7.020
583.70	7.390
584.03	7.495
584.37	7.104
584.70	6.977
585.04	7.152
585.37	7.096
585.71	7.405
586.04	6.692
586.38	6.498
586.72	6.996
587.05	7.501
587.39	7.277
587.72	6.888
588.06	7.114
588.39	7.277
588.73	7.040
589.06	6.951
589.40	6.880
589.73	6.863
590.07	7.328
590.40	7.421
590.73	7.212
591.07	7.480
591.40	6.870
591.74	7.070
592.07	6.435
592.41	7.336
592.74	6.867
593.08	6.564
593.41	7.290
593.75	6.880
594.08	6.908
594.41	7.166
594.75	7.084
595.08	6.647
595.42	6.729
595.75	7.303
596.09	6.851
596.42	6.740
596.75	6.362
597.09	7.234
597.42	7.492
597.75	6.978
598.09	7.058
598.42	7.114
598.76	6.591
599.09	7.043
599.42	7.213
599.76	7.510
600.09	7.078
600.42	7.420
600.76	7.243
601.09	6.667
601.42	7.095
601.76	7.220
602.09	7.296
602.42	7.553
602.76	6.628
603.09	7.269
603.42	6.997
603.76	7.405
604.09	7.233
604.42	6.823
604.76	6.984
605.09	7.204
605.42	7.287
605.75	6.852
606.09	6.291
606.42	7.648
606.75	6.840
607.09	6.383
607.42	7.443
607.75	6.171
608.08	7.214
608.42	7.170
608.75	7.358
609.08	6.712
609.41	7.700
609.75	6.707
610.08	6.953
610.41	6.851
610.74	7.892
611.07	7.415
611.41	7.472
611.74	7.609
612.07	7.191
612.40	7.297
612.73	6.970
613.07	7.317
613.40	7.874
613.73	6.934
614.06	7.186
614.39	6.448
614.72	7.829
615.06	6.500
615.39	6.623
615.72	6.911
616.05	6.982
616.38	6.415
616.71	6.959
617.05	6.695
617.38	7.270
617.71	6.679
618.04	6.399
618.37	6.372
618.70	7.309
619.03	5.911
619.36	6.833
619.69	7.164
620.03	6.290
620.36	7.098
620.69	6.067
621.02	6.923
621.35	6.705
621.68	5.786
622.01	6.634
622.34	6.582
622.67	7.909
623.00	8.359
623.33	7.330
623.66	6.097
623.99	7.577
624.32	7.557
624.65	6.454
624.99	6.907
625.32	8.140
625.65	6.977
625.98	7.188
626.31	6.531
626.64	6.879
626.97	6.055
627.30	7.271
627.63	6.747
627.96	6.753
628.29	7.349
628.62	7.350
628.95	7.114
629.28	5.911
629.61	8.038
629.94	8.027
630.26	7.685
630.59	8.192
630.92	6.325
631.25	5.973
631.58	8.994
631.91	7.211
632.24	6.915
632.57	7.000
632.90	7.118
633.23	7.434
633.56	7.794
633.89	8.254
634.22	9.069
634.55	7.795
634.88	7.598
635.20	8.875
635.53	6.460
635.86	6.282
636.19	7.072
636.52	6.707
636.85	6.755
637.18	6.699
637.51	6.617
637.83	6.919
638.16	6.400
638.49	5.874
638.82	6.536
639.15	6.516
639.48	7.487
639.81	6.111
640.13	7.887
640.46	7.486
640.79	7.770
641.12	6.953
641.45	6.550
641.77	7.364
642.10	7.110
642.43	7.704
642.76	4.890
643.09	7.029
643.41	6.699
643.74	7.431
644.07	6.634
644.40	8.126
644.73	7.627
645.05	7.155
645.38	5.814
645.71	8.673
646.04	4.377
646.36	6.944
646.69	6.818
647.02	9.107
647.35	6.764
647.67	6.839
648.00	4.891
648.33	7.627
648.66	6.678
648.98	8.385
649.31	7.055
649.64	5.634
649.96	6.635
650.29	5.719
650.62	8.072
650.94	7.586
651.27	6.537
651.60	8.392
651.92	6.989
652.25	10.385
652.58	5.611
652.90	5.892
653.23	6.452
653.56	6.116
653.88	5.631
654.21	5.290
654.54	7.309
654.86	6.179
655.19	6.863
655.52	7.737
655.84	6.103
656.17	7.803
656.49	10.610
656.82	10.528
657.15	8.337
657.47	6.264
