SpectraSuite Data File
++++++++++++++++++++++++++++++++++++
Date: Wed May 13 21:27:21 PDT 2015
User: schluterlab
Dark Spectrum Present: Yes
Reference Spectrum Present: Yes
Number of Sampled Component Spectra: 1
Spectrometers: USB2E3373
Integration Time (usec): 3000 (USB2E3373)
Spectra Averaged: 3 (USB2E3373)
Boxcar Smoothing: 0 (USB2E3373)
Correct for Electrical Dark: No (USB2E3373)
Strobe/Lamp Enabled: No (USB2E3373)
Correct for Detector Non-linearity: No (USB2E3373)
Correct for Stray Light: No (USB2E3373)
Number of Pixels in Processed Spectrum: 2048
>>>>>Begin Processed Spectral Data<<<<<
178.53	0.000
178.91	500.000
179.29	175.000
179.67	-350.000
180.04	-533.333
180.42	200.000
180.80	1800.000
181.18	300.000
181.56	-500.000
181.94	-350.000
182.31	-18.182
182.69	84.615
183.07	-120.000
183.45	333.333
183.83	244.444
184.20	200.000
184.58	-300.000
184.96	333.333
185.34	271.429
185.72	0.000
186.09	-1500.000
186.47	-220.000
186.85	20.000
187.23	150.000
187.61	450.000
187.98	500.000
188.36	-50.000
188.74	0.000
189.12	-18.182
189.49	20.000
189.87	91.667
190.25	360.000
190.63	1200.000
191.00	-40.000
191.38	220.000
191.76	250.000
192.14	116.667
192.51	-26.316
192.89	566.667
193.27	300.000
193.65	-240.000
194.02	245.455
194.40	200.000
194.78	-100.000
195.15	260.000
195.53	-220.000
195.91	-137.500
196.29	0.000
196.66	0.000
197.04	800.000
197.42	-100.000
197.79	-40.000
198.17	-162.500
198.55	-400.000
198.92	200.000
199.30	-400.000
199.68	-40.000
200.05	400.000
200.43	66.667
200.81	-700.000
201.18	-160.000
201.56	-183.333
201.94	525.000
202.31	-26.087
202.69	-128.571
203.07	-366.667
203.44	-220.000
203.82	-333.333
204.19	-80.000
204.57	0.000
204.95	-150.000
205.32	0.000
205.70	-250.000
206.08	-425.000
206.45	0.000
206.83	500.000
207.20	-300.000
207.58	-40.000
207.96	-800.000
208.33	-228.571
208.71	-1500.000
209.08	137.500
209.46	375.000
209.84	0.000
210.21	170.000
210.59	1600.000
210.96	260.000
211.34	1100.000
211.71	-750.000
212.09	-216.667
212.46	-200.000
212.84	-200.000
213.22	25.000
213.59	-800.000
213.97	-550.000
214.34	-350.000
214.72	-15.385
215.09	225.000
215.47	255.556
215.84	700.000
216.22	-112.500
216.59	-250.000
216.97	333.333
217.34	200.000
217.72	0.000
218.09	166.667
218.47	-900.000
218.84	14.286
219.22	-62.500
219.59	0.000
219.97	-225.000
220.34	-162.500
220.72	-380.000
221.09	0.000
221.47	-116.667
221.84	-300.000
222.22	0.000
222.59	1200.000
222.97	-233.333
223.34	-50.000
223.72	-900.000
224.09	-450.000
224.46	-9.091
224.84	-37.500
225.21	-171.429
225.59	-200.000
225.96	-183.333
226.34	-70.000
226.71	28.571
227.08	900.000
227.46	-112.500
227.83	-900.000
228.21	-18.750
228.58	25.000
228.95	-41.176
229.33	-50.000
229.70	-87.500
230.08	-7.692
230.45	-112.500
230.82	-16.667
231.20	185.714
231.57	-325.000
231.95	200.000
232.32	50.000
232.69	11.765
233.07	-1300.000
233.44	-17.391
233.81	-200.000
234.19	4.167
234.56	-33.333
234.93	-73.333
235.31	-52.632
235.68	-84.615
236.05	-30.769
236.43	-33.333
236.80	9.091
237.17	-46.667
237.55	-64.706
237.92	-31.034
238.29	-25.926
238.67	-8.333
239.04	9.677
239.41	-14.894
239.79	-12.766
240.16	-4.651
240.53	5.357
240.91	17.857
241.28	3.571
241.65	1.613
242.02	9.211
242.40	24.638
242.77	7.246
243.14	6.410
243.51	12.766
243.89	12.500
244.26	18.868
244.63	10.577
245.00	-5.208
245.38	17.647
245.75	9.016
246.12	9.774
246.49	17.886
246.87	7.563
247.24	15.541
247.61	12.583
247.98	15.385
248.36	8.876
248.73	7.303
249.10	14.141
249.47	10.753
249.84	16.842
250.22	16.418
250.59	17.290
250.96	18.636
251.33	8.134
251.70	15.481
252.08	17.992
252.45	12.757
252.82	14.829
253.19	12.840
253.56	15.468
253.94	19.573
254.31	17.606
254.68	21.812
255.05	19.472
255.42	15.035
255.79	16.871
256.16	17.981
256.54	17.143
256.91	16.456
257.28	18.239
257.65	13.694
258.02	17.595
258.39	19.298
258.76	13.953
259.14	16.477
259.51	18.820
259.88	16.802
260.25	18.889
260.62	17.978
260.99	17.772
261.36	18.394
261.73	15.556
262.10	17.048
262.47	18.272
262.85	16.915
263.22	16.667
263.59	17.922
263.96	16.302
264.33	17.308
264.70	19.070
265.07	17.361
265.44	19.770
265.81	16.934
266.18	17.768
266.55	16.594
266.92	17.373
267.29	15.226
267.66	18.259
268.03	20.576
268.40	17.585
268.77	18.388
269.14	21.020
269.51	23.819
269.88	16.090
270.25	19.280
270.62	17.623
270.99	18.701
271.36	18.651
271.73	17.470
272.10	18.667
272.47	19.962
272.84	18.307
273.21	18.591
273.58	18.443
273.95	16.038
274.32	18.843
274.69	17.486
275.06	19.965
275.43	17.514
275.80	17.199
276.17	18.785
276.54	17.407
276.91	18.641
277.28	16.426
277.65	18.706
278.02	18.393
278.39	15.808
278.76	19.231
279.13	19.211
279.50	18.103
279.87	15.761
280.23	17.477
280.60	16.955
280.97	18.019
281.34	19.085
281.71	15.610
282.08	17.265
282.45	18.689
282.82	18.051
283.19	19.512
283.56	18.594
283.92	17.584
284.29	17.785
284.66	16.969
285.03	16.775
285.40	16.012
285.77	16.817
286.14	17.021
286.51	18.741
286.87	15.077
287.24	17.404
287.61	17.620
287.98	17.206
288.35	15.052
288.72	16.930
289.08	18.091
289.45	16.300
289.82	16.793
290.19	16.830
290.56	15.767
290.93	15.055
291.29	15.595
291.66	17.486
292.03	16.757
292.40	16.285
292.77	17.135
293.13	15.202
293.50	15.294
293.87	14.800
294.24	13.889
294.60	15.085
294.97	15.344
295.34	14.380
295.71	14.717
296.08	14.136
296.44	13.520
296.81	14.738
297.18	14.625
297.55	15.094
297.91	15.901
298.28	14.649
298.65	13.424
299.02	15.995
299.38	15.583
299.75	14.423
300.12	11.628
300.48	14.152
300.85	15.127
301.22	14.866
301.59	14.319
301.95	12.544
302.32	14.002
302.69	12.316
303.05	14.175
303.42	12.386
303.79	14.406
304.15	14.567
304.52	13.978
304.89	13.178
305.25	13.611
305.62	13.557
305.99	14.363
306.35	15.152
306.72	14.649
307.09	13.660
307.45	14.058
307.82	13.579
308.19	11.599
308.55	13.101
308.92	14.538
309.29	13.714
309.65	13.287
310.02	13.121
310.38	12.907
310.75	12.525
311.12	14.091
311.48	13.254
311.85	13.681
312.22	14.313
312.58	13.430
312.95	12.537
313.31	13.866
313.68	12.786
314.05	13.327
314.41	14.793
314.78	15.180
315.14	13.426
315.51	14.748
315.87	15.199
316.24	13.958
316.61	14.795
316.97	12.963
317.34	14.706
317.70	15.789
318.07	15.528
318.43	14.453
318.80	15.358
319.16	14.677
319.53	14.606
319.89	14.363
320.26	16.359
320.62	15.385
320.99	16.085
321.35	16.277
321.72	17.228
322.08	17.251
322.45	17.484
322.81	17.190
323.18	17.800
323.54	17.419
323.91	18.970
324.27	17.732
324.64	19.599
325.00	19.073
325.37	19.454
325.73	19.949
326.10	19.849
326.46	20.903
326.83	20.227
327.19	20.894
327.56	21.918
327.92	20.434
328.29	22.371
328.65	22.086
329.01	20.493
329.38	23.739
329.74	23.948
330.11	22.723
330.47	21.875
330.84	23.917
331.20	21.947
331.56	24.004
331.93	24.462
332.29	25.022
332.66	22.458
333.02	25.195
333.38	24.298
333.75	24.147
334.11	24.913
334.48	25.109
334.84	24.293
335.20	24.357
335.57	25.587
335.93	24.485
336.29	24.781
336.66	26.581
337.02	24.174
337.38	24.891
337.75	25.065
338.11	25.448
338.47	24.144
338.84	26.203
339.20	26.190
339.56	26.024
339.93	25.324
340.29	25.278
340.65	25.064
341.02	25.707
341.38	25.845
341.74	24.622
342.11	25.846
342.47	25.439
342.83	26.144
343.20	26.988
343.56	26.083
343.92	25.995
344.28	26.136
344.65	26.531
345.01	25.989
345.37	27.549
345.73	26.062
346.10	26.966
346.46	25.772
346.82	25.682
347.19	26.028
347.55	27.383
347.91	27.202
348.27	26.735
348.63	27.003
349.00	26.572
349.36	27.943
349.72	27.224
350.08	26.365
350.45	28.426
350.81	28.951
351.17	26.867
351.53	27.258
351.89	26.450
352.26	26.873
352.62	27.287
352.98	26.438
353.34	27.134
353.70	26.636
354.07	27.294
354.43	27.294
354.79	28.125
355.15	28.804
355.51	28.018
355.87	28.147
356.24	27.448
356.60	27.522
356.96	29.624
357.32	28.173
357.68	29.259
358.04	28.549
358.40	29.457
358.77	28.899
359.13	29.494
359.49	29.902
359.85	28.886
360.21	29.992
360.57	29.658
360.93	30.197
361.29	29.386
361.66	30.676
362.02	29.503
362.38	29.838
362.74	28.789
363.10	31.164
363.46	30.187
363.82	30.820
364.18	30.964
364.54	31.291
364.90	30.941
365.26	30.644
365.62	30.682
365.98	30.463
366.35	31.915
366.71	31.812
367.07	32.034
367.43	31.916
367.79	32.523
368.15	32.278
368.51	31.505
368.87	33.287
369.23	32.242
369.59	32.135
369.95	32.946
370.31	32.427
370.67	32.730
371.03	34.224
371.39	32.789
371.75	33.357
372.11	33.547
372.47	34.174
372.83	34.327
373.19	34.964
373.55	34.176
373.91	34.441
374.27	33.679
374.63	34.780
374.99	33.774
375.35	34.384
375.71	34.851
376.07	35.846
376.42	34.893
376.78	35.997
377.14	36.000
377.50	36.571
377.86	36.720
378.22	36.220
378.58	36.129
378.94	37.000
379.30	37.164
379.66	37.361
380.02	36.765
380.38	38.012
380.74	37.657
381.09	37.937
381.45	38.271
381.81	38.262
382.17	37.366
382.53	37.969
382.89	37.455
383.25	38.951
383.61	37.893
383.97	39.750
384.32	39.193
384.68	39.605
385.04	39.157
385.40	41.469
385.76	39.842
386.12	40.349
386.48	39.937
386.83	39.549
387.19	41.086
387.55	40.159
387.91	42.374
388.27	41.800
388.62	41.136
388.98	41.364
389.34	42.419
389.70	41.270
390.06	41.625
390.42	42.332
390.77	42.473
391.13	42.677
391.49	41.113
391.85	42.812
392.20	42.043
392.56	43.873
392.92	42.715
393.28	42.708
393.64	43.364
393.99	43.329
394.35	43.086
394.71	44.038
395.07	43.019
395.42	43.693
395.78	45.045
396.14	43.500
396.50	45.022
396.85	45.698
397.21	44.382
397.57	45.217
397.92	44.132
398.28	44.444
398.64	44.566
399.00	44.029
399.35	45.006
399.71	45.428
400.07	46.506
400.42	45.893
400.78	45.559
401.14	46.045
401.49	45.357
401.85	44.779
402.21	46.873
402.57	46.965
402.92	45.181
403.28	47.154
403.63	46.373
403.99	47.601
404.35	47.382
404.70	45.680
405.06	47.270
405.42	46.671
405.77	46.659
406.13	46.971
406.49	46.675
406.84	46.825
407.20	46.359
407.55	46.753
407.91	46.989
408.27	47.723
408.62	47.944
408.98	46.856
409.34	47.834
409.69	49.188
410.05	47.761
410.40	47.048
410.76	48.496
411.11	48.321
411.47	49.900
411.83	47.286
412.18	48.363
412.54	49.123
412.89	48.276
413.25	47.316
413.60	48.652
413.96	48.752
414.31	48.150
414.67	47.429
415.03	49.323
415.38	48.613
415.74	48.408
416.09	49.306
416.45	50.718
416.80	49.329
417.16	49.595
417.51	49.163
417.87	49.206
418.22	49.968
418.58	49.343
418.93	49.718
419.29	50.957
419.64	48.473
420.00	51.048
420.35	50.568
420.71	50.030
421.06	49.631
421.42	51.095
421.77	50.000
422.12	51.003
422.48	50.545
422.83	50.561
423.19	49.339
423.54	49.882
423.90	49.406
424.25	51.011
424.61	50.400
424.96	50.030
425.31	49.972
425.67	51.558
426.02	51.708
426.38	51.617
426.73	51.680
427.09	50.156
427.44	51.615
427.79	51.188
428.15	50.092
428.50	51.541
428.85	52.030
429.21	50.478
429.56	52.125
429.92	51.848
430.27	51.380
430.62	51.312
430.98	50.555
431.33	51.048
431.68	52.396
432.04	51.887
432.39	50.520
432.74	50.460
433.10	51.191
433.45	50.947
433.80	51.149
434.16	52.157
434.51	51.576
434.86	51.178
435.22	51.387
435.57	51.167
435.92	52.292
436.28	51.712
436.63	51.790
436.98	53.114
437.34	52.259
437.69	51.122
438.04	51.896
438.39	52.428
438.75	51.847
439.10	53.094
439.45	52.179
439.81	52.032
440.16	53.449
440.51	51.962
440.86	52.519
441.22	52.324
441.57	51.573
441.92	52.100
442.27	50.920
442.63	52.422
442.98	52.431
443.33	52.540
443.68	51.713
444.03	52.062
444.39	52.504
444.74	52.512
445.09	51.652
445.44	52.169
445.79	51.833
446.15	52.302
446.50	51.542
446.85	52.966
447.20	51.751
447.55	52.658
447.91	51.404
448.26	51.858
448.61	51.554
448.96	51.651
449.31	51.571
449.66	52.169
450.02	51.677
450.37	51.704
450.72	51.665
451.07	52.978
451.42	51.653
451.77	52.648
452.12	51.931
452.47	52.550
452.83	50.472
453.18	51.369
453.53	52.774
453.88	51.205
454.23	51.483
454.58	49.510
454.93	51.187
455.28	51.766
455.63	51.279
455.98	51.674
456.34	52.003
456.69	51.949
457.04	50.464
457.39	50.271
457.74	49.551
458.09	51.126
458.44	51.234
458.79	49.643
459.14	49.382
459.49	51.585
459.84	50.902
460.19	50.480
460.54	51.156
460.89	51.239
461.24	49.815
461.59	50.000
461.94	50.316
462.29	50.061
462.64	51.451
462.99	50.838
463.34	50.138
463.69	50.580
464.04	49.760
464.39	51.129
464.74	50.123
465.09	49.721
465.44	49.663
465.79	50.201
466.14	49.943
466.49	49.677
466.84	50.209
467.19	50.255
467.54	50.421
467.89	51.603
468.24	49.662
468.59	49.841
468.94	50.766
469.29	49.703
469.64	50.209
469.99	50.483
470.34	49.562
470.68	48.848
471.03	50.423
471.38	49.374
471.73	49.726
472.08	49.210
472.43	49.736
472.78	49.899
473.13	48.351
473.48	49.967
473.83	49.969
474.17	49.479
474.52	51.068
474.87	49.156
475.22	49.457
475.57	49.136
475.92	49.073
476.27	49.068
476.61	48.301
476.96	48.544
477.31	49.299
477.66	49.887
478.01	49.231
478.36	49.210
478.70	49.302
479.05	49.390
479.40	49.038
479.75	48.990
480.10	48.751
480.45	47.818
480.79	48.084
481.14	50.051
481.49	47.903
481.84	48.162
482.19	48.170
482.53	47.905
482.88	47.987
483.23	47.883
483.58	47.779
483.92	48.054
484.27	47.210
484.62	48.069
484.97	48.362
485.31	46.985
485.66	45.036
486.01	44.944
486.36	45.196
486.70	45.434
487.05	46.164
487.40	45.875
487.75	47.517
488.09	46.512
488.44	47.249
488.79	47.691
489.13	46.879
489.48	46.772
489.83	46.539
490.17	46.482
490.52	47.920
490.87	46.129
491.22	45.407
491.56	48.059
491.91	47.288
492.26	47.050
492.60	46.465
492.95	46.550
493.30	45.688
493.64	46.523
493.99	48.116
494.34	47.206
494.68	46.730
495.03	46.937
495.37	45.839
495.72	46.717
496.07	46.615
496.41	45.391
496.76	46.207
497.11	45.399
497.45	46.498
497.80	47.148
498.14	46.700
498.49	45.890
498.84	45.698
499.18	46.242
499.53	46.381
499.87	44.784
500.22	45.445
500.56	46.138
500.91	46.378
501.26	45.665
501.60	45.000
501.95	45.568
502.29	45.388
502.64	45.564
502.98	44.798
503.33	45.839
503.67	45.034
504.02	44.412
504.36	45.270
504.71	45.579
505.06	45.593
505.40	44.639
505.75	46.185
506.09	45.376
506.44	44.909
506.78	45.099
507.13	45.686
507.47	44.963
507.82	45.683
508.16	44.855
508.51	44.318
508.85	44.997
509.19	45.450
509.54	46.005
509.88	44.247
510.23	44.105
510.57	45.074
510.92	44.935
511.26	45.765
511.61	44.402
511.95	44.818
512.30	43.809
512.64	46.198
512.98	44.986
513.33	45.408
513.67	45.315
514.02	46.123
514.36	44.045
514.70	44.804
515.05	45.407
515.39	45.873
515.74	44.642
516.08	44.307
516.42	43.779
516.77	44.405
517.11	44.915
517.46	45.858
517.80	45.763
518.14	44.336
518.49	45.087
518.83	44.988
519.17	44.518
519.52	44.632
519.86	44.323
520.20	43.299
520.55	45.025
520.89	45.414
521.23	44.808
521.58	44.185
521.92	44.312
522.26	45.999
522.61	44.409
522.95	44.948
523.29	45.333
523.64	45.010
523.98	44.409
524.32	44.612
524.66	44.740
525.01	45.085
525.35	44.832
525.69	44.400
526.04	43.192
526.38	45.443
526.72	44.576
527.06	43.972
527.41	43.812
527.75	42.991
528.09	44.997
528.43	46.201
528.78	42.829
529.12	45.731
529.46	44.082
529.80	44.595
530.15	43.758
530.49	45.081
530.83	45.565
531.17	44.452
531.51	44.639
531.86	43.293
532.20	44.452
532.54	43.517
532.88	44.044
533.22	43.906
533.57	43.444
533.91	43.935
534.25	45.117
534.59	43.115
534.93	42.666
535.27	43.503
535.62	43.355
535.96	43.852
536.30	43.218
536.64	43.404
536.98	43.027
537.32	43.274
537.66	43.794
538.01	43.204
538.35	41.989
538.69	41.873
539.03	41.611
539.37	43.461
539.71	43.861
540.05	40.351
540.39	41.844
540.73	42.807
541.07	42.381
541.42	42.290
541.76	42.152
542.10	41.368
542.44	41.788
542.78	43.095
543.12	41.105
543.46	42.018
543.80	42.227
544.14	42.808
544.48	41.208
544.82	40.888
545.16	41.379
545.50	42.269
545.84	41.795
546.18	42.006
546.52	40.649
546.86	40.777
547.20	41.172
547.54	41.887
547.88	40.823
548.22	41.824
548.56	40.494
548.90	41.272
549.24	41.319
549.58	39.786
549.92	42.553
550.26	42.288
550.60	40.991
550.94	41.269
551.28	41.257
551.62	41.504
551.96	40.410
552.30	40.830
552.64	39.689
552.98	42.045
553.32	40.591
553.66	41.379
554.00	40.173
554.34	39.634
554.68	39.597
555.02	39.222
555.36	41.225
555.69	39.767
556.03	40.100
556.37	39.260
556.71	38.893
557.05	39.779
557.39	40.241
557.73	40.091
558.07	39.261
558.41	40.500
558.75	40.801
559.08	38.813
559.42	40.441
559.76	40.291
560.10	39.662
560.44	38.983
560.78	38.129
561.12	39.383
561.45	37.483
561.79	38.171
562.13	38.537
562.47	38.786
562.81	38.312
563.15	38.244
563.48	37.990
563.82	37.962
564.16	38.998
564.50	37.924
564.84	37.973
565.17	38.344
565.51	38.235
565.85	36.775
566.19	37.417
566.52	37.484
566.86	37.358
567.20	37.385
567.54	36.615
567.88	36.618
568.21	36.448
568.55	36.724
568.89	36.740
569.23	35.747
569.56	35.795
569.90	35.391
570.24	33.971
570.57	35.380
570.91	34.288
571.25	34.841
571.59	33.794
571.92	34.174
572.26	34.482
572.60	33.939
572.93	34.427
573.27	33.890
573.61	34.178
573.95	33.686
574.28	33.540
574.62	33.819
574.96	33.563
575.29	33.551
575.63	33.430
575.97	33.641
576.30	33.590
576.64	33.770
576.98	33.527
577.31	33.333
577.65	32.737
577.98	33.520
578.32	32.959
578.66	32.960
578.99	33.756
579.33	33.308
579.67	33.070
580.00	32.472
580.34	32.210
580.67	33.170
581.01	32.906
581.35	32.603
581.68	32.330
582.02	32.667
582.35	32.525
582.69	32.464
583.02	31.323
583.36	32.108
583.70	32.769
584.03	32.893
584.37	32.896
584.70	32.410
585.04	32.853
585.37	32.321
585.71	32.055
586.04	32.431
586.38	31.676
586.72	32.650
587.05	32.262
587.39	31.985
587.72	32.580
588.06	32.750
588.39	32.298
588.73	31.859
589.06	31.781
589.40	32.473
589.73	32.411
590.07	31.207
590.40	32.336
590.73	32.901
591.07	33.138
591.40	32.522
591.74	31.881
592.07	32.360
592.41	32.175
592.74	32.137
593.08	31.077
593.41	31.535
593.75	31.266
594.08	31.468
594.41	32.102
594.75	31.222
595.08	32.188
595.42	30.852
595.75	31.345
596.09	31.717
596.42	31.087
596.75	31.768
597.09	31.847
597.42	31.539
597.75	32.000
598.09	31.967
598.42	32.036
598.76	31.318
599.09	31.933
599.42	30.778
599.76	31.468
600.09	31.137
600.42	31.299
600.76	30.857
601.09	30.621
601.42	31.831
601.76	29.961
602.09	31.131
602.42	31.738
602.76	30.621
603.09	31.458
603.42	31.307
603.76	30.670
604.09	30.277
604.42	30.557
604.76	31.122
605.09	30.902
605.42	30.994
605.75	30.450
606.09	30.671
606.42	31.297
606.75	30.390
607.09	30.851
607.42	31.261
607.75	29.103
608.08	30.613
608.42	30.459
608.75	32.059
609.08	30.083
609.41	31.148
609.75	30.055
610.08	30.424
610.41	30.321
610.74	30.125
611.07	30.210
611.41	30.757
611.74	30.176
612.07	29.911
612.40	30.811
612.73	31.229
613.07	29.601
613.40	30.121
613.73	30.878
614.06	29.519
614.39	29.127
614.72	30.983
615.06	29.611
615.39	29.525
615.72	29.590
616.05	30.293
616.38	30.412
616.71	30.114
617.05	30.467
617.38	30.068
617.71	29.963
618.04	30.469
618.37	29.464
618.70	30.401
619.03	30.515
619.36	30.676
619.69	30.409
620.03	30.813
620.36	29.088
620.69	29.051
621.02	30.462
621.35	29.845
621.68	29.666
622.01	29.612
622.34	29.897
622.67	30.149
623.00	30.775
623.33	30.890
623.66	29.888
623.99	29.782
624.32	28.540
624.65	30.193
624.99	29.464
625.32	30.172
625.65	29.767
625.98	30.490
626.31	31.020
626.64	30.095
626.97	31.228
627.30	29.855
627.63	29.931
627.96	29.437
628.29	30.419
628.62	29.497
628.95	30.862
629.28	30.443
629.61	31.675
629.94	30.561
630.26	30.049
630.59	29.271
630.92	30.823
631.25	30.381
631.58	30.514
631.91	30.435
632.24	29.748
632.57	30.222
