SpectraSuite Data File
++++++++++++++++++++++++++++++++++++
Date: Wed May 13 21:27:36 PDT 2015
User: schluterlab
Dark Spectrum Present: Yes
Reference Spectrum Present: Yes
Number of Sampled Component Spectra: 1
Spectrometers: USB2E3373
Integration Time (usec): 3000 (USB2E3373)
Spectra Averaged: 3 (USB2E3373)
Boxcar Smoothing: 0 (USB2E3373)
Correct for Electrical Dark: No (USB2E3373)
Strobe/Lamp Enabled: No (USB2E3373)
Correct for Detector Non-linearity: No (USB2E3373)
Correct for Stray Light: No (USB2E3373)
Number of Pixels in Processed Spectrum: 2048
>>>>>Begin Processed Spectral Data<<<<<
178.53	0.000
178.91	750.000
179.29	216.667
179.67	-900.000
180.04	-333.333
180.42	300.000
180.80	1500.000
181.18	333.333
181.56	-450.000
181.94	-150.000
182.31	-18.182
182.69	184.615
183.07	-200.000
183.45	183.333
183.83	144.444
184.20	242.857
184.58	-200.000
184.96	266.667
185.34	257.143
185.72	0.000
186.09	-1300.000
186.47	-280.000
186.85	180.000
187.23	-200.000
187.61	300.000
187.98	1400.000
188.36	75.000
188.74	0.000
189.12	-136.364
189.49	10.000
189.87	108.333
190.25	200.000
190.63	1800.000
191.00	-360.000
191.38	80.000
191.76	475.000
192.14	116.667
192.51	10.526
192.89	633.333
193.27	325.000
193.65	-60.000
194.02	127.273
194.40	180.000
194.78	-100.000
195.15	140.000
195.53	-80.000
195.91	37.500
196.29	-66.667
196.66	0.000
197.04	400.000
197.42	0.000
197.79	-50.000
198.17	-150.000
198.55	-466.667
198.92	-25.000
199.30	-433.333
199.68	0.000
200.05	300.000
200.43	-66.667
200.81	-1400.000
201.18	-240.000
201.56	-216.667
201.94	675.000
202.31	4.348
202.69	-128.571
203.07	-400.000
203.44	-140.000
203.82	-266.667
204.19	-10.000
204.57	0.000
204.95	-266.667
205.32	0.000
205.70	-150.000
206.08	-325.000
206.45	-100.000
206.83	150.000
207.20	-333.333
207.58	40.000
207.96	-2300.000
208.33	-200.000
208.71	-1300.000
209.08	175.000
209.46	225.000
209.84	0.000
210.21	160.000
210.59	1400.000
210.96	180.000
211.34	600.000
211.71	-700.000
212.09	-250.000
212.46	-170.000
212.84	-33.333
213.22	-25.000
213.59	-1100.000
213.97	-550.000
214.34	-550.000
214.72	-23.077
215.09	212.500
215.47	155.556
215.84	700.000
216.22	50.000
216.59	-150.000
216.97	766.667
217.34	133.333
217.72	0.000
218.09	200.000
218.47	-500.000
218.84	-128.571
219.22	-162.500
219.59	-200.000
219.97	0.000
220.34	-37.500
220.72	-20.000
221.09	0.000
221.47	0.000
221.84	-800.000
222.22	0.000
222.59	900.000
222.97	-433.333
223.34	8.333
223.72	-1600.000
224.09	-400.000
224.46	-27.273
224.84	-112.500
225.21	-14.286
225.59	-150.000
225.96	-133.333
226.34	-170.000
226.71	-171.429
227.08	200.000
227.46	0.000
227.83	100.000
228.21	0.000
228.58	-225.000
228.95	0.000
229.33	-31.250
229.70	-100.000
230.08	-7.692
230.45	-125.000
230.82	-58.333
231.20	228.571
231.57	100.000
231.95	1400.000
232.32	58.333
232.69	5.882
233.07	-500.000
233.44	0.000
233.81	-450.000
234.19	58.333
234.56	-46.667
234.93	6.667
235.31	0.000
235.68	-15.385
236.05	-7.692
236.43	27.778
236.80	21.212
237.17	-93.333
237.55	11.765
237.92	24.138
238.29	44.444
238.67	11.111
239.04	25.806
239.41	8.511
239.79	23.404
240.16	44.186
240.53	35.714
240.91	58.929
241.28	55.357
241.65	40.323
242.02	42.105
242.40	50.725
242.77	37.681
243.14	38.462
243.51	40.426
243.89	42.308
244.26	51.887
244.63	39.423
245.00	57.292
245.38	42.017
245.75	51.639
246.12	45.865
246.49	37.398
246.87	47.899
247.24	54.054
247.61	52.318
247.98	51.923
248.36	48.521
248.73	48.315
249.10	40.909
249.47	47.849
249.84	47.368
250.22	44.776
250.59	44.860
250.96	48.636
251.33	45.455
251.70	52.720
252.08	48.954
252.45	53.498
252.82	50.190
253.19	49.416
253.56	47.842
253.94	47.331
254.31	50.000
254.68	49.664
255.05	49.175
255.42	50.350
255.79	47.853
256.16	50.789
256.54	55.873
256.91	50.316
257.28	51.258
257.65	50.637
258.02	50.440
258.39	51.754
258.76	51.163
259.14	52.841
259.51	48.034
259.88	52.033
260.25	50.278
260.62	53.652
260.99	51.989
261.36	51.813
261.73	49.877
262.10	51.654
262.47	47.654
262.85	50.995
263.22	49.231
263.59	50.390
263.96	48.418
264.33	48.317
264.70	50.698
265.07	52.546
265.44	53.103
265.81	49.428
266.18	50.569
266.55	51.310
266.92	47.458
267.29	50.206
267.66	52.442
268.03	51.646
268.40	50.000
268.77	52.893
269.14	53.061
269.51	54.209
269.88	53.157
270.25	51.907
270.62	51.844
270.99	50.984
271.36	50.000
271.73	52.610
272.10	49.905
272.47	49.904
272.84	50.984
273.21	50.489
273.58	52.664
273.95	47.925
274.32	50.933
274.69	49.909
275.06	51.060
275.43	50.847
275.80	49.468
276.17	52.670
276.54	47.602
276.91	49.652
277.28	46.570
277.65	49.126
278.02	50.536
278.39	50.089
278.76	49.498
279.13	49.571
279.50	47.586
279.87	48.370
280.23	50.090
280.60	49.308
280.97	49.026
281.34	49.527
281.71	47.805
282.08	50.085
282.45	48.525
282.82	50.160
283.19	50.000
283.56	46.719
283.92	50.153
284.29	48.050
284.66	47.776
285.03	46.743
285.40	47.130
285.77	49.249
286.14	45.745
286.51	48.726
286.87	46.769
287.24	46.755
287.61	49.699
287.98	47.941
288.35	46.647
288.72	47.776
289.08	45.299
289.45	44.787
289.82	46.899
290.19	46.564
290.56	43.040
290.93	42.956
291.29	43.502
291.66	42.760
292.03	43.324
292.40	43.203
292.77	43.106
293.13	42.120
293.50	41.699
293.87	41.333
294.24	42.989
294.60	41.612
294.97	41.667
295.34	39.446
295.71	39.947
296.08	41.885
296.44	40.051
296.81	38.855
297.18	41.125
297.55	39.387
297.91	41.739
298.28	39.588
298.65	38.300
299.02	39.438
299.38	38.405
299.75	38.702
300.12	37.326
300.48	37.544
300.85	36.028
301.22	37.747
301.59	37.441
301.95	36.818
302.32	36.989
302.69	37.514
303.05	36.988
303.42	38.523
303.79	36.488
304.15	38.773
304.52	37.204
304.89	39.203
305.25	35.346
305.62	38.286
305.99	39.391
306.35	37.618
306.72	35.097
307.09	37.748
307.45	36.954
307.82	36.947
308.19	36.050
308.55	37.564
308.92	37.230
309.29	36.737
309.65	35.365
310.02	36.282
310.38	38.821
310.75	36.193
311.12	36.346
311.48	36.894
311.85	36.614
312.22	37.427
312.58	37.391
312.95	38.308
313.31	35.629
313.68	37.023
314.05	36.957
314.41	38.040
314.78	38.425
315.14	37.500
315.51	39.486
315.87	38.647
316.24	39.027
316.61	39.087
316.97	39.722
317.34	39.305
317.70	41.748
318.07	41.970
318.43	42.909
318.80	42.147
319.16	42.529
319.53	42.742
319.89	43.451
320.26	44.362
320.62	46.154
320.99	45.155
321.35	43.966
321.72	46.295
322.08	46.310
322.45	47.826
322.81	47.967
323.18	47.764
323.54	51.083
323.91	51.400
324.27	52.565
324.64	52.091
325.00	53.018
325.37	53.925
325.73	52.104
326.10	54.500
326.46	57.358
326.83	56.068
327.19	58.618
327.56	57.695
327.92	58.327
328.29	59.182
328.65	61.437
329.01	61.653
329.38	62.609
329.74	60.515
330.11	64.743
330.47	62.760
330.84	65.614
331.20	64.646
331.56	67.391
331.93	65.030
332.29	63.684
332.66	65.254
333.02	65.595
333.38	66.140
333.75	65.785
334.11	67.274
334.48	67.132
334.84	67.491
335.20	67.667
335.57	65.274
335.93	66.581
336.29	66.813
336.66	66.496
337.02	68.696
337.38	68.059
337.75	67.700
338.11	69.428
338.47	66.781
338.84	67.784
339.20	71.164
339.56	68.430
339.93	69.749
340.29	68.403
340.65	69.376
341.02	68.802
341.38	69.426
341.74	68.067
342.11	67.300
342.47	68.368
342.83	68.709
343.20	71.320
343.56	69.910
343.92	67.994
344.28	69.562
344.65	69.714
345.01	68.442
345.37	69.984
345.73	70.588
346.10	69.984
346.46	70.325
346.82	69.904
347.19	69.146
347.55	70.759
347.91	69.680
348.27	71.215
348.63	69.231
349.00	71.069
349.36	70.408
349.72	70.456
350.08	71.061
350.45	70.948
350.81	70.736
351.17	70.670
351.53	70.621
351.89	69.897
352.26	68.958
352.62	71.783
352.98	71.486
353.34	72.544
353.70	70.794
354.07	70.275
354.43	69.907
354.79	73.317
355.15	71.584
355.51	71.450
355.87	71.149
356.24	73.515
356.60	71.149
356.96	72.832
357.32	71.594
357.68	72.422
358.04	71.683
358.40	72.248
358.77	74.006
359.13	71.284
359.49	71.991
359.85	71.039
360.21	73.477
360.57	72.548
360.93	74.127
361.29	72.317
361.66	71.298
362.02	72.053
362.38	72.009
362.74	72.879
363.10	71.728
363.46	71.830
363.82	73.836
364.18	72.516
364.54	73.377
364.90	72.195
365.26	72.895
365.62	73.935
365.98	72.028
366.35	72.766
366.71	72.682
367.07	72.573
367.43	72.544
367.79	73.106
368.15	74.051
368.51	72.925
368.87	74.250
369.23	73.096
369.59	73.502
369.95	73.657
370.31	71.060
370.67	72.773
371.03	73.868
371.39	73.172
371.75	73.143
372.11	73.860
372.47	73.252
372.83	71.775
373.19	73.165
373.55	74.566
373.91	72.914
374.27	73.167
374.63	73.826
374.99	72.632
375.35	74.863
375.71	72.554
376.07	75.120
376.42	72.727
376.78	75.363
377.14	75.593
377.50	72.881
377.86	73.639
378.22	72.377
378.58	73.077
378.94	73.500
379.30	74.329
379.66	73.798
380.02	73.652
380.38	73.313
380.74	74.537
381.09	73.100
381.45	74.547
381.81	74.738
382.17	72.590
382.53	72.800
382.89	72.376
383.25	74.630
383.61	74.758
383.97	73.750
384.32	73.598
384.68	73.103
385.04	72.755
385.40	73.412
385.76	73.236
386.12	73.338
386.48	74.044
386.83	70.213
387.19	73.411
387.55	72.532
387.91	75.154
388.27	73.058
388.62	74.469
388.98	74.844
389.34	72.243
389.70	72.466
390.06	72.250
390.42	73.905
390.77	72.774
391.13	72.601
391.49	70.968
391.85	72.971
392.20	71.930
392.56	72.825
392.92	72.908
393.28	70.657
393.64	73.211
393.99	70.502
394.35	70.926
394.71	71.859
395.07	70.692
395.42	72.212
395.78	72.265
396.14	72.036
396.50	72.099
396.85	72.913
397.21	72.035
397.57	71.366
397.92	69.760
398.28	70.728
398.64	71.828
399.00	70.926
399.35	71.396
399.71	70.297
400.07	70.783
400.42	71.411
400.78	70.151
401.14	70.570
401.49	71.061
401.85	70.577
402.21	71.889
402.57	70.509
402.92	70.901
403.28	71.857
403.63	69.250
403.99	71.593
404.35	70.761
404.70	69.607
405.06	70.464
405.42	69.347
405.77	70.910
406.13	70.514
406.49	69.323
406.84	70.696
407.20	69.390
407.55	70.584
407.91	69.821
408.27	67.561
408.62	69.859
408.98	69.667
409.34	69.121
409.69	70.045
410.05	68.532
410.40	67.864
410.76	69.495
411.11	67.724
411.47	70.007
411.83	68.746
412.18	67.317
412.54	68.672
412.89	68.150
413.25	65.723
413.60	68.966
413.96	68.477
414.31	67.941
414.67	66.921
415.03	67.388
415.38	68.032
415.74	67.381
416.09	67.350
416.45	68.216
416.80	69.463
417.16	66.329
417.51	67.247
417.87	67.593
418.22	67.292
418.58	65.900
418.93	67.169
419.29	67.591
419.64	65.649
420.00	68.063
420.35	66.049
420.71	65.874
421.06	65.929
421.42	66.727
421.77	66.590
422.12	66.819
422.48	65.594
422.83	66.745
423.19	65.957
423.54	67.373
423.90	65.736
424.25	65.685
424.61	67.591
424.96	65.405
425.31	66.068
425.67	65.608
426.02	67.079
426.38	67.040
426.73	65.486
427.09	66.291
427.44	64.474
427.79	65.321
428.15	64.648
428.50	65.015
428.85	65.683
429.21	65.166
429.56	65.781
429.92	65.226
430.27	65.031
430.62	64.638
430.98	64.622
431.33	64.804
431.68	66.400
432.04	65.690
432.39	64.030
432.74	63.519
433.10	65.892
433.45	63.669
433.80	63.966
434.16	64.118
434.51	64.402
434.86	66.196
435.22	64.686
435.57	62.469
435.92	64.415
436.28	62.282
436.63	64.261
436.98	65.452
437.34	64.347
437.69	62.338
438.04	62.988
438.39	64.384
438.75	63.051
439.10	64.488
439.45	63.620
439.81	62.746
440.16	63.768
440.51	62.485
440.86	62.774
441.22	62.995
441.57	62.636
441.92	63.867
442.27	63.095
442.63	62.164
442.98	63.310
443.33	64.278
443.68	60.991
444.03	63.040
444.39	63.064
444.74	61.126
445.09	61.454
445.44	62.254
445.79	62.674
446.15	62.618
446.50	62.555
446.85	62.052
447.20	61.945
447.55	61.500
447.91	61.966
448.26	62.093
448.61	62.140
448.96	62.756
449.31	61.393
449.66	62.233
450.02	62.990
450.37	63.102
450.72	61.481
451.07	62.132
451.42	60.699
451.77	60.986
452.12	60.903
452.47	61.265
452.83	60.849
453.18	61.299
453.53	61.854
453.88	59.940
454.23	60.012
454.58	59.681
454.93	60.359
455.28	60.501
455.63	60.636
455.98	60.986
456.34	59.123
456.69	60.703
457.04	59.443
457.39	59.832
457.74	60.263
458.09	58.886
458.44	59.166
458.79	59.473
459.14	58.146
459.49	61.280
459.84	59.808
460.19	58.884
460.54	60.341
460.89	59.741
461.24	60.912
461.59	59.722
461.94	58.976
462.29	58.027
462.64	58.443
462.99	59.423
463.34	59.807
463.69	59.472
464.04	58.583
464.39	58.633
464.74	58.477
465.09	57.223
465.44	57.351
465.79	58.194
466.14	59.863
466.49	58.886
466.84	58.219
467.19	57.516
467.54	57.615
467.89	58.265
468.24	57.775
468.59	56.660
468.94	57.663
469.29	58.163
469.64	57.183
469.99	57.310
470.34	57.788
470.68	57.398
471.03	57.123
471.38	56.398
471.73	56.379
472.08	59.175
472.43	57.982
472.78	56.998
473.13	56.201
473.48	56.295
473.83	56.623
474.17	56.315
474.52	56.958
474.87	56.634
475.22	57.005
475.57	56.776
475.92	55.725
476.27	55.828
476.61	55.946
476.96	56.311
477.31	55.933
477.66	56.158
478.01	54.890
478.36	55.640
478.70	55.693
479.05	56.493
479.40	54.602
479.75	56.642
480.10	54.054
480.45	54.684
480.79	55.351
481.14	56.282
481.49	54.711
481.84	53.911
482.19	54.701
482.53	55.190
482.88	54.890
483.23	53.994
483.58	54.915
483.92	54.280
484.27	53.934
484.62	52.996
484.97	53.878
485.31	54.477
485.66	52.450
486.01	54.361
486.36	54.409
486.70	54.215
487.05	54.180
487.40	53.652
487.75	53.431
488.09	53.237
488.44	53.312
488.79	53.217
489.13	52.724
489.48	53.570
489.83	52.568
490.17	53.836
490.52	54.091
490.87	51.878
491.22	52.473
491.56	53.330
491.91	52.328
492.26	53.143
492.60	51.804
492.95	53.304
493.30	51.550
493.64	50.504
493.99	52.319
494.34	53.805
494.68	51.838
495.03	52.668
495.37	52.749
495.72	52.331
496.07	52.996
496.41	51.614
496.76	51.051
497.11	51.549
497.45	53.307
497.80	51.994
498.14	51.839
498.49	50.025
498.84	51.518
499.18	51.319
499.53	51.403
499.87	50.364
500.22	51.618
500.56	51.254
500.91	51.610
501.26	50.640
501.60	50.588
501.95	50.743
502.29	51.553
502.64	50.868
502.98	50.048
503.33	52.214
503.67	49.903
504.02	50.882
504.36	50.173
504.71	50.102
505.06	50.841
505.40	51.186
505.75	49.949
506.09	50.537
506.44	50.302
506.78	50.940
507.13	50.468
507.47	51.007
507.82	49.555
508.16	49.868
508.51	49.070
508.85	49.819
509.19	50.582
509.54	49.491
509.88	49.301
510.23	48.579
510.57	49.470
510.92	49.407
511.26	51.210
511.61	48.902
511.95	49.173
512.30	48.695
512.64	50.000
512.98	48.920
513.33	49.803
513.67	49.063
514.02	49.601
514.36	48.146
514.70	47.921
515.05	48.449
515.39	48.526
515.74	49.023
516.08	47.611
516.42	47.293
516.77	48.682
517.11	48.618
517.46	50.060
517.80	49.395
518.14	48.928
518.49	47.438
518.83	48.449
519.17	47.771
519.52	49.638
519.86	48.391
520.20	47.908
520.55	47.575
520.89	47.944
521.23	49.038
521.58	48.609
521.92	47.517
522.26	48.731
522.61	48.028
522.95	47.927
523.29	47.048
523.64	47.489
523.98	47.395
524.32	46.503
524.66	47.273
525.01	48.231
525.35	48.387
525.69	47.647
526.04	47.492
526.38	46.973
526.72	47.732
527.06	47.002
527.41	46.459
527.75	47.196
528.09	46.903
528.43	49.254
528.78	46.770
529.12	46.507
529.46	46.961
529.80	47.573
530.15	45.302
530.49	47.237
530.83	46.919
531.17	46.370
531.51	46.730
531.86	45.867
532.20	45.072
532.54	46.207
532.88	46.290
533.22	46.599
533.57	46.623
533.91	47.677
534.25	46.875
534.59	46.911
534.93	46.492
535.27	45.669
535.62	46.776
535.96	46.779
536.30	47.074
536.64	44.908
536.98	46.391
537.32	46.477
537.66	47.250
538.01	45.562
538.35	45.166
538.69	45.686
539.03	45.503
539.37	45.808
539.71	45.225
540.05	45.614
540.39	44.391
540.73	45.391
541.07	44.082
541.42	45.455
541.76	45.264
542.10	45.498
542.44	44.629
542.78	44.136
543.12	46.092
543.46	44.575
543.80	44.196
544.14	46.249
544.48	43.663
544.82	45.528
545.16	44.557
545.50	45.172
545.84	44.881
546.18	43.548
546.52	43.825
546.86	44.523
547.20	44.174
547.54	44.746
547.88	45.479
548.22	44.951
548.56	44.696
548.90	43.843
549.24	44.306
549.58	43.986
549.92	44.754
550.26	45.387
550.60	44.219
550.94	44.254
551.28	42.922
551.62	44.286
551.96	42.387
552.30	42.722
552.64	43.362
552.98	45.170
553.32	43.691
553.66	44.241
554.00	42.837
554.34	43.004
554.68	43.773
555.02	43.713
555.36	42.587
555.69	42.899
556.03	43.317
556.37	43.741
556.71	43.167
557.05	42.362
557.39	43.331
557.73	44.024
558.07	43.105
558.41	44.058
558.75	42.725
559.08	42.101
559.42	43.273
559.76	42.431
560.10	42.967
560.44	43.699
560.78	43.165
561.12	43.097
561.45	42.177
561.79	42.435
562.13	42.335
562.47	42.357
562.81	41.775
563.15	42.918
563.48	42.739
563.82	42.066
564.16	43.263
564.50	43.691
564.84	42.635
565.17	42.450
565.51	43.382
565.85	41.972
566.19	42.384
566.52	41.350
566.86	41.846
567.20	42.089
567.54	41.911
567.88	42.105
568.21	42.097
568.55	42.097
568.89	41.974
569.23	41.705
569.56	42.386
569.90	43.137
570.24	41.697
570.57	41.829
570.91	41.545
571.25	41.847
571.59	41.431
571.92	41.772
572.26	41.758
572.60	41.792
572.93	41.643
573.27	41.118
573.61	41.492
573.95	41.750
574.28	41.299
574.62	41.471
574.96	41.708
575.29	40.923
575.63	42.123
575.97	42.120
576.30	40.914
576.64	41.682
576.98	42.003
577.31	41.165
577.65	41.175
577.98	42.148
578.32	41.868
578.66	41.324
578.99	41.244
579.33	41.454
579.67	41.624
580.00	41.391
580.34	40.984
580.67	40.764
581.01	41.441
581.35	41.244
581.68	42.097
582.02	42.126
582.35	42.631
582.69	41.333
583.02	40.667
583.36	40.424
583.70	41.057
584.03	40.334
584.37	39.891
584.70	40.453
585.04	41.060
585.37	40.535
585.71	41.052
586.04	40.852
586.38	39.858
586.72	40.573
587.05	41.427
587.39	40.809
587.72	40.904
588.06	40.575
588.39	39.854
588.73	40.373
589.06	40.220
589.40	39.904
589.73	40.101
590.07	39.592
590.40	40.553
590.73	40.883
591.07	40.033
591.40	39.957
591.74	40.285
592.07	40.484
592.41	40.069
592.74	40.201
593.08	40.137
593.41	40.173
593.75	39.729
594.08	39.862
594.41	39.671
594.75	39.543
595.08	40.030
595.42	39.298
595.75	39.913
596.09	39.453
596.42	39.338
596.75	40.149
597.09	40.446
597.42	40.063
597.75	39.200
598.09	39.435
598.42	40.358
598.76	40.008
599.09	40.536
599.42	39.275
599.76	39.917
600.09	39.985
600.42	40.151
600.76	39.690
601.09	39.812
601.42	39.867
601.76	38.842
602.09	40.170
602.42	40.198
602.76	39.765
603.09	39.384
603.42	39.504
603.76	38.854
604.09	39.130
604.42	39.263
604.76	39.502
605.09	39.465
605.42	40.081
605.75	38.458
606.09	38.742
606.42	38.736
606.75	38.788
607.09	39.184
607.42	40.105
607.75	37.943
608.08	39.270
608.42	39.269
608.75	39.560
609.08	39.147
609.41	38.202
609.75	38.780
610.08	39.250
610.41	39.310
610.74	39.654
611.07	38.928
611.41	38.639
611.74	38.872
612.07	39.396
612.40	39.622
612.73	38.419
613.07	39.800
613.40	39.482
613.73	39.382
614.06	38.143
614.39	37.966
614.72	39.645
615.06	39.167
615.39	39.514
615.72	38.175
616.05	39.358
616.38	38.545
616.71	36.713
617.05	38.514
617.38	39.002
617.71	38.603
618.04	38.147
618.37	38.044
618.70	37.710
619.03	37.526
619.36	38.719
619.69	37.719
620.03	36.961
620.36	37.300
620.69	37.687
621.02	37.692
621.35	36.141
621.68	38.142
622.01	37.702
622.34	36.955
622.67	38.215
623.00	37.462
623.33	37.547
623.66	37.472
623.99	39.160
624.32	38.078
624.65	37.834
624.99	37.987
625.32	37.416
625.65	37.519
625.98	36.572
626.31	38.204
626.64	37.747
626.97	38.495
627.30	36.955
627.63	36.073
627.96	36.537
628.29	37.860
628.62	36.654
628.95	36.473
629.28	37.241
629.61	37.703
629.94	38.395
630.26	38.030
630.59	37.263
630.92	34.438
631.25	37.384
631.58	37.259
631.91	36.903
632.24	35.456
632.57	33.556
632.90	36.406
