SpectraSuite Data File
++++++++++++++++++++++++++++++++++++
Date: Wed May 13 21:24:56 PDT 2015
User: schluterlab
Dark Spectrum Present: Yes
Reference Spectrum Present: Yes
Number of Sampled Component Spectra: 1
Spectrometers: USB2E3373
Integration Time (usec): 3000 (USB2E3373)
Spectra Averaged: 3 (USB2E3373)
Boxcar Smoothing: 0 (USB2E3373)
Correct for Electrical Dark: No (USB2E3373)
Strobe/Lamp Enabled: No (USB2E3373)
Correct for Detector Non-linearity: No (USB2E3373)
Correct for Stray Light: No (USB2E3373)
Number of Pixels in Processed Spectrum: 2048
>>>>>Begin Processed Spectral Data<<<<<
178.53	0.000
178.91	700.000
179.29	158.333
179.67	-950.000
180.04	-400.000
180.42	160.000
180.80	1000.000
181.18	316.667
181.56	-500.000
181.94	-150.000
182.31	-36.364
182.69	123.077
183.07	-80.000
183.45	316.667
183.83	155.556
184.20	57.143
184.58	-66.667
184.96	366.667
185.34	200.000
185.72	0.000
186.09	-1100.000
186.47	-140.000
186.85	40.000
187.23	-350.000
187.61	1000.000
187.98	1000.000
188.36	-37.500
188.74	0.000
189.12	-45.455
189.49	-70.000
189.87	50.000
190.25	320.000
190.63	-0.000
191.00	-180.000
191.38	340.000
191.76	300.000
192.14	166.667
192.51	-26.316
192.89	233.333
193.27	250.000
193.65	-320.000
194.02	81.818
194.40	210.000
194.78	-1400.000
195.15	260.000
195.53	-280.000
195.91	12.500
196.29	-300.000
196.66	0.000
197.04	400.000
197.42	-140.000
197.79	-20.000
198.17	-187.500
198.55	-400.000
198.92	300.000
199.30	-366.667
199.68	-110.000
200.05	-0.000
200.43	133.333
200.81	-1900.000
201.18	-140.000
201.56	-33.333
201.94	575.000
202.31	0.000
202.69	-28.571
203.07	-433.333
203.44	-260.000
203.82	-200.000
204.19	-20.000
204.57	0.000
204.95	-183.333
205.32	0.000
205.70	-550.000
206.08	-225.000
206.45	-83.333
206.83	375.000
207.20	-333.333
207.58	-80.000
207.96	-2100.000
208.33	-328.571
208.71	-1300.000
209.08	187.500
209.46	350.000
209.84	0.000
210.21	210.000
210.59	2800.000
210.96	260.000
211.34	1600.000
211.71	-300.000
212.09	-116.667
212.46	-170.000
212.84	66.667
213.22	-325.000
213.59	-1200.000
213.97	-250.000
214.34	-550.000
214.72	-15.385
215.09	212.500
215.47	177.778
215.84	750.000
216.22	-200.000
216.59	-250.000
216.97	566.667
217.34	122.222
217.72	0.000
218.09	366.667
218.47	-700.000
218.84	-228.571
219.22	-75.000
219.59	-466.667
219.97	-225.000
220.34	-25.000
220.72	-200.000
221.09	0.000
221.47	-116.667
221.84	-1300.000
222.22	0.000
222.59	600.000
222.97	-266.667
223.34	-41.667
223.72	-1600.000
224.09	-700.000
224.46	-100.000
224.84	-100.000
225.21	-171.429
225.59	-275.000
225.96	-133.333
226.34	-70.000
226.71	-228.571
227.08	350.000
227.46	-75.000
227.83	-700.000
228.21	12.500
228.58	50.000
228.95	5.882
229.33	12.500
229.70	-200.000
230.08	-53.846
230.45	-137.500
230.82	-83.333
231.20	71.429
231.57	-300.000
231.95	1200.000
232.32	83.333
232.69	-41.176
233.07	-1700.000
233.44	-4.348
233.81	-150.000
234.19	45.833
234.56	-40.000
234.93	-26.667
235.31	47.368
235.68	-61.538
236.05	23.077
236.43	16.667
236.80	-27.273
237.17	-26.667
237.55	-17.647
237.92	-6.897
238.29	-14.815
238.67	13.889
239.04	-9.677
239.41	0.000
239.79	31.915
240.16	23.256
240.53	7.143
240.91	26.786
241.28	26.786
241.65	38.710
242.02	22.368
242.40	33.333
242.77	18.841
243.14	34.615
243.51	34.043
243.89	25.962
244.26	45.283
244.63	23.077
245.00	48.958
245.38	22.689
245.75	29.508
246.12	38.346
246.49	27.642
246.87	21.849
247.24	39.189
247.61	38.411
247.98	40.385
248.36	41.420
248.73	33.146
249.10	35.354
249.47	40.860
249.84	33.158
250.22	38.308
250.59	34.579
250.96	39.091
251.33	33.014
251.70	37.238
252.08	37.238
252.45	35.391
252.82	36.882
253.19	38.132
253.56	38.489
253.94	41.281
254.31	38.732
254.68	38.591
255.05	37.294
255.42	36.014
255.79	38.957
256.16	45.741
256.54	35.873
256.91	37.025
257.28	38.994
257.65	35.032
258.02	39.296
258.39	41.520
258.76	36.628
259.14	36.932
259.51	37.640
259.88	38.211
260.25	39.167
260.62	38.483
260.99	41.645
261.36	42.228
261.73	41.235
262.10	41.221
262.47	39.506
262.85	39.801
263.22	41.282
263.59	38.701
263.96	36.983
264.33	38.462
264.70	37.907
265.07	37.731
265.44	41.839
265.81	40.275
266.18	41.686
266.55	39.738
266.92	40.466
267.29	40.123
267.66	40.977
268.03	40.535
268.40	40.890
268.77	40.083
269.14	40.816
269.51	41.478
269.88	37.475
270.25	42.161
270.62	38.730
270.99	41.142
271.36	39.881
271.73	39.960
272.10	39.429
272.47	38.580
272.84	39.961
273.21	37.573
273.58	39.549
273.95	38.679
274.32	37.687
274.69	39.526
275.06	40.989
275.43	39.548
275.80	39.184
276.17	39.042
276.54	37.300
276.91	37.456
277.28	36.823
277.65	40.035
278.02	39.821
278.39	38.366
278.76	40.803
279.13	36.878
279.50	40.517
279.87	37.862
280.23	40.541
280.60	37.889
280.97	37.987
281.34	39.432
281.71	37.073
282.08	37.778
282.45	39.344
282.82	36.102
283.19	39.177
283.56	37.812
283.92	37.615
284.29	35.881
284.66	38.880
285.03	39.577
285.40	36.103
285.77	38.138
286.14	36.626
286.51	39.580
286.87	36.308
287.24	38.053
287.61	39.157
287.98	37.059
288.35	36.662
288.72	34.864
289.08	36.040
289.45	35.389
289.82	37.065
290.19	34.502
290.56	34.801
290.93	32.735
291.29	37.073
291.66	34.699
292.03	36.921
292.40	32.436
292.77	35.074
293.13	33.473
293.50	33.725
293.87	33.200
294.24	32.540
294.60	34.460
294.97	34.127
295.34	32.190
295.71	32.063
296.08	32.853
296.44	33.163
296.81	29.963
297.18	33.375
297.55	31.958
297.91	30.435
298.28	30.872
298.65	30.542
299.02	33.944
299.38	31.779
299.75	29.928
300.12	30.233
300.48	32.164
300.85	30.370
301.22	30.081
301.59	30.634
301.95	28.339
302.32	28.938
302.69	29.718
303.05	29.568
303.42	30.227
303.79	30.599
304.15	29.244
304.52	30.860
304.89	30.676
305.25	29.528
305.62	28.959
305.99	30.577
306.35	29.781
306.72	29.298
307.09	27.216
307.45	29.499
307.82	28.316
308.19	28.945
308.55	29.171
308.92	30.452
309.29	30.330
309.65	28.971
310.02	29.920
310.38	30.386
310.75	29.783
311.12	30.126
311.48	29.278
311.85	29.921
312.22	28.240
312.58	29.275
312.95	30.249
313.31	29.844
313.68	30.248
314.05	30.057
314.41	29.587
314.78	31.120
315.14	30.370
315.51	30.542
315.87	32.252
316.24	31.405
316.61	31.781
316.97	31.944
317.34	31.194
317.70	33.452
318.07	34.694
318.43	33.424
318.80	33.421
319.16	33.775
319.53	35.484
319.89	33.514
320.26	36.784
320.62	36.701
320.99	38.178
321.35	36.389
321.72	36.670
322.08	39.483
322.45	39.963
322.81	40.388
323.18	39.982
323.54	43.051
323.91	43.180
324.27	43.654
324.64	42.073
325.00	42.870
325.37	43.174
325.73	44.444
326.10	44.323
326.46	44.983
326.83	46.440
327.19	46.016
327.56	47.623
327.92	47.627
328.29	49.499
328.65	48.554
329.01	48.813
329.38	50.957
329.74	49.957
330.11	50.586
330.47	48.698
330.84	50.993
331.20	50.213
331.56	52.536
331.93	52.541
332.29	52.997
332.66	51.017
333.02	50.999
333.38	52.632
333.75	52.645
334.11	53.993
334.48	53.705
334.84	52.650
335.20	52.573
335.57	51.871
335.93	51.804
336.29	51.926
336.66	53.333
337.02	53.043
337.38	51.001
337.75	51.335
338.11	51.153
338.47	50.342
338.84	52.663
339.20	52.293
339.56	52.560
339.93	52.636
340.29	52.434
340.65	52.951
341.02	52.579
341.38	52.196
341.74	52.773
342.11	51.032
342.47	53.640
342.83	52.369
343.20	52.792
343.56	52.984
343.92	51.259
344.28	51.867
344.65	52.408
345.01	50.686
345.37	52.961
345.73	53.595
346.10	51.284
346.46	52.033
346.82	52.247
347.19	50.870
347.55	52.666
347.91	50.351
348.27	51.420
348.63	51.042
349.00	52.123
349.36	51.099
349.72	52.436
350.08	51.638
350.45	51.919
350.81	51.408
351.17	50.269
351.53	52.317
351.89	49.722
352.26	49.266
352.62	50.620
352.98	50.719
353.34	51.127
353.70	50.857
354.07	51.529
354.43	50.700
354.79	52.244
355.15	49.845
355.51	49.962
355.87	50.586
356.24	50.803
356.60	49.805
356.96	50.422
357.32	50.697
357.68	50.038
358.04	50.659
358.40	50.698
358.77	50.076
359.13	51.284
359.49	48.902
359.85	49.962
360.21	50.964
360.57	50.418
360.93	50.152
361.29	50.111
361.66	50.190
362.02	49.222
362.38	49.631
362.74	48.803
363.10	50.470
363.46	49.928
363.82	50.185
364.18	50.761
364.54	50.182
364.90	48.780
365.26	48.620
365.62	50.142
365.98	49.039
366.35	50.213
366.71	49.929
367.07	50.461
367.43	49.965
367.79	50.035
368.15	49.578
368.51	49.297
368.87	50.174
369.23	48.541
369.59	49.190
369.95	49.710
370.31	50.349
370.67	48.371
371.03	50.037
371.39	48.332
371.75	48.357
372.11	48.504
372.47	50.397
372.83	48.474
373.19	48.921
373.55	49.639
373.91	47.808
374.27	48.548
374.63	49.289
374.99	49.164
375.35	48.493
375.71	47.418
376.07	49.212
376.42	48.864
376.78	48.613
377.14	49.695
377.50	49.348
377.86	49.137
378.22	48.357
378.58	49.748
378.94	48.750
379.30	48.595
379.66	48.644
380.02	48.652
380.38	49.518
380.74	49.731
381.09	48.311
381.45	49.335
381.81	48.983
382.17	47.448
382.53	48.431
382.89	47.648
383.25	47.531
383.61	48.123
383.97	48.062
384.32	47.763
384.68	48.365
385.04	46.426
385.40	47.447
385.76	48.479
386.12	48.612
386.48	48.401
386.83	47.184
387.19	49.537
387.55	48.069
387.91	45.818
388.27	46.917
388.62	48.190
388.98	47.434
389.34	48.496
389.70	46.459
390.06	46.688
390.42	48.711
390.77	47.982
391.13	46.654
391.49	47.059
391.85	45.751
392.20	46.992
392.56	46.667
392.92	46.343
393.28	46.659
393.64	49.113
393.99	45.716
394.35	46.235
394.71	45.705
395.07	46.352
395.42	46.191
395.78	45.946
396.14	45.847
396.50	46.607
396.85	46.718
397.21	45.693
397.57	44.161
397.92	45.449
398.28	46.531
398.64	46.448
399.00	45.703
399.35	46.481
399.71	45.661
400.07	45.241
400.42	46.395
400.78	44.894
401.14	45.616
401.49	45.716
401.85	44.902
402.21	45.635
402.57	45.310
402.92	45.494
403.28	45.904
403.63	44.761
403.99	45.425
404.35	45.324
404.70	44.471
405.06	45.449
405.42	44.410
405.77	44.643
406.13	44.057
406.49	44.578
406.84	45.360
407.20	43.398
407.55	44.740
407.91	43.614
408.27	42.857
408.62	44.260
408.98	42.663
409.34	43.874
409.69	45.289
410.05	44.341
410.40	43.092
410.76	44.525
411.11	44.590
411.47	44.326
411.83	43.169
412.18	42.758
412.54	43.734
412.89	42.947
413.25	42.714
413.60	42.947
413.96	42.884
414.31	44.205
414.67	43.175
415.03	42.490
415.38	42.668
415.74	43.990
416.09	44.349
416.45	44.293
416.80	43.356
417.16	43.590
417.51	43.336
417.87	44.577
418.22	42.663
418.58	43.627
418.93	43.628
419.29	44.356
419.64	42.048
420.00	43.429
420.35	43.873
420.71	43.571
421.06	42.620
421.42	43.370
421.77	42.775
422.12	43.897
422.48	42.694
422.83	44.300
423.19	43.473
423.54	44.287
423.90	43.171
424.25	44.079
424.61	43.438
424.96	43.702
425.31	43.466
425.67	45.032
426.02	44.935
426.38	44.154
426.73	44.594
427.09	44.028
427.44	43.453
427.79	44.299
428.15	43.425
428.50	43.021
428.85	43.788
429.21	43.106
429.56	43.836
429.92	44.977
430.27	43.303
430.62	44.281
430.98	43.998
431.33	44.224
431.68	43.930
432.04	44.451
432.39	44.284
432.74	44.206
433.10	44.160
433.45	42.722
433.80	43.966
434.16	43.037
434.51	44.348
434.86	44.994
435.22	43.690
435.57	44.226
435.92	43.969
436.28	43.363
436.63	44.573
436.98	44.888
437.34	44.750
437.69	44.805
438.04	42.784
438.39	44.645
438.75	44.756
439.10	45.691
439.45	44.007
439.81	45.074
440.16	44.870
440.51	43.282
440.86	43.687
441.22	44.521
441.57	44.143
441.92	45.153
442.27	44.048
442.63	44.241
442.98	44.502
443.33	43.397
443.68	44.333
444.03	44.163
444.39	44.175
444.74	44.230
445.09	43.007
445.44	44.394
445.79	44.605
446.15	44.315
446.50	43.888
446.85	45.591
447.20	43.387
447.55	45.663
447.91	44.326
448.26	44.025
448.61	44.649
448.96	45.216
449.31	44.660
449.66	44.824
450.02	43.491
450.37	44.536
450.72	43.341
451.07	44.263
451.42	42.982
451.77	44.918
452.12	43.316
452.47	45.384
452.83	44.340
453.18	43.348
453.53	44.010
453.88	45.120
454.23	45.117
454.58	42.770
454.93	44.195
455.28	43.674
455.63	43.356
455.98	43.092
456.34	42.975
456.69	44.856
457.04	43.467
457.39	43.355
457.74	43.268
458.09	43.661
458.44	43.302
458.79	42.889
459.14	42.921
459.49	44.146
459.84	42.672
460.19	43.277
460.54	43.978
460.89	43.187
461.24	42.910
461.59	43.901
461.94	43.932
462.29	43.137
462.64	42.612
462.99	44.064
463.34	44.751
463.69	43.943
464.04	43.037
464.39	43.014
464.74	42.936
465.09	42.901
465.44	42.424
465.79	44.163
466.14	43.444
466.49	44.223
466.84	43.276
467.19	42.930
467.54	43.487
467.89	44.249
468.24	44.561
468.59	42.957
468.94	43.040
469.29	43.424
469.64	42.608
469.99	43.586
470.34	42.481
470.68	43.717
471.03	42.384
471.38	42.003
471.73	42.593
472.08	43.436
472.43	43.602
472.78	43.340
473.13	42.150
473.48	43.183
473.83	43.252
474.17	43.294
474.52	42.524
474.87	42.823
475.22	42.271
475.57	42.554
475.92	43.075
476.27	42.890
476.61	42.582
476.96	43.061
477.31	43.581
477.66	42.881
478.01	42.308
478.36	41.090
478.70	42.696
479.05	42.786
479.40	42.330
479.75	42.295
480.10	42.478
480.45	41.687
480.79	42.708
481.14	41.895
481.49	42.822
481.84	41.706
482.19	41.640
482.53	41.810
482.88	41.850
483.23	42.348
483.58	41.871
483.92	40.759
484.27	41.034
484.62	41.367
484.97	41.352
485.31	41.491
485.66	39.633
486.01	40.169
486.36	40.523
486.70	41.173
487.05	41.984
487.40	42.512
487.75	42.865
488.09	42.133
488.44	42.201
488.79	42.657
489.13	40.795
489.48	41.556
489.83	41.402
490.17	41.716
490.52	42.029
490.87	40.936
491.22	41.592
491.56	42.166
491.91	41.095
492.26	42.118
492.60	41.991
492.95	41.740
493.30	40.213
493.64	40.288
493.99	41.449
494.34	41.233
494.68	41.527
495.03	41.502
495.37	40.973
495.72	40.902
496.07	41.744
496.41	38.980
496.76	41.362
497.11	41.033
497.45	41.391
497.80	41.646
498.14	41.008
498.49	41.402
498.84	40.992
499.18	41.015
499.53	39.833
499.87	39.495
500.22	42.160
500.56	39.970
500.91	41.751
501.26	39.901
501.60	40.637
501.95	40.776
502.29	41.019
502.64	41.225
502.98	40.703
503.33	40.681
503.67	41.431
504.02	39.657
504.36	40.416
504.71	40.447
505.06	41.467
505.40	40.515
505.75	41.099
506.09	40.317
506.44	40.071
506.78	40.934
507.13	40.696
507.47	40.350
507.82	39.665
508.16	40.422
508.51	40.186
508.85	39.762
509.19	39.524
509.54	40.590
509.88	39.032
510.23	39.474
510.57	40.095
510.92	41.541
511.26	40.979
511.61	40.285
511.95	39.581
512.30	39.645
512.64	41.203
512.98	39.778
513.33	39.606
513.67	40.829
514.02	40.137
514.36	39.438
514.70	40.647
515.05	41.018
515.39	40.035
515.74	39.846
516.08	39.174
516.42	38.825
516.77	39.074
517.11	39.624
517.46	41.297
517.80	41.707
518.14	38.763
518.49	40.084
518.83	40.036
519.17	39.819
519.52	40.048
519.86	38.919
520.20	39.175
520.55	39.739
520.89	39.975
521.23	41.538
521.58	39.633
521.92	38.592
522.26	39.688
522.61	39.819
522.95	38.990
523.29	39.429
523.64	40.432
523.98	40.216
524.32	38.500
524.66	39.740
525.01	39.581
525.35	39.895
525.69	39.563
526.04	38.697
526.38	38.878
526.72	38.462
527.06	38.620
527.41	38.915
527.75	38.318
528.09	40.027
528.43	39.688
528.78	38.953
529.12	38.551
529.46	38.196
529.80	39.223
530.15	38.674
530.49	39.084
530.83	39.607
531.17	39.932
531.51	38.166
531.86	38.889
532.20	39.145
532.54	38.759
532.88	38.462
533.22	38.923
533.57	38.477
533.91	39.290
534.25	39.844
534.59	38.288
534.93	38.457
535.27	37.898
535.62	38.947
535.96	39.232
536.30	38.630
536.64	39.029
536.98	37.281
537.32	39.288
537.66	38.787
538.01	38.904
538.35	36.948
538.69	37.993
539.03	37.450
539.37	37.961
539.71	38.267
540.05	37.112
540.39	38.816
540.73	38.059
541.07	38.095
541.42	37.845
541.76	38.227
542.10	37.779
542.44	37.006
542.78	37.613
543.12	37.332
543.46	38.148
543.80	37.475
544.14	38.472
544.48	36.961
544.82	38.198
545.16	37.255
545.50	38.488
545.84	38.640
546.18	38.149
546.52	37.474
546.86	36.678
547.20	37.241
547.54	38.385
547.88	38.529
548.22	37.134
548.56	38.492
548.90	35.995
549.24	38.125
549.58	36.655
549.92	37.638
550.26	38.524
550.60	37.387
550.94	36.418
551.28	36.260
551.62	36.617
551.96	37.042
552.30	37.263
552.64	37.076
552.98	37.500
553.32	36.482
553.66	37.564
554.00	37.077
554.34	36.996
554.68	37.211
555.02	36.826
555.36	38.427
555.69	36.708
556.03	36.383
556.37	36.558
556.71	36.580
557.05	37.122
557.39	38.659
557.73	36.914
558.07	37.001
558.41	37.774
558.75	37.644
559.08	36.327
559.42	37.215
559.76	36.009
560.10	35.665
560.44	37.509
560.78	36.547
561.12	36.931
561.45	35.578
561.79	36.314
562.13	37.060
562.47	37.500
562.81	36.797
563.15	36.402
563.48	36.820
563.82	36.594
564.16	37.779
564.50	36.906
564.84	36.014
565.17	36.887
565.51	36.832
565.85	35.643
566.19	36.093
566.52	35.976
566.86	35.019
567.20	36.530
567.54	36.500
567.88	35.834
568.21	35.796
568.55	35.159
568.89	35.145
569.23	34.785
569.56	35.378
569.90	35.084
570.24	34.513
570.57	33.913
570.91	34.055
571.25	34.713
571.59	34.065
571.92	34.497
572.26	35.105
572.60	34.493
572.93	35.052
573.27	33.981
573.61	34.984
573.95	34.241
574.28	34.622
574.62	34.189
574.96	34.547
575.29	34.855
575.63	34.405
575.97	35.109
576.30	33.921
576.64	34.425
576.98	34.561
577.31	34.513
577.65	34.460
577.98	34.244
578.32	33.694
578.66	34.426
578.99	34.718
579.33	34.433
579.67	34.572
580.00	34.236
580.34	34.586
580.67	34.297
581.01	34.352
581.35	34.064
581.68	34.034
582.02	33.820
582.35	34.289
582.69	34.338
583.02	33.706
583.36	34.393
583.70	34.847
584.03	34.484
584.37	34.235
584.70	34.221
585.04	34.191
585.37	34.265
585.71	34.178
586.04	34.035
586.38	33.675
586.72	34.673
587.05	34.800
587.39	33.913
587.72	34.255
588.06	34.364
588.39	34.201
588.73	34.717
589.06	34.821
589.40	35.191
589.73	34.280
590.07	35.108
590.40	34.419
590.73	35.292
591.07	35.395
591.40	34.261
591.74	35.394
592.07	34.550
592.41	34.964
592.74	33.179
593.08	34.154
593.41	34.361
593.75	33.430
594.08	33.851
594.41	34.260
594.75	35.045
595.08	34.391
595.42	34.216
595.75	34.201
596.09	34.065
596.42	33.824
596.75	34.533
597.09	34.895
597.42	34.948
597.75	34.889
598.09	34.791
598.42	34.452
598.76	33.795
599.09	34.414
599.42	34.101
599.76	34.172
600.09	33.773
600.42	34.275
600.76	33.962
601.09	34.087
601.42	34.731
601.76	33.822
602.09	34.860
602.42	34.379
602.76	33.851
603.09	34.333
603.42	34.106
603.76	33.866
604.09	33.360
604.42	34.031
604.76	33.959
605.09	34.391
605.42	34.278
605.75	33.191
606.09	33.609
606.42	33.832
606.75	34.242
607.09	34.441
607.42	33.888
607.75	32.954
608.08	34.896
608.42	34.067
608.75	34.353
609.08	34.052
609.41	33.780
609.75	34.039
610.08	33.679
610.41	34.111
610.74	33.494
611.07	35.170
611.41	35.056
611.74	34.679
612.07	33.038
612.40	35.027
612.73	34.742
613.07	33.592
613.40	34.912
613.73	33.640
614.06	34.384
614.39	33.963
614.72	34.758
615.06	34.389
615.39	33.885
615.72	33.585
616.05	34.403
616.38	33.792
616.71	33.833
617.05	34.705
617.38	33.580
617.71	33.395
618.04	34.552
618.37	34.826
618.70	34.217
619.03	33.608
619.36	34.093
619.69	34.649
620.03	33.993
620.36	32.707
620.69	33.904
621.02	33.538
621.35	34.178
621.68	35.045
622.01	34.142
622.34	34.814
622.67	33.908
623.00	34.878
623.33	34.181
623.66	34.424
623.99	33.533
624.32	34.336
624.65	33.531
624.99	33.431
625.32	33.906
625.65	33.411
625.98	34.281
626.31	34.367
626.64	35.426
626.97	34.775
627.30	35.500
627.63	33.651
627.96	32.381
628.29	35.163
628.62	35.590
628.95	35.170
629.28	34.581
629.61	34.545
629.94	33.366
630.26	34.483
630.59	33.666
630.92	33.835
631.25	33.574
631.58	35.011
631.91	33.298
632.24	33.699
