SpectraSuite Data File
++++++++++++++++++++++++++++++++++++
Date: Wed May 13 21:07:22 PDT 2015
User: schluterlab
Dark Spectrum Present: Yes
Reference Spectrum Present: Yes
Number of Sampled Component Spectra: 1
Spectrometers: USB2E3373
Integration Time (usec): 3000 (USB2E3373)
Spectra Averaged: 3 (USB2E3373)
Boxcar Smoothing: 0 (USB2E3373)
Correct for Electrical Dark: No (USB2E3373)
Strobe/Lamp Enabled: No (USB2E3373)
Correct for Detector Non-linearity: No (USB2E3373)
Correct for Stray Light: No (USB2E3373)
Number of Pixels in Processed Spectrum: 2048
>>>>>Begin Processed Spectral Data<<<<<
178.53	0.000
178.91	550.000
179.29	200.000
179.67	-1150.000
180.04	-166.667
180.42	260.000
180.80	800.000
181.18	216.667
181.56	-225.000
181.94	-200.000
182.31	0.000
182.69	169.231
183.07	-180.000
183.45	183.333
183.83	166.667
184.20	228.571
184.58	-133.333
184.96	400.000
185.34	242.857
185.72	0.000
186.09	300.000
186.47	-40.000
186.85	100.000
187.23	-100.000
187.61	700.000
187.98	600.000
188.36	-50.000
188.74	0.000
189.12	-9.091
189.49	10.000
189.87	116.667
190.25	300.000
190.63	200.000
191.00	-40.000
191.38	160.000
191.76	200.000
192.14	175.000
192.51	26.316
192.89	333.333
193.27	350.000
193.65	-20.000
194.02	81.818
194.40	210.000
194.78	-400.000
195.15	260.000
195.53	-40.000
195.91	-50.000
196.29	-233.333
196.66	0.000
197.04	100.000
197.42	-80.000
197.79	60.000
198.17	-112.500
198.55	-200.000
198.92	150.000
199.30	166.667
199.68	-60.000
200.05	200.000
200.43	116.667
200.81	-900.000
201.18	-240.000
201.56	-50.000
201.94	625.000
202.31	-13.043
202.69	-71.429
203.07	-466.667
203.44	-100.000
203.82	-333.333
204.19	-80.000
204.57	0.000
204.95	-66.667
205.32	0.000
205.70	-300.000
206.08	-125.000
206.45	33.333
206.83	250.000
207.20	-300.000
207.58	10.000
207.96	-900.000
208.33	-157.143
208.71	-1200.000
209.08	175.000
209.46	350.000
209.84	0.000
210.21	170.000
210.59	1400.000
210.96	320.000
211.34	500.000
211.71	-750.000
212.09	-16.667
212.46	-110.000
212.84	66.667
213.22	75.000
213.59	-300.000
213.97	100.000
214.34	-550.000
214.72	30.769
215.09	200.000
215.47	177.778
215.84	600.000
216.22	-12.500
216.59	-150.000
216.97	666.667
217.34	100.000
217.72	0.000
218.09	566.667
218.47	-200.000
218.84	-142.857
219.22	-87.500
219.59	-66.667
219.97	-75.000
220.34	0.000
220.72	-60.000
221.09	0.000
221.47	-133.333
221.84	300.000
222.22	0.000
222.59	700.000
222.97	-133.333
223.34	-16.667
223.72	-1000.000
224.09	-200.000
224.46	-54.545
224.84	75.000
225.21	-71.429
225.59	-75.000
225.96	-83.333
226.34	-110.000
226.71	-200.000
227.08	150.000
227.46	-137.500
227.83	-100.000
228.21	25.000
228.58	-375.000
228.95	-70.588
229.33	25.000
229.70	12.500
230.08	-15.385
230.45	-125.000
230.82	-83.333
231.20	185.714
231.57	-125.000
231.95	900.000
232.32	8.333
232.69	0.000
233.07	-1400.000
233.44	-4.348
233.81	-550.000
234.19	25.000
234.56	-113.333
234.93	26.667
235.31	10.526
235.68	-76.923
236.05	38.462
236.43	77.778
236.80	6.061
237.17	-126.667
237.55	-23.529
237.92	-37.931
238.29	-11.111
238.67	-8.333
239.04	-9.677
239.41	-6.383
239.79	12.766
240.16	-30.233
240.53	3.571
240.91	14.286
241.28	8.929
241.65	6.452
242.02	9.211
242.40	7.246
242.77	-1.449
243.14	2.564
243.51	2.128
243.89	11.538
244.26	16.038
244.63	0.000
245.00	10.417
245.38	0.840
245.75	0.000
246.12	7.519
246.49	-5.691
246.87	-7.563
247.24	8.784
247.61	3.974
247.98	8.333
248.36	8.284
248.73	9.551
249.10	11.616
249.47	7.527
249.84	4.211
250.22	11.443
250.59	6.075
250.96	6.364
251.33	1.435
251.70	14.226
252.08	7.950
252.45	8.642
252.82	9.125
253.19	5.837
253.56	7.554
253.94	10.676
254.31	9.155
254.68	7.718
255.05	6.931
255.42	8.042
255.79	8.896
256.16	8.833
256.54	10.159
256.91	5.063
257.28	10.063
257.65	5.732
258.02	5.572
258.39	9.357
258.76	6.686
259.14	8.239
259.51	7.865
259.88	8.130
260.25	6.111
260.62	6.461
260.99	14.854
261.36	8.290
261.73	8.642
262.10	8.397
262.47	5.679
262.85	8.955
263.22	9.744
263.59	8.571
263.96	6.326
264.33	6.250
264.70	9.070
265.07	7.870
265.44	11.264
265.81	10.984
266.18	10.251
266.55	8.079
266.92	7.627
267.29	8.642
267.66	8.917
268.03	10.288
268.40	7.415
268.77	8.884
269.14	8.571
269.51	9.035
269.88	7.739
270.25	8.686
270.62	11.885
270.99	9.055
271.36	6.944
271.73	8.635
272.10	8.000
272.47	9.021
272.84	10.630
273.21	7.828
273.58	8.811
273.95	6.981
274.32	8.022
274.69	11.475
275.06	9.717
275.43	9.793
275.80	8.511
276.17	8.471
276.54	9.769
276.91	6.620
277.28	7.581
277.65	8.566
278.02	8.750
278.39	5.861
278.76	10.702
279.13	8.748
279.50	7.414
279.87	8.333
280.23	7.928
280.60	6.401
280.97	8.279
281.34	10.252
281.71	7.805
282.08	8.547
282.45	9.180
282.82	9.744
283.19	11.128
283.56	7.656
283.92	8.563
284.29	9.204
284.66	6.260
285.03	6.840
285.40	9.517
285.77	8.859
286.14	9.271
286.51	9.595
286.87	7.692
287.24	8.997
287.61	7.380
287.98	8.235
288.35	7.004
288.72	8.895
289.08	9.687
289.45	7.489
289.82	8.775
290.19	8.415
290.56	8.381
290.93	8.840
291.29	9.302
291.66	8.060
292.03	8.174
292.40	7.537
292.77	8.166
293.13	8.368
293.50	8.366
293.87	8.667
294.24	7.672
294.60	8.453
294.97	8.598
295.34	5.937
295.71	5.256
296.08	7.592
296.44	6.760
296.81	7.308
297.18	7.875
297.55	7.311
297.91	7.578
298.28	6.901
298.65	6.404
299.02	9.280
299.38	8.098
299.75	6.851
300.12	6.628
300.48	5.731
300.85	7.621
301.22	6.620
301.59	7.394
301.95	6.156
302.32	7.001
302.69	5.085
303.05	6.091
303.42	7.159
303.79	7.571
304.15	6.243
304.52	7.957
304.89	7.309
305.25	6.696
305.62	7.267
305.99	6.746
306.35	8.046
306.72	8.037
307.09	6.778
307.45	7.242
307.82	7.263
308.19	5.747
308.55	6.755
308.92	8.841
309.29	7.708
309.65	7.892
310.02	7.157
310.38	7.114
310.75	7.692
311.12	7.483
311.48	8.408
311.85	7.579
312.22	8.897
312.58	7.150
312.95	9.055
313.31	9.917
313.68	8.779
314.05	9.924
314.41	10.663
314.78	10.911
315.14	9.722
315.51	10.847
315.87	12.234
316.24	11.662
316.61	11.689
316.97	12.222
317.34	12.567
317.70	16.057
318.07	14.641
318.43	14.815
318.80	16.318
319.16	14.943
319.53	16.039
319.89	17.164
320.26	18.577
320.62	19.370
320.99	19.574
321.35	19.083
321.72	20.885
322.08	21.863
322.45	23.867
322.81	24.769
323.18	24.597
323.54	26.444
323.91	27.552
324.27	27.453
324.64	28.659
325.00	29.484
325.37	30.119
325.73	30.135
326.10	32.548
326.46	33.445
326.83	33.495
327.19	36.260
327.56	35.939
327.92	36.766
328.29	39.065
328.65	40.841
329.01	40.633
329.38	41.826
329.74	40.858
330.11	41.930
330.47	40.625
330.84	43.953
331.20	43.040
331.56	44.112
331.93	44.272
332.29	45.352
332.66	43.644
333.02	45.699
333.38	45.877
333.75	46.331
334.11	47.222
334.48	47.864
334.84	45.936
335.20	46.312
335.57	46.475
335.93	47.423
336.29	47.811
336.66	47.692
337.02	47.478
337.38	46.562
337.75	47.804
338.11	47.908
338.47	47.003
338.84	46.993
339.20	47.972
339.56	48.294
339.93	48.574
340.29	47.395
340.65	48.503
341.02	48.918
341.38	50.084
341.74	46.975
342.11	46.491
342.47	47.866
342.83	47.712
343.20	47.800
343.56	48.242
343.92	46.629
344.28	46.997
344.65	48.980
345.01	47.296
345.37	49.095
345.73	49.265
346.10	47.833
346.46	48.618
346.82	48.154
347.19	48.180
347.55	48.869
347.91	47.389
348.27	47.713
348.63	48.157
349.00	48.978
349.36	47.724
349.72	48.415
350.08	48.674
350.45	49.178
350.81	49.609
351.17	48.576
351.53	48.940
351.89	47.657
352.26	46.564
352.62	46.822
352.98	48.802
353.34	48.792
353.70	48.676
354.07	47.608
354.43	48.134
354.79	49.359
355.15	48.835
355.51	47.836
355.87	48.710
356.24	49.759
356.60	47.928
356.96	48.734
357.32	48.607
357.68	47.823
358.04	50.039
358.40	49.225
358.77	48.242
359.13	50.117
359.49	48.600
359.85	49.431
360.21	49.268
360.57	48.517
360.93	48.938
361.29	49.741
361.66	50.038
362.02	48.703
362.38	48.744
362.74	48.368
363.10	48.301
363.46	47.983
363.82	50.333
364.18	48.296
364.54	49.234
364.90	49.756
365.26	48.549
365.62	49.006
365.98	48.612
366.35	49.716
366.71	48.716
367.07	49.185
367.43	48.990
367.79	49.201
368.15	48.453
368.51	47.679
368.87	50.733
369.23	47.616
369.59	50.106
369.95	49.492
370.31	48.187
370.67	49.385
371.03	51.299
371.39	49.468
371.75	49.357
372.11	49.715
372.47	49.315
372.83	49.584
373.19	50.144
373.55	51.590
373.91	48.798
374.27	48.479
374.63	49.431
374.99	49.443
375.35	50.479
375.71	49.117
376.07	50.377
376.42	50.401
376.78	50.859
377.14	51.254
377.50	50.717
377.86	51.062
378.22	49.874
378.58	49.685
378.94	50.813
379.30	50.094
379.66	50.863
380.02	49.571
380.38	50.723
380.74	50.747
381.09	50.362
381.45	50.967
381.81	50.277
382.17	50.914
382.53	51.200
382.89	49.940
383.25	51.914
383.61	50.847
383.97	50.250
384.32	49.275
384.68	51.450
385.04	51.436
385.40	51.806
385.76	50.791
386.12	51.323
386.48	50.408
386.83	50.688
387.19	52.190
387.55	50.889
387.91	52.522
388.27	50.801
388.62	51.061
388.98	51.815
389.34	50.564
389.70	51.465
390.06	51.500
390.42	51.546
390.77	52.402
391.13	53.093
391.49	51.360
391.85	52.204
392.20	51.880
392.56	52.952
392.92	51.902
393.28	51.482
393.64	53.028
393.99	51.040
394.35	52.716
394.71	52.115
395.07	51.006
395.42	52.956
395.78	52.638
396.14	52.188
396.50	54.217
396.85	53.027
397.21	52.060
397.57	51.491
397.92	52.395
398.28	52.510
398.64	53.613
399.00	51.842
399.35	52.894
399.71	51.951
400.07	52.831
400.42	53.041
400.78	51.118
401.14	51.686
401.49	52.546
401.85	52.150
402.21	53.498
402.57	52.422
402.92	53.004
403.28	53.158
403.63	52.573
403.99	53.423
404.35	52.244
404.70	51.239
405.06	52.496
405.42	53.706
405.77	52.074
406.13	52.857
406.49	52.786
406.84	54.335
407.20	51.273
407.55	53.636
407.91	52.482
408.27	52.090
408.62	53.100
408.98	51.665
409.34	53.527
409.69	54.581
410.05	53.918
410.40	52.161
410.76	53.791
411.11	52.985
411.47	53.351
411.83	53.837
412.18	53.526
412.54	52.945
412.89	53.480
413.25	52.979
413.60	53.354
413.96	52.310
414.31	53.761
414.67	52.889
415.03	54.939
415.38	53.831
415.74	52.827
416.09	53.734
416.45	54.956
416.80	53.423
417.16	53.036
417.51	53.717
417.87	54.696
418.22	55.979
418.58	54.008
418.93	54.488
419.29	55.710
419.64	54.262
420.00	56.063
420.35	55.170
420.71	54.296
421.06	55.412
421.42	56.265
421.77	55.318
422.12	55.702
422.48	54.744
422.83	55.523
423.19	54.744
423.54	56.537
423.90	56.413
424.25	55.748
424.61	56.500
424.96	56.830
425.31	54.739
425.67	57.319
426.02	57.892
426.38	57.400
426.73	56.261
427.09	56.410
427.44	56.254
427.79	55.879
428.15	55.657
428.50	56.616
428.85	56.458
429.21	57.625
429.56	57.705
429.92	57.522
430.27	57.771
430.62	57.555
430.98	57.271
431.33	57.872
431.68	58.040
432.04	58.930
432.39	58.199
432.74	58.492
433.10	58.454
433.45	58.817
433.80	59.655
434.16	57.619
434.51	57.935
434.86	59.658
435.22	59.536
435.57	58.292
435.92	61.098
436.28	57.477
436.63	59.584
436.98	60.635
437.34	61.294
437.69	60.153
438.04	60.158
438.39	62.640
438.75	61.800
439.10	60.844
439.45	61.380
439.81	61.207
440.16	61.971
440.51	60.820
440.86	62.952
441.22	62.020
441.57	61.768
441.92	62.364
442.27	62.121
442.63	62.540
442.98	62.616
443.33	62.585
443.68	61.465
444.03	62.891
444.39	63.609
444.74	63.722
445.09	63.656
445.44	63.662
445.79	64.378
446.15	63.783
446.50	63.106
446.85	64.564
447.20	64.767
447.55	64.242
447.91	65.843
448.26	64.951
448.61	65.478
448.96	65.034
449.31	65.391
449.66	65.182
450.02	66.117
450.37	65.452
450.72	66.533
451.07	66.082
451.42	64.566
451.77	67.255
452.12	67.439
452.47	67.269
452.83	65.212
453.18	67.409
453.53	66.835
453.88	67.048
454.23	67.738
454.58	67.402
454.93	67.094
455.28	67.694
455.63	67.623
455.98	68.716
456.34	66.116
456.69	69.073
457.04	67.368
457.39	68.370
457.74	68.462
458.09	67.891
458.44	67.803
458.79	67.710
459.14	67.584
459.49	68.293
459.84	67.193
460.19	67.947
460.54	68.552
460.89	69.595
461.24	69.297
461.59	69.988
461.94	69.469
462.29	68.627
462.64	70.317
462.99	68.947
463.34	69.337
463.69	70.296
464.04	68.427
464.39	70.531
464.74	69.472
465.09	69.870
465.44	68.799
465.79	70.443
466.14	70.353
466.49	70.968
466.84	69.874
467.19	70.064
467.54	71.030
467.89	70.899
468.24	69.883
468.59	69.853
468.94	70.817
469.29	71.249
469.64	70.572
469.99	71.172
470.34	72.353
470.68	71.152
471.03	71.016
471.38	70.723
471.73	71.879
472.08	72.096
472.43	72.032
472.78	70.994
473.13	70.646
473.48	71.363
473.83	71.751
474.17	72.005
474.52	72.751
474.87	71.713
475.22	72.041
475.57	71.500
475.92	71.865
476.27	71.096
476.61	71.348
476.96	73.044
477.31	72.168
477.66	73.785
478.01	71.758
478.36	72.807
478.70	73.201
479.05	73.474
479.40	71.035
479.75	72.635
480.10	72.463
480.45	71.800
480.79	72.125
481.14	73.658
481.49	74.544
481.84	72.385
482.19	71.607
482.53	73.000
482.88	72.531
483.23	71.655
483.58	72.732
483.92	71.887
484.27	73.056
484.62	71.949
484.97	72.791
485.31	71.673
485.66	67.429
486.01	68.346
486.36	68.641
486.70	69.987
487.05	71.015
487.40	72.333
487.75	73.328
488.09	72.599
488.44	73.361
488.79	74.148
489.13	73.161
489.48	73.279
489.83	73.426
490.17	73.581
490.52	75.175
490.87	72.833
491.22	73.575
491.56	75.228
491.91	73.308
492.26	74.565
492.60	72.968
492.95	74.538
493.30	72.674
493.64	73.094
493.99	73.768
494.34	73.025
494.68	73.986
495.03	73.370
495.37	73.674
495.72	74.637
496.07	74.915
496.41	72.906
496.76	73.949
497.11	73.239
497.45	74.708
497.80	75.669
498.14	75.164
498.49	73.525
498.84	74.798
499.18	73.668
499.53	74.495
499.87	73.265
500.22	75.311
500.56	74.072
500.91	75.402
501.26	73.547
501.60	74.020
501.95	73.646
502.29	74.175
502.64	75.072
502.98	73.410
503.33	74.599
503.67	74.099
504.02	74.265
504.36	74.393
504.71	73.984
505.06	73.612
505.40	75.155
505.75	74.924
506.09	73.735
506.44	73.589
506.78	74.048
507.13	74.948
507.47	73.913
507.82	72.789
508.16	74.776
508.51	74.122
508.85	74.235
509.19	76.772
509.54	76.032
509.88	75.269
510.23	74.158
510.57	75.636
510.92	74.892
511.26	76.513
511.61	76.290
511.95	75.303
512.30	76.346
512.64	76.334
512.98	74.792
513.33	76.113
513.67	75.866
514.02	75.428
514.36	76.292
514.70	76.212
515.05	76.712
515.39	75.354
515.74	76.377
516.08	75.752
516.42	74.366
516.77	75.688
517.11	74.662
517.46	77.191
517.80	77.119
518.14	77.281
518.49	75.166
518.83	75.477
519.17	76.145
519.52	78.528
519.86	77.110
520.20	75.622
520.55	76.368
520.89	76.534
521.23	78.782
521.58	76.043
521.92	76.367
522.26	76.513
522.61	77.052
522.95	77.461
523.29	77.270
523.64	77.177
523.98	77.891
524.32	75.047
524.66	77.143
525.01	76.999
525.35	78.012
525.69	77.601
526.04	76.221
526.38	75.590
526.72	76.134
527.06	75.564
527.41	76.175
527.75	75.768
528.09	76.515
528.43	77.476
528.78	75.194
529.12	78.072
529.46	75.112
529.80	76.440
530.15	76.384
530.49	76.752
530.83	76.777
531.17	78.014
531.51	75.118
531.86	74.458
532.20	75.741
532.54	76.345
532.88	76.174
533.22	76.094
533.57	75.629
533.91	75.226
534.25	74.870
534.59	74.196
534.93	74.362
535.27	74.204
535.62	75.066
535.96	74.496
536.30	75.066
536.64	73.958
536.98	74.212
537.32	74.448
537.66	75.458
538.01	74.757
538.35	73.964
538.69	73.779
539.03	72.550
539.37	73.105
539.71	74.488
540.05	73.414
540.39	73.778
540.73	74.092
541.07	73.946
541.42	73.603
541.76	72.801
542.10	73.460
542.44	73.666
542.78	73.768
543.12	74.191
543.46	73.255
543.80	72.369
544.14	74.673
544.48	72.595
544.82	72.226
545.16	72.819
545.50	72.856
545.84	72.931
546.18	72.020
546.52	71.136
546.86	73.428
547.20	72.480
547.54	73.695
547.88	72.065
548.22	71.336
548.56	72.248
548.90	72.936
549.24	72.569
549.58	72.740
549.92	75.935
550.26	72.915
550.60	74.099
550.94	72.687
551.28	72.218
551.62	73.008
551.96	71.303
552.30	70.597
552.64	71.257
552.98	73.153
553.32	71.593
553.66	72.634
554.00	71.346
554.34	72.161
554.68	72.856
555.02	71.781
555.36	73.601
555.69	70.867
556.03	70.979
556.37	71.053
556.71	69.937
557.05	71.661
557.39	71.590
557.73	72.920
558.07	71.364
558.41	70.931
558.75	71.517
559.08	71.933
559.42	72.227
559.76	69.190
560.10	72.329
560.44	72.292
560.78	70.935
561.12	71.058
561.45	69.388
561.79	70.220
562.13	70.605
562.47	71.000
562.81	70.707
563.15	68.414
563.48	68.066
563.82	69.973
564.16	69.194
564.50	69.335
564.84	69.662
565.17	67.748
565.51	70.455
565.85	68.021
566.19	69.139
566.52	68.152
566.86	66.877
567.20	67.807
567.54	65.458
567.88	65.342
568.21	64.965
568.55	65.936
568.89	64.855
569.23	65.124
569.56	63.538
569.90	64.417
570.24	62.924
570.57	61.992
570.91	62.184
571.25	61.497
571.59	61.425
571.92	61.807
572.26	61.835
572.60	62.180
572.93	61.731
573.27	60.310
573.61	61.589
573.95	60.709
574.28	60.815
574.62	60.084
574.96	60.113
575.29	60.231
575.63	60.011
575.97	61.304
576.30	59.802
576.64	60.152
576.98	59.939
577.31	59.165
577.65	59.642
577.98	59.094
578.32	58.745
578.66	58.763
578.99	59.249
579.33	59.845
579.67	59.572
580.00	59.155
580.34	59.428
580.67	60.020
581.01	58.862
581.35	58.756
581.68	57.524
582.02	57.604
582.35	58.471
582.69	58.203
583.02	58.384
583.36	58.327
583.70	58.789
584.03	60.286
584.37	59.344
584.70	58.402
585.04	58.889
585.37	58.299
585.71	57.598
586.04	57.845
586.38	57.459
586.72	58.078
587.05	59.109
587.39	59.272
587.72	57.580
588.06	58.413
588.39	58.494
588.73	59.116
589.06	59.198
589.40	58.617
589.73	58.211
590.07	59.679
590.40	59.031
590.73	60.170
591.07	59.549
591.40	59.087
591.74	59.582
592.07	59.197
592.41	59.631
592.74	57.948
593.08	56.889
593.41	57.868
593.75	56.944
594.08	57.651
594.41	58.611
594.75	58.096
595.08	58.476
595.42	57.194
595.75	57.267
596.09	58.353
596.42	58.088
596.75	58.754
597.09	58.508
597.42	57.739
597.75	58.000
598.09	58.015
598.42	58.434
598.76	57.053
599.09	57.103
599.42	56.042
599.76	56.252
600.09	55.497
600.42	56.573
600.76	56.504
601.09	55.895
601.42	55.978
601.76	54.633
602.09	56.627
602.42	56.583
602.76	56.124
603.09	55.893
603.42	55.138
603.76	55.807
604.09	55.534
604.42	54.751
604.76	55.478
605.09	56.230
605.42	56.995
605.75	55.118
606.09	54.305
606.42	54.904
606.75	56.017
607.09	55.496
607.42	55.210
607.75	53.611
608.08	55.095
608.42	55.530
608.75	55.805
609.08	55.414
609.41	55.340
609.75	55.724
610.08	54.931
610.41	55.928
610.74	55.197
611.07	54.309
611.41	55.169
611.74	55.280
612.07	54.508
612.40	54.919
612.73	55.159
613.07	54.712
613.40	55.947
613.73	54.280
614.06	54.174
614.39	53.530
614.72	54.858
615.06	55.167
615.39	53.477
615.72	53.348
616.05	55.293
616.38	55.670
616.71	54.709
617.05	55.897
617.38	54.344
617.71	53.860
618.04	53.626
618.37	54.637
618.70	54.204
619.03	53.677
619.36	55.089
619.69	54.240
620.03	54.912
620.36	54.697
620.69	54.318
621.02	54.692
621.35	55.519
621.68	53.953
622.01	55.178
622.34	55.353
622.67	55.912
623.00	55.015
623.33	54.375
623.66	53.606
623.99	54.014
624.32	52.898
624.65	54.451
624.99	53.564
625.32	54.369
625.65	53.876
625.98	56.003
626.31	53.633
626.64	56.492
626.97	55.536
627.30	54.833
627.63	53.460
627.96	51.342
628.29	54.512
628.62	54.642
628.95	56.012
629.28	55.369
629.61	54.545
629.94	55.899
630.26	54.089
630.59	54.745
630.92	53.916
631.25	53.759
631.58	55.675
631.91	54.189
632.24	55.324
632.57	53.444
632.90	56.009
633.23	56.235
633.56	55.036
633.89	55.861
634.22	56.066
634.55	55.298
634.88	53.922
635.20	57.375
635.53	57.106
635.86	54.615
636.19	52.978
636.52	54.268
636.85	52.835
