SpectraSuite Data File
++++++++++++++++++++++++++++++++++++
Date: Wed May 13 21:27:27 PDT 2015
User: schluterlab
Dark Spectrum Present: Yes
Reference Spectrum Present: Yes
Number of Sampled Component Spectra: 1
Spectrometers: USB2E3373
Integration Time (usec): 3000 (USB2E3373)
Spectra Averaged: 3 (USB2E3373)
Boxcar Smoothing: 0 (USB2E3373)
Correct for Electrical Dark: No (USB2E3373)
Strobe/Lamp Enabled: No (USB2E3373)
Correct for Detector Non-linearity: No (USB2E3373)
Correct for Stray Light: No (USB2E3373)
Number of Pixels in Processed Spectrum: 2048
>>>>>Begin Processed Spectral Data<<<<<
178.53	0.000
178.91	350.000
179.29	216.667
179.67	-850.000
180.04	-366.667
180.42	120.000
180.80	800.000
181.18	266.667
181.56	-425.000
181.94	-275.000
182.31	9.091
182.69	107.692
183.07	-220.000
183.45	300.000
183.83	155.556
184.20	200.000
184.58	-400.000
184.96	566.667
185.34	314.286
185.72	0.000
186.09	-500.000
186.47	-400.000
186.85	180.000
187.23	-350.000
187.61	200.000
187.98	1300.000
188.36	-25.000
188.74	0.000
189.12	9.091
189.49	20.000
189.87	141.667
190.25	340.000
190.63	1300.000
191.00	-140.000
191.38	140.000
191.76	375.000
192.14	133.333
192.51	10.526
192.89	500.000
193.27	250.000
193.65	-120.000
194.02	209.091
194.40	140.000
194.78	-800.000
195.15	200.000
195.53	-260.000
195.91	-25.000
196.29	66.667
196.66	0.000
197.04	500.000
197.42	-180.000
197.79	-10.000
198.17	-125.000
198.55	-366.667
198.92	375.000
199.30	-566.667
199.68	-30.000
200.05	50.000
200.43	350.000
200.81	-1800.000
201.18	-260.000
201.56	0.000
201.94	675.000
202.31	-34.783
202.69	-100.000
203.07	-366.667
203.44	-280.000
203.82	-466.667
204.19	-140.000
204.57	0.000
204.95	-150.000
205.32	0.000
205.70	-450.000
206.08	-250.000
206.45	-300.000
206.83	375.000
207.20	-400.000
207.58	-30.000
207.96	-2100.000
208.33	-128.571
208.71	-1600.000
209.08	187.500
209.46	525.000
209.84	0.000
210.21	170.000
210.59	1900.000
210.96	420.000
211.34	1100.000
211.71	-150.000
212.09	-333.333
212.46	-170.000
212.84	166.667
213.22	-50.000
213.59	-1000.000
213.97	-750.000
214.34	-900.000
214.72	7.692
215.09	137.500
215.47	122.222
215.84	750.000
216.22	-12.500
216.59	-650.000
216.97	466.667
217.34	188.889
217.72	0.000
218.09	266.667
218.47	-400.000
218.84	-42.857
219.22	-175.000
219.59	-333.333
219.97	-125.000
220.34	-137.500
220.72	-160.000
221.09	0.000
221.47	-83.333
221.84	200.000
222.22	0.000
222.59	1000.000
222.97	-233.333
223.34	-83.333
223.72	-300.000
224.09	-100.000
224.46	-109.091
224.84	-100.000
225.21	0.000
225.59	-225.000
225.96	-150.000
226.34	-60.000
226.71	-100.000
227.08	950.000
227.46	-100.000
227.83	-800.000
228.21	-6.250
228.58	-200.000
228.95	-29.412
229.33	6.250
229.70	-112.500
230.08	69.231
230.45	-162.500
230.82	-116.667
231.20	171.429
231.57	-275.000
231.95	1300.000
232.32	-16.667
232.69	11.765
233.07	-400.000
233.44	-8.696
233.81	-850.000
234.19	29.167
234.56	-20.000
234.93	-46.667
235.31	-5.263
235.68	-100.000
236.05	-53.846
236.43	5.556
236.80	-42.424
237.17	-60.000
237.55	-29.412
237.92	-10.345
238.29	-51.852
238.67	-2.778
239.04	0.000
239.41	-23.404
239.79	4.255
240.16	16.279
240.53	10.714
240.91	10.714
241.28	12.500
241.65	20.968
242.02	13.158
242.40	15.942
242.77	8.696
243.14	15.385
243.51	15.957
243.89	13.462
244.26	27.358
244.63	13.462
245.00	23.958
245.38	24.370
245.75	21.311
246.12	19.549
246.49	4.065
246.87	7.563
247.24	20.946
247.61	19.868
247.98	20.513
248.36	11.834
248.73	17.978
249.10	21.717
249.47	18.817
249.84	17.368
250.22	20.398
250.59	19.626
250.96	22.727
251.33	14.354
251.70	21.757
252.08	20.084
252.45	20.576
252.82	19.772
253.19	21.012
253.56	23.022
253.94	25.623
254.31	25.352
254.68	24.161
255.05	21.782
255.42	17.832
255.79	19.632
256.16	17.981
256.54	24.127
256.91	18.038
257.28	24.214
257.65	19.745
258.02	22.287
258.39	23.392
258.76	19.477
259.14	21.591
259.51	22.472
259.88	21.680
260.25	23.333
260.62	19.382
260.99	22.812
261.36	22.798
261.73	22.716
262.10	20.865
262.47	20.988
262.85	18.905
263.22	24.103
263.59	18.961
263.96	20.681
264.33	18.990
264.70	23.023
265.07	21.991
265.44	19.770
265.81	20.137
266.18	23.690
266.55	21.397
266.92	21.186
267.29	21.811
267.66	24.841
268.03	20.782
268.40	23.729
268.77	22.727
269.14	22.041
269.51	24.641
269.88	23.422
270.25	22.458
270.62	22.541
270.99	23.819
271.36	21.032
271.73	22.892
272.10	21.524
272.47	23.225
272.84	25.787
273.21	21.722
273.58	18.238
273.95	23.585
274.32	23.694
274.69	22.404
275.06	24.028
275.43	24.105
275.80	22.340
276.17	22.468
276.54	20.249
276.91	23.868
277.28	21.841
277.65	24.650
278.02	23.929
278.39	20.426
278.76	22.408
279.13	22.298
279.50	20.345
279.87	23.007
280.23	22.342
280.60	20.415
280.97	21.104
281.34	23.344
281.71	18.699
282.08	21.368
282.45	21.148
282.82	22.843
283.19	21.799
283.56	22.031
283.92	20.642
284.29	21.217
284.66	21.417
285.03	20.033
285.40	22.659
285.77	21.471
286.14	20.213
286.51	23.538
286.87	21.385
287.24	20.649
287.61	20.934
287.98	22.353
288.35	19.076
288.72	21.377
289.08	21.652
289.45	20.558
289.82	20.272
290.19	22.020
290.56	20.455
290.93	19.751
291.29	19.699
291.66	20.628
292.03	20.572
292.40	19.650
292.77	22.892
293.13	20.084
293.50	19.216
293.87	19.467
294.24	20.106
294.60	19.896
294.97	19.577
295.34	18.338
295.71	18.003
296.08	18.063
296.44	19.133
296.81	17.418
297.18	18.875
297.55	16.981
297.91	18.882
298.28	18.523
298.65	17.734
299.02	18.437
299.38	19.264
299.75	17.428
300.12	15.116
300.48	17.895
300.85	16.744
301.22	16.260
301.59	17.254
301.95	16.725
302.32	17.270
302.69	16.949
303.05	17.276
303.42	16.705
303.79	16.719
304.15	16.320
304.52	18.065
304.89	18.605
305.25	16.465
305.62	16.269
305.99	16.540
306.35	18.600
306.72	17.803
307.09	18.665
307.45	17.252
307.82	15.895
308.19	16.301
308.55	16.377
308.92	17.878
309.29	17.618
309.65	16.683
310.02	17.594
310.38	17.581
310.75	17.160
311.12	17.201
311.48	16.222
311.85	17.224
312.22	16.538
312.58	17.101
312.95	18.109
313.31	18.274
313.68	16.412
314.05	17.769
314.41	17.387
314.78	18.596
315.14	18.333
315.51	17.222
315.87	18.072
316.24	17.998
316.61	18.813
316.97	18.333
317.34	18.627
317.70	18.912
318.07	20.497
318.43	19.693
318.80	18.150
319.16	20.424
319.53	20.161
319.89	18.880
320.26	21.534
320.62	20.204
320.99	19.477
321.35	20.019
321.72	21.174
322.08	21.679
322.45	22.202
322.81	21.349
323.18	22.987
323.54	22.383
323.91	23.668
324.27	23.582
324.64	23.955
325.00	24.234
325.37	24.403
325.73	24.242
326.10	24.895
326.46	25.334
326.83	24.676
327.19	25.854
327.56	26.511
327.92	25.583
328.29	27.796
328.65	27.783
329.01	27.353
329.38	27.043
329.74	28.412
330.11	28.584
330.47	28.212
330.84	27.798
331.20	27.412
331.56	28.170
331.93	28.079
332.29	29.105
332.66	28.983
333.02	29.713
333.38	29.211
333.75	28.925
334.11	29.774
334.48	29.381
334.84	29.329
335.20	29.074
335.57	29.504
335.93	29.124
336.29	29.772
336.66	30.171
337.02	28.783
337.38	29.591
337.75	30.835
338.11	29.889
338.47	29.880
338.84	30.498
339.20	30.864
339.56	30.631
339.93	29.991
340.29	29.291
340.65	29.940
341.02	29.118
341.38	31.081
341.74	28.571
342.11	31.544
342.47	29.874
342.83	30.474
343.20	31.134
343.56	29.599
343.92	29.894
344.28	30.276
344.65	30.531
345.01	29.217
345.37	31.908
345.73	31.454
346.10	30.738
346.46	31.057
346.82	30.578
347.19	31.013
347.55	31.664
347.91	30.320
348.27	30.047
348.63	31.090
349.00	31.368
349.36	31.633
349.72	32.251
350.08	31.981
350.45	31.872
350.81	32.081
351.17	31.794
351.53	32.207
351.89	31.533
352.26	30.502
352.62	32.481
352.98	31.709
353.34	32.045
353.70	31.464
354.07	32.078
354.43	32.737
354.79	32.372
355.15	31.910
355.51	31.891
355.87	32.525
356.24	31.461
356.60	32.525
356.96	32.617
357.32	31.656
357.68	33.461
358.04	34.135
358.40	33.643
358.77	32.492
359.13	33.463
359.49	33.157
359.85	33.586
360.21	34.773
360.57	33.840
360.93	34.750
361.29	35.011
361.66	35.004
362.02	34.618
362.38	34.343
362.74	33.648
363.10	33.984
363.46	34.870
363.82	34.885
364.18	34.880
364.54	35.084
364.90	35.540
365.26	34.324
365.62	35.014
365.98	35.089
366.35	35.957
366.71	36.091
367.07	36.003
367.43	36.446
367.79	37.040
368.15	36.428
368.51	35.443
368.87	37.683
369.23	36.512
369.59	36.575
369.95	35.849
370.31	36.681
370.67	36.495
371.03	38.679
371.39	38.822
371.75	37.357
372.11	38.675
372.47	37.491
372.83	38.419
373.19	37.914
373.55	38.728
373.91	39.109
374.27	39.212
374.63	39.118
374.99	37.674
375.35	39.178
375.71	40.217
376.07	40.302
376.42	40.107
376.78	41.149
377.14	41.017
377.50	41.069
377.86	41.235
378.22	41.593
378.58	42.182
378.94	42.813
379.30	43.223
379.66	41.369
380.02	42.831
380.38	41.988
380.74	43.276
381.09	43.426
381.45	43.712
381.81	44.794
382.17	43.604
382.53	43.569
382.89	43.607
383.25	45.185
383.61	44.976
383.97	44.188
384.32	44.360
384.68	44.602
385.04	45.144
385.40	46.139
385.76	45.316
386.12	46.223
386.48	45.517
386.83	45.807
387.19	46.823
387.55	46.658
387.91	47.786
388.27	47.164
388.62	47.503
388.98	48.310
389.34	47.368
389.70	47.558
390.06	48.000
390.42	49.742
390.77	48.751
391.13	49.306
391.49	47.565
391.85	48.882
392.20	49.311
392.56	49.714
392.92	48.742
393.28	49.506
393.64	50.336
393.99	48.103
394.35	49.568
394.71	52.500
395.07	49.560
395.42	50.030
395.78	49.871
396.14	51.871
396.50	51.554
396.85	52.900
397.21	51.124
397.57	51.180
397.92	51.856
398.28	51.382
398.64	52.338
399.00	51.842
399.35	54.030
399.71	52.941
400.07	53.193
400.42	52.853
400.78	52.991
401.14	52.483
401.49	53.086
401.85	54.730
402.21	53.622
402.57	54.445
402.92	55.069
403.28	53.533
403.63	53.813
403.99	55.406
404.35	53.928
404.70	53.535
405.06	54.492
405.42	54.899
405.77	54.205
406.13	53.429
406.49	54.404
406.84	56.166
407.20	55.062
407.55	55.844
407.91	55.791
408.27	53.712
408.62	55.924
408.98	54.994
409.34	54.827
409.69	56.530
410.05	56.530
410.40	54.839
410.76	56.137
411.11	56.716
411.47	57.001
411.83	56.145
412.18	56.612
412.54	56.203
412.89	56.238
413.25	55.221
413.60	57.743
413.96	56.180
414.31	55.919
414.67	56.190
415.03	56.901
415.38	57.926
415.74	57.245
416.09	57.502
416.45	57.963
416.80	58.255
417.16	57.018
417.51	56.263
417.87	57.870
418.22	57.401
418.58	57.359
418.93	57.627
419.29	59.670
419.64	57.443
420.00	60.000
420.35	57.980
420.71	57.221
421.06	58.180
421.42	58.333
421.77	58.208
422.12	59.255
422.48	57.906
422.83	59.303
423.19	59.172
423.54	60.306
423.90	58.314
424.25	59.445
424.61	59.581
424.96	59.669
425.31	57.992
425.67	59.494
426.02	60.660
426.38	59.950
426.73	60.904
427.09	60.100
427.44	58.661
427.79	59.145
428.15	60.489
428.50	59.637
428.85	60.394
429.21	58.019
429.56	59.671
429.92	60.229
430.27	59.816
430.62	60.073
430.98	60.391
431.33	60.774
431.68	59.744
432.04	60.394
432.39	60.162
432.74	60.147
433.10	61.476
433.45	60.473
433.80	61.149
434.16	59.039
434.51	60.163
434.86	61.602
435.22	60.441
435.57	59.459
435.92	61.158
436.28	59.820
436.63	61.721
436.98	62.045
437.34	60.867
437.69	60.862
438.04	60.328
438.39	62.017
438.75	62.574
439.10	61.596
439.45	60.896
439.81	60.283
440.16	60.870
440.51	60.939
440.86	61.114
441.22	61.618
441.57	60.412
441.92	61.431
442.27	62.067
442.63	59.957
442.98	60.648
443.33	61.512
443.68	59.779
444.03	61.351
444.39	61.329
444.74	61.679
445.09	60.793
445.44	61.972
445.79	61.022
446.15	60.677
446.50	60.903
446.85	61.999
447.20	61.317
447.55	61.835
447.91	60.955
448.26	60.835
448.61	61.277
448.96	62.301
449.31	61.508
449.66	61.307
450.02	61.455
450.37	61.575
450.72	61.194
451.07	60.940
451.42	59.513
451.77	61.595
452.12	60.131
452.47	61.007
452.83	61.380
453.18	59.707
453.53	61.665
453.88	60.904
454.23	60.012
454.58	59.804
454.93	62.091
455.28	62.235
455.63	60.823
455.98	59.951
456.34	60.648
456.69	62.300
457.04	59.319
457.39	61.515
457.74	60.862
458.09	59.834
458.44	61.046
458.79	59.198
459.14	59.775
459.49	60.793
459.84	58.963
460.19	58.764
460.54	60.280
460.89	61.149
461.24	59.988
461.59	59.903
461.94	60.303
462.29	60.723
462.64	61.280
462.99	60.966
463.34	60.083
463.69	62.693
464.04	59.184
464.39	60.281
464.74	59.644
465.09	60.260
465.44	59.933
465.79	59.919
466.14	59.521
466.49	60.997
466.84	59.175
467.19	60.000
467.54	59.883
467.89	61.094
468.24	61.094
468.59	60.803
468.94	59.770
469.29	60.013
469.64	61.437
469.99	61.724
470.34	60.418
470.68	59.851
471.03	61.425
471.38	60.014
471.73	61.317
472.08	60.412
472.43	61.148
472.78	59.635
473.13	59.565
473.48	60.209
473.83	59.887
474.17	60.156
474.52	60.129
474.87	57.961
475.22	59.903
475.57	58.673
475.92	60.196
476.27	59.848
476.61	59.513
476.96	59.794
477.31	58.414
477.66	58.870
478.01	59.341
478.36	59.237
478.70	59.184
479.05	59.156
479.40	58.606
479.75	59.033
480.10	59.867
480.45	58.019
480.79	58.686
481.14	60.284
481.49	59.941
481.84	59.331
482.19	57.943
482.53	58.095
482.88	57.814
483.23	57.796
483.58	57.703
483.92	58.366
484.27	57.045
484.62	56.813
484.97	58.897
485.31	57.260
485.66	53.330
486.01	53.609
486.36	53.537
486.70	54.252
487.05	55.328
487.40	56.069
487.75	57.221
488.09	57.022
488.44	57.589
488.79	57.040
489.13	57.296
489.48	58.487
489.83	57.570
490.17	57.830
490.52	59.327
490.87	55.818
491.22	57.089
491.56	58.218
491.91	57.657
492.26	57.979
492.60	57.624
492.95	58.212
493.30	57.219
493.64	57.266
493.99	57.101
494.34	57.129
494.68	57.900
495.03	58.053
495.37	58.443
495.72	57.895
496.07	58.402
496.41	56.153
496.76	56.901
497.11	57.230
497.45	57.442
497.80	56.991
498.14	58.892
498.49	57.136
498.84	57.389
499.18	57.442
499.53	56.425
499.87	56.866
500.22	57.541
500.56	57.974
500.91	57.596
501.26	57.094
501.60	56.912
501.95	56.253
502.29	56.650
502.64	57.859
502.98	55.684
503.33	56.253
503.67	56.232
504.02	57.255
504.36	56.513
504.71	57.063
505.06	57.056
505.40	57.526
505.75	57.172
506.09	56.413
506.44	56.351
506.78	56.272
507.13	57.536
507.47	57.529
507.82	55.992
508.16	57.098
508.51	57.025
508.85	56.558
509.19	55.979
509.54	57.480
509.88	56.989
510.23	55.947
510.57	56.727
510.92	58.567
511.26	58.086
511.61	57.135
511.95	57.166
512.30	56.802
512.64	57.548
512.98	56.787
513.33	57.239
513.67	56.956
514.02	58.324
514.36	55.449
514.70	57.217
515.05	58.572
515.39	57.960
515.74	57.371
516.08	56.932
516.42	56.221
516.77	57.411
517.11	56.614
517.46	58.403
517.80	59.443
518.14	58.298
518.49	57.806
518.83	57.339
519.17	57.470
519.52	58.625
519.86	58.409
520.20	57.793
520.55	57.152
520.89	57.432
521.23	59.103
521.58	58.217
521.92	56.631
522.26	56.799
522.61	57.401
522.95	58.938
523.29	57.587
523.64	57.533
523.98	58.259
524.32	58.601
524.66	57.792
525.01	57.864
525.35	58.262
525.69	58.052
526.04	56.026
526.38	56.979
526.72	57.659
527.06	56.286
527.41	56.453
527.75	58.478
528.09	58.475
528.43	58.345
528.78	56.137
529.12	57.180
529.46	56.366
529.80	57.540
530.15	55.985
530.49	58.154
530.83	57.888
531.17	56.507
531.51	55.765
531.86	56.301
532.20	57.202
532.54	55.862
532.88	56.025
533.22	56.768
533.57	56.225
533.91	56.258
534.25	55.924
534.59	55.084
534.93	55.995
535.27	54.650
535.62	55.197
535.96	55.563
536.30	55.386
536.64	54.409
536.98	54.660
537.32	55.801
537.66	56.135
538.01	55.479
538.35	55.110
538.69	55.117
539.03	53.691
539.37	53.454
539.71	55.593
540.05	53.306
540.39	52.994
540.73	54.679
541.07	54.014
541.42	54.343
541.76	53.789
542.10	52.877
542.44	53.292
542.78	55.170
543.12	53.302
543.46	51.624
543.80	53.089
544.14	54.095
544.48	53.417
544.82	53.060
545.16	52.603
545.50	53.410
545.84	53.717
546.18	53.015
546.52	54.128
546.86	51.449
547.20	52.966
547.54	53.395
547.88	52.699
548.22	51.792
548.56	52.635
548.90	51.759
549.24	51.389
549.58	51.530
549.92	53.999
550.26	54.760
550.60	53.303
550.94	53.060
551.28	52.612
551.62	51.128
551.96	52.269
552.30	50.509
552.64	50.636
552.98	52.060
553.32	53.353
553.66	54.219
554.00	51.836
554.34	52.674
554.68	52.349
555.02	51.871
555.36	52.799
555.69	52.658
556.03	50.751
556.37	50.711
556.71	51.367
557.05	51.070
557.39	51.846
557.73	53.555
558.07	51.017
558.41	51.022
558.75	51.116
559.08	51.403
559.42	51.692
559.76	51.300
560.10	50.269
560.44	51.953
560.78	50.144
561.12	50.315
561.45	48.980
561.79	50.000
562.13	48.875
562.47	51.071
562.81	51.010
563.15	50.921
563.48	49.071
563.82	49.111
564.16	49.154
564.50	49.729
564.84	48.649
565.17	48.874
565.51	49.599
565.85	47.568
566.19	48.543
566.52	47.969
566.86	47.472
567.20	48.564
567.54	46.287
567.88	46.137
568.21	45.573
568.55	45.801
568.89	45.364
569.23	45.188
569.56	44.264
569.90	44.095
570.24	42.274
570.57	43.023
570.91	43.176
571.25	42.484
571.59	42.032
571.92	42.270
572.26	42.144
572.60	42.870
572.93	42.081
573.27	41.937
573.61	42.096
573.95	41.460
574.28	41.480
574.62	41.175
574.96	41.117
575.29	41.499
575.63	42.044
575.97	42.500
576.30	41.024
576.64	41.499
576.98	41.347
577.31	40.576
577.65	40.159
577.98	40.348
578.32	40.539
578.66	40.289
578.99	40.610
579.33	41.179
579.67	41.471
580.00	40.671
580.34	40.984
580.67	40.250
581.01	39.809
581.35	39.679
581.68	39.390
582.02	39.459
582.35	39.765
582.69	39.459
583.02	39.359
583.36	40.141
583.70	40.159
584.03	40.442
584.37	40.109
584.70	40.399
585.04	40.262
585.37	39.660
585.71	39.604
586.04	40.100
586.38	40.068
586.72	39.505
587.05	40.722
587.39	40.375
587.72	39.335
588.06	39.398
588.39	39.575
588.73	39.832
589.06	40.155
589.40	40.454
589.73	39.705
590.07	39.336
590.40	40.288
590.73	40.397
591.07	40.869
591.40	40.696
591.74	40.551
592.07	40.666
592.41	40.669
592.74	40.586
593.08	38.291
593.41	38.536
593.75	38.469
594.08	38.549
594.41	39.049
594.75	39.768
595.08	39.806
595.42	39.442
595.75	39.299
596.09	39.684
596.42	39.175
596.75	40.018
597.09	40.537
597.42	39.749
597.75	39.467
598.09	39.026
598.42	40.626
598.76	38.287
599.09	39.736
599.42	38.784
599.76	38.866
600.09	38.215
600.42	38.644
600.76	38.507
601.09	38.493
601.42	38.730
601.76	38.842
602.09	38.954
602.42	38.630
602.76	38.842
603.09	39.302
603.42	38.505
603.76	38.542
604.09	39.012
604.42	38.719
604.76	38.586
605.09	38.650
605.42	39.631
605.75	38.544
606.09	38.121
606.42	38.238
606.75	38.182
607.09	39.007
607.42	38.485
607.75	37.943
608.08	38.233
608.42	38.800
608.75	38.700
609.08	37.972
609.41	38.400
609.75	39.385
610.08	39.152
610.41	38.824
610.74	37.777
611.07	37.375
611.41	39.867
611.74	38.458
612.07	38.093
612.40	38.919
612.73	37.870
613.07	37.916
613.40	39.262
613.73	37.974
614.06	38.253
614.39	37.688
614.72	40.033
615.06	38.944
615.39	38.079
615.72	38.175
616.05	38.401
616.38	38.087
616.71	38.452
617.05	39.803
617.38	38.755
617.71	37.194
618.04	37.294
618.37	38.297
618.70	39.586
619.03	38.488
619.36	39.004
619.69	39.108
620.03	38.445
620.36	38.135
620.69	37.545
621.02	38.692
621.35	38.839
621.68	39.283
622.01	40.534
622.34	39.889
622.67	38.763
623.00	38.830
623.33	37.771
623.66	37.546
623.99	38.035
624.32	38.004
624.65	38.798
624.99	37.472
625.32	38.237
625.65	37.209
625.98	39.810
626.31	39.592
626.64	38.263
626.97	37.370
627.30	39.949
627.63	38.841
627.96	37.662
628.29	40.093
628.62	40.426
628.95	39.078
629.28	39.310
629.61	40.861
629.94	38.975
630.26	40.493
630.59	38.861
630.92	38.253
631.25	39.032
631.58	40.792
631.91	38.282
632.24	38.858
632.57	39.667
