SpectraSuite Data File
++++++++++++++++++++++++++++++++++++
Date: Wed May 13 21:09:56 PDT 2015
User: schluterlab
Dark Spectrum Present: Yes
Reference Spectrum Present: Yes
Number of Sampled Component Spectra: 1
Spectrometers: USB2E3373
Integration Time (usec): 3000 (USB2E3373)
Spectra Averaged: 3 (USB2E3373)
Boxcar Smoothing: 0 (USB2E3373)
Correct for Electrical Dark: No (USB2E3373)
Strobe/Lamp Enabled: No (USB2E3373)
Correct for Detector Non-linearity: No (USB2E3373)
Correct for Stray Light: No (USB2E3373)
Number of Pixels in Processed Spectrum: 2048
>>>>>Begin Processed Spectral Data<<<<<
178.53	0.000
178.91	150.000
179.29	216.667
179.67	-850.000
180.04	-66.667
180.42	240.000
180.80	1500.000
181.18	233.333
181.56	-250.000
181.94	-100.000
182.31	-27.273
182.69	115.385
183.07	-140.000
183.45	133.333
183.83	188.889
184.20	242.857
184.58	-333.333
184.96	300.000
185.34	257.143
185.72	0.000
186.09	-800.000
186.47	-180.000
186.85	240.000
187.23	-300.000
187.61	200.000
187.98	600.000
188.36	87.500
188.74	0.000
189.12	45.455
189.49	50.000
189.87	100.000
190.25	180.000
190.63	1400.000
191.00	-320.000
191.38	140.000
191.76	275.000
192.14	125.000
192.51	21.053
192.89	-0.000
193.27	-100.000
193.65	-280.000
194.02	145.455
194.40	150.000
194.78	-800.000
195.15	260.000
195.53	-200.000
195.91	75.000
196.29	-100.000
196.66	0.000
197.04	300.000
197.42	-140.000
197.79	40.000
198.17	-137.500
198.55	-166.667
198.92	275.000
199.30	-133.333
199.68	-70.000
200.05	600.000
200.43	-0.000
200.81	-1500.000
201.18	-160.000
201.56	-133.333
201.94	450.000
202.31	-34.783
202.69	-57.143
203.07	-433.333
203.44	-180.000
203.82	-300.000
204.19	-20.000
204.57	0.000
204.95	-66.667
205.32	0.000
205.70	-200.000
206.08	-300.000
206.45	-116.667
206.83	75.000
207.20	-133.333
207.58	-20.000
207.96	-700.000
208.33	-285.714
208.71	-1700.000
209.08	150.000
209.46	425.000
209.84	0.000
210.21	130.000
210.59	1400.000
210.96	120.000
211.34	1000.000
211.71	-500.000
212.09	-150.000
212.46	-170.000
212.84	266.667
213.22	50.000
213.59	-1100.000
213.97	-300.000
214.34	-800.000
214.72	-7.692
215.09	187.500
215.47	177.778
215.84	950.000
216.22	-137.500
216.59	-100.000
216.97	566.667
217.34	66.667
217.72	0.000
218.09	333.333
218.47	200.000
218.84	-242.857
219.22	-175.000
219.59	-433.333
219.97	-225.000
220.34	0.000
220.72	-140.000
221.09	0.000
221.47	-266.667
221.84	-500.000
222.22	0.000
222.59	1100.000
222.97	-300.000
223.34	-25.000
223.72	-1000.000
224.09	-800.000
224.46	-36.364
224.84	-62.500
225.21	-114.286
225.59	-375.000
225.96	-50.000
226.34	0.000
226.71	-57.143
227.08	300.000
227.46	50.000
227.83	-400.000
228.21	-43.750
228.58	-200.000
228.95	-64.706
229.33	18.750
229.70	-100.000
230.08	7.692
230.45	-162.500
230.82	-75.000
231.20	157.143
231.57	-200.000
231.95	1100.000
232.32	-33.333
232.69	-17.647
233.07	-900.000
233.44	-4.348
233.81	-750.000
234.19	-45.833
234.56	-20.000
234.93	6.667
235.31	36.842
235.68	-92.308
236.05	-23.077
236.43	-22.222
236.80	-18.182
237.17	-140.000
237.55	-64.706
237.92	-51.724
238.29	-11.111
238.67	-8.333
239.04	-29.032
239.41	-21.277
239.79	10.638
240.16	11.628
240.53	19.643
240.91	-1.786
241.28	10.714
241.65	0.000
242.02	-7.895
242.40	24.638
242.77	-1.449
243.14	0.000
243.51	7.447
243.89	4.808
244.26	19.811
244.63	8.654
245.00	8.333
245.38	13.445
245.75	8.197
246.12	7.519
246.49	-4.065
246.87	0.000
247.24	13.514
247.61	9.934
247.98	16.026
248.36	10.059
248.73	13.483
249.10	16.667
249.47	10.753
249.84	13.158
250.22	12.438
250.59	10.280
250.96	13.182
251.33	3.828
251.70	15.900
252.08	9.205
252.45	16.049
252.82	15.209
253.19	11.673
253.56	15.468
253.94	12.456
254.31	12.676
254.68	15.101
255.05	16.172
255.42	11.888
255.79	17.178
256.16	15.457
256.54	13.968
256.91	8.544
257.28	10.377
257.65	9.554
258.02	7.918
258.39	13.158
258.76	12.791
259.14	15.057
259.51	12.640
259.88	14.905
260.25	14.167
260.62	12.640
260.99	15.385
261.36	14.508
261.73	11.111
262.10	12.977
262.47	13.086
262.85	13.930
263.22	15.385
263.59	12.208
263.96	15.085
264.33	11.779
264.70	14.884
265.07	14.120
265.44	13.563
265.81	11.213
266.18	13.440
266.55	12.664
266.92	14.407
267.29	15.226
267.66	12.527
268.03	15.844
268.40	13.136
268.77	13.017
269.14	14.286
269.51	17.043
269.88	11.405
270.25	15.890
270.62	11.475
270.99	15.354
271.36	14.087
271.73	14.458
272.10	15.048
272.47	15.163
272.84	14.764
273.21	12.329
273.58	13.115
273.95	11.887
274.32	15.672
274.69	15.665
275.06	13.604
275.43	15.066
275.80	13.298
276.17	13.260
276.54	12.789
276.91	11.847
277.28	11.552
277.65	14.685
278.02	15.000
278.39	12.789
278.76	13.880
279.13	14.751
279.50	13.621
279.87	13.587
280.23	14.955
280.60	14.360
280.97	14.935
281.34	13.407
281.71	12.033
282.08	12.991
282.45	12.623
282.82	13.419
283.19	14.177
283.56	13.438
283.92	15.902
284.29	13.261
284.66	13.509
285.03	13.029
285.40	11.934
285.77	13.213
286.14	13.222
286.51	14.393
286.87	11.846
287.24	12.832
287.61	13.855
287.98	14.118
288.35	11.624
288.72	14.204
289.08	13.675
289.45	13.950
289.82	13.464
290.19	13.464
290.56	11.506
290.93	12.707
291.29	12.585
291.66	13.661
292.03	12.398
292.40	13.190
292.77	12.450
293.13	11.576
293.50	12.810
293.87	11.600
294.24	11.772
294.60	11.964
294.97	12.302
295.34	10.554
295.71	10.512
296.08	10.864
296.44	9.184
296.81	11.328
297.18	11.000
297.55	10.967
297.91	11.677
298.28	12.228
298.65	10.837
299.02	11.233
299.38	10.307
299.75	10.337
300.12	10.581
300.48	10.409
300.85	11.432
301.22	10.221
301.59	10.446
301.95	9.292
302.32	8.401
302.69	9.379
303.05	10.410
303.42	10.795
303.79	11.146
304.15	9.639
304.52	10.753
304.89	10.188
305.25	9.660
305.62	9.544
305.99	9.467
306.35	11.703
306.72	12.004
307.09	11.157
307.45	11.182
307.82	9.684
308.19	9.300
308.55	9.928
308.92	11.690
309.29	9.910
309.65	8.791
310.02	10.040
310.38	9.756
310.75	8.974
311.12	9.913
311.48	9.397
311.85	10.138
312.22	9.768
312.58	9.275
312.95	9.552
313.31	10.927
313.68	9.160
314.05	10.964
314.41	10.375
314.78	10.531
315.14	10.185
315.51	9.800
315.87	11.214
316.24	10.652
316.61	10.502
316.97	10.185
317.34	10.160
317.70	11.240
318.07	10.914
318.43	12.014
318.80	9.686
319.16	8.753
319.53	11.111
319.89	10.930
320.26	11.553
320.62	11.307
320.99	10.853
321.35	11.506
321.72	11.357
322.08	11.900
322.45	11.101
322.81	11.553
323.18	12.791
323.54	11.372
323.91	12.105
324.27	12.601
324.64	11.324
325.00	12.686
325.37	12.031
325.73	11.700
326.10	11.943
326.46	13.294
326.83	11.893
327.19	12.683
327.56	12.409
327.92	13.033
328.29	12.521
328.65	14.286
329.01	12.929
329.38	14.000
329.74	14.163
330.11	13.165
330.47	12.066
330.84	13.538
331.20	14.261
331.56	13.315
331.93	13.781
332.29	14.509
332.66	12.627
333.02	13.293
333.38	14.123
333.75	13.140
334.11	13.281
334.48	13.949
334.84	13.781
335.20	13.808
335.57	13.838
335.93	12.457
336.29	13.222
336.66	12.991
337.02	14.087
337.38	13.490
337.75	14.126
338.11	13.151
338.47	13.442
338.84	13.574
339.20	13.580
339.56	12.884
339.93	12.619
340.29	13.920
340.65	13.088
341.02	14.642
341.38	14.189
341.74	13.445
342.11	13.212
342.47	13.808
342.83	14.379
343.20	12.690
343.56	14.309
343.92	14.297
344.28	14.042
344.65	13.959
345.01	12.752
345.37	14.803
345.73	13.889
346.10	14.125
346.46	13.171
346.82	13.563
347.19	13.449
347.55	13.247
347.91	12.860
348.27	13.486
348.63	13.381
349.00	13.365
349.36	12.951
349.72	13.302
350.08	14.041
350.45	13.939
350.81	14.006
351.17	14.319
351.53	13.668
351.89	13.185
352.26	12.664
352.62	12.713
352.98	14.137
353.34	14.895
353.70	13.551
354.07	13.725
354.43	14.852
354.79	14.744
355.15	14.208
355.51	13.895
355.87	14.543
356.24	12.841
356.60	13.370
356.96	13.047
357.32	14.164
357.68	13.904
358.04	14.042
358.40	13.876
358.77	15.291
359.13	14.786
359.49	15.140
359.85	14.026
360.21	15.266
360.57	15.057
360.93	14.947
361.29	14.582
361.66	14.427
362.02	14.085
362.38	14.254
362.74	13.125
363.10	15.112
363.46	13.473
363.82	15.152
364.18	14.213
364.54	15.244
364.90	14.286
365.26	14.154
365.62	14.276
365.98	14.591
366.35	14.681
366.71	13.552
367.07	14.600
367.43	14.495
367.79	14.941
368.15	15.120
368.51	14.838
368.87	15.701
369.23	13.950
369.59	15.786
369.95	14.804
370.31	14.505
370.67	14.120
371.03	15.145
371.39	15.827
371.75	15.929
372.11	15.456
372.47	15.573
372.83	15.742
373.19	15.180
373.55	15.101
373.91	14.781
374.27	15.560
374.63	16.714
374.99	15.042
375.35	15.548
375.71	14.946
376.07	15.901
376.42	15.775
376.78	16.050
377.14	16.407
377.50	16.884
377.86	16.335
378.22	15.550
378.58	15.322
378.94	16.938
379.30	16.677
379.66	16.708
380.02	15.993
380.38	16.506
380.74	17.095
381.09	16.647
381.45	16.687
381.81	16.328
382.17	15.879
382.53	15.815
382.89	15.621
383.25	16.173
383.61	16.586
383.97	16.625
384.32	15.690
384.68	17.027
385.04	16.738
385.40	17.123
385.76	16.788
386.12	17.366
386.48	17.492
386.83	17.584
387.19	17.458
387.55	17.781
387.91	17.282
388.27	16.831
388.62	17.104
388.98	16.521
389.34	17.105
389.70	16.728
390.06	17.938
390.42	18.170
390.77	17.361
391.13	17.614
391.49	17.837
391.85	17.508
392.20	17.794
392.56	18.476
392.92	17.730
393.28	17.664
393.64	18.104
393.99	17.748
394.35	18.395
394.71	18.141
395.07	17.925
395.42	18.769
395.78	17.696
396.14	18.009
396.50	18.009
396.85	18.929
397.21	18.539
397.57	17.764
397.92	18.802
398.28	18.331
398.64	18.701
399.00	18.136
399.35	19.750
399.71	19.103
400.07	19.096
400.42	18.119
400.78	19.033
401.14	18.578
401.49	19.173
401.85	19.165
402.21	19.319
402.57	19.988
402.92	19.650
403.28	19.575
403.63	19.219
403.99	18.682
404.35	20.012
404.70	18.792
405.06	19.495
405.42	19.158
405.77	19.470
406.13	19.543
406.49	20.252
406.84	20.085
407.20	19.775
407.55	21.039
407.91	19.523
408.27	18.964
408.62	20.258
408.98	20.099
409.34	20.235
409.69	21.183
410.05	20.833
410.40	19.355
410.76	20.457
411.11	21.766
411.47	21.367
411.83	20.836
412.18	20.088
412.54	21.366
412.89	20.251
413.25	20.118
413.60	20.752
413.96	20.412
414.31	21.085
414.67	20.444
415.03	20.839
415.38	20.145
415.74	20.728
416.09	21.216
416.45	21.805
416.80	21.007
417.16	21.592
417.51	21.768
417.87	21.032
418.22	20.879
418.58	20.434
418.93	21.092
419.29	21.980
419.64	21.120
420.00	21.714
420.35	21.518
420.71	21.633
421.06	22.017
421.42	22.202
421.77	22.428
422.12	22.120
422.48	21.047
422.83	21.737
423.19	21.449
423.54	22.203
423.90	22.090
424.25	22.068
424.61	22.366
424.96	21.999
425.31	22.939
425.67	22.046
426.02	23.498
426.38	22.326
426.73	22.602
427.09	21.451
427.44	21.550
427.79	22.447
428.15	21.713
428.50	21.813
428.85	22.632
429.21	22.341
429.56	22.317
429.92	22.749
430.27	22.342
430.62	22.980
430.98	22.686
431.33	22.246
431.68	22.630
432.04	23.268
432.39	23.268
432.74	22.563
433.10	23.533
433.45	23.195
433.80	22.874
434.16	22.228
434.51	23.098
434.86	21.967
435.22	22.637
435.57	22.297
435.92	22.799
436.28	22.523
436.63	23.152
436.98	23.149
437.34	23.016
437.69	23.554
438.04	22.241
438.39	23.661
438.75	23.182
439.10	22.903
439.45	22.639
439.81	23.276
440.16	23.420
440.51	23.127
440.86	23.237
441.22	23.580
441.57	23.590
441.92	23.017
442.27	22.673
442.63	22.336
442.98	22.627
443.33	23.194
443.68	23.247
444.03	22.702
444.39	23.699
444.74	22.253
445.09	22.742
445.44	22.986
445.79	23.387
446.15	23.239
446.50	23.018
446.85	22.929
447.20	23.471
447.55	23.895
447.91	22.865
448.26	22.642
448.61	23.303
448.96	23.804
449.31	23.758
449.66	22.614
450.02	22.683
450.37	23.384
450.72	22.560
451.07	23.386
451.42	22.396
451.77	23.554
452.12	21.747
452.47	23.176
452.83	22.642
453.18	23.297
453.53	22.383
453.88	22.831
454.23	22.744
454.58	22.181
454.93	22.835
455.28	22.222
455.63	22.084
455.98	22.033
456.34	21.742
456.69	23.834
457.04	22.415
457.39	23.211
457.74	22.142
458.09	22.512
458.44	22.738
458.79	22.680
459.14	22.865
459.49	22.988
459.84	21.702
460.19	22.509
460.54	22.384
460.89	22.241
461.24	22.626
461.59	22.645
461.94	23.009
462.29	22.304
462.64	23.021
462.99	22.871
463.34	23.135
463.69	22.874
464.04	22.149
464.39	23.185
464.74	22.236
465.09	22.815
465.44	23.232
465.79	23.232
466.14	22.691
466.49	22.111
466.84	22.654
467.19	22.229
467.54	23.137
467.89	21.433
468.24	22.495
468.59	23.008
468.94	22.605
469.29	23.067
469.64	21.967
469.99	23.724
470.34	23.196
470.68	21.413
471.03	22.214
471.38	23.574
471.73	22.565
472.08	23.299
472.43	22.427
472.78	22.177
473.13	21.768
473.48	20.744
473.83	22.599
474.17	21.289
474.52	22.524
474.87	22.014
475.22	21.981
475.57	22.532
475.92	22.519
476.27	21.970
476.61	22.707
476.96	22.387
477.31	22.006
477.66	22.599
478.01	21.703
478.36	22.125
478.70	22.234
479.05	22.752
479.40	21.997
479.75	21.838
480.10	22.336
480.45	21.236
480.79	22.648
481.14	22.290
481.49	22.250
481.84	20.924
482.19	22.186
482.53	21.714
482.88	21.572
483.23	21.030
483.58	22.117
483.92	21.060
484.27	20.997
484.62	20.684
484.97	22.107
485.31	21.513
485.66	19.829
486.01	19.624
486.36	19.645
486.70	20.291
487.05	20.533
487.40	20.468
487.75	20.643
488.09	20.957
488.44	21.171
488.79	21.347
489.13	21.233
489.48	21.548
489.83	21.215
490.17	21.153
490.52	22.394
490.87	21.975
491.22	21.385
491.56	21.850
491.91	21.459
492.26	22.050
492.60	20.683
492.95	21.137
493.30	20.736
493.64	20.576
493.99	21.739
494.34	21.291
494.68	21.337
495.03	20.998
495.37	21.898
495.72	22.256
496.07	21.091
496.41	20.262
496.76	21.892
497.11	21.408
497.45	21.547
497.80	21.605
498.14	20.453
498.49	20.625
498.84	21.660
499.18	21.304
499.53	21.418
499.87	21.203
500.22	20.856
500.56	21.314
500.91	21.579
501.26	21.478
501.60	19.804
501.95	21.610
502.29	21.214
502.64	20.540
502.98	20.906
503.33	20.827
503.67	20.399
504.02	20.637
504.36	20.802
504.71	21.037
505.06	22.262
505.40	20.773
505.75	21.567
506.09	20.950
506.44	20.464
506.78	21.178
507.13	20.738
507.47	21.262
507.82	21.298
508.16	21.003
508.51	20.506
508.85	20.270
509.19	20.899
509.54	20.912
509.88	21.075
510.23	20.000
510.57	20.869
510.92	20.582
511.26	21.672
511.61	20.417
511.95	21.114
512.30	20.100
512.64	21.793
512.98	21.219
513.33	20.563
513.67	21.238
514.02	20.753
514.36	20.618
514.70	21.016
515.05	20.772
515.39	21.050
515.74	21.314
516.08	20.708
516.42	20.680
516.77	20.855
517.11	21.811
517.46	21.729
517.80	21.671
518.14	20.759
518.49	21.338
518.83	21.301
519.17	20.964
519.52	21.411
519.86	21.554
520.20	21.346
520.55	20.833
520.89	20.683
521.23	21.795
521.58	20.607
521.92	20.616
522.26	21.340
522.61	21.655
522.95	21.308
523.29	20.952
523.64	21.551
523.98	21.347
524.32	21.361
524.66	20.390
525.01	21.494
525.35	21.461
525.69	21.405
526.04	21.042
526.38	22.180
526.72	20.644
527.06	20.761
527.41	20.649
527.75	20.561
528.09	21.715
528.43	21.913
528.78	20.736
529.12	21.087
529.46	22.137
529.80	20.647
530.15	20.785
530.49	21.563
530.83	21.327
531.17	20.959
531.51	20.769
531.86	20.122
532.20	20.744
532.54	20.621
532.88	21.171
533.22	21.279
533.57	20.265
533.91	20.774
534.25	21.289
534.59	20.978
534.93	20.536
535.27	21.529
535.62	20.132
535.96	20.885
536.30	21.077
536.64	20.301
536.98	19.411
537.32	19.929
537.66	20.804
538.01	19.764
538.35	20.925
538.69	20.067
539.03	20.134
539.37	20.054
539.71	19.850
540.05	20.648
540.39	20.372
540.73	20.740
541.07	20.068
541.42	20.404
541.76	21.042
542.10	19.634
542.44	19.473
542.78	20.819
543.12	20.957
543.46	20.180
543.80	19.823
544.14	20.991
544.48	18.315
544.82	20.175
545.16	19.946
545.50	20.932
545.84	20.687
546.18	19.986
546.52	21.101
546.86	19.293
547.20	20.014
547.54	19.728
547.88	20.513
548.22	19.674
548.56	19.146
548.90	19.689
549.24	20.764
549.58	19.431
549.92	20.836
550.26	20.959
550.60	19.745
550.94	20.373
551.28	20.212
551.62	20.526
551.96	20.059
552.30	20.233
552.64	19.068
552.98	19.744
553.32	19.611
553.66	19.809
554.00	20.374
554.34	18.828
554.68	20.656
555.02	18.937
555.36	20.121
555.69	20.029
556.03	19.228
556.37	18.990
556.71	19.762
557.05	20.886
557.39	18.689
557.73	20.272
558.07	20.497
558.41	19.909
558.75	20.554
559.08	19.808
559.42	20.614
559.76	19.954
560.10	19.062
560.44	19.602
560.78	18.993
561.12	18.711
561.45	19.184
561.79	19.601
562.13	18.776
562.47	19.429
562.81	19.192
563.15	19.972
563.48	19.339
563.82	19.152
564.16	19.025
564.50	19.471
564.84	18.986
565.17	20.199
565.51	19.786
565.85	17.988
566.19	19.536
566.52	18.807
566.86	18.710
567.20	19.120
567.54	18.480
567.88	17.301
568.21	18.468
568.55	17.580
568.89	18.046
569.23	17.324
569.56	17.689
569.90	17.408
570.24	16.787
570.57	16.854
570.91	17.144
571.25	16.465
571.59	16.627
571.92	16.222
572.26	16.959
572.60	16.415
572.93	16.339
573.27	16.247
573.61	16.412
573.95	16.182
574.28	16.267
574.62	15.799
574.96	16.142
575.29	15.898
575.63	16.307
575.97	16.033
576.30	16.327
576.64	15.929
576.98	15.994
577.31	16.042
577.65	15.706
577.98	15.663
578.32	15.693
578.66	15.952
578.99	15.845
579.33	15.517
579.67	15.606
580.00	15.429
580.34	15.608
580.67	16.487
581.01	15.578
581.35	15.654
581.68	15.446
582.02	15.153
582.35	15.399
582.69	15.401
583.02	15.419
583.36	15.618
583.70	15.961
584.03	15.934
584.37	15.847
584.70	15.473
585.04	16.079
585.37	15.650
585.71	15.461
586.04	15.363
586.38	15.391
586.72	15.650
587.05	16.018
587.39	15.802
587.72	15.824
588.06	15.595
588.39	15.561
588.73	15.734
589.06	15.842
589.40	15.927
589.73	15.379
590.07	16.296
590.40	15.979
590.73	16.451
591.07	16.381
591.40	16.130
591.74	16.007
592.07	16.613
592.41	16.645
592.74	15.471
593.08	15.214
593.41	15.222
593.75	15.245
594.08	15.717
594.41	15.174
594.75	16.192
595.08	15.870
595.42	15.569
595.75	15.654
596.09	15.781
596.42	16.789
596.75	15.840
597.09	16.379
597.42	17.048
597.75	16.444
598.09	15.984
598.42	16.421
598.76	16.205
599.09	16.447
599.42	15.634
599.76	16.448
600.09	16.227
600.42	15.518
600.76	15.410
601.09	15.669
601.42	15.798
601.76	15.521
602.09	16.376
602.42	16.261
602.76	15.310
603.09	15.934
603.42	15.514
603.76	15.705
604.09	16.087
604.42	16.241
604.76	16.107
605.09	16.493
605.42	16.779
605.75	15.246
606.09	15.397
606.42	16.376
606.75	15.022
607.09	15.603
607.42	16.375
607.75	15.230
608.08	16.411
608.42	15.792
608.75	16.340
609.08	16.120
609.41	16.393
609.75	16.238
610.08	15.730
610.41	16.278
610.74	15.207
611.07	15.832
611.41	16.274
611.74	16.460
612.07	15.320
612.40	16.216
612.73	16.301
613.07	15.632
613.40	15.474
613.73	16.414
614.06	15.699
614.39	15.842
614.72	16.269
615.06	16.056
615.39	16.391
615.72	15.605
616.05	15.991
616.38	16.438
616.71	16.137
617.05	17.260
617.38	15.835
617.71	15.748
618.04	15.844
618.37	15.962
618.70	16.882
619.03	16.907
619.36	16.655
619.69	16.301
620.03	16.749
620.36	17.467
620.69	16.060
621.02	17.385
621.35	16.435
621.68	17.604
622.01	16.748
622.34	16.416
622.67	17.698
623.00	18.389
623.33	17.053
623.66	15.390
623.99	16.804
624.32	17.315
624.65	17.285
624.99	15.430
625.32	17.177
625.65	16.047
625.98	16.825
626.31	17.551
626.64	17.455
626.97	17.474
627.30	17.023
627.63	17.128
627.96	15.844
628.29	18.698
628.62	18.859
628.95	17.735
629.28	18.719
629.61	16.938
629.94	18.665
630.26	18.030
630.59	17.582
630.92	17.068
631.25	17.920
631.58	18.201
631.91	16.967
632.24	18.441
632.57	18.000
632.90	18.786
633.23	18.705
