SpectraSuite Data File
++++++++++++++++++++++++++++++++++++
Date: Wed May 13 21:27:06 PDT 2015
User: schluterlab
Dark Spectrum Present: Yes
Reference Spectrum Present: Yes
Number of Sampled Component Spectra: 1
Spectrometers: USB2E3373
Integration Time (usec): 3000 (USB2E3373)
Spectra Averaged: 3 (USB2E3373)
Boxcar Smoothing: 0 (USB2E3373)
Correct for Electrical Dark: No (USB2E3373)
Strobe/Lamp Enabled: No (USB2E3373)
Correct for Detector Non-linearity: No (USB2E3373)
Correct for Stray Light: No (USB2E3373)
Number of Pixels in Processed Spectrum: 2048
>>>>>Begin Processed Spectral Data<<<<<
178.53	0.000
178.91	350.000
179.29	208.333
179.67	-550.000
180.04	-166.667
180.42	200.000
180.80	1900.000
181.18	333.333
181.56	-600.000
181.94	-300.000
182.31	-54.545
182.69	184.615
183.07	-20.000
183.45	433.333
183.83	211.111
184.20	214.286
184.58	-200.000
184.96	566.667
185.34	157.143
185.72	0.000
186.09	-1100.000
186.47	-380.000
186.85	140.000
187.23	-250.000
187.61	850.000
187.98	200.000
188.36	-87.500
188.74	0.000
189.12	-27.273
189.49	50.000
189.87	116.667
190.25	280.000
190.63	1500.000
191.00	-120.000
191.38	80.000
191.76	375.000
192.14	150.000
192.51	-57.895
192.89	600.000
193.27	350.000
193.65	-280.000
194.02	245.455
194.40	160.000
194.78	500.000
195.15	260.000
195.53	-220.000
195.91	-100.000
196.29	-233.333
196.66	0.000
197.04	600.000
197.42	-80.000
197.79	-30.000
198.17	-187.500
198.55	-533.333
198.92	450.000
199.30	-500.000
199.68	-100.000
200.05	750.000
200.43	183.333
200.81	-900.000
201.18	-240.000
201.56	-116.667
201.94	600.000
202.31	0.000
202.69	-114.286
203.07	-233.333
203.44	-160.000
203.82	-466.667
204.19	-110.000
204.57	0.000
204.95	-200.000
205.32	0.000
205.70	-550.000
206.08	-325.000
206.45	-200.000
206.83	475.000
207.20	-266.667
207.58	-20.000
207.96	-1800.000
208.33	-271.429
208.71	-1700.000
209.08	150.000
209.46	375.000
209.84	0.000
210.21	160.000
210.59	2200.000
210.96	300.000
211.34	600.000
211.71	-500.000
212.09	-183.333
212.46	-100.000
212.84	-433.333
213.22	-125.000
213.59	-1800.000
213.97	-700.000
214.34	-500.000
214.72	15.385
215.09	312.500
215.47	144.444
215.84	1100.000
216.22	-175.000
216.59	-800.000
216.97	466.667
217.34	100.000
217.72	0.000
218.09	366.667
218.47	-400.000
218.84	-57.143
219.22	-100.000
219.59	-333.333
219.97	25.000
220.34	-50.000
220.72	-20.000
221.09	0.000
221.47	-66.667
221.84	-200.000
222.22	0.000
222.59	1300.000
222.97	-566.667
223.34	-83.333
223.72	-2000.000
224.09	-350.000
224.46	-36.364
224.84	-100.000
225.21	-185.714
225.59	-450.000
225.96	-183.333
226.34	-70.000
226.71	-200.000
227.08	950.000
227.46	-62.500
227.83	-800.000
228.21	-68.750
228.58	-300.000
228.95	-58.824
229.33	25.000
229.70	-37.500
230.08	-100.000
230.45	-175.000
230.82	-66.667
231.20	242.857
231.57	-300.000
231.95	1500.000
232.32	-50.000
232.69	-35.294
233.07	-2000.000
233.44	-17.391
233.81	-1000.000
234.19	0.000
234.56	-146.667
234.93	-73.333
235.31	-26.316
235.68	-100.000
236.05	-23.077
236.43	-50.000
236.80	-51.515
237.17	-126.667
237.55	-70.588
237.92	-48.276
238.29	-37.037
238.67	-30.556
239.04	-41.935
239.41	-27.660
239.79	4.255
240.16	6.977
240.53	-1.786
240.91	-23.214
241.28	-1.786
241.65	-11.290
242.02	-10.526
242.40	2.899
242.77	-11.594
243.14	-8.974
243.51	-6.383
243.89	-4.808
244.26	12.264
244.63	-6.731
245.00	0.000
245.38	-3.361
245.75	4.098
246.12	-3.759
246.49	-14.634
246.87	-19.328
247.24	2.027
247.61	-9.272
247.98	-3.846
248.36	0.592
248.73	-3.371
249.10	4.040
249.47	2.151
249.84	1.579
250.22	0.995
250.59	5.607
250.96	5.455
251.33	-3.828
251.70	5.858
252.08	0.000
252.45	2.881
252.82	4.183
253.19	-0.389
253.56	-1.079
253.94	6.050
254.31	2.817
254.68	4.027
255.05	3.960
255.42	-0.699
255.79	2.147
256.16	5.363
256.54	3.175
256.91	0.000
257.28	1.887
257.65	-2.229
258.02	1.760
258.39	4.971
258.76	0.872
259.14	0.284
259.51	3.652
259.88	1.897
260.25	4.444
260.62	0.843
260.99	2.122
261.36	3.109
261.73	2.716
262.10	-0.509
262.47	2.222
262.85	2.985
263.22	1.795
263.59	2.078
263.96	3.163
264.33	0.962
264.70	3.721
265.07	3.009
265.44	1.379
265.81	2.059
266.18	1.367
266.55	-0.218
266.92	3.814
267.29	3.292
267.66	4.883
268.03	3.086
268.40	1.271
268.77	3.306
269.14	4.286
269.51	6.982
269.88	2.037
270.25	3.178
270.62	3.074
270.99	4.724
271.36	3.770
271.73	3.414
272.10	3.238
272.47	4.031
272.84	3.150
273.21	4.305
273.58	3.484
273.95	2.830
274.32	4.291
274.69	3.825
275.06	5.124
275.43	4.520
275.80	4.255
276.17	2.210
276.54	1.599
276.91	3.310
277.28	1.083
277.65	3.322
278.02	5.000
278.39	1.954
278.76	5.017
279.13	3.602
279.50	3.793
279.87	1.630
280.23	1.441
280.60	1.384
280.97	1.948
281.34	4.574
281.71	3.089
282.08	2.051
282.45	4.426
282.82	4.473
283.19	5.030
283.56	3.750
283.92	3.823
284.29	2.028
284.66	2.801
285.03	0.489
285.40	4.381
285.77	4.354
286.14	4.255
286.51	5.097
286.87	2.308
287.24	3.245
287.61	2.711
287.98	4.412
288.35	1.341
288.72	4.017
289.08	4.558
289.45	1.909
289.82	3.177
290.19	3.366
290.56	2.131
290.93	2.762
291.29	3.557
291.66	3.689
292.03	3.542
292.40	2.692
292.77	2.811
293.13	3.487
293.50	2.614
293.87	4.133
294.24	4.762
294.60	2.601
294.97	3.968
295.34	1.847
295.71	0.920
296.08	1.963
296.44	3.316
296.81	2.801
297.18	3.625
297.55	3.892
297.91	2.609
298.28	1.816
298.65	2.833
299.02	4.151
299.38	0.859
299.75	3.365
300.12	2.093
300.48	1.871
300.85	3.464
301.22	2.787
301.59	1.643
301.95	0.697
302.32	2.800
302.69	1.582
303.05	2.215
303.42	2.045
303.79	3.049
304.15	1.533
304.52	3.548
304.89	2.326
305.25	1.866
305.62	1.518
305.99	2.938
306.35	3.657
306.72	2.543
307.09	2.711
307.45	2.556
307.82	1.368
308.19	1.149
308.55	1.945
308.92	3.438
309.29	3.303
309.65	2.797
310.02	2.684
310.38	2.744
310.75	2.071
311.12	3.207
311.48	2.176
311.85	2.854
312.22	3.965
312.58	2.029
312.95	2.985
313.31	2.020
313.68	3.053
314.05	3.308
314.41	3.074
314.78	2.846
315.14	3.333
315.51	3.045
315.87	2.410
316.24	3.398
316.61	2.831
316.97	2.963
317.34	2.674
317.70	4.371
318.07	3.904
318.43	3.342
318.80	2.007
319.16	2.387
319.53	3.943
319.89	2.168
320.26	3.604
320.62	3.336
320.99	2.616
321.35	2.339
321.72	2.406
322.08	4.797
322.45	3.978
322.81	3.882
323.18	3.757
323.54	3.700
323.91	4.155
324.27	3.150
324.64	1.829
325.00	3.237
325.37	4.096
325.73	3.535
326.10	2.775
326.46	3.763
326.83	3.641
327.19	3.821
327.56	3.546
327.92	3.620
328.29	5.008
328.65	4.294
329.01	2.902
329.38	4.261
329.74	4.206
330.11	3.697
330.47	3.038
330.84	4.242
331.20	3.928
331.56	3.895
331.93	4.479
332.29	5.039
332.66	3.644
333.02	4.865
333.38	4.386
333.75	4.863
334.11	4.427
334.48	4.621
334.84	2.739
335.20	3.345
335.57	4.091
335.93	2.577
336.29	3.853
336.66	4.444
337.02	4.000
337.38	3.829
337.75	3.962
338.11	3.843
338.47	3.682
338.84	3.694
339.20	3.968
339.56	3.242
339.93	4.235
340.29	4.441
340.65	4.705
341.02	4.908
341.38	3.463
341.74	4.622
342.11	3.633
342.47	2.762
342.83	4.248
343.20	3.723
343.56	4.252
343.92	4.630
344.28	3.896
344.65	4.408
345.01	3.713
345.37	4.030
345.73	5.310
346.10	4.976
346.46	4.146
346.82	4.093
347.19	3.481
347.55	3.877
347.91	4.053
348.27	3.864
348.63	4.728
349.00	3.538
349.36	4.710
349.72	4.408
350.08	4.134
350.45	3.837
350.81	4.930
351.17	4.542
351.53	3.692
351.89	2.939
352.26	3.707
352.62	4.419
352.98	3.914
353.34	3.543
353.70	4.206
354.07	3.137
354.43	3.655
354.79	4.327
355.15	3.494
355.51	4.176
355.87	3.518
356.24	3.130
356.60	3.206
356.96	3.837
357.32	4.799
357.68	3.209
358.04	3.801
358.40	3.876
358.77	4.511
359.13	4.358
359.49	4.239
359.85	2.957
360.21	3.624
360.57	3.802
360.93	3.187
361.29	3.627
361.66	4.860
362.02	3.781
362.38	3.619
362.74	3.626
363.10	3.398
363.46	3.746
363.82	3.991
364.18	4.351
364.54	3.720
364.90	2.927
365.26	2.760
365.62	3.480
365.98	3.203
366.35	3.404
366.71	3.424
367.07	3.969
367.43	4.042
367.79	4.170
368.15	3.516
368.51	3.024
368.87	3.699
369.23	2.989
369.59	3.524
369.95	3.266
370.31	3.975
370.67	3.476
371.03	3.489
371.39	3.833
371.75	4.286
372.11	3.775
372.47	3.677
372.83	4.092
373.19	3.597
373.55	3.179
373.91	4.243
374.27	3.527
374.63	3.698
374.99	3.273
375.35	3.493
375.71	3.940
376.07	3.907
376.42	3.342
376.78	4.624
377.14	3.593
377.50	4.107
377.86	3.187
378.22	3.856
378.58	3.279
378.94	4.500
379.30	3.748
379.66	4.131
380.02	3.860
380.38	3.253
380.74	4.244
381.09	3.679
381.45	4.111
381.81	3.635
382.17	3.214
382.53	3.815
382.89	3.619
383.25	3.333
383.61	4.600
383.97	3.750
384.32	3.214
384.68	3.208
385.04	3.604
385.40	3.425
385.76	4.319
386.12	3.551
386.48	3.699
386.83	4.005
387.19	3.763
387.55	4.660
387.91	3.383
388.27	3.699
388.62	3.683
388.98	3.317
389.34	3.509
389.70	3.358
390.06	4.437
390.42	4.510
390.77	3.331
391.13	3.346
391.49	3.479
391.85	4.537
392.20	3.822
392.56	4.000
392.92	3.218
393.28	3.661
393.64	3.914
393.99	3.121
394.35	3.704
394.71	3.910
395.07	3.019
395.42	3.900
395.78	3.218
396.14	3.932
396.50	3.868
396.85	3.952
397.21	3.620
397.57	4.348
397.92	3.353
398.28	4.287
398.64	4.007
399.00	4.353
399.35	3.632
399.71	3.145
400.07	3.614
400.42	3.511
400.78	4.109
401.14	3.372
401.49	3.595
401.85	3.870
402.21	2.848
402.57	4.047
402.92	4.506
403.28	4.065
403.63	3.906
403.99	3.839
404.35	3.616
404.70	3.082
405.06	4.169
405.42	2.827
405.77	3.802
406.13	3.829
406.49	3.655
406.84	3.175
407.20	3.434
407.55	3.961
407.91	3.772
408.27	3.556
408.62	5.034
408.98	4.007
409.34	3.589
409.69	3.834
410.05	3.918
410.40	3.104
410.76	4.152
411.11	3.856
411.47	3.782
411.83	4.055
412.18	3.401
412.54	4.699
412.89	3.762
413.25	3.304
413.60	3.636
413.96	4.307
414.31	4.069
414.67	3.810
415.03	2.774
415.38	3.831
415.74	3.509
416.09	3.900
416.45	3.486
416.80	3.221
417.16	4.386
417.51	3.818
417.87	3.439
418.22	4.331
418.58	3.482
418.93	3.892
419.29	3.960
419.64	4.326
420.00	3.619
420.35	3.347
420.71	3.473
421.06	3.998
421.42	4.319
421.77	3.468
422.12	4.298
422.48	3.871
422.83	4.253
423.19	4.313
423.54	4.594
423.90	3.444
424.25	4.506
424.61	3.758
424.96	3.430
425.31	4.375
425.67	4.468
426.02	5.006
426.38	4.726
426.73	3.482
427.09	4.378
427.44	4.463
427.79	3.504
428.15	4.893
428.50	2.961
428.85	4.490
429.21	4.333
429.56	4.570
429.92	4.425
430.27	3.937
430.62	3.673
430.98	4.759
431.33	4.245
431.68	4.633
432.04	3.606
432.39	4.157
432.74	4.108
433.10	4.184
433.45	4.970
433.80	3.391
434.16	3.823
434.51	4.076
434.86	4.535
435.22	4.527
435.57	4.177
435.92	3.920
436.28	3.664
436.63	3.695
436.98	4.700
437.34	4.579
437.69	4.545
438.04	3.905
438.39	4.545
438.75	3.993
439.10	5.263
439.45	4.479
439.81	4.618
440.16	4.406
440.51	4.221
440.86	4.209
441.22	3.729
441.57	5.369
441.92	4.303
442.27	4.275
442.63	4.306
442.98	3.877
443.33	4.345
443.68	3.954
444.03	4.670
444.39	5.156
444.74	4.307
445.09	4.570
445.44	5.183
445.79	4.388
446.15	4.825
446.50	4.075
446.85	4.543
447.20	5.018
447.55	4.757
447.91	4.101
448.26	4.288
448.61	4.315
448.96	5.068
449.31	5.026
449.66	5.263
450.02	4.548
450.37	4.759
450.72	4.707
451.07	4.075
451.42	4.304
451.77	4.565
452.12	4.456
452.47	4.777
452.83	4.599
453.18	4.456
453.53	4.351
453.88	4.940
454.23	4.883
454.58	5.515
454.93	4.233
455.28	5.652
455.63	3.431
455.98	4.078
456.34	4.768
456.69	4.281
457.04	4.768
457.39	4.450
457.74	4.548
458.09	4.206
458.44	4.113
458.79	4.613
459.14	4.494
459.49	4.085
459.84	4.171
460.19	3.721
460.54	4.988
460.89	4.336
461.24	4.007
461.59	4.710
461.94	5.120
462.29	4.596
462.64	4.683
462.99	5.164
463.34	5.041
463.69	4.253
464.04	4.802
464.39	5.064
464.74	4.361
465.09	4.712
465.44	5.443
465.79	4.715
466.14	4.846
466.49	3.988
466.84	3.766
467.19	4.140
467.54	4.472
467.89	4.840
468.24	4.241
468.59	4.398
468.94	4.725
469.29	4.560
469.64	5.160
469.99	5.586
470.34	5.462
470.68	4.238
471.03	4.654
471.38	5.076
471.73	4.938
472.08	4.880
472.43	4.683
472.78	5.274
473.13	3.958
473.48	4.631
473.83	4.834
474.17	4.232
474.52	4.142
474.87	5.127
475.22	4.287
475.57	5.298
475.92	5.071
476.27	4.138
476.61	4.077
476.96	4.340
477.31	4.261
477.66	5.141
478.01	4.560
478.36	4.905
478.70	4.726
479.05	5.105
479.40	5.044
479.75	4.304
480.10	4.997
480.45	4.757
480.79	4.928
481.14	5.268
481.49	5.575
481.84	4.336
482.19	4.724
482.53	4.048
482.88	4.794
483.23	4.187
483.58	4.962
483.92	4.377
484.27	4.346
484.62	4.261
484.97	4.811
485.31	4.210
485.66	4.473
486.01	4.643
486.36	4.656
486.70	4.907
487.05	5.122
487.40	4.861
487.75	5.455
488.09	4.786
488.44	5.117
488.79	5.450
489.13	5.209
489.48	4.959
489.83	4.824
490.17	4.857
490.52	5.049
490.87	4.682
491.22	4.663
491.56	5.462
491.91	4.753
492.26	4.787
492.60	5.243
492.95	5.053
493.30	5.475
493.64	4.604
493.99	5.072
494.34	5.539
494.68	5.251
495.03	4.348
495.37	5.061
495.72	4.812
496.07	5.017
496.41	4.399
496.76	5.667
497.11	5.305
497.45	4.815
497.80	4.947
498.14	5.189
498.49	4.791
498.84	4.757
499.18	5.226
499.53	4.431
499.87	4.706
500.22	5.276
500.56	5.316
500.91	5.835
501.26	5.862
501.60	4.657
501.95	5.079
502.29	5.097
502.64	6.172
502.98	4.913
503.33	4.574
503.67	5.307
504.02	4.657
504.36	4.903
504.71	4.878
505.06	4.636
505.40	5.309
505.75	5.544
506.09	4.957
506.44	5.141
506.78	5.130
507.13	5.198
507.47	5.726
507.82	5.495
508.16	5.752
508.51	4.649
508.85	5.340
509.19	5.026
509.54	6.434
509.88	5.591
510.23	5.316
510.57	5.561
510.92	5.711
511.26	5.116
511.61	4.775
511.95	4.686
512.30	4.942
512.64	6.243
512.98	5.263
513.33	5.070
513.67	4.940
514.02	5.473
514.36	6.236
514.70	5.139
515.05	5.383
515.39	4.658
515.74	5.743
516.08	5.015
516.42	5.703
516.77	5.155
517.11	5.115
517.46	5.882
517.80	5.751
518.14	4.715
518.49	5.244
518.83	5.788
519.17	5.843
519.52	6.092
519.86	5.950
520.20	4.669
520.55	6.405
520.89	4.554
521.23	5.833
521.58	6.195
521.92	5.405
522.26	4.945
522.61	6.076
522.95	6.088
523.29	5.587
523.64	5.594
523.98	5.845
524.32	6.301
524.66	5.714
525.01	5.963
525.35	5.727
525.69	5.169
526.04	5.537
526.38	6.373
526.72	5.851
527.06	6.447
527.41	6.089
527.75	5.541
528.09	6.127
528.43	6.242
528.78	5.620
529.12	6.404
529.46	5.310
529.80	5.566
530.15	5.534
530.49	5.795
530.83	5.552
531.17	6.507
531.51	5.934
531.86	5.081
532.20	5.238
532.54	4.966
532.88	5.106
533.22	5.926
533.57	5.629
533.91	5.935
534.25	6.901
534.59	5.727
534.93	5.995
535.27	6.433
535.62	4.737
535.96	6.246
536.30	6.449
536.64	5.742
536.98	5.886
537.32	5.979
537.66	6.206
538.01	6.588
538.35	5.180
538.69	5.418
539.03	6.174
539.37	4.896
539.71	6.071
540.05	5.128
540.39	5.919
540.73	5.656
541.07	6.395
541.42	6.532
541.76	6.089
542.10	6.297
542.44	5.613
542.78	5.690
543.12	6.873
543.46	5.874
543.80	5.567
544.14	6.056
544.48	4.977
544.82	6.052
545.16	5.477
545.50	6.077
545.84	5.891
546.18	5.540
546.52	5.857
546.86	5.724
547.20	5.075
547.54	5.075
547.88	5.938
548.22	6.515
548.56	6.004
548.90	5.683
549.24	6.667
549.58	5.480
549.92	6.163
550.26	6.199
550.60	5.556
550.94	5.672
551.28	5.678
551.62	6.917
551.96	5.857
552.30	5.386
552.64	5.367
552.98	5.966
553.32	6.056
553.66	5.723
554.00	5.760
554.34	5.714
554.68	5.742
555.02	6.437
555.36	5.598
555.69	6.191
556.03	4.932
556.37	5.405
556.71	6.377
557.05	5.683
557.39	5.652
557.73	6.051
558.07	6.104
558.41	6.056
558.75	6.620
559.08	4.892
559.42	6.294
559.76	6.269
560.10	5.304
560.44	6.632
560.78	5.827
561.12	6.027
561.45	5.510
561.79	5.777
562.13	6.470
562.47	6.429
562.81	4.978
563.15	5.170
563.48	6.607
563.82	6.019
564.16	5.687
564.50	5.767
564.84	5.270
565.17	6.623
565.51	5.615
565.85	5.263
566.19	6.093
566.52	5.636
566.86	5.563
567.20	5.315
567.54	5.815
567.88	5.207
568.21	5.812
568.55	5.634
568.89	5.184
569.23	5.545
569.56	5.382
569.90	5.560
570.24	4.729
570.57	5.357
570.91	5.426
571.25	5.064
571.59	5.322
571.92	5.133
572.26	5.495
572.60	5.605
572.93	5.373
573.27	5.405
573.61	5.356
573.95	4.839
574.28	5.182
574.62	5.233
574.96	5.413
575.29	5.241
575.63	4.900
575.97	5.272
576.30	5.396
576.64	5.030
576.98	5.121
577.31	5.497
577.65	5.125
577.98	4.780
578.32	5.067
578.66	5.238
578.99	5.704
579.33	5.197
579.67	5.270
580.00	5.267
580.34	5.259
580.67	5.512
581.01	5.387
581.35	5.072
581.68	5.149
582.02	5.135
582.35	5.145
582.69	5.198
583.02	5.062
583.36	5.159
583.70	5.594
584.03	5.662
584.37	5.191
584.70	5.220
585.04	5.248
585.37	5.176
585.71	5.282
586.04	5.038
586.38	5.183
586.72	5.226
587.05	5.443
587.39	5.349
587.72	5.000
588.06	5.308
588.39	5.514
588.73	5.806
589.06	5.496
589.40	5.366
589.73	5.713
590.07	5.614
590.40	5.566
590.73	5.348
591.07	5.600
591.40	5.957
591.74	5.425
592.07	5.705
592.41	5.792
592.74	5.710
593.08	4.991
593.41	5.459
593.75	4.877
594.08	5.320
594.41	4.826
594.75	5.772
595.08	6.049
595.42	5.297
595.75	5.640
596.09	5.851
596.42	5.433
596.75	5.792
597.09	5.687
597.42	5.787
597.75	5.333
598.09	5.055
598.42	5.817
598.76	5.668
599.09	5.682
599.42	5.136
599.76	5.896
600.09	5.120
600.42	5.085
600.76	4.989
601.09	5.650
601.42	5.410
601.76	5.444
602.09	5.472
602.42	5.737
602.76	5.453
603.09	5.626
603.42	5.278
603.76	5.144
604.09	5.731
604.42	5.902
604.76	4.758
605.09	6.072
605.42	5.443
605.75	5.525
606.09	4.719
606.42	5.320
606.75	4.892
607.09	5.186
607.42	5.517
607.75	4.902
608.08	6.177
608.42	5.717
608.75	5.781
609.08	5.390
609.41	6.259
609.75	5.648
610.08	5.424
610.41	5.782
610.74	5.534
611.07	5.261
611.41	5.425
611.74	5.642
612.07	5.784
612.40	5.892
612.73	5.653
613.07	5.322
613.40	6.553
613.73	5.796
614.06	6.191
614.39	5.781
614.72	6.274
615.06	5.833
615.39	5.408
615.72	5.778
616.05	5.180
616.38	6.472
616.71	5.039
617.05	5.713
617.38	5.915
617.71	5.515
618.04	5.911
618.37	5.552
618.70	5.627
619.03	6.048
619.36	5.979
619.69	4.532
620.03	5.866
620.36	5.358
620.69	5.211
621.02	4.846
621.35	5.642
621.68	4.890
622.01	5.906
622.34	5.551
622.67	6.343
623.00	6.459
623.33	5.535
623.66	5.279
623.99	6.977
624.32	6.016
624.65	6.231
624.99	5.658
625.32	5.751
625.65	5.349
625.98	5.213
626.31	6.367
626.64	5.503
626.97	6.055
627.30	7.442
627.63	5.969
627.96	5.368
628.29	7.256
628.62	6.480
628.95	4.910
629.28	7.192
629.61	6.699
629.94	5.416
630.26	6.404
630.59	5.395
630.92	4.618
631.25	4.325
631.58	5.675
631.91	5.302
632.24	6.586
632.57	6.333
632.90	6.768
633.23	5.156
633.56	7.554
633.89	7.177
634.22	7.774
634.55	7.795
634.88	5.882
635.20	6.500
635.53	5.297
635.86	6.667
636.19	6.948
636.52	4.878
636.85	4.704
637.18	4.629
637.51	6.242
637.83	7.963
638.16	5.867
638.49	5.874
638.82	5.490
639.15	6.516
639.48	6.150
639.81	5.833
640.13	6.479
640.46	6.497
640.79	5.612
641.12	6.953
641.45	4.076
641.77	6.038
642.10	7.262
642.43	8.805
642.76	5.521
643.09	5.911
643.41	6.699
643.74	6.624
644.07	5.825
644.40	8.624
644.73	5.763
645.05	5.061
645.38	7.475
645.71	7.653
646.04	5.724
646.36	6.944
646.69	8.566
647.02	6.557
647.35	7.861
647.67	5.360
648.00	4.529
648.33	7.966
648.66	5.843
648.98	6.832
649.31	6.748
649.64	3.912
649.96	6.477
650.29	3.595
650.62	7.743
650.94	5.862
651.27	5.654
651.60	5.769
651.92	7.348
652.25	6.868
652.58	8.746
652.90	5.892
653.23	4.924
653.56	6.777
653.88	3.413
654.21	3.754
654.54	6.478
654.86	5.366
655.19	5.322
655.52	6.576
655.84	4.501
656.17	5.448
656.49	7.292
656.82	7.481
657.15	5.955
