SpectraSuite Data File
++++++++++++++++++++++++++++++++++++
Date: Wed May 13 21:26:08 PDT 2015
User: schluterlab
Dark Spectrum Present: Yes
Reference Spectrum Present: Yes
Number of Sampled Component Spectra: 1
Spectrometers: USB2E3373
Integration Time (usec): 3000 (USB2E3373)
Spectra Averaged: 3 (USB2E3373)
Boxcar Smoothing: 0 (USB2E3373)
Correct for Electrical Dark: No (USB2E3373)
Strobe/Lamp Enabled: No (USB2E3373)
Correct for Detector Non-linearity: No (USB2E3373)
Correct for Stray Light: No (USB2E3373)
Number of Pixels in Processed Spectrum: 2048
>>>>>Begin Processed Spectral Data<<<<<
178.53	0.000
178.91	600.000
179.29	183.333
179.67	-750.000
180.04	-800.000
180.42	180.000
180.80	1600.000
181.18	300.000
181.56	-375.000
181.94	-200.000
182.31	-18.182
182.69	123.077
183.07	-200.000
183.45	333.333
183.83	200.000
184.20	157.143
184.58	166.667
184.96	133.333
185.34	157.143
185.72	0.000
186.09	-100.000
186.47	-320.000
186.85	200.000
187.23	-150.000
187.61	350.000
187.98	800.000
188.36	-12.500
188.74	0.000
189.12	0.000
189.49	50.000
189.87	66.667
190.25	300.000
190.63	-100.000
191.00	-200.000
191.38	120.000
191.76	325.000
192.14	150.000
192.51	-5.263
192.89	366.667
193.27	475.000
193.65	-200.000
194.02	163.636
194.40	150.000
194.78	-400.000
195.15	260.000
195.53	-300.000
195.91	62.500
196.29	-266.667
196.66	0.000
197.04	700.000
197.42	-60.000
197.79	-20.000
198.17	-25.000
198.55	-266.667
198.92	75.000
199.30	-233.333
199.68	-20.000
200.05	350.000
200.43	150.000
200.81	-1300.000
201.18	-160.000
201.56	-183.333
201.94	500.000
202.31	60.870
202.69	-200.000
203.07	-200.000
203.44	-120.000
203.82	-366.667
204.19	-120.000
204.57	0.000
204.95	-116.667
205.32	0.000
205.70	-50.000
206.08	-325.000
206.45	-300.000
206.83	425.000
207.20	-400.000
207.58	-70.000
207.96	-1400.000
208.33	-128.571
208.71	-700.000
209.08	162.500
209.46	600.000
209.84	0.000
210.21	100.000
210.59	900.000
210.96	280.000
211.34	2000.000
211.71	-1100.000
212.09	-250.000
212.46	-160.000
212.84	-33.333
213.22	-75.000
213.59	-1500.000
213.97	-600.000
214.34	-150.000
214.72	-7.692
215.09	300.000
215.47	111.111
215.84	600.000
216.22	-87.500
216.59	-300.000
216.97	466.667
217.34	177.778
217.72	0.000
218.09	333.333
218.47	300.000
218.84	-157.143
219.22	-12.500
219.59	-366.667
219.97	-150.000
220.34	-50.000
220.72	20.000
221.09	0.000
221.47	-50.000
221.84	0.000
222.22	0.000
222.59	900.000
222.97	33.333
223.34	-58.333
223.72	-400.000
224.09	-250.000
224.46	-72.727
224.84	-62.500
225.21	28.571
225.59	-225.000
225.96	0.000
226.34	-60.000
226.71	-228.571
227.08	450.000
227.46	-37.500
227.83	-200.000
228.21	-37.500
228.58	-250.000
228.95	-52.941
229.33	18.750
229.70	25.000
230.08	-23.077
230.45	-112.500
230.82	-33.333
231.20	214.286
231.57	-275.000
231.95	600.000
232.32	108.333
232.69	-11.765
233.07	-1300.000
233.44	-26.087
233.81	-500.000
234.19	20.833
234.56	-113.333
234.93	-33.333
235.31	-57.895
235.68	-69.231
236.05	-15.385
236.43	11.111
236.80	21.212
237.17	-53.333
237.55	-29.412
237.92	-6.897
238.29	-18.519
238.67	13.889
239.04	-3.226
239.41	17.021
239.79	25.532
240.16	18.605
240.53	14.286
240.91	30.357
241.28	23.214
241.65	37.097
242.02	23.684
242.40	40.580
242.77	28.986
243.14	20.513
243.51	31.915
243.89	29.808
244.26	35.849
244.63	26.923
245.00	46.875
245.38	22.689
245.75	30.328
246.12	27.820
246.49	26.829
246.87	27.731
247.24	40.541
247.61	31.126
247.98	33.333
248.36	36.095
248.73	34.270
249.10	28.788
249.47	36.022
249.84	37.895
250.22	34.826
250.59	33.178
250.96	35.000
251.33	25.359
251.70	40.586
252.08	31.799
252.45	34.568
252.82	36.502
253.19	32.685
253.56	37.770
253.94	37.011
254.31	34.155
254.68	36.242
255.05	37.954
255.42	34.615
255.79	34.663
256.16	34.069
256.54	37.460
256.91	30.380
257.28	39.937
257.65	33.758
258.02	35.777
258.39	35.088
258.76	38.953
259.14	35.511
259.51	33.427
259.88	37.127
260.25	38.889
260.62	37.079
260.99	40.849
261.36	36.788
261.73	35.556
262.10	34.351
262.47	36.543
262.85	37.562
263.22	35.641
263.59	34.545
263.96	32.360
264.33	34.375
264.70	40.233
265.07	36.343
265.44	37.701
265.81	36.842
266.18	35.763
266.55	37.118
266.92	35.169
267.29	33.333
267.66	37.580
268.03	38.272
268.40	34.746
268.77	38.223
269.14	36.327
269.51	37.577
269.88	35.845
270.25	36.017
270.62	36.475
270.99	35.827
271.36	36.508
271.73	36.345
272.10	37.524
272.47	35.317
272.84	35.630
273.21	36.399
273.58	36.885
273.95	34.528
274.32	36.381
274.69	35.883
275.06	36.219
275.43	38.606
275.80	35.284
276.17	35.175
276.54	34.281
276.91	35.366
277.28	34.657
277.65	34.965
278.02	37.857
278.39	34.103
278.76	36.455
279.13	36.535
279.50	34.828
279.87	36.775
280.23	35.856
280.60	33.910
280.97	34.740
281.34	34.543
281.71	33.171
282.08	33.162
282.45	34.098
282.82	36.581
283.19	33.841
283.56	34.688
283.92	34.557
284.29	32.917
284.66	36.409
285.03	34.853
285.40	33.384
285.77	35.586
286.14	35.106
286.51	33.733
286.87	35.077
287.24	32.891
287.61	34.036
287.98	32.647
288.35	31.297
288.72	32.855
289.08	32.479
289.45	31.718
289.82	34.191
290.19	30.715
290.56	30.824
290.93	30.249
291.29	30.506
291.66	31.284
292.03	33.106
292.40	30.686
292.77	31.058
293.13	29.428
293.50	29.542
293.87	31.200
294.24	30.688
294.60	32.250
294.97	32.540
295.34	28.760
295.71	30.092
296.08	29.581
296.44	29.337
296.81	28.380
297.18	31.375
297.55	27.476
297.91	28.571
298.28	28.329
298.65	28.818
299.02	28.938
299.38	27.975
299.75	29.567
300.12	27.326
300.48	26.784
300.85	28.637
301.22	27.875
301.59	28.873
301.95	26.365
302.32	28.005
302.69	25.537
303.05	26.800
303.42	26.818
303.79	27.971
304.15	25.849
304.52	26.559
304.89	25.138
305.25	25.247
305.62	26.464
305.99	27.639
306.35	29.049
306.72	26.246
307.09	26.903
307.45	26.305
307.82	26.105
308.19	25.810
308.55	26.305
308.92	26.817
309.29	26.727
309.65	25.674
310.02	26.342
310.38	26.728
310.75	25.838
311.12	26.725
311.48	26.014
311.85	24.902
312.22	26.596
312.58	26.280
312.95	26.667
313.31	25.803
313.68	23.378
314.05	25.992
314.41	26.705
314.78	26.091
315.14	25.370
315.51	26.356
315.87	25.487
316.24	25.253
316.61	26.484
316.97	26.296
317.34	26.292
317.70	26.940
318.07	27.240
318.43	25.926
318.80	25.916
319.16	25.818
319.53	26.523
319.89	27.100
320.26	26.617
320.62	27.711
320.99	28.101
321.35	28.718
321.72	27.430
322.08	28.044
322.45	29.695
322.81	28.558
323.18	28.533
323.54	29.332
323.91	30.352
324.27	29.433
324.64	30.662
325.00	31.321
325.37	31.314
325.73	30.892
326.10	31.203
326.46	32.191
326.83	31.472
327.19	32.114
327.56	33.521
327.92	33.628
328.29	33.055
328.65	34.443
329.01	35.092
329.38	36.000
329.74	35.365
330.11	34.986
330.47	35.503
330.84	35.469
331.20	35.354
331.56	36.594
331.93	38.243
332.29	36.924
332.66	37.542
333.02	38.662
333.38	37.368
333.75	37.884
334.11	38.281
334.48	39.756
334.84	37.102
335.20	38.165
335.57	38.468
335.93	36.684
336.29	38.091
336.66	39.487
337.02	38.435
337.38	37.946
337.75	37.984
338.11	36.977
338.47	37.586
338.84	38.230
339.20	38.360
339.56	38.140
339.93	38.202
340.29	40.137
340.65	38.067
341.02	39.268
341.38	38.598
341.74	37.395
342.11	38.563
342.47	37.908
342.83	39.788
343.20	40.694
343.56	39.984
343.92	39.480
344.28	40.503
344.65	39.755
345.01	39.709
345.37	41.036
345.73	40.114
346.10	40.289
346.46	37.886
346.82	39.888
347.19	40.190
347.55	41.357
347.91	39.517
348.27	40.379
348.63	40.545
349.00	39.544
349.36	40.345
349.72	39.830
350.08	39.704
350.45	40.016
350.81	41.080
351.17	42.571
351.53	41.634
351.89	39.873
352.26	40.232
352.62	40.853
352.98	40.655
353.34	41.224
353.70	41.433
354.07	41.176
354.43	42.457
354.79	41.667
355.15	42.003
355.51	41.230
355.87	42.142
356.24	41.252
356.60	40.031
356.96	41.443
357.32	42.028
357.68	42.246
358.04	41.971
358.40	43.256
358.77	42.966
359.13	42.802
359.49	43.301
359.85	42.608
360.21	43.408
360.57	43.118
360.93	43.399
361.29	44.634
361.66	43.584
362.02	43.291
362.38	44.387
362.74	44.162
363.10	44.107
363.46	43.012
363.82	43.829
364.18	44.598
364.54	44.931
364.90	44.251
365.26	46.072
365.62	45.881
365.98	45.267
366.35	45.177
366.71	45.649
367.07	45.996
367.43	45.157
367.79	46.491
368.15	46.414
368.51	46.062
368.87	46.685
369.23	46.406
369.59	46.512
369.95	48.041
370.31	47.559
370.67	46.488
371.03	48.701
371.39	48.687
371.75	49.000
372.11	49.003
372.47	48.738
372.83	48.405
373.19	49.137
373.55	47.977
373.91	49.222
374.27	48.686
374.63	50.213
374.99	50.418
375.35	50.137
375.71	50.272
376.07	50.788
376.42	50.936
376.78	51.255
377.14	52.475
377.50	52.086
377.86	51.461
378.22	51.707
378.58	52.144
378.94	52.625
379.30	54.154
379.66	54.254
380.02	53.064
380.38	53.253
380.74	54.393
381.09	54.403
381.45	54.414
381.81	54.590
382.17	54.127
382.53	54.831
382.89	53.920
383.25	55.988
383.61	56.538
383.97	55.875
384.32	55.829
384.68	56.015
385.04	55.712
385.40	57.285
385.76	57.603
386.12	56.940
386.48	57.492
386.83	58.761
387.19	59.469
387.55	58.737
387.91	60.578
388.27	58.816
388.62	59.238
388.98	60.388
389.34	60.088
389.70	60.195
390.06	61.000
390.42	60.567
390.77	60.282
391.13	62.121
391.49	59.203
391.85	60.895
392.20	62.218
392.56	61.524
392.92	61.732
393.28	62.464
393.64	62.385
393.99	62.362
394.35	62.407
394.71	64.103
395.07	62.138
395.42	63.376
395.78	63.256
396.14	63.475
396.50	64.680
396.85	63.990
397.21	63.795
397.57	64.286
397.92	65.269
398.28	65.200
398.64	64.602
399.00	65.067
399.35	65.607
399.71	65.463
400.07	66.446
400.42	64.890
400.78	64.894
401.14	66.278
401.49	66.147
401.85	66.523
402.21	67.492
402.57	66.462
402.92	66.708
403.28	67.917
403.63	67.080
403.99	68.522
404.35	68.080
404.70	67.009
405.06	66.706
405.42	68.405
405.77	67.627
406.13	67.371
406.49	68.005
406.84	68.132
407.20	67.614
407.55	69.091
407.91	67.240
408.27	67.873
408.62	69.613
408.98	68.372
409.34	68.874
409.69	69.331
410.05	68.408
410.40	67.377
410.76	68.351
411.11	70.336
411.47	69.277
411.83	69.370
412.18	68.766
412.54	68.797
412.89	70.282
413.25	68.496
413.60	70.345
413.96	69.663
414.31	70.160
414.67	68.889
415.03	70.839
415.38	70.542
415.74	70.370
416.09	69.597
416.45	70.745
416.80	70.403
417.16	71.120
417.51	70.998
417.87	71.230
418.22	72.398
418.58	69.908
418.93	71.563
419.29	72.409
419.64	69.784
420.00	71.746
420.35	70.711
420.71	71.968
421.06	72.448
421.42	72.445
421.77	72.890
422.12	72.779
422.48	71.156
422.83	73.479
423.19	72.915
423.54	73.557
423.90	72.447
424.25	73.137
424.61	71.411
424.96	72.206
425.31	71.004
425.67	74.956
426.02	73.498
426.38	73.445
426.73	73.977
427.09	73.046
427.44	73.282
427.79	73.278
428.15	72.722
428.50	73.172
428.85	72.755
429.21	72.088
429.56	74.283
429.92	73.816
430.27	73.569
430.62	74.029
430.98	74.617
431.33	73.885
431.68	74.760
432.04	75.268
432.39	72.748
432.74	74.004
433.10	74.143
433.45	72.959
433.80	74.483
434.16	72.693
434.51	75.652
434.86	73.616
435.22	74.420
435.57	73.587
435.92	74.849
436.28	74.234
436.63	73.614
436.98	74.148
437.34	74.969
437.69	74.616
438.04	73.005
438.39	74.346
438.75	75.864
439.10	77.212
439.45	74.758
439.81	76.170
440.16	75.884
440.51	74.376
440.86	74.807
441.22	75.158
441.57	75.271
441.92	74.961
442.27	74.784
442.63	74.543
442.98	74.537
443.33	74.492
443.68	73.695
444.03	73.721
444.39	75.508
444.74	75.649
445.09	73.568
445.44	74.423
445.79	75.787
446.15	73.489
446.50	74.284
446.85	75.468
447.20	75.118
447.55	74.818
447.91	74.607
448.26	74.557
448.61	73.820
448.96	74.146
449.31	74.186
449.66	73.858
450.02	74.360
450.37	75.206
450.72	74.397
451.07	74.984
451.42	73.550
451.77	73.402
452.12	72.608
452.47	73.596
452.83	73.585
453.18	72.756
453.53	72.825
453.88	73.855
454.23	72.806
454.58	73.284
454.93	73.829
455.28	72.832
455.63	73.799
455.98	73.037
456.34	71.583
456.69	72.460
457.04	71.950
457.39	72.219
457.74	72.292
458.09	73.045
458.44	73.090
458.79	71.334
459.14	69.775
459.49	72.561
459.84	72.322
460.19	71.849
460.54	70.925
460.89	72.354
461.24	71.578
461.59	73.128
461.94	71.239
462.29	72.610
462.64	72.032
462.99	72.166
463.34	72.859
463.69	72.294
464.04	70.948
464.39	72.117
464.74	71.499
465.09	71.296
465.44	69.473
465.79	72.110
466.14	71.950
466.49	72.023
466.84	71.608
467.19	71.146
467.54	70.642
467.89	71.779
468.24	70.805
468.59	72.275
468.94	69.860
469.29	70.787
469.64	71.199
469.99	70.483
470.34	70.465
470.68	71.004
471.03	69.817
471.38	70.236
471.73	70.027
472.08	72.440
472.43	72.230
472.78	69.980
473.13	69.921
473.48	70.320
473.83	70.245
474.17	70.703
474.52	70.680
474.87	70.326
475.22	70.833
475.57	70.273
475.92	69.902
476.27	70.047
476.61	68.913
476.96	69.789
477.31	69.471
477.66	70.847
478.01	70.385
478.36	69.918
478.70	70.569
479.05	70.644
479.40	68.175
479.75	70.298
480.10	70.525
480.45	68.465
480.79	69.736
481.14	70.263
481.49	70.350
481.84	69.180
482.19	68.921
482.53	69.476
482.88	68.888
483.23	68.816
483.58	68.573
483.92	70.428
484.27	68.390
484.62	67.865
484.97	69.058
485.31	67.927
485.66	66.524
486.01	68.233
486.36	68.115
486.70	68.696
487.05	69.155
487.40	69.811
487.75	68.734
488.09	68.596
488.44	68.104
488.79	69.152
489.13	67.833
489.48	67.892
489.83	67.173
490.17	67.953
490.52	68.677
490.87	67.687
491.22	67.122
491.56	68.136
491.91	66.683
492.26	67.360
492.60	65.608
492.95	66.812
493.30	65.601
493.64	65.803
493.99	67.005
494.34	66.522
494.68	67.160
495.03	67.589
495.37	67.007
495.72	66.667
496.07	67.121
496.41	66.168
496.76	66.179
497.11	67.465
497.45	67.996
497.80	67.996
498.14	67.557
498.49	66.415
498.84	66.245
499.18	67.297
499.53	66.519
499.87	65.987
500.22	66.999
500.56	68.004
500.91	68.058
501.26	66.946
501.60	66.716
501.95	66.938
502.29	66.748
502.64	67.358
502.98	66.137
503.33	67.932
503.67	67.722
504.02	67.549
504.36	66.964
504.71	66.514
505.06	67.193
505.40	68.093
505.75	68.566
506.09	67.501
506.44	66.482
506.78	67.547
507.13	68.555
507.47	67.603
507.82	65.515
508.16	68.496
508.51	67.562
508.85	67.289
509.19	67.037
509.54	66.381
509.88	68.226
510.23	68.579
510.57	67.108
510.92	67.942
511.26	69.472
511.61	69.210
511.95	67.310
512.30	67.574
512.64	68.218
512.98	68.033
513.33	69.014
513.67	67.575
514.02	68.529
514.36	68.596
514.70	68.591
515.05	67.993
515.39	67.453
515.74	68.680
516.08	67.493
516.42	68.088
516.77	67.018
517.11	69.077
517.46	70.168
517.80	69.734
518.14	67.912
518.49	69.138
518.83	68.675
519.17	70.361
519.52	69.903
519.86	70.249
520.20	68.526
520.55	69.590
520.89	70.398
521.23	69.808
521.58	69.975
521.92	68.070
522.26	68.770
522.61	70.265
522.95	68.977
523.29	68.889
523.64	68.531
523.98	68.615
524.32	68.305
524.66	71.364
525.01	70.446
525.35	69.849
525.69	68.721
526.04	69.251
526.38	68.324
526.72	69.560
527.06	68.859
527.41	68.630
527.75	68.825
528.09	71.681
528.43	70.624
528.78	68.992
529.12	70.116
529.46	69.546
529.80	69.450
530.15	66.281
530.49	69.474
530.83	69.871
531.17	71.644
531.51	67.835
531.86	68.631
532.20	69.607
532.54	68.690
532.88	68.482
533.22	68.956
533.57	69.536
533.91	68.387
534.25	69.987
534.59	69.112
534.93	70.217
535.27	68.854
535.62	69.013
535.96	68.445
536.30	68.551
536.64	68.148
536.98	67.064
537.32	69.680
537.66	69.746
538.01	69.695
538.35	67.403
538.69	67.425
539.03	66.711
539.37	67.069
539.71	68.417
540.05	67.004
540.39	66.827
540.73	67.947
541.07	67.755
541.42	67.475
541.76	66.576
542.10	66.892
542.44	67.983
542.78	69.743
543.12	66.509
543.46	65.860
543.80	66.531
544.14	67.860
544.48	65.295
544.82	67.922
545.16	66.599
545.50	67.522
545.84	66.480
546.18	66.269
546.52	67.255
546.86	65.654
547.20	66.047
547.54	66.833
547.88	66.869
548.22	66.254
548.56	65.510
548.90	65.494
549.24	66.806
549.58	66.263
549.92	67.205
550.26	68.118
550.60	66.742
550.94	66.045
551.28	66.768
551.62	67.368
551.96	66.325
552.30	66.521
552.64	64.972
552.98	68.253
553.32	66.474
553.66	66.618
554.00	66.667
554.34	66.081
554.68	66.145
555.02	64.371
555.36	67.474
555.69	65.696
556.03	66.190
556.37	65.718
556.71	63.630
557.05	65.387
557.39	65.034
557.73	66.566
558.07	65.938
558.41	65.178
558.75	66.282
559.08	64.956
559.42	64.988
559.76	64.450
560.10	64.566
560.44	65.070
560.78	64.676
561.12	65.102
561.45	64.830
561.79	64.649
562.13	65.331
562.47	66.500
562.81	65.224
563.15	62.960
563.48	64.074
563.82	65.527
564.16	64.252
564.50	64.383
564.84	65.068
565.17	64.901
565.51	65.508
565.85	61.626
566.19	63.377
566.52	64.875
566.86	63.654
567.20	64.386
567.54	62.694
567.88	64.166
568.21	63.987
568.55	63.485
568.89	63.709
569.23	62.695
569.56	63.079
569.90	62.232
570.24	62.274
570.57	61.754
570.91	63.216
571.25	62.771
571.59	62.237
571.92	63.450
572.26	63.885
572.60	63.905
572.93	63.418
573.27	62.435
573.61	63.173
573.95	62.877
574.28	62.465
574.62	62.404
574.96	62.648
575.29	63.340
575.63	63.066
575.97	62.908
576.30	62.252
576.64	62.746
576.98	63.623
577.31	61.925
577.65	62.094
577.98	63.315
578.32	62.321
578.66	62.815
578.99	62.723
579.33	62.694
579.67	61.787
580.00	62.460
580.34	61.440
580.67	62.714
581.01	61.707
581.35	61.678
581.68	61.840
582.02	62.577
582.35	62.275
582.69	62.647
583.02	61.527
583.36	61.696
583.70	62.407
584.03	62.011
584.37	61.148
584.70	61.411
585.04	62.207
585.37	62.479
585.71	61.433
586.04	61.404
586.38	61.747
586.72	60.916
587.05	61.760
587.39	61.444
587.72	62.261
588.06	61.313
588.39	62.469
588.73	62.304
589.06	61.817
589.40	61.920
589.73	61.085
590.07	61.648
590.40	61.037
590.73	61.872
591.07	61.889
591.40	60.652
591.74	61.538
592.07	60.338
592.41	61.433
592.74	60.995
593.08	60.991
593.41	60.822
593.75	61.176
594.08	60.276
594.41	60.695
594.75	60.720
595.08	61.240
595.42	61.238
595.75	60.810
596.09	59.623
596.42	61.397
596.75	60.816
597.09	60.828
597.42	61.552
597.75	60.356
598.09	59.973
598.42	62.058
598.76	60.327
599.09	62.345
599.42	60.159
599.76	60.345
600.09	60.843
600.42	60.038
600.76	60.495
601.09	60.113
601.42	59.702
601.76	59.498
602.09	60.113
602.42	61.535
602.76	60.235
603.09	61.027
603.42	60.576
603.76	59.353
604.09	59.130
604.42	59.021
604.76	58.970
605.09	59.900
605.42	61.224
605.75	58.287
606.09	59.230
606.42	60.515
606.75	59.221
607.09	60.151
607.42	59.939
607.75	58.293
608.08	59.874
608.42	60.309
608.75	59.675
609.08	59.040
609.41	59.116
609.75	59.052
610.08	60.059
610.41	60.204
610.74	58.614
611.07	57.916
611.41	59.110
611.74	59.006
612.07	58.572
612.40	59.243
612.73	59.111
613.07	58.592
613.40	60.242
613.73	57.855
614.06	58.264
614.39	58.755
614.72	58.634
615.06	57.889
615.39	58.444
615.72	59.125
616.05	58.615
616.38	58.362
616.71	58.488
617.05	58.661
617.38	57.486
617.71	57.169
618.04	57.404
618.37	59.306
618.70	56.986
619.03	56.976
619.36	59.217
619.69	57.675
620.03	56.890
620.36	57.272
620.69	57.173
621.02	57.077
621.35	56.255
621.68	56.561
622.01	57.848
622.34	55.036
622.67	57.244
623.00	57.903
623.33	57.143
623.66	57.621
623.99	57.989
624.32	56.200
624.65	57.864
624.99	57.531
625.32	56.385
625.65	57.209
625.98	57.899
626.31	56.327
626.64	57.782
626.97	56.142
627.30	57.485
627.63	56.055
627.96	53.766
628.29	57.953
628.62	55.803
628.95	56.012
629.28	57.340
629.61	57.512
629.94	57.350
630.26	56.256
630.59	53.946
630.92	54.217
631.25	55.716
631.58	56.531
631.91	54.189
632.24	56.092
632.57	55.000
