SpectraSuite Data File
++++++++++++++++++++++++++++++++++++
Date: Wed May 13 21:29:09 PDT 2015
User: schluterlab
Dark Spectrum Present: Yes
Reference Spectrum Present: Yes
Number of Sampled Component Spectra: 1
Spectrometers: USB2E3373
Integration Time (usec): 3000 (USB2E3373)
Spectra Averaged: 3 (USB2E3373)
Boxcar Smoothing: 0 (USB2E3373)
Correct for Electrical Dark: No (USB2E3373)
Strobe/Lamp Enabled: No (USB2E3373)
Correct for Detector Non-linearity: No (USB2E3373)
Correct for Stray Light: No (USB2E3373)
Number of Pixels in Processed Spectrum: 2048
>>>>>Begin Processed Spectral Data<<<<<
178.53	0.000
178.91	500.000
179.29	183.333
179.67	-450.000
180.04	-100.000
180.42	180.000
180.80	1200.000
181.18	250.000
181.56	-400.000
181.94	-50.000
182.31	0.000
182.69	115.385
183.07	-80.000
183.45	150.000
183.83	188.889
184.20	200.000
184.58	66.667
184.96	566.667
185.34	142.857
185.72	0.000
186.09	-700.000
186.47	-480.000
186.85	220.000
187.23	-50.000
187.61	650.000
187.98	1300.000
188.36	-137.500
188.74	0.000
189.12	0.000
189.49	-70.000
189.87	108.333
190.25	400.000
190.63	1100.000
191.00	-260.000
191.38	440.000
191.76	225.000
192.14	125.000
192.51	-21.053
192.89	400.000
193.27	450.000
193.65	-280.000
194.02	227.273
194.40	120.000
194.78	-500.000
195.15	180.000
195.53	-120.000
195.91	12.500
196.29	-233.333
196.66	0.000
197.04	250.000
197.42	-140.000
197.79	-60.000
198.17	-125.000
198.55	-300.000
198.92	75.000
199.30	-433.333
199.68	-100.000
200.05	250.000
200.43	83.333
200.81	-1400.000
201.18	-120.000
201.56	-216.667
201.94	825.000
202.31	-4.348
202.69	-85.714
203.07	-600.000
203.44	0.000
203.82	33.333
204.19	-40.000
204.57	0.000
204.95	33.333
205.32	0.000
205.70	-350.000
206.08	-350.000
206.45	-300.000
206.83	350.000
207.20	66.667
207.58	-80.000
207.96	-2100.000
208.33	-185.714
208.71	-1000.000
209.08	275.000
209.46	75.000
209.84	0.000
210.21	60.000
210.59	1900.000
210.96	280.000
211.34	600.000
211.71	-850.000
212.09	-300.000
212.46	-100.000
212.84	66.667
213.22	-100.000
213.59	-1700.000
213.97	-650.000
214.34	-800.000
214.72	-92.308
215.09	212.500
215.47	155.556
215.84	550.000
216.22	-150.000
216.59	-1000.000
216.97	566.667
217.34	222.222
217.72	0.000
218.09	-33.333
218.47	-400.000
218.84	-114.286
219.22	-250.000
219.59	-333.333
219.97	-225.000
220.34	-100.000
220.72	-160.000
221.09	0.000
221.47	-250.000
221.84	-800.000
222.22	0.000
222.59	1200.000
222.97	-200.000
223.34	-100.000
223.72	-1300.000
224.09	-700.000
224.46	-63.636
224.84	-275.000
225.21	-128.571
225.59	-325.000
225.96	-150.000
226.34	-50.000
226.71	-128.571
227.08	350.000
227.46	-25.000
227.83	-1000.000
228.21	-62.500
228.58	-175.000
228.95	-23.529
229.33	-50.000
229.70	-75.000
230.08	-23.077
230.45	-175.000
230.82	-141.667
231.20	342.857
231.57	-450.000
231.95	1500.000
232.32	16.667
232.69	-70.588
233.07	-1700.000
233.44	4.348
233.81	-650.000
234.19	-4.167
234.56	-93.333
234.93	-53.333
235.31	-36.842
235.68	-92.308
236.05	-69.231
236.43	-44.444
236.80	-21.212
237.17	-60.000
237.55	-100.000
237.92	-58.621
238.29	-66.667
238.67	-30.556
239.04	-29.032
239.41	-25.532
239.79	-6.383
240.16	-4.651
240.53	-3.571
240.91	-3.571
241.28	0.000
241.65	-1.613
242.02	-15.789
242.40	-10.145
242.77	-20.290
243.14	-19.231
243.51	-8.511
243.89	-2.885
244.26	3.774
244.63	-21.154
245.00	-8.333
245.38	-8.403
245.75	-0.820
246.12	0.000
246.49	-14.634
246.87	-17.647
247.24	-2.027
247.61	-4.636
247.98	-7.051
248.36	-4.734
248.73	-6.742
249.10	-8.586
249.47	-6.452
249.84	-1.053
250.22	-1.493
250.59	-4.206
250.96	4.545
251.33	-12.919
251.70	0.000
252.08	3.347
252.45	0.823
252.82	1.521
253.19	-4.669
253.56	-4.317
253.94	0.356
254.31	0.704
254.68	-0.336
255.05	-1.650
255.42	-1.748
255.79	-2.454
256.16	-1.262
256.54	-0.952
256.91	-1.899
257.28	-0.943
257.65	-4.459
258.02	-2.639
258.39	1.170
258.76	-1.453
259.14	-1.420
259.51	-1.124
259.88	-2.710
260.25	-0.833
260.62	-3.652
260.99	-0.531
261.36	-0.259
261.73	-0.494
262.10	-3.562
262.47	-1.235
262.85	-2.736
263.22	-4.103
263.59	-2.857
263.96	-0.730
264.33	-1.442
264.70	-0.465
265.07	-2.546
265.44	-2.299
265.81	-2.288
266.18	-1.822
266.55	-1.092
266.92	-1.271
267.29	-2.058
267.66	-1.062
268.03	-1.029
268.40	-2.119
268.77	-0.413
269.14	-2.041
269.51	0.411
269.88	-3.055
270.25	-1.695
270.62	-2.664
270.99	-0.197
271.36	-0.198
271.73	-1.606
272.10	-0.762
272.47	0.000
272.84	0.984
273.21	-3.327
273.58	-1.434
273.95	-1.887
274.32	1.306
274.69	-1.093
275.06	1.237
275.43	-3.578
275.80	0.177
276.17	0.737
276.54	-1.243
276.91	-1.742
277.28	-2.708
277.65	0.699
278.02	-0.714
278.39	-1.243
278.76	1.672
279.13	-1.544
279.50	-2.759
279.87	-2.536
280.23	-1.982
280.60	-1.903
280.97	-2.273
281.34	1.735
281.71	-1.463
282.08	-2.222
282.45	-1.311
282.82	-0.160
283.19	1.524
283.56	0.156
283.92	-1.682
284.29	-1.404
284.66	-0.494
285.03	-2.280
285.40	-0.302
285.77	-1.351
286.14	-1.672
286.51	1.949
286.87	-0.923
287.24	-1.475
287.61	-0.602
287.98	-2.500
288.35	-2.832
288.72	-1.435
289.08	0.997
289.45	-1.322
289.82	0.756
290.19	1.683
290.56	-1.278
290.93	-0.414
291.29	-1.778
291.66	-1.230
292.03	0.817
292.40	-0.269
292.77	0.000
293.13	0.279
293.50	0.131
293.87	-0.133
294.24	-0.926
294.60	0.260
294.97	0.661
295.34	-2.111
295.71	-3.285
296.08	-1.571
296.44	-0.510
296.81	-1.340
297.18	-0.125
297.55	0.354
297.91	0.621
298.28	-0.847
298.65	-0.862
299.02	1.465
299.38	-0.613
299.75	-0.481
300.12	-0.930
300.48	-0.585
300.85	-0.462
301.22	0.116
301.59	-0.704
301.95	-1.626
302.32	-0.933
302.69	-1.356
303.05	0.775
303.42	1.136
303.79	0.315
304.15	-0.876
304.52	0.538
304.89	-0.664
305.25	-1.427
305.62	-0.759
305.99	-0.762
306.35	0.940
306.72	1.628
307.09	1.043
307.45	-0.426
307.82	0.211
308.19	-1.149
308.55	-0.716
308.92	0.491
309.29	-0.300
309.65	-0.200
310.02	0.795
310.38	0.000
310.75	-0.394
311.12	0.292
311.48	-0.890
311.85	0.886
312.22	0.967
312.58	0.193
312.95	-0.398
313.31	1.377
313.68	0.477
314.05	1.134
314.41	1.633
314.78	1.233
315.14	2.222
315.51	2.379
315.87	2.224
316.24	3.122
316.61	2.740
316.97	1.944
317.34	3.209
317.70	3.033
318.07	3.106
318.43	3.162
318.80	3.665
319.16	3.448
319.53	5.018
319.89	4.607
320.26	4.621
320.62	4.634
320.99	4.264
321.35	5.051
321.72	4.427
322.08	6.642
322.45	6.753
322.81	6.747
323.18	7.245
323.54	7.401
323.91	8.491
324.27	8.551
324.64	8.101
325.00	7.349
325.37	9.386
325.73	8.418
326.10	8.999
326.46	9.950
326.83	10.275
327.19	10.488
327.56	10.475
327.92	10.780
328.29	12.270
328.65	12.358
329.01	11.170
329.38	12.261
329.74	12.017
330.11	11.542
330.47	11.806
330.84	12.365
331.20	11.956
331.56	12.500
331.93	13.437
332.29	13.988
332.66	11.949
333.02	13.553
333.38	13.333
333.75	12.543
334.11	13.628
334.48	13.078
334.84	12.544
335.20	14.322
335.57	13.490
335.93	12.801
336.29	13.660
336.66	12.735
337.02	13.565
337.38	13.316
337.75	14.470
338.11	13.322
338.47	13.870
338.84	13.402
339.20	13.845
339.56	12.628
339.93	12.965
340.29	12.810
340.65	14.457
341.02	13.394
341.38	13.682
341.74	12.269
342.11	12.882
342.47	12.552
342.83	13.072
343.20	14.044
343.56	13.328
343.92	13.566
344.28	14.042
344.65	13.143
345.01	13.640
345.37	15.296
345.73	13.971
346.10	13.644
346.46	12.358
346.82	12.841
347.19	12.421
347.55	13.328
347.91	13.640
348.27	12.934
348.63	13.462
349.00	13.129
349.36	14.443
349.72	13.844
350.08	13.261
350.45	13.547
350.81	12.598
351.17	13.241
351.53	13.590
351.89	13.106
352.26	12.278
352.62	13.488
352.98	13.099
353.34	12.641
353.70	13.084
354.07	13.020
354.43	14.152
354.79	12.740
355.15	13.276
355.51	12.149
355.87	12.823
356.24	12.360
356.60	11.884
356.96	12.586
357.32	14.009
357.68	13.216
358.04	13.499
358.40	12.171
358.77	13.073
359.13	12.296
359.49	12.793
359.85	12.585
360.21	12.645
360.57	12.776
360.93	13.354
361.29	13.694
361.66	12.984
362.02	12.602
362.38	12.925
362.74	12.328
363.10	12.509
363.46	12.320
363.82	12.417
364.18	12.255
364.54	13.129
364.90	11.638
365.26	13.163
365.62	12.074
365.98	12.811
366.35	13.617
366.71	12.696
367.07	11.481
367.43	13.240
367.79	12.439
368.15	12.166
368.51	11.533
368.87	13.259
369.23	12.313
369.59	12.051
369.95	11.901
370.31	12.064
370.67	12.020
371.03	12.101
371.39	12.207
371.75	12.714
372.11	12.821
372.47	12.978
372.83	12.483
373.19	12.662
373.55	12.645
373.91	11.528
374.27	11.757
374.63	12.731
374.99	11.281
375.35	12.055
375.71	11.753
376.07	12.406
376.42	12.166
376.78	12.087
377.14	12.678
377.50	12.581
377.86	12.417
378.22	12.263
378.58	11.791
378.94	12.750
379.30	11.993
379.66	12.392
380.02	11.949
380.38	11.807
380.74	12.971
381.09	11.882
381.45	12.938
381.81	11.645
382.17	12.161
382.53	12.615
382.89	12.063
383.25	12.346
383.61	12.107
383.97	12.875
384.32	12.098
384.68	12.030
385.04	12.095
385.40	12.267
385.76	12.470
386.12	11.879
386.48	11.034
386.83	12.328
387.19	10.611
387.55	12.017
387.91	12.177
388.27	12.269
388.62	11.673
388.98	11.827
389.34	12.281
389.70	11.416
390.06	12.250
390.42	13.015
390.77	11.339
391.13	11.869
391.49	11.322
391.85	12.268
392.20	11.779
392.56	11.238
392.92	11.995
393.28	11.912
393.64	11.376
393.99	10.710
394.35	11.481
394.71	11.538
395.07	11.258
395.42	11.213
395.78	11.840
396.14	12.048
396.50	11.224
396.85	12.046
397.21	11.486
397.57	10.994
397.92	11.557
398.28	11.788
398.64	11.475
399.00	12.165
399.35	11.918
399.71	11.124
400.07	11.145
400.42	11.097
400.78	11.239
401.14	10.668
401.49	10.905
401.85	10.258
402.21	11.393
402.57	11.711
402.92	11.577
403.28	11.445
403.63	11.283
403.99	10.685
404.35	10.599
404.70	11.057
405.06	11.627
405.42	10.867
405.77	10.829
406.13	11.086
406.49	11.084
406.84	10.867
407.20	10.539
407.55	10.325
407.91	9.729
408.27	10.480
408.62	11.234
408.98	10.111
409.34	10.458
409.69	12.021
410.05	10.759
410.40	10.590
410.76	10.830
411.11	10.759
411.47	10.617
411.83	11.354
412.18	9.635
412.54	10.714
412.89	9.781
413.25	9.735
413.60	10.094
413.96	10.424
414.31	10.851
414.67	10.413
415.03	10.487
415.38	9.445
415.74	11.111
416.09	10.641
416.45	10.048
416.80	10.470
417.16	10.931
417.51	10.382
417.87	10.450
418.22	10.407
418.58	10.512
418.93	10.797
419.29	10.231
419.64	10.560
420.00	9.841
420.35	10.520
420.71	10.725
421.06	10.148
421.42	11.192
421.77	10.694
422.12	10.602
422.48	10.360
422.83	9.687
423.19	10.121
423.54	10.483
423.90	10.154
424.25	11.554
424.61	10.228
424.96	9.994
425.31	9.871
425.67	10.700
426.02	10.895
426.38	10.572
426.73	10.690
427.09	9.944
427.44	10.746
427.79	10.154
428.15	10.765
428.50	9.789
428.85	10.271
429.21	10.073
429.56	10.680
429.92	10.359
430.27	10.481
430.62	10.283
430.98	9.995
431.33	10.532
431.68	10.863
432.04	10.479
432.39	10.162
432.74	9.933
433.10	10.401
433.45	11.124
433.80	10.115
434.16	10.213
434.51	11.033
434.86	9.894
435.22	10.130
435.57	10.197
435.92	10.495
436.28	10.270
436.63	10.797
436.98	10.870
437.34	10.745
437.69	10.035
438.04	10.074
438.39	10.772
438.75	9.893
439.10	11.163
439.45	10.109
439.81	10.961
440.16	11.420
440.51	10.226
440.86	11.144
441.22	10.557
441.57	10.846
441.92	10.990
442.27	10.823
442.63	10.657
442.98	10.185
443.33	10.892
443.68	10.121
444.03	10.283
444.39	11.502
444.74	11.099
445.09	9.747
445.44	11.042
445.79	10.790
446.15	11.259
446.50	10.407
446.85	11.224
447.20	11.030
447.55	10.968
447.91	10.674
448.26	11.607
448.61	10.357
448.96	10.649
449.31	10.851
449.66	11.163
450.02	10.404
450.37	10.870
450.72	10.333
451.07	10.972
451.42	10.106
451.77	11.077
452.12	11.111
452.47	11.298
452.83	10.377
453.18	11.458
453.53	10.277
453.88	11.024
454.23	11.063
454.58	10.968
454.93	11.546
455.28	10.469
455.63	10.106
455.98	11.016
456.34	10.871
456.69	10.351
457.04	11.331
457.39	10.944
457.74	9.874
458.09	10.367
458.44	10.870
458.79	10.763
459.14	11.067
459.49	10.488
459.84	10.541
460.19	10.384
460.54	10.645
460.89	10.923
461.24	11.036
461.59	10.145
461.94	11.252
462.29	10.600
462.64	10.752
462.99	10.530
463.34	10.635
463.69	11.276
464.04	10.264
464.39	10.433
464.74	11.241
465.09	10.415
465.44	10.887
465.79	11.501
466.14	10.718
466.49	9.853
466.84	11.357
467.19	9.490
467.54	10.629
467.89	11.439
468.24	10.203
468.59	10.325
468.94	10.792
469.29	10.575
469.64	10.181
469.99	11.379
470.34	10.115
470.68	10.409
471.03	10.931
471.38	10.501
471.73	10.494
472.08	11.134
472.43	10.158
472.78	11.291
473.13	10.092
473.48	9.915
473.83	10.169
474.17	9.701
474.52	10.356
474.87	10.193
475.22	9.903
475.57	11.433
475.92	10.414
476.27	10.256
476.61	10.193
476.96	10.851
477.31	11.111
477.66	10.056
478.01	9.670
478.36	10.245
478.70	10.097
479.05	9.989
479.40	10.504
479.75	9.564
480.10	10.913
480.45	9.858
480.79	9.905
481.14	10.689
481.49	10.607
481.84	9.566
482.19	10.097
482.53	10.286
482.88	9.444
483.23	10.202
483.58	10.066
483.92	9.290
484.27	9.698
484.62	9.720
484.97	10.659
485.31	9.918
485.66	9.726
486.01	9.680
486.36	9.740
486.70	10.017
487.05	9.807
487.40	9.695
487.75	10.250
488.09	9.571
488.44	9.779
488.79	10.068
489.13	9.861
489.48	9.491
489.83	10.004
490.17	9.351
490.52	10.332
490.87	9.411
491.22	10.080
491.56	10.062
491.91	9.746
492.26	10.155
492.60	10.101
492.95	9.718
493.30	9.448
493.64	9.113
493.99	9.565
494.34	9.682
494.68	9.499
495.03	9.091
495.37	9.538
495.72	9.424
496.07	9.547
496.41	9.406
496.76	9.689
497.11	9.765
497.45	9.630
497.80	9.793
498.14	9.521
498.49	9.027
498.84	9.160
499.18	9.308
499.53	9.306
499.87	8.637
500.22	9.657
500.56	9.478
500.91	9.859
501.26	9.163
501.60	8.186
501.95	9.344
502.29	8.689
502.64	9.643
502.98	9.200
503.33	9.246
503.67	8.812
504.02	9.510
504.36	8.965
504.71	8.537
505.06	9.119
505.40	9.124
505.75	9.207
506.09	9.658
506.44	9.577
506.78	8.939
507.13	8.628
507.47	9.014
507.82	9.367
508.16	9.235
508.51	8.833
508.85	8.865
509.19	8.519
509.54	8.954
509.88	8.871
510.23	9.053
510.57	9.163
510.92	9.375
511.26	8.856
511.61	8.782
511.95	8.545
512.30	8.662
512.64	9.194
512.98	8.753
513.33	9.014
513.67	9.256
514.02	8.666
514.36	9.270
514.70	8.430
515.05	9.187
515.39	8.137
515.74	8.585
516.08	8.201
516.42	8.641
516.77	8.436
517.11	8.583
517.46	8.944
517.80	9.806
518.14	7.961
518.49	8.258
518.83	8.652
519.17	8.313
519.52	8.142
519.86	8.440
520.20	8.005
520.55	8.396
520.89	9.361
521.23	8.782
521.58	8.786
521.92	8.171
522.26	7.807
522.61	8.339
522.95	8.614
523.29	8.381
523.64	8.328
523.98	9.149
524.32	7.372
524.66	8.766
525.01	8.126
525.35	9.019
525.69	8.217
526.04	8.534
526.38	8.540
526.72	7.495
527.06	8.382
527.41	7.545
527.75	7.810
528.09	8.645
528.43	8.887
528.78	8.333
529.12	9.120
529.46	8.253
529.80	8.026
530.15	7.593
530.49	8.086
530.83	8.599
531.17	7.671
531.51	7.148
531.86	7.859
532.20	8.132
532.54	7.931
532.88	6.671
533.22	8.350
533.57	7.219
533.91	8.387
534.25	8.203
534.59	7.079
534.93	8.099
535.27	7.580
535.62	7.895
535.96	8.653
536.30	9.043
536.64	7.450
536.98	7.358
537.32	7.829
537.66	7.475
538.01	8.460
538.35	7.320
538.69	7.023
539.03	8.523
539.37	7.847
539.71	7.844
540.05	6.950
540.39	7.226
540.73	7.961
541.07	7.075
541.42	8.620
541.76	8.322
542.10	6.974
542.44	7.831
542.78	7.703
543.12	7.951
543.46	7.049
543.80	7.128
544.14	6.813
544.48	6.901
544.82	7.935
545.16	6.761
545.50	8.305
545.84	7.083
546.18	6.592
546.52	7.763
546.86	7.138
547.20	7.005
547.54	6.934
547.88	7.287
548.22	7.948
548.56	6.738
548.90	6.969
549.24	7.292
549.58	6.904
549.92	7.557
550.26	7.454
550.60	6.982
550.94	7.164
551.28	7.040
551.62	7.594
551.96	6.735
552.30	5.677
552.64	6.497
552.98	6.960
553.32	7.210
553.66	6.970
554.00	6.767
554.34	6.740
554.68	7.308
555.02	6.512
555.36	6.732
555.69	6.628
556.03	6.862
556.37	7.112
556.71	7.218
557.05	5.609
557.39	6.481
557.73	7.110
558.07	6.933
558.41	6.510
558.75	7.390
559.08	5.533
559.42	6.216
559.76	7.875
560.10	6.380
560.44	7.811
560.78	6.619
561.12	7.008
561.45	7.347
561.79	5.983
562.13	6.610
562.47	7.286
562.81	6.133
563.15	6.161
563.48	6.951
563.82	7.045
564.16	6.500
564.50	6.581
564.84	6.284
565.17	7.152
565.51	6.283
565.85	5.663
566.19	6.424
566.52	6.160
566.86	6.195
567.20	6.964
567.54	6.160
567.88	6.159
568.21	7.116
568.55	6.468
568.89	5.484
569.23	6.462
569.56	6.174
569.90	6.288
570.24	6.209
570.57	6.244
570.91	6.558
571.25	5.892
571.59	6.434
571.92	5.984
572.26	6.593
572.60	5.975
572.93	5.654
573.27	5.982
573.61	6.335
573.95	6.029
574.28	5.981
574.62	6.393
574.96	6.078
575.29	6.394
575.63	5.822
575.97	6.277
576.30	5.892
576.64	6.052
576.98	5.777
577.31	6.181
577.65	5.787
577.98	5.773
578.32	5.905
578.66	6.057
578.99	6.385
579.33	6.447
579.67	6.161
580.00	5.764
580.34	6.423
580.67	6.124
581.01	5.947
581.35	6.345
581.68	6.228
582.02	6.036
582.35	5.825
582.69	6.377
583.02	6.032
583.36	6.078
583.70	6.133
584.03	6.363
584.37	6.366
584.70	5.779
585.04	6.277
585.37	5.954
585.71	5.765
586.04	5.739
586.38	5.814
586.72	6.266
587.05	6.120
587.39	6.218
587.72	5.878
588.06	5.773
588.39	6.241
588.73	6.047
589.06	5.981
589.40	5.986
589.73	5.390
590.07	6.453
590.40	6.248
590.73	6.402
591.07	5.850
591.40	5.261
591.74	5.602
592.07	5.751
592.41	6.006
592.74	6.134
593.08	5.778
593.41	5.909
593.75	5.749
594.08	5.976
594.41	5.119
594.75	6.334
595.08	6.087
595.42	5.583
595.75	6.038
596.09	6.005
596.42	5.637
596.75	5.660
597.09	7.143
597.42	6.236
597.75	5.867
598.09	5.601
598.42	6.040
598.76	5.164
599.09	5.962
599.42	5.589
599.76	6.046
600.09	6.024
600.42	5.800
600.76	5.691
601.09	5.687
601.42	5.802
601.76	5.946
602.09	5.837
602.42	5.861
602.76	5.579
603.09	6.324
603.42	5.998
603.76	6.118
604.09	5.573
604.42	5.442
604.76	5.369
605.09	5.800
605.42	6.253
605.75	5.310
606.09	5.464
606.42	6.068
606.75	5.281
607.09	5.541
607.42	5.954
607.75	4.639
608.08	6.357
608.42	5.717
608.75	5.112
609.08	5.145
609.41	6.657
609.75	5.345
610.08	5.227
610.41	5.977
610.74	5.486
611.07	5.812
611.41	5.937
611.74	6.418
612.07	5.472
612.40	6.216
612.73	5.543
613.07	6.153
613.40	5.672
613.73	6.067
614.06	6.025
614.39	5.447
614.72	5.941
615.06	5.389
615.39	5.464
615.72	4.968
616.05	5.405
616.38	5.269
616.71	5.219
617.05	6.081
617.38	5.977
617.71	5.760
618.04	4.692
618.37	5.110
618.70	5.304
619.03	5.292
619.36	6.050
619.69	5.556
620.03	4.311
620.36	5.219
620.69	4.140
621.02	4.846
621.35	4.497
621.68	5.297
622.01	5.340
622.34	4.996
622.67	6.108
623.00	5.623
623.33	5.535
623.66	4.758
623.99	6.152
624.32	5.356
624.65	4.970
624.99	5.143
625.32	5.078
625.65	5.659
625.98	4.739
626.31	5.796
626.64	4.729
626.97	4.585
627.30	5.475
627.63	4.758
627.96	5.108
628.29	5.767
628.62	5.996
628.95	4.309
629.28	4.631
629.61	5.646
629.94	6.190
630.26	5.714
630.59	5.495
630.92	5.823
631.25	4.737
631.58	5.782
631.91	3.818
632.24	4.830
632.57	3.889
632.90	5.601
633.23	3.957
633.56	5.635
633.89	5.024
634.22	7.656
634.55	5.725
634.88	4.902
635.20	5.500
635.53	4.522
635.86	3.846
636.19	5.955
636.52	5.000
636.85	4.704
637.18	5.238
637.51	5.243
637.83	5.091
638.16	4.400
638.49	4.406
638.82	4.183
639.15	5.053
639.48	5.348
639.81	4.861
640.13	4.648
640.46	5.650
640.79	3.885
641.12	3.254
641.45	4.803
641.77	5.449
642.10	6.808
642.43	4.560
642.76	5.521
643.09	4.952
643.41	5.742
643.74	3.877
644.07	4.693
644.40	5.141
644.73	3.898
