SpectraSuite Data File
++++++++++++++++++++++++++++++++++++
Date: Wed May 13 21:33:55 PDT 2015
User: schluterlab
Dark Spectrum Present: Yes
Reference Spectrum Present: Yes
Number of Sampled Component Spectra: 1
Spectrometers: USB2E3373
Integration Time (usec): 3000 (USB2E3373)
Spectra Averaged: 3 (USB2E3373)
Boxcar Smoothing: 0 (USB2E3373)
Correct for Electrical Dark: No (USB2E3373)
Strobe/Lamp Enabled: No (USB2E3373)
Correct for Detector Non-linearity: No (USB2E3373)
Correct for Stray Light: No (USB2E3373)
Number of Pixels in Processed Spectrum: 2048
>>>>>Begin Processed Spectral Data<<<<<
178.53	0.000
178.91	650.000
179.29	175.000
179.67	-1100.000
180.04	-700.000
180.42	200.000
180.80	1200.000
181.18	250.000
181.56	-400.000
181.94	-200.000
182.31	-72.727
182.69	161.538
183.07	-100.000
183.45	183.333
183.83	100.000
184.20	157.143
184.58	-100.000
184.96	533.333
185.34	300.000
185.72	0.000
186.09	-1900.000
186.47	-180.000
186.85	240.000
187.23	-450.000
187.61	900.000
187.98	1700.000
188.36	-200.000
188.74	0.000
189.12	-45.455
189.49	-10.000
189.87	125.000
190.25	540.000
190.63	1300.000
191.00	-140.000
191.38	380.000
191.76	250.000
192.14	141.667
192.51	-36.842
192.89	500.000
193.27	350.000
193.65	-240.000
194.02	136.364
194.40	160.000
194.78	-1000.000
195.15	280.000
195.53	-160.000
195.91	-150.000
196.29	-300.000
196.66	0.000
197.04	400.000
197.42	-240.000
197.79	-20.000
198.17	-212.500
198.55	-666.667
198.92	225.000
199.30	-433.333
199.68	-80.000
200.05	700.000
200.43	100.000
200.81	-1100.000
201.18	-160.000
201.56	-83.333
201.94	475.000
202.31	-26.087
202.69	-100.000
203.07	-466.667
203.44	-180.000
203.82	-400.000
204.19	30.000
204.57	0.000
204.95	66.667
205.32	0.000
205.70	-100.000
206.08	-300.000
206.45	-283.333
206.83	500.000
207.20	-666.667
207.58	-40.000
207.96	-500.000
208.33	-171.429
208.71	-1300.000
209.08	237.500
209.46	600.000
209.84	0.000
210.21	150.000
210.59	1300.000
210.96	220.000
211.34	1500.000
211.71	-1150.000
212.09	-233.333
212.46	-210.000
212.84	-266.667
213.22	-150.000
213.59	-1100.000
213.97	-800.000
214.34	-1050.000
214.72	-30.769
215.09	237.500
215.47	222.222
215.84	750.000
216.22	-187.500
216.59	-650.000
216.97	466.667
217.34	200.000
217.72	0.000
218.09	200.000
218.47	-400.000
218.84	-85.714
219.22	-112.500
219.59	-266.667
219.97	-300.000
220.34	-87.500
220.72	-100.000
221.09	0.000
221.47	-16.667
221.84	-1100.000
222.22	0.000
222.59	2000.000
222.97	-433.333
223.34	-75.000
223.72	-1300.000
224.09	-350.000
224.46	9.091
224.84	37.500
225.21	-14.286
225.59	-325.000
225.96	-33.333
226.34	-40.000
226.71	-242.857
227.08	1000.000
227.46	-137.500
227.83	-200.000
228.21	-31.250
228.58	175.000
228.95	-47.059
229.33	-56.250
229.70	-125.000
230.08	-61.538
230.45	-112.500
230.82	-116.667
231.20	285.714
231.57	-475.000
231.95	1200.000
232.32	16.667
232.69	-11.765
233.07	-2200.000
233.44	-65.217
233.81	-300.000
234.19	-12.500
234.56	-46.667
234.93	-26.667
235.31	21.053
235.68	-146.154
236.05	-76.923
236.43	-44.444
236.80	-18.182
237.17	-33.333
237.55	-88.235
237.92	-20.690
238.29	-51.852
238.67	-2.778
239.04	16.129
239.41	-6.383
239.79	12.766
240.16	18.605
240.53	-5.357
240.91	26.786
241.28	17.857
241.65	14.516
242.02	5.263
242.40	7.246
242.77	10.145
243.14	12.821
243.51	13.830
243.89	9.615
244.26	25.472
244.63	13.462
245.00	15.625
245.38	15.126
245.75	19.672
246.12	16.541
246.49	8.130
246.87	14.286
247.24	15.541
247.61	13.907
247.98	21.154
248.36	18.935
248.73	18.539
249.10	20.707
249.47	23.656
249.84	19.474
250.22	24.876
250.59	22.897
250.96	24.091
251.33	15.311
251.70	28.870
252.08	21.339
252.45	24.280
252.82	22.814
253.19	26.459
253.56	21.223
253.94	24.911
254.31	21.831
254.68	24.161
255.05	25.413
255.42	23.776
255.79	22.699
256.16	24.606
256.54	25.714
256.91	23.418
257.28	25.157
257.65	20.701
258.02	21.114
258.39	22.222
258.76	21.221
259.14	22.443
259.51	18.539
259.88	22.764
260.25	25.556
260.62	23.876
260.99	22.016
261.36	26.684
261.73	21.481
262.10	23.410
262.47	23.951
262.85	22.139
263.22	26.410
263.59	23.377
263.96	23.358
264.33	25.240
264.70	24.651
265.07	25.231
265.44	26.897
265.81	23.799
266.18	25.513
266.55	23.799
266.92	26.695
267.29	22.016
267.66	23.779
268.03	23.868
268.40	22.246
268.77	25.000
269.14	24.286
269.51	27.105
269.88	24.644
270.25	25.212
270.62	24.795
270.99	25.197
271.36	23.810
271.73	23.896
272.10	23.619
272.47	23.992
272.84	27.953
273.21	22.701
273.58	25.410
273.95	23.208
274.32	22.388
274.69	25.683
275.06	25.442
275.43	25.424
275.80	24.823
276.17	23.204
276.54	23.801
276.91	22.822
277.28	24.188
277.65	23.077
278.02	24.821
278.39	22.558
278.76	24.080
279.13	22.127
279.50	23.103
279.87	20.652
280.23	23.604
280.60	20.415
280.97	23.864
281.34	25.552
281.71	22.764
282.08	23.077
282.45	25.738
282.82	24.441
283.19	24.390
283.56	22.969
283.92	24.465
284.29	22.777
284.66	24.876
285.03	21.987
285.40	23.263
285.77	23.724
286.14	23.252
286.51	23.388
286.87	21.692
287.24	22.714
287.61	23.193
287.98	21.618
288.35	22.355
288.72	23.673
289.08	23.362
289.45	21.733
289.82	23.903
290.19	23.001
290.56	21.165
290.93	20.028
291.29	21.067
291.66	20.355
292.03	21.798
292.40	21.938
292.77	22.222
293.13	20.781
293.50	23.007
293.87	22.933
294.24	20.767
294.60	21.066
294.97	22.751
295.34	18.997
295.71	19.974
296.08	20.157
296.44	19.260
296.81	18.149
297.18	20.375
297.55	19.693
297.91	19.876
298.28	19.007
298.65	19.335
299.02	19.780
299.38	18.528
299.75	18.750
300.12	18.256
300.48	18.830
300.85	18.360
301.22	16.609
301.59	18.779
301.95	18.351
302.32	19.837
302.69	17.401
303.05	17.719
303.42	17.955
303.79	18.191
304.15	19.277
304.52	19.247
304.89	19.269
305.25	17.344
305.62	18.004
305.99	18.063
306.35	19.331
306.72	18.311
307.09	18.248
307.45	17.572
307.82	18.000
308.19	17.241
308.55	18.628
308.92	17.976
309.29	17.317
309.65	18.382
310.02	18.091
310.38	17.175
310.75	18.146
311.12	17.881
311.48	17.903
311.85	17.913
312.22	19.342
312.58	17.971
312.95	19.204
313.31	19.467
313.68	17.844
314.05	19.660
314.41	19.597
314.78	19.450
315.14	19.630
315.51	18.744
315.87	20.482
316.24	20.478
316.61	20.548
316.97	18.704
317.34	18.984
317.70	19.982
318.07	21.650
318.43	21.319
318.80	21.030
319.16	20.336
319.53	22.939
319.89	21.680
320.26	20.518
320.62	22.335
320.99	20.349
321.35	22.732
321.72	21.559
322.08	24.539
322.45	24.052
322.81	23.105
323.18	23.614
323.54	25.451
323.91	25.294
324.27	26.373
324.64	25.348
325.00	25.109
325.37	25.853
325.73	26.010
326.10	26.577
326.46	27.258
326.83	26.699
327.19	27.724
327.56	28.525
327.92	27.595
328.29	28.297
328.65	29.448
329.01	27.880
329.38	31.130
329.74	30.215
330.11	30.117
330.47	30.382
330.84	29.964
331.20	29.547
331.56	31.250
331.93	31.008
332.29	31.885
332.66	30.169
333.02	31.885
333.38	30.614
333.75	31.826
334.11	32.031
334.48	32.084
334.84	30.300
335.20	31.218
335.57	31.245
335.93	31.787
336.29	31.524
336.66	30.256
337.02	31.217
337.38	30.983
337.75	31.697
338.11	31.085
338.47	30.908
338.84	32.216
339.20	31.481
339.56	31.229
339.93	31.806
340.29	30.658
340.65	31.480
341.02	31.531
341.38	30.743
341.74	31.681
342.11	31.214
342.47	32.552
342.83	31.454
343.20	31.980
343.56	31.643
343.92	30.382
344.28	32.143
344.65	31.837
345.01	32.526
345.37	32.401
345.73	32.435
346.10	32.584
346.46	31.138
346.82	31.541
347.19	30.775
347.55	31.664
347.91	31.333
348.27	32.019
348.63	31.651
349.00	32.311
349.36	31.397
349.72	31.477
350.08	31.903
350.45	31.637
350.81	32.473
351.17	32.948
351.53	33.150
351.89	31.295
352.26	32.046
352.62	32.791
352.98	31.310
353.34	33.092
353.70	32.399
354.07	32.157
354.43	31.804
354.79	33.253
355.15	32.065
355.51	31.207
355.87	34.089
356.24	32.424
356.60	32.291
356.96	32.617
357.32	31.424
357.68	33.384
358.04	33.514
358.40	33.256
358.77	33.333
359.13	33.696
359.49	32.854
359.85	33.207
360.21	32.691
360.57	33.916
360.93	32.777
361.29	34.123
361.66	33.106
362.02	33.506
362.38	34.121
362.74	33.212
363.10	33.406
363.46	33.501
363.82	34.885
364.18	33.212
364.54	33.990
364.90	33.728
365.26	33.900
365.62	34.943
365.98	34.235
366.35	34.752
366.71	33.595
367.07	34.444
367.43	34.774
367.79	34.260
368.15	34.810
368.51	34.388
368.87	35.450
369.23	35.231
369.59	34.602
369.95	35.196
370.31	34.379
370.67	36.568
371.03	36.229
371.39	35.770
371.75	36.500
372.11	35.755
372.47	36.914
372.83	36.338
373.19	35.324
373.55	36.199
373.91	35.502
374.27	35.408
374.63	36.842
374.99	35.515
375.35	36.986
375.71	36.005
376.07	37.354
376.42	36.765
376.78	38.309
377.14	38.305
377.50	37.419
377.86	37.384
378.22	38.369
378.58	38.462
378.94	39.000
379.30	37.477
379.66	38.594
380.02	37.500
380.38	38.675
380.74	39.211
381.09	38.420
381.45	38.573
381.81	38.632
382.17	38.059
382.53	39.077
382.89	39.144
383.25	39.259
383.61	39.891
383.97	39.000
384.32	39.382
384.68	39.482
385.04	38.607
385.40	40.162
385.76	40.268
386.12	39.574
386.48	40.627
386.83	39.987
387.19	40.160
387.55	40.098
387.91	40.590
388.27	40.444
388.62	40.449
388.98	40.488
389.34	41.291
389.70	40.049
390.06	41.000
390.42	42.010
390.77	41.832
391.13	41.035
391.49	40.038
391.85	40.831
392.20	41.165
392.56	41.524
392.92	41.837
393.28	40.442
393.64	42.569
393.99	40.147
394.35	40.432
394.71	42.372
395.07	40.692
395.42	42.840
395.78	41.313
396.14	43.247
396.50	41.852
396.85	41.555
397.21	42.946
397.57	42.112
397.92	41.617
398.28	42.132
398.64	41.651
399.00	41.964
399.35	42.565
399.71	41.875
400.07	42.410
400.42	41.129
400.78	42.719
401.14	42.428
401.49	42.720
401.85	42.629
402.21	42.786
402.57	43.102
402.92	43.054
403.28	42.402
403.63	42.715
403.99	42.802
404.35	42.706
404.70	41.813
405.06	43.277
405.42	44.033
405.77	42.800
406.13	41.943
406.49	43.319
406.84	42.979
407.20	42.688
407.55	43.831
407.91	41.760
408.27	42.358
408.62	42.726
408.98	43.095
409.34	42.946
409.69	43.405
410.05	42.786
410.40	41.023
410.76	41.757
411.11	43.097
411.47	43.464
411.83	42.732
412.18	43.829
412.54	43.296
412.89	42.821
413.25	42.714
413.60	42.508
413.96	42.010
414.31	42.540
414.67	42.349
415.03	43.234
415.38	41.942
415.74	42.365
416.09	42.961
416.45	44.019
416.80	42.550
417.16	42.982
417.51	42.934
417.87	42.526
418.22	42.663
418.58	41.919
418.93	42.875
419.29	43.498
419.64	42.684
420.00	42.984
420.35	42.977
420.71	43.023
421.06	43.296
421.42	44.404
421.77	43.064
422.12	43.725
422.48	42.475
422.83	44.182
423.19	42.668
423.54	42.108
423.90	43.052
424.25	42.634
424.61	44.177
424.96	43.051
425.31	42.176
425.67	42.857
426.02	43.168
426.38	42.537
426.73	43.128
427.09	42.589
427.44	43.100
427.79	42.162
428.15	42.508
428.50	42.779
428.85	42.804
429.21	43.219
429.56	43.039
429.92	43.103
430.27	42.331
430.62	43.442
430.98	42.147
431.33	42.934
431.68	42.865
432.04	43.887
432.39	41.744
432.74	43.164
433.10	42.766
433.45	42.781
433.80	42.931
434.16	41.780
434.51	42.446
434.86	42.697
435.22	43.011
435.57	41.462
435.92	42.823
436.28	42.282
436.63	42.436
436.98	42.538
437.34	43.101
437.69	41.972
438.04	41.935
438.39	42.154
438.75	42.849
439.10	42.973
439.45	43.099
439.81	43.842
440.16	42.783
440.51	41.677
440.86	42.087
441.22	42.513
441.57	42.354
441.92	43.027
442.27	42.857
442.63	41.765
442.98	42.998
443.33	42.833
443.68	42.172
444.03	41.679
444.39	42.241
444.74	43.015
445.09	41.685
445.44	42.761
445.79	43.418
446.15	42.651
446.50	42.566
446.85	43.185
447.20	42.760
447.55	42.417
447.91	42.079
448.26	41.681
448.61	41.254
448.96	43.394
449.31	42.204
449.66	41.411
450.02	41.728
450.37	42.656
450.72	41.561
451.07	41.567
451.42	41.110
451.77	42.727
452.12	41.771
452.47	42.092
452.83	41.097
453.18	42.393
453.53	41.047
453.88	42.048
454.23	42.398
454.58	41.667
454.93	41.629
455.28	42.646
455.63	41.797
455.98	41.753
456.34	41.704
456.69	42.236
457.04	40.929
457.39	41.070
457.74	41.472
458.09	39.929
458.44	40.541
458.79	39.703
459.14	40.730
459.49	40.732
459.84	40.812
460.19	40.756
460.54	41.119
460.89	41.723
461.24	41.060
461.59	42.512
461.94	40.202
462.29	40.564
462.64	40.765
462.99	40.845
463.34	41.713
463.69	41.495
464.04	40.096
464.39	40.268
464.74	40.049
465.09	40.360
465.44	41.190
465.79	41.116
466.14	40.593
466.49	40.176
466.84	40.705
467.19	40.764
467.54	40.894
467.89	40.038
468.24	39.582
468.59	40.153
468.94	39.974
469.29	41.044
469.64	40.586
469.99	40.276
470.34	39.447
470.68	40.297
471.03	39.774
471.38	39.638
471.73	39.232
472.08	39.038
472.43	41.227
472.78	39.554
473.13	38.522
473.48	39.269
473.83	39.109
474.17	39.518
474.52	40.000
474.87	38.058
475.22	40.399
475.57	39.598
475.92	38.550
476.27	38.986
476.61	38.845
476.96	39.406
477.31	39.051
477.66	38.814
478.01	38.516
478.36	39.401
478.70	38.292
479.05	39.512
479.40	38.014
479.75	39.639
480.10	38.501
480.45	38.254
480.79	38.925
481.14	39.260
481.49	39.122
481.84	37.983
482.19	38.583
482.53	37.952
482.88	38.159
483.23	37.151
483.58	37.713
483.92	37.889
484.27	37.557
484.62	37.905
484.97	37.578
485.31	38.138
485.66	36.642
486.01	38.120
486.36	37.989
486.70	38.388
487.05	38.999
487.40	38.071
487.75	38.300
488.09	37.191
488.44	37.189
488.79	37.926
489.13	37.773
489.48	37.067
489.83	35.954
490.17	36.087
490.52	38.008
490.87	36.161
491.22	36.929
491.56	37.518
491.91	37.398
492.26	36.799
492.60	35.642
492.95	36.540
493.30	35.610
493.64	34.916
493.99	35.556
494.34	36.368
494.68	36.325
495.03	35.672
495.37	35.328
495.72	35.338
496.07	36.581
496.41	35.704
496.76	36.197
497.11	36.244
497.45	36.138
497.80	36.446
498.14	35.567
498.49	35.502
498.84	35.577
499.18	35.391
499.53	36.041
499.87	34.789
500.22	35.839
500.56	35.005
500.91	35.714
501.26	34.729
501.60	34.804
501.95	35.218
502.29	34.515
502.64	34.619
502.98	34.682
503.33	35.474
503.67	34.567
504.02	33.725
504.36	34.671
504.71	33.841
505.06	34.947
505.40	33.711
505.75	34.893
506.09	34.440
506.44	33.871
506.78	34.535
507.13	33.524
507.47	32.609
507.82	33.543
508.16	34.090
508.51	34.762
508.85	33.748
509.19	33.651
509.54	34.477
509.88	34.032
510.23	33.105
510.57	33.316
510.92	33.136
511.26	34.598
511.61	34.193
511.95	33.462
512.30	32.704
512.64	34.506
512.98	32.853
513.33	33.465
513.67	32.765
514.02	34.436
514.36	32.809
514.70	32.044
515.05	33.645
515.39	32.960
515.74	32.149
516.08	32.920
516.42	32.373
516.77	32.806
517.11	32.569
517.46	32.353
517.80	33.232
518.14	31.904
518.49	30.983
518.83	31.862
519.17	32.229
519.52	31.846
519.86	31.998
520.20	32.141
520.55	32.525
520.89	32.448
521.23	33.013
521.58	32.048
521.92	30.673
522.26	32.075
522.61	31.739
522.95	31.801
523.29	31.175
523.64	31.278
523.98	31.385
524.32	31.191
524.66	31.948
525.01	31.258
525.35	31.007
525.69	30.815
526.04	30.033
526.38	31.867
526.72	30.901
527.06	30.819
527.41	31.833
527.75	30.708
528.09	31.450
528.43	32.022
528.78	30.491
529.12	30.207
529.46	30.902
529.80	31.068
530.15	29.858
530.49	30.121
530.83	31.415
531.17	30.205
531.51	30.074
531.86	29.268
532.20	29.221
532.54	29.517
532.88	30.020
533.22	31.852
533.57	30.331
533.91	30.387
534.25	31.055
534.59	30.695
534.93	30.357
535.27	29.363
535.62	30.789
535.96	30.969
536.30	30.120
536.64	27.956
536.98	29.012
537.32	30.036
537.66	29.690
538.01	29.057
538.35	29.213
538.69	29.766
539.03	29.262
539.37	29.309
539.71	30.014
540.05	29.690
540.39	28.493
540.73	29.399
541.07	29.660
541.42	29.158
541.76	28.823
542.10	28.910
542.44	28.829
542.78	29.077
543.12	29.447
543.46	28.680
543.80	29.124
544.14	29.663
544.48	27.273
544.82	29.455
545.16	28.398
545.50	28.629
545.84	28.962
546.18	27.770
546.52	28.370
546.86	27.491
547.20	27.591
547.54	28.520
547.88	28.543
548.22	27.231
548.56	27.685
548.90	28.484
549.24	27.778
549.58	28.114
549.92	28.247
550.26	28.708
550.60	27.928
550.94	28.358
551.28	28.766
551.62	28.496
551.96	27.160
552.30	26.783
552.64	27.189
552.98	27.841
553.32	27.830
553.66	27.366
554.00	28.006
554.34	26.886
554.68	28.337
555.02	27.096
555.36	27.988
555.69	27.312
556.03	27.019
556.37	27.667
556.71	26.419
557.05	27.011
557.39	26.526
557.73	27.458
558.07	26.827
558.41	26.495
558.75	26.559
559.08	26.383
559.42	26.515
559.76	26.988
560.10	26.826
560.44	27.266
560.78	26.115
561.12	27.190
561.45	25.646
561.79	27.923
562.13	27.848
562.47	26.786
562.81	26.407
563.15	25.779
563.48	25.671
563.82	26.402
564.16	27.150
564.50	26.526
564.84	25.676
565.17	26.358
565.51	27.139
565.85	26.183
566.19	26.424
566.52	26.081
566.86	25.790
567.20	26.206
567.54	26.310
567.88	26.540
568.21	26.616
568.55	26.761
568.89	26.271
569.23	26.673
569.56	27.534
569.90	26.840
570.24	26.065
570.57	26.783
570.91	27.297
571.25	26.497
571.59	26.729
571.92	27.105
572.26	27.057
572.60	26.794
572.93	26.617
573.27	26.875
573.61	27.555
573.95	26.600
574.28	27.224
574.62	27.030
574.96	26.969
575.29	26.881
575.63	26.870
575.97	26.549
576.30	25.991
576.64	27.142
576.98	27.296
577.31	27.058
577.65	26.486
577.98	27.167
578.32	26.706
578.66	27.161
578.99	27.113
579.33	26.512
579.67	26.680
580.00	26.534
580.34	25.933
580.67	26.776
581.01	26.702
581.35	26.592
581.68	26.122
582.02	27.027
582.35	26.516
582.69	26.512
583.02	26.113
583.36	26.196
583.70	26.559
584.03	26.126
584.37	26.448
584.70	26.072
585.04	26.216
585.37	25.832
585.71	26.266
586.04	25.614
586.38	26.072
586.72	25.850
587.05	26.029
587.39	26.310
587.72	25.771
588.06	25.527
588.39	26.280
588.73	25.542
589.06	25.542
589.40	25.731
589.73	24.757
590.07	25.191
590.40	26.126
590.73	25.567
591.07	25.449
591.40	24.913
591.74	25.300
592.07	25.285
592.41	25.354
592.74	24.961
593.08	24.581
593.41	25.177
593.75	25.355
594.08	25.250
594.41	25.082
594.75	25.300
595.08	24.981
595.42	24.588
595.75	24.440
596.09	24.634
596.42	24.592
596.75	24.397
597.09	24.340
597.42	24.495
597.75	24.133
598.09	24.681
598.42	24.519
598.76	24.559
599.09	24.610
599.42	24.924
599.76	25.498
600.09	24.511
600.42	24.444
600.76	23.947
601.09	24.670
601.42	23.795
601.76	24.903
602.09	24.564
602.42	24.969
602.76	24.161
603.09	24.435
603.42	24.350
603.76	24.825
604.09	23.715
604.42	24.194
604.76	23.832
605.09	24.286
605.42	24.561
605.75	23.769
606.09	23.344
606.42	23.732
606.75	23.939
607.09	23.582
607.42	23.643
607.75	22.757
608.08	24.482
608.42	23.852
608.75	23.650
609.08	23.665
609.41	24.242
609.75	23.903
610.08	23.422
610.41	24.587
610.74	23.484
611.07	23.697
611.41	23.337
611.74	23.551
612.07	23.398
612.40	23.189
612.73	23.052
613.07	23.559
613.40	23.789
613.73	23.944
614.06	22.886
614.39	23.235
614.72	23.487
615.06	22.778
615.39	22.792
615.72	22.678
616.05	23.198
616.38	22.967
616.71	22.136
617.05	23.464
617.38	22.489
617.71	23.407
618.04	22.730
618.37	23.155
618.70	22.380
619.03	22.131
619.36	22.918
619.69	22.807
620.03	21.201
620.36	21.990
620.69	21.199
621.02	21.462
621.35	22.404
621.68	21.027
622.01	22.006
622.34	21.332
622.67	22.318
623.00	22.264
623.33	21.541
623.66	21.784
623.99	21.530
624.32	21.497
624.65	22.033
624.99	22.704
625.32	20.762
625.65	21.938
625.98	21.643
626.31	21.551
626.64	21.152
626.97	22.145
627.30	21.300
627.63	21.280
627.96	20.346
628.29	21.116
628.62	21.567
628.95	20.641
629.28	20.887
629.61	22.392
629.94	20.793
630.26	22.266
630.59	22.078
630.92	19.478
631.25	20.494
631.58	20.450
631.91	20.042
