SpectraSuite Data File
++++++++++++++++++++++++++++++++++++
Date: Wed May 13 21:13:39 PDT 2015
User: schluterlab
Dark Spectrum Present: Yes
Reference Spectrum Present: Yes
Number of Sampled Component Spectra: 1
Spectrometers: USB2E3373
Integration Time (usec): 3000 (USB2E3373)
Spectra Averaged: 3 (USB2E3373)
Boxcar Smoothing: 0 (USB2E3373)
Correct for Electrical Dark: No (USB2E3373)
Strobe/Lamp Enabled: No (USB2E3373)
Correct for Detector Non-linearity: No (USB2E3373)
Correct for Stray Light: No (USB2E3373)
Number of Pixels in Processed Spectrum: 2048
>>>>>Begin Processed Spectral Data<<<<<
178.53	0.000
178.91	500.000
179.29	166.667
179.67	-850.000
180.04	-233.333
180.42	400.000
180.80	300.000
181.18	266.667
181.56	-250.000
181.94	-200.000
182.31	-18.182
182.69	161.538
183.07	-260.000
183.45	400.000
183.83	200.000
184.20	128.571
184.58	-33.333
184.96	333.333
185.34	171.429
185.72	0.000
186.09	-1300.000
186.47	-340.000
186.85	180.000
187.23	-150.000
187.61	450.000
187.98	900.000
188.36	-75.000
188.74	0.000
189.12	-109.091
189.49	-50.000
189.87	150.000
190.25	600.000
190.63	1400.000
191.00	-120.000
191.38	340.000
191.76	425.000
192.14	158.333
192.51	-10.526
192.89	500.000
193.27	375.000
193.65	-200.000
194.02	200.000
194.40	200.000
194.78	-700.000
195.15	360.000
195.53	-120.000
195.91	-25.000
196.29	-400.000
196.66	0.000
197.04	800.000
197.42	-60.000
197.79	-100.000
198.17	-125.000
198.55	-666.667
198.92	475.000
199.30	-633.333
199.68	-50.000
200.05	400.000
200.43	216.667
200.81	-900.000
201.18	-260.000
201.56	-166.667
201.94	600.000
202.31	4.348
202.69	-300.000
203.07	-500.000
203.44	-260.000
203.82	-500.000
204.19	-90.000
204.57	0.000
204.95	-233.333
205.32	0.000
205.70	-350.000
206.08	-250.000
206.45	-283.333
206.83	600.000
207.20	-566.667
207.58	-130.000
207.96	-2100.000
208.33	-171.429
208.71	-800.000
209.08	237.500
209.46	525.000
209.84	0.000
210.21	190.000
210.59	1700.000
210.96	480.000
211.34	1100.000
211.71	-800.000
212.09	-266.667
212.46	-180.000
212.84	-266.667
213.22	-75.000
213.59	-600.000
213.97	-400.000
214.34	-850.000
214.72	-30.769
215.09	150.000
215.47	200.000
215.84	400.000
216.22	-100.000
216.59	-100.000
216.97	800.000
217.34	200.000
217.72	0.000
218.09	266.667
218.47	200.000
218.84	-257.143
219.22	-150.000
219.59	-200.000
219.97	-250.000
220.34	-137.500
220.72	-280.000
221.09	0.000
221.47	-183.333
221.84	-600.000
222.22	0.000
222.59	1900.000
222.97	-500.000
223.34	-133.333
223.72	-1100.000
224.09	-750.000
224.46	0.000
224.84	-100.000
225.21	-185.714
225.59	-450.000
225.96	-266.667
226.34	-40.000
226.71	-285.714
227.08	750.000
227.46	-87.500
227.83	-1000.000
228.21	-12.500
228.58	-225.000
228.95	-17.647
229.33	-6.250
229.70	-100.000
230.08	-107.692
230.45	-237.500
230.82	-83.333
231.20	271.429
231.57	-225.000
231.95	1600.000
232.32	-66.667
232.69	-29.412
233.07	-2100.000
233.44	-4.348
233.81	-600.000
234.19	-12.500
234.56	-46.667
234.93	-86.667
235.31	10.526
235.68	-84.615
236.05	-61.538
236.43	-38.889
236.80	-27.273
237.17	-66.667
237.55	-70.588
237.92	-48.276
238.29	-48.148
238.67	-5.556
239.04	-61.290
239.41	-36.170
239.79	25.532
240.16	-30.233
240.53	-10.714
240.91	-8.929
241.28	-19.643
241.65	-3.226
242.02	-10.526
242.40	-5.797
242.77	-23.188
243.14	-6.410
243.51	0.000
243.89	5.769
244.26	4.717
244.63	-5.769
245.00	-3.125
245.38	-5.882
245.75	-8.197
246.12	-3.008
246.49	-8.130
246.87	-10.084
247.24	-0.676
247.61	-2.649
247.98	-7.051
248.36	-0.592
248.73	-3.933
249.10	-3.030
249.47	-2.688
249.84	4.737
250.22	-1.493
250.59	-2.336
250.96	-2.273
251.33	-10.048
251.70	3.766
252.08	0.000
252.45	2.881
252.82	4.183
253.19	1.556
253.56	1.079
253.94	3.203
254.31	3.169
254.68	3.691
255.05	1.320
255.42	0.000
255.79	-0.307
256.16	4.101
256.54	0.000
256.91	-1.899
257.28	1.887
257.65	-0.637
258.02	1.760
258.39	0.292
258.76	-1.453
259.14	0.284
259.51	0.281
259.88	1.897
260.25	1.389
260.62	-1.404
260.99	1.857
261.36	3.627
261.73	-0.247
262.10	-0.763
262.47	0.741
262.85	0.746
263.22	-0.256
263.59	1.299
263.96	0.730
264.33	-2.163
264.70	2.791
265.07	3.472
265.44	2.759
265.81	3.204
266.18	-0.683
266.55	0.437
266.92	-0.636
267.29	1.646
267.66	3.185
268.03	2.675
268.40	-0.212
268.77	0.413
269.14	4.694
269.51	5.339
269.88	-0.407
270.25	2.754
270.62	2.049
270.99	3.346
271.36	1.389
271.73	0.602
272.10	3.429
272.47	0.960
272.84	2.559
273.21	0.783
273.58	-0.205
273.95	1.321
274.32	2.985
274.69	3.461
275.06	4.240
275.43	1.507
275.80	2.305
276.17	2.578
276.54	3.020
276.91	2.962
277.28	1.083
277.65	5.420
278.02	3.393
278.39	1.776
278.76	4.849
279.13	1.715
279.50	1.897
279.87	-0.181
280.23	1.441
280.60	0.692
280.97	1.786
281.34	3.470
281.71	1.626
282.08	0.684
282.45	1.967
282.82	0.639
283.19	4.116
283.56	2.031
283.92	2.446
284.29	2.028
284.66	2.142
285.03	-0.163
285.40	2.417
285.77	3.453
286.14	2.584
286.51	3.148
286.87	1.692
287.24	1.327
287.61	3.464
287.98	2.794
288.35	1.192
288.72	4.878
289.08	4.131
289.45	1.909
289.82	2.723
290.19	3.226
290.56	2.273
290.93	1.796
291.29	0.684
291.66	2.049
292.03	3.270
292.40	2.423
292.77	2.410
293.13	3.487
293.50	1.569
293.87	3.867
294.24	3.704
294.60	3.901
294.97	3.307
295.34	0.660
295.71	1.708
296.08	0.654
296.44	-0.128
296.81	1.827
297.18	2.625
297.55	2.594
297.91	2.112
298.28	1.453
298.65	2.709
299.02	2.808
299.38	0.982
299.75	2.163
300.12	1.047
300.48	1.170
300.85	1.732
301.22	1.974
301.59	2.582
301.95	0.697
302.32	2.800
302.69	1.469
303.05	0.554
303.42	2.500
303.79	3.365
304.15	2.191
304.52	2.473
304.89	1.107
305.25	0.768
305.62	1.518
305.99	2.394
306.35	3.135
306.72	3.154
307.09	3.128
307.45	3.195
307.82	2.421
308.19	1.672
308.55	2.354
308.92	2.259
309.29	2.803
309.65	3.497
310.02	3.280
310.38	2.846
310.75	3.057
311.12	3.013
311.48	3.066
311.85	2.461
312.22	4.062
312.58	3.092
312.95	3.682
313.31	5.418
313.68	4.294
314.05	4.820
314.41	4.707
314.78	5.882
315.14	5.833
315.51	5.899
315.87	5.561
316.24	6.061
316.61	7.306
316.97	7.870
317.34	6.595
317.70	7.672
318.07	8.784
318.43	8.672
318.80	8.813
319.16	9.814
319.53	9.050
319.89	9.575
320.26	10.998
320.62	10.843
320.99	11.434
321.35	11.880
321.72	12.320
322.08	14.483
322.45	15.449
322.81	16.359
323.18	16.816
323.54	16.787
323.91	17.615
324.27	18.542
324.64	17.944
325.00	19.773
325.37	20.990
325.73	21.044
326.10	21.615
326.46	23.746
326.83	25.243
327.19	24.146
327.56	26.108
327.92	26.710
328.29	28.965
328.65	28.747
329.01	27.792
329.38	30.261
329.74	29.785
330.11	31.380
330.47	31.076
330.84	32.581
331.20	32.365
331.56	32.518
331.93	34.798
332.29	35.013
332.66	34.322
333.02	34.752
333.38	35.702
333.75	36.177
334.11	35.937
334.48	36.530
334.84	34.982
335.20	36.964
335.57	38.381
335.93	36.426
336.29	37.128
336.66	36.325
337.02	37.913
337.38	36.989
337.75	37.898
338.11	36.550
338.47	38.099
338.84	38.574
339.20	40.035
339.56	39.334
339.93	40.017
340.29	40.137
340.65	40.291
341.02	39.767
341.38	39.696
341.74	37.899
342.11	39.472
342.47	39.163
342.83	40.033
343.20	41.540
343.56	40.801
343.92	40.130
344.28	40.909
344.65	40.490
345.01	40.517
345.37	42.352
345.73	41.667
346.10	41.894
346.46	41.789
346.82	41.573
347.19	41.377
347.55	42.973
347.91	42.011
348.27	42.350
348.63	42.949
349.00	41.745
349.36	42.151
349.72	42.150
350.08	42.668
350.45	42.756
350.81	43.349
351.17	43.957
351.53	42.891
351.89	42.017
352.26	42.471
352.62	43.256
352.98	44.489
353.34	44.605
353.70	43.614
354.07	44.863
354.43	43.468
354.79	45.513
355.15	44.255
355.51	43.356
355.87	44.488
356.24	45.185
356.60	45.113
356.96	45.510
357.32	44.195
357.68	44.309
358.04	44.608
358.40	45.891
358.77	46.865
359.13	45.681
359.49	44.587
359.85	45.489
360.21	47.032
360.57	46.160
360.93	47.193
361.29	48.113
361.66	46.925
362.02	45.441
362.38	46.677
362.74	47.281
363.10	47.144
363.46	46.974
363.82	47.672
364.18	46.048
364.54	48.651
364.90	47.178
365.26	47.275
365.62	48.224
365.98	47.616
366.35	48.723
366.71	48.573
367.07	46.704
367.43	47.387
367.79	49.409
368.15	49.015
368.51	48.805
368.87	49.756
369.23	48.327
369.59	48.767
369.95	49.927
370.31	47.908
370.67	49.819
371.03	49.592
371.39	49.042
371.75	49.571
372.11	50.000
372.47	49.531
372.83	49.307
373.19	50.144
373.55	50.217
373.91	50.071
374.27	49.101
374.63	50.427
374.99	49.443
375.35	49.452
375.71	49.728
376.07	51.953
376.42	50.267
376.78	51.255
377.14	51.593
377.50	51.173
377.86	51.726
378.22	52.086
378.58	50.631
378.94	51.375
379.30	51.655
379.66	51.541
380.02	50.735
380.38	52.048
380.74	50.926
381.09	52.413
381.45	52.056
381.81	52.680
382.17	51.355
382.53	51.015
382.89	51.930
383.25	52.222
383.61	52.058
383.97	51.500
384.32	53.623
384.68	52.992
385.04	52.046
385.40	53.051
385.76	52.616
386.12	53.002
386.48	53.229
386.83	53.630
387.19	52.930
387.55	53.035
387.91	52.952
388.27	53.329
388.62	53.433
388.98	53.379
389.34	52.945
389.70	51.709
390.06	52.313
390.42	53.995
390.77	53.555
391.13	53.093
391.49	53.131
391.85	52.204
392.20	54.073
392.56	52.444
392.92	52.779
393.28	52.353
393.64	53.761
393.99	51.040
394.35	52.963
394.71	53.462
395.07	49.937
395.42	53.321
395.78	53.797
396.14	54.280
396.50	53.139
396.85	52.645
397.21	52.747
397.57	52.422
397.92	52.216
398.28	52.623
398.64	52.641
399.00	53.069
399.35	54.030
399.71	52.825
400.07	52.530
400.42	52.915
400.78	51.480
401.14	52.054
401.49	53.925
401.85	52.150
402.21	53.746
402.57	52.606
402.92	52.503
403.28	52.158
403.63	52.883
403.99	54.255
404.35	53.491
404.70	52.205
405.06	53.259
405.42	52.764
405.77	51.728
406.13	52.229
406.49	52.067
406.84	51.709
407.20	51.451
407.55	52.987
407.91	52.085
408.27	50.717
408.62	52.670
408.98	52.466
409.34	52.104
409.69	53.216
410.05	51.741
410.40	51.613
410.76	51.143
411.11	52.363
411.47	52.356
411.83	51.466
412.18	52.330
412.54	52.193
412.89	52.476
413.25	50.619
413.60	51.536
413.96	51.436
414.31	51.726
414.67	52.127
415.03	52.165
415.38	50.198
415.74	51.397
416.09	50.826
416.45	51.948
416.80	51.946
417.16	52.429
417.51	51.172
417.87	50.595
418.22	52.165
418.58	50.460
418.93	51.161
419.29	52.475
419.64	51.145
420.00	51.937
420.35	50.687
420.71	50.701
421.06	51.661
421.42	52.311
421.77	52.081
422.12	50.659
422.48	50.709
422.83	52.924
423.19	51.696
423.54	52.238
423.90	51.188
424.25	51.993
424.61	51.818
424.96	51.804
425.31	48.402
425.67	51.558
426.02	52.238
426.38	52.488
426.73	51.680
427.09	51.845
427.44	51.204
427.79	51.306
428.15	50.826
428.50	51.782
428.85	50.800
429.21	51.154
429.56	50.903
429.92	51.796
430.27	51.943
430.62	50.577
430.98	51.031
431.33	51.478
431.68	49.947
432.04	50.761
432.39	50.635
432.74	50.828
433.10	51.830
433.45	49.349
433.80	51.207
434.16	49.918
434.51	50.924
434.86	51.237
435.22	51.047
435.57	50.061
435.92	50.905
436.28	49.009
436.63	50.520
436.98	51.234
437.34	50.244
437.69	50.236
438.04	50.538
438.39	51.183
438.75	49.702
439.10	51.243
439.45	50.242
439.81	52.155
440.16	50.667
440.51	50.000
440.86	51.097
441.22	49.914
441.57	50.217
441.92	50.596
442.27	49.946
442.63	49.031
442.98	50.463
443.33	49.210
443.68	49.394
444.03	50.373
444.39	49.628
444.74	48.868
445.09	50.330
445.44	49.070
445.79	50.749
446.15	50.028
446.50	49.890
446.85	50.722
447.20	51.019
447.55	49.524
447.91	49.382
448.26	50.314
448.61	50.978
448.96	50.740
449.31	49.857
449.66	48.525
450.02	49.574
450.37	50.470
450.72	48.967
451.07	49.781
451.42	48.721
451.77	50.091
452.12	48.901
452.47	49.709
452.83	49.705
453.18	50.732
453.53	50.189
453.88	49.458
454.23	51.731
454.58	49.571
454.93	49.198
455.28	49.004
455.63	49.782
455.98	49.665
456.34	48.887
456.69	49.649
457.04	48.607
457.39	49.308
457.74	47.876
458.09	49.704
458.44	48.766
458.79	47.227
459.14	47.640
459.49	48.963
459.84	47.802
460.19	48.980
460.54	48.783
460.89	49.155
461.24	49.507
461.59	49.879
461.94	49.368
462.29	49.326
462.64	48.219
462.99	49.363
463.34	49.102
463.69	48.840
464.04	47.779
464.39	49.176
464.74	47.052
465.09	48.419
465.44	47.587
465.79	48.476
466.14	47.320
466.49	48.035
466.84	47.460
467.19	48.089
467.54	48.866
467.89	47.832
468.24	48.002
468.59	47.674
468.94	47.637
469.29	48.116
469.64	48.954
469.99	49.034
470.34	48.281
470.68	47.881
471.03	46.474
471.38	45.897
471.73	47.668
472.08	46.942
472.43	47.361
472.78	47.059
473.13	46.768
473.48	46.902
473.83	47.709
474.17	46.875
474.52	48.220
474.87	46.502
475.22	46.981
475.57	46.124
475.92	47.001
476.27	46.445
476.61	46.433
476.96	46.659
477.31	46.818
477.66	47.345
478.01	46.923
478.36	46.158
478.70	46.455
479.05	47.003
479.40	45.450
479.75	47.768
480.10	46.150
480.45	45.316
480.79	47.088
481.14	46.707
481.49	46.522
481.84	46.466
482.19	45.669
482.53	45.381
482.88	46.405
483.23	45.861
483.58	45.794
483.92	46.498
484.27	45.517
484.62	45.628
484.97	45.500
485.31	44.488
485.66	42.347
486.01	42.895
486.36	42.975
486.70	43.295
487.05	44.327
487.40	44.561
487.75	44.531
488.09	44.198
488.44	45.286
488.79	46.442
489.13	44.453
489.48	45.062
489.83	44.261
490.17	45.710
490.52	46.704
490.87	44.738
491.22	45.313
491.56	46.047
491.91	44.983
492.26	46.132
492.60	44.829
492.95	45.141
493.30	45.107
493.64	44.844
493.99	44.976
494.34	44.653
494.68	44.582
495.03	44.664
495.37	44.039
495.72	45.313
496.07	45.397
496.41	44.736
496.76	43.601
497.11	44.601
497.45	46.206
497.80	45.482
498.14	45.139
498.49	44.629
498.84	45.395
499.18	43.604
499.53	43.919
499.87	44.153
500.22	44.450
500.56	44.634
500.91	44.618
501.26	44.581
501.60	44.069
501.95	43.555
502.29	44.078
502.64	43.635
502.98	44.412
503.33	43.844
503.67	44.304
504.02	43.873
504.36	42.100
504.71	43.852
505.06	44.371
505.40	43.918
505.75	43.642
506.09	43.894
506.44	44.052
506.78	43.829
507.13	43.919
507.47	43.955
507.82	43.380
508.16	43.694
508.51	42.820
508.85	43.339
509.19	43.228
509.54	44.129
509.88	42.688
510.23	43.105
510.57	44.121
510.92	43.157
511.26	44.994
511.61	43.194
511.95	42.834
512.30	43.254
512.64	43.814
512.98	44.211
513.33	43.099
513.67	43.441
514.02	43.330
514.36	42.978
514.70	44.342
515.05	44.646
515.39	42.807
515.74	44.642
516.08	42.714
516.42	43.433
516.77	43.234
517.11	42.622
517.46	44.778
517.80	44.431
518.14	43.417
518.49	42.917
518.83	43.795
519.17	41.627
519.52	42.642
519.86	43.291
520.20	43.360
520.55	42.973
520.89	43.643
521.23	44.615
521.58	43.173
521.92	43.180
522.26	43.136
522.61	43.116
522.95	43.329
523.29	42.476
523.64	42.912
523.98	42.948
524.32	42.722
524.66	42.078
525.01	43.447
525.35	42.989
525.69	43.539
526.04	42.280
526.38	43.403
526.72	42.998
527.06	42.424
527.41	41.959
527.75	42.123
528.09	42.886
528.43	42.673
528.78	42.313
529.12	42.173
529.46	41.139
529.80	40.712
530.15	41.506
530.49	41.846
530.83	43.060
531.17	42.603
531.51	41.133
531.86	41.734
532.20	41.489
532.54	41.310
532.88	41.321
533.22	41.077
533.57	40.795
533.91	42.194
534.25	41.862
534.59	41.506
534.93	40.689
535.27	40.892
535.62	41.053
535.96	41.379
536.30	41.556
536.64	40.055
536.98	40.925
537.32	40.712
537.66	40.691
538.01	40.985
538.35	40.677
538.69	40.134
539.03	40.268
539.37	39.302
539.71	39.836
540.05	39.001
540.39	40.262
540.73	40.154
541.07	39.660
541.42	40.337
541.76	39.581
542.10	38.524
542.44	40.333
542.78	39.278
543.12	39.757
543.46	40.014
543.80	37.950
544.14	39.780
544.48	38.155
544.82	38.265
545.16	39.148
545.50	40.041
545.84	38.569
546.18	38.710
546.52	39.450
546.86	37.597
547.20	39.099
547.54	39.028
547.88	40.013
548.22	39.023
548.56	38.426
548.90	38.769
549.24	39.236
549.58	39.075
549.92	40.132
550.26	39.926
550.60	39.114
550.94	38.582
551.28	39.743
551.62	39.699
551.96	38.433
552.30	37.991
552.64	37.853
552.98	38.991
553.32	38.068
553.66	38.371
554.00	37.293
554.34	37.216
554.68	38.255
555.02	38.847
555.36	38.729
555.69	38.529
556.03	37.884
556.37	36.913
556.71	37.071
557.05	38.376
557.39	37.151
557.73	37.821
558.07	36.925
558.41	37.547
558.75	37.490
559.08	38.332
559.42	38.788
559.76	36.697
560.10	36.587
560.44	36.920
560.78	37.122
561.12	38.052
561.45	36.190
561.79	37.414
562.13	37.623
562.47	38.857
562.81	39.177
563.15	37.110
563.48	35.582
563.82	36.115
564.16	37.035
564.50	38.060
564.84	35.473
565.17	36.424
565.51	35.896
565.85	35.710
566.19	36.358
566.52	36.501
566.86	36.283
567.20	35.980
567.54	35.176
567.88	34.882
568.21	34.764
568.55	33.751
568.89	34.347
569.23	34.005
569.56	33.834
569.90	32.285
570.24	32.419
570.57	32.685
570.91	32.823
571.25	31.911
571.59	30.698
571.92	31.769
572.26	32.462
572.60	32.307
572.93	32.365
573.27	31.764
573.61	32.018
573.95	31.835
574.28	31.683
574.62	30.708
574.96	31.373
575.29	31.469
575.63	31.481
575.97	31.685
576.30	31.608
576.64	31.412
576.98	31.660
577.31	30.927
577.65	30.175
577.98	30.478
578.32	30.425
578.66	30.308
578.99	30.610
579.33	30.535
579.67	31.186
580.00	31.006
580.34	30.902
580.67	30.671
581.01	30.457
581.35	29.973
581.68	29.926
582.02	30.180
582.35	30.026
582.69	30.261
583.02	30.078
583.36	30.200
583.70	30.382
584.03	30.925
584.37	30.301
584.70	30.652
585.04	29.792
585.37	29.648
585.71	29.764
586.04	30.451
586.38	29.887
586.72	30.205
587.05	30.682
587.39	30.057
587.72	30.426
588.06	29.904
588.39	29.779
588.73	29.844
589.06	30.812
589.40	29.962
589.73	30.722
590.07	30.368
590.40	30.292
590.73	31.321
591.07	31.509
591.40	30.870
591.74	31.169
592.07	31.538
592.41	30.459
592.74	30.864
593.08	29.265
593.41	29.865
593.75	29.264
594.08	29.499
594.41	30.311
594.75	29.985
595.08	30.060
595.42	29.707
595.75	29.356
596.09	30.485
596.42	30.065
596.75	30.847
597.09	30.573
597.42	30.642
597.75	30.444
598.09	29.508
598.42	29.709
598.76	30.395
599.09	30.172
599.42	29.041
599.76	28.990
600.09	29.255
600.42	28.776
600.76	29.564
601.09	29.266
601.42	30.067
601.76	29.421
602.09	29.793
602.42	29.798
602.76	29.446
603.09	29.651
603.42	28.509
603.76	28.839
604.09	28.656
604.42	29.217
604.76	29.507
605.09	29.089
605.42	30.409
605.75	29.036
606.09	27.856
606.42	29.593
606.75	28.571
607.09	28.812
607.42	30.342
607.75	27.921
608.08	29.396
608.42	29.288
608.75	29.193
609.08	28.956
609.41	29.160
609.75	29.299
610.08	29.931
610.41	29.786
610.74	29.259
611.07	28.808
611.41	29.632
611.74	28.727
612.07	28.713
612.40	29.243
612.73	28.979
613.07	28.991
613.40	30.341
613.73	29.090
614.06	28.635
614.39	29.628
614.72	29.872
615.06	28.500
615.39	29.801
615.72	28.834
616.05	29.223
616.38	29.954
616.71	29.514
617.05	29.730
617.38	27.665
617.71	28.370
618.04	29.190
618.37	29.274
618.70	29.819
619.03	29.828
619.36	30.391
619.69	30.556
620.03	29.399
620.36	28.532
620.69	29.336
621.02	29.615
621.35	30.172
621.68	30.725
622.01	30.987
622.34	29.738
622.67	29.366
623.00	30.015
623.33	29.843
623.66	28.550
623.99	29.707
624.32	28.613
624.65	30.415
624.99	29.758
625.32	29.350
625.65	28.450
625.98	29.700
626.31	29.061
626.64	29.149
626.97	29.585
627.30	30.453
627.63	29.931
627.96	29.351
628.29	31.442
628.62	30.464
628.95	30.461
629.28	30.049
629.61	30.622
629.94	29.884
630.26	30.640
630.59	29.870
630.92	29.518
631.25	29.454
631.58	30.621
631.91	29.586
632.24	31.284
632.57	30.556
632.90	31.622
633.23	31.535
633.56	31.535
633.89	31.100
634.22	31.449
634.55	32.278
634.88	29.044
635.20	31.125
635.53	30.491
