SpectraSuite Data File
++++++++++++++++++++++++++++++++++++
Date: Wed May 13 21:35:45 PDT 2015
User: schluterlab
Dark Spectrum Present: Yes
Reference Spectrum Present: Yes
Number of Sampled Component Spectra: 1
Spectrometers: USB2E3373
Integration Time (usec): 3000 (USB2E3373)
Spectra Averaged: 3 (USB2E3373)
Boxcar Smoothing: 0 (USB2E3373)
Correct for Electrical Dark: No (USB2E3373)
Strobe/Lamp Enabled: No (USB2E3373)
Correct for Detector Non-linearity: No (USB2E3373)
Correct for Stray Light: No (USB2E3373)
Number of Pixels in Processed Spectrum: 2048
>>>>>Begin Processed Spectral Data<<<<<
178.53	0.000
178.91	1050.000
179.29	233.333
179.67	-1150.000
180.04	-333.333
180.42	340.000
180.80	2100.000
181.18	300.000
181.56	-400.000
181.94	-175.000
182.31	-81.818
182.69	153.846
183.07	-60.000
183.45	300.000
183.83	200.000
184.20	171.429
184.58	133.333
184.96	566.667
185.34	342.857
185.72	0.000
186.09	-1500.000
186.47	-560.000
186.85	260.000
187.23	-500.000
187.61	600.000
187.98	1600.000
188.36	-100.000
188.74	0.000
189.12	-27.273
189.49	-10.000
189.87	141.667
190.25	320.000
190.63	1100.000
191.00	-60.000
191.38	320.000
191.76	450.000
192.14	175.000
192.51	-68.421
192.89	566.667
193.27	375.000
193.65	-320.000
194.02	272.727
194.40	310.000
194.78	-700.000
195.15	340.000
195.53	-320.000
195.91	-237.500
196.29	-266.667
196.66	0.000
197.04	800.000
197.42	-100.000
197.79	-80.000
198.17	-62.500
198.55	-266.667
198.92	100.000
199.30	-300.000
199.68	-80.000
200.05	700.000
200.43	250.000
200.81	-1500.000
201.18	-260.000
201.56	-133.333
201.94	600.000
202.31	-56.522
202.69	-128.571
203.07	-433.333
203.44	-280.000
203.82	-433.333
204.19	-40.000
204.57	0.000
204.95	-150.000
205.32	0.000
205.70	-400.000
206.08	-275.000
206.45	-216.667
206.83	450.000
207.20	-533.333
207.58	-60.000
207.96	-900.000
208.33	-257.143
208.71	-1600.000
209.08	250.000
209.46	450.000
209.84	0.000
210.21	250.000
210.59	1700.000
210.96	240.000
211.34	400.000
211.71	-500.000
212.09	-66.667
212.46	-180.000
212.84	-233.333
213.22	-300.000
213.59	-1800.000
213.97	-750.000
214.34	-300.000
214.72	-76.923
215.09	137.500
215.47	255.556
215.84	400.000
216.22	-150.000
216.59	-700.000
216.97	600.000
217.34	211.111
217.72	0.000
218.09	400.000
218.47	0.000
218.84	-42.857
219.22	-150.000
219.59	-400.000
219.97	-175.000
220.34	-137.500
220.72	-340.000
221.09	0.000
221.47	-183.333
221.84	-500.000
222.22	0.000
222.59	1800.000
222.97	-33.333
223.34	-83.333
223.72	-1100.000
224.09	-1050.000
224.46	-63.636
224.84	-150.000
225.21	-171.429
225.59	-375.000
225.96	-33.333
226.34	-90.000
226.71	-228.571
227.08	1100.000
227.46	-75.000
227.83	-1700.000
228.21	-31.250
228.58	-450.000
228.95	-17.647
229.33	-12.500
229.70	-50.000
230.08	-30.769
230.45	-250.000
230.82	-91.667
231.20	271.429
231.57	-325.000
231.95	1800.000
232.32	-16.667
232.69	-11.765
233.07	-2500.000
233.44	-52.174
233.81	-900.000
234.19	-33.333
234.56	-73.333
234.93	-60.000
235.31	0.000
235.68	-7.692
236.05	-15.385
236.43	-33.333
236.80	-24.242
237.17	-33.333
237.55	-47.059
237.92	-34.483
238.29	-18.519
238.67	0.000
239.04	-3.226
239.41	-6.383
239.79	27.660
240.16	4.651
240.53	16.071
240.91	12.500
241.28	7.143
241.65	20.968
242.02	18.421
242.40	39.130
242.77	26.087
243.14	15.385
243.51	31.915
243.89	21.154
244.26	27.358
244.63	21.154
245.00	32.292
245.38	15.126
245.75	25.410
246.12	29.323
246.49	17.073
246.87	21.008
247.24	26.351
247.61	29.139
247.98	30.128
248.36	23.669
248.73	20.787
249.10	24.747
249.47	32.796
249.84	31.579
250.22	25.373
250.59	26.636
250.96	30.909
251.33	30.144
251.70	27.197
252.08	25.523
252.45	28.807
252.82	30.418
253.19	28.016
253.56	26.978
253.94	32.740
254.31	28.521
254.68	33.893
255.05	28.053
255.42	28.671
255.79	31.595
256.16	30.599
256.54	33.016
256.91	26.899
257.28	33.333
257.65	29.618
258.02	32.845
258.39	30.409
258.76	29.651
259.14	32.670
259.51	31.742
259.88	30.352
260.25	31.111
260.62	34.831
260.99	30.504
261.36	34.715
261.73	31.358
262.10	32.061
262.47	31.111
262.85	28.607
263.22	34.359
263.59	31.429
263.96	26.764
264.33	29.087
264.70	32.791
265.07	34.491
265.44	33.793
265.81	32.952
266.18	28.702
266.55	30.786
266.92	29.661
267.29	28.807
267.66	30.361
268.03	28.601
268.40	29.237
268.77	30.372
269.14	31.633
269.51	32.238
269.88	29.939
270.25	31.144
270.62	30.533
270.99	31.299
271.36	28.968
271.73	33.735
272.10	29.524
272.47	29.942
272.84	30.118
273.21	31.507
273.58	31.557
273.95	31.698
274.32	31.716
274.69	31.330
275.06	33.392
275.43	35.028
275.80	29.787
276.17	32.044
276.54	28.242
276.91	30.836
277.28	29.061
277.65	31.294
278.02	32.143
278.39	29.840
278.76	31.271
279.13	28.130
279.50	30.172
279.87	28.804
280.23	29.910
280.60	30.104
280.97	29.870
281.34	31.703
281.71	28.618
282.08	29.402
282.45	29.344
282.82	30.192
283.19	30.335
283.56	30.781
283.92	33.333
284.29	29.329
284.66	29.489
285.03	28.176
285.40	29.758
285.77	27.177
286.14	30.699
286.51	30.885
286.87	29.846
287.24	29.499
287.61	29.970
287.98	30.735
288.35	28.316
288.72	29.268
289.08	29.060
289.45	28.194
289.82	29.652
290.19	27.910
290.56	27.131
290.93	26.243
291.29	26.265
291.66	27.869
292.03	29.019
292.40	27.725
292.77	27.041
293.13	25.941
293.50	26.928
293.87	27.200
294.24	27.116
294.60	26.918
294.97	26.720
295.34	25.989
295.71	23.916
296.08	25.524
296.44	25.255
296.81	23.995
297.18	25.875
297.55	24.410
297.91	24.845
298.28	23.729
298.65	23.276
299.02	24.664
299.38	23.436
299.75	25.601
300.12	22.907
300.48	22.807
300.85	24.827
301.22	23.229
301.59	22.418
301.95	22.184
302.32	23.337
302.69	21.921
303.05	24.142
303.42	24.886
303.79	24.606
304.15	22.125
304.52	23.656
304.89	21.816
305.25	22.173
305.62	22.777
305.99	21.980
306.35	24.556
306.72	23.194
307.09	22.836
307.45	22.364
307.82	21.895
308.19	20.167
308.55	22.518
308.92	23.969
309.29	23.423
309.65	22.278
310.02	21.173
310.38	22.053
310.75	23.176
311.12	22.157
311.48	22.750
311.85	22.343
312.22	22.244
312.58	21.932
312.95	23.085
313.31	22.590
313.68	22.137
314.05	22.779
314.41	24.207
314.78	24.858
315.14	23.981
315.51	25.119
315.87	24.838
316.24	24.426
316.61	24.292
316.97	24.630
317.34	24.955
317.70	25.781
318.07	25.377
318.43	25.926
318.80	25.742
319.16	25.553
319.53	26.254
319.89	27.462
320.26	28.835
320.62	27.062
320.99	27.810
321.35	29.093
321.72	29.355
322.08	28.137
322.45	29.787
322.81	30.129
323.18	29.785
323.54	31.137
323.91	31.436
324.27	31.323
324.64	31.882
325.00	33.071
325.37	34.044
325.73	32.912
326.10	34.230
326.46	34.114
326.83	35.437
327.19	34.472
327.56	36.664
327.92	35.076
328.29	37.730
328.65	38.650
329.01	36.851
329.38	39.304
329.74	38.197
330.11	40.307
330.47	38.889
330.84	39.621
331.20	39.624
331.56	39.583
331.93	39.879
332.29	40.834
332.66	38.898
333.02	39.965
333.38	38.947
333.75	40.700
334.11	41.059
334.48	41.238
334.84	40.459
335.20	39.966
335.57	41.166
335.93	40.120
336.29	41.243
336.66	42.051
337.02	40.435
337.38	40.383
337.75	41.774
338.11	41.161
338.47	40.753
338.84	41.581
339.20	41.093
339.56	40.444
339.93	42.697
340.29	41.076
340.65	42.002
341.02	41.181
341.38	42.230
341.74	40.756
342.11	39.141
342.47	40.167
342.83	41.176
343.20	41.794
343.56	42.355
343.92	39.561
344.28	39.773
344.65	41.306
345.01	40.597
345.37	42.845
345.73	41.912
346.10	41.814
346.46	40.813
346.82	40.770
347.19	40.585
347.55	40.872
347.91	40.764
348.27	40.931
348.63	41.506
349.00	39.858
349.36	42.543
349.72	40.990
350.08	41.264
350.45	40.407
350.81	40.454
351.17	41.339
351.53	40.534
351.89	40.191
352.26	40.077
352.62	40.930
352.98	40.096
353.34	40.902
353.70	40.343
354.07	41.255
354.43	39.736
354.79	42.308
355.15	41.460
355.51	40.774
355.87	42.064
356.24	41.573
356.60	41.595
356.96	40.522
357.32	42.028
357.68	40.260
358.04	41.195
358.40	41.008
358.77	40.291
359.13	41.167
359.49	41.711
359.85	41.395
360.21	40.941
360.57	42.129
360.93	41.958
361.29	41.599
361.66	42.521
362.02	41.735
362.38	42.171
362.74	41.117
363.10	42.082
363.46	40.706
363.82	42.498
364.18	41.407
364.54	42.743
364.90	41.115
365.26	41.967
365.62	42.330
365.98	41.423
366.35	43.333
366.71	42.011
367.07	42.310
367.43	43.554
367.79	41.765
368.15	42.546
368.51	41.491
368.87	42.219
369.23	41.922
369.59	42.918
369.95	42.235
370.31	42.538
370.67	41.781
371.03	42.539
371.39	42.583
371.75	41.286
372.11	41.667
372.47	42.826
372.83	42.926
373.19	42.086
373.55	43.786
373.91	43.494
374.27	42.808
374.63	42.532
374.99	42.758
375.35	43.425
375.71	42.459
376.07	45.374
376.42	42.580
376.78	45.046
377.14	44.746
377.50	45.176
377.86	43.891
378.22	43.742
378.58	44.451
378.94	45.125
379.30	44.285
379.66	44.945
380.02	44.730
380.38	43.434
380.74	45.547
381.09	44.934
381.45	44.740
381.81	45.471
382.17	45.621
382.53	44.677
382.89	43.788
383.25	45.309
383.61	45.339
383.97	45.062
384.32	45.243
384.68	45.034
385.04	44.960
385.40	46.513
385.76	46.229
386.12	46.482
386.48	45.956
386.83	46.308
387.19	46.391
387.55	45.432
387.91	47.601
388.27	46.917
388.62	47.004
388.98	46.558
389.34	47.494
389.70	46.825
390.06	46.688
390.42	47.165
390.77	47.021
391.13	47.285
391.49	47.375
391.85	47.476
392.20	47.682
392.56	48.381
392.92	46.870
393.28	47.414
393.64	47.890
393.99	47.307
394.35	48.395
394.71	47.372
395.07	47.673
395.42	49.299
395.78	47.490
396.14	49.207
396.50	48.446
396.85	49.522
397.21	48.689
397.57	48.261
397.92	48.024
398.28	48.280
398.64	48.937
399.00	47.935
399.35	49.262
399.71	48.107
400.07	49.759
400.42	49.279
400.78	48.640
401.14	49.111
401.49	49.371
401.85	50.614
402.21	51.084
402.57	49.111
402.92	50.501
403.28	49.656
403.63	50.217
403.99	49.776
404.35	49.813
404.70	49.063
405.06	50.675
405.42	49.309
405.77	49.942
406.13	49.771
406.49	50.809
406.84	50.672
407.20	49.852
407.55	51.234
407.91	49.702
408.27	50.468
408.62	50.522
408.98	50.432
409.34	50.990
409.69	51.917
410.05	51.368
410.40	50.578
410.76	52.166
411.11	51.866
411.47	52.488
411.83	51.903
412.18	51.763
412.54	50.752
412.89	52.163
413.25	51.091
413.60	52.476
413.96	50.499
414.31	52.528
414.67	52.063
415.03	51.894
415.38	52.510
415.74	51.982
416.09	53.602
416.45	53.725
416.80	52.349
417.16	52.767
417.51	53.248
417.87	52.381
418.22	52.424
418.58	51.117
418.93	52.919
419.29	53.267
419.64	52.545
420.00	52.635
420.35	52.959
420.71	53.260
421.06	53.567
421.42	54.075
421.77	53.295
422.12	54.212
422.48	53.381
422.83	53.160
423.19	52.789
423.54	54.240
423.90	53.088
424.25	54.246
424.61	54.036
424.96	53.400
425.31	53.169
425.67	54.556
426.02	55.006
426.38	53.794
426.73	55.345
427.09	54.159
427.44	55.021
427.79	53.919
428.15	54.190
428.50	54.199
428.85	53.690
429.21	54.136
429.56	54.623
429.92	55.075
430.27	54.806
430.62	54.879
430.98	55.209
431.33	54.756
431.68	54.792
432.04	54.761
432.39	53.580
432.74	54.568
433.10	55.317
433.45	54.852
433.80	55.287
434.16	54.506
434.51	55.543
434.86	55.771
435.22	55.688
435.57	54.853
435.92	56.092
436.28	54.775
436.63	55.370
436.98	55.405
437.34	55.556
437.69	54.664
438.04	54.839
438.39	56.787
438.75	53.933
439.10	56.912
439.45	54.903
439.81	56.650
440.16	56.174
440.51	56.718
440.86	56.432
441.22	55.250
441.57	55.369
441.92	56.558
442.27	55.844
442.63	55.974
442.98	55.266
443.33	55.926
443.68	55.140
444.03	55.142
444.39	57.164
444.74	55.936
445.09	55.121
445.44	57.014
445.79	57.666
446.15	56.628
446.50	56.938
446.85	57.456
447.20	55.358
447.55	56.407
447.91	56.236
448.26	56.261
448.61	56.041
448.96	57.005
449.31	56.482
449.66	55.813
450.02	56.282
450.37	56.404
450.72	56.774
451.07	57.555
451.42	56.145
451.77	56.239
452.12	56.506
452.47	57.005
452.83	55.307
453.18	56.906
453.53	56.747
453.88	56.747
454.23	57.169
454.58	57.047
454.93	56.703
455.28	57.739
455.63	56.519
455.98	57.578
456.34	55.880
456.69	57.572
457.04	55.975
457.39	56.825
457.74	56.792
458.09	56.457
458.44	56.933
458.79	56.727
459.14	55.337
459.49	57.012
459.84	55.693
460.19	56.062
460.54	55.596
460.89	57.207
461.24	56.227
461.59	57.548
461.94	57.332
462.29	56.556
462.64	54.024
462.99	56.539
463.34	56.768
463.69	57.023
464.04	56.483
464.39	56.620
464.74	56.941
465.09	56.479
465.44	55.780
465.79	57.102
466.14	57.697
466.49	56.305
466.84	56.127
467.19	56.497
467.54	56.124
467.89	56.631
468.24	56.484
468.59	55.959
468.94	55.619
469.29	56.114
469.64	56.206
469.99	57.655
470.34	56.372
470.68	56.059
471.03	57.123
471.38	57.302
471.73	56.516
472.08	57.320
472.43	58.971
472.78	56.389
473.13	56.332
473.48	56.034
473.83	57.125
474.17	57.357
474.52	56.699
474.87	56.454
475.22	57.246
475.57	56.163
475.92	55.671
476.27	56.352
476.61	56.059
476.96	56.139
477.31	55.987
477.66	56.215
478.01	55.824
478.36	55.259
478.70	55.908
479.05	57.991
479.40	55.330
479.75	56.642
480.10	56.247
480.45	54.537
480.79	55.102
481.14	55.724
481.49	57.129
481.84	54.241
482.19	55.257
482.53	55.714
482.88	54.794
483.23	54.909
483.58	55.624
483.92	55.982
484.27	55.124
484.62	54.150
484.97	54.791
485.31	54.691
485.66	53.732
486.01	53.759
486.36	54.245
486.70	54.141
487.05	53.790
487.40	53.810
487.75	53.144
488.09	52.111
488.44	53.137
488.79	53.974
489.13	53.877
489.48	53.912
489.83	54.087
490.17	54.970
490.52	55.446
490.87	53.268
491.22	53.415
491.56	54.720
491.91	54.441
492.26	54.932
492.60	53.295
492.95	55.296
493.30	53.440
493.64	53.621
493.99	54.348
494.34	53.709
494.68	54.940
495.03	54.298
495.37	53.966
495.72	53.734
496.07	54.213
496.41	53.627
496.76	53.702
497.11	53.756
497.45	53.988
497.80	54.568
498.14	53.552
498.49	52.698
498.84	54.049
499.18	53.907
499.53	53.274
499.87	53.275
500.22	53.559
500.56	53.761
500.91	54.125
501.26	53.498
501.60	53.971
501.95	52.995
502.29	52.524
502.64	53.616
502.98	53.516
503.33	53.577
503.67	52.629
504.02	52.990
504.36	53.195
504.71	53.150
505.06	54.050
505.40	53.660
505.75	53.255
506.09	52.018
506.44	52.923
506.78	52.920
507.13	53.170
507.47	52.545
507.82	53.323
508.16	52.982
508.51	53.099
508.85	51.996
509.19	53.545
509.54	52.225
509.88	53.065
510.23	52.474
510.57	52.648
510.92	52.155
511.26	53.465
511.61	52.250
511.95	52.095
512.30	52.415
512.64	52.554
512.98	52.909
513.33	52.169
513.67	52.186
514.02	52.737
514.36	52.865
514.70	53.118
515.05	53.248
515.39	50.767
515.74	52.279
516.08	51.563
516.42	51.613
516.77	51.845
517.11	51.146
517.46	52.701
517.80	52.119
518.14	53.092
518.49	51.055
518.83	51.551
519.17	51.687
519.52	52.171
519.86	52.702
520.20	50.879
520.55	52.861
520.89	52.435
521.23	53.462
521.58	52.655
521.92	51.351
522.26	51.984
522.61	52.359
522.95	52.332
523.29	51.429
523.64	52.193
523.98	52.033
524.32	50.851
524.66	51.234
525.01	52.097
525.35	51.218
525.69	52.353
526.04	49.902
526.38	51.434
526.72	50.493
527.06	50.484
527.41	51.820
527.75	52.203
528.09	51.804
528.43	51.628
528.78	50.969
529.12	51.229
529.46	51.631
529.80	50.615
530.15	50.064
530.49	50.270
530.83	51.930
531.17	51.096
531.51	50.034
531.86	49.526
532.20	49.207
532.54	49.655
532.88	50.851
533.22	51.246
533.57	49.470
533.91	50.645
534.25	50.130
534.59	49.163
534.93	48.916
535.27	48.981
535.62	49.539
535.96	48.081
536.30	50.199
536.64	48.189
536.98	49.194
537.32	50.249
537.66	49.506
538.01	48.197
538.35	48.135
538.69	48.227
539.03	47.315
539.37	47.485
539.71	48.226
540.05	47.233
540.39	48.314
540.73	48.115
541.07	47.551
541.42	48.485
541.76	47.429
542.10	46.852
542.44	48.164
542.78	47.051
543.12	45.755
543.46	47.616
543.80	47.386
544.14	47.694
544.48	45.455
544.82	47.276
545.16	47.735
545.50	46.995
545.84	47.756
546.18	46.143
546.52	46.648
546.86	46.431
547.20	46.748
547.54	45.818
547.88	47.368
548.22	46.840
548.56	45.831
548.90	45.332
549.24	46.875
549.58	44.484
549.92	46.295
550.26	46.642
550.60	44.895
550.94	47.463
551.28	46.101
551.62	45.789
551.96	44.949
552.30	45.633
552.64	47.105
552.98	45.170
553.32	44.917
553.66	44.974
554.00	45.716
554.34	44.469
554.68	45.041
555.02	44.536
555.36	44.478
555.69	45.157
556.03	45.175
556.37	43.385
556.71	43.798
557.05	42.878
557.39	45.290
557.73	44.251
558.07	44.461
558.41	45.420
558.75	43.572
559.08	43.705
559.42	44.611
559.76	42.355
560.10	42.813
560.44	44.289
560.78	44.460
561.12	44.709
561.45	43.469
561.79	42.641
562.13	43.952
562.47	44.000
562.81	43.074
563.15	43.130
563.48	42.808
563.82	43.434
564.16	42.857
564.50	42.673
564.84	42.365
565.17	43.113
565.51	41.644
565.85	41.772
566.19	42.715
566.52	41.940
566.86	42.478
567.20	41.600
567.54	41.854
567.88	40.929
568.21	39.870
568.55	41.575
568.89	40.628
569.23	39.826
569.56	40.634
569.90	40.222
570.24	38.881
570.57	38.826
570.91	38.549
571.25	38.471
571.59	38.455
571.92	38.193
572.26	38.432
572.60	37.881
572.93	38.113
573.27	37.382
573.61	37.748
573.95	37.546
574.28	37.613
574.62	36.608
574.96	37.106
575.29	37.287
575.63	37.092
575.97	37.011
576.30	36.426
576.64	36.835
576.98	37.386
577.31	36.778
577.65	36.426
577.98	36.954
578.32	36.453
578.66	36.560
578.99	36.268
579.33	36.057
579.67	35.591
580.00	35.652
580.34	36.306
580.67	36.379
581.01	35.494
581.35	36.005
581.68	35.624
582.02	35.964
582.35	35.722
582.69	35.420
583.02	35.267
583.36	35.336
583.70	35.668
584.03	35.293
584.37	34.617
584.70	35.526
585.04	35.940
585.37	36.063
585.71	35.456
586.04	35.414
586.38	35.385
586.72	34.673
587.05	35.505
587.39	34.809
587.72	35.745
588.06	35.021
588.39	35.292
588.73	34.597
589.06	35.306
589.40	35.088
589.73	34.962
590.07	34.634
590.40	35.214
590.73	36.224
591.07	35.604
591.40	35.739
591.74	36.016
592.07	36.969
592.41	35.822
592.74	35.687
593.08	35.385
593.41	35.260
593.75	34.787
594.08	35.233
594.41	34.845
594.75	34.820
595.08	34.989
595.42	34.646
595.75	34.346
596.09	34.334
596.42	34.273
596.75	34.620
597.09	35.259
597.42	34.634
597.75	34.800
598.09	34.517
598.42	34.765
598.76	33.837
599.09	35.094
599.42	34.970
599.76	34.097
600.09	34.526
600.42	34.463
600.76	33.740
601.09	33.823
601.42	33.673
601.76	33.282
602.09	34.252
602.42	33.760
602.76	33.683
603.09	34.908
603.42	33.786
603.76	34.334
604.09	32.846
604.42	33.654
604.76	33.261
605.09	33.711
605.42	34.953
605.75	33.919
606.09	33.940
606.42	34.123
606.75	34.545
607.09	33.466
607.42	33.625
607.75	33.348
608.08	33.995
608.42	33.083
608.75	34.161
609.08	33.170
609.41	33.284
609.75	33.333
610.08	33.777
610.41	33.965
610.74	33.494
611.07	33.116
611.41	33.623
611.74	33.799
612.07	32.830
612.40	34.595
612.73	33.315
613.07	33.703
613.40	34.086
613.73	33.911
614.06	33.223
614.39	33.741
614.72	34.092
615.06	33.222
615.39	33.996
615.72	33.261
616.05	33.164
616.38	33.333
616.71	33.053
617.05	34.337
617.38	33.210
617.71	31.801
618.04	32.785
618.37	33.628
618.70	34.153
619.03	33.608
619.36	34.520
619.69	33.626
620.03	33.498
620.36	32.916
620.69	33.619
621.02	33.308
621.35	33.851
621.68	35.045
622.01	35.599
622.34	33.624
622.67	34.377
623.00	34.422
623.33	33.508
623.66	33.532
623.99	34.059
624.32	32.869
624.65	33.902
624.99	33.211
625.32	34.429
625.65	34.341
625.98	34.044
626.31	34.531
626.64	32.158
626.97	33.910
627.30	33.191
627.63	34.256
627.96	32.121
628.29	34.977
628.62	34.236
628.95	34.569
629.28	33.596
629.61	35.215
629.94	35.300
630.26	34.680
630.59	34.066
630.92	34.739
631.25	34.192
631.58	34.690
631.91	33.616
