SpectraSuite Data File
++++++++++++++++++++++++++++++++++++
Date: Wed May 13 21:30:50 PDT 2015
User: schluterlab
Dark Spectrum Present: Yes
Reference Spectrum Present: Yes
Number of Sampled Component Spectra: 1
Spectrometers: USB2E3373
Integration Time (usec): 3000 (USB2E3373)
Spectra Averaged: 3 (USB2E3373)
Boxcar Smoothing: 0 (USB2E3373)
Correct for Electrical Dark: No (USB2E3373)
Strobe/Lamp Enabled: No (USB2E3373)
Correct for Detector Non-linearity: No (USB2E3373)
Correct for Stray Light: No (USB2E3373)
Number of Pixels in Processed Spectrum: 2048
>>>>>Begin Processed Spectral Data<<<<<
178.53	0.000
178.91	600.000
179.29	191.667
179.67	-400.000
180.04	-33.333
180.42	220.000
180.80	2200.000
181.18	316.667
181.56	-525.000
181.94	-200.000
182.31	18.182
182.69	84.615
183.07	-220.000
183.45	116.667
183.83	88.889
184.20	342.857
184.58	-333.333
184.96	366.667
185.34	128.571
185.72	0.000
186.09	-500.000
186.47	-140.000
186.85	320.000
187.23	-250.000
187.61	1150.000
187.98	500.000
188.36	25.000
188.74	0.000
189.12	9.091
189.49	30.000
189.87	141.667
190.25	460.000
190.63	1100.000
191.00	-40.000
191.38	280.000
191.76	550.000
192.14	125.000
192.51	-36.842
192.89	266.667
193.27	300.000
193.65	-240.000
194.02	181.818
194.40	210.000
194.78	-800.000
195.15	240.000
195.53	-160.000
195.91	-25.000
196.29	-400.000
196.66	0.000
197.04	550.000
197.42	20.000
197.79	-40.000
198.17	-112.500
198.55	-233.333
198.92	225.000
199.30	-433.333
199.68	-120.000
200.05	150.000
200.43	333.333
200.81	-1100.000
201.18	-260.000
201.56	-50.000
201.94	600.000
202.31	-8.696
202.69	-214.286
203.07	-466.667
203.44	-120.000
203.82	-366.667
204.19	10.000
204.57	0.000
204.95	-100.000
205.32	0.000
205.70	-350.000
206.08	-75.000
206.45	-233.333
206.83	325.000
207.20	-133.333
207.58	-20.000
207.96	-1800.000
208.33	-200.000
208.71	-1800.000
209.08	225.000
209.46	500.000
209.84	0.000
210.21	200.000
210.59	1300.000
210.96	240.000
211.34	1100.000
211.71	-750.000
212.09	-250.000
212.46	-160.000
212.84	233.333
213.22	-75.000
213.59	-500.000
213.97	-850.000
214.34	-500.000
214.72	-61.538
215.09	162.500
215.47	200.000
215.84	800.000
216.22	-150.000
216.59	-200.000
216.97	633.333
217.34	166.667
217.72	0.000
218.09	366.667
218.47	-200.000
218.84	-71.429
219.22	-162.500
219.59	-633.333
219.97	-175.000
220.34	-100.000
220.72	-320.000
221.09	0.000
221.47	-283.333
221.84	-1600.000
222.22	0.000
222.59	800.000
222.97	-166.667
223.34	-75.000
223.72	-1200.000
224.09	-900.000
224.46	-18.182
224.84	-75.000
225.21	-85.714
225.59	-350.000
225.96	-116.667
226.34	-90.000
226.71	-128.571
227.08	650.000
227.46	-162.500
227.83	-300.000
228.21	-87.500
228.58	-200.000
228.95	-47.059
229.33	0.000
229.70	-87.500
230.08	-84.615
230.45	-162.500
230.82	-208.333
231.20	300.000
231.57	-400.000
231.95	-0.000
232.32	-58.333
232.69	-29.412
233.07	-2600.000
233.44	-52.174
233.81	-1050.000
234.19	-16.667
234.56	-80.000
234.93	-20.000
235.31	-21.053
235.68	-61.538
236.05	-69.231
236.43	-66.667
236.80	-27.273
237.17	-53.333
237.55	-70.588
237.92	-68.966
238.29	-66.667
238.67	-19.444
239.04	-22.581
239.41	-23.404
239.79	-6.383
240.16	-16.279
240.53	-25.000
240.91	-7.143
241.28	-16.071
241.65	-14.516
242.02	-6.579
242.40	-4.348
242.77	-14.493
243.14	-10.256
243.51	-14.894
243.89	-3.846
244.26	8.491
244.63	-18.269
245.00	-11.458
245.38	-9.244
245.75	-6.557
246.12	-3.759
246.49	-6.504
246.87	-24.370
247.24	-6.757
247.61	-3.974
247.98	-2.564
248.36	-5.917
248.73	-9.551
249.10	-6.566
249.47	-7.527
249.84	-4.211
250.22	-3.980
250.59	-0.467
250.96	-3.636
251.33	-13.397
251.70	5.439
252.08	-5.858
252.45	-6.173
252.82	0.760
253.19	-7.393
253.56	-5.755
253.94	-0.356
254.31	-2.465
254.68	0.000
255.05	-0.990
255.42	-1.399
255.79	-5.828
256.16	-1.577
256.54	-1.270
256.91	-5.063
257.28	0.314
257.65	-6.369
258.02	-2.933
258.39	-2.047
258.76	-1.744
259.14	0.000
259.51	-3.652
259.88	-1.355
260.25	-4.722
260.62	-5.618
260.99	-3.448
261.36	-1.036
261.73	-4.444
262.10	-4.580
262.47	-2.716
262.85	0.498
263.22	-1.795
263.59	-1.558
263.96	-3.893
264.33	-2.404
264.70	-2.326
265.07	-1.852
265.44	-1.609
265.81	-3.661
266.18	-3.189
266.55	-3.275
266.92	-4.025
267.29	-2.469
267.66	-1.911
268.03	1.235
268.40	-4.873
268.77	0.207
269.14	-3.469
269.51	1.027
269.88	-2.444
270.25	0.000
270.62	-1.639
270.99	-0.394
271.36	-1.389
271.73	-2.610
272.10	-2.095
272.47	-2.879
272.84	-0.591
273.21	-0.391
273.58	-3.279
273.95	-3.585
274.32	-1.679
274.69	-1.639
275.06	0.177
275.43	-1.507
275.80	-1.064
276.17	-0.921
276.54	-0.710
276.91	-2.091
277.28	-3.610
277.65	-0.350
278.02	-0.357
278.39	-2.309
278.76	-1.505
279.13	-1.544
279.50	-0.172
279.87	-1.812
280.23	-3.243
280.60	-1.730
280.97	-0.974
281.34	0.000
281.71	-1.463
282.08	-2.222
282.45	-0.984
282.82	-1.118
283.19	-0.762
283.56	-1.250
283.92	-1.223
284.29	-1.092
284.66	-1.977
285.03	-2.443
285.40	-1.813
285.77	-1.952
286.14	-1.672
286.51	-1.049
286.87	-1.692
287.24	-2.212
287.61	-0.904
287.98	-1.912
288.35	-2.385
288.72	-0.861
289.08	0.427
289.45	-2.056
289.82	-1.362
290.19	-1.122
290.56	-1.278
290.93	-0.691
291.29	-0.410
291.66	-1.366
292.03	-0.409
292.40	-2.153
292.77	-1.071
293.13	-1.395
293.50	-0.523
293.87	-0.267
294.24	-0.397
294.60	-0.650
294.97	0.926
295.34	-2.243
295.71	-1.445
296.08	-0.524
296.44	-0.255
296.81	-0.487
297.18	0.000
297.55	-0.708
297.91	-1.366
298.28	-0.484
298.65	-0.862
299.02	0.122
299.38	-1.595
299.75	-0.721
300.12	-0.930
300.48	-1.520
300.85	-0.924
301.22	-0.348
301.59	-2.113
301.95	-1.510
302.32	-1.400
302.69	-2.260
303.05	-1.218
303.42	-0.795
303.79	0.526
304.15	-1.752
304.52	0.000
304.89	-1.107
305.25	-0.549
305.62	-0.434
305.99	-0.653
306.35	0.313
306.72	0.610
307.09	-0.313
307.45	-1.171
307.82	-0.526
308.19	-2.821
308.55	-0.819
308.92	0.982
309.29	-0.400
309.65	-1.199
310.02	0.099
310.38	0.102
310.75	-0.592
311.12	0.583
311.48	-1.088
311.85	-0.492
312.22	0.774
312.58	-0.773
312.95	-0.796
313.31	1.377
313.68	0.191
314.05	0.095
314.41	0.961
314.78	0.474
315.14	1.389
315.51	1.427
315.87	0.927
316.24	1.837
316.61	1.005
316.97	2.037
317.34	1.604
317.70	0.803
318.07	1.065
318.43	1.355
318.80	1.483
319.16	1.238
319.53	2.867
319.89	2.439
320.26	2.495
320.62	2.688
320.99	1.357
321.35	1.777
321.72	1.829
322.08	2.122
322.45	3.145
322.81	3.697
323.18	3.399
323.54	2.708
323.91	3.613
324.27	3.780
324.64	4.094
325.00	3.412
325.37	6.143
325.73	4.125
326.10	4.962
326.46	5.435
326.83	4.773
327.19	5.528
327.56	6.849
327.92	5.712
328.29	7.179
328.65	7.099
329.01	6.332
329.38	7.739
329.74	7.296
330.11	7.304
330.47	7.465
330.84	6.859
331.20	8.796
331.56	8.062
331.93	8.096
332.29	9.470
332.66	7.627
333.02	9.296
333.38	8.772
333.75	8.532
334.11	9.635
334.48	8.893
334.84	7.597
335.20	8.834
335.57	8.181
335.93	8.763
336.29	9.107
336.66	9.316
337.02	9.478
337.38	10.096
337.75	9.733
338.11	9.906
338.47	7.449
338.84	9.794
339.20	9.083
339.56	9.642
339.93	9.507
340.29	10.333
340.65	9.153
341.02	9.817
341.38	8.615
341.74	8.739
342.11	9.992
342.47	9.372
342.83	8.905
343.20	9.306
343.56	9.076
343.92	8.286
344.28	9.416
344.65	9.143
345.01	9.282
345.37	9.539
345.73	9.641
346.10	9.711
346.46	8.780
346.82	8.587
347.19	8.544
347.55	8.885
347.91	8.028
348.27	8.675
348.63	9.215
349.00	8.569
349.36	9.498
349.72	9.126
350.08	9.438
350.45	8.066
350.81	10.016
351.17	9.161
351.53	8.170
351.89	8.102
352.26	7.799
352.62	8.295
352.98	7.827
353.34	8.374
353.70	8.879
354.07	8.392
354.43	8.476
354.79	8.654
355.15	8.618
355.51	8.808
355.87	7.975
356.24	8.266
356.60	7.740
356.96	8.826
357.32	8.591
357.68	7.869
358.04	9.077
358.40	9.225
358.77	8.639
359.13	7.471
359.49	8.478
359.85	8.870
360.21	7.093
360.57	8.517
360.93	8.725
361.29	8.734
361.66	8.580
362.02	8.377
362.38	8.715
362.74	7.977
363.10	7.520
363.46	7.709
363.82	8.869
364.18	7.614
364.54	8.023
364.90	8.711
365.26	8.422
365.62	7.955
365.98	7.758
366.35	8.582
366.71	7.347
367.07	8.575
367.43	8.293
367.79	8.617
368.15	7.525
368.51	7.876
368.87	8.653
369.23	8.114
369.59	8.386
369.95	6.749
370.31	7.671
370.67	8.400
371.03	8.166
371.39	8.659
371.75	7.714
372.11	9.117
372.47	7.931
372.83	8.252
373.19	7.842
373.55	8.382
373.91	8.062
374.27	7.054
374.63	8.037
374.99	7.939
375.35	8.425
375.71	6.658
376.07	7.676
376.42	7.620
376.78	8.587
377.14	7.525
377.50	8.018
377.86	7.902
378.22	8.028
378.58	7.629
378.94	8.687
379.30	8.307
379.66	8.816
380.02	7.659
380.38	7.289
380.74	7.770
381.09	7.720
381.45	7.799
381.81	7.517
382.17	8.003
382.53	7.754
382.89	7.901
383.25	7.593
383.61	8.354
383.97	7.625
384.32	7.246
384.68	7.341
385.04	7.269
385.40	8.344
385.76	8.090
386.12	7.553
386.48	7.461
386.83	7.635
387.19	6.601
387.55	8.032
387.91	7.380
388.27	6.597
388.62	8.115
388.98	7.384
389.34	7.519
389.70	7.570
390.06	7.812
390.42	8.312
390.77	7.239
391.13	7.765
391.49	7.147
391.85	8.051
392.20	8.333
392.56	7.048
392.92	7.373
393.28	7.496
393.64	6.972
393.99	6.793
394.35	7.222
394.71	7.692
395.07	6.730
395.42	7.008
395.78	6.499
396.14	7.166
396.50	7.292
396.85	7.393
397.21	6.679
397.57	6.894
397.92	7.545
398.28	7.501
398.64	7.104
399.00	7.031
399.35	7.208
399.71	7.455
400.07	7.651
400.42	6.583
400.78	6.647
401.14	6.254
401.49	6.052
401.85	7.187
402.21	6.749
402.57	7.296
402.92	7.885
403.28	7.442
403.63	6.696
403.99	6.526
404.35	6.484
404.70	6.103
405.06	6.459
405.42	6.344
405.77	5.588
406.13	6.514
406.49	5.752
406.84	6.166
407.20	7.105
407.55	6.688
407.91	6.023
408.27	5.864
408.62	7.182
408.98	5.980
409.34	5.507
409.69	6.628
410.05	5.473
410.40	6.512
410.76	6.438
411.11	6.654
411.47	6.238
411.83	6.114
412.18	6.108
412.54	6.454
412.89	5.392
413.25	6.077
413.60	6.270
413.96	5.993
414.31	6.967
414.67	6.667
415.03	5.480
415.38	5.152
415.74	5.718
416.09	6.742
416.45	6.015
416.80	6.242
417.16	6.478
417.51	6.229
417.87	5.952
418.22	5.559
418.58	5.913
418.93	6.215
419.29	6.271
419.64	6.043
420.00	5.778
420.35	5.678
420.71	5.606
421.06	6.273
421.42	6.448
421.77	6.012
422.12	6.246
422.48	5.834
422.83	5.670
423.19	6.555
423.54	6.419
423.90	6.413
424.25	6.412
424.61	5.545
424.96	6.091
425.31	6.282
425.67	6.584
426.02	6.655
426.38	6.592
426.73	5.681
427.09	6.817
427.44	6.518
427.79	5.760
428.15	5.994
428.50	5.559
428.85	7.257
429.21	6.584
429.56	6.642
429.92	6.871
430.27	5.879
430.62	6.191
430.98	6.504
431.33	5.588
431.68	6.922
432.04	6.254
432.39	5.831
432.74	6.438
433.10	7.031
433.45	6.509
433.80	6.322
434.16	6.827
434.51	5.870
434.86	6.655
435.22	6.225
435.57	6.143
435.92	6.634
436.28	6.547
436.63	6.409
436.98	6.228
437.34	7.631
437.69	6.789
438.04	6.282
438.39	6.600
438.75	6.317
439.10	7.172
439.45	6.659
439.81	6.527
440.16	7.652
440.51	6.659
440.86	7.172
441.22	7.229
441.57	7.918
441.92	6.998
442.27	6.981
442.63	6.674
442.98	6.655
443.33	6.546
443.68	6.537
444.03	7.799
444.39	7.238
444.74	7.013
445.09	6.663
445.44	7.606
445.79	7.331
446.15	7.765
446.50	7.819
446.85	7.750
447.20	7.684
447.55	7.834
447.91	7.360
448.26	7.261
448.61	7.365
448.96	7.175
449.31	8.281
449.66	8.618
450.02	7.845
450.37	7.991
450.72	7.865
451.07	7.712
451.42	7.923
451.77	8.460
452.12	8.794
452.47	8.199
452.83	7.842
453.18	7.193
453.53	8.827
453.88	7.590
454.23	7.726
454.58	8.211
454.93	7.697
455.28	8.028
455.63	8.047
455.98	7.912
456.34	7.819
456.69	8.562
457.04	8.297
457.39	8.659
457.74	8.378
458.09	8.175
458.44	8.343
458.79	8.622
459.14	8.371
459.49	7.378
459.84	8.286
460.19	8.403
460.54	8.455
460.89	8.390
461.24	7.891
461.59	8.514
461.94	7.901
462.29	7.782
462.64	7.784
462.99	8.115
463.34	9.047
463.69	8.247
464.04	8.343
464.39	8.664
464.74	9.214
465.09	8.741
465.44	8.923
465.79	9.316
466.14	8.666
466.49	8.798
466.84	9.026
467.19	8.790
467.54	9.592
467.89	8.297
468.24	8.420
468.59	8.031
468.94	8.493
469.29	8.328
469.64	7.741
469.99	9.655
470.34	7.822
470.68	8.550
471.03	8.815
471.38	8.136
471.73	9.534
472.08	8.797
472.43	9.301
472.78	8.519
473.13	7.256
473.48	8.480
473.83	8.537
474.17	8.073
474.52	8.544
474.87	8.384
475.22	8.394
475.57	8.533
475.92	9.160
476.27	8.508
476.61	8.211
476.96	8.681
477.31	8.037
477.66	9.379
478.01	8.077
478.36	8.229
478.70	8.915
479.05	8.713
479.40	8.684
479.75	8.448
480.10	8.873
480.45	8.239
480.79	9.009
481.14	8.967
481.49	9.176
481.84	8.577
482.19	8.522
482.53	9.000
482.88	8.485
483.23	8.037
483.58	8.507
483.92	8.220
484.27	8.417
484.62	8.034
484.97	8.876
485.31	8.955
485.66	8.972
486.01	9.041
486.36	8.967
486.70	9.057
487.05	9.187
487.40	8.776
487.75	8.929
488.09	9.071
488.44	8.868
488.79	9.008
489.13	8.549
489.48	8.422
489.83	9.022
490.17	8.307
490.52	9.257
490.87	7.881
491.22	8.997
491.56	8.481
491.91	8.305
492.26	8.946
492.60	8.514
492.95	8.601
493.30	8.527
493.64	7.722
493.99	8.841
494.34	8.237
494.68	8.449
495.03	8.103
495.37	8.127
495.72	8.622
496.07	8.768
496.41	7.908
496.76	8.775
497.11	8.545
497.45	8.463
497.80	8.733
498.14	7.960
498.49	8.472
498.84	8.401
499.18	7.914
499.53	8.173
499.87	8.006
500.22	8.960
500.56	8.475
500.91	8.602
501.26	8.374
501.60	8.235
501.95	8.769
502.29	8.350
502.64	8.824
502.98	8.285
503.33	8.127
503.67	8.033
504.02	8.333
504.36	8.915
504.71	8.537
505.06	8.151
505.40	8.402
505.75	8.545
506.09	8.482
506.44	8.216
506.78	7.872
507.13	7.900
507.47	8.218
507.82	8.163
508.16	8.549
508.51	8.161
508.85	8.087
509.19	8.254
509.54	8.257
509.88	8.495
510.23	8.842
510.57	8.422
510.92	8.621
511.26	8.526
511.61	7.794
511.95	7.663
512.30	7.940
512.64	8.854
512.98	8.864
513.33	7.493
513.67	8.291
514.02	8.153
514.36	7.753
514.70	8.199
515.05	7.782
515.39	8.137
515.74	7.815
516.08	7.965
516.42	7.661
516.77	6.678
517.11	7.290
517.46	8.043
517.80	8.838
518.14	7.226
518.49	7.957
518.83	7.876
519.17	7.410
519.52	7.660
519.86	8.500
520.20	6.792
520.55	7.338
520.89	7.653
521.23	8.846
521.58	7.459
521.92	7.228
522.26	7.092
522.61	7.628
522.95	7.513
523.29	8.889
523.64	8.010
523.98	7.497
524.32	7.309
524.66	7.597
525.01	6.750
525.35	8.032
525.69	8.284
526.04	7.362
526.38	8.158
526.72	7.429
527.06	7.995
527.41	7.280
527.75	7.543
528.09	7.420
528.43	6.988
528.78	8.140
529.12	7.697
529.46	7.486
529.80	7.896
530.15	7.400
530.49	7.345
530.83	7.921
531.17	6.849
531.51	7.148
531.86	7.114
532.20	6.961
532.54	6.207
532.88	7.760
533.22	7.273
533.57	7.815
533.91	8.258
534.25	7.682
534.59	7.079
534.93	7.334
535.27	7.325
535.62	7.105
535.96	8.263
536.30	7.646
536.64	6.699
536.98	6.727
537.32	7.544
537.66	7.616
538.01	7.906
538.35	7.390
538.69	7.023
539.03	7.584
539.37	7.042
539.71	6.617
540.05	7.490
540.39	7.295
540.73	6.844
541.07	7.007
541.42	8.148
541.76	7.713
542.10	7.651
542.44	7.415
542.78	6.870
543.12	7.951
543.46	6.358
543.80	7.468
544.14	7.433
544.48	6.636
544.82	7.868
545.16	6.829
545.50	7.562
545.84	7.433
546.18	6.452
546.52	7.269
546.86	6.431
547.20	6.147
547.54	6.362
547.88	6.950
548.22	7.622
548.56	6.738
548.90	6.969
549.24	7.986
549.58	7.473
549.92	7.263
550.26	7.454
550.60	4.880
550.94	6.119
551.28	6.737
551.62	6.992
551.96	7.613
552.30	5.313
552.64	5.932
552.98	7.741
553.32	7.642
553.66	6.383
554.00	6.335
554.34	6.300
554.68	5.966
555.02	5.988
555.36	5.976
555.69	6.919
556.03	6.719
556.37	6.188
556.71	7.288
557.05	5.387
557.39	5.501
557.73	6.959
558.07	5.803
558.41	6.435
558.75	7.313
559.08	5.694
559.42	6.924
559.76	6.957
560.10	6.457
560.44	7.222
560.78	5.683
561.12	7.008
561.45	7.007
561.79	6.534
562.13	6.610
562.47	7.000
562.81	6.061
563.15	6.303
563.48	6.194
563.82	5.814
564.16	7.921
564.50	6.649
564.84	7.027
565.17	6.954
565.51	5.882
565.85	6.129
566.19	6.093
566.52	5.963
566.86	6.195
567.20	5.925
567.54	6.390
567.88	6.551
568.21	6.464
568.55	7.094
568.89	5.882
569.23	6.737
569.56	7.259
569.90	6.863
570.24	6.282
570.57	7.574
570.91	7.157
571.25	6.529
571.59	6.945
571.92	7.304
572.26	7.158
572.60	6.806
572.93	7.029
573.27	6.954
573.61	7.342
573.95	7.033
574.28	7.244
574.62	7.356
574.96	7.431
575.29	6.846
575.63	6.665
575.97	6.630
576.30	6.663
576.64	7.231
576.98	7.013
577.31	7.337
577.65	6.848
577.98	6.745
578.32	6.988
578.66	7.157
578.99	7.019
579.33	7.196
579.67	6.976
580.00	7.056
580.34	6.907
580.67	7.398
581.01	6.856
581.35	7.201
581.68	7.004
582.02	7.189
582.35	7.166
582.69	7.498
583.02	7.319
583.36	7.256
583.70	7.442
584.03	7.253
584.37	7.295
584.70	7.111
585.04	7.023
585.37	7.145
585.71	6.946
586.04	7.093
586.38	6.814
586.72	7.081
587.05	7.727
587.39	7.059
587.72	6.915
588.06	7.250
588.39	7.613
588.73	7.220
589.06	7.242
589.40	7.190
589.73	6.648
590.07	6.927
590.40	7.232
590.73	7.415
591.07	7.355
591.40	6.870
591.74	6.981
592.07	6.664
592.41	6.821
592.74	7.137
593.08	6.906
593.41	7.258
593.75	6.815
594.08	7.012
594.41	7.057
594.75	7.159
595.08	7.356
595.42	6.979
595.75	7.448
596.09	7.121
596.42	6.495
596.75	6.670
597.09	7.097
597.42	7.851
597.75	6.533
598.09	6.557
598.42	7.338
598.76	7.515
599.09	6.763
599.42	7.100
599.76	7.097
600.09	7.267
600.42	6.893
600.76	7.132
601.09	7.006
601.42	7.056
601.76	7.413
602.09	7.540
602.42	7.429
602.76	6.711
603.09	6.858
603.42	7.037
603.76	6.781
604.09	7.115
604.42	6.195
604.76	6.766
605.09	7.204
605.42	7.108
605.75	6.724
606.09	6.912
606.42	6.899
606.75	6.623
607.09	6.472
607.42	6.830
607.75	6.258
608.08	7.304
608.42	6.842
608.75	7.023
609.08	7.202
609.41	6.607
609.75	6.757
610.08	6.262
610.41	7.289
610.74	7.363
611.07	7.014
611.41	7.267
611.74	7.298
612.07	6.879
612.40	6.919
612.73	6.751
613.07	6.319
613.40	6.718
613.73	7.205
614.06	6.689
614.39	6.559
614.72	8.384
615.06	6.333
615.39	7.064
615.72	6.587
616.05	6.475
616.38	7.216
616.71	5.819
617.05	6.572
617.38	6.839
617.71	6.618
618.04	6.642
618.37	6.057
618.70	6.856
619.03	6.598
619.36	6.121
619.69	6.652
620.03	6.572
620.36	6.054
620.69	5.853
621.02	5.769
621.35	5.887
621.68	4.890
622.01	6.311
622.34	5.948
622.67	6.030
623.00	6.991
623.33	6.358
623.66	5.204
623.99	7.127
624.32	6.750
624.65	7.122
624.99	6.686
625.32	6.647
625.65	5.426
625.98	6.082
626.31	7.020
626.64	5.331
626.97	6.401
627.30	5.475
627.63	6.315
627.96	5.281
628.29	6.791
628.62	5.899
628.95	5.912
629.28	5.813
629.61	6.411
629.94	5.319
630.26	6.601
630.59	5.994
630.92	5.823
631.25	5.149
631.58	6.959
631.91	4.348
632.24	4.610
632.57	4.444
632.90	5.484
633.23	4.077
633.56	5.516
633.89	5.742
634.22	8.363
634.55	5.238
634.88	5.637
635.20	6.625
635.53	4.134
635.86	4.103
636.19	5.087
636.52	3.902
636.85	4.222
637.18	3.898
637.51	4.994
637.83	6.005
638.16	5.200
638.49	4.005
638.82	4.967
639.15	4.920
639.48	6.283
639.81	6.389
640.13	6.479
640.46	5.791
640.79	4.604
641.12	4.438
641.45	4.512
641.77	4.566
642.10	6.657
642.43	6.761
642.76	5.047
643.09	5.431
643.41	5.104
643.74	4.847
644.07	4.369
644.40	5.970
644.73	3.729
645.05	4.188
645.38	4.485
645.71	4.252
646.04	2.357
646.36	4.688
646.69	5.070
647.02	4.372
647.35	5.119
647.67	4.991
648.00	3.804
648.33	4.746
648.66	4.341
648.98	5.124
649.31	2.914
649.64	3.599
649.96	6.477
650.29	2.941
650.62	4.778
650.94	4.483
651.27	4.240
651.60	3.671
651.92	4.301
652.25	4.858
652.58	4.950
652.90	3.199
653.23	1.188
653.56	2.645
653.88	3.413
