SpectraSuite Data File
++++++++++++++++++++++++++++++++++++
Date: Wed May 13 21:30:56 PDT 2015
User: schluterlab
Dark Spectrum Present: Yes
Reference Spectrum Present: Yes
Number of Sampled Component Spectra: 1
Spectrometers: USB2E3373
Integration Time (usec): 3000 (USB2E3373)
Spectra Averaged: 3 (USB2E3373)
Boxcar Smoothing: 0 (USB2E3373)
Correct for Electrical Dark: No (USB2E3373)
Strobe/Lamp Enabled: No (USB2E3373)
Correct for Detector Non-linearity: No (USB2E3373)
Correct for Stray Light: No (USB2E3373)
Number of Pixels in Processed Spectrum: 2048
>>>>>Begin Processed Spectral Data<<<<<
178.53	0.000
178.91	400.000
179.29	200.000
179.67	-1100.000
180.04	-500.000
180.42	240.000
180.80	2000.000
181.18	266.667
181.56	-300.000
181.94	-150.000
182.31	-54.545
182.69	161.538
183.07	-220.000
183.45	183.333
183.83	177.778
184.20	185.714
184.58	-266.667
184.96	366.667
185.34	285.714
185.72	0.000
186.09	-1600.000
186.47	-200.000
186.85	20.000
187.23	-300.000
187.61	450.000
187.98	1000.000
188.36	-125.000
188.74	0.000
189.12	-72.727
189.49	10.000
189.87	108.333
190.25	400.000
190.63	1000.000
191.00	-240.000
191.38	360.000
191.76	350.000
192.14	125.000
192.51	-5.263
192.89	533.333
193.27	175.000
193.65	-200.000
194.02	190.909
194.40	240.000
194.78	-700.000
195.15	140.000
195.53	-200.000
195.91	-50.000
196.29	100.000
196.66	0.000
197.04	450.000
197.42	-180.000
197.79	30.000
198.17	-187.500
198.55	-400.000
198.92	325.000
199.30	-433.333
199.68	10.000
200.05	800.000
200.43	216.667
200.81	-1000.000
201.18	-240.000
201.56	-133.333
201.94	525.000
202.31	39.130
202.69	-42.857
203.07	-466.667
203.44	-180.000
203.82	-233.333
204.19	-30.000
204.57	0.000
204.95	-250.000
205.32	0.000
205.70	-50.000
206.08	-350.000
206.45	-183.333
206.83	350.000
207.20	-433.333
207.58	0.000
207.96	-1500.000
208.33	-314.286
208.71	-2200.000
209.08	337.500
209.46	375.000
209.84	0.000
210.21	180.000
210.59	1800.000
210.96	340.000
211.34	1100.000
211.71	-800.000
212.09	-283.333
212.46	-180.000
212.84	66.667
213.22	-125.000
213.59	-1000.000
213.97	-550.000
214.34	-700.000
214.72	-38.462
215.09	150.000
215.47	166.667
215.84	550.000
216.22	-212.500
216.59	-450.000
216.97	666.667
217.34	77.778
217.72	0.000
218.09	333.333
218.47	200.000
218.84	57.143
219.22	-50.000
219.59	-300.000
219.97	-325.000
220.34	-37.500
220.72	-200.000
221.09	0.000
221.47	-266.667
221.84	-400.000
222.22	0.000
222.59	300.000
222.97	-300.000
223.34	-33.333
223.72	-1100.000
224.09	-300.000
224.46	-145.455
224.84	-75.000
225.21	-257.143
225.59	-375.000
225.96	-166.667
226.34	-130.000
226.71	-85.714
227.08	650.000
227.46	-25.000
227.83	-700.000
228.21	-62.500
228.58	-50.000
228.95	-70.588
229.33	6.250
229.70	-150.000
230.08	38.462
230.45	-62.500
230.82	-75.000
231.20	214.286
231.57	-175.000
231.95	1300.000
232.32	0.000
232.69	-82.353
233.07	-1900.000
233.44	-13.043
233.81	-650.000
234.19	-8.333
234.56	-26.667
234.93	-73.333
235.31	-10.526
235.68	-69.231
236.05	-30.769
236.43	-27.778
236.80	9.091
237.17	-80.000
237.55	-35.294
237.92	-34.483
238.29	-14.815
238.67	8.333
239.04	-41.935
239.41	-25.532
239.79	10.638
240.16	4.651
240.53	17.857
240.91	-3.571
241.28	-8.929
241.65	6.452
242.02	3.947
242.40	7.246
242.77	-4.348
243.14	7.692
243.51	6.383
243.89	8.654
244.26	24.528
244.63	11.538
245.00	9.375
245.38	18.487
245.75	9.016
246.12	15.789
246.49	14.634
246.87	10.924
247.24	25.000
247.61	16.556
247.98	16.026
248.36	14.201
248.73	24.157
249.10	15.152
249.47	12.903
249.84	17.895
250.22	15.920
250.59	23.364
250.96	13.636
251.33	11.962
251.70	25.523
252.08	16.736
252.45	20.165
252.82	19.772
253.19	13.230
253.56	20.504
253.94	20.285
254.31	17.606
254.68	23.490
255.05	18.812
255.42	17.832
255.79	15.951
256.16	20.189
256.54	19.683
256.91	17.405
257.28	16.352
257.65	14.650
258.02	18.182
258.39	18.421
258.76	19.767
259.14	17.045
259.51	16.011
259.88	17.344
260.25	18.056
260.62	17.697
260.99	22.812
261.36	19.948
261.73	16.296
262.10	17.048
262.47	17.778
262.85	19.403
263.22	19.487
263.59	17.922
263.96	17.762
264.33	17.308
264.70	19.535
265.07	19.676
265.44	19.080
265.81	17.162
266.18	18.907
266.55	16.376
266.92	19.068
267.29	19.959
267.66	19.958
268.03	18.930
268.40	18.856
268.77	17.149
269.14	20.612
269.51	24.435
269.88	18.330
270.25	19.280
270.62	18.852
270.99	19.094
271.36	18.452
271.73	18.474
272.10	18.667
272.47	18.042
272.84	17.717
273.21	20.157
273.58	17.008
273.95	18.113
274.32	18.843
274.69	20.583
275.06	20.141
275.43	18.079
275.80	18.440
276.17	18.969
276.54	19.538
276.91	17.247
277.28	19.134
277.65	18.357
278.02	18.929
278.39	17.762
278.76	19.900
279.13	18.353
279.50	18.793
279.87	18.841
280.23	18.198
280.60	19.031
280.97	18.182
281.34	19.874
281.71	16.911
282.08	17.265
282.45	17.541
282.82	18.371
283.19	20.122
283.56	17.500
283.92	17.890
284.29	17.941
284.66	19.769
285.03	16.612
285.40	17.674
285.77	18.619
286.14	18.085
286.51	19.190
286.87	17.231
287.24	17.699
287.61	18.373
287.98	17.794
288.35	18.033
288.72	18.364
289.08	19.088
289.45	15.859
289.82	18.154
290.19	17.532
290.56	17.187
290.93	15.746
291.29	17.100
291.66	18.033
292.03	17.711
292.40	17.631
292.77	15.663
293.13	17.992
293.50	16.993
293.87	16.800
294.24	16.667
294.60	16.125
294.97	15.608
295.34	15.172
295.71	13.666
296.08	13.482
296.44	14.158
296.81	15.104
297.18	16.375
297.55	15.802
297.91	16.273
298.28	17.070
298.65	13.793
299.02	18.315
299.38	15.706
299.75	14.423
300.12	14.302
300.48	14.035
300.85	15.127
301.22	14.983
301.59	14.202
301.95	14.866
302.32	14.819
302.69	13.785
303.05	13.953
303.42	15.455
303.79	15.457
304.15	14.896
304.52	15.914
304.89	14.396
305.25	13.941
305.62	14.534
305.99	13.928
306.35	15.778
306.72	15.972
307.09	14.390
307.45	14.164
307.82	14.737
308.19	14.838
308.55	13.818
308.92	14.637
309.29	14.114
309.65	14.885
310.02	14.314
310.38	14.329
310.75	14.300
311.12	14.966
311.48	14.342
311.85	14.272
312.22	15.571
312.58	15.459
312.95	15.821
313.31	15.335
313.68	16.126
314.05	16.541
314.41	16.234
314.78	16.224
315.14	16.111
315.51	16.270
315.87	16.589
316.24	16.621
316.61	16.986
316.97	17.963
317.34	16.221
317.70	17.752
318.07	18.101
318.43	16.893
318.80	16.579
319.16	18.479
319.53	19.176
319.89	19.332
320.26	19.501
320.62	19.926
320.99	18.992
321.35	18.616
321.72	20.885
322.08	20.387
322.45	20.907
322.81	21.627
323.18	21.646
323.54	21.570
323.91	22.493
324.27	22.682
324.64	21.167
325.00	23.097
325.37	23.976
325.73	24.495
326.10	24.390
326.46	24.080
326.83	25.324
327.19	26.341
327.56	25.544
327.92	25.825
328.29	26.795
328.65	26.643
329.01	26.209
329.38	27.826
329.74	27.382
330.11	26.871
330.47	27.865
330.84	26.534
331.20	28.608
331.56	28.261
331.93	29.285
332.29	29.887
332.66	27.119
333.02	29.018
333.38	27.982
333.75	28.925
334.11	29.687
334.48	30.253
334.84	28.092
335.20	29.760
335.57	29.504
335.93	28.952
336.29	28.809
336.66	29.231
337.02	29.043
337.38	28.198
337.75	29.199
338.11	29.889
338.47	29.110
338.84	29.983
339.20	30.159
339.56	29.522
339.93	30.164
340.29	29.377
340.65	30.111
341.02	30.116
341.38	30.743
341.74	29.160
342.11	29.397
342.47	30.628
342.83	29.902
343.20	30.711
343.56	30.581
343.92	29.894
344.28	31.981
344.65	30.939
345.01	31.235
345.37	31.990
345.73	32.516
346.10	32.183
346.46	31.545
346.82	32.022
347.19	31.408
347.55	31.018
347.91	31.645
348.27	31.861
348.63	31.250
349.00	31.840
349.36	32.182
349.72	32.637
350.08	31.825
350.45	32.576
350.81	32.473
351.17	33.102
351.53	31.658
351.89	31.533
352.26	31.737
352.62	31.628
352.98	32.029
353.34	32.850
353.70	32.009
354.07	32.706
354.43	32.737
354.79	35.096
355.15	32.997
355.51	33.181
355.87	33.855
356.24	34.270
356.60	33.307
356.96	32.924
357.32	33.359
357.68	34.683
358.04	35.376
358.40	33.721
358.77	35.398
359.13	34.786
359.49	34.746
359.85	34.951
360.21	33.770
360.57	35.057
360.93	35.129
361.29	35.529
361.66	34.472
362.02	34.692
362.38	35.229
362.74	35.678
363.10	36.876
363.46	35.951
363.82	35.994
364.18	35.315
364.54	36.397
364.90	35.401
365.26	36.093
365.62	37.500
365.98	37.367
366.35	37.021
366.71	36.947
367.07	37.491
367.43	37.422
367.79	37.248
368.15	37.412
368.51	36.146
368.87	37.544
369.23	38.363
369.59	38.125
369.95	37.591
370.31	36.960
370.67	38.812
371.03	38.679
371.39	38.254
371.75	39.000
372.11	38.533
372.47	38.933
372.83	39.459
373.19	38.561
373.55	39.162
373.91	40.736
374.27	39.004
374.63	39.616
374.99	39.206
375.35	39.521
375.71	38.859
376.07	39.753
376.42	39.305
376.78	41.480
377.14	41.763
377.50	41.525
377.86	41.102
378.22	41.277
378.58	41.866
378.94	42.188
379.30	41.099
379.66	41.307
380.02	42.708
380.38	42.169
380.74	42.200
381.09	41.255
381.45	40.931
381.81	42.144
382.17	42.155
382.53	43.015
382.89	41.375
383.25	43.148
383.61	42.676
383.97	42.812
384.32	41.021
384.68	42.998
385.04	42.883
385.40	43.337
385.76	42.944
386.12	43.964
386.48	43.135
386.83	42.804
387.19	44.109
387.55	43.716
387.91	44.957
388.27	42.602
388.62	45.006
388.98	44.493
389.34	43.985
389.70	43.468
390.06	44.375
390.42	44.652
390.77	44.138
391.13	44.003
391.49	43.960
391.85	43.962
392.20	44.173
392.56	44.190
392.92	44.470
393.28	43.521
393.64	45.872
393.99	42.840
394.35	44.815
394.71	45.256
395.07	42.704
395.42	44.546
395.78	44.595
396.14	45.276
396.50	45.656
396.85	44.423
397.21	44.819
397.57	44.286
397.92	43.772
398.28	45.065
398.64	44.505
399.00	43.917
399.35	45.346
399.71	43.972
400.07	44.458
400.42	44.828
400.78	44.048
401.14	44.574
401.49	45.177
401.85	45.332
402.21	46.502
402.57	44.635
402.92	44.493
403.28	44.278
403.63	45.629
403.99	45.234
404.35	44.701
404.70	44.290
405.06	45.097
405.42	44.786
405.77	44.124
406.13	43.257
406.49	43.200
406.84	43.895
407.20	44.168
407.55	44.156
407.91	43.812
408.27	43.731
408.62	44.936
408.98	44.205
409.34	43.379
409.69	44.899
410.05	43.595
410.40	43.396
410.76	43.742
411.11	43.843
411.47	44.857
411.83	43.793
412.18	43.010
412.54	43.296
412.89	42.759
413.25	42.183
413.60	43.824
413.96	42.884
414.31	43.095
414.67	42.794
415.03	43.369
415.38	42.668
415.74	42.235
416.09	43.424
416.45	43.609
416.80	44.027
417.16	42.982
417.51	42.733
417.87	42.659
418.22	42.663
418.58	42.510
418.93	43.252
419.29	43.366
419.64	43.130
420.00	42.794
420.35	41.363
420.71	42.230
421.06	42.066
421.42	43.248
421.77	43.353
422.12	42.350
422.48	42.094
422.83	42.469
423.19	42.151
423.54	43.640
423.90	42.815
424.25	43.905
424.61	42.884
424.96	43.525
425.31	42.737
425.67	43.034
426.02	43.227
426.38	44.030
426.73	41.784
427.09	42.464
427.44	42.102
427.79	42.933
428.15	42.446
428.50	42.538
428.85	43.727
429.21	41.306
429.56	43.252
429.92	42.634
430.27	43.047
430.62	42.865
430.98	42.464
431.33	42.182
431.68	42.492
432.04	42.254
432.39	41.859
432.74	41.386
433.10	42.069
433.45	41.124
433.80	41.437
434.16	41.890
434.51	41.467
434.86	42.580
435.22	42.049
435.57	41.953
435.92	41.978
436.28	40.180
436.63	41.051
436.98	42.009
437.34	42.430
437.69	40.673
438.04	41.030
438.39	42.590
438.75	41.120
439.10	43.262
439.45	41.404
439.81	42.734
440.16	42.145
440.51	41.795
440.86	42.442
441.22	41.652
441.57	42.245
441.92	41.576
442.27	41.017
442.63	41.604
442.98	42.419
443.33	41.648
443.68	41.328
444.03	41.381
444.39	42.489
444.74	41.303
445.09	41.520
445.44	41.859
445.79	41.404
446.15	42.374
446.50	42.566
446.85	41.903
447.20	41.767
447.55	41.018
447.91	40.449
448.26	41.967
448.61	40.794
448.96	40.604
449.31	41.862
449.66	41.874
450.02	40.875
450.37	40.423
450.72	42.308
451.07	41.693
451.42	40.237
451.77	41.753
452.12	40.642
452.47	42.608
452.83	40.684
453.18	41.184
453.53	41.425
453.88	40.663
454.23	41.471
454.58	40.135
454.93	40.539
455.28	40.462
455.63	40.050
455.98	40.901
456.34	39.415
456.69	40.511
457.04	40.000
457.39	41.070
457.74	40.814
458.09	40.284
458.44	41.246
458.79	39.209
459.14	38.764
459.49	40.183
459.84	39.966
460.19	39.136
460.54	39.416
460.89	40.541
461.24	38.964
461.59	39.614
461.94	39.760
462.29	39.890
462.64	38.588
462.99	40.174
463.34	39.641
463.69	39.755
464.04	39.016
464.39	39.353
464.74	39.128
465.09	39.120
465.44	38.384
465.79	39.218
466.14	39.225
466.49	39.589
466.84	38.852
467.19	40.000
467.54	38.885
467.89	38.404
468.24	39.213
468.59	38.942
468.94	38.697
469.29	38.467
469.64	38.633
469.99	38.345
470.34	39.380
470.68	38.364
471.03	37.518
471.38	38.734
471.73	37.243
472.08	38.488
472.43	38.325
472.78	37.931
473.13	37.203
473.48	37.312
473.83	36.911
474.17	37.826
474.52	38.382
474.87	37.214
475.22	37.379
475.57	38.148
475.92	37.677
476.27	37.121
476.61	37.089
476.96	37.521
477.31	37.379
477.66	37.571
478.01	37.253
478.36	37.929
478.70	36.359
479.05	36.848
479.40	36.349
479.75	36.344
480.10	37.583
480.45	36.636
480.79	37.183
481.14	37.285
481.49	36.556
481.84	35.957
482.19	36.128
482.53	37.000
482.88	36.961
483.23	36.189
483.58	36.626
483.92	35.506
484.27	34.950
484.62	35.419
484.97	36.458
485.31	35.426
485.66	34.104
486.01	34.511
486.36	35.094
486.70	35.196
487.05	35.898
487.40	35.628
487.75	34.970
488.09	35.502
488.44	35.612
488.79	35.503
489.13	34.394
489.48	34.929
489.83	34.569
490.17	34.862
490.52	35.764
490.87	34.492
491.22	34.762
491.56	35.122
491.91	34.710
492.26	34.526
492.60	34.151
492.95	35.374
493.30	33.769
493.64	33.909
493.99	34.203
494.34	34.682
494.68	33.317
495.03	34.437
495.37	34.015
495.72	33.634
496.07	34.340
496.41	33.552
496.76	34.324
497.11	34.085
497.45	33.804
497.80	33.922
498.14	33.199
498.49	32.627
498.84	33.856
499.18	33.051
499.53	32.398
499.87	32.897
500.22	33.151
500.56	33.651
500.91	34.105
501.26	32.759
501.60	32.059
501.95	33.014
502.29	33.301
502.64	32.642
502.98	32.900
503.33	32.360
503.67	32.668
504.02	32.549
504.36	32.194
504.71	31.707
505.06	33.062
505.40	33.093
505.75	33.266
506.09	32.397
506.44	32.863
506.78	31.996
507.13	33.212
507.47	32.025
507.82	33.176
508.16	33.193
508.51	31.663
508.85	31.985
509.19	32.222
509.54	32.225
509.88	32.204
510.23	31.632
510.57	31.356
510.92	31.843
511.26	32.343
511.61	31.833
511.95	31.974
512.30	32.149
512.64	32.179
512.98	31.357
513.33	31.775
513.67	31.062
514.02	32.497
514.36	31.573
514.70	31.467
515.05	31.539
515.39	31.132
515.74	31.202
516.08	30.088
516.42	31.336
516.77	31.576
517.11	30.923
517.46	32.293
517.80	31.901
518.14	32.088
518.49	30.621
518.83	31.444
519.17	31.205
519.52	30.760
519.86	30.844
520.20	29.958
520.55	31.343
520.89	31.499
521.23	32.821
521.58	30.973
521.92	30.735
522.26	31.295
522.61	31.092
522.95	31.477
523.29	30.667
523.64	30.388
523.98	30.559
524.32	30.309
524.66	31.883
525.01	31.324
525.35	30.941
525.69	29.821
526.04	29.902
526.38	30.274
526.72	30.506
527.06	29.658
527.41	30.245
527.75	30.040
528.09	30.837
528.43	30.190
528.78	30.233
529.12	31.307
529.46	30.006
529.80	29.968
530.15	29.537
530.49	30.593
530.83	30.129
531.17	30.411
531.51	28.591
531.86	29.472
532.20	30.462
532.54	29.862
532.88	30.088
533.22	29.562
533.57	29.272
533.91	30.516
534.25	30.599
534.59	29.408
534.93	29.018
535.27	29.363
535.62	29.605
535.96	30.189
536.30	28.790
536.64	27.751
536.98	28.521
537.32	29.181
537.66	29.196
538.01	28.849
538.35	28.039
538.69	28.094
539.03	27.852
539.37	28.370
539.71	29.877
540.05	28.205
540.39	27.805
540.73	27.933
541.07	27.823
541.42	28.552
541.76	28.078
542.10	27.488
542.44	27.374
542.78	27.967
543.12	28.504
543.46	27.505
543.80	26.884
544.14	27.873
544.48	27.936
544.82	27.640
545.16	26.640
545.50	27.616
545.84	28.121
546.18	26.788
546.52	28.582
546.86	26.643
547.20	27.162
547.54	27.091
547.88	27.530
548.22	27.231
548.56	27.552
548.90	27.334
549.24	27.708
549.58	26.762
549.92	27.513
550.26	28.487
550.60	28.829
550.94	27.612
551.28	26.798
551.62	26.917
551.96	26.208
552.30	26.128
552.64	27.542
552.98	27.060
553.32	26.604
553.66	26.632
554.00	27.358
554.34	26.007
554.68	28.039
555.02	26.796
555.36	26.778
555.69	25.856
556.03	26.233
556.37	26.316
556.71	26.629
557.05	26.642
557.39	25.697
557.73	26.853
558.07	25.923
558.41	26.268
558.75	26.944
559.08	26.864
559.42	25.885
559.76	25.612
560.10	26.518
560.44	26.308
560.78	25.827
561.12	25.718
561.45	25.646
561.79	25.997
562.13	25.246
562.47	26.857
562.81	25.613
563.15	25.000
563.48	25.327
563.82	25.103
564.16	25.051
564.50	26.391
564.84	25.068
565.17	25.828
565.51	25.535
565.85	24.650
566.19	25.629
566.52	25.098
566.86	24.083
567.20	24.985
567.54	25.158
567.88	24.356
568.21	24.226
568.55	25.456
568.89	24.377
569.23	24.198
569.56	24.739
569.90	24.617
570.24	24.296
570.57	24.326
570.91	23.968
571.25	24.172
571.59	23.812
571.92	24.553
572.26	24.354
572.60	24.361
572.93	24.305
573.27	23.930
573.61	24.446
573.95	24.008
574.28	24.517
574.62	23.846
574.96	24.040
575.29	23.771
575.63	23.999
575.97	24.266
576.30	23.899
576.64	24.076
576.98	24.092
577.31	23.638
577.65	23.238
577.98	23.464
578.32	23.294
578.66	24.165
578.99	23.826
579.33	23.838
579.67	23.778
580.00	23.702
580.34	23.340
580.67	24.253
581.01	23.741
581.35	23.294
581.68	23.472
582.02	23.694
582.35	23.649
582.69	23.826
583.02	23.223
583.36	23.510
583.70	24.224
584.03	24.427
584.37	23.388
584.70	23.435
585.04	23.463
585.37	23.038
585.71	23.227
586.04	23.459
586.38	23.152
586.72	23.546
587.05	23.181
587.39	23.378
587.72	23.112
588.06	23.447
588.39	23.342
588.73	22.804
589.06	22.923
589.40	23.082
589.73	22.494
590.07	23.988
590.40	23.211
590.73	23.825
591.07	23.694
591.40	22.913
591.74	22.766
592.07	23.231
592.41	23.123
592.74	23.032
593.08	23.248
593.41	23.025
593.75	22.578
594.08	22.556
594.41	22.669
594.75	23.013
595.08	23.600
595.42	22.513
595.75	22.632
596.09	22.748
596.42	22.467
596.75	22.729
597.09	23.794
597.42	22.925
597.75	22.933
598.09	22.678
598.42	22.550
598.76	22.082
599.09	23.329
599.42	23.187
599.76	22.569
600.09	22.101
600.42	22.637
600.76	22.062
601.09	23.089
601.42	22.932
601.76	22.432
602.09	22.902
602.42	22.286
602.76	22.945
603.09	22.834
603.42	22.751
603.76	23.032
604.09	22.530
604.42	22.478
604.76	22.479
605.09	22.021
605.42	23.572
605.75	22.227
606.09	21.896
606.42	22.319
606.75	22.035
607.09	21.941
607.42	23.336
607.75	21.313
608.08	21.686
608.42	22.259
608.75	22.121
609.08	22.195
609.41	22.404
609.75	21.785
610.08	21.746
610.41	22.303
610.74	23.099
611.07	21.944
611.41	22.927
611.74	22.257
612.07	21.939
612.40	22.270
612.73	21.350
613.07	21.951
613.40	22.577
613.73	22.102
614.06	21.725
614.39	22.123
614.72	23.209
615.06	22.722
615.39	21.082
615.72	21.436
616.05	22.128
616.38	22.795
616.71	21.536
617.05	22.420
617.38	20.949
617.71	20.772
618.04	21.877
618.37	22.145
618.70	21.151
619.03	21.443
619.36	22.633
619.69	22.003
620.03	21.413
620.36	21.364
620.69	21.199
621.02	22.077
621.35	21.014
621.68	22.412
622.01	21.926
622.34	21.094
622.67	21.770
623.00	22.036
623.33	21.541
623.66	21.487
623.99	22.656
624.32	21.056
624.65	21.142
624.99	20.279
625.32	21.807
625.65	21.473
625.98	22.354
626.31	21.551
626.64	21.324
626.97	21.972
627.30	21.215
627.63	20.415
627.96	20.866
628.29	22.233
628.62	22.921
628.95	21.242
629.28	20.985
629.61	22.201
629.94	21.663
630.26	21.478
630.59	20.579
630.92	21.486
631.25	20.082
631.58	23.340
631.91	19.830
632.24	21.405
632.57	20.556
