SpectraSuite Data File
++++++++++++++++++++++++++++++++++++
Date: Wed May 13 21:33:51 PDT 2015
User: schluterlab
Dark Spectrum Present: Yes
Reference Spectrum Present: Yes
Number of Sampled Component Spectra: 1
Spectrometers: USB2E3373
Integration Time (usec): 3000 (USB2E3373)
Spectra Averaged: 3 (USB2E3373)
Boxcar Smoothing: 0 (USB2E3373)
Correct for Electrical Dark: No (USB2E3373)
Strobe/Lamp Enabled: No (USB2E3373)
Correct for Detector Non-linearity: No (USB2E3373)
Correct for Stray Light: No (USB2E3373)
Number of Pixels in Processed Spectrum: 2048
>>>>>Begin Processed Spectral Data<<<<<
178.53	0.000
178.91	-0.000
179.29	200.000
179.67	-800.000
180.04	-366.667
180.42	280.000
180.80	1800.000
181.18	333.333
181.56	-400.000
181.94	-300.000
182.31	27.273
182.69	153.846
183.07	-220.000
183.45	366.667
183.83	377.778
184.20	214.286
184.58	-166.667
184.96	200.000
185.34	314.286
185.72	0.000
186.09	-400.000
186.47	-220.000
186.85	120.000
187.23	-150.000
187.61	850.000
187.98	2200.000
188.36	-187.500
188.74	0.000
189.12	-136.364
189.49	60.000
189.87	91.667
190.25	460.000
190.63	1000.000
191.00	-280.000
191.38	400.000
191.76	500.000
192.14	116.667
192.51	26.316
192.89	533.333
193.27	125.000
193.65	-140.000
194.02	245.455
194.40	160.000
194.78	-1100.000
195.15	300.000
195.53	-360.000
195.91	-87.500
196.29	-333.333
196.66	0.000
197.04	300.000
197.42	-40.000
197.79	-40.000
198.17	-112.500
198.55	-366.667
198.92	350.000
199.30	-600.000
199.68	-90.000
200.05	850.000
200.43	133.333
200.81	-2000.000
201.18	-200.000
201.56	-183.333
201.94	875.000
202.31	-21.739
202.69	-200.000
203.07	-400.000
203.44	-220.000
203.82	-366.667
204.19	-60.000
204.57	0.000
204.95	50.000
205.32	0.000
205.70	-750.000
206.08	-350.000
206.45	-250.000
206.83	450.000
207.20	-500.000
207.58	-80.000
207.96	-1400.000
208.33	-185.714
208.71	-1600.000
209.08	300.000
209.46	375.000
209.84	0.000
210.21	130.000
210.59	2000.000
210.96	120.000
211.34	1000.000
211.71	-900.000
212.09	-250.000
212.46	-190.000
212.84	-133.333
213.22	-100.000
213.59	-1100.000
213.97	-950.000
214.34	-200.000
214.72	-46.154
215.09	200.000
215.47	222.222
215.84	750.000
216.22	-75.000
216.59	-200.000
216.97	866.667
217.34	55.556
217.72	0.000
218.09	433.333
218.47	-200.000
218.84	-171.429
219.22	-137.500
219.59	-566.667
219.97	-300.000
220.34	-162.500
220.72	-280.000
221.09	0.000
221.47	-216.667
221.84	-200.000
222.22	0.000
222.59	1200.000
222.97	-533.333
223.34	-83.333
223.72	-700.000
224.09	-600.000
224.46	-72.727
224.84	-62.500
225.21	-100.000
225.59	-400.000
225.96	-200.000
226.34	-30.000
226.71	-100.000
227.08	1000.000
227.46	-125.000
227.83	-900.000
228.21	-37.500
228.58	-325.000
228.95	-70.588
229.33	-62.500
229.70	-112.500
230.08	-53.846
230.45	-137.500
230.82	-66.667
231.20	314.286
231.57	-450.000
231.95	400.000
232.32	75.000
232.69	11.765
233.07	-1500.000
233.44	-26.087
233.81	-1100.000
234.19	4.167
234.56	-53.333
234.93	-86.667
235.31	5.263
235.68	-69.231
236.05	-84.615
236.43	-44.444
236.80	-6.061
237.17	-113.333
237.55	-64.706
237.92	0.000
238.29	-33.333
238.67	-13.889
239.04	-16.129
239.41	-19.149
239.79	17.021
240.16	-11.628
240.53	-25.000
240.91	-3.571
241.28	5.357
241.65	19.355
242.02	6.579
242.40	5.797
242.77	-1.449
243.14	23.077
243.51	11.702
243.89	10.577
244.26	24.528
244.63	-1.923
245.00	12.500
245.38	8.403
245.75	16.393
246.12	11.278
246.49	14.634
246.87	1.681
247.24	14.865
247.61	13.907
247.98	14.103
248.36	14.201
248.73	18.539
249.10	18.182
249.47	12.366
249.84	21.579
250.22	17.413
250.59	17.290
250.96	21.364
251.33	11.005
251.70	19.665
252.08	19.665
252.45	18.930
252.82	18.251
253.19	19.066
253.56	17.626
253.94	17.794
254.31	17.606
254.68	20.805
255.05	19.142
255.42	14.685
255.79	19.632
256.16	17.350
256.54	16.190
256.91	18.987
257.28	19.497
257.65	20.064
258.02	18.182
258.39	18.421
258.76	17.442
259.14	17.898
259.51	18.539
259.88	21.409
260.25	19.444
260.62	18.258
260.99	21.485
261.36	22.280
261.73	20.000
262.10	19.338
262.47	16.790
262.85	18.657
263.22	20.000
263.59	18.701
263.96	20.438
264.33	17.067
264.70	21.395
265.07	22.685
265.44	20.460
265.81	21.510
266.18	19.134
266.55	20.087
266.92	20.763
267.29	20.370
267.66	22.081
268.03	20.165
268.40	18.432
268.77	22.727
269.14	19.796
269.51	24.025
269.88	18.534
270.25	18.220
270.62	20.697
270.99	21.260
271.36	20.238
271.73	21.285
272.10	20.381
272.47	19.194
272.84	22.244
273.21	18.004
273.58	20.902
273.95	19.623
274.32	22.201
274.69	18.397
275.06	22.615
275.43	21.469
275.80	19.858
276.17	19.890
276.54	17.940
276.91	19.512
277.28	19.495
277.65	20.455
278.02	20.714
278.39	22.202
278.76	20.401
279.13	20.412
279.50	18.276
279.87	20.109
280.23	20.541
280.60	18.512
280.97	20.942
281.34	21.293
281.71	18.374
282.08	18.974
282.45	20.000
282.82	20.128
283.19	19.055
283.56	19.375
283.92	20.336
284.29	19.033
284.66	18.946
285.03	18.730
285.40	20.242
285.77	20.871
286.14	20.213
286.51	21.739
286.87	18.308
287.24	18.732
287.61	20.181
287.98	19.853
288.35	16.990
288.72	20.516
289.08	19.658
289.45	20.264
289.82	19.667
290.19	18.794
290.56	20.455
290.93	18.094
291.29	18.194
291.66	17.213
292.03	20.300
292.40	16.151
292.77	18.340
293.13	18.131
293.50	19.216
293.87	19.600
294.24	17.460
294.60	17.815
294.97	18.386
295.34	18.734
295.71	16.163
296.08	16.230
296.44	16.837
296.81	16.565
297.18	17.000
297.55	16.274
297.91	17.516
298.28	18.281
298.65	15.764
299.02	18.193
299.38	14.601
299.75	17.788
300.12	15.233
300.48	15.556
300.85	15.589
301.22	16.841
301.59	15.845
301.95	15.912
302.32	15.286
302.69	15.141
303.05	15.836
303.42	15.909
303.79	16.299
304.15	15.005
304.52	16.989
304.89	15.615
305.25	15.258
305.62	15.835
305.99	16.213
306.35	17.137
306.72	16.175
307.09	16.580
307.45	16.613
307.82	15.474
308.19	15.883
308.55	14.944
308.92	17.191
309.29	16.116
309.65	16.783
310.02	16.402
310.38	16.870
310.75	16.765
311.12	16.812
311.48	16.716
311.85	16.831
312.22	16.538
312.58	16.618
312.95	16.816
313.31	16.804
313.68	17.176
314.05	17.202
314.41	19.020
314.78	19.165
315.14	18.889
315.51	19.696
315.87	19.370
316.24	18.825
316.61	19.635
316.97	20.463
317.34	19.519
317.70	21.499
318.07	21.207
318.43	21.319
318.80	22.862
319.16	22.281
319.53	22.222
319.89	22.222
320.26	22.736
320.62	22.892
320.99	22.578
321.35	24.602
321.72	25.217
322.08	25.000
322.45	25.994
322.81	25.786
323.18	25.045
323.54	27.347
323.91	27.462
324.27	27.903
324.64	27.526
325.00	29.659
325.37	31.399
325.73	30.051
326.10	31.539
326.46	32.023
326.83	31.634
327.19	32.520
327.56	34.488
327.92	34.272
328.29	34.558
328.65	35.933
329.01	34.741
329.38	38.609
329.74	37.339
330.11	37.060
330.47	37.760
330.84	37.816
331.20	37.148
331.56	39.312
331.93	38.846
332.29	39.705
332.66	40.085
333.02	40.139
333.38	40.614
333.75	39.164
334.11	40.712
334.48	40.541
334.84	41.519
335.20	39.623
335.57	39.774
335.93	40.550
336.29	40.630
336.66	40.769
337.02	42.435
337.38	41.688
337.75	41.947
338.11	42.101
338.47	42.979
338.84	42.354
339.20	42.769
339.56	42.577
339.93	41.746
340.29	42.869
340.65	42.601
341.02	43.344
341.38	44.172
341.74	41.513
342.11	42.940
342.47	44.686
342.83	43.301
343.20	43.486
343.56	43.581
343.92	43.217
344.28	42.857
344.65	42.857
345.01	43.987
345.37	45.395
345.73	45.180
346.10	42.376
346.46	44.390
346.82	43.820
347.19	44.225
347.55	45.638
347.91	43.648
348.27	44.401
348.63	42.628
349.00	45.755
349.36	45.683
349.72	45.785
350.08	45.398
350.45	45.184
350.81	47.027
351.17	45.035
351.53	45.876
351.89	45.830
352.26	45.869
352.62	46.434
352.98	46.486
353.34	46.618
353.70	47.274
354.07	45.412
354.43	47.823
354.79	47.917
355.15	46.661
355.51	46.849
355.87	46.990
356.24	46.870
356.60	46.833
356.96	46.431
357.32	48.375
357.68	48.205
358.04	47.324
358.40	47.674
358.77	47.324
359.13	50.117
359.49	48.448
359.85	49.659
360.21	49.807
360.57	48.061
360.93	48.938
361.29	49.593
361.66	50.190
362.02	48.258
362.38	49.335
362.74	49.384
363.10	49.675
363.46	49.135
363.82	50.037
364.18	50.254
364.54	51.058
364.90	49.199
365.26	49.682
365.62	49.716
365.98	49.751
366.35	50.780
366.71	50.285
367.07	50.319
367.43	49.268
367.79	50.035
368.15	50.914
368.51	50.000
368.87	50.733
369.23	51.032
369.59	51.304
369.95	51.306
370.31	49.372
370.67	51.919
371.03	52.858
371.39	53.726
371.75	51.643
372.11	51.709
372.47	52.199
372.83	52.358
373.19	53.309
373.55	52.168
373.91	51.556
374.27	51.452
374.63	53.058
374.99	52.437
375.35	51.781
375.71	51.902
376.07	52.502
376.42	52.941
376.78	54.756
377.14	54.237
377.50	53.390
377.86	53.718
378.22	53.793
378.58	53.342
378.94	54.875
379.30	54.341
379.66	53.822
380.02	53.922
380.38	53.976
380.74	54.094
381.09	53.016
381.45	53.567
381.81	55.145
382.17	53.749
382.53	54.215
382.89	54.343
383.25	55.432
383.61	53.753
383.97	55.750
384.32	55.261
384.68	54.349
385.04	54.062
385.40	55.978
385.76	56.144
386.12	54.229
386.48	56.552
386.83	56.446
387.19	54.966
387.55	56.284
387.91	56.642
388.27	55.857
388.62	55.930
388.98	56.070
389.34	55.514
389.70	55.311
390.06	56.063
390.42	56.830
390.77	55.221
391.13	57.071
391.49	53.890
391.85	56.422
392.20	55.388
392.56	56.635
392.92	56.290
393.28	55.317
393.64	54.862
393.99	55.263
394.35	56.235
394.71	56.218
395.07	55.660
395.42	56.551
395.78	55.212
396.14	56.753
396.50	57.451
396.85	56.660
397.21	55.056
397.57	55.963
397.92	55.389
398.28	56.514
398.64	55.859
399.00	55.357
399.35	56.754
399.71	55.446
400.07	56.386
400.42	56.301
400.78	57.039
401.14	56.407
401.49	55.542
401.85	56.757
402.21	56.718
402.57	56.346
402.92	56.008
403.28	56.973
403.63	55.363
403.99	56.686
404.35	57.045
404.70	55.952
405.06	56.430
405.42	55.967
405.77	54.724
406.13	54.343
406.49	55.782
406.84	56.410
407.20	54.174
407.55	56.039
407.91	55.394
408.27	55.396
408.62	55.985
408.98	54.932
409.34	55.507
409.69	54.711
410.05	55.535
410.40	54.352
410.76	56.077
411.11	56.654
411.47	56.802
411.83	55.833
412.18	53.841
412.54	55.263
412.89	55.987
413.25	53.097
413.60	55.925
413.96	56.617
414.31	55.672
414.67	54.286
415.03	55.142
415.38	56.275
415.74	54.451
416.09	55.387
416.45	55.297
416.80	55.436
417.16	55.870
417.51	55.794
417.87	56.349
418.22	55.398
418.58	53.811
418.93	55.681
419.29	57.228
419.64	53.372
420.00	55.556
420.35	55.111
420.71	55.027
421.06	54.551
421.42	56.265
421.77	54.740
422.12	55.874
422.48	54.689
422.83	54.814
423.19	55.549
423.54	54.594
423.90	54.513
424.25	56.730
424.61	55.022
424.96	54.465
425.31	53.674
425.67	55.556
426.02	55.654
426.38	55.162
426.73	53.757
427.09	54.284
427.44	54.668
427.79	54.454
428.15	53.700
428.50	54.320
428.85	54.736
429.21	54.080
429.56	54.888
429.92	54.555
430.27	53.732
430.62	54.040
430.98	54.310
431.33	54.541
431.68	54.313
432.04	53.803
432.39	53.349
432.74	55.120
433.10	54.213
433.45	53.195
433.80	54.598
434.16	53.523
434.51	54.185
434.86	54.653
435.22	53.877
435.57	53.501
435.92	54.885
436.28	52.733
436.63	53.522
436.98	54.994
437.34	54.151
437.69	53.424
438.04	53.367
438.39	54.608
438.75	53.695
439.10	54.829
439.45	53.571
439.81	54.557
440.16	54.667
440.51	52.675
440.86	54.179
441.22	54.217
441.57	53.525
441.92	53.603
442.27	53.139
442.63	53.122
442.98	53.704
443.33	53.273
443.68	53.611
444.03	53.850
444.39	53.099
444.74	53.230
445.09	52.313
445.44	53.239
445.79	52.710
446.15	53.356
446.50	52.037
446.85	52.753
447.20	52.326
447.55	53.665
447.91	52.753
448.26	52.258
448.61	52.589
448.96	52.904
449.31	52.656
449.66	52.689
450.02	52.928
450.37	53.525
450.72	52.411
451.07	52.915
451.42	51.903
451.77	53.561
452.12	51.753
452.47	53.131
452.83	51.887
453.18	51.878
453.53	51.450
453.88	51.807
454.23	52.658
454.58	51.593
454.93	52.277
455.28	51.574
455.63	52.090
455.98	51.369
456.34	50.286
456.69	51.310
457.04	51.393
457.39	51.353
457.74	49.731
458.09	51.659
458.44	51.410
458.79	49.753
459.14	49.888
459.49	51.098
459.84	49.887
460.19	50.660
460.54	51.642
460.89	51.351
461.24	50.432
461.59	51.268
461.94	49.810
462.29	49.877
462.64	50.000
462.99	48.826
463.34	49.793
463.69	50.387
464.04	48.920
464.39	50.580
464.74	49.570
465.09	50.837
465.44	48.373
465.79	51.236
466.14	48.803
466.49	49.736
466.84	48.536
467.19	49.936
467.54	48.736
467.89	49.151
468.24	49.785
468.59	49.331
468.94	48.978
469.29	49.108
469.64	49.024
469.99	50.552
470.34	48.281
470.68	48.773
471.03	47.955
471.38	48.540
471.73	47.874
472.08	49.141
472.43	48.945
472.78	48.411
473.13	46.900
473.48	47.815
473.83	47.772
474.17	49.544
474.52	49.968
474.87	46.502
475.22	48.490
475.57	47.518
475.92	47.328
476.27	47.611
476.61	47.622
476.96	47.630
477.31	46.764
477.66	47.684
478.01	45.934
478.36	46.485
478.70	46.509
479.05	47.059
479.40	45.918
479.75	47.024
480.10	46.711
480.45	46.591
480.79	46.491
481.14	47.720
481.49	47.213
481.84	44.769
482.19	45.623
482.53	45.524
482.88	46.357
483.23	44.899
483.58	46.786
483.92	45.477
484.27	45.608
484.62	43.409
484.97	44.961
485.31	44.559
485.66	43.202
486.01	44.605
486.36	44.455
486.70	44.844
487.05	44.396
487.40	44.325
487.75	44.846
488.09	43.572
488.44	43.919
488.79	43.376
489.13	44.056
489.48	44.164
489.83	44.038
490.17	45.030
490.52	44.787
490.87	43.533
491.22	43.712
491.56	45.137
491.91	43.207
492.26	44.197
492.60	44.060
492.95	44.315
493.30	43.411
493.64	42.974
493.99	43.623
494.34	43.497
494.68	43.580
495.03	43.626
495.37	42.628
495.72	43.208
496.07	44.228
496.41	43.191
496.76	42.687
497.11	42.535
497.45	43.531
497.80	44.321
498.14	42.317
498.49	42.209
498.84	42.763
499.18	43.405
499.53	42.590
499.87	42.455
500.22	42.957
500.56	42.377
500.91	42.757
501.26	42.365
501.60	41.667
501.95	41.351
502.29	41.796
502.64	43.057
502.98	42.678
503.33	42.336
503.67	41.772
504.02	41.863
504.36	41.159
504.71	42.022
505.06	42.231
505.40	41.959
505.75	41.913
506.09	41.134
506.44	41.683
506.78	40.884
507.13	42.048
507.47	40.880
507.82	40.188
508.16	41.266
508.51	40.238
508.85	40.021
509.19	41.905
509.54	40.965
509.88	41.075
510.23	39.368
510.57	40.360
510.92	41.272
511.26	41.309
511.61	40.340
511.95	40.463
512.30	39.700
512.64	40.409
512.98	40.222
513.33	40.451
513.67	41.511
514.02	41.106
514.36	39.831
514.70	40.185
515.05	41.486
515.39	41.038
515.74	39.491
516.08	39.469
516.42	39.171
516.77	39.133
517.11	39.918
517.46	40.156
517.80	39.467
518.14	39.192
518.49	38.939
518.83	39.379
519.17	39.578
519.52	38.902
519.86	39.648
520.20	38.751
520.55	38.246
520.89	40.038
521.23	40.064
521.58	38.496
521.92	38.089
522.26	39.232
522.61	39.108
522.95	38.083
523.29	38.540
523.64	38.462
523.98	39.327
524.32	38.878
524.66	38.831
525.01	38.139
525.35	38.973
525.69	38.701
526.04	38.046
526.38	38.496
526.72	38.133
527.06	37.395
527.41	37.856
527.75	37.784
528.09	37.849
528.43	38.874
528.78	37.468
529.12	37.775
529.46	37.876
529.80	37.605
530.15	36.615
530.49	37.399
530.83	37.915
531.17	37.808
531.51	37.357
531.86	36.856
532.20	37.767
532.54	36.759
532.88	37.236
533.22	37.172
533.57	36.887
533.91	37.935
534.25	38.021
534.59	37.387
534.93	36.862
535.27	36.306
535.62	37.303
535.96	35.914
536.30	35.505
536.64	35.885
536.98	36.020
537.32	35.374
537.66	36.248
538.01	36.130
538.35	35.843
538.69	34.716
539.03	36.107
539.37	35.949
539.71	36.289
540.05	34.818
540.39	35.857
540.73	35.964
541.07	35.170
541.42	34.747
541.76	35.250
542.10	35.477
542.44	35.412
542.78	35.323
543.12	35.714
543.46	35.038
543.80	35.031
544.14	35.719
544.48	33.577
544.82	35.037
545.16	35.429
545.50	35.246
545.84	34.292
546.18	33.380
546.52	34.651
546.86	34.134
547.20	33.953
547.54	33.667
547.88	34.885
548.22	34.658
548.56	33.889
548.90	33.491
549.24	34.583
549.58	32.740
549.92	33.676
550.26	33.801
550.60	33.934
550.94	32.687
551.28	33.232
551.62	33.308
551.96	33.968
552.30	33.552
552.64	32.274
552.98	33.807
553.32	33.381
553.66	33.529
554.00	33.117
554.34	33.040
554.68	33.482
555.02	32.260
555.36	33.359
555.69	32.702
556.03	33.095
556.37	32.859
556.71	32.376
557.05	33.506
557.39	33.459
557.73	35.174
558.07	32.856
558.41	33.535
558.75	33.025
559.08	31.917
559.42	32.887
559.76	32.951
560.10	32.821
560.44	32.498
560.78	32.446
561.12	32.936
561.45	32.381
561.79	32.944
562.13	31.505
562.47	32.643
562.81	31.241
563.15	31.941
563.48	31.590
563.82	32.421
564.16	31.821
564.50	31.750
564.84	32.162
565.17	32.583
565.51	32.487
565.85	30.913
566.19	31.987
566.52	30.537
566.86	30.910
567.20	30.422
567.54	31.146
567.88	29.787
568.21	30.255
568.55	30.934
568.89	30.508
569.23	30.568
569.56	31.414
569.90	30.598
570.24	30.253
570.57	30.058
570.91	30.726
571.25	29.936
571.59	29.946
571.92	29.715
572.26	30.769
572.60	29.566
572.93	29.428
573.27	29.001
573.61	30.176
573.95	29.693
574.28	29.544
574.62	29.005
574.96	29.847
575.29	29.940
575.63	29.268
575.97	29.293
576.30	29.405
576.64	29.054
576.98	29.516
577.31	29.582
577.65	29.423
577.98	29.174
578.32	29.219
578.66	29.123
578.99	28.897
579.33	29.235
579.67	29.201
580.00	28.894
580.34	28.526
580.67	29.128
581.01	28.801
581.35	29.075
581.68	28.715
582.02	28.793
582.35	28.684
582.69	28.928
583.02	28.306
583.36	28.787
583.70	28.329
584.03	28.067
584.37	28.060
584.70	28.762
585.04	28.865
585.37	28.530
585.71	28.558
586.04	28.521
586.38	28.571
586.72	28.238
587.05	28.878
587.39	28.401
587.72	28.644
588.06	28.837
588.39	28.603
588.73	28.189
589.06	28.484
589.40	27.451
589.73	27.812
590.07	27.889
590.40	27.717
590.73	28.647
591.07	28.333
591.40	27.565
591.74	28.368
592.07	28.663
592.41	27.928
592.74	27.932
593.08	28.034
593.41	27.714
593.75	28.585
594.08	28.083
594.41	27.788
594.75	27.849
595.08	28.454
595.42	27.165
595.75	27.223
596.09	28.137
596.42	27.083
596.75	27.863
597.09	27.934
597.42	27.591
597.75	27.333
598.09	27.550
598.42	27.562
598.76	27.834
599.09	28.731
599.42	27.568
599.76	28.089
600.09	27.523
600.42	27.684
600.76	26.866
601.09	27.081
601.42	27.440
601.76	26.834
602.09	27.158
602.42	27.445
602.76	26.762
603.09	27.680
603.42	26.709
603.76	27.007
604.09	26.640
604.42	26.957
604.76	26.713
605.09	27.685
605.42	27.485
605.75	27.281
606.09	26.366
606.42	27.182
606.75	26.450
607.09	26.551
607.42	26.226
607.75	26.652
608.08	26.601
608.42	26.757
608.75	26.995
609.08	26.997
609.41	27.620
609.75	26.626
610.08	26.972
610.41	27.697
610.74	26.708
611.07	26.453
611.41	27.329
611.74	26.760
612.07	27.410
612.40	26.703
612.73	25.631
613.07	26.996
613.40	26.377
613.73	26.544
614.06	26.258
614.39	26.181
614.72	26.707
615.06	26.556
615.39	26.380
615.72	26.620
616.05	26.239
616.38	25.258
616.71	25.675
617.05	26.413
617.38	26.124
617.71	24.326
618.04	24.741
618.37	25.552
618.70	26.197
619.03	26.048
619.36	27.544
619.69	25.731
620.03	25.724
620.36	25.818
620.69	25.125
621.02	25.769
621.35	25.756
621.68	25.591
622.01	27.023
622.34	25.139
622.67	26.077
623.00	26.672
623.33	25.355
623.66	25.353
623.99	25.956
624.32	24.872
624.65	26.929
624.99	25.716
625.32	26.587
625.65	24.729
625.98	26.066
626.31	24.980
626.64	25.623
626.97	25.779
627.30	28.144
627.63	25.519
627.96	24.589
628.29	25.581
628.62	25.532
628.95	26.453
629.28	25.419
629.61	26.699
629.94	24.952
630.26	25.517
630.59	25.774
630.92	25.402
631.25	25.850
631.58	25.482
631.91	25.239
