SpectraSuite Data File
++++++++++++++++++++++++++++++++++++
Date: Wed May 13 20:24:33 PDT 2015
User: schluterlab
Dark Spectrum Present: Yes
Reference Spectrum Present: Yes
Number of Sampled Component Spectra: 1
Spectrometers: USB2E3373
Integration Time (usec): 3000 (USB2E3373)
Spectra Averaged: 3 (USB2E3373)
Boxcar Smoothing: 0 (USB2E3373)
Correct for Electrical Dark: No (USB2E3373)
Strobe/Lamp Enabled: No (USB2E3373)
Correct for Detector Non-linearity: No (USB2E3373)
Correct for Stray Light: No (USB2E3373)
Number of Pixels in Processed Spectrum: 2048
>>>>>Begin Processed Spectral Data<<<<<
178.53	0.000
178.91	-1075.000
179.29	-1025.000
179.67	-188.889
180.04	-1175.000
180.42	2350.000
180.80	900.000
181.18	-950.000
181.56	600.000
181.94	0.000
182.31	-742.857
182.69	1700.000
183.07	-587.500
183.45	-522.222
183.83	545.455
184.20	-330.000
184.58	2100.000
184.96	4800.000
185.34	-580.000
185.72	-600.000
186.09	-2100.000
186.47	3050.000
186.85	2250.000
187.23	4300.000
187.61	-1433.333
187.98	1325.000
188.36	554.545
188.74	518.182
189.12	-920.000
189.49	600.000
189.87	-4600.000
190.25	-1150.000
190.63	414.286
191.00	353.846
191.38	933.333
191.76	-1175.000
192.14	1325.000
192.51	675.000
192.89	866.667
193.27	537.500
193.65	-1125.000
194.02	500.000
194.40	980.000
194.78	570.000
195.15	508.333
195.53	450.000
195.91	-2250.000
196.29	275.000
196.66	294.737
197.04	-380.000
197.42	0.000
197.79	540.000
198.17	-4100.000
198.55	428.571
198.92	650.000
199.30	880.000
199.68	0.000
200.05	288.889
200.43	657.143
200.81	4300.000
201.18	1433.333
201.56	-1400.000
201.94	455.556
202.31	644.444
202.69	416.667
203.07	640.000
203.44	0.000
203.82	1125.000
204.19	642.857
204.57	392.857
204.95	587.500
205.32	1200.000
205.70	554.545
206.08	350.000
206.45	2050.000
206.83	337.500
207.20	833.333
207.58	840.000
207.96	305.556
208.33	637.500
208.71	-583.333
209.08	714.286
209.46	422.222
209.84	427.273
210.21	-1333.333
210.59	1075.000
210.96	-362.500
211.34	2200.000
211.71	580.000
212.09	816.667
212.46	0.000
212.84	1666.667
213.22	1200.000
213.59	-3100.000
213.97	866.667
214.34	800.000
214.72	545.455
215.09	1120.000
215.47	-2500.000
215.84	-2350.000
216.22	1300.000
216.59	414.286
216.97	1300.000
217.34	381.818
217.72	-666.667
218.09	0.000
218.47	-4700.000
218.84	544.444
219.22	614.286
219.59	1166.667
219.97	-614.286
220.34	840.000
220.72	-1433.333
221.09	335.714
221.47	1375.000
221.84	-966.667
222.22	0.000
222.59	1225.000
222.97	-2450.000
223.34	1060.000
223.72	438.462
224.09	1020.000
224.46	1850.000
224.84	-5500.000
225.21	-800.000
225.59	-5200.000
225.96	500.000
226.34	250.000
226.71	2400.000
227.08	675.000
227.46	500.000
227.83	-1050.000
228.21	-2250.000
228.58	533.333
228.95	-2500.000
229.33	-2050.000
229.70	1233.333
230.08	628.571
230.45	-760.000
230.82	408.333
231.20	883.333
231.57	714.286
231.95	391.667
232.32	231.818
232.69	390.909
233.07	657.143
233.44	353.846
233.81	-1233.333
234.19	252.632
234.56	391.667
234.93	325.000
235.31	363.636
235.68	276.923
236.05	357.143
236.43	175.758
236.80	231.579
237.17	4400.000
237.55	223.810
237.92	200.000
238.29	190.476
238.67	164.516
239.04	151.724
239.41	130.556
239.79	110.870
240.16	128.571
240.53	97.727
240.91	90.196
241.28	84.000
241.65	74.000
242.02	92.754
242.40	67.742
242.77	68.333
243.14	59.140
243.51	52.809
243.89	62.353
244.26	48.889
244.63	49.462
245.00	51.064
245.38	47.525
245.75	50.467
246.12	41.284
246.49	39.416
246.87	47.200
247.24	38.462
247.61	38.571
247.98	35.294
248.36	30.405
248.73	29.936
249.10	36.943
249.47	29.944
249.84	28.877
250.22	28.877
250.59	28.402
250.96	31.313
251.33	30.806
251.70	24.752
252.08	25.238
252.45	24.215
252.82	20.435
253.19	23.404
253.56	20.000
253.94	27.801
254.31	19.531
254.68	24.615
255.05	24.354
255.42	22.764
255.79	19.853
256.16	23.827
256.54	18.728
256.91	23.843
257.28	17.626
257.65	20.792
258.02	22.050
258.39	16.404
258.76	18.395
259.14	18.452
259.51	16.413
259.88	14.596
260.25	17.523
260.62	15.607
260.99	15.217
261.36	18.018
261.73	17.192
262.10	13.081
262.47	18.028
262.85	16.156
263.22	15.954
263.59	16.524
263.96	16.484
264.33	17.755
264.70	15.263
265.07	16.113
265.44	14.646
265.81	16.058
266.18	15.829
266.55	12.195
266.92	13.514
267.29	15.509
267.66	15.367
268.03	14.773
268.40	17.290
268.77	11.217
269.14	15.090
269.51	13.544
269.88	15.152
270.25	15.124
270.62	13.483
270.99	15.054
271.36	14.807
271.73	12.150
272.10	13.478
272.47	13.333
272.84	12.987
273.21	14.885
273.58	10.917
273.95	11.321
274.32	12.190
274.69	14.347
275.06	12.598
275.43	13.830
275.80	13.427
276.17	13.442
276.54	12.266
276.91	9.486
277.28	13.086
277.65	13.346
278.02	11.594
278.39	13.867
278.76	12.909
279.13	11.887
279.50	13.780
279.87	12.948
280.23	12.375
280.60	9.671
280.97	11.645
281.34	12.035
281.71	14.727
282.08	12.092
282.45	12.000
282.82	11.545
283.19	11.408
283.56	10.526
283.92	11.168
284.29	10.229
284.66	11.615
285.03	9.403
285.40	11.972
285.77	10.943
286.14	10.017
286.51	11.833
286.87	11.624
287.24	13.355
287.61	10.273
287.98	12.013
288.35	10.143
288.72	9.502
289.08	11.268
289.45	10.708
289.82	12.033
290.19	10.832
290.56	11.026
290.93	9.063
291.29	8.742
291.66	10.029
292.03	11.773
292.40	12.628
292.77	10.355
293.13	11.194
293.50	9.329
293.87	8.000
294.24	8.889
294.60	8.151
294.97	9.593
295.34	9.591
295.71	8.523
296.08	9.402
296.44	8.391
296.81	8.454
297.18	8.808
297.55	8.047
297.91	8.575
298.28	10.174
298.65	8.616
299.02	8.564
299.38	9.163
299.75	6.334
300.12	8.812
300.48	8.375
300.85	7.522
301.22	7.516
301.59	7.323
301.95	9.320
302.32	7.445
302.69	7.049
303.05	7.758
303.42	9.259
303.79	7.814
304.15	8.625
304.52	7.764
304.89	6.620
305.25	8.237
305.62	8.154
305.99	7.910
306.35	7.606
306.72	7.960
307.09	7.325
307.45	8.559
307.82	6.920
308.19	8.389
308.55	7.767
308.92	7.411
309.29	6.441
309.65	6.363
310.02	7.928
310.38	6.882
310.75	6.969
311.12	7.984
311.48	8.568
311.85	7.547
312.22	7.388
312.58	6.965
312.95	6.441
313.31	6.311
313.68	5.925
314.05	9.073
314.41	7.437
314.78	7.351
315.14	7.150
315.51	6.797
315.87	7.921
316.24	7.150
316.61	6.823
316.97	6.067
317.34	6.458
317.70	8.126
318.07	7.026
318.43	7.339
318.80	7.404
319.16	7.062
319.53	7.505
319.89	6.667
320.26	8.000
320.62	6.746
320.99	7.374
321.35	6.263
321.72	7.187
322.08	7.799
322.45	7.861
322.81	7.074
323.18	7.033
323.54	7.792
323.91	7.925
324.27	7.457
324.64	6.524
325.00	6.673
325.37	7.279
325.73	7.720
326.10	7.326
326.46	5.824
326.83	7.506
327.19	7.600
327.56	7.230
327.92	7.174
328.29	7.720
328.65	8.656
329.01	7.310
329.38	7.216
329.74	7.387
330.11	8.106
330.47	7.530
330.84	8.732
331.20	7.559
331.56	7.890
331.93	5.926
332.29	7.720
332.66	8.230
333.02	7.952
333.38	6.775
333.75	8.556
334.11	7.651
334.48	7.808
334.84	7.629
335.20	7.091
335.57	8.069
335.93	7.232
336.29	7.967
336.66	7.484
337.02	7.240
337.38	7.593
337.75	6.595
338.11	8.326
338.47	8.103
338.84	7.791
339.20	6.606
339.56	7.755
339.93	7.545
340.29	7.337
340.65	7.130
341.02	8.115
341.38	7.562
341.74	7.281
342.11	7.598
342.47	7.489
342.83	8.562
343.20	7.706
343.56	7.329
343.92	7.632
344.28	6.973
344.65	7.309
345.01	6.313
345.37	7.461
345.73	7.445
346.10	7.417
346.46	6.949
346.82	7.414
347.19	6.433
347.55	7.964
347.91	7.362
348.27	6.902
348.63	6.522
349.00	7.524
349.36	6.404
349.72	6.977
350.08	7.050
350.45	6.916
350.81	6.905
351.17	7.050
351.53	7.289
351.89	5.776
352.26	8.051
352.62	7.298
352.98	7.455
353.34	6.245
353.70	5.892
354.07	6.855
354.43	7.778
354.79	6.275
355.15	6.624
355.51	7.434
355.87	6.776
356.24	6.189
356.60	7.298
356.96	7.321
357.32	6.132
357.68	7.323
358.04	6.097
358.40	7.363
358.77	6.729
359.13	5.525
359.49	6.118
359.85	5.556
360.21	6.140
360.57	7.549
360.93	7.231
361.29	6.047
361.66	5.650
362.02	7.313
362.38	7.224
362.74	6.250
363.10	6.292
363.46	6.016
363.82	6.274
364.18	6.388
364.54	7.504
364.90	7.224
365.26	5.809
365.62	7.159
365.98	6.501
366.35	4.943
366.71	6.363
367.07	6.409
367.43	6.459
367.79	7.066
368.15	6.968
368.51	6.177
368.87	6.781
369.23	6.291
369.59	6.734
369.95	5.662
370.31	5.698
370.67	5.507
371.03	6.667
371.39	6.924
371.75	6.618
372.11	6.401
372.47	6.378
372.83	5.836
373.19	6.647
373.55	6.430
373.91	6.333
374.27	6.392
374.63	6.036
374.99	6.285
375.35	6.769
375.71	5.826
376.07	6.584
376.42	6.121
376.78	6.097
377.14	6.649
377.50	6.424
377.86	5.652
378.22	6.637
378.58	5.075
378.94	5.468
379.30	4.771
379.66	5.330
380.02	6.020
380.38	5.525
380.74	6.423
381.09	5.990
381.45	5.962
381.81	5.897
382.17	5.541
382.53	5.346
382.89	5.494
383.25	5.191
383.61	5.886
383.97	6.004
384.32	5.802
384.68	4.957
385.04	5.347
385.40	5.201
385.76	6.020
386.12	5.440
386.48	6.230
386.83	5.516
387.19	5.813
387.55	5.566
387.91	5.804
388.27	5.028
388.62	5.655
388.98	5.283
389.34	5.882
389.70	6.254
390.06	5.894
390.42	6.031
390.77	5.852
391.13	6.126
391.49	6.155
391.85	5.220
392.20	4.669
392.56	5.114
392.92	5.650
393.28	4.438
393.64	6.175
393.99	6.048
394.35	5.521
394.71	5.960
395.07	4.798
395.42	5.810
395.78	5.344
396.14	6.207
396.50	6.328
396.85	5.976
397.21	4.501
397.57	5.828
397.92	5.168
398.28	4.484
398.64	5.854
399.00	5.708
399.35	5.076
399.71	6.019
400.07	6.328
400.42	6.380
400.78	6.152
401.14	5.427
401.49	5.612
401.85	5.929
402.21	4.850
402.57	5.367
402.92	5.927
403.28	6.246
403.63	5.569
403.99	5.096
404.35	5.818
404.70	5.156
405.06	4.892
405.42	5.614
405.77	4.971
406.13	5.643
406.49	6.032
406.84	5.966
407.20	4.787
407.55	5.488
407.91	6.333
408.27	5.680
408.62	6.081
408.98	5.821
409.34	5.412
409.69	5.935
410.05	5.452
410.40	5.749
410.76	5.078
411.11	6.393
411.47	5.687
411.83	5.925
412.18	5.751
412.54	5.853
412.89	6.386
413.25	5.785
413.60	6.362
413.96	5.586
414.31	6.501
414.67	6.337
415.03	5.828
415.38	5.670
415.74	5.595
416.09	6.009
416.45	5.556
416.80	5.354
417.16	6.099
417.51	6.304
417.87	6.101
418.22	6.372
418.58	6.133
418.93	6.572
419.29	6.684
419.64	6.171
420.00	6.220
420.35	5.797
420.71	6.336
421.06	4.952
421.42	5.614
421.77	6.110
422.12	5.222
422.48	5.343
422.83	6.232
423.19	6.298
423.54	5.281
423.90	6.203
424.25	6.421
424.61	5.774
424.96	5.306
425.31	5.980
425.67	6.124
426.02	6.000
426.38	5.556
426.73	5.617
427.09	6.261
427.44	5.520
427.79	5.693
428.15	6.012
428.50	6.202
428.85	6.019
429.21	5.467
429.56	5.806
429.92	5.637
430.27	5.710
430.62	4.967
430.98	5.397
431.33	6.031
431.68	5.812
432.04	5.591
432.39	5.825
432.74	5.745
433.10	5.716
433.45	5.948
433.80	5.266
434.16	5.662
434.51	5.421
434.86	5.872
435.22	5.725
435.57	6.140
435.92	5.910
436.28	5.635
436.63	6.898
436.98	5.381
437.34	5.605
437.69	6.593
438.04	5.171
438.39	5.910
438.75	6.682
439.10	6.313
439.45	6.375
439.81	5.740
440.16	5.816
440.51	5.624
440.86	6.196
441.22	5.562
441.57	5.998
441.92	5.885
442.27	6.136
442.63	5.951
442.98	5.972
443.33	6.359
443.68	5.937
444.03	6.247
444.39	5.161
444.74	5.898
445.09	5.660
445.44	5.631
445.79	5.740
446.15	6.723
446.50	5.924
446.85	5.858
447.20	5.915
447.55	6.365
447.91	5.902
448.26	5.620
448.61	6.105
448.96	6.866
449.31	6.468
449.66	6.190
450.02	5.794
450.37	4.932
450.72	5.640
451.07	5.728
451.42	6.383
451.77	6.929
452.12	6.236
452.47	6.468
452.83	5.828
453.18	6.296
453.53	6.617
453.88	5.611
454.23	5.439
454.58	6.784
454.93	6.421
455.28	6.421
455.63	6.432
455.98	6.845
456.34	5.779
456.69	6.575
457.04	6.378
457.39	5.669
457.74	6.036
458.09	6.555
458.44	5.815
458.79	5.694
459.14	6.151
459.49	6.597
459.84	5.817
460.19	6.423
460.54	6.250
460.89	6.418
461.24	5.282
461.59	6.915
461.94	6.227
462.29	7.122
462.64	6.254
462.99	6.636
463.34	7.067
463.69	5.941
464.04	6.551
464.39	6.551
464.74	6.536
465.09	6.031
465.44	6.205
465.79	5.872
466.14	6.076
466.49	5.840
466.84	6.713
467.19	7.182
467.54	6.937
467.89	6.062
468.24	6.923
468.59	7.021
468.94	6.842
469.29	6.234
469.64	7.497
469.99	7.172
470.34	6.077
470.68	7.256
471.03	6.395
471.38	7.297
471.73	6.795
472.08	7.368
472.43	7.035
472.78	6.517
473.13	7.189
473.48	7.303
473.83	6.890
474.17	5.476
474.52	6.452
474.87	6.830
475.22	7.023
475.57	6.556
475.92	6.160
476.27	6.032
476.61	6.564
476.96	5.607
477.31	5.442
477.66	6.729
478.01	6.639
478.36	6.928
478.70	6.179
479.05	5.698
479.40	6.192
479.75	6.609
480.10	5.915
480.45	5.521
480.79	5.781
481.14	6.067
481.49	5.600
481.84	5.990
482.19	6.270
482.53	6.009
482.88	6.049
483.23	6.168
483.58	6.187
483.92	5.764
484.27	5.142
484.62	5.216
484.97	5.282
485.31	5.616
485.66	4.449
486.01	4.256
486.36	4.189
486.70	4.374
487.05	4.646
487.40	4.571
487.75	4.956
488.09	5.278
488.44	5.370
488.79	5.606
489.13	5.539
489.48	5.546
489.83	5.179
490.17	5.831
490.52	5.713
490.87	5.473
491.22	5.866
491.56	5.467
491.91	5.631
492.26	5.466
492.60	5.945
492.95	5.659
493.30	5.607
493.64	5.833
493.99	5.525
494.34	6.244
494.68	6.273
495.03	6.391
495.37	5.724
495.72	5.458
496.07	6.125
496.41	5.619
496.76	5.937
497.11	5.493
497.45	5.962
497.80	5.806
498.14	5.459
498.49	5.659
498.84	5.896
499.18	6.095
499.53	5.888
499.87	6.104
500.22	5.982
500.56	6.408
500.91	5.625
501.26	5.595
501.60	6.692
501.95	5.683
502.29	6.326
502.64	5.726
502.98	5.657
503.33	5.896
503.67	6.311
504.02	6.080
504.36	5.896
504.71	5.960
505.06	6.169
505.40	6.028
505.75	5.834
506.09	5.831
506.44	6.216
506.78	6.235
507.13	6.058
507.47	5.960
507.82	6.332
508.16	6.130
508.51	7.002
508.85	6.356
509.19	5.306
509.54	6.224
509.88	6.131
510.23	6.324
510.57	7.224
510.92	6.680
511.26	5.910
511.61	7.210
511.95	5.741
512.30	6.257
512.64	6.448
512.98	6.270
513.33	7.013
513.67	6.457
514.02	5.844
514.36	6.827
514.70	7.084
515.05	6.414
515.39	6.730
515.74	6.588
516.08	6.540
516.42	6.881
516.77	7.637
517.11	6.160
517.46	7.336
517.80	6.736
518.14	6.312
518.49	7.235
518.83	7.102
519.17	6.928
519.52	6.452
519.86	6.674
520.20	7.052
520.55	7.720
520.89	7.543
521.23	7.479
521.58	6.723
521.92	7.471
522.26	7.444
522.61	6.791
522.95	6.875
523.29	7.304
523.64	6.951
523.98	7.640
524.32	6.876
524.66	7.937
525.01	7.843
525.35	7.559
525.69	7.451
526.04	6.978
526.38	7.810
526.72	7.914
527.06	7.345
527.41	6.374
527.75	7.524
528.09	8.221
528.43	6.692
528.78	7.867
529.12	6.788
529.46	8.267
529.80	7.735
530.15	8.224
530.49	7.385
530.83	8.038
531.17	7.833
531.51	8.366
531.86	7.290
532.20	8.149
532.54	8.840
532.88	7.766
533.22	7.183
533.57	7.778
533.91	7.706
534.25	7.594
534.59	7.444
534.93	7.496
535.27	7.483
535.62	7.631
535.96	7.721
536.30	6.993
536.64	7.791
536.98	8.494
537.32	8.097
537.66	7.733
538.01	7.571
538.35	8.597
538.69	8.679
539.03	7.602
539.37	7.348
539.71	7.129
540.05	8.497
540.39	7.110
540.73	8.344
541.07	7.657
541.42	8.219
541.76	8.000
542.10	8.344
542.44	7.815
542.78	8.366
543.12	7.742
543.46	8.262
543.80	8.653
544.14	6.418
544.48	8.381
544.82	7.890
545.16	7.677
545.50	7.584
545.84	8.737
546.18	8.148
546.52	8.603
546.86	7.491
547.20	8.227
547.54	7.682
547.88	9.375
548.22	7.846
548.56	8.176
548.90	7.810
549.24	7.407
549.58	8.117
549.92	7.692
550.26	8.807
550.60	8.091
550.94	9.085
551.28	7.974
551.62	9.274
551.96	7.930
552.30	8.942
552.64	9.128
552.98	8.339
553.32	8.968
553.66	9.066
554.00	8.854
554.34	9.455
554.68	9.013
555.02	8.604
555.36	8.281
555.69	8.660
556.03	8.614
556.37	8.868
556.71	7.572
557.05	8.333
557.39	8.188
557.73	8.398
558.07	8.629
558.41	8.611
558.75	9.111
559.08	8.949
559.42	8.541
559.76	8.750
560.10	8.637
560.44	9.224
560.78	8.051
561.12	7.850
561.45	9.126
561.79	8.570
562.13	8.115
562.47	9.153
562.81	8.438
563.15	8.161
563.48	8.488
563.82	8.219
564.16	7.390
564.50	7.227
564.84	8.217
565.17	7.915
565.51	8.307
565.85	8.376
566.19	7.765
566.52	8.043
566.86	7.836
567.20	8.314
567.54	7.477
567.88	7.822
568.21	7.778
568.55	7.685
568.89	7.296
569.23	7.086
569.56	7.045
569.90	6.755
570.24	6.889
570.57	7.038
570.91	5.882
571.25	6.671
571.59	6.333
571.92	6.279
572.26	6.557
572.60	6.697
572.93	6.327
573.27	6.832
573.61	6.393
573.95	6.589
574.28	6.131
574.62	6.341
574.96	6.022
575.29	5.989
575.63	6.529
575.97	6.535
576.30	6.612
576.64	6.192
576.98	5.882
577.31	5.984
577.65	6.211
577.98	5.810
578.32	5.620
578.66	5.996
578.99	6.209
579.33	5.979
579.67	5.984
580.00	6.210
580.34	6.170
580.67	6.216
581.01	6.544
581.35	6.013
581.68	5.970
582.02	5.772
582.35	5.678
582.69	6.216
583.02	6.047
583.36	6.525
583.70	6.518
584.03	6.479
584.37	6.588
584.70	6.113
585.04	6.751
585.37	6.244
585.71	6.344
586.04	6.282
586.38	6.322
586.72	6.849
587.05	6.330
587.39	6.121
587.72	6.674
588.06	5.843
588.39	6.584
588.73	6.454
589.06	6.544
589.40	6.700
589.73	6.653
590.07	7.295
590.40	6.577
590.73	7.143
591.07	7.326
591.40	7.887
591.74	8.095
592.07	7.243
592.41	7.317
592.74	6.854
593.08	7.462
593.41	7.023
593.75	6.715
594.08	7.073
594.41	7.070
594.75	6.876
595.08	7.051
595.42	7.005
595.75	6.980
596.09	7.285
596.42	7.387
596.75	7.134
597.09	8.139
597.42	6.998
597.75	7.072
598.09	7.609
598.42	7.174
598.76	7.458
599.09	7.184
599.42	7.023
599.76	7.430
600.09	6.995
600.42	6.976
600.76	7.036
601.09	6.958
601.42	7.230
601.76	7.476
602.09	6.996
602.42	7.285
602.76	7.578
603.09	7.042
603.42	7.458
603.76	6.974
604.09	6.902
604.42	7.338
604.76	8.013
605.09	7.034
605.42	7.867
605.75	7.409
606.09	7.320
606.42	6.947
606.75	7.881
607.09	7.367
607.42	7.488
607.75	7.089
608.08	6.904
608.42	8.113
608.75	7.755
609.08	7.169
609.41	7.615
609.75	7.432
610.08	8.153
610.41	7.123
610.74	7.379
611.07	7.213
611.41	7.556
611.74	8.698
612.07	8.282
612.40	7.922
612.73	8.421
613.07	8.513
613.40	8.899
613.73	7.341
614.06	7.151
614.39	7.971
614.72	8.684
615.06	8.298
615.39	7.378
615.72	8.129
616.05	7.762
616.38	7.615
616.71	8.195
617.05	9.011
617.38	8.358
617.71	8.348
618.04	7.993
618.37	8.989
618.70	9.023
619.03	9.276
619.36	9.233
619.69	8.732
620.03	10.165
620.36	9.091
620.69	8.904
621.02	9.145
621.35	8.771
621.68	9.190
622.01	9.985
622.34	9.455
622.67	9.125
623.00	9.024
623.33	8.721
623.66	9.435
623.99	8.616
624.32	8.916
624.65	9.251
624.99	8.499
625.32	8.400
625.65	8.264
625.98	9.224
626.31	9.642
626.64	10.122
626.97	9.643
627.30	9.476
627.63	9.680
627.96	10.093
628.29	10.061
628.62	10.064
628.95	12.170
629.28	10.493
629.61	11.824
629.94	10.857
630.26	10.200
630.59	9.724
630.92	9.770
631.25	10.563
631.58	11.111
631.91	10.243
632.24	9.494
632.57	11.752
632.90	10.307
633.23	11.074
633.56	10.960
633.89	12.458
634.22	11.464
634.55	10.296
634.88	11.497
635.20	11.231
635.53	10.120
635.86	11.757
636.19	11.294
636.52	12.803
636.85	11.111
637.18	10.945
637.51	12.175
637.83	10.481
638.16	10.997
638.49	12.343
638.82	11.378
639.15	11.750
639.48	12.594
639.81	11.260
640.13	12.500
640.46	11.141
640.79	12.153
641.12	10.867
641.45	11.732
641.77	11.193
642.10	10.819
642.43	11.712
642.76	13.158
643.09	11.196
643.41	12.595
643.74	12.500
644.07	13.872
644.40	13.037
644.73	12.598
645.05	13.946
645.38	13.112
645.71	13.043
646.04	12.292
646.36	13.189
646.69	13.880
647.02	14.286
647.35	13.746
647.67	13.097
648.00	12.520
648.33	12.541
648.66	12.576
648.98	13.343
649.31	10.613
649.64	11.659
649.96	12.221
650.29	12.954
650.62	13.269
650.94	14.587
651.27	14.020
651.60	13.977
651.92	13.738
652.25	14.007
