SpectraSuite Data File
++++++++++++++++++++++++++++++++++++
Date: Wed May 13 21:13:25 PDT 2015
User: schluterlab
Dark Spectrum Present: Yes
Reference Spectrum Present: Yes
Number of Sampled Component Spectra: 1
Spectrometers: USB2E3373
Integration Time (usec): 3000 (USB2E3373)
Spectra Averaged: 3 (USB2E3373)
Boxcar Smoothing: 0 (USB2E3373)
Correct for Electrical Dark: No (USB2E3373)
Strobe/Lamp Enabled: No (USB2E3373)
Correct for Detector Non-linearity: No (USB2E3373)
Correct for Stray Light: No (USB2E3373)
Number of Pixels in Processed Spectrum: 2048
>>>>>Begin Processed Spectral Data<<<<<
178.53	0.000
178.91	600.000
179.29	191.667
179.67	-600.000
180.04	-433.333
180.42	20.000
180.80	2100.000
181.18	316.667
181.56	-550.000
181.94	-125.000
182.31	-45.455
182.69	100.000
183.07	-180.000
183.45	216.667
183.83	177.778
184.20	157.143
184.58	-33.333
184.96	233.333
185.34	228.571
185.72	0.000
186.09	-200.000
186.47	-280.000
186.85	-100.000
187.23	-700.000
187.61	950.000
187.98	2300.000
188.36	-12.500
188.74	0.000
189.12	-9.091
189.49	60.000
189.87	91.667
190.25	380.000
190.63	1800.000
191.00	-160.000
191.38	100.000
191.76	-25.000
192.14	108.333
192.51	-57.895
192.89	600.000
193.27	500.000
193.65	-300.000
194.02	218.182
194.40	180.000
194.78	-1000.000
195.15	140.000
195.53	-180.000
195.91	62.500
196.29	-333.333
196.66	0.000
197.04	450.000
197.42	0.000
197.79	-20.000
198.17	-187.500
198.55	-233.333
198.92	400.000
199.30	-533.333
199.68	-20.000
200.05	650.000
200.43	216.667
200.81	-1100.000
201.18	20.000
201.56	-33.333
201.94	625.000
202.31	-13.043
202.69	-71.429
203.07	-266.667
203.44	0.000
203.82	-500.000
204.19	-10.000
204.57	0.000
204.95	-66.667
205.32	0.000
205.70	-450.000
206.08	-275.000
206.45	-266.667
206.83	375.000
207.20	-400.000
207.58	-130.000
207.96	-1200.000
208.33	-171.429
208.71	-1200.000
209.08	225.000
209.46	575.000
209.84	0.000
210.21	160.000
210.59	1600.000
210.96	360.000
211.34	1200.000
211.71	-400.000
212.09	-250.000
212.46	-200.000
212.84	-466.667
213.22	-50.000
213.59	-1400.000
213.97	-400.000
214.34	-800.000
214.72	0.000
215.09	300.000
215.47	155.556
215.84	1050.000
216.22	-137.500
216.59	-650.000
216.97	900.000
217.34	144.444
217.72	0.000
218.09	566.667
218.47	-600.000
218.84	-85.714
219.22	-150.000
219.59	-466.667
219.97	-400.000
220.34	-100.000
220.72	-220.000
221.09	0.000
221.47	-50.000
221.84	-200.000
222.22	0.000
222.59	300.000
222.97	-100.000
223.34	-83.333
223.72	-1500.000
224.09	-800.000
224.46	-18.182
224.84	-50.000
225.21	-285.714
225.59	-425.000
225.96	-133.333
226.34	-110.000
226.71	-214.286
227.08	350.000
227.46	-162.500
227.83	200.000
228.21	-56.250
228.58	-125.000
228.95	-35.294
229.33	0.000
229.70	-12.500
230.08	-38.462
230.45	-62.500
230.82	-91.667
231.20	328.571
231.57	-150.000
231.95	-200.000
232.32	16.667
232.69	-58.824
233.07	-1500.000
233.44	-21.739
233.81	-600.000
234.19	12.500
234.56	-80.000
234.93	-73.333
235.31	21.053
235.68	-169.231
236.05	-7.692
236.43	-27.778
236.80	-27.273
237.17	-80.000
237.55	-41.176
237.92	-31.034
238.29	-70.370
238.67	-13.889
239.04	-41.935
239.41	-42.553
239.79	-4.255
240.16	-11.628
240.53	12.500
240.91	-7.143
241.28	-5.357
241.65	-1.613
242.02	-1.316
242.40	5.797
242.77	-1.449
243.14	-7.692
243.51	10.638
243.89	11.538
244.26	21.698
244.63	-4.808
245.00	1.042
245.38	1.681
245.75	9.016
246.12	6.015
246.49	-3.252
246.87	-0.840
247.24	8.108
247.61	4.636
247.98	5.769
248.36	4.734
248.73	6.180
249.10	9.596
249.47	7.527
249.84	11.579
250.22	11.443
250.59	9.813
250.96	9.091
251.33	7.177
251.70	12.552
252.08	10.042
252.45	14.815
252.82	9.506
253.19	7.393
253.56	8.993
253.94	14.947
254.31	7.042
254.68	12.752
255.05	13.861
255.42	10.140
255.79	7.975
256.16	14.826
256.54	6.667
256.91	7.278
257.28	11.006
257.65	7.643
258.02	11.144
258.39	13.158
258.76	14.244
259.14	9.375
259.51	11.517
259.88	12.195
260.25	13.611
260.62	9.831
260.99	11.406
261.36	13.990
261.73	12.099
262.10	8.906
262.47	10.864
262.85	11.194
263.22	8.974
263.59	11.169
263.96	13.869
264.33	11.058
264.70	12.326
265.07	12.500
265.44	14.023
265.81	12.357
266.18	12.301
266.55	12.445
266.92	10.381
267.29	13.786
267.66	11.465
268.03	14.815
268.40	9.110
268.77	11.157
269.14	13.061
269.51	12.936
269.88	12.424
270.25	12.712
270.62	10.656
270.99	13.386
271.36	12.103
271.73	12.249
272.10	11.810
272.47	12.668
272.84	13.583
273.21	11.937
273.58	11.885
273.95	12.830
274.32	12.500
274.69	13.661
275.06	12.721
275.43	11.111
275.80	12.057
276.17	11.786
276.54	11.190
276.91	12.544
277.28	9.567
277.65	11.888
278.02	12.321
278.39	10.657
278.76	13.378
279.13	12.521
279.50	10.862
279.87	11.232
280.23	12.793
280.60	12.976
280.97	13.961
281.34	14.984
281.71	11.382
282.08	12.821
282.45	12.131
282.82	14.217
283.19	12.195
283.56	12.344
283.92	12.080
284.29	12.793
284.66	12.521
285.03	10.261
285.40	11.631
285.77	13.814
286.14	12.766
286.51	13.343
286.87	11.231
287.24	12.389
287.61	12.349
287.98	10.735
288.35	11.923
288.72	12.339
289.08	11.823
289.45	11.454
289.82	12.405
290.19	11.501
290.56	10.511
290.93	11.740
291.29	10.670
291.66	10.792
292.03	11.444
292.40	11.171
292.77	12.584
293.13	11.158
293.50	9.412
293.87	11.200
294.24	10.714
294.60	11.443
294.97	10.847
295.34	10.422
295.71	10.118
296.08	10.602
296.44	9.949
296.81	10.353
297.18	10.875
297.55	11.557
297.91	10.683
298.28	11.501
298.65	9.975
299.02	12.698
299.38	9.939
299.75	10.216
300.12	10.000
300.48	10.292
300.85	9.238
301.22	10.801
301.59	10.446
301.95	8.943
302.32	10.735
302.69	9.266
303.05	10.188
303.42	10.341
303.79	10.200
304.15	10.624
304.52	10.645
304.89	9.192
305.25	9.550
305.62	9.870
305.99	10.011
306.35	9.822
306.72	10.173
307.09	10.428
307.45	9.159
307.82	8.947
308.19	8.464
308.55	10.542
308.92	12.083
309.29	9.610
309.65	9.690
310.02	8.847
310.38	9.858
310.75	9.369
311.12	9.621
311.48	9.001
311.85	8.957
312.22	9.574
312.58	8.889
312.95	10.249
313.31	9.917
313.68	9.256
314.05	10.302
314.41	10.471
314.78	10.152
315.14	10.463
315.51	11.037
315.87	10.843
316.24	10.009
316.61	10.868
316.97	9.537
317.34	9.893
317.70	11.151
318.07	11.713
318.43	11.021
318.80	8.901
319.16	10.256
319.53	9.498
319.89	10.027
320.26	9.335
320.62	10.751
320.99	11.434
321.35	10.571
321.72	9.625
322.08	11.993
322.45	12.026
322.81	10.166
323.18	11.449
323.54	10.740
323.91	10.659
324.27	11.611
324.64	10.017
325.00	11.549
325.37	12.031
325.73	11.532
326.10	10.429
326.46	11.957
326.83	11.731
327.19	13.008
327.56	13.779
327.92	12.389
328.29	13.105
328.65	13.146
329.01	11.609
329.38	15.217
329.74	14.421
330.11	13.255
330.47	14.149
330.84	14.531
331.20	14.603
331.56	14.312
331.93	15.935
332.29	16.073
332.66	15.678
333.02	15.812
333.38	16.754
333.75	16.126
334.11	16.580
334.48	16.914
334.84	17.049
335.20	17.410
335.57	16.623
335.93	15.464
336.29	16.287
336.66	16.923
337.02	16.174
337.38	17.493
337.75	17.485
338.11	16.994
338.47	15.925
338.84	17.526
339.20	18.078
339.56	18.857
339.93	17.891
340.29	17.677
340.65	18.392
341.02	18.719
341.38	17.568
341.74	17.311
342.11	18.167
342.47	18.912
342.83	18.873
343.20	18.951
343.56	19.052
343.92	18.359
344.28	19.237
344.65	18.367
345.01	19.209
345.37	19.079
345.73	20.425
346.10	20.064
346.46	18.618
346.82	19.583
347.19	19.066
347.55	21.002
347.91	19.875
348.27	19.637
348.63	20.673
349.00	20.676
349.36	20.094
349.72	21.191
350.08	20.359
350.45	20.752
350.81	20.501
351.17	20.554
351.53	21.838
351.89	20.095
352.26	20.000
352.62	19.612
352.98	20.367
353.34	21.739
353.70	20.171
354.07	19.608
354.43	19.984
354.79	21.394
355.15	20.264
355.51	22.248
355.87	20.563
356.24	21.188
356.60	21.970
356.96	21.182
357.32	22.755
357.68	22.231
358.04	22.188
358.40	21.938
358.77	22.401
359.13	21.712
359.49	21.650
359.85	22.214
360.21	22.359
360.57	21.901
360.93	22.534
361.29	22.576
361.66	21.944
362.02	22.313
362.38	21.344
362.74	21.682
363.10	23.283
363.46	21.614
363.82	22.986
364.18	21.900
364.54	22.757
364.90	23.206
365.26	22.293
365.62	22.230
365.98	22.989
366.35	23.688
366.71	22.753
367.07	22.254
367.43	23.624
367.79	23.489
368.15	23.769
368.51	23.277
368.87	24.285
369.23	23.772
369.59	22.903
369.95	23.295
370.31	24.547
370.67	24.330
371.03	25.241
371.39	25.266
371.75	24.500
372.11	24.929
372.47	24.369
372.83	24.133
373.19	24.964
373.55	25.217
373.91	25.248
374.27	24.758
374.63	25.178
374.99	24.304
375.35	25.000
375.71	24.457
376.07	24.949
376.42	25.067
376.78	25.363
377.14	26.102
377.50	26.010
377.86	25.432
378.22	25.727
378.58	25.599
378.94	25.875
379.30	26.046
379.66	26.202
380.02	25.797
380.38	26.084
380.74	27.256
381.09	26.659
381.45	26.602
381.81	27.110
382.17	27.662
382.53	27.077
382.89	26.779
383.25	26.605
383.61	27.421
383.97	27.688
384.32	26.654
384.68	26.712
385.04	27.001
385.40	27.148
385.76	27.311
386.12	27.824
386.48	27.649
386.83	27.159
387.19	28.871
387.55	28.204
387.91	27.552
388.27	27.867
388.62	28.090
388.98	28.786
389.34	27.694
389.70	27.961
390.06	27.938
390.42	30.090
390.77	27.995
391.13	28.283
391.49	28.083
391.85	27.859
392.20	28.321
392.56	28.952
392.92	28.555
393.28	28.937
393.64	28.991
393.99	27.417
394.35	28.457
394.71	28.269
395.07	27.673
395.42	28.580
395.78	28.829
396.14	29.042
396.50	29.423
396.85	30.274
397.21	28.464
397.57	28.199
397.92	29.102
398.28	28.314
398.64	28.780
399.00	28.683
399.35	29.852
399.71	29.470
400.07	29.458
400.42	29.781
400.78	29.245
401.14	29.491
401.49	28.700
401.85	29.054
402.21	29.412
402.57	28.878
402.92	29.912
403.28	29.206
403.63	29.386
403.99	29.623
404.35	28.990
404.70	28.943
405.06	29.595
405.42	28.329
405.77	29.147
406.13	29.086
406.49	28.400
406.84	28.632
407.20	28.952
407.55	29.675
407.91	27.862
408.27	28.509
408.62	29.650
408.98	29.531
409.34	28.403
409.69	29.760
410.05	29.975
410.40	28.667
410.76	28.700
411.11	29.415
411.47	30.458
411.83	30.069
412.18	29.219
412.54	29.950
412.89	29.843
413.25	28.791
413.60	29.091
413.96	28.901
414.31	28.730
414.67	28.381
415.03	30.041
415.38	28.402
415.74	29.435
416.09	29.412
416.45	29.597
416.80	28.926
417.16	30.162
417.51	29.270
417.87	30.159
418.22	29.670
418.58	28.778
418.93	29.944
419.29	29.505
419.64	29.008
420.00	30.159
420.35	29.468
420.71	29.921
421.06	29.705
421.42	30.839
421.77	30.405
422.12	29.857
422.48	29.607
422.83	29.238
423.19	29.212
423.54	30.212
423.90	30.523
424.25	30.503
424.61	30.129
424.96	30.278
425.31	29.837
425.67	30.453
426.02	30.978
426.38	30.846
426.73	30.727
427.09	30.331
427.44	30.534
427.79	30.523
428.15	29.908
428.50	29.789
428.85	30.566
429.21	29.713
429.56	30.978
429.92	30.713
430.27	30.828
430.62	30.693
430.98	30.672
431.33	29.823
431.68	31.310
432.04	31.437
432.39	30.947
432.74	30.411
433.10	31.784
433.45	31.243
433.80	31.437
434.16	31.240
434.51	31.576
434.86	31.154
435.22	31.183
435.57	30.713
435.92	31.062
436.28	30.931
436.63	30.889
436.98	31.199
437.34	31.136
437.69	30.874
438.04	31.353
438.39	31.133
438.75	30.930
439.10	32.389
439.45	30.932
439.81	31.712
440.16	31.768
440.51	31.451
440.86	31.476
441.22	31.440
441.57	30.586
441.92	31.363
442.27	30.790
442.63	30.840
442.98	31.134
443.33	31.885
443.68	31.365
444.03	30.999
444.39	31.235
444.74	31.309
445.09	30.947
445.44	31.944
445.79	30.924
446.15	32.280
446.50	30.947
446.85	31.374
447.20	30.894
447.55	31.337
447.91	30.787
448.26	31.618
448.61	31.646
448.96	31.492
449.31	32.039
449.66	32.331
450.02	31.325
450.37	31.434
450.72	32.319
451.07	30.909
451.42	30.630
451.77	30.554
452.12	30.422
452.47	31.698
452.83	30.660
453.18	31.254
453.53	31.400
453.88	31.687
454.23	30.346
454.58	31.556
454.93	31.495
455.28	31.985
455.63	31.067
455.98	31.528
456.34	31.024
456.69	31.565
457.04	30.341
457.39	31.329
457.74	30.521
458.09	30.391
458.44	30.317
458.79	30.313
459.14	29.775
459.49	31.098
459.84	31.285
460.19	30.552
460.54	31.144
460.89	30.800
461.24	31.011
461.59	31.220
461.94	31.542
462.29	30.760
462.64	31.069
462.99	31.321
463.34	30.732
463.69	30.477
464.04	30.372
464.39	29.835
464.74	29.853
465.09	30.378
465.44	30.415
465.79	30.132
466.14	30.445
466.49	29.795
466.84	30.544
467.19	30.191
467.54	30.525
467.89	30.924
468.24	30.178
468.59	30.338
468.94	30.396
469.29	30.998
469.64	30.474
469.99	30.966
470.34	30.209
470.68	29.814
471.03	29.972
471.38	30.529
471.73	31.139
472.08	31.340
472.43	31.069
472.78	31.034
473.13	29.354
473.48	30.267
473.83	30.195
474.17	30.208
474.52	30.097
474.87	29.795
475.22	29.831
475.57	29.002
475.92	29.607
476.27	29.254
476.61	29.105
476.96	29.869
477.31	29.773
477.66	30.113
478.01	28.681
478.36	30.300
478.70	29.323
479.05	29.856
479.40	30.109
479.75	29.437
480.10	30.138
480.45	29.377
480.79	29.915
481.14	30.142
481.49	29.502
481.84	28.369
482.19	30.107
482.53	29.714
482.88	28.332
483.23	29.451
483.58	29.064
483.92	28.842
484.27	28.454
484.62	28.984
484.97	28.536
485.31	28.898
485.66	27.268
486.01	27.500
486.36	27.575
486.70	27.855
487.05	28.686
487.40	28.455
487.75	29.142
488.09	29.277
488.44	29.688
488.79	29.674
489.13	28.748
489.48	28.987
489.83	29.165
490.17	29.097
490.52	29.921
490.87	28.558
491.22	29.675
491.56	28.845
491.91	28.613
492.26	29.159
492.60	28.427
492.95	29.495
493.30	28.537
493.64	28.106
493.99	28.647
494.34	28.757
494.68	28.544
495.03	28.953
495.37	29.002
495.72	30.125
496.07	28.787
496.41	28.685
496.76	28.473
497.11	28.592
497.45	29.426
497.80	28.218
498.14	29.521
498.49	28.038
498.84	29.150
499.18	28.870
499.53	28.311
499.87	28.530
500.22	29.119
500.56	29.840
500.91	28.823
501.26	29.015
501.60	28.725
501.95	28.701
502.29	29.078
502.64	28.496
502.98	28.372
503.33	28.224
503.67	29.211
504.02	28.039
504.36	28.876
504.71	28.404
505.06	28.833
505.40	28.918
505.75	29.247
506.09	28.462
506.44	28.931
506.78	28.898
507.13	28.638
507.47	28.579
507.82	29.932
508.16	28.865
508.51	28.357
508.85	28.253
509.19	29.418
509.54	29.115
509.88	28.978
510.23	28.316
510.57	29.078
510.92	28.125
511.26	29.263
511.61	29.199
511.95	28.721
512.30	28.540
512.64	29.796
512.98	28.975
513.33	28.901
513.67	28.450
514.02	28.506
514.36	28.933
514.70	29.099
515.05	29.140
515.39	28.833
515.74	29.840
516.08	28.437
516.42	28.859
516.77	28.120
517.11	29.688
517.46	29.832
517.80	29.419
518.14	28.169
518.49	28.752
518.83	28.819
519.17	28.373
519.52	29.192
519.86	30.480
520.20	29.109
520.55	30.100
520.89	29.222
521.23	30.513
521.58	28.887
521.92	29.290
522.26	29.018
522.61	29.412
522.95	28.562
523.29	28.825
523.64	29.498
523.98	29.352
524.32	28.292
524.66	29.286
525.01	29.817
525.35	29.427
525.69	28.761
526.04	29.186
526.38	30.019
526.72	30.046
527.06	29.658
527.41	30.377
527.75	28.772
528.09	30.225
528.43	30.122
528.78	29.393
529.12	30.336
529.46	29.495
529.80	29.256
530.15	28.958
530.49	30.189
530.83	30.061
531.17	29.041
531.51	28.860
531.86	28.794
532.20	28.808
532.54	29.517
532.88	30.088
533.22	28.889
533.57	28.808
533.91	30.065
534.25	29.753
534.59	28.829
534.93	28.827
535.27	29.045
535.62	27.829
535.96	29.993
536.30	28.989
536.64	28.913
536.98	28.101
537.32	29.751
537.66	30.113
538.01	29.750
538.35	29.075
538.69	29.298
539.03	28.725
539.37	28.437
539.71	29.332
540.05	28.543
540.39	28.493
540.73	30.098
541.07	29.184
541.42	29.899
541.76	28.687
542.10	28.639
542.44	28.829
542.78	29.216
543.12	30.054
543.46	28.404
543.80	28.581
544.14	29.594
544.48	27.339
544.82	28.581
545.16	28.600
545.50	28.764
545.84	27.489
546.18	28.541
546.52	28.934
546.86	28.339
547.20	27.949
547.54	28.234
547.88	28.947
548.22	29.446
548.56	28.419
548.90	28.823
549.24	28.819
549.58	28.826
549.92	29.787
550.26	30.775
550.60	29.129
550.94	29.627
551.28	29.145
551.62	29.398
551.96	28.624
552.30	28.675
552.64	28.390
552.98	29.119
553.32	28.623
553.66	29.274
554.00	29.086
554.34	29.451
554.68	28.859
555.02	28.817
555.36	28.971
555.69	28.623
556.03	28.592
556.37	26.956
556.71	28.241
557.05	29.077
557.39	28.711
557.73	28.064
558.07	28.335
558.41	29.447
558.75	28.945
559.08	27.907
559.42	28.954
559.76	27.982
560.10	28.517
560.44	28.961
560.78	28.345
561.12	29.012
561.45	28.163
561.79	28.198
562.13	28.833
562.47	28.286
562.81	27.417
563.15	28.399
563.48	28.149
563.82	28.523
564.16	27.488
564.50	28.969
564.84	28.311
565.17	27.682
565.51	27.674
565.85	27.115
566.19	28.146
566.52	27.392
566.86	26.865
567.20	27.489
567.54	28.094
567.88	27.324
568.21	26.344
568.55	27.387
568.89	25.573
569.23	26.489
569.56	25.615
569.90	25.192
570.24	25.993
570.57	25.554
570.91	26.032
571.25	25.159
571.59	25.225
571.92	25.550
572.26	25.988
572.60	25.316
572.93	25.742
573.27	24.567
573.61	25.540
573.95	25.542
574.28	24.620
574.62	24.858
574.96	25.541
575.29	24.649
575.63	25.263
575.97	25.679
576.30	24.807
576.64	25.255
576.98	24.521
577.31	24.959
577.65	24.630
577.98	24.602
578.32	24.806
578.66	24.617
578.99	25.117
579.33	25.162
579.67	25.051
580.00	24.720
580.34	24.697
580.67	24.767
581.01	25.047
581.35	24.588
581.68	23.945
582.02	24.667
582.35	24.311
582.69	24.541
583.02	24.763
583.36	24.476
583.70	25.250
584.03	25.344
584.37	25.628
584.70	25.220
585.04	25.212
585.37	24.569
585.71	24.313
586.04	25.088
586.38	24.993
586.72	24.754
587.05	25.550
587.39	25.034
587.72	25.213
588.06	24.815
588.39	25.329
588.73	24.940
589.06	25.057
589.40	25.593
589.73	24.937
590.07	25.264
590.40	25.521
590.73	25.648
591.07	25.658
591.40	25.478
591.74	25.033
592.07	26.198
592.41	26.083
592.74	25.270
593.08	24.923
593.41	24.534
593.75	24.516
594.08	25.181
594.41	25.338
594.75	25.225
595.08	25.131
595.42	24.517
595.75	25.380
596.09	25.019
596.42	25.204
596.75	25.450
597.09	26.251
597.42	26.290
597.75	25.511
598.09	25.137
598.42	25.861
598.76	25.273
599.09	25.570
599.42	24.773
599.76	25.760
600.09	25.075
600.42	25.160
600.76	24.834
601.09	24.859
601.42	25.010
601.76	24.903
602.09	25.983
602.42	25.217
602.76	25.210
603.09	25.462
603.42	24.950
603.76	24.903
604.09	25.336
604.42	25.031
604.76	25.491
605.09	25.102
605.42	26.091
605.75	24.325
606.09	25.497
606.42	24.273
606.75	24.762
607.09	25.177
607.42	25.044
607.75	24.464
608.08	25.699
608.42	25.398
608.75	25.705
609.08	25.821
609.41	25.037
609.75	24.660
610.08	25.099
610.41	25.413
610.74	25.361
611.07	25.451
611.41	25.896
611.74	25.621
612.07	24.700
612.40	26.000
612.73	25.796
613.07	24.889
613.40	26.046
613.73	25.460
614.06	25.926
614.39	25.681
614.72	25.708
615.06	25.333
615.39	25.773
615.72	23.596
616.05	24.775
616.38	26.289
616.71	25.435
617.05	26.106
617.38	25.077
617.71	25.306
618.04	25.533
618.37	26.688
618.70	25.550
619.03	25.223
619.36	26.406
619.69	26.827
620.03	26.007
620.36	25.818
620.69	25.767
621.02	26.000
621.35	25.756
621.68	26.650
622.01	26.133
622.34	25.773
622.67	25.920
623.00	26.824
623.33	26.178
623.66	25.874
623.99	26.107
624.32	25.018
624.65	27.003
624.99	26.084
625.32	25.616
625.65	26.512
625.98	26.303
626.31	26.857
626.64	25.279
626.97	27.076
627.30	27.716
627.63	26.298
627.96	24.935
628.29	26.791
628.62	27.466
628.95	26.653
629.28	25.517
629.61	27.943
629.94	27.466
630.26	27.980
630.59	26.573
630.92	25.602
631.25	26.468
631.58	27.730
631.91	26.617
632.24	24.918
632.57	26.778
632.90	27.888
633.23	26.619
633.56	28.058
