SpectraSuite Data File
++++++++++++++++++++++++++++++++++++
Date: Wed May 13 21:13:28 PDT 2015
User: schluterlab
Dark Spectrum Present: Yes
Reference Spectrum Present: Yes
Number of Sampled Component Spectra: 1
Spectrometers: USB2E3373
Integration Time (usec): 3000 (USB2E3373)
Spectra Averaged: 3 (USB2E3373)
Boxcar Smoothing: 0 (USB2E3373)
Correct for Electrical Dark: No (USB2E3373)
Strobe/Lamp Enabled: No (USB2E3373)
Correct for Detector Non-linearity: No (USB2E3373)
Correct for Stray Light: No (USB2E3373)
Number of Pixels in Processed Spectrum: 2048
>>>>>Begin Processed Spectral Data<<<<<
178.53	0.000
178.91	550.000
179.29	216.667
179.67	-750.000
180.04	-600.000
180.42	360.000
180.80	1700.000
181.18	283.333
181.56	-375.000
181.94	-325.000
182.31	-118.182
182.69	115.385
183.07	-40.000
183.45	316.667
183.83	311.111
184.20	242.857
184.58	-166.667
184.96	66.667
185.34	200.000
185.72	0.000
186.09	-700.000
186.47	-180.000
186.85	60.000
187.23	-150.000
187.61	600.000
187.98	1700.000
188.36	-37.500
188.74	0.000
189.12	-54.545
189.49	-70.000
189.87	75.000
190.25	220.000
190.63	1000.000
191.00	-380.000
191.38	360.000
191.76	275.000
192.14	141.667
192.51	-36.842
192.89	600.000
193.27	450.000
193.65	-260.000
194.02	190.909
194.40	200.000
194.78	200.000
195.15	180.000
195.53	-160.000
195.91	-125.000
196.29	-133.333
196.66	0.000
197.04	500.000
197.42	20.000
197.79	40.000
198.17	-125.000
198.55	-400.000
198.92	375.000
199.30	0.000
199.68	-50.000
200.05	500.000
200.43	133.333
200.81	-2100.000
201.18	-340.000
201.56	-316.667
201.94	675.000
202.31	8.696
202.69	-57.143
203.07	-366.667
203.44	-40.000
203.82	100.000
204.19	-30.000
204.57	0.000
204.95	-266.667
205.32	0.000
205.70	-450.000
206.08	-300.000
206.45	-83.333
206.83	100.000
207.20	-233.333
207.58	-100.000
207.96	-1300.000
208.33	-157.143
208.71	-1800.000
209.08	287.500
209.46	425.000
209.84	0.000
210.21	150.000
210.59	1600.000
210.96	500.000
211.34	1600.000
211.71	-1050.000
212.09	-333.333
212.46	-130.000
212.84	-200.000
213.22	-100.000
213.59	-900.000
213.97	-1000.000
214.34	-900.000
214.72	-92.308
215.09	287.500
215.47	200.000
215.84	900.000
216.22	0.000
216.59	-250.000
216.97	766.667
217.34	200.000
217.72	0.000
218.09	566.667
218.47	100.000
218.84	-157.143
219.22	-187.500
219.59	-133.333
219.97	-200.000
220.34	-37.500
220.72	-260.000
221.09	0.000
221.47	-233.333
221.84	-900.000
222.22	0.000
222.59	2100.000
222.97	-333.333
223.34	-91.667
223.72	-1200.000
224.09	-700.000
224.46	-100.000
224.84	-125.000
225.21	-185.714
225.59	-400.000
225.96	-16.667
226.34	-150.000
226.71	-142.857
227.08	850.000
227.46	-62.500
227.83	-700.000
228.21	-37.500
228.58	-125.000
228.95	-52.941
229.33	-50.000
229.70	-87.500
230.08	-53.846
230.45	-100.000
230.82	-150.000
231.20	300.000
231.57	-250.000
231.95	1200.000
232.32	-16.667
232.69	-29.412
233.07	-700.000
233.44	-30.435
233.81	-950.000
234.19	-12.500
234.56	-106.667
234.93	-113.333
235.31	-47.368
235.68	-146.154
236.05	-84.615
236.43	-61.111
236.80	-18.182
237.17	-106.667
237.55	-41.176
237.92	-6.897
238.29	-40.741
238.67	-13.889
239.04	-32.258
239.41	-40.426
239.79	4.255
240.16	-9.302
240.53	-8.929
240.91	-3.571
241.28	-7.143
241.65	-6.452
242.02	-6.579
242.40	-4.348
242.77	-20.290
243.14	-15.385
243.51	-2.128
243.89	-5.769
244.26	5.660
244.63	-1.923
245.00	7.292
245.38	-0.840
245.75	0.820
246.12	0.000
246.49	-13.008
246.87	-13.445
247.24	-1.351
247.61	-6.623
247.98	-3.205
248.36	0.592
248.73	-4.494
249.10	-3.030
249.47	0.538
249.84	-1.579
250.22	-0.995
250.59	1.869
250.96	3.182
251.33	-2.871
251.70	2.510
252.08	2.092
252.45	4.527
252.82	0.760
253.19	-0.389
253.56	2.518
253.94	3.203
254.31	3.521
254.68	8.725
255.05	2.310
255.42	1.748
255.79	3.374
256.16	4.416
256.54	2.222
256.91	2.215
257.28	1.887
257.65	1.592
258.02	2.053
258.39	3.801
258.76	2.616
259.14	1.420
259.51	1.966
259.88	5.149
260.25	4.167
260.62	1.685
260.99	4.509
261.36	8.290
261.73	1.975
262.10	1.272
262.47	1.975
262.85	2.736
263.22	2.564
263.59	0.519
263.96	2.676
264.33	2.163
264.70	2.558
265.07	4.630
265.44	4.368
265.81	3.204
266.18	3.417
266.55	3.275
266.92	3.390
267.29	3.292
267.66	3.397
268.03	5.144
268.40	2.119
268.77	5.165
269.14	4.490
269.51	8.419
269.88	4.684
270.25	3.602
270.62	1.230
270.99	5.315
271.36	4.960
271.73	4.016
272.10	4.381
272.47	3.071
272.84	3.937
273.21	3.523
273.58	2.049
273.95	3.962
274.32	4.291
274.69	5.464
275.06	6.890
275.43	5.273
275.80	5.319
276.17	2.947
276.54	1.954
276.91	3.484
277.28	2.347
277.65	3.497
278.02	4.464
278.39	2.309
278.76	3.846
279.13	4.288
279.50	3.103
279.87	3.623
280.23	4.685
280.60	2.249
280.97	2.435
281.34	4.574
281.71	2.927
282.08	3.590
282.45	2.131
282.82	4.792
283.19	6.250
283.56	5.156
283.92	4.740
284.29	3.432
284.66	3.789
285.03	2.932
285.40	3.625
285.77	5.255
286.14	4.559
286.51	5.847
286.87	2.308
287.24	4.720
287.61	4.217
287.98	4.118
288.35	2.385
288.72	5.452
289.08	5.698
289.45	4.993
289.82	3.782
290.19	4.769
290.56	3.125
290.93	3.591
291.29	4.514
291.66	3.552
292.03	5.041
292.40	3.903
292.77	5.221
293.13	3.347
293.50	3.791
293.87	5.467
294.24	3.307
294.60	4.681
294.97	4.762
295.34	2.507
295.71	2.628
296.08	3.665
296.44	1.913
296.81	3.410
297.18	5.125
297.55	4.953
297.91	2.981
298.28	4.843
298.65	2.463
299.02	4.151
299.38	4.417
299.75	3.245
300.12	3.488
300.48	3.041
300.85	3.926
301.22	4.762
301.59	3.052
301.95	2.439
302.32	3.734
302.69	2.147
303.05	3.876
303.42	3.864
303.79	4.311
304.15	3.614
304.52	4.516
304.89	2.326
305.25	2.744
305.62	4.013
305.99	4.570
306.35	3.866
306.72	5.290
307.09	3.650
307.45	4.153
307.82	3.474
308.19	2.508
308.55	2.559
308.92	4.912
309.29	3.203
309.65	3.397
310.02	3.678
310.38	4.370
310.75	3.057
311.12	3.887
311.48	3.660
311.85	3.051
312.22	3.772
312.58	3.285
312.95	3.881
313.31	3.306
313.68	3.340
314.05	4.253
314.41	4.323
314.78	3.890
315.14	3.981
315.51	4.472
315.87	3.892
316.24	3.857
316.61	4.110
316.97	4.352
317.34	4.189
317.70	4.550
318.07	6.122
318.43	5.149
318.80	5.148
319.16	4.509
319.53	4.032
319.89	5.149
320.26	4.344
320.62	4.078
320.99	5.814
321.35	6.829
321.72	5.294
322.08	7.011
322.45	6.846
322.81	6.470
323.18	6.887
323.54	7.040
323.91	6.323
324.27	7.831
324.64	6.533
325.00	6.212
325.37	7.423
325.73	7.828
326.10	7.738
326.46	9.281
326.83	8.414
327.19	9.350
327.56	10.717
327.92	10.217
328.29	10.768
328.65	11.306
329.01	9.147
329.38	11.391
329.74	11.073
330.11	11.001
330.47	10.851
330.84	11.823
331.20	12.980
331.56	11.866
331.93	12.920
332.29	12.685
332.66	12.797
333.02	14.075
333.38	11.491
333.75	13.225
334.11	13.628
334.48	13.775
334.84	12.809
335.20	13.722
335.57	12.968
335.93	12.199
336.29	13.573
336.66	14.017
337.02	14.609
337.38	13.055
337.75	15.418
338.11	13.578
338.47	13.185
338.84	13.660
339.20	14.727
339.56	14.676
339.93	14.520
340.29	13.237
340.65	14.542
341.02	15.225
341.38	14.780
341.74	14.538
342.11	14.451
342.47	14.812
342.83	15.359
343.20	15.398
343.56	15.209
343.92	15.841
344.28	15.503
344.65	15.673
345.01	14.770
345.37	15.461
345.73	15.931
346.10	16.372
346.46	16.260
346.82	14.848
347.19	15.981
347.55	14.863
347.91	16.212
348.27	16.009
348.63	15.545
349.00	15.802
349.36	17.268
349.72	16.783
350.08	15.913
350.45	16.132
350.81	17.136
351.17	17.552
351.53	16.496
351.89	15.250
352.26	15.830
352.62	16.977
352.98	17.013
353.34	16.184
353.70	17.290
354.07	17.647
354.43	17.107
354.79	17.949
355.15	16.848
355.51	17.008
355.87	16.341
356.24	16.934
356.60	17.670
356.96	18.112
357.32	17.570
357.68	17.876
358.04	17.300
358.40	18.295
358.77	17.966
359.13	18.599
359.49	17.790
359.85	17.817
360.21	17.887
360.57	17.947
360.93	18.665
361.29	18.579
361.66	18.299
362.02	17.494
362.38	18.759
362.74	17.766
363.10	18.077
363.46	18.444
363.82	18.182
364.18	19.362
364.54	18.964
364.90	17.840
365.26	18.684
365.62	19.815
365.98	19.644
366.35	19.716
366.71	18.474
367.07	20.411
367.43	18.746
367.79	18.624
368.15	20.745
368.51	19.269
368.87	19.888
369.23	20.285
369.59	19.168
369.95	19.376
370.31	19.735
370.67	19.696
371.03	20.341
371.39	20.440
371.75	21.143
372.11	21.368
372.47	21.197
372.83	21.290
373.19	20.072
373.55	20.159
373.91	20.934
374.27	20.885
374.63	20.057
374.99	20.404
375.35	20.822
375.71	20.041
376.07	21.042
376.42	21.324
376.78	21.731
377.14	22.169
377.50	22.229
377.86	22.444
378.22	21.745
378.58	21.438
378.94	22.750
379.30	22.236
379.66	22.133
380.02	21.752
380.38	22.952
380.74	22.654
381.09	22.618
381.45	22.975
381.81	22.304
382.17	23.062
382.53	23.015
382.89	23.341
383.25	24.074
383.61	25.061
383.97	23.938
384.32	22.621
384.68	23.751
385.04	23.458
385.40	23.163
385.76	22.993
386.12	24.145
386.48	23.699
386.83	23.842
387.19	24.923
387.55	24.893
387.91	24.293
388.27	24.599
388.62	24.906
388.98	24.906
389.34	24.937
389.70	24.420
390.06	24.562
390.42	25.064
390.77	26.073
391.13	24.937
391.49	24.794
391.85	25.431
392.20	25.125
392.56	26.095
392.92	25.044
393.28	25.799
393.64	25.321
393.99	25.031
394.35	25.679
394.71	25.705
395.07	24.780
395.42	27.057
395.78	25.225
396.14	26.633
396.50	25.491
396.85	25.749
397.21	25.343
397.57	25.280
397.92	26.168
398.28	26.565
398.64	25.440
399.00	26.842
399.35	27.412
399.71	26.092
400.07	26.747
400.42	26.270
400.78	26.284
401.14	26.242
401.49	26.483
401.85	26.904
402.21	27.430
402.57	26.793
402.92	27.597
403.28	27.142
403.63	27.340
403.99	26.999
404.35	26.621
404.70	27.130
405.06	27.246
405.42	25.879
405.77	26.843
406.13	26.000
406.49	27.262
406.84	27.228
407.20	26.643
407.55	26.883
407.91	26.605
408.27	25.889
408.62	27.010
408.98	26.757
409.34	26.733
409.69	27.550
410.05	26.679
410.40	27.024
410.76	27.256
411.11	27.425
411.47	28.003
411.83	26.575
412.18	27.204
412.54	27.757
412.89	27.335
413.25	26.785
413.60	26.583
413.96	28.340
414.31	27.435
414.67	26.095
415.03	27.605
415.38	26.750
415.74	27.420
416.09	28.486
416.45	28.230
416.80	27.785
417.16	28.138
417.51	26.859
417.87	27.183
418.22	27.537
418.58	27.858
418.93	28.060
419.29	27.987
419.64	27.163
420.00	27.619
420.35	28.213
420.71	27.849
421.06	27.860
421.42	28.102
421.77	28.092
422.12	28.940
422.48	28.571
422.83	29.179
423.19	28.695
423.54	28.151
423.90	28.266
424.25	29.867
424.61	28.959
424.96	27.676
425.31	28.043
425.67	29.924
426.02	29.388
426.38	29.602
426.73	30.116
427.09	29.456
427.44	28.773
427.79	28.682
428.15	28.440
428.50	28.822
428.85	30.381
429.21	29.826
429.56	29.915
429.92	29.464
430.27	29.601
430.62	29.801
430.98	29.402
431.33	29.930
431.68	31.150
432.04	30.085
432.39	30.023
432.74	30.595
433.10	31.435
433.45	31.361
433.80	29.195
434.16	29.601
434.51	30.272
434.86	30.153
435.22	30.730
435.57	30.221
435.92	31.544
436.28	31.171
436.63	31.640
436.98	30.905
437.34	30.891
437.69	30.224
438.04	30.560
438.39	31.196
438.75	30.989
439.10	31.174
439.45	31.659
439.81	30.850
440.16	31.188
440.51	30.916
440.86	31.120
441.22	31.612
441.57	32.050
441.92	31.208
442.27	31.494
442.63	31.808
442.98	31.481
443.33	31.546
443.68	31.682
444.03	31.644
444.39	32.077
444.74	31.585
445.09	31.883
445.44	32.000
445.79	31.802
446.15	31.725
446.50	31.278
446.85	32.015
447.20	32.619
447.55	31.505
447.91	31.404
448.26	31.904
448.61	31.415
448.96	33.030
449.31	32.267
449.66	31.637
450.02	31.893
450.37	31.845
450.72	32.032
451.07	32.665
451.42	31.441
451.77	32.502
452.12	32.799
452.47	32.408
452.83	31.132
453.18	31.891
453.53	31.967
453.88	32.711
454.23	32.015
454.58	31.618
454.93	30.981
455.28	31.728
455.63	31.503
455.98	31.102
456.34	31.278
456.69	32.077
457.04	31.641
457.39	30.427
457.74	31.059
458.09	31.398
458.44	31.081
458.79	31.631
459.14	30.955
459.49	30.854
459.84	31.511
460.19	30.372
460.54	30.779
460.89	31.644
461.24	31.998
461.59	31.643
461.94	31.416
462.29	31.801
462.64	31.992
462.99	31.388
463.34	31.561
463.69	31.637
464.04	30.792
464.39	31.117
464.74	30.835
465.09	31.308
465.44	31.538
465.79	30.420
466.14	30.445
466.49	31.378
466.84	31.381
467.19	31.465
467.54	31.303
467.89	31.992
468.24	31.469
468.59	31.485
468.94	31.609
469.29	31.923
469.64	31.311
469.99	31.655
470.34	30.681
470.68	31.673
471.03	32.228
471.38	31.085
471.73	30.041
472.08	31.546
472.43	31.332
472.78	30.967
473.13	30.013
473.48	29.615
473.83	29.692
474.17	31.315
474.52	31.715
474.87	31.785
475.22	31.461
475.57	30.675
475.92	30.262
476.27	30.653
476.61	29.955
476.96	31.525
477.31	30.636
477.66	31.130
478.01	30.549
478.36	29.918
478.70	31.472
479.05	31.521
479.40	31.201
479.75	30.446
480.10	30.036
480.45	29.868
480.79	30.413
481.14	31.104
481.49	30.636
481.84	30.019
482.19	30.384
482.53	30.190
482.88	30.201
483.23	29.836
483.58	30.293
483.92	30.010
484.27	30.558
484.62	30.093
484.97	30.153
485.31	29.825
485.66	27.796
486.01	27.989
486.36	28.184
486.70	28.482
487.05	29.743
487.40	30.058
487.75	30.462
488.09	29.934
488.44	29.688
488.79	30.734
489.13	29.901
489.48	29.927
489.83	30.147
490.17	29.596
490.52	30.809
490.87	29.393
491.22	29.439
491.56	30.618
491.91	29.477
492.26	29.981
492.60	30.495
492.95	30.175
493.30	29.409
493.64	28.921
493.99	29.565
494.34	30.106
494.68	29.976
495.03	29.792
495.37	30.462
495.72	30.276
496.07	30.102
496.41	29.621
496.76	29.570
497.11	30.282
497.45	29.621
497.80	29.682
498.14	29.773
498.49	29.652
498.84	30.162
499.18	29.617
499.53	29.690
499.87	28.918
500.22	29.517
500.56	29.689
500.91	29.577
501.26	30.099
501.60	29.510
501.95	29.995
502.29	29.175
502.64	29.267
502.98	28.998
503.33	29.489
503.67	28.870
504.02	29.216
504.36	29.470
504.71	29.522
505.06	29.852
505.40	29.588
505.75	30.264
506.09	29.842
506.44	29.990
506.78	29.761
507.13	31.185
507.47	28.261
507.82	29.252
508.16	29.974
508.51	30.114
508.85	29.445
509.19	29.471
509.54	30.134
509.88	29.516
510.23	29.316
510.57	29.714
510.92	30.011
511.26	29.758
511.61	29.363
511.95	30.154
512.30	29.706
512.64	30.420
512.98	29.640
513.33	29.690
513.67	29.756
514.02	29.590
514.36	29.326
514.70	30.370
515.05	30.778
515.39	29.953
515.74	29.722
516.08	29.912
516.42	29.205
516.77	30.346
517.11	30.100
517.46	30.912
517.80	30.751
518.14	30.129
518.49	29.114
518.83	29.833
519.17	30.482
519.52	30.639
519.86	31.208
520.20	30.625
520.55	29.478
520.89	30.108
521.23	30.897
521.58	30.784
521.92	29.604
522.26	30.189
522.61	30.511
522.95	30.764
523.29	30.159
523.64	31.087
523.98	30.813
524.32	30.120
524.66	30.649
525.01	30.472
525.35	31.534
525.69	31.213
526.04	31.792
526.38	30.338
526.72	30.572
527.06	30.303
527.41	29.914
527.75	29.573
528.09	31.314
528.43	30.733
528.78	30.879
529.12	31.048
529.46	30.582
529.80	31.003
530.15	29.794
530.49	31.941
530.83	31.483
531.17	30.890
531.51	29.535
531.86	31.030
532.20	31.082
532.54	29.241
532.88	31.110
533.22	30.370
533.57	30.265
533.91	30.839
534.25	30.469
534.59	30.116
534.93	31.122
535.27	30.191
535.62	29.013
535.96	30.124
536.30	30.652
536.64	29.938
536.98	29.993
537.32	30.534
537.66	31.876
538.01	29.542
538.35	29.627
538.69	29.699
539.03	29.732
539.37	29.443
539.71	30.628
540.05	29.892
540.39	29.938
540.73	29.539
541.07	29.592
541.42	29.562
541.76	30.108
542.10	29.993
542.44	30.076
542.78	29.702
543.12	30.256
543.46	29.233
543.80	30.075
544.14	30.833
544.48	29.595
544.82	30.195
545.16	28.736
545.50	30.115
545.84	29.593
546.18	30.084
546.52	30.064
546.86	29.682
547.20	28.592
547.54	29.521
547.88	30.567
548.22	29.055
548.56	29.019
548.90	29.161
549.24	30.208
549.58	30.534
549.92	31.401
550.26	31.734
550.60	30.706
550.94	30.448
551.28	29.296
551.62	29.474
551.96	31.332
552.30	29.476
552.64	29.802
552.98	30.824
553.32	29.488
553.66	30.227
554.00	29.734
554.34	29.377
554.68	30.500
555.02	29.416
555.36	31.543
555.69	29.060
556.03	30.093
556.37	29.587
556.71	29.222
557.05	29.225
557.39	29.691
557.73	31.694
558.07	30.369
558.41	30.129
558.75	29.946
559.08	29.110
559.42	30.763
559.76	29.587
560.10	29.669
560.44	29.035
560.78	29.640
561.12	29.432
561.45	29.592
561.79	28.748
562.13	30.520
562.47	29.786
562.81	29.149
563.15	29.391
563.48	28.011
563.82	28.591
564.16	29.452
564.50	29.783
564.84	28.784
565.17	29.603
565.51	29.211
565.85	28.181
566.19	29.272
566.52	28.113
566.86	28.824
567.20	28.894
567.54	28.440
567.88	27.044
568.21	27.322
568.55	27.178
568.89	27.567
569.23	27.085
569.56	28.327
569.90	26.764
570.24	26.462
570.57	26.100
570.91	27.031
571.25	26.210
571.59	25.977
571.92	26.078
572.26	26.314
572.60	26.055
572.93	26.086
573.27	25.934
573.61	26.087
573.95	25.727
574.28	25.703
574.62	25.796
574.96	25.886
575.29	25.727
575.63	25.790
575.97	26.440
576.30	25.330
576.64	25.308
576.98	26.034
577.31	26.091
577.65	25.006
577.98	25.388
578.32	25.112
578.66	25.286
578.99	25.681
579.33	25.937
579.67	26.069
580.00	25.267
580.34	25.885
580.67	25.527
581.01	25.187
581.35	25.193
581.68	24.778
582.02	25.495
582.35	25.432
582.69	25.546
583.02	25.564
583.36	25.465
583.70	26.277
584.03	25.694
584.37	26.339
584.70	25.513
585.04	25.830
585.37	25.614
585.71	25.109
586.04	25.363
586.38	25.441
586.72	25.569
587.05	25.860
587.39	25.713
587.72	25.399
588.06	25.308
588.39	26.085
588.73	25.933
589.06	25.057
589.40	26.625
589.73	25.907
590.07	25.848
590.40	25.748
590.73	26.945
591.07	26.285
591.40	26.348
591.74	26.145
592.07	26.244
592.41	27.242
592.74	26.042
593.08	25.607
593.41	25.690
593.75	24.806
594.08	26.252
594.41	25.667
594.75	26.537
595.08	25.803
595.42	25.412
595.75	26.392
596.09	26.251
596.42	26.634
596.75	25.801
597.09	26.752
597.42	26.200
597.75	26.533
598.09	25.956
598.42	27.114
598.76	26.406
599.09	26.331
599.42	26.246
599.76	26.023
600.09	26.205
600.42	26.365
600.76	25.573
601.09	25.951
601.42	26.068
601.76	25.367
602.09	26.267
602.42	26.785
602.76	26.552
603.09	25.421
603.42	25.910
603.76	25.565
604.09	25.296
604.42	25.827
604.76	26.015
605.09	25.963
605.42	26.046
605.75	26.210
606.09	25.124
606.42	26.226
606.75	25.152
607.09	26.064
607.42	25.701
607.75	24.945
608.08	25.789
608.42	26.007
608.75	26.183
609.08	25.919
609.41	25.435
609.75	25.870
610.08	25.690
610.41	26.433
610.74	26.227
611.07	26.253
611.41	27.021
611.74	26.139
612.07	26.055
612.40	26.865
612.73	26.509
613.07	25.721
613.40	25.936
613.73	26.002
614.06	25.760
614.39	25.681
614.72	27.540
615.06	25.778
615.39	25.773
615.72	24.946
616.05	25.901
616.38	26.575
616.71	24.835
617.05	27.088
617.38	25.878
617.71	25.429
618.04	26.752
618.37	26.625
618.70	27.296
619.03	26.667
619.36	26.619
619.69	26.462
620.03	27.208
620.36	26.722
620.69	26.053
621.02	26.385
621.35	26.410
621.68	26.976
622.01	27.104
622.34	26.566
622.67	26.703
623.00	26.596
623.33	27.225
623.66	26.022
623.99	27.382
624.32	26.559
624.65	27.226
624.99	26.231
625.32	27.558
625.65	26.822
625.98	26.619
626.31	27.592
626.64	25.967
626.97	27.422
627.30	27.545
627.63	26.471
627.96	26.667
628.29	28.837
628.62	26.402
628.95	27.956
629.28	28.473
629.61	28.134
629.94	28.143
630.26	28.670
630.59	27.672
630.92	27.008
631.25	27.291
631.58	29.979
631.91	26.299
632.24	27.552
632.57	26.556
632.90	27.771
633.23	26.859
633.56	27.698
633.89	27.990
634.22	30.153
634.55	28.258
634.88	27.696
635.20	28.125
635.53	27.519
635.86	29.103
636.19	29.280
636.52	27.073
