SpectraSuite Data File
++++++++++++++++++++++++++++++++++++
Date: Wed May 13 20:24:53 PDT 2015
User: schluterlab
Dark Spectrum Present: Yes
Reference Spectrum Present: Yes
Number of Sampled Component Spectra: 1
Spectrometers: USB2E3373
Integration Time (usec): 3000 (USB2E3373)
Spectra Averaged: 3 (USB2E3373)
Boxcar Smoothing: 0 (USB2E3373)
Correct for Electrical Dark: No (USB2E3373)
Strobe/Lamp Enabled: No (USB2E3373)
Correct for Detector Non-linearity: No (USB2E3373)
Correct for Stray Light: No (USB2E3373)
Number of Pixels in Processed Spectrum: 2048
>>>>>Begin Processed Spectral Data<<<<<
178.53	0.000
178.91	-1200.000
179.29	-1250.000
179.67	-227.778
180.04	-1325.000
180.42	2600.000
180.80	1080.000
181.18	-1225.000
181.56	814.286
181.94	0.000
182.31	-485.714
182.69	1566.667
183.07	-587.500
183.45	-488.889
183.83	481.818
184.20	-370.000
184.58	2350.000
184.96	5100.000
185.34	-740.000
185.72	-600.000
186.09	-2600.000
186.47	2150.000
186.85	2000.000
187.23	4200.000
187.61	-1633.333
187.98	1225.000
188.36	545.455
188.74	527.273
189.12	-980.000
189.49	590.000
189.87	-4800.000
190.25	-1175.000
190.63	364.286
191.00	384.615
191.38	766.667
191.76	-1175.000
192.14	1400.000
192.51	637.500
192.89	1033.333
193.27	550.000
193.65	-1125.000
194.02	570.000
194.40	1000.000
194.78	490.000
195.15	516.667
195.53	610.000
195.91	-1650.000
196.29	387.500
196.66	300.000
197.04	-380.000
197.42	0.000
197.79	600.000
198.17	-5000.000
198.55	671.429
198.92	600.000
199.30	740.000
199.68	0.000
200.05	272.222
200.43	757.143
200.81	4000.000
201.18	1100.000
201.56	-1533.333
201.94	544.444
202.31	611.111
202.69	433.333
203.07	530.000
203.44	0.000
203.82	1325.000
204.19	842.857
204.57	421.429
204.95	637.500
205.32	1500.000
205.70	472.727
206.08	450.000
206.45	2600.000
206.83	368.750
207.20	800.000
207.58	900.000
207.96	283.333
208.33	675.000
208.71	-783.333
209.08	714.286
209.46	511.111
209.84	463.636
210.21	-1733.333
210.59	1350.000
210.96	-500.000
211.34	1850.000
211.71	600.000
212.09	683.333
212.46	0.000
212.84	1633.333
213.22	1200.000
213.59	-4300.000
213.97	733.333
214.34	671.429
214.72	518.182
215.09	820.000
215.47	-2650.000
215.84	-2350.000
216.22	1700.000
216.59	357.143
216.97	1400.000
217.34	500.000
217.72	-766.667
218.09	0.000
218.47	-4500.000
218.84	622.222
219.22	742.857
219.59	1633.333
219.97	-628.571
220.34	880.000
220.72	-1533.333
221.09	392.857
221.47	1375.000
221.84	-833.333
222.22	0.000
222.59	1250.000
222.97	-2750.000
223.34	1120.000
223.72	361.538
224.09	900.000
224.46	2200.000
224.84	-4300.000
225.21	-840.000
225.59	-3700.000
225.96	540.000
226.34	250.000
226.71	2600.000
227.08	562.500
227.46	500.000
227.83	-975.000
228.21	-2350.000
228.58	522.222
228.95	-2250.000
229.33	-1750.000
229.70	1300.000
230.08	728.571
230.45	-540.000
230.82	475.000
231.20	716.667
231.57	657.143
231.95	408.333
232.32	268.182
232.69	427.273
233.07	700.000
233.44	300.000
233.81	-1366.667
234.19	310.526
234.56	450.000
234.93	350.000
235.31	336.364
235.68	300.000
236.05	328.571
236.43	148.485
236.80	278.947
237.17	3800.000
237.55	214.286
237.92	200.000
238.29	204.762
238.67	148.387
239.04	179.310
239.41	147.222
239.79	123.913
240.16	116.667
240.53	127.273
240.91	113.725
241.28	98.000
241.65	104.000
242.02	84.058
242.40	87.097
242.77	88.333
243.14	78.495
243.51	80.899
243.89	61.176
244.26	60.000
244.63	55.914
245.00	57.447
245.38	66.337
245.75	42.056
246.12	50.459
246.49	62.044
246.87	63.200
247.24	57.692
247.61	45.714
247.98	45.098
248.36	36.486
248.73	45.860
249.10	42.038
249.47	42.938
249.84	39.572
250.22	39.037
250.59	36.095
250.96	36.869
251.33	36.967
251.70	41.584
252.08	31.905
252.45	37.220
252.82	31.304
253.19	34.468
253.56	33.725
253.94	33.195
254.31	37.500
254.68	35.000
255.05	28.782
255.42	30.488
255.79	29.779
256.16	32.130
256.54	27.915
256.91	30.961
257.28	26.619
257.65	30.033
258.02	28.261
258.39	30.284
258.76	27.090
259.14	29.464
259.51	26.140
259.88	25.776
260.25	27.190
260.62	27.168
260.99	27.019
261.36	30.030
261.73	26.074
262.10	24.709
262.47	30.423
262.85	26.462
263.22	23.932
263.59	28.490
263.96	25.275
264.33	29.504
264.70	25.526
265.07	28.900
265.44	25.000
265.81	23.601
266.18	25.377
266.55	26.585
266.92	25.307
267.29	28.009
267.66	24.083
268.03	23.409
268.40	22.196
268.77	25.537
269.14	22.523
269.51	28.442
269.88	24.709
270.25	24.379
270.62	23.371
270.99	25.806
271.36	23.176
271.73	23.832
272.10	25.652
272.47	24.731
272.84	25.541
273.21	24.109
273.58	21.179
273.95	24.528
274.32	23.967
274.69	22.484
275.06	22.441
275.43	22.979
275.80	20.641
276.17	21.792
276.54	23.909
276.91	22.727
277.28	21.484
277.65	24.952
278.02	23.188
278.39	23.438
278.76	22.000
279.13	23.396
279.50	21.601
279.87	24.303
280.23	21.956
280.60	21.470
280.97	22.551
281.34	21.239
281.71	21.818
282.08	21.689
282.45	21.818
282.82	22.913
283.19	20.856
283.56	21.930
283.92	22.843
284.29	21.869
284.66	21.597
285.03	19.711
285.40	20.246
285.77	21.044
286.14	20.380
286.51	21.167
286.87	21.026
287.24	20.684
287.61	19.743
287.98	20.779
288.35	18.700
288.72	19.782
289.08	19.092
289.45	18.946
289.82	19.837
290.19	18.053
290.56	18.530
290.93	17.069
291.29	16.871
291.66	18.732
292.03	18.169
292.40	19.383
292.77	18.047
293.13	18.358
293.50	17.493
293.87	18.370
294.24	16.741
294.60	17.031
294.97	17.587
295.34	18.618
295.71	16.477
296.08	16.952
296.44	15.956
296.81	16.513
297.18	18.293
297.55	15.040
297.91	16.623
298.28	17.805
298.65	17.102
299.02	16.733
299.38	16.069
299.75	14.960
300.12	14.559
300.48	15.750
300.85	16.523
301.22	15.924
301.59	14.520
301.95	15.995
302.32	14.121
302.69	16.010
303.05	15.758
303.42	15.309
303.79	14.836
304.15	15.385
304.52	14.137
304.89	14.286
305.25	13.921
305.62	15.742
305.99	15.584
306.35	15.884
306.72	14.462
307.09	15.094
307.45	14.752
307.82	13.839
308.19	14.901
308.55	13.484
308.92	14.393
309.29	14.044
309.65	13.256
310.02	13.531
310.38	15.054
310.75	13.833
311.12	15.455
311.48	15.361
311.85	16.143
312.22	14.360
312.58	13.410
312.95	15.839
313.31	13.204
313.68	14.241
314.05	15.385
314.41	14.472
314.78	13.897
315.14	14.499
315.51	14.418
315.87	14.950
316.24	13.505
316.61	14.815
316.97	13.209
317.34	12.524
317.70	14.245
318.07	14.918
318.43	15.068
318.80	15.089
319.16	14.218
319.53	14.447
319.89	15.619
320.26	15.500
320.62	15.575
320.99	14.747
321.35	15.152
321.72	14.682
322.08	15.696
322.45	16.219
322.81	17.829
323.18	15.511
323.54	16.698
323.91	16.415
324.27	15.870
324.64	15.191
325.00	15.960
325.37	17.288
325.73	17.056
326.10	16.152
326.46	17.025
326.83	18.464
327.19	17.336
327.56	17.596
327.92	17.498
328.29	18.190
328.65	19.153
329.01	18.773
329.38	17.669
329.74	18.467
330.11	18.379
330.47	19.100
330.84	20.129
331.20	18.579
331.56	18.991
331.93	18.796
332.29	18.722
332.66	19.292
333.02	19.196
333.38	18.880
333.75	19.430
334.11	19.306
334.48	19.698
334.84	19.669
335.20	19.455
335.57	18.858
335.93	17.589
336.29	18.773
336.66	20.108
337.02	18.009
337.38	19.907
337.75	18.806
338.11	19.338
338.47	19.521
338.84	19.432
339.20	18.532
339.56	20.620
339.93	18.273
340.29	19.746
340.65	18.538
341.02	19.372
341.38	19.662
341.74	19.386
342.11	20.000
342.47	18.590
342.83	19.692
343.20	19.913
343.56	18.618
343.92	19.649
344.28	19.303
344.65	19.347
345.01	19.529
345.37	18.182
345.73	19.120
346.10	19.523
346.46	19.576
346.82	19.852
347.19	19.298
347.55	19.130
347.91	19.579
348.27	19.638
348.63	20.987
349.00	19.175
349.36	20.033
349.72	19.487
350.08	18.963
350.45	20.993
350.81	18.846
351.17	20.097
351.53	19.492
351.89	19.472
352.26	19.416
352.62	20.289
352.98	19.125
353.34	19.063
353.70	18.740
354.07	19.355
354.43	18.810
354.79	20.032
355.15	18.915
355.51	20.544
355.87	19.429
356.24	20.195
356.60	19.407
356.96	19.791
357.32	19.951
357.68	20.866
358.04	19.240
358.40	19.636
358.77	20.031
359.13	20.047
359.49	20.392
359.85	18.889
360.21	19.537
360.57	20.545
360.93	20.385
361.29	19.803
361.66	19.427
362.02	20.597
362.38	20.684
362.74	20.015
363.10	20.281
363.46	20.029
363.82	20.333
364.18	20.558
364.54	21.174
364.90	20.963
365.26	19.632
365.62	20.672
365.98	20.964
366.35	19.842
366.71	20.824
367.07	21.049
367.43	21.263
367.79	21.627
368.15	22.701
368.51	20.930
368.87	21.699
369.23	21.726
369.59	21.289
369.95	21.765
370.31	20.869
370.67	20.507
371.03	22.622
371.39	22.303
371.75	21.324
372.11	20.697
372.47	22.287
372.83	22.550
373.19	20.882
373.55	21.729
373.91	23.638
374.27	21.306
374.63	20.509
374.99	21.822
375.35	21.493
375.71	21.522
376.07	22.497
376.42	22.627
376.78	22.664
377.14	21.506
377.50	22.384
377.86	22.074
378.22	21.934
378.58	21.429
378.94	22.376
379.30	22.010
379.66	22.970
380.02	23.096
380.38	21.797
380.74	22.929
381.09	22.494
381.45	22.557
381.81	23.280
382.17	23.376
382.53	23.082
382.89	23.272
383.25	22.952
383.61	23.668
383.97	22.952
384.32	23.019
384.68	22.615
385.04	22.803
385.40	24.087
385.76	22.912
386.12	23.510
386.48	22.593
386.83	23.926
387.19	23.871
387.55	23.253
387.91	23.035
388.27	23.544
388.62	23.663
388.98	22.604
389.34	23.529
389.70	24.096
390.06	24.525
390.42	23.411
390.77	23.537
391.13	23.357
391.49	24.112
391.85	23.297
392.20	23.533
392.56	23.990
392.92	23.779
393.28	22.604
393.64	23.921
393.99	24.252
394.35	23.635
394.71	23.839
395.07	24.112
395.42	23.362
395.78	22.901
396.14	23.588
396.50	24.561
396.85	23.967
397.21	24.476
397.57	23.807
397.92	24.279
398.28	23.206
398.64	24.134
399.00	24.007
399.35	23.294
399.71	23.264
400.07	24.483
400.42	24.417
400.78	25.211
401.14	23.659
401.49	24.179
401.85	23.170
402.21	23.413
402.57	24.306
402.92	23.897
403.28	24.297
403.63	24.257
403.99	23.312
404.35	23.758
404.70	24.281
405.06	23.762
405.42	23.019
405.77	24.171
406.13	23.251
406.49	24.305
406.84	24.099
407.20	22.813
407.55	23.995
407.91	24.667
408.27	23.612
408.62	24.624
408.98	24.449
409.34	24.723
409.69	24.645
410.05	24.287
410.40	25.199
410.76	23.955
411.11	23.522
411.47	23.898
411.83	24.313
412.18	24.366
412.54	23.661
412.89	24.337
413.25	23.672
413.60	24.460
413.96	23.315
414.31	23.876
414.67	24.144
415.03	24.901
415.38	23.905
415.74	24.309
416.09	24.886
416.45	24.297
416.80	25.248
417.16	25.134
417.51	25.017
417.87	23.828
418.22	25.300
418.58	24.145
418.93	24.631
419.29	23.297
419.64	24.811
420.00	24.085
420.35	24.638
420.71	24.328
421.06	23.986
421.42	23.860
421.77	24.383
422.12	23.414
422.48	23.583
422.83	24.636
423.19	24.365
423.54	23.854
423.90	24.696
424.25	23.786
424.61	23.869
424.96	24.198
425.31	24.419
425.67	23.876
426.02	24.229
426.38	25.519
426.73	23.523
427.09	24.134
427.44	23.232
427.79	23.577
428.15	24.286
428.50	23.171
428.85	23.421
429.21	23.965
429.56	24.158
429.92	23.150
430.27	23.287
430.62	23.605
430.98	23.560
431.33	23.093
431.68	24.136
432.04	23.482
432.39	24.158
432.74	23.998
433.10	24.335
433.45	24.781
433.80	23.392
434.16	23.985
434.51	23.368
434.86	25.257
435.22	23.791
435.57	23.830
435.92	24.283
436.28	24.318
436.63	23.565
436.98	24.041
437.34	24.091
437.69	25.204
438.04	24.227
438.39	24.776
438.75	24.579
439.10	24.190
439.45	24.557
439.81	24.109
440.16	23.772
440.51	23.667
440.86	23.741
441.22	24.082
441.57	24.788
441.92	24.104
442.27	25.135
442.63	23.644
442.98	25.070
443.33	23.913
443.68	23.593
444.03	24.695
444.39	23.759
444.74	24.080
445.09	24.744
445.44	24.385
445.79	24.542
446.15	24.775
446.50	24.556
446.85	23.844
447.20	24.732
447.55	23.841
447.91	23.607
448.26	24.374
448.61	23.968
448.96	23.920
449.31	24.072
449.66	25.324
450.02	23.175
450.37	23.810
450.72	23.801
451.07	23.888
451.42	24.195
451.77	24.662
452.12	23.903
452.47	24.129
452.83	23.718
453.18	24.633
453.53	23.748
453.88	23.981
454.23	24.148
454.58	24.591
454.93	24.603
455.28	23.691
455.63	24.211
455.98	25.238
456.34	24.121
456.69	23.732
457.04	24.644
457.39	23.846
457.74	23.680
458.09	24.037
458.44	23.831
458.79	22.560
459.14	23.363
459.49	24.810
459.84	23.269
460.19	24.042
460.54	23.669
460.89	24.191
461.24	24.712
461.59	24.811
461.94	24.168
462.29	24.392
462.64	23.867
462.99	24.008
463.34	24.133
463.69	23.390
464.04	23.536
464.39	23.304
464.74	23.945
465.09	23.281
465.44	23.490
465.79	23.378
466.14	23.426
466.49	23.526
466.84	23.818
467.19	23.597
467.54	24.375
467.89	23.169
468.24	24.433
468.59	24.359
468.94	22.602
469.29	24.036
469.64	25.435
469.99	24.222
470.34	24.306
470.68	24.713
471.03	23.333
471.38	24.809
471.73	24.384
472.08	24.539
472.43	24.058
472.78	25.016
473.13	23.042
473.48	23.720
473.83	23.354
474.17	23.584
474.52	24.069
474.87	23.351
475.22	23.622
475.57	23.213
475.92	23.367
476.27	22.999
476.61	23.718
476.96	22.870
477.31	23.129
477.66	23.468
478.01	22.426
478.36	24.008
478.70	22.534
479.05	23.749
479.40	23.541
479.75	23.691
480.10	22.465
480.45	22.132
480.79	22.074
481.14	22.750
481.49	23.113
481.84	22.908
482.19	23.126
482.53	23.257
482.88	22.894
483.23	22.897
483.58	22.748
483.92	22.352
484.27	21.176
484.62	21.940
484.97	21.167
485.31	22.021
485.66	20.256
486.01	19.492
486.36	19.320
486.70	20.260
487.05	20.478
487.40	20.787
487.75	21.687
488.09	21.868
488.44	22.415
488.79	23.038
489.13	22.574
489.48	21.941
489.83	22.486
490.17	23.455
490.52	21.922
490.87	22.388
491.22	21.919
491.56	21.412
491.91	21.638
492.26	21.819
492.60	22.074
492.95	21.796
493.30	21.822
493.64	22.165
493.99	22.145
494.34	21.970
494.68	22.390
495.03	21.711
495.37	21.871
495.72	21.930
496.07	22.135
496.41	21.549
496.76	21.812
497.11	21.297
497.45	21.798
497.80	21.593
498.14	21.449
498.49	21.220
498.84	22.196
499.18	21.000
499.53	22.175
499.87	21.389
500.22	21.856
500.56	22.767
500.91	21.587
501.26	21.479
501.60	22.402
501.95	22.090
502.29	22.821
502.64	22.160
502.98	21.739
503.33	21.481
503.67	21.206
504.02	21.749
504.36	22.321
504.71	21.690
505.06	22.554
505.40	22.411
505.75	22.517
506.09	22.303
506.44	21.904
506.78	21.676
507.13	23.170
507.47	22.980
507.82	22.391
508.16	22.695
508.51	23.034
508.85	22.244
509.19	22.092
509.54	22.500
509.88	22.411
510.23	22.931
510.57	23.529
510.92	23.097
511.26	22.662
511.61	22.407
511.95	22.390
512.30	22.481
512.64	23.052
512.98	23.580
513.33	23.394
513.67	22.465
514.02	22.998
514.36	23.266
514.70	23.575
515.05	23.592
515.39	23.500
515.74	23.649
516.08	24.148
516.42	23.529
516.77	24.192
517.11	24.084
517.46	24.210
517.80	24.332
518.14	23.509
518.49	24.387
518.83	24.432
519.17	24.769
519.52	24.335
519.86	24.073
520.20	24.913
520.55	24.596
520.89	25.669
521.23	25.573
521.58	25.330
521.92	25.597
522.26	24.771
522.61	25.109
522.95	24.862
523.29	25.380
523.64	25.000
523.98	25.508
524.32	25.452
524.66	25.015
525.01	24.694
525.35	25.093
525.69	24.323
526.04	25.047
526.38	25.747
526.72	25.092
527.06	26.177
527.41	25.124
527.75	25.659
528.09	24.984
528.43	25.621
528.78	25.569
529.12	25.818
529.46	26.148
529.80	25.619
530.15	26.417
530.49	25.354
530.83	26.013
531.17	26.305
531.51	26.005
531.86	26.452
532.20	27.053
532.54	24.984
532.88	25.802
533.22	26.608
533.57	25.802
533.91	24.925
534.25	25.881
534.59	25.320
534.93	25.640
535.27	25.709
535.62	25.763
535.96	26.428
536.30	25.111
536.64	26.787
536.98	26.609
537.32	25.543
537.66	26.533
538.01	27.518
538.35	26.503
538.69	27.313
539.03	25.276
539.37	25.495
539.71	24.174
540.05	25.556
540.39	25.249
540.73	26.003
541.07	26.282
541.42	26.549
541.76	26.968
542.10	26.843
542.44	25.629
542.78	26.087
543.12	25.848
543.46	25.639
543.80	26.610
544.14	24.840
544.48	25.460
544.82	25.401
545.16	24.984
545.50	25.321
545.84	27.151
546.18	26.195
546.52	26.084
546.86	26.323
547.20	26.500
547.54	25.585
547.88	26.913
548.22	25.405
548.56	25.849
548.90	25.800
549.24	25.657
549.58	26.194
549.92	25.893
550.26	26.420
550.60	25.795
550.94	26.479
551.28	25.530
551.62	25.162
551.96	25.474
552.30	27.167
552.64	26.369
552.98	25.153
553.32	25.489
553.66	26.176
554.00	26.081
554.34	25.328
554.68	25.966
555.02	27.433
555.36	24.983
555.69	25.237
556.03	24.764
556.37	25.171
556.71	24.352
557.05	25.280
557.39	25.752
557.73	25.618
558.07	25.526
558.41	25.760
558.75	25.569
559.08	26.174
559.42	24.339
559.76	26.029
560.10	24.768
560.44	24.458
560.78	24.551
561.12	25.396
561.45	25.098
561.79	23.995
562.13	24.681
562.47	24.522
562.81	24.407
563.15	24.415
563.48	24.204
563.82	24.853
564.16	23.937
564.50	24.609
564.84	24.210
565.17	23.488
565.51	25.240
565.85	23.604
566.19	23.732
566.52	23.306
566.86	23.870
567.20	25.059
567.54	23.402
567.88	22.705
568.21	23.704
568.55	23.104
568.89	22.665
569.23	21.970
569.56	21.498
569.90	21.774
570.24	21.708
570.57	21.387
570.91	20.879
571.25	20.939
571.59	21.031
571.92	20.853
572.26	20.768
572.60	21.141
572.93	20.930
573.27	21.000
573.61	21.050
573.95	21.059
574.28	20.804
574.62	20.117
574.96	20.430
575.29	20.175
575.63	20.376
575.97	20.333
576.30	20.605
576.64	20.116
576.98	19.494
577.31	20.379
577.65	20.043
577.98	19.763
578.32	19.718
578.66	19.727
578.99	19.950
579.33	20.189
579.67	19.776
580.00	20.259
580.34	20.290
580.67	20.137
581.01	20.238
581.35	19.697
581.68	19.379
582.02	19.328
582.35	19.476
582.69	19.481
583.02	19.753
583.36	19.991
583.70	20.529
584.03	20.507
584.37	20.501
584.70	20.298
585.04	20.132
585.37	19.921
585.71	19.596
586.04	19.159
586.38	20.324
586.72	20.298
587.05	19.533
587.39	19.235
587.72	19.531
588.06	20.091
588.39	20.110
588.73	20.153
589.06	21.190
589.40	20.471
589.73	20.486
590.07	20.427
590.40	20.643
590.73	21.272
591.07	21.693
591.40	21.046
591.74	20.996
592.07	21.073
592.41	20.752
592.74	20.562
593.08	20.486
593.41	19.582
593.75	19.176
594.08	19.511
594.41	20.113
594.75	20.037
595.08	19.971
595.42	20.385
595.75	20.442
596.09	20.503
596.42	20.747
596.75	21.359
597.09	20.909
597.42	19.857
597.75	20.569
598.09	20.826
598.42	20.404
598.76	19.497
599.09	19.954
599.42	19.360
599.76	20.022
600.09	19.745
600.42	19.394
600.76	19.179
601.09	19.490
601.42	19.521
601.76	20.152
602.09	20.553
602.42	20.462
602.76	20.395
603.09	19.827
603.42	20.148
603.76	19.665
604.09	19.891
604.42	19.323
604.76	19.739
605.09	20.751
605.42	20.308
605.75	19.868
606.09	19.073
606.42	20.106
606.75	20.697
607.09	20.553
607.42	19.598
607.75	19.325
608.08	19.757
608.42	20.663
608.75	20.153
609.08	19.426
609.41	20.419
609.75	20.248
610.08	20.594
610.41	20.019
610.74	19.442
611.07	20.751
611.41	21.099
611.74	20.764
612.07	21.170
612.40	20.357
612.73	19.842
613.07	20.420
613.40	21.116
613.73	19.507
614.06	20.591
614.39	20.294
614.72	20.526
615.06	20.378
615.39	19.745
615.72	20.143
616.05	20.255
616.38	21.234
616.71	21.793
617.05	20.907
617.38	20.084
617.71	19.760
618.04	21.514
618.37	21.230
618.70	19.913
619.03	20.987
619.36	20.434
619.69	21.901
620.03	21.841
620.36	21.056
620.69	21.986
621.02	21.386
621.35	21.222
621.68	20.950
622.01	19.892
622.34	21.407
622.67	21.673
623.00	20.029
623.33	19.728
623.66	20.801
623.99	21.134
624.32	20.399
624.65	21.469
624.99	19.972
625.32	19.841
625.65	21.187
625.98	22.060
626.31	22.317
626.64	22.122
626.97	22.776
627.30	21.363
627.63	22.231
627.96	22.456
628.29	22.660
628.62	23.696
628.95	23.396
629.28	21.350
629.61	22.090
629.94	22.857
630.26	21.640
630.59	22.498
630.92	22.031
