SpectraSuite Data File
++++++++++++++++++++++++++++++++++++
Date: Wed May 13 21:35:40 PDT 2015
User: schluterlab
Dark Spectrum Present: Yes
Reference Spectrum Present: Yes
Number of Sampled Component Spectra: 1
Spectrometers: USB2E3373
Integration Time (usec): 3000 (USB2E3373)
Spectra Averaged: 3 (USB2E3373)
Boxcar Smoothing: 0 (USB2E3373)
Correct for Electrical Dark: No (USB2E3373)
Strobe/Lamp Enabled: No (USB2E3373)
Correct for Detector Non-linearity: No (USB2E3373)
Correct for Stray Light: No (USB2E3373)
Number of Pixels in Processed Spectrum: 2048
>>>>>Begin Processed Spectral Data<<<<<
178.53	0.000
178.91	1050.000
179.29	225.000
179.67	-1200.000
180.04	-466.667
180.42	360.000
180.80	2500.000
181.18	450.000
181.56	-450.000
181.94	-325.000
182.31	-63.636
182.69	138.462
183.07	-420.000
183.45	400.000
183.83	188.889
184.20	214.286
184.58	-333.333
184.96	766.667
185.34	242.857
185.72	0.000
186.09	-1200.000
186.47	-260.000
186.85	240.000
187.23	-250.000
187.61	800.000
187.98	1200.000
188.36	-162.500
188.74	0.000
189.12	-118.182
189.49	-40.000
189.87	200.000
190.25	440.000
190.63	1100.000
191.00	-180.000
191.38	420.000
191.76	250.000
192.14	133.333
192.51	-42.105
192.89	566.667
193.27	300.000
193.65	-420.000
194.02	200.000
194.40	180.000
194.78	-1200.000
195.15	340.000
195.53	-280.000
195.91	-75.000
196.29	-700.000
196.66	0.000
197.04	800.000
197.42	-300.000
197.79	-100.000
198.17	-250.000
198.55	-766.667
198.92	175.000
199.30	-333.333
199.68	-120.000
200.05	550.000
200.43	350.000
200.81	-1500.000
201.18	-300.000
201.56	-283.333
201.94	700.000
202.31	17.391
202.69	-257.143
203.07	-466.667
203.44	-260.000
203.82	-333.333
204.19	-60.000
204.57	0.000
204.95	-150.000
205.32	0.000
205.70	-400.000
206.08	-275.000
206.45	-266.667
206.83	350.000
207.20	-400.000
207.58	-120.000
207.96	-1200.000
208.33	-242.857
208.71	-2000.000
209.08	262.500
209.46	450.000
209.84	0.000
210.21	270.000
210.59	1600.000
210.96	160.000
211.34	1300.000
211.71	-850.000
212.09	-216.667
212.46	-60.000
212.84	-333.333
213.22	75.000
213.59	-1800.000
213.97	-850.000
214.34	-800.000
214.72	-46.154
215.09	337.500
215.47	188.889
215.84	1300.000
216.22	-112.500
216.59	-850.000
216.97	966.667
217.34	211.111
217.72	0.000
218.09	333.333
218.47	-700.000
218.84	-71.429
219.22	-100.000
219.59	-933.333
219.97	-400.000
220.34	-250.000
220.72	-180.000
221.09	0.000
221.47	-216.667
221.84	-100.000
222.22	0.000
222.59	1500.000
222.97	-333.333
223.34	-66.667
223.72	-1500.000
224.09	-900.000
224.46	-81.818
224.84	-137.500
225.21	-42.857
225.59	-475.000
225.96	-133.333
226.34	-80.000
226.71	-271.429
227.08	850.000
227.46	-175.000
227.83	-500.000
228.21	-112.500
228.58	-450.000
228.95	-47.059
229.33	-62.500
229.70	-125.000
230.08	7.692
230.45	-187.500
230.82	-116.667
231.20	200.000
231.57	-475.000
231.95	1400.000
232.32	8.333
232.69	47.059
233.07	-1800.000
233.44	-52.174
233.81	-900.000
234.19	-4.167
234.56	-80.000
234.93	-106.667
235.31	-5.263
235.68	-138.462
236.05	-53.846
236.43	0.000
236.80	-12.121
237.17	-80.000
237.55	-117.647
237.92	-17.241
238.29	-62.963
238.67	11.111
239.04	-12.903
239.41	-6.383
239.79	29.787
240.16	2.326
240.53	10.714
240.91	8.929
241.28	7.143
241.65	12.903
242.02	-1.316
242.40	14.493
242.77	2.899
243.14	-1.282
243.51	15.957
243.89	20.192
244.26	14.151
244.63	5.769
245.00	15.625
245.38	3.361
245.75	7.377
246.12	17.293
246.49	6.504
246.87	10.084
247.24	25.000
247.61	13.245
247.98	21.154
248.36	13.018
248.73	11.236
249.10	12.121
249.47	6.452
249.84	22.105
250.22	16.418
250.59	15.421
250.96	17.273
251.33	5.742
251.70	20.502
252.08	18.828
252.45	18.107
252.82	23.194
253.19	14.786
253.56	16.187
253.94	23.132
254.31	23.239
254.68	20.134
255.05	23.432
255.42	20.280
255.79	19.325
256.16	18.612
256.54	19.683
256.91	17.089
257.28	17.925
257.65	12.739
258.02	19.941
258.39	18.713
258.76	17.151
259.14	16.761
259.51	19.101
259.88	19.512
260.25	20.000
260.62	16.854
260.99	20.690
261.36	21.244
261.73	18.025
262.10	18.575
262.47	21.235
262.85	18.408
263.22	19.487
263.59	17.922
263.96	18.491
264.33	20.433
264.70	18.140
265.07	20.833
265.44	22.299
265.81	21.968
266.18	20.273
266.55	18.559
266.92	16.949
267.29	18.930
267.66	21.231
268.03	21.399
268.40	18.008
268.77	20.455
269.14	20.204
269.51	21.766
269.88	20.163
270.25	20.339
270.62	18.238
270.99	20.276
271.36	20.040
271.73	21.486
272.10	20.952
272.47	20.345
272.84	19.488
273.21	18.395
273.58	21.107
273.95	18.491
274.32	18.097
274.69	18.761
275.06	20.318
275.43	20.339
275.80	18.262
276.17	20.258
276.54	19.183
276.91	18.641
277.28	19.675
277.65	19.580
278.02	21.429
278.39	17.229
278.76	20.903
279.13	18.182
279.50	18.103
279.87	17.935
280.23	20.360
280.60	18.512
280.97	18.344
281.34	20.505
281.71	18.862
282.08	19.145
282.45	20.164
282.82	18.690
283.19	20.274
283.56	20.000
283.92	19.572
284.29	19.813
284.66	19.934
285.03	17.101
285.40	18.580
285.77	19.369
286.14	19.301
286.51	20.240
286.87	16.923
287.24	19.027
287.61	20.482
287.98	18.235
288.35	17.884
288.72	18.508
289.08	19.373
289.45	17.768
289.82	18.306
290.19	18.513
290.56	18.750
290.93	16.436
291.29	17.510
291.66	18.306
292.03	18.801
292.40	16.958
292.77	18.206
293.13	16.736
293.50	18.954
293.87	18.267
294.24	17.593
294.60	17.295
294.97	19.444
295.34	16.755
295.71	17.083
296.08	16.230
296.44	17.092
296.81	16.565
297.18	17.500
297.55	16.745
297.91	16.522
298.28	15.981
298.65	16.995
299.02	17.460
299.38	18.037
299.75	16.346
300.12	15.581
300.48	15.673
300.85	15.935
301.22	15.679
301.59	15.728
301.95	16.609
302.32	15.519
302.69	17.740
303.05	16.722
303.42	16.705
303.79	16.509
304.15	16.867
304.52	16.882
304.89	16.944
305.25	17.234
305.62	16.811
305.99	16.975
306.35	17.659
306.72	17.091
307.09	16.475
307.45	17.252
307.82	16.526
308.19	14.734
308.55	16.070
308.92	18.271
309.29	16.316
309.65	16.883
310.02	18.191
310.38	17.276
310.75	17.850
311.12	17.590
311.48	19.189
311.85	17.815
312.22	19.632
312.58	18.357
312.95	18.607
313.31	18.365
313.68	18.989
314.05	20.510
314.41	20.077
314.78	19.260
315.14	20.093
315.51	21.694
315.87	20.760
316.24	23.049
316.61	23.105
316.97	21.574
317.34	21.925
317.70	23.640
318.07	23.957
318.43	23.126
318.80	22.862
319.16	22.635
319.53	24.104
319.89	24.752
320.26	25.693
320.62	25.487
320.99	26.841
321.35	25.164
321.72	27.430
322.08	28.229
322.45	27.012
322.81	27.911
323.18	28.265
323.54	28.430
323.91	29.268
324.27	30.153
324.64	28.920
325.00	30.184
325.37	30.546
325.73	30.135
326.10	30.193
326.46	31.355
326.83	31.553
327.19	31.707
327.56	33.844
327.92	32.904
328.29	33.389
328.65	34.093
329.01	33.685
329.38	35.130
329.74	32.532
330.11	34.626
330.47	33.160
330.84	33.484
331.20	34.927
331.56	35.779
331.93	35.487
332.29	35.969
332.66	32.966
333.02	36.403
333.38	35.702
333.75	36.348
334.11	36.632
334.48	36.356
334.84	36.131
335.20	36.535
335.57	36.554
335.93	35.739
336.29	37.303
336.66	36.581
337.02	36.957
337.38	36.292
337.75	35.831
338.11	35.696
338.47	36.216
338.84	36.512
339.20	36.684
339.56	36.689
339.93	36.733
340.29	35.611
340.65	37.382
341.02	36.689
341.38	36.486
341.74	35.546
342.11	36.086
342.47	36.820
342.83	36.275
343.20	36.717
343.56	36.795
343.92	34.606
344.28	37.906
344.65	36.571
345.01	35.432
345.37	36.760
345.73	37.418
346.10	36.276
346.46	34.797
346.82	35.634
347.19	35.443
347.55	36.834
347.91	34.996
348.27	35.174
348.63	34.455
349.00	34.434
349.36	34.694
349.72	34.648
350.08	35.569
350.45	35.630
350.81	35.915
351.17	35.643
351.53	34.250
351.89	34.790
352.26	33.745
352.62	34.186
352.98	35.064
353.34	35.749
353.70	34.190
354.07	34.039
354.43	34.914
354.79	35.417
355.15	34.394
355.51	34.472
355.87	33.620
356.24	33.868
356.60	34.480
356.96	34.612
357.32	34.211
357.68	35.065
358.04	35.376
358.40	34.264
358.77	33.257
359.13	33.852
359.49	34.822
359.85	33.889
360.21	34.773
360.57	33.308
360.93	34.522
361.29	34.937
361.66	34.169
362.02	33.210
362.38	33.309
362.74	33.140
363.10	33.984
363.46	32.781
363.82	35.477
364.18	33.648
364.54	34.354
364.90	32.753
365.26	33.758
365.62	33.168
365.98	33.808
366.35	33.759
366.71	32.382
367.07	33.026
367.43	33.101
367.79	33.009
368.15	33.052
368.51	32.208
368.87	33.636
369.23	32.740
369.59	34.179
369.95	32.801
370.31	32.706
370.67	32.657
371.03	33.779
371.39	32.434
371.75	33.714
372.11	32.336
372.47	33.093
372.83	31.553
373.19	33.094
373.55	32.876
373.91	31.683
374.27	31.328
374.63	32.717
374.99	32.451
375.35	32.740
375.71	32.677
376.07	32.419
376.42	32.219
376.78	33.091
377.14	33.220
377.50	32.855
377.86	32.736
378.22	32.933
378.58	32.156
378.94	32.438
379.30	32.230
379.66	33.107
380.02	33.333
380.38	31.988
380.74	32.636
381.09	31.846
381.45	32.406
381.81	32.348
382.17	31.443
382.53	31.754
382.89	31.665
383.25	32.346
383.61	32.748
383.97	31.375
384.32	32.766
384.68	32.511
385.04	31.155
385.40	31.943
385.76	32.968
386.12	32.537
386.48	31.223
386.83	31.352
387.19	32.079
387.55	32.189
387.91	32.903
388.27	32.121
388.62	31.211
388.98	31.727
389.34	32.456
389.70	31.380
390.06	31.188
390.42	32.345
390.77	30.878
391.13	31.692
391.49	31.626
391.85	31.885
392.20	31.516
392.56	30.984
392.92	30.954
393.28	31.435
393.64	31.560
393.99	30.355
394.35	31.358
394.71	30.897
395.07	29.937
395.42	31.566
395.78	31.081
396.14	31.262
396.50	31.516
396.85	32.250
397.21	30.400
397.57	30.559
397.92	30.659
398.28	31.077
398.64	30.419
399.00	31.362
399.35	30.533
399.71	30.810
400.07	31.084
400.42	30.345
400.78	30.332
401.14	30.043
401.49	30.437
401.85	30.344
402.21	30.217
402.57	30.043
402.92	31.164
403.28	30.206
403.63	30.998
403.99	30.390
404.35	30.549
404.70	30.151
405.06	30.476
405.42	30.653
405.77	30.012
406.13	29.257
406.49	30.258
406.84	31.319
407.20	30.018
407.55	30.260
407.91	28.987
408.27	28.322
408.62	30.264
408.98	29.470
409.34	29.022
409.69	29.890
410.05	29.726
410.40	28.850
410.76	29.422
411.11	28.980
411.47	30.060
411.83	28.821
412.18	28.967
412.54	30.013
412.89	28.840
413.25	28.555
413.60	28.903
413.96	28.901
414.31	28.915
414.67	29.270
415.03	29.905
415.38	29.458
415.74	29.305
416.09	29.610
416.45	29.323
416.80	29.195
417.16	29.082
417.51	29.069
417.87	29.497
418.22	29.412
418.58	29.238
418.93	27.872
419.29	29.307
419.64	29.517
420.00	29.651
420.35	28.990
420.71	28.824
421.06	28.598
421.42	29.927
421.77	28.555
422.12	29.054
422.48	28.790
422.83	28.884
423.19	29.787
423.54	29.682
423.90	28.860
424.25	28.307
424.61	28.774
424.96	28.386
425.31	28.155
425.67	29.159
426.02	29.388
426.38	29.975
426.73	29.994
427.09	28.956
427.44	29.301
427.79	29.038
428.15	28.746
428.50	27.674
428.85	29.028
429.21	28.869
429.56	29.968
429.92	29.151
430.27	29.448
430.62	28.069
430.98	29.032
431.33	29.017
431.68	29.819
432.04	29.127
432.39	28.868
432.74	28.020
433.10	29.169
433.45	29.112
433.80	28.851
434.16	28.891
434.51	29.348
434.86	29.918
435.22	29.485
435.57	29.300
435.92	30.097
436.28	29.249
436.63	29.908
436.98	30.259
437.34	30.037
437.69	30.047
438.04	29.598
438.39	29.888
438.75	29.082
439.10	30.769
439.45	30.206
439.81	31.096
440.16	30.609
440.51	29.429
440.86	30.113
441.22	30.350
441.57	30.803
441.92	30.845
442.27	30.844
442.63	29.333
442.98	30.556
443.33	31.433
443.68	30.416
444.03	30.800
444.39	30.887
444.74	31.253
445.09	31.663
445.44	32.394
445.79	30.614
446.15	31.337
446.50	32.269
446.85	31.855
447.20	32.044
447.55	33.128
447.91	31.180
448.26	31.447
448.61	32.451
448.96	33.371
449.31	32.610
449.66	32.157
450.02	32.973
450.37	32.902
450.72	31.860
451.07	32.790
451.42	33.437
451.77	33.354
452.12	32.858
452.47	33.764
452.83	33.019
453.18	34.246
453.53	32.661
453.88	33.976
454.23	33.498
454.58	32.414
454.93	33.932
455.28	34.554
455.63	33.063
455.98	34.875
456.34	33.694
456.69	34.696
457.04	34.056
457.39	34.396
457.74	33.573
458.09	34.123
458.44	34.841
458.79	34.322
459.14	34.157
459.49	34.146
459.84	34.724
460.19	33.673
460.54	33.577
460.89	34.741
461.24	34.155
461.59	34.481
461.94	35.398
462.29	35.417
462.64	34.631
462.99	35.412
463.34	35.497
463.69	36.018
464.04	34.694
464.39	34.106
464.74	34.705
465.09	35.648
465.44	33.558
465.79	35.998
466.14	35.747
466.49	35.601
466.84	34.489
467.19	34.650
467.54	36.163
467.89	35.512
468.24	35.341
468.59	35.309
468.94	36.079
469.29	35.691
469.64	36.681
469.99	37.793
470.34	35.873
470.68	35.985
471.03	36.601
471.38	36.857
471.73	36.968
472.08	36.770
472.43	38.588
472.78	37.052
473.13	34.960
473.48	36.725
473.83	36.911
474.17	37.695
474.52	37.346
474.87	36.912
475.22	36.836
475.57	36.419
475.92	36.914
476.27	36.131
476.61	37.259
476.96	37.636
477.31	36.084
477.66	37.797
478.01	36.484
478.36	36.730
478.70	37.325
479.05	37.347
479.40	37.337
479.75	37.832
480.10	37.532
480.45	36.881
480.79	37.830
481.14	38.652
481.49	38.777
481.84	37.182
482.19	36.962
482.53	38.476
482.88	38.207
483.23	37.873
483.58	37.429
483.92	38.132
484.27	37.740
484.62	37.284
484.97	38.117
485.31	36.889
485.66	35.310
486.01	35.808
486.36	36.476
486.70	36.838
487.05	36.449
487.40	37.572
487.75	37.209
488.09	37.003
488.44	37.469
488.79	38.872
489.13	38.449
489.48	38.221
489.83	38.946
490.17	38.947
490.52	39.224
490.87	38.618
491.22	39.331
491.56	39.291
491.91	39.030
492.26	39.507
492.60	39.586
492.95	39.942
493.30	38.808
493.64	39.664
493.99	40.097
494.34	40.318
494.68	39.284
495.03	39.822
495.37	39.075
495.72	39.850
496.07	40.916
496.41	39.588
496.76	39.945
497.11	40.423
497.45	40.029
497.80	40.586
498.14	40.202
498.49	39.536
498.84	40.385
499.18	40.169
499.53	39.636
499.87	40.126
500.22	41.115
500.56	40.873
500.91	40.996
501.26	40.197
501.60	40.294
501.95	40.345
502.29	39.951
502.64	41.466
502.98	40.125
503.33	41.168
503.67	41.237
504.02	40.392
504.36	40.713
504.71	40.193
505.06	41.620
505.40	41.649
505.75	41.099
506.09	41.134
506.44	40.726
506.78	41.544
507.13	41.008
507.47	42.153
507.82	41.235
508.16	42.427
508.51	41.839
508.85	41.680
509.19	41.693
509.54	42.306
509.88	40.968
510.23	41.158
510.57	42.426
510.92	42.942
511.26	43.069
511.61	41.383
511.95	43.054
512.30	41.477
512.64	43.417
512.98	41.496
513.33	42.028
513.67	42.533
514.02	42.930
514.36	42.753
514.70	43.129
515.05	44.178
515.39	43.337
515.74	43.280
516.08	43.186
516.42	42.857
516.77	43.234
517.11	44.268
517.46	44.118
517.80	45.460
518.14	43.601
518.49	42.797
518.83	42.482
519.17	43.012
519.52	44.632
519.86	44.080
520.20	44.391
520.55	45.087
520.89	44.908
521.23	45.833
521.58	44.817
521.92	43.558
522.26	43.917
522.61	43.633
522.95	44.430
523.29	44.317
523.64	44.374
523.98	44.155
524.32	44.549
524.66	44.156
525.01	44.364
525.35	44.964
525.69	45.394
526.04	45.016
526.38	44.678
526.72	44.707
527.06	44.358
527.41	45.069
527.75	44.126
528.09	46.154
528.43	47.151
528.78	43.863
529.12	46.184
529.46	44.594
529.80	46.214
530.15	44.530
530.49	46.429
530.83	46.242
531.17	46.644
531.51	45.448
531.86	44.851
532.20	46.037
532.54	45.655
532.88	45.677
533.22	45.926
533.57	45.563
533.91	44.516
534.25	45.378
534.59	45.624
534.93	45.344
535.27	45.732
535.62	45.724
535.96	45.869
536.30	45.346
536.64	44.703
536.98	45.690
537.32	46.263
537.66	46.544
538.01	45.631
538.35	45.925
538.69	45.017
539.03	43.758
539.37	45.003
539.71	44.816
540.05	44.669
540.39	44.942
540.73	45.880
541.07	45.918
541.42	45.589
541.76	45.873
542.10	44.279
542.44	45.253
542.78	46.426
543.12	45.148
543.46	46.510
543.80	44.807
544.14	46.937
544.48	44.526
544.82	46.537
545.16	46.045
545.50	47.333
545.84	47.265
546.18	46.564
546.52	46.436
546.86	45.159
547.20	46.319
547.54	46.319
547.88	46.356
548.22	44.756
548.56	46.164
548.90	45.129
549.24	45.903
549.58	46.121
549.92	46.662
550.26	46.421
550.60	45.946
550.94	47.910
551.28	46.101
551.62	46.617
551.96	46.266
552.30	44.760
552.64	45.268
552.98	46.094
553.32	46.647
553.66	47.542
554.00	45.140
554.34	45.641
554.68	47.353
555.02	46.856
555.36	47.050
555.69	45.448
556.03	45.818
556.37	45.377
556.71	47.232
557.05	46.790
557.39	47.325
557.73	47.731
558.07	47.249
558.41	47.691
558.75	48.037
559.08	47.073
559.42	49.253
559.76	46.101
560.10	47.579
560.44	48.416
560.78	46.978
561.12	46.111
561.45	45.646
561.79	46.905
562.13	48.031
562.47	48.000
562.81	47.403
563.15	46.671
563.48	45.148
563.82	47.196
564.16	46.919
564.50	46.879
564.84	46.757
565.17	46.954
565.51	48.463
565.85	47.235
566.19	46.755
566.52	47.117
566.86	45.196
567.20	46.487
567.54	45.769
567.88	45.633
568.21	45.410
568.55	45.018
568.89	45.563
569.23	45.646
569.56	44.723
569.90	44.594
570.24	44.332
570.57	44.149
570.91	43.442
571.25	43.503
571.59	43.385
571.92	43.649
572.26	43.867
572.60	43.579
572.93	44.705
573.27	43.243
573.61	43.824
573.95	43.416
574.28	43.852
574.62	42.631
574.96	42.889
575.29	43.581
575.63	43.994
575.97	44.212
576.30	43.282
576.64	44.014
576.98	43.668
577.31	43.784
577.65	42.721
577.98	43.803
578.32	43.339
578.66	43.371
578.99	43.638
579.33	43.428
579.67	43.432
580.00	43.578
580.34	43.214
580.67	43.582
581.01	43.703
581.35	43.081
581.68	43.309
582.02	43.676
582.35	43.881
582.69	44.058
583.02	43.598
583.36	43.369
583.70	43.546
584.03	43.839
584.37	44.372
584.70	44.234
585.04	44.096
585.37	44.107
585.71	44.260
586.04	44.311
586.38	43.962
586.72	44.057
587.05	44.867
587.39	44.719
587.72	44.149
588.06	44.706
588.39	43.857
588.73	45.187
589.06	45.490
589.40	45.648
589.73	44.772
590.07	44.878
590.40	45.665
590.73	46.475
591.07	46.427
591.40	45.739
591.74	46.287
592.07	46.737
592.41	45.860
592.74	45.872
593.08	45.094
593.41	45.633
593.75	45.704
594.08	45.838
594.41	46.252
594.75	46.514
595.08	46.341
595.42	46.385
595.75	45.842
596.09	46.151
596.42	45.792
596.75	46.512
597.09	47.179
597.42	48.318
597.75	46.400
598.09	46.311
598.42	46.488
598.76	46.767
599.09	46.979
599.42	45.808
599.76	46.339
600.09	47.101
600.42	46.365
600.76	45.676
601.09	46.478
601.42	46.296
601.76	45.676
602.09	46.372
602.42	46.636
602.76	46.477
603.09	46.817
603.42	46.901
603.76	46.532
604.09	46.996
604.42	46.463
604.76	47.228
605.09	46.670
605.42	48.043
605.75	46.809
606.09	46.813
606.42	47.506
606.75	46.320
607.09	47.163
607.42	47.855
607.75	46.565
608.08	47.610
608.42	48.172
608.75	47.922
609.08	48.065
609.41	47.591
609.75	48.764
610.08	48.866
610.41	47.765
610.74	48.364
611.07	48.547
611.41	48.669
611.74	48.292
612.07	47.785
612.40	49.892
612.73	49.177
613.07	48.670
613.40	48.623
613.73	48.375
614.06	48.314
614.39	48.138
614.72	49.584
615.06	48.556
615.39	49.448
615.72	48.164
616.05	49.099
616.38	49.599
616.71	48.590
617.05	49.386
617.38	48.367
617.71	49.387
618.04	49.665
618.37	50.726
618.70	49.741
619.03	48.935
619.36	51.388
619.69	50.073
620.03	51.095
620.36	51.079
620.69	50.178
621.02	51.231
621.35	50.041
621.68	51.100
622.01	51.780
622.34	50.753
622.67	51.057
623.00	51.520
623.33	50.711
623.66	50.335
623.99	51.688
624.32	49.596
624.65	50.371
624.99	50.992
625.32	50.560
625.65	51.163
625.98	51.027
626.31	52.653
626.64	51.677
626.97	51.384
627.30	52.181
627.63	53.114
627.96	51.775
628.29	53.581
628.62	53.675
628.95	54.309
629.28	53.695
629.61	53.589
629.94	52.901
630.26	54.384
630.59	52.647
630.92	53.514
631.25	52.317
631.58	54.069
631.91	51.856
