SpectraSuite Data File
++++++++++++++++++++++++++++++++++++
Date: Wed May 13 20:25:25 PDT 2015
User: schluterlab
Dark Spectrum Present: Yes
Reference Spectrum Present: Yes
Number of Sampled Component Spectra: 1
Spectrometers: USB2E3373
Integration Time (usec): 3000 (USB2E3373)
Spectra Averaged: 3 (USB2E3373)
Boxcar Smoothing: 0 (USB2E3373)
Correct for Electrical Dark: No (USB2E3373)
Strobe/Lamp Enabled: No (USB2E3373)
Correct for Detector Non-linearity: No (USB2E3373)
Correct for Stray Light: No (USB2E3373)
Number of Pixels in Processed Spectrum: 2048
>>>>>Begin Processed Spectral Data<<<<<
178.53	0.000
178.91	-1300.000
179.29	-1275.000
179.67	-205.556
180.04	-1200.000
180.42	2350.000
180.80	980.000
181.18	-1000.000
181.56	671.429
181.94	0.000
182.31	-585.714
182.69	1533.333
183.07	-500.000
183.45	-466.667
183.83	390.909
184.20	-330.000
184.58	2400.000
184.96	6000.000
185.34	-740.000
185.72	-525.000
186.09	-2250.000
186.47	2450.000
186.85	2350.000
187.23	4200.000
187.61	-1200.000
187.98	1375.000
188.36	490.909
188.74	463.636
189.12	-720.000
189.49	540.000
189.87	-4200.000
190.25	-1025.000
190.63	442.857
191.00	369.231
191.38	783.333
191.76	-1150.000
192.14	1350.000
192.51	612.500
192.89	866.667
193.27	550.000
193.65	-1050.000
194.02	410.000
194.40	860.000
194.78	580.000
195.15	458.333
195.53	590.000
195.91	-2300.000
196.29	300.000
196.66	310.526
197.04	-360.000
197.42	0.000
197.79	600.000
198.17	-4900.000
198.55	657.143
198.92	625.000
199.30	940.000
199.68	0.000
200.05	327.778
200.43	800.000
200.81	4200.000
201.18	1900.000
201.56	-1300.000
201.94	455.556
202.31	566.667
202.69	400.000
203.07	460.000
203.44	0.000
203.82	1150.000
204.19	685.714
204.57	464.286
204.95	687.500
205.32	1766.667
205.70	481.818
206.08	400.000
206.45	2550.000
206.83	343.750
207.20	800.000
207.58	820.000
207.96	322.222
208.33	787.500
208.71	-800.000
209.08	642.857
209.46	522.222
209.84	481.818
210.21	-1533.333
210.59	1600.000
210.96	-437.500
211.34	2400.000
211.71	550.000
212.09	850.000
212.46	0.000
212.84	1300.000
213.22	1100.000
213.59	-4600.000
213.97	766.667
214.34	628.571
214.72	527.273
215.09	980.000
215.47	-2400.000
215.84	-2100.000
216.22	1300.000
216.59	364.286
216.97	1125.000
217.34	490.909
217.72	-733.333
218.09	0.000
218.47	-5300.000
218.84	566.667
219.22	757.143
219.59	1500.000
219.97	-571.429
220.34	1080.000
220.72	-1866.667
221.09	350.000
221.47	1500.000
221.84	-900.000
222.22	0.000
222.59	1325.000
222.97	-2550.000
223.34	1140.000
223.72	446.154
224.09	1100.000
224.46	2100.000
224.84	-5000.000
225.21	-1040.000
225.59	-5000.000
225.96	520.000
226.34	300.000
226.71	2450.000
227.08	637.500
227.46	510.000
227.83	-1125.000
228.21	-1950.000
228.58	522.222
228.95	-2100.000
229.33	-2050.000
229.70	1600.000
230.08	785.714
230.45	-980.000
230.82	458.333
231.20	666.667
231.57	614.286
231.95	483.333
232.32	231.818
232.69	472.727
233.07	671.429
233.44	284.615
233.81	-1633.333
234.19	273.684
234.56	491.667
234.93	391.667
235.31	463.636
235.68	376.923
236.05	364.286
236.43	187.879
236.80	215.789
237.17	4000.000
237.55	247.619
237.92	196.429
238.29	238.095
238.67	180.645
239.04	206.897
239.41	180.556
239.79	115.217
240.16	142.857
240.53	125.000
240.91	109.804
241.28	108.000
241.65	118.000
242.02	108.696
242.40	96.774
242.77	105.000
243.14	81.720
243.51	103.371
243.89	78.824
244.26	84.444
244.63	89.247
245.00	71.277
245.38	71.287
245.75	68.224
246.12	69.725
246.49	79.562
246.87	75.200
247.24	60.000
247.61	65.000
247.98	64.706
248.36	58.108
248.73	62.420
249.10	59.873
249.47	63.842
249.84	56.684
250.22	57.219
250.59	57.396
250.96	57.071
251.33	59.242
251.70	59.901
252.08	52.857
252.45	52.915
252.82	53.043
253.19	58.298
253.56	52.941
253.94	58.506
254.31	54.297
254.68	51.538
255.05	51.661
255.42	54.065
255.79	55.147
256.16	53.791
256.54	48.763
256.91	49.466
257.28	44.604
257.65	47.855
258.02	47.826
258.39	46.057
258.76	47.157
259.14	48.512
259.51	42.249
259.88	45.652
260.25	48.036
260.62	43.642
260.99	47.516
261.36	48.348
261.73	48.424
262.10	45.058
262.47	47.887
262.85	43.454
263.22	48.718
263.59	50.712
263.96	45.055
264.33	42.820
264.70	43.158
265.07	46.547
265.44	44.949
265.81	42.336
266.18	44.975
266.55	44.390
266.92	46.437
267.29	48.148
267.66	41.743
268.03	45.227
268.40	43.224
268.77	41.289
269.14	44.820
269.51	44.470
269.88	44.755
270.25	42.664
270.62	42.472
270.99	43.871
271.36	41.845
271.73	43.692
272.10	41.957
272.47	45.376
272.84	42.424
273.21	43.396
273.58	40.393
273.95	41.300
274.32	36.777
274.69	42.827
275.06	40.157
275.43	45.745
275.80	40.481
276.17	42.363
276.54	42.827
276.91	40.711
277.28	39.258
277.65	41.006
278.02	40.166
278.39	42.969
278.76	39.455
279.13	42.830
279.50	39.665
279.87	40.438
280.23	39.521
280.60	41.006
280.97	43.068
281.34	39.823
281.71	39.818
282.08	43.186
282.45	38.182
282.82	39.787
283.19	37.611
283.56	39.474
283.92	39.594
284.29	39.506
284.66	37.205
285.03	38.879
285.40	36.796
285.77	38.552
286.14	38.342
286.51	37.333
286.87	38.803
287.24	38.111
287.61	36.597
287.98	36.851
288.35	37.401
288.72	36.604
289.08	35.994
289.45	36.573
289.82	37.236
290.19	34.851
290.56	35.681
290.93	33.233
291.29	36.196
291.66	32.596
292.03	33.721
292.40	35.536
292.77	32.692
293.13	33.134
293.50	32.945
293.87	32.444
294.24	33.185
294.60	32.314
294.97	33.576
295.34	32.863
295.71	31.108
296.08	31.054
296.44	29.574
296.81	32.232
297.18	32.249
297.55	28.892
297.91	30.607
298.28	30.120
298.65	30.548
299.02	31.884
299.38	30.544
299.75	29.245
300.12	29.502
300.48	28.625
300.85	30.210
301.22	28.535
301.59	28.788
301.95	28.967
302.32	28.755
302.69	29.271
303.05	29.576
303.42	28.395
303.79	29.105
304.15	27.506
304.52	27.462
304.89	27.294
305.25	25.638
305.62	28.313
305.99	28.453
306.35	28.076
306.72	27.466
307.09	27.747
307.45	28.266
307.82	25.000
308.19	26.600
308.55	28.371
308.92	26.531
309.29	26.082
309.65	26.193
310.02	26.321
310.38	25.591
310.75	25.766
311.12	27.738
311.48	25.078
311.85	28.092
312.22	26.639
312.58	26.091
312.95	26.188
313.31	26.117
313.68	27.027
314.05	27.022
314.41	27.337
314.78	26.586
315.14	26.713
315.51	25.953
315.87	27.030
316.24	26.216
316.61	25.634
316.97	25.538
317.34	26.027
317.70	27.055
318.07	27.238
318.43	26.321
318.80	27.648
319.16	27.589
319.53	25.516
319.89	27.048
320.26	26.800
320.62	27.282
320.99	26.263
321.35	26.263
321.72	27.207
322.08	27.641
322.45	28.259
322.81	27.810
323.18	27.264
323.54	27.829
323.91	27.453
324.27	28.011
324.64	28.145
325.00	27.953
325.37	28.753
325.73	27.917
326.10	28.155
326.46	28.763
326.83	29.853
327.19	29.120
327.56	28.049
327.92	27.472
328.29	29.281
328.65	30.663
329.01	29.242
329.38	29.787
329.74	28.163
330.11	30.160
330.47	30.211
330.84	29.596
331.20	29.053
331.56	30.275
331.93	28.426
332.29	29.459
332.66	30.177
333.02	29.342
333.38	28.907
333.75	28.877
334.11	28.915
334.48	30.080
334.84	29.504
335.20	29.909
335.57	29.012
335.93	28.661
336.29	29.121
336.66	29.847
337.02	29.140
337.38	29.630
337.75	29.412
338.11	28.827
338.47	29.926
338.84	30.706
339.20	29.633
339.56	29.380
339.93	28.545
340.29	29.257
340.65	29.144
341.02	28.796
341.38	29.181
341.74	28.509
342.11	30.306
342.47	30.220
342.83	28.767
343.20	30.216
343.56	28.559
343.92	29.561
344.28	28.912
344.65	29.579
345.01	29.209
345.37	27.702
345.73	29.526
346.10	29.156
346.46	28.814
346.82	28.583
347.19	29.156
347.55	28.243
347.91	29.288
348.27	29.170
348.63	28.679
349.00	28.803
349.36	28.736
349.72	28.789
350.08	28.363
350.45	28.804
350.81	28.513
351.17	28.687
351.53	28.993
351.89	28.218
352.26	29.045
352.62	29.431
352.98	27.391
353.34	29.088
353.70	28.314
354.07	28.629
354.43	27.937
354.79	27.112
355.15	27.614
355.51	29.097
355.87	27.918
356.24	28.013
356.60	27.747
356.96	29.445
357.32	27.473
357.68	29.055
358.04	27.712
358.40	27.870
358.77	28.717
359.13	27.940
359.49	28.549
359.85	27.222
360.21	27.751
360.57	27.393
360.93	28.154
361.29	28.269
361.66	27.864
362.02	27.910
362.38	27.757
362.74	27.753
363.10	27.387
363.46	26.632
363.82	27.740
364.18	27.313
364.54	28.083
364.90	28.258
365.26	27.868
365.62	27.904
365.98	27.684
366.35	26.361
366.71	27.549
367.07	28.259
367.43	27.866
367.79	28.051
368.15	29.382
368.51	27.108
368.87	27.052
369.23	27.067
369.59	28.602
369.95	26.912
370.31	26.994
370.67	27.319
371.03	27.790
371.39	27.915
371.75	27.353
372.11	27.596
372.47	27.566
372.83	27.810
373.19	26.951
373.55	28.086
373.91	28.424
374.27	26.529
374.63	28.000
374.99	27.825
375.35	26.099
375.71	27.553
376.07	27.435
376.42	27.992
376.78	27.038
377.14	26.459
377.50	27.616
377.86	27.128
378.22	27.939
378.58	27.005
378.94	26.524
379.30	27.036
379.66	27.855
380.02	28.194
380.38	27.383
380.74	27.131
381.09	27.078
381.45	27.474
381.81	27.211
382.17	26.497
382.53	27.296
382.89	27.222
383.25	27.017
383.61	27.819
383.97	26.892
384.32	27.324
384.68	26.828
385.04	27.843
385.40	27.183
385.76	27.518
386.12	27.396
386.48	27.816
386.83	27.903
387.19	28.881
387.55	28.200
387.91	27.207
388.27	26.487
388.62	27.044
388.98	26.843
389.34	27.159
389.70	27.161
390.06	27.757
390.42	26.524
390.77	27.163
391.13	27.313
391.49	27.348
391.85	26.798
392.20	26.246
392.56	27.652
392.92	27.722
393.28	26.213
393.64	26.619
393.99	27.062
394.35	26.861
394.71	26.913
395.07	26.293
395.42	26.638
395.78	26.018
396.14	25.947
396.50	27.506
396.85	26.637
397.21	26.695
397.57	27.216
397.92	27.224
398.28	26.009
398.64	27.300
399.00	26.413
399.35	26.678
399.71	26.678
400.07	27.735
400.42	26.564
400.78	27.081
401.14	27.073
401.49	27.522
401.85	26.558
402.21	25.928
402.57	26.157
402.92	27.491
403.28	26.421
403.63	26.671
403.99	26.433
404.35	27.515
404.70	26.259
405.06	26.209
405.42	26.326
405.77	26.743
406.13	26.242
406.49	26.848
406.84	26.639
407.20	25.887
407.55	26.228
407.91	26.733
408.27	26.101
408.62	26.911
408.98	26.348
409.34	26.322
409.69	27.419
410.05	25.960
410.40	26.544
410.76	26.165
411.11	25.694
411.47	25.367
411.83	27.123
412.18	26.036
412.54	25.654
412.89	26.024
413.25	25.561
413.60	26.374
413.96	25.501
414.31	26.185
414.67	25.729
415.03	26.225
415.38	25.966
415.74	26.238
416.09	26.584
416.45	25.569
416.80	25.578
417.16	27.011
417.51	26.145
417.87	25.241
418.22	26.498
418.58	25.823
418.93	25.921
419.29	25.080
419.64	25.756
420.00	25.793
420.35	25.623
420.71	26.240
421.06	25.537
421.42	26.140
421.77	26.345
422.12	24.874
422.48	24.609
422.83	25.044
423.19	25.028
423.54	24.492
423.90	25.333
424.25	24.846
424.61	25.357
424.96	24.956
425.31	24.640
425.67	25.337
426.02	25.086
426.38	25.214
426.73	24.459
427.09	25.167
427.44	24.899
427.79	24.094
428.15	25.476
428.50	24.810
428.85	25.268
429.21	23.744
429.56	23.691
429.92	24.006
430.27	23.436
430.62	23.605
430.98	23.819
431.33	23.660
431.68	24.241
432.04	24.175
432.39	23.872
432.74	24.536
433.10	23.656
433.45	23.907
433.80	24.390
434.16	24.092
434.51	24.211
434.86	24.515
435.22	23.958
435.57	23.769
435.92	24.108
436.28	24.911
436.63	23.620
436.98	23.812
437.34	24.150
437.69	24.854
438.04	23.777
438.39	24.358
438.75	24.637
439.10	23.799
439.45	24.439
439.81	23.323
440.16	22.925
440.51	23.667
440.86	24.262
441.22	23.971
441.57	23.567
441.92	23.644
442.27	23.089
442.63	23.065
442.98	23.493
443.33	23.043
443.68	23.542
444.03	23.914
444.39	22.201
444.74	23.810
445.09	23.450
445.44	22.745
445.79	23.355
446.15	23.240
446.50	23.586
446.85	23.073
447.20	23.100
447.55	23.506
447.91	23.442
448.26	23.484
448.61	23.403
448.96	23.810
449.31	23.285
449.66	24.254
450.02	22.953
450.37	22.902
450.72	22.843
451.07	22.791
451.42	22.918
451.77	24.075
452.12	22.806
452.47	23.694
452.83	23.485
453.18	23.472
453.53	23.624
453.88	22.563
454.23	22.594
454.58	23.864
454.93	23.522
455.28	22.880
455.63	22.998
455.98	23.690
456.34	22.927
456.69	23.544
457.04	22.601
457.39	22.969
457.74	22.403
458.09	22.944
458.44	22.406
458.79	21.855
459.14	23.081
459.49	22.884
459.84	22.327
460.19	22.569
460.54	22.454
460.89	22.326
461.24	22.829
461.59	23.300
461.94	22.195
462.29	22.849
462.64	22.272
462.99	22.511
463.34	22.267
463.69	22.264
464.04	23.362
464.39	22.957
464.74	23.113
465.09	21.592
465.44	21.662
465.79	22.427
466.14	22.551
466.49	22.080
466.84	21.775
467.19	23.355
467.54	22.688
467.89	21.609
468.24	21.815
468.59	23.016
468.94	22.053
469.29	21.851
469.64	22.490
469.99	22.192
470.34	21.797
470.68	21.911
471.03	22.721
471.38	22.516
471.73	22.918
472.08	22.566
472.43	22.236
472.78	22.449
473.13	21.823
473.48	21.536
473.83	22.256
474.17	21.655
474.52	23.077
474.87	22.300
475.22	22.113
475.57	21.977
475.92	21.933
476.27	21.928
476.61	21.787
476.96	21.660
477.31	20.984
477.66	22.101
478.01	21.380
478.36	21.787
478.70	21.599
479.05	21.565
479.40	21.290
479.75	21.454
480.10	21.223
480.45	21.514
480.79	20.497
481.14	21.722
481.49	21.405
481.84	21.171
482.19	22.126
482.53	21.422
482.88	20.521
483.23	21.215
483.58	20.928
483.92	21.415
484.27	20.000
484.62	20.560
484.97	20.536
485.31	21.027
485.66	20.993
486.01	20.486
486.36	19.932
486.70	19.583
487.05	19.350
487.40	19.816
487.75	19.660
488.09	19.321
488.44	19.613
488.79	19.638
489.13	20.474
489.48	20.024
489.83	19.724
490.17	20.342
490.52	20.682
490.87	20.669
491.22	20.327
491.56	19.954
491.91	20.289
492.26	20.073
492.60	20.230
492.95	19.177
493.30	20.047
493.64	20.672
493.99	20.288
494.34	20.953
494.68	21.245
495.03	20.395
495.37	20.149
495.72	20.273
496.07	20.789
496.41	20.088
496.76	20.097
497.11	19.811
497.45	19.702
497.80	20.106
498.14	19.614
498.49	20.439
498.84	19.703
499.18	19.667
499.53	20.085
499.87	20.177
500.22	19.925
500.56	20.583
500.91	20.048
501.26	20.389
501.60	20.693
501.95	19.615
502.29	20.337
502.64	19.646
502.98	19.869
503.33	19.835
503.67	19.397
504.02	19.925
504.36	20.449
504.71	20.274
505.06	20.337
505.40	20.369
505.75	20.203
506.09	19.291
506.44	20.227
506.78	19.484
507.13	20.848
507.47	19.697
507.82	20.010
508.16	19.504
508.51	20.244
508.85	19.563
509.19	19.745
509.54	19.541
509.88	20.041
510.23	19.846
510.57	20.691
510.92	20.249
511.26	19.784
511.61	19.398
511.95	19.990
512.30	19.512
512.64	19.828
512.98	20.257
513.33	20.236
513.67	19.957
514.02	19.048
514.36	19.880
514.70	20.144
515.05	20.301
515.39	21.088
515.74	20.721
516.08	20.291
516.42	19.978
516.77	20.569
517.11	19.478
517.46	20.034
517.80	19.744
518.14	19.224
518.49	20.128
518.83	20.455
519.17	19.804
519.52	19.411
519.86	20.365
520.20	20.751
520.55	20.527
520.89	20.316
521.23	20.024
521.58	20.408
521.92	20.637
522.26	18.853
522.61	20.561
522.95	20.258
523.29	20.572
523.64	20.000
523.98	20.579
524.32	20.567
524.66	20.686
525.01	20.895
525.35	19.083
525.69	20.320
526.04	20.062
526.38	20.561
526.72	19.877
527.06	20.276
527.41	18.874
527.75	20.772
528.09	20.681
528.43	20.331
528.78	20.836
529.12	19.939
529.46	20.943
529.80	20.483
530.15	20.125
530.49	19.323
530.83	20.127
531.17	20.366
531.51	20.752
531.86	19.742
532.20	21.447
532.54	21.461
532.88	20.026
533.22	19.800
533.57	20.432
533.91	20.650
534.25	19.927
534.59	20.073
534.93	19.869
535.27	20.821
535.62	20.024
535.96	19.586
536.30	20.153
536.64	20.026
536.98	21.433
537.32	19.487
537.66	20.200
538.01	20.935
538.35	21.267
538.69	20.868
539.03	20.468
539.37	19.744
539.71	19.313
540.05	20.523
540.39	19.734
540.73	19.922
541.07	21.090
541.42	20.613
541.76	21.484
542.10	20.634
542.44	20.530
542.78	21.212
543.12	19.898
543.46	20.852
543.80	20.299
544.14	18.999
544.48	20.127
544.82	20.077
545.16	20.104
545.50	20.051
545.84	20.430
546.18	20.067
546.52	20.647
546.86	20.000
547.20	20.499
547.54	19.906
547.88	20.918
548.22	20.423
548.56	20.692
548.90	20.615
549.24	19.394
549.58	19.645
549.92	20.055
550.26	20.241
550.60	19.917
550.94	20.282
551.28	18.947
551.62	20.273
551.96	20.070
552.30	20.273
552.64	20.960
552.98	20.475
553.32	20.364
553.66	20.995
554.00	21.071
554.34	19.945
554.68	21.245
555.02	20.451
555.36	20.181
555.69	20.027
556.03	20.659
556.37	20.464
556.71	20.191
557.05	19.468
557.39	19.804
557.73	20.677
558.07	20.160
558.41	19.465
558.75	20.573
559.08	19.911
559.42	19.652
559.76	20.074
560.10	20.343
560.44	20.475
560.78	20.160
561.12	20.844
561.45	20.469
561.79	19.776
562.13	20.255
562.47	20.560
562.81	20.642
563.15	20.268
563.48	20.557
563.82	20.222
564.16	19.555
564.50	19.010
564.84	19.659
565.17	19.884
565.51	20.511
565.85	19.480
566.19	19.537
566.52	20.139
566.86	19.289
567.20	20.283
567.54	19.235
567.88	19.880
568.21	20.582
568.55	19.616
568.89	20.039
569.23	18.717
569.56	19.109
569.90	18.981
570.24	19.483
570.57	19.245
570.91	19.392
571.25	18.839
571.59	18.616
571.92	18.664
572.26	19.151
572.60	19.069
572.93	19.070
573.27	18.781
573.61	18.872
573.95	19.121
574.28	19.070
574.62	19.169
574.96	19.092
575.29	18.574
575.63	18.648
575.97	18.250
576.30	18.667
576.64	18.600
576.98	18.692
577.31	19.039
577.65	18.979
577.98	18.898
578.32	18.626
578.66	19.057
578.99	19.037
579.33	18.712
579.67	18.536
580.00	18.892
580.34	18.747
580.67	18.530
581.01	18.889
581.35	19.104
581.68	18.709
582.02	18.541
582.35	18.354
582.69	18.628
583.02	18.707
583.36	18.492
583.70	18.556
584.03	18.208
584.37	18.472
584.70	18.704
585.04	19.007
585.37	18.802
585.71	19.243
586.04	18.821
586.38	19.018
586.72	18.945
587.05	18.935
587.39	18.707
587.72	18.758
588.06	18.677
588.39	18.957
588.73	18.862
589.06	18.791
589.40	18.687
589.73	18.937
590.07	18.932
590.40	18.634
590.73	18.931
591.07	19.495
591.40	19.485
591.74	19.784
592.07	19.110
592.41	18.975
592.74	19.588
593.08	18.954
593.41	19.266
593.75	19.332
594.08	18.874
594.41	19.441
594.75	19.519
595.08	19.041
595.42	19.264
595.75	18.091
596.09	19.151
596.42	18.939
596.75	19.080
597.09	18.874
597.42	18.761
597.75	19.017
598.09	19.217
598.42	19.502
598.76	19.578
599.09	19.650
599.42	19.432
599.76	19.619
600.09	18.725
600.42	19.138
600.76	18.929
601.09	18.871
601.42	19.140
601.76	18.861
602.09	19.289
602.42	19.108
602.76	19.307
603.09	19.315
603.42	19.485
603.76	19.169
604.09	19.000
604.42	18.793
604.76	19.359
605.09	19.310
605.42	18.726
605.75	19.619
606.09	18.585
606.42	19.330
606.75	19.370
607.09	19.255
607.42	19.127
607.75	18.819
608.08	19.453
608.42	19.005
608.75	19.071
609.08	18.733
609.41	19.277
609.75	19.247
610.08	19.651
610.41	19.413
610.74	19.300
611.07	19.911
611.41	19.333
611.74	19.507
612.07	19.617
612.40	19.412
612.73	19.368
613.07	19.774
613.40	20.274
613.73	19.088
614.06	19.409
614.39	19.612
614.72	18.737
615.06	19.958
615.39	19.321
615.72	18.967
616.05	19.192
616.38	20.623
616.71	19.893
617.05	20.259
617.38	20.445
617.71	20.060
618.04	19.651
618.37	18.746
618.70	20.411
619.03	20.724
619.36	19.348
619.69	19.789
620.03	19.986
620.36	19.652
620.69	19.589
621.02	20.354
621.35	20.595
621.68	20.794
622.01	20.666
622.34	20.877
622.67	19.924
623.00	19.222
623.33	21.086
623.66	21.658
623.99	19.956
624.32	20.899
624.65	20.198
624.99	20.184
625.32	20.058
625.65	20.511
625.98	21.061
626.31	21.229
626.64	21.224
626.97	20.615
627.30	20.116
627.63	21.001
627.96	21.194
628.29	22.135
628.62	22.141
628.95	22.358
629.28	20.894
629.61	22.090
629.94	21.048
630.26	20.782
630.59	19.828
630.92	20.594
