SpectraSuite Data File
++++++++++++++++++++++++++++++++++++
Date: Wed May 13 21:26:02 PDT 2015
User: schluterlab
Dark Spectrum Present: Yes
Reference Spectrum Present: Yes
Number of Sampled Component Spectra: 1
Spectrometers: USB2E3373
Integration Time (usec): 3000 (USB2E3373)
Spectra Averaged: 3 (USB2E3373)
Boxcar Smoothing: 0 (USB2E3373)
Correct for Electrical Dark: No (USB2E3373)
Strobe/Lamp Enabled: No (USB2E3373)
Correct for Detector Non-linearity: No (USB2E3373)
Correct for Stray Light: No (USB2E3373)
Number of Pixels in Processed Spectrum: 2048
>>>>>Begin Processed Spectral Data<<<<<
178.53	0.000
178.91	350.000
179.29	266.667
179.67	-1100.000
180.04	-433.333
180.42	280.000
180.80	2100.000
181.18	200.000
181.56	-375.000
181.94	-125.000
182.31	-18.182
182.69	130.769
183.07	-160.000
183.45	166.667
183.83	211.111
184.20	214.286
184.58	-133.333
184.96	-133.333
185.34	242.857
185.72	0.000
186.09	-1000.000
186.47	-280.000
186.85	200.000
187.23	0.000
187.61	400.000
187.98	1900.000
188.36	-100.000
188.74	0.000
189.12	-72.727
189.49	0.000
189.87	158.333
190.25	460.000
190.63	2000.000
191.00	-160.000
191.38	380.000
191.76	250.000
192.14	250.000
192.51	-10.526
192.89	533.333
193.27	150.000
193.65	-180.000
194.02	154.545
194.40	150.000
194.78	-1700.000
195.15	540.000
195.53	-340.000
195.91	-12.500
196.29	-266.667
196.66	0.000
197.04	100.000
197.42	-200.000
197.79	-120.000
198.17	-137.500
198.55	66.667
198.92	125.000
199.30	-700.000
199.68	-60.000
200.05	300.000
200.43	183.333
200.81	-400.000
201.18	-40.000
201.56	-216.667
201.94	750.000
202.31	13.043
202.69	-271.429
203.07	-666.667
203.44	-280.000
203.82	-300.000
204.19	-70.000
204.57	0.000
204.95	-116.667
205.32	0.000
205.70	100.000
206.08	-325.000
206.45	-250.000
206.83	375.000
207.20	-166.667
207.58	-50.000
207.96	-1000.000
208.33	-242.857
208.71	-1500.000
209.08	150.000
209.46	325.000
209.84	0.000
210.21	190.000
210.59	1500.000
210.96	340.000
211.34	600.000
211.71	-800.000
212.09	-233.333
212.46	-270.000
212.84	-166.667
213.22	100.000
213.59	-400.000
213.97	-450.000
214.34	-550.000
214.72	-61.538
215.09	200.000
215.47	222.222
215.84	450.000
216.22	-87.500
216.59	-550.000
216.97	900.000
217.34	44.444
217.72	0.000
218.09	400.000
218.47	0.000
218.84	-128.571
219.22	-200.000
219.59	-333.333
219.97	0.000
220.34	-212.500
220.72	-300.000
221.09	0.000
221.47	-83.333
221.84	-1500.000
222.22	0.000
222.59	700.000
222.97	-466.667
223.34	-133.333
223.72	-1100.000
224.09	-900.000
224.46	-109.091
224.84	0.000
225.21	-28.571
225.59	-400.000
225.96	-216.667
226.34	-10.000
226.71	-271.429
227.08	1250.000
227.46	-175.000
227.83	-200.000
228.21	-31.250
228.58	-350.000
228.95	-17.647
229.33	-18.750
229.70	-125.000
230.08	7.692
230.45	-137.500
230.82	-83.333
231.20	328.571
231.57	-500.000
231.95	1600.000
232.32	16.667
232.69	0.000
233.07	-900.000
233.44	-39.130
233.81	-550.000
234.19	-54.167
234.56	-86.667
234.93	-60.000
235.31	36.842
235.68	-30.769
236.05	-107.692
236.43	-66.667
236.80	-9.091
237.17	-126.667
237.55	-105.882
237.92	-62.069
238.29	-81.481
238.67	-30.556
239.04	-38.710
239.41	-14.894
239.79	-12.766
240.16	-11.628
240.53	0.000
240.91	0.000
241.28	-10.714
241.65	-8.065
242.02	-9.211
242.40	2.899
242.77	-14.493
243.14	-28.205
243.51	-7.447
243.89	-11.538
244.26	6.604
244.63	-8.654
245.00	1.042
245.38	-11.765
245.75	-9.836
246.12	-5.263
246.49	-9.756
246.87	-17.647
247.24	0.000
247.61	-5.960
247.98	-7.051
248.36	-7.101
248.73	-9.551
249.10	-8.081
249.47	-4.839
249.84	-1.053
250.22	0.000
250.59	-1.869
250.96	0.455
251.33	-14.354
251.70	5.439
252.08	-1.255
252.45	-0.823
252.82	-0.380
253.19	-3.113
253.56	-3.237
253.94	1.068
254.31	1.056
254.68	-0.336
255.05	0.000
255.42	-2.797
255.79	-0.920
256.16	0.631
256.54	-0.317
256.91	-4.114
257.28	0.314
257.65	-3.185
258.02	-2.933
258.39	-2.632
258.76	-6.977
259.14	-1.136
259.51	-5.899
259.88	-0.813
260.25	-4.167
260.62	-3.090
260.99	-1.592
261.36	-0.518
261.73	-2.469
262.10	-5.089
262.47	-2.469
262.85	-2.488
263.22	-3.333
263.59	-3.117
263.96	-0.243
264.33	-1.442
264.70	-0.465
265.07	-2.315
265.44	-0.690
265.81	-2.059
266.18	-0.456
266.55	-1.965
266.92	-0.636
267.29	0.823
267.66	0.425
268.03	-0.823
268.40	-2.119
268.77	-0.413
269.14	-0.408
269.51	-1.437
269.88	-1.222
270.25	-1.271
270.62	-2.049
270.99	0.787
271.36	0.000
271.73	-0.803
272.10	0.190
272.47	-1.344
272.84	1.181
273.21	-2.153
273.58	-1.844
273.95	0.000
274.32	-0.187
274.69	-0.729
275.06	0.530
275.43	-1.507
275.80	0.887
276.17	-1.842
276.54	-1.954
276.91	0.174
277.28	-1.264
277.65	-1.224
278.02	-0.357
278.39	-0.888
278.76	0.334
279.13	-1.201
279.50	-1.897
279.87	-2.355
280.23	-0.901
280.60	-3.633
280.97	-1.623
281.34	0.631
281.71	-1.463
282.08	-2.393
282.45	0.656
282.82	-1.118
283.19	1.677
283.56	-0.625
283.92	-1.223
284.29	0.156
284.66	-0.824
285.03	-2.932
285.40	-0.453
285.77	-0.450
286.14	-0.456
286.51	0.150
286.87	-1.077
287.24	-1.327
287.61	-1.355
287.98	2.059
288.35	-2.086
288.72	-0.143
289.08	0.712
289.45	-1.175
289.82	-0.605
290.19	1.122
290.56	-1.563
290.93	-1.934
291.29	-1.505
291.66	-0.820
292.03	0.681
292.40	-0.808
292.77	0.268
293.13	-0.837
293.50	0.261
293.87	0.933
294.24	-1.587
294.60	-0.390
294.97	0.661
295.34	-0.923
295.71	-1.971
296.08	-1.309
296.44	-1.531
296.81	-1.705
297.18	0.250
297.55	0.118
297.91	0.000
298.28	-0.363
298.65	-1.355
299.02	0.244
299.38	-1.104
299.75	0.361
300.12	-2.093
300.48	-0.936
300.85	-1.501
301.22	-0.697
301.59	-0.587
301.95	-1.278
302.32	-0.817
302.69	-1.243
303.05	0.221
303.42	-0.909
303.79	0.315
304.15	-0.329
304.52	2.258
304.89	-0.443
305.25	-1.098
305.62	-0.542
305.99	-1.197
306.35	1.254
306.72	0.000
307.09	-0.626
307.45	-1.065
307.82	-1.053
308.19	-0.627
308.55	-0.102
308.92	0.196
309.29	0.200
309.65	-1.199
310.02	0.994
310.38	-0.203
310.75	-1.677
311.12	-0.389
311.48	-1.286
311.85	-0.492
312.22	-0.097
312.58	-0.386
312.95	-0.398
313.31	0.459
313.68	0.763
314.05	-0.473
314.41	0.192
314.78	0.380
315.14	0.278
315.51	0.571
315.87	0.278
316.24	0.275
316.61	0.457
316.97	0.556
317.34	0.446
317.70	0.892
318.07	0.887
318.43	-0.632
318.80	0.698
319.16	-0.354
319.53	0.358
319.89	0.271
320.26	1.017
320.62	-0.278
320.99	0.291
321.35	0.000
321.72	1.059
322.08	1.199
322.45	1.388
322.81	1.017
323.18	1.431
323.54	1.986
323.91	1.897
324.27	0.990
324.64	0.697
325.00	0.612
325.37	1.877
325.73	1.094
326.10	0.841
326.46	1.421
326.83	1.537
327.19	2.195
327.56	2.417
327.92	2.896
328.29	2.504
328.65	2.454
329.01	1.407
329.38	2.870
329.74	2.403
330.11	0.812
330.47	1.128
330.84	1.895
331.20	2.818
331.56	1.902
331.93	2.584
332.29	3.997
332.66	2.034
333.02	3.562
333.38	2.895
333.75	3.584
334.11	2.170
334.48	3.051
334.84	2.208
335.20	3.002
335.57	2.437
335.93	1.375
336.29	2.014
336.66	1.966
337.02	3.043
337.38	2.350
337.75	1.981
338.11	2.391
338.47	1.541
338.84	3.007
339.20	2.910
339.56	3.328
339.93	2.939
340.29	3.160
340.65	3.080
341.02	2.662
341.38	2.449
341.74	2.101
342.11	2.973
342.47	2.845
342.83	3.023
343.20	3.130
343.56	3.107
343.92	4.062
344.28	3.247
344.65	2.449
345.01	3.228
345.37	3.536
345.73	4.003
346.10	4.414
346.46	3.496
346.82	3.050
347.19	3.323
347.55	4.362
347.91	3.429
348.27	2.524
348.63	3.125
349.00	3.774
349.36	4.160
349.72	3.558
350.08	3.276
350.45	2.897
350.81	3.286
351.17	4.234
351.53	3.064
351.89	2.780
352.26	2.703
352.62	3.411
352.98	3.275
353.34	3.301
353.70	4.128
354.07	3.922
354.43	4.044
354.79	3.446
355.15	3.804
355.51	3.948
355.87	3.206
356.24	2.809
356.60	3.284
356.96	3.454
357.32	4.334
357.68	4.660
358.04	3.801
358.40	3.643
358.77	3.899
359.13	3.969
359.49	4.012
359.85	3.715
360.21	4.086
360.57	3.650
360.93	3.718
361.29	4.515
361.66	4.024
362.02	3.781
362.38	4.062
362.74	4.569
363.10	4.411
363.46	4.107
363.82	4.730
364.18	4.206
364.54	4.668
364.90	4.390
365.26	3.963
365.62	4.119
365.98	4.484
366.35	4.397
366.71	3.352
367.07	4.678
367.43	3.902
367.79	4.239
368.15	4.501
368.51	3.797
368.87	4.745
369.23	4.769
369.59	5.004
369.95	4.209
370.31	4.672
370.67	4.417
371.03	5.122
371.39	4.968
371.75	4.571
372.11	5.199
372.47	4.326
372.83	4.646
373.19	4.748
373.55	4.697
373.91	4.738
374.27	4.219
374.63	4.623
374.99	4.526
375.35	5.137
375.71	4.008
376.07	5.826
376.42	5.013
376.78	6.275
377.14	5.966
377.50	6.780
377.86	5.046
378.22	5.120
378.58	5.044
378.94	6.750
379.30	5.247
379.66	5.487
380.02	5.637
380.38	5.482
380.74	5.200
381.09	5.006
381.45	5.985
381.81	5.237
382.17	6.112
382.53	6.031
382.89	5.850
383.25	5.494
383.61	5.690
383.97	5.625
384.32	5.230
384.68	5.490
385.04	5.376
385.40	5.604
385.76	6.752
386.12	5.617
386.48	6.082
386.83	6.258
387.19	5.244
387.55	6.499
387.91	5.658
388.27	6.165
388.62	6.055
388.98	5.006
389.34	5.890
389.70	5.739
390.06	5.813
390.42	6.250
390.77	6.278
391.13	6.061
391.49	5.566
391.85	5.431
392.20	5.451
392.56	5.524
392.92	5.559
393.28	6.159
393.64	5.138
393.99	4.835
394.35	6.605
394.71	6.026
395.07	5.472
395.42	7.252
395.78	5.727
396.14	6.785
396.50	5.580
396.85	7.011
397.21	5.993
397.57	6.335
397.92	5.749
398.28	6.261
398.64	6.375
399.00	6.752
399.35	6.413
399.71	5.649
400.07	5.542
400.42	6.019
400.78	5.921
401.14	4.966
401.49	5.692
401.85	5.590
402.21	5.263
402.57	6.254
402.92	6.821
403.28	5.441
403.63	6.386
403.99	4.926
404.35	5.923
404.70	4.955
405.06	5.931
405.42	5.528
405.77	5.127
406.13	5.600
406.49	5.572
406.84	5.861
407.20	5.861
407.55	5.260
407.91	5.030
408.27	5.677
408.62	6.507
408.98	5.364
409.34	5.012
409.69	5.783
410.05	5.659
410.40	5.234
410.76	5.836
411.11	5.846
411.47	5.972
411.83	5.802
412.18	5.730
412.54	5.702
412.89	4.577
413.25	5.664
413.60	5.329
413.96	5.181
414.31	6.289
414.67	5.714
415.03	5.345
415.38	5.812
415.74	6.108
416.09	5.486
416.45	6.630
416.80	5.436
417.16	5.601
417.51	5.492
417.87	6.217
418.22	5.107
418.58	5.519
418.93	5.587
419.29	5.545
419.64	5.407
420.00	5.524
420.35	5.738
420.71	4.936
421.06	5.843
421.42	5.657
421.77	5.434
422.12	5.788
422.48	5.889
422.83	5.729
423.19	5.693
423.54	5.771
423.90	5.523
424.25	5.026
424.61	6.038
424.96	4.672
425.31	5.496
425.67	5.703
426.02	6.007
426.38	5.224
426.73	5.070
427.09	5.754
427.44	5.461
427.79	5.107
428.15	5.138
428.50	5.196
428.85	6.212
429.21	5.459
429.56	5.685
429.92	5.466
430.27	5.164
430.62	5.509
430.98	5.553
431.33	5.266
431.68	5.751
432.04	5.465
432.39	5.081
432.74	4.476
433.10	4.997
433.45	5.030
433.80	5.747
434.16	5.461
434.51	5.815
434.86	5.006
435.22	5.490
435.57	5.221
435.92	5.489
436.28	4.384
436.63	5.889
436.98	6.169
437.34	4.762
437.69	5.195
438.04	5.603
438.39	5.417
438.75	5.423
439.10	5.205
439.45	5.751
439.81	5.480
440.16	5.913
440.51	5.291
440.86	4.564
441.22	5.737
441.57	5.965
441.92	5.443
442.27	5.087
442.63	5.490
442.98	5.324
443.33	5.305
443.68	5.377
444.03	5.216
444.39	5.801
444.74	5.025
445.09	4.901
445.44	5.690
445.79	5.059
446.15	5.713
446.50	5.452
446.85	5.238
447.20	5.541
447.55	5.652
447.91	4.719
448.26	5.432
448.61	5.236
448.96	5.353
449.31	5.197
449.66	5.957
450.02	5.401
450.37	5.288
450.72	5.339
451.07	5.204
451.42	5.427
451.77	5.234
452.12	5.348
452.47	5.875
452.83	4.422
453.18	4.838
453.53	5.738
453.88	5.361
454.23	5.130
454.58	5.515
454.93	4.811
455.28	5.395
455.63	4.866
455.98	5.234
456.34	4.832
456.69	5.431
457.04	5.077
457.39	5.833
457.74	5.087
458.09	5.213
458.44	4.407
458.79	5.437
459.14	5.393
459.49	5.610
459.84	5.186
460.19	4.622
460.54	4.562
460.89	5.574
461.24	4.686
461.59	4.589
461.94	4.867
462.29	4.167
462.64	4.551
462.99	5.433
463.34	5.939
463.69	4.768
464.04	4.562
464.39	5.796
464.74	5.344
465.09	4.774
465.44	5.780
465.79	5.808
466.14	5.245
466.49	5.455
466.84	5.260
467.19	4.777
467.54	5.185
467.89	5.468
468.24	4.978
468.59	4.971
468.94	5.619
469.29	5.684
469.64	4.533
469.99	6.069
470.34	5.462
470.68	4.981
471.03	5.924
471.38	5.563
471.73	6.516
472.08	6.254
472.43	5.409
472.78	6.153
473.13	4.420
473.48	4.958
473.83	5.587
474.17	5.664
474.52	5.761
474.87	4.765
475.22	5.193
475.57	6.079
475.92	5.507
476.27	5.536
476.61	5.663
476.96	5.425
477.31	5.448
477.66	5.593
478.01	5.165
478.36	5.504
478.70	5.532
479.05	6.104
479.40	6.188
479.75	6.111
480.10	5.762
480.45	5.983
480.79	5.973
481.14	5.775
481.49	5.575
481.84	5.467
482.19	5.929
482.53	6.333
482.88	5.609
483.23	5.149
483.58	5.766
483.92	5.204
484.27	5.535
484.62	5.016
484.97	5.682
485.31	5.922
485.66	5.504
486.01	5.639
486.36	5.693
486.70	5.571
487.05	5.926
487.40	5.833
487.75	6.029
488.09	6.068
488.44	6.169
488.79	6.435
489.13	6.004
489.48	5.558
489.83	5.851
490.17	5.538
490.52	6.265
490.87	5.563
491.22	6.029
491.56	5.702
491.91	5.617
492.26	5.271
492.60	5.002
492.95	6.317
493.30	6.056
493.64	5.707
493.99	6.184
494.34	5.636
494.68	5.155
495.03	5.336
495.37	5.791
495.72	5.815
496.07	5.407
496.41	5.007
496.76	5.622
497.11	5.915
497.45	5.593
497.80	6.360
498.14	5.743
498.49	5.396
498.84	5.466
499.18	6.172
499.53	5.859
499.87	5.046
500.22	6.172
500.56	6.068
500.91	5.533
501.26	6.207
501.60	5.441
501.95	5.846
502.29	6.650
502.64	6.557
502.98	6.262
503.33	5.937
503.67	6.183
504.02	5.637
504.36	5.894
504.71	6.199
505.06	6.215
505.40	6.546
505.75	6.918
506.09	6.183
506.44	6.099
506.78	6.704
507.13	7.328
507.47	6.628
507.82	6.175
508.16	7.018
508.51	6.870
508.85	6.169
509.19	6.402
509.54	7.239
509.88	7.258
510.23	7.316
510.57	7.468
510.92	7.920
511.26	8.251
511.61	6.915
511.95	7.222
512.30	7.052
512.64	7.605
512.98	7.645
513.33	8.000
513.67	7.439
514.02	8.153
514.36	8.034
514.70	8.661
515.05	8.953
515.39	7.960
515.74	8.348
516.08	8.260
516.42	8.353
516.77	8.084
517.11	8.995
517.46	8.343
517.80	8.838
518.14	8.451
518.49	8.921
518.83	9.189
519.17	9.337
519.52	9.590
519.86	9.472
520.20	8.793
520.55	9.577
520.89	9.930
521.23	10.321
521.58	10.303
521.92	10.057
522.26	9.954
522.61	9.632
522.95	10.039
523.29	10.540
523.64	10.235
523.98	10.038
524.32	10.712
524.66	9.935
525.01	9.830
525.35	10.994
525.69	10.205
526.04	10.684
526.38	10.580
526.72	11.045
527.06	10.896
527.41	10.192
527.75	9.680
528.09	11.709
528.43	10.855
528.78	10.530
529.12	12.031
529.46	11.196
529.80	10.939
530.15	10.489
530.49	11.186
530.83	10.494
531.17	10.616
531.51	10.519
531.86	11.314
532.20	11.509
532.54	10.966
532.88	10.688
533.22	11.178
533.57	11.325
533.91	11.742
534.25	12.305
534.59	11.133
534.93	11.862
535.27	11.720
535.62	11.711
535.96	12.167
536.30	11.702
536.64	10.458
536.98	11.703
537.32	11.744
537.66	12.835
538.01	11.581
538.35	11.257
538.69	11.572
539.03	11.611
539.37	12.005
539.71	11.733
540.05	10.729
540.39	11.562
540.73	11.453
541.07	11.565
541.42	11.852
541.76	10.961
542.10	11.104
542.44	11.435
542.78	11.659
543.12	12.197
543.46	11.403
543.80	11.948
544.14	11.425
544.48	11.878
544.82	11.701
545.16	11.765
545.50	12.019
545.84	11.150
546.18	10.659
546.52	11.856
546.86	10.742
547.20	11.365
547.54	11.294
547.88	11.201
548.22	12.182
548.56	11.074
548.90	11.637
549.24	12.083
549.58	11.103
549.92	11.812
550.26	12.841
550.60	11.336
550.94	10.746
551.28	11.809
551.62	12.030
551.96	11.201
552.30	11.281
552.64	11.723
552.98	11.790
553.32	11.175
553.66	11.079
554.00	11.231
554.34	11.355
554.68	10.440
555.02	11.302
555.36	11.346
555.69	10.998
556.03	11.008
556.37	10.100
556.71	11.072
557.05	10.775
557.39	11.379
557.73	11.346
558.07	11.002
558.41	11.052
558.75	10.701
559.08	9.864
559.42	11.644
559.76	10.780
560.10	10.453
560.44	12.307
560.78	10.288
561.12	11.212
561.45	10.612
561.79	11.210
562.13	10.478
562.47	10.357
562.81	10.317
563.15	10.623
563.48	11.425
563.82	10.944
564.16	11.713
564.50	10.923
564.84	11.149
565.17	11.060
565.51	10.160
565.85	9.993
566.19	11.391
566.52	10.223
566.86	9.987
567.20	10.751
567.54	10.651
567.88	10.358
568.21	10.864
568.55	10.485
568.89	9.322
569.23	10.907
569.56	10.388
569.90	10.084
570.24	9.458
570.57	10.304
570.91	10.253
571.25	10.032
571.59	9.952
571.92	10.326
572.26	10.009
572.60	10.410
572.93	10.122
573.27	10.112
573.61	10.394
573.95	10.127
574.28	10.157
574.62	10.269
574.96	10.162
575.29	9.855
575.63	10.248
575.97	10.027
576.30	10.270
576.64	10.348
576.98	9.738
577.31	9.908
577.65	9.918
577.98	9.952
578.32	9.685
578.66	10.088
578.99	10.235
579.33	10.170
579.67	9.878
580.00	9.814
580.34	10.034
580.67	10.314
581.01	10.378
581.35	10.207
581.68	10.089
582.02	9.838
582.35	9.886
582.69	9.952
583.02	9.597
583.36	9.988
583.70	10.033
584.03	10.542
584.37	9.781
584.70	10.226
585.04	9.956
585.37	9.696
585.71	9.937
586.04	9.574
586.38	9.708
586.72	9.638
587.05	10.265
587.39	10.209
587.72	9.601
588.06	10.233
588.39	10.160
588.73	9.627
589.06	9.311
589.40	10.045
589.73	9.486
590.07	10.427
590.40	9.731
590.73	9.806
591.07	9.570
591.40	9.391
591.74	9.649
592.07	9.722
592.41	9.524
592.74	9.915
593.08	9.333
593.41	9.570
593.75	9.302
594.08	9.050
594.41	9.799
594.75	9.858
595.08	9.410
595.42	9.306
595.75	9.798
596.09	9.161
596.42	9.967
596.75	9.873
597.09	9.236
597.42	9.780
597.75	9.689
598.09	9.381
598.42	10.291
598.76	9.236
599.09	9.764
599.42	9.063
599.76	8.937
600.09	9.337
600.42	9.040
600.76	8.869
601.09	9.454
601.42	9.134
601.76	8.919
602.09	9.161
602.42	9.699
602.76	9.564
603.09	9.281
603.42	9.156
603.76	8.885
604.09	8.656
604.42	9.125
604.76	9.341
605.09	9.334
605.42	9.402
605.75	8.694
606.09	8.816
606.42	8.687
606.75	8.961
607.09	9.353
607.42	8.888
607.75	8.578
608.08	9.423
608.42	9.325
608.75	9.173
609.08	9.113
609.41	9.439
609.75	8.775
610.08	9.320
610.41	9.086
610.74	8.758
611.07	8.567
611.41	9.314
611.74	8.644
612.07	8.911
612.40	9.081
612.73	8.672
613.07	8.758
613.40	8.756
613.73	9.534
614.06	8.513
614.39	9.450
614.72	9.550
615.06	8.667
615.39	8.830
615.72	8.261
616.05	8.896
616.38	9.278
616.71	8.818
617.05	9.029
617.38	8.749
617.71	7.414
618.04	9.080
618.37	9.274
618.70	8.926
619.03	8.247
619.36	8.327
619.69	8.626
620.03	8.551
620.36	8.838
620.69	8.137
621.02	9.077
621.35	6.378
621.68	8.150
622.01	7.282
622.34	7.851
622.67	8.066
623.00	9.347
623.33	8.975
623.66	7.584
623.99	9.152
624.32	7.483
624.65	7.938
624.99	8.376
625.32	9.709
625.65	8.837
625.98	8.689
626.31	8.327
626.64	7.051
626.97	8.997
627.30	8.896
627.63	9.083
627.96	7.792
628.29	9.767
628.62	9.478
628.95	8.116
629.28	8.867
629.61	9.856
629.94	9.284
630.26	9.754
630.59	8.891
630.92	8.032
631.25	7.827
631.58	8.887
631.91	8.271
632.24	7.684
632.57	7.778
632.90	9.102
633.23	8.153
633.56	8.633
633.89	8.971
634.22	10.012
634.55	7.674
634.88	9.191
635.20	8.250
635.53	6.848
635.86	8.205
636.19	8.437
636.52	6.098
636.85	8.565
637.18	5.847
637.51	7.740
637.83	9.399
638.16	6.800
638.49	7.076
638.82	6.928
639.15	7.580
639.48	8.957
639.81	8.056
640.13	8.592
640.46	8.192
640.79	7.626
641.12	6.509
641.45	7.132
641.77	8.247
642.10	8.321
642.43	8.333
642.76	7.729
643.09	6.709
643.41	9.250
643.74	9.693
644.07	6.958
644.40	7.794
644.73	6.610
645.05	7.853
645.38	7.973
645.71	6.122
646.04	5.556
646.36	6.597
646.69	7.343
647.02	7.286
647.35	7.130
647.67	6.654
648.00	6.159
648.33	6.610
648.66	7.012
648.98	6.522
649.31	7.669
649.64	5.947
649.96	7.583
650.29	7.190
