SpectraSuite Data File
++++++++++++++++++++++++++++++++++++
Date: Wed May 13 20:26:48 PDT 2015
User: schluterlab
Dark Spectrum Present: Yes
Reference Spectrum Present: Yes
Number of Sampled Component Spectra: 1
Spectrometers: USB2E3373
Integration Time (usec): 3000 (USB2E3373)
Spectra Averaged: 3 (USB2E3373)
Boxcar Smoothing: 0 (USB2E3373)
Correct for Electrical Dark: No (USB2E3373)
Strobe/Lamp Enabled: No (USB2E3373)
Correct for Detector Non-linearity: No (USB2E3373)
Correct for Stray Light: No (USB2E3373)
Number of Pixels in Processed Spectrum: 2048
>>>>>Begin Processed Spectral Data<<<<<
178.53	0.000
178.91	-1250.000
179.29	-1050.000
179.67	-205.556
180.04	-1000.000
180.42	2400.000
180.80	760.000
181.18	-1000.000
181.56	628.571
181.94	0.000
182.31	-600.000
182.69	1333.333
183.07	-600.000
183.45	-455.556
183.83	481.818
184.20	-380.000
184.58	2000.000
184.96	4800.000
185.34	-720.000
185.72	-537.500
186.09	-2000.000
186.47	3100.000
186.85	2300.000
187.23	5000.000
187.61	-1500.000
187.98	1200.000
188.36	472.727
188.74	500.000
189.12	-740.000
189.49	540.000
189.87	-4600.000
190.25	-1300.000
190.63	414.286
191.00	415.385
191.38	800.000
191.76	-1000.000
192.14	1375.000
192.51	550.000
192.89	833.333
193.27	537.500
193.65	-850.000
194.02	450.000
194.40	860.000
194.78	490.000
195.15	450.000
195.53	590.000
195.91	-1500.000
196.29	293.750
196.66	300.000
197.04	-350.000
197.42	0.000
197.79	490.000
198.17	-4600.000
198.55	628.571
198.92	587.500
199.30	900.000
199.68	0.000
200.05	322.222
200.43	642.857
200.81	4400.000
201.18	1566.667
201.56	-1566.667
201.94	511.111
202.31	466.667
202.69	358.333
203.07	470.000
203.44	0.000
203.82	1125.000
204.19	642.857
204.57	471.429
204.95	512.500
205.32	1166.667
205.70	418.182
206.08	364.286
206.45	2150.000
206.83	325.000
207.20	900.000
207.58	860.000
207.96	355.556
208.33	762.500
208.71	-733.333
209.08	685.714
209.46	533.333
209.84	400.000
210.21	-1633.333
210.59	1425.000
210.96	-462.500
211.34	2150.000
211.71	510.000
212.09	583.333
212.46	0.000
212.84	1400.000
213.22	1325.000
213.59	-4000.000
213.97	700.000
214.34	742.857
214.72	518.182
215.09	720.000
215.47	-2050.000
215.84	-2400.000
216.22	1400.000
216.59	407.143
216.97	1225.000
217.34	418.182
217.72	-566.667
218.09	0.000
218.47	-4800.000
218.84	500.000
219.22	642.857
219.59	1300.000
219.97	-342.857
220.34	860.000
220.72	-1400.000
221.09	364.286
221.47	1200.000
221.84	-666.667
222.22	0.000
222.59	1250.000
222.97	-2800.000
223.34	1020.000
223.72	353.846
224.09	1000.000
224.46	2150.000
224.84	-4300.000
225.21	-800.000
225.59	-4900.000
225.96	450.000
226.34	270.000
226.71	2900.000
227.08	462.500
227.46	510.000
227.83	-1075.000
228.21	-2250.000
228.58	644.444
228.95	-2150.000
229.33	-2000.000
229.70	1500.000
230.08	714.286
230.45	-720.000
230.82	400.000
231.20	600.000
231.57	614.286
231.95	425.000
232.32	190.909
232.69	336.364
233.07	628.571
233.44	292.308
233.81	-1500.000
234.19	289.474
234.56	366.667
234.93	391.667
235.31	409.091
235.68	338.462
236.05	250.000
236.43	139.394
236.80	294.737
237.17	3300.000
237.55	190.476
237.92	150.000
238.29	204.762
238.67	129.032
239.04	168.966
239.41	100.000
239.79	71.739
240.16	102.381
240.53	79.545
240.91	76.471
241.28	80.000
241.65	78.000
242.02	79.710
242.40	66.129
242.77	63.333
243.14	63.441
243.51	73.034
243.89	58.824
244.26	56.667
244.63	45.161
245.00	56.383
245.38	55.446
245.75	42.056
246.12	43.119
246.49	50.365
246.87	49.600
247.24	36.923
247.61	40.000
247.98	41.830
248.36	31.081
248.73	35.032
249.10	36.306
249.47	33.898
249.84	34.225
250.22	37.433
250.59	31.953
250.96	30.303
251.33	29.384
251.70	30.693
252.08	27.143
252.45	27.803
252.82	27.826
253.19	25.532
253.56	28.235
253.94	27.801
254.31	26.172
254.68	26.538
255.05	26.568
255.42	24.390
255.79	24.632
256.16	25.632
256.54	18.021
256.91	23.843
257.28	20.144
257.65	21.782
258.02	23.913
258.39	19.874
258.76	18.395
259.14	22.321
259.51	18.237
259.88	20.186
260.25	19.637
260.62	19.942
260.99	18.944
261.36	19.219
261.73	20.917
262.10	18.023
262.47	19.437
262.85	21.727
263.22	15.670
263.59	20.798
263.96	17.582
264.33	18.277
264.70	19.211
265.07	17.903
265.44	19.949
265.81	17.518
266.18	16.332
266.55	18.293
266.92	17.690
267.29	16.667
267.66	20.642
268.03	18.636
268.40	17.056
268.77	15.990
269.14	17.117
269.51	19.639
269.88	14.918
270.25	15.350
270.62	17.303
270.99	18.495
271.36	15.880
271.73	16.121
272.10	15.435
272.47	18.925
272.84	14.935
273.21	15.933
273.58	14.629
273.95	13.627
274.32	14.256
274.69	14.347
275.06	15.551
275.43	14.043
275.80	15.030
276.17	13.442
276.54	14.761
276.91	16.601
277.28	14.062
277.65	13.346
278.02	14.907
278.39	15.625
278.76	16.182
279.13	15.849
279.50	13.408
279.87	16.534
280.23	14.571
280.60	14.894
280.97	13.678
281.34	14.159
281.71	16.000
282.08	15.355
282.45	12.909
282.82	14.032
283.19	13.191
283.56	15.965
283.92	15.736
284.29	10.935
284.66	13.067
285.03	15.732
285.40	13.380
285.77	14.646
286.14	11.572
286.51	15.167
286.87	14.359
287.24	14.821
287.61	12.841
287.98	13.961
288.35	12.837
288.72	13.551
289.08	13.928
289.45	13.015
289.82	13.333
290.19	11.460
290.56	13.017
290.93	10.876
291.29	12.270
291.66	13.127
292.03	13.517
292.40	14.978
292.77	11.834
293.13	12.090
293.50	11.662
293.87	11.704
294.24	12.889
294.60	10.480
294.97	12.791
295.34	13.399
295.71	11.648
296.08	12.393
296.44	11.692
296.81	10.568
297.18	11.924
297.55	10.686
297.91	10.686
298.28	10.710
298.65	12.272
299.02	11.462
299.38	10.624
299.75	9.973
300.12	10.345
300.48	11.125
300.85	11.221
301.22	11.592
301.59	10.732
301.95	11.461
302.32	10.013
302.69	12.067
303.05	10.909
303.42	10.123
303.79	10.985
304.15	11.189
304.52	9.386
304.89	10.221
305.25	9.977
305.62	12.344
305.99	12.161
306.35	9.843
306.72	10.426
307.09	10.766
307.45	11.712
307.82	10.268
308.19	10.927
308.55	11.435
308.92	11.923
309.29	10.032
309.65	10.817
310.02	10.888
310.38	10.108
310.75	12.038
311.12	11.054
311.48	11.285
311.85	11.950
312.22	12.071
312.58	10.499
312.95	12.566
313.31	12.233
313.68	11.850
314.05	14.793
314.41	13.869
314.78	12.991
315.14	13.704
315.51	13.285
315.87	14.455
316.24	13.208
316.61	14.230
316.97	13.503
317.34	13.992
317.70	15.296
318.07	15.881
318.43	16.047
318.80	16.870
319.16	16.384
319.53	17.073
319.89	18.571
320.26	18.500
320.62	18.452
320.99	19.899
321.35	19.293
321.72	18.994
322.08	19.941
322.45	21.095
322.81	20.349
323.18	21.580
323.54	21.243
323.91	20.660
324.27	22.562
324.64	23.299
325.00	22.362
325.37	24.841
325.73	23.339
326.10	24.184
326.46	24.104
326.83	24.935
327.19	26.217
327.56	26.307
327.92	26.334
328.29	27.240
328.65	26.335
329.01	26.986
329.38	27.290
329.74	28.440
330.11	29.783
330.47	29.201
330.84	28.033
331.20	28.871
331.56	29.266
331.93	29.537
332.29	28.749
332.66	29.381
333.02	29.982
333.38	29.449
333.75	28.520
334.11	30.694
334.48	28.926
334.84	30.882
335.20	31.273
335.57	30.553
335.93	29.375
336.29	31.227
336.66	31.830
337.02	30.679
337.38	31.852
337.75	30.481
338.11	31.513
338.47	32.228
338.84	30.522
339.20	29.908
339.56	32.847
339.93	32.091
340.29	32.337
340.65	33.868
341.02	32.548
341.38	32.740
341.74	32.632
342.11	32.664
342.47	33.480
342.83	33.562
343.20	34.199
343.56	33.530
343.92	32.544
344.28	33.078
344.65	34.910
345.01	32.492
345.37	34.563
345.73	34.687
346.10	34.868
346.46	34.831
346.82	34.020
347.19	33.918
347.55	34.319
347.91	33.657
348.27	36.647
348.63	35.117
349.00	34.628
349.36	35.550
349.72	34.884
350.08	35.008
350.45	36.208
350.81	34.931
351.17	35.251
351.53	34.889
351.89	35.314
352.26	37.253
352.62	37.049
352.98	35.656
353.34	37.223
353.70	34.697
354.07	36.613
354.43	36.032
354.79	36.605
355.15	36.313
355.51	37.810
355.87	36.816
356.24	36.564
356.60	37.049
356.96	37.973
357.32	38.267
357.68	38.661
358.04	38.163
358.40	38.005
358.77	37.872
359.13	36.859
359.49	38.431
359.85	36.508
360.21	38.437
360.57	37.510
360.93	37.615
361.29	38.322
361.66	37.229
362.02	37.985
362.38	37.795
362.74	38.021
363.10	37.750
363.46	36.977
363.82	38.171
364.18	37.812
364.54	39.673
364.90	38.527
365.26	38.676
365.62	39.226
365.98	40.029
366.35	38.395
366.71	38.395
367.07	39.621
367.43	39.768
367.79	40.828
368.15	41.164
368.51	39.680
368.87	39.186
369.23	40.015
369.59	38.668
369.95	39.485
370.31	39.672
370.67	39.565
371.03	39.850
371.39	39.942
371.75	40.074
372.11	38.762
372.47	41.422
372.83	40.418
373.19	38.945
373.55	41.094
373.91	41.016
374.27	40.412
374.63	39.636
374.99	39.689
375.35	40.265
375.71	38.108
376.07	41.084
376.42	40.303
376.78	41.219
377.14	39.688
377.50	40.331
377.86	39.894
378.22	40.076
378.58	39.850
378.94	39.095
379.30	41.476
379.66	40.673
380.02	40.356
380.38	39.405
380.74	39.736
381.09	39.670
381.45	40.996
381.81	40.602
382.17	39.936
382.53	39.182
382.89	40.494
383.25	40.775
383.61	40.644
383.97	40.088
384.32	39.177
384.68	39.405
385.04	39.582
385.40	38.142
385.76	40.111
386.12	39.767
386.48	40.277
386.83	39.384
387.19	39.208
387.55	39.703
387.91	40.568
388.27	39.056
388.62	40.381
388.98	39.251
389.34	41.239
389.70	39.546
390.06	40.304
390.42	38.586
390.77	40.204
391.13	41.289
391.49	39.657
391.85	39.784
392.20	38.738
392.56	38.826
392.92	39.376
393.28	38.462
393.64	39.209
393.99	39.218
394.35	38.337
394.71	37.829
395.07	38.442
395.42	38.875
395.78	38.740
396.14	38.547
396.50	39.474
396.85	39.479
397.21	37.423
397.57	38.376
397.92	37.740
398.28	38.341
398.64	37.395
399.00	37.997
399.35	37.733
399.71	38.021
400.07	37.729
400.42	37.301
400.78	38.963
401.14	38.232
401.49	38.866
401.85	37.992
402.21	37.545
402.57	37.940
402.92	37.390
403.28	37.477
403.63	37.748
403.99	38.726
404.35	36.424
404.70	38.309
405.06	36.459
405.42	36.868
405.77	37.886
406.13	36.061
406.49	37.374
406.84	36.917
407.20	35.520
407.55	37.269
407.91	37.267
408.27	36.375
408.62	36.063
408.98	36.458
409.34	36.408
409.69	37.290
410.05	37.175
410.40	36.942
410.76	35.185
411.11	35.223
411.47	35.463
411.83	36.958
412.18	35.312
412.54	36.488
412.89	34.880
413.25	35.537
413.60	35.639
413.96	34.426
414.31	34.994
414.67	36.755
415.03	35.960
415.38	36.469
415.74	36.141
416.09	35.859
416.45	35.341
416.80	35.492
417.16	36.126
417.51	35.700
417.87	35.389
418.22	35.584
418.58	35.700
418.93	36.118
419.29	35.964
419.64	35.579
420.00	35.732
420.35	35.536
420.71	34.549
421.06	34.427
421.42	35.439
421.77	34.585
422.12	34.250
422.48	33.729
422.83	35.469
423.19	34.309
423.54	34.243
423.90	35.130
424.25	33.780
424.61	35.714
424.96	34.752
425.31	34.164
425.67	34.213
426.02	33.943
426.38	34.982
426.73	33.938
427.09	34.590
427.44	34.445
427.79	35.308
428.15	34.524
428.50	34.874
428.85	34.803
429.21	34.677
429.56	34.681
429.92	33.920
430.27	33.764
430.62	33.436
430.98	33.576
431.33	34.021
431.68	34.974
432.04	33.014
432.39	33.295
432.74	35.308
433.10	34.692
433.45	35.277
433.80	34.424
434.16	34.295
434.51	33.526
434.86	34.208
435.22	34.964
435.57	34.103
435.92	33.294
436.28	34.520
436.63	34.382
436.98	33.257
437.34	34.645
437.69	34.014
438.04	33.895
438.39	34.030
438.75	34.573
439.10	34.358
439.45	33.589
439.81	34.381
440.16	33.484
440.51	34.153
440.86	33.758
441.22	33.037
441.57	33.546
441.92	33.367
442.27	33.477
442.63	32.596
442.98	34.141
443.33	32.989
443.68	33.351
444.03	33.480
444.39	33.350
444.74	34.253
445.09	33.261
445.44	32.914
445.79	33.251
446.15	33.298
446.50	33.279
446.85	33.196
447.20	33.044
447.55	33.389
447.91	33.425
448.26	34.224
448.61	33.126
448.96	33.776
449.31	32.677
449.66	33.089
450.02	31.866
450.37	31.859
450.72	32.713
451.07	31.505
451.42	31.915
451.77	33.001
452.12	32.044
452.47	32.463
452.83	32.867
453.18	33.007
453.53	32.839
453.88	32.487
454.23	32.277
454.58	33.616
454.93	34.011
455.28	32.170
455.63	31.857
455.98	33.393
456.34	32.852
456.69	32.561
457.04	32.817
457.39	31.327
457.74	30.934
458.09	31.857
458.44	31.870
458.79	30.748
459.14	31.603
459.49	31.874
459.84	31.801
460.19	30.642
460.54	31.424
460.89	32.584
461.24	31.573
461.59	31.842
461.94	31.319
462.29	31.335
462.64	30.759
462.99	30.449
463.34	31.733
463.69	31.144
464.04	31.420
464.39	30.493
464.74	31.135
465.09	30.820
465.44	30.360
465.79	29.586
466.14	29.776
466.49	29.700
466.84	30.823
467.19	30.175
467.54	30.875
467.89	30.372
468.24	29.959
468.59	30.830
468.94	29.627
469.29	30.077
469.64	30.120
469.99	30.379
470.34	30.317
470.68	31.034
471.03	30.544
471.38	31.063
471.73	30.446
472.08	30.855
472.43	30.779
472.78	29.888
473.13	29.525
473.48	29.588
473.83	30.061
474.17	29.434
474.52	28.784
474.87	29.013
475.22	29.135
475.57	28.157
475.92	28.200
476.27	29.425
476.61	27.744
476.96	28.092
477.31	28.153
477.66	28.282
478.01	28.280
478.36	27.975
478.70	27.362
479.05	27.316
479.40	27.892
479.75	27.351
480.10	26.541
480.45	26.844
480.79	26.374
481.14	27.495
481.49	26.626
481.84	26.612
482.19	26.533
482.53	25.917
482.88	25.919
483.23	26.963
483.58	26.888
483.92	26.476
484.27	25.054
484.62	25.733
484.97	25.976
485.31	24.829
485.66	23.673
486.01	22.955
486.36	22.075
486.70	22.877
487.05	23.297
487.40	23.698
487.75	23.330
488.09	23.749
488.44	23.916
488.79	24.448
489.13	25.210
489.48	25.082
489.83	25.162
490.17	25.296
490.52	24.624
490.87	24.695
491.22	24.920
491.56	24.829
491.91	24.244
492.26	25.678
492.60	24.885
492.95	23.948
493.30	24.065
493.64	24.732
493.99	23.770
494.34	23.913
494.68	24.588
495.03	24.671
495.37	23.872
495.72	24.172
496.07	24.269
496.41	23.761
496.76	23.395
497.11	23.908
497.45	24.266
497.80	23.752
498.14	24.010
498.49	23.756
498.84	24.209
499.18	23.619
499.53	23.504
499.87	23.346
500.22	23.599
500.56	23.981
500.91	22.788
501.26	23.376
501.60	23.588
501.95	22.731
502.29	23.102
502.64	23.277
502.98	22.627
503.33	22.578
503.67	22.691
504.02	22.638
504.36	22.508
504.71	22.912
505.06	22.217
505.40	22.995
505.75	21.794
506.09	22.838
506.44	22.496
506.78	22.747
507.13	22.413
507.47	22.879
507.82	22.340
508.16	22.796
508.51	22.933
508.85	22.989
509.19	22.653
509.54	21.786
509.88	22.875
510.23	22.211
510.57	22.910
510.92	22.527
511.26	22.302
511.61	22.510
511.95	22.234
512.30	22.375
512.64	21.601
512.98	21.865
513.33	22.377
513.67	21.985
514.02	22.240
514.36	21.791
514.70	22.357
515.05	22.309
515.39	22.490
515.74	21.959
516.08	22.527
516.42	22.475
516.77	22.297
517.11	21.421
517.46	22.009
517.80	21.951
518.14	21.714
518.49	22.404
518.83	21.818
519.17	22.055
519.52	21.619
519.86	21.221
520.20	22.428
520.55	22.741
520.89	21.046
521.23	22.075
521.58	22.629
521.92	21.862
522.26	21.538
522.61	21.433
522.95	21.424
523.29	21.485
523.64	21.829
523.98	21.503
524.32	21.411
524.66	22.189
525.01	21.324
525.35	20.880
525.69	21.490
526.04	21.620
526.38	20.500
526.72	21.534
527.06	21.343
527.41	19.864
527.75	21.672
528.09	21.580
528.43	21.033
528.78	21.205
529.12	20.848
529.46	20.392
529.80	20.854
530.15	21.807
530.49	20.123
530.83	21.266
531.17	21.606
531.51	21.855
531.86	20.710
532.20	21.382
532.54	20.948
532.88	21.181
533.22	19.425
533.57	20.556
533.91	20.289
534.25	20.292
534.59	19.585
534.93	18.679
535.27	20.338
535.62	19.475
535.96	20.841
536.30	19.708
536.64	20.605
536.98	20.836
537.32	20.869
537.66	19.800
538.01	19.882
538.35	20.103
538.69	20.357
539.03	20.338
539.37	19.425
539.71	18.146
540.05	19.869
540.39	19.601
540.73	20.828
541.07	20.506
541.42	19.961
541.76	19.871
542.10	19.858
542.44	18.808
542.78	20.092
543.12	18.490
543.46	19.475
543.80	19.453
544.14	18.293
544.48	19.365
544.82	18.602
545.16	19.649
545.50	17.995
545.84	19.624
546.18	19.192
546.52	20.028
546.86	19.450
547.20	19.892
547.54	19.238
547.88	20.217
548.22	18.244
548.56	18.553
548.90	18.246
549.24	18.249
549.58	18.963
549.92	19.437
550.26	19.957
550.60	18.949
550.94	19.718
551.28	17.996
551.62	20.489
551.96	18.246
552.30	19.181
552.64	18.796
552.98	19.119
553.32	18.948
553.66	19.223
554.00	17.982
554.34	19.048
554.68	19.599
555.02	18.618
555.36	18.650
555.69	17.388
556.03	17.900
556.37	17.667
556.71	18.759
557.05	19.118
557.39	18.614
557.73	18.278
558.07	18.854
558.41	18.090
558.75	18.516
559.08	18.941
559.42	18.216
559.76	19.118
560.10	17.630
560.44	17.890
560.78	17.698
561.12	17.810
561.45	18.709
561.79	17.732
562.13	18.846
562.47	18.579
562.81	18.061
563.15	18.261
563.48	17.838
563.82	17.743
564.16	17.397
564.50	18.034
564.84	17.130
565.17	17.181
565.51	17.572
565.85	17.830
566.19	17.032
566.52	17.163
566.86	16.576
567.20	16.981
567.54	16.724
567.88	15.861
568.21	16.878
568.55	16.077
568.89	15.710
569.23	15.553
569.56	15.182
569.90	14.717
570.24	14.711
570.57	13.873
570.91	14.027
571.25	13.867
571.59	13.785
571.92	13.767
572.26	13.778
572.60	13.393
572.93	13.763
573.27	13.783
573.61	13.484
573.95	13.669
574.28	13.342
574.62	12.901
574.96	13.070
575.29	12.682
575.63	13.389
575.97	13.070
576.30	13.170
576.64	12.611
576.98	13.053
577.31	13.031
577.65	12.334
577.98	12.405
578.32	12.292
578.66	12.474
578.99	12.897
579.33	12.588
579.67	12.527
580.00	12.947
580.34	12.862
580.67	12.716
581.01	12.525
581.35	12.497
581.68	12.479
582.02	12.104
582.35	12.423
582.69	12.318
583.02	12.618
583.36	12.958
583.70	12.612
584.03	12.748
584.37	13.386
584.70	12.591
585.04	12.622
585.37	12.442
585.71	12.664
586.04	12.612
586.38	12.774
586.72	13.007
587.05	12.497
587.39	12.559
587.72	12.754
588.06	13.074
588.39	12.812
588.73	12.819
589.06	13.026
589.40	13.569
589.73	13.200
590.07	13.310
590.40	13.445
590.73	14.012
591.07	13.797
591.40	14.087
591.74	14.502
592.07	13.962
592.41	13.849
592.74	13.596
593.08	13.658
593.41	13.065
593.75	13.023
594.08	13.141
594.41	13.185
594.75	13.013
595.08	13.386
595.42	13.590
595.75	13.248
596.09	13.932
596.42	14.224
596.75	13.803
597.09	14.502
597.42	13.364
597.75	13.238
598.09	14.435
598.42	13.660
598.76	13.377
599.09	13.265
599.42	13.246
599.76	13.433
600.09	13.005
600.42	12.893
600.76	12.964
601.09	13.297
601.42	13.014
601.76	13.397
602.09	12.885
602.42	13.933
602.76	13.664
603.09	13.533
603.42	13.979
603.76	13.453
604.09	13.494
604.42	13.453
604.76	14.382
605.09	13.499
605.42	13.425
605.75	12.955
606.09	13.379
606.42	13.363
606.75	13.148
607.09	13.646
607.42	13.650
607.75	13.207
608.08	13.157
608.42	13.940
608.75	13.751
609.08	13.275
609.41	13.898
609.75	13.435
610.08	14.467
610.41	13.547
610.74	13.340
611.07	14.081
611.41	13.837
611.74	14.279
612.07	14.286
612.40	14.428
612.73	14.000
613.07	14.116
613.40	14.639
613.73	13.634
614.06	13.656
614.39	14.053
614.72	14.632
615.06	13.918
615.39	13.217
615.72	13.599
616.05	13.876
616.38	14.564
616.71	14.667
617.05	15.135
617.38	14.492
617.71	14.234
618.04	14.964
618.37	15.139
618.70	14.872
619.03	15.658
619.36	14.936
619.69	15.000
620.03	15.728
620.36	15.307
620.69	15.616
621.02	16.077
621.35	15.505
621.68	15.421
622.01	15.712
622.34	16.566
622.67	16.274
623.00	14.674
623.33	14.725
623.66	15.082
623.99	14.580
624.32	14.765
624.65	14.972
624.99	14.660
625.32	14.844
625.65	16.905
625.98	16.372
626.31	16.252
626.64	16.163
626.97	15.960
627.30	16.126
627.63	16.735
627.96	15.980
628.29	17.410
628.62	17.017
628.95	18.019
629.28	17.792
629.61	17.782
629.94	16.857
630.26	17.731
630.59	16.969
630.92	17.050
631.25	17.177
