SpectraSuite Data File
++++++++++++++++++++++++++++++++++++
Date: Wed May 13 21:37:12 PDT 2015
User: schluterlab
Dark Spectrum Present: Yes
Reference Spectrum Present: Yes
Number of Sampled Component Spectra: 1
Spectrometers: USB2E3373
Integration Time (usec): 3000 (USB2E3373)
Spectra Averaged: 3 (USB2E3373)
Boxcar Smoothing: 0 (USB2E3373)
Correct for Electrical Dark: No (USB2E3373)
Strobe/Lamp Enabled: No (USB2E3373)
Correct for Detector Non-linearity: No (USB2E3373)
Correct for Stray Light: No (USB2E3373)
Number of Pixels in Processed Spectrum: 2048
>>>>>Begin Processed Spectral Data<<<<<
178.53	0.000
178.91	600.000
179.29	241.667
179.67	-850.000
180.04	-433.333
180.42	260.000
180.80	1100.000
181.18	333.333
181.56	-500.000
181.94	-350.000
182.31	0.000
182.69	146.154
183.07	-300.000
183.45	433.333
183.83	233.333
184.20	300.000
184.58	-500.000
184.96	400.000
185.34	171.429
185.72	0.000
186.09	-1000.000
186.47	-260.000
186.85	380.000
187.23	-550.000
187.61	550.000
187.98	1800.000
188.36	-125.000
188.74	0.000
189.12	-72.727
189.49	-40.000
189.87	141.667
190.25	520.000
190.63	1600.000
191.00	-60.000
191.38	200.000
191.76	225.000
192.14	166.667
192.51	-36.842
192.89	666.667
193.27	600.000
193.65	-400.000
194.02	254.545
194.40	300.000
194.78	-1100.000
195.15	200.000
195.53	-260.000
195.91	-100.000
196.29	-233.333
196.66	0.000
197.04	600.000
197.42	-80.000
197.79	-30.000
198.17	-187.500
198.55	-433.333
198.92	475.000
199.30	-666.667
199.68	-50.000
200.05	550.000
200.43	250.000
200.81	-1500.000
201.18	-380.000
201.56	-16.667
201.94	850.000
202.31	-17.391
202.69	-271.429
203.07	-766.667
203.44	-360.000
203.82	-766.667
204.19	-130.000
204.57	0.000
204.95	-250.000
205.32	0.000
205.70	-350.000
206.08	-400.000
206.45	-133.333
206.83	275.000
207.20	-266.667
207.58	-20.000
207.96	-2600.000
208.33	-257.143
208.71	-2100.000
209.08	312.500
209.46	850.000
209.84	0.000
210.21	160.000
210.59	2100.000
210.96	480.000
211.34	1600.000
211.71	-1350.000
212.09	-383.333
212.46	-140.000
212.84	-33.333
213.22	-200.000
213.59	-1100.000
213.97	-700.000
214.34	-650.000
214.72	-100.000
215.09	187.500
215.47	277.778
215.84	100.000
216.22	-137.500
216.59	-650.000
216.97	633.333
217.34	100.000
217.72	0.000
218.09	100.000
218.47	-1000.000
218.84	-257.143
219.22	-112.500
219.59	-400.000
219.97	-525.000
220.34	-187.500
220.72	-180.000
221.09	0.000
221.47	-316.667
221.84	-100.000
222.22	0.000
222.59	1600.000
222.97	-700.000
223.34	-75.000
223.72	-1600.000
224.09	-600.000
224.46	-54.545
224.84	-100.000
225.21	-228.571
225.59	-375.000
225.96	-233.333
226.34	-70.000
226.71	-357.143
227.08	500.000
227.46	-175.000
227.83	0.000
228.21	-75.000
228.58	-675.000
228.95	-58.824
229.33	-37.500
229.70	12.500
230.08	-53.846
230.45	-237.500
230.82	-133.333
231.20	271.429
231.57	-450.000
231.95	1500.000
232.32	-50.000
232.69	-41.176
233.07	-1800.000
233.44	-30.435
233.81	-950.000
234.19	-41.667
234.56	-100.000
234.93	-73.333
235.31	-68.421
235.68	-123.077
236.05	-207.692
236.43	-72.222
236.80	-30.303
237.17	-146.667
237.55	-105.882
237.92	-79.310
238.29	-51.852
238.67	-52.778
239.04	-74.194
239.41	-42.553
239.79	6.383
240.16	-18.605
240.53	-21.429
240.91	-23.214
241.28	-21.429
241.65	-11.290
242.02	-15.789
242.40	-10.145
242.77	-20.290
243.14	-21.795
243.51	-14.894
243.89	-14.423
244.26	-0.943
244.63	-12.500
245.00	-16.667
245.38	-5.042
245.75	-3.279
246.12	-1.504
246.49	-11.382
246.87	-28.571
247.24	1.351
247.61	-11.921
247.98	-7.051
248.36	-9.467
248.73	-10.112
249.10	-7.071
249.47	-10.215
249.84	-4.211
250.22	-12.438
250.59	-2.804
250.96	0.455
251.33	-11.005
251.70	2.510
252.08	0.000
252.45	-2.469
252.82	1.141
253.19	-4.669
253.56	-4.676
253.94	3.915
254.31	2.113
254.68	2.685
255.05	-0.990
255.42	-2.098
255.79	-1.840
256.16	0.315
256.54	-2.857
256.91	-3.481
257.28	0.629
257.65	-6.051
258.02	-2.346
258.39	0.000
258.76	-3.779
259.14	-2.557
259.51	-3.371
259.88	0.000
260.25	-2.778
260.62	-1.966
260.99	2.122
261.36	0.259
261.73	0.494
262.10	-2.290
262.47	-1.975
262.85	0.249
263.22	-2.308
263.59	-1.818
263.96	-1.703
264.33	-1.683
264.70	1.163
265.07	0.463
265.44	-0.690
265.81	-0.915
266.18	-1.367
266.55	-0.218
266.92	-2.331
267.29	-0.617
267.66	0.637
268.03	2.881
268.40	-2.966
268.77	-0.207
269.14	-0.408
269.51	1.437
269.88	-1.426
270.25	-0.636
270.62	-2.459
270.99	0.787
271.36	-0.794
271.73	-2.209
272.10	-1.714
272.47	-0.960
272.84	0.000
273.21	0.196
273.58	-1.844
273.95	-1.132
274.32	-0.933
274.69	1.093
275.06	2.120
275.43	0.565
275.80	1.596
276.17	-0.184
276.54	-0.178
276.91	-0.523
277.28	-1.986
277.65	1.049
278.02	1.429
278.39	-1.243
278.76	2.007
279.13	-0.343
279.50	0.000
279.87	-0.906
280.23	-1.622
280.60	-1.557
280.97	0.162
281.34	1.420
281.71	-0.163
282.08	-1.026
282.45	0.984
282.82	0.479
283.19	2.896
283.56	0.469
283.92	-1.988
284.29	0.312
284.66	-0.988
285.03	-1.954
285.40	-0.151
285.77	0.601
286.14	-0.912
286.51	1.649
286.87	-0.462
287.24	1.475
287.61	-0.301
287.98	0.588
288.35	-1.043
288.72	0.574
289.08	1.282
289.45	-0.734
289.82	2.118
290.19	0.842
290.56	0.000
290.93	0.829
291.29	0.958
291.66	0.820
292.03	0.954
292.40	0.135
292.77	2.008
293.13	-0.418
293.50	-0.654
293.87	-0.667
294.24	0.000
294.60	0.520
294.97	0.265
295.34	-0.264
295.71	-1.314
296.08	-0.524
296.44	-1.148
296.81	-0.365
297.18	0.000
297.55	1.179
297.91	0.373
298.28	0.242
298.65	-0.739
299.02	1.221
299.38	-0.982
299.75	-0.361
300.12	-0.814
300.48	0.351
300.85	0.346
301.22	0.465
301.59	-0.704
301.95	-0.465
302.32	0.117
302.69	-0.791
303.05	0.332
303.42	0.455
303.79	1.262
304.15	0.438
304.52	1.720
304.89	-1.329
305.25	-0.439
305.62	-0.217
305.99	0.979
306.35	0.418
306.72	0.814
307.09	0.209
307.45	0.000
307.82	-0.211
308.19	-0.522
308.55	0.205
308.92	1.179
309.29	0.100
309.65	0.000
310.02	1.093
310.38	0.508
310.75	-0.197
311.12	0.000
311.48	0.593
311.85	0.492
312.22	0.677
312.58	-0.870
312.95	0.896
313.31	1.928
313.68	1.622
314.05	1.418
314.41	1.729
314.78	2.372
315.14	1.667
315.51	2.379
315.87	2.873
316.24	2.938
316.61	2.740
316.97	1.852
317.34	2.317
317.70	4.103
318.07	4.170
318.43	3.162
318.80	2.792
319.16	2.034
319.53	2.957
319.89	3.975
320.26	3.974
320.62	3.522
320.99	5.136
321.35	4.022
321.72	4.427
322.08	5.720
322.45	6.383
322.81	4.898
323.18	5.814
323.54	5.235
323.91	6.143
324.27	6.931
324.64	5.401
325.00	6.299
325.37	7.594
325.73	7.155
326.10	7.317
326.46	8.361
326.83	7.282
327.19	7.805
327.56	8.703
327.92	8.850
328.29	8.598
328.65	8.852
329.01	8.355
329.38	10.261
329.74	9.528
330.11	8.025
330.47	8.767
330.84	9.386
331.20	9.223
331.56	8.877
331.93	10.422
332.29	9.991
332.66	8.729
333.02	10.078
333.38	10.526
333.75	10.068
334.11	10.330
334.48	10.288
334.84	9.276
335.20	9.434
335.57	9.922
335.93	9.107
336.29	9.545
336.66	10.171
337.02	9.043
337.38	9.312
337.75	10.594
338.11	9.394
338.47	9.503
338.84	10.223
339.20	9.788
339.56	9.642
339.93	10.285
340.29	9.906
340.65	10.950
341.02	11.065
341.38	9.459
341.74	9.748
342.11	10.652
342.47	9.540
342.83	10.703
343.20	10.237
343.56	10.630
343.92	9.667
344.28	10.471
344.65	10.286
345.01	9.766
345.37	10.937
345.73	10.621
346.10	11.236
346.46	10.081
346.82	9.069
347.19	9.415
347.55	10.985
347.91	9.743
348.27	10.489
348.63	9.696
349.00	9.906
349.36	11.303
349.72	10.750
350.08	10.296
350.45	9.475
350.81	10.642
351.17	11.701
351.53	10.134
351.89	9.929
352.26	9.112
352.62	10.000
352.98	10.623
353.34	9.662
353.70	11.059
354.07	9.647
354.43	10.342
354.79	9.696
355.15	10.171
355.51	10.782
355.87	11.650
356.24	9.711
356.60	10.242
356.96	10.361
357.32	11.223
357.68	11.765
358.04	10.628
358.40	11.550
358.77	9.786
359.13	11.128
359.49	10.220
359.85	11.600
360.21	10.640
360.57	10.722
360.93	11.381
361.29	11.991
361.66	11.465
362.02	11.193
362.38	11.300
362.74	10.515
363.10	11.497
363.46	11.455
363.82	11.899
364.18	10.370
364.54	12.035
364.90	11.220
365.26	11.182
365.62	11.151
365.98	11.174
366.35	12.482
366.71	11.270
367.07	11.410
367.43	11.638
367.79	11.953
368.15	12.799
368.51	11.744
368.87	13.050
369.23	11.601
369.59	12.755
369.95	11.829
370.31	12.134
370.67	12.310
371.03	12.843
371.39	12.420
371.75	12.643
372.11	13.177
372.47	12.761
372.83	12.968
373.19	12.374
373.55	12.789
373.91	13.225
374.27	12.725
374.63	13.869
374.99	13.022
375.35	13.904
375.71	12.976
376.07	13.845
376.42	14.305
376.78	14.663
377.14	13.966
377.50	14.863
377.86	14.143
378.22	14.159
378.58	14.313
378.94	15.438
379.30	14.491
379.66	15.413
380.02	15.748
380.38	14.398
380.74	15.660
381.09	15.682
381.45	16.385
381.81	15.527
382.17	16.194
382.53	16.000
382.89	15.380
383.25	16.728
383.61	16.525
383.97	15.812
384.32	16.257
384.68	16.841
385.04	16.555
385.40	17.186
385.76	17.518
386.12	18.399
386.48	17.179
386.83	18.023
387.19	17.829
387.55	18.210
387.91	18.389
388.27	17.941
388.62	18.727
388.98	18.461
389.34	18.546
389.70	18.376
390.06	18.937
390.42	18.750
390.77	19.411
391.13	19.318
391.49	19.608
391.85	19.169
392.20	18.546
392.56	18.540
392.92	19.193
393.28	19.698
393.64	19.572
393.99	19.278
394.35	19.444
394.71	20.192
395.07	18.994
395.42	21.328
395.78	20.142
396.14	21.053
396.50	20.862
396.85	21.033
397.21	21.036
397.57	20.932
397.92	20.898
398.28	21.489
398.64	21.615
399.00	20.926
399.35	21.793
399.71	20.210
400.07	20.904
400.42	22.006
400.78	21.994
401.14	20.907
401.49	21.809
401.85	21.314
402.21	23.096
402.57	21.704
402.92	22.591
403.28	21.951
403.63	22.195
403.99	22.393
404.35	22.880
404.70	22.296
405.06	22.431
405.42	21.922
405.77	22.005
406.13	22.686
406.49	23.367
406.84	23.382
407.20	22.795
407.55	23.312
407.91	22.105
408.27	22.832
408.62	23.757
408.98	23.921
409.34	22.587
409.69	24.107
410.05	23.259
410.40	23.189
410.76	23.646
411.11	24.254
411.47	24.486
411.83	23.830
412.18	23.741
412.54	24.123
412.89	23.135
413.25	23.717
413.60	24.201
413.96	23.596
414.31	24.784
414.67	24.190
415.03	23.884
415.38	23.844
415.74	23.977
416.09	25.446
416.45	24.129
416.80	24.362
417.16	25.439
417.51	23.778
417.87	24.405
418.22	24.370
418.58	24.573
418.93	24.043
419.29	24.554
419.64	25.445
420.00	24.825
420.35	25.403
420.71	24.802
421.06	25.461
421.42	24.878
421.77	24.335
422.12	24.986
422.48	24.973
422.83	24.749
423.19	25.187
423.54	26.148
423.90	25.713
424.25	25.997
424.61	24.399
424.96	25.310
425.31	25.182
425.67	25.985
426.02	26.148
426.38	25.124
426.73	25.351
427.09	25.078
427.44	25.778
427.79	25.831
428.15	25.321
428.50	25.559
428.85	26.384
429.21	25.661
429.56	25.824
429.92	25.768
430.27	25.869
430.62	26.653
430.98	26.124
431.33	26.061
431.68	26.518
432.04	26.254
432.39	25.577
432.74	25.015
433.10	26.148
433.45	26.154
433.80	26.264
434.16	26.161
434.51	26.522
434.86	26.384
435.22	26.429
435.57	26.351
435.92	26.236
436.28	26.306
436.63	26.270
436.98	26.910
437.34	27.167
437.69	26.151
438.04	26.033
438.39	26.526
438.75	26.579
439.10	27.299
439.45	27.421
439.81	27.094
440.16	27.072
440.51	26.635
440.86	26.497
441.22	27.022
441.57	26.952
441.92	26.542
442.27	26.894
442.63	25.727
442.98	26.447
443.33	26.806
443.68	26.199
444.03	26.180
444.39	26.525
444.74	25.842
445.09	26.542
445.44	27.606
445.79	26.278
446.15	27.232
446.50	26.322
446.85	26.937
447.20	26.503
447.55	26.581
447.91	26.404
448.26	26.529
448.61	26.812
448.96	26.595
449.31	26.842
449.66	26.605
450.02	26.038
450.37	26.675
450.72	26.636
451.07	27.273
451.42	27.012
451.77	26.780
452.12	25.728
452.47	26.598
452.83	26.710
453.18	26.544
453.53	26.734
453.88	26.084
454.23	26.391
454.58	26.961
454.93	26.748
455.28	25.947
455.63	26.138
455.98	26.537
456.34	26.128
456.69	26.454
457.04	26.563
457.39	26.699
457.74	25.613
458.09	25.533
458.44	25.382
458.79	25.920
459.14	25.056
459.49	27.317
459.84	25.761
460.19	25.090
460.54	25.487
460.89	25.901
461.24	25.894
461.59	25.845
461.94	26.233
462.29	25.490
462.64	26.055
462.99	25.218
463.34	26.174
463.69	25.966
464.04	24.910
464.39	25.564
464.74	25.799
465.09	25.232
465.44	25.477
465.79	25.992
466.14	25.770
466.49	25.279
466.84	24.985
467.19	24.968
467.54	26.377
467.89	25.141
468.24	24.770
468.59	24.602
468.94	25.543
469.29	25.050
469.64	25.662
469.99	26.069
470.34	25.354
470.68	25.502
471.03	25.388
471.38	24.270
471.73	25.377
472.08	24.536
472.43	25.000
472.78	25.085
473.13	23.351
473.48	24.331
473.83	24.859
474.17	25.260
474.52	23.689
474.87	23.341
475.22	24.396
475.57	24.763
475.92	24.591
476.27	24.126
476.61	24.802
476.96	24.158
477.31	24.164
477.66	24.237
478.01	23.407
478.36	23.324
478.70	23.738
479.05	24.306
479.40	23.505
479.75	23.433
480.10	23.763
480.45	23.786
480.79	24.241
481.14	24.063
481.49	23.878
481.84	23.186
482.19	22.974
482.53	23.571
482.88	23.298
483.23	22.714
483.58	23.204
483.92	22.422
484.27	23.010
484.62	23.835
484.97	23.725
485.31	22.726
485.66	22.770
486.01	22.274
486.36	23.133
486.70	23.169
487.05	23.174
487.40	22.937
487.75	22.883
488.09	22.615
488.44	22.292
488.79	22.559
489.13	21.948
489.48	22.232
489.83	22.599
490.17	22.015
490.52	22.440
490.87	22.021
491.22	21.809
491.56	22.041
491.91	21.555
492.26	21.809
492.60	21.212
492.95	22.595
493.30	22.045
493.64	21.391
493.99	22.415
494.34	21.869
494.68	21.432
495.03	21.393
495.37	21.509
495.72	21.454
496.07	22.017
496.41	21.338
496.76	21.709
497.11	21.315
497.45	21.790
497.80	21.201
498.14	21.763
498.49	20.171
498.84	21.103
499.18	21.254
499.53	20.729
499.87	20.427
500.22	21.453
500.56	20.963
500.91	21.529
501.26	21.133
501.60	20.000
501.95	20.556
502.29	20.874
502.64	20.926
502.98	20.520
503.33	20.146
503.67	20.107
504.02	19.706
504.36	20.505
504.71	20.427
505.06	20.071
505.40	20.103
505.75	20.753
506.09	20.031
506.44	19.052
506.78	20.772
507.13	21.466
507.47	20.520
507.82	19.728
508.16	19.736
508.51	19.215
508.85	19.855
509.19	19.206
509.54	19.946
509.88	19.140
510.23	18.737
510.57	19.597
510.92	19.612
511.26	20.297
511.61	19.484
511.95	19.184
512.30	19.267
512.64	19.977
512.98	19.778
513.33	19.493
513.67	19.478
514.02	19.042
514.36	19.045
514.70	19.746
515.05	18.958
515.39	18.337
515.74	18.946
516.08	18.112
516.42	18.260
516.77	19.098
517.11	18.812
517.46	19.208
517.80	20.036
518.14	19.535
518.49	17.722
518.83	18.317
519.17	19.277
519.52	18.818
519.86	18.944
520.20	18.435
520.55	18.035
520.89	17.584
521.23	18.974
521.58	18.963
521.92	18.479
522.26	18.282
522.61	18.681
522.95	18.264
523.29	17.968
523.64	19.008
523.98	18.043
524.32	18.273
524.66	18.701
525.01	19.397
525.35	18.038
525.69	18.489
526.04	17.199
526.38	18.611
526.72	17.883
527.06	17.988
527.41	17.406
527.75	17.423
528.09	18.039
528.43	18.046
528.78	17.571
529.12	17.141
529.46	17.083
529.80	17.411
530.15	17.246
530.49	16.307
530.83	17.536
531.17	17.055
531.51	16.521
531.86	16.463
532.20	16.816
532.54	16.966
532.88	17.427
533.22	17.374
533.57	16.026
533.91	17.613
534.25	17.513
534.59	17.375
534.93	16.837
535.27	17.197
535.62	16.118
535.96	17.502
536.30	17.487
536.64	15.995
536.98	15.907
537.32	15.302
537.66	16.361
538.01	15.395
538.35	16.229
538.69	15.719
539.03	16.376
539.37	14.956
539.71	16.576
540.05	15.992
540.39	16.105
540.73	16.201
541.07	15.034
541.42	15.960
541.76	15.968
542.10	14.557
542.44	14.276
542.78	14.990
543.12	15.162
543.46	15.342
543.80	15.954
544.14	15.348
544.48	14.267
544.82	15.131
545.16	16.024
545.50	15.395
545.84	15.007
546.18	14.937
546.52	15.173
546.86	15.053
547.20	14.725
547.54	14.510
547.88	15.520
548.22	15.309
548.56	15.277
548.90	15.020
549.24	15.556
549.58	13.594
549.92	15.407
550.26	15.646
550.60	15.541
550.94	14.627
551.28	14.232
551.62	14.887
551.96	14.714
552.30	13.246
552.64	13.206
552.98	14.347
553.32	14.131
553.66	14.894
554.00	14.759
554.34	13.846
554.68	15.063
555.02	14.820
555.36	13.843
555.69	13.620
556.03	13.867
556.37	14.083
556.71	13.174
557.05	14.096
557.39	13.640
557.73	12.935
558.07	13.489
558.41	14.232
558.75	14.550
559.08	13.312
559.42	13.847
559.76	13.914
560.10	13.836
560.44	14.223
560.78	12.806
561.12	13.665
561.45	13.810
561.79	13.824
562.13	13.783
562.47	13.929
562.81	13.276
563.15	12.606
563.48	13.627
563.82	13.543
564.16	13.947
564.50	13.569
564.84	13.446
565.17	12.914
565.51	13.102
565.85	13.058
566.19	12.450
566.52	13.434
566.86	12.453
567.20	13.378
567.54	12.953
567.88	12.654
568.21	12.656
568.55	12.885
568.89	12.512
569.23	13.107
569.56	13.350
569.90	13.037
570.24	12.708
570.57	12.282
570.91	12.983
571.25	12.484
571.59	12.117
571.92	12.878
572.26	12.652
572.60	12.442
572.93	12.621
573.27	12.754
573.61	12.669
573.95	12.295
574.28	12.606
574.62	12.515
574.96	12.156
575.29	12.538
575.63	11.960
575.97	12.283
576.30	11.702
576.64	12.051
576.98	12.563
577.31	12.008
577.65	11.774
577.98	12.001
578.32	12.362
578.66	12.244
578.99	12.066
579.33	12.019
579.67	12.016
580.00	11.876
580.34	11.997
580.67	11.808
581.01	12.080
581.35	12.127
581.68	11.868
582.02	12.072
582.35	12.128
582.69	11.961
583.02	11.706
583.36	11.849
583.70	11.753
584.03	11.917
584.37	11.667
584.70	11.638
585.04	11.423
585.37	11.543
585.71	11.867
586.04	11.604
586.38	11.629
586.72	11.239
587.05	11.506
587.39	11.702
587.72	11.303
588.06	11.710
588.39	11.363
588.73	11.492
589.06	10.702
589.40	11.318
589.73	10.995
590.07	11.265
590.40	11.473
590.73	11.669
591.07	11.199
591.40	11.130
591.74	10.894
592.07	11.410
592.41	11.454
592.74	11.806
593.08	11.077
593.41	10.983
593.75	10.917
594.08	11.192
594.41	10.786
594.75	11.132
595.08	10.680
595.42	10.988
595.75	10.882
596.09	11.162
596.42	10.621
596.75	10.531
597.09	12.193
597.42	11.171
597.75	10.667
598.09	10.974
598.42	11.365
598.76	10.537
599.09	10.724
599.42	11.140
599.76	11.003
600.09	11.220
600.42	11.036
600.76	10.791
601.09	11.224
601.42	10.623
601.76	11.081
602.09	11.390
602.42	10.400
602.76	10.067
603.09	11.294
603.42	10.196
603.76	10.366
604.09	10.672
604.42	11.134
604.76	10.607
605.09	10.195
605.42	10.661
605.75	9.893
606.09	9.892
606.42	10.266
606.75	9.784
607.09	10.284
607.42	10.771
607.75	9.409
608.08	10.866
608.42	9.794
608.75	9.795
609.08	10.191
609.41	10.780
609.75	10.439
610.08	10.651
610.41	10.350
610.74	10.683
611.07	9.770
611.41	10.235
611.74	10.352
612.07	10.839
612.40	10.595
612.73	9.769
613.07	9.590
613.40	10.132
613.73	10.834
614.06	9.342
614.39	9.394
614.72	9.994
615.06	10.111
615.39	10.430
615.72	9.287
616.05	9.234
616.38	10.367
616.71	8.938
617.05	9.705
617.38	9.982
617.71	10.172
618.04	9.445
618.37	9.968
618.70	9.767
619.03	9.347
619.36	9.964
619.69	9.357
620.03	9.894
620.36	9.395
620.69	9.422
621.02	8.846
621.35	9.567
621.68	9.617
622.01	9.142
622.34	9.278
622.67	9.397
623.00	10.182
623.33	9.424
623.66	8.476
623.99	9.602
624.32	9.318
624.65	9.421
624.99	9.772
625.32	10.157
625.65	10.000
625.98	9.005
626.31	9.796
626.64	9.286
626.97	8.478
627.30	9.068
627.63	9.343
627.96	8.831
628.29	8.930
628.62	9.478
628.95	8.617
629.28	8.867
629.61	9.665
629.94	9.574
630.26	9.557
630.59	8.292
630.92	8.534
631.25	9.578
631.58	8.458
631.91	7.423
632.24	8.013
632.57	7.778
632.90	8.401
633.23	8.153
633.56	9.832
633.89	10.766
634.22	10.483
634.55	9.501
634.88	9.559
635.20	10.625
635.53	7.623
635.86	7.821
636.19	8.313
