SpectraSuite Data File
++++++++++++++++++++++++++++++++++++
Date: Wed May 13 20:27:04 PDT 2015
User: schluterlab
Dark Spectrum Present: Yes
Reference Spectrum Present: Yes
Number of Sampled Component Spectra: 1
Spectrometers: USB2E3373
Integration Time (usec): 3000 (USB2E3373)
Spectra Averaged: 3 (USB2E3373)
Boxcar Smoothing: 0 (USB2E3373)
Correct for Electrical Dark: No (USB2E3373)
Strobe/Lamp Enabled: No (USB2E3373)
Correct for Detector Non-linearity: No (USB2E3373)
Correct for Stray Light: No (USB2E3373)
Number of Pixels in Processed Spectrum: 2048
>>>>>Begin Processed Spectral Data<<<<<
178.53	0.000
178.91	-950.000
179.29	-1000.000
179.67	-183.333
180.04	-1250.000
180.42	2400.000
180.80	1040.000
181.18	-875.000
181.56	585.714
181.94	0.000
182.31	-600.000
182.69	1466.667
183.07	-450.000
183.45	-500.000
183.83	527.273
184.20	-360.000
184.58	2050.000
184.96	5000.000
185.34	-900.000
185.72	-687.500
186.09	-2150.000
186.47	2150.000
186.85	2450.000
187.23	4700.000
187.61	-1466.667
187.98	1375.000
188.36	436.364
188.74	490.909
189.12	-720.000
189.49	560.000
189.87	-4100.000
190.25	-650.000
190.63	407.143
191.00	330.769
191.38	683.333
191.76	-925.000
192.14	1100.000
192.51	662.500
192.89	800.000
193.27	612.500
193.65	-1075.000
194.02	450.000
194.40	880.000
194.78	500.000
195.15	441.667
195.53	560.000
195.91	-1900.000
196.29	375.000
196.66	278.947
197.04	-250.000
197.42	0.000
197.79	540.000
198.17	-3400.000
198.55	528.571
198.92	675.000
199.30	840.000
199.68	0.000
200.05	333.333
200.43	485.714
200.81	4900.000
201.18	1433.333
201.56	-1566.667
201.94	544.444
202.31	444.444
202.69	400.000
203.07	530.000
203.44	0.000
203.82	1075.000
204.19	714.286
204.57	400.000
204.95	525.000
205.32	1100.000
205.70	418.182
206.08	328.571
206.45	2250.000
206.83	356.250
207.20	800.000
207.58	560.000
207.96	327.778
208.33	675.000
208.71	-933.333
209.08	728.571
209.46	522.222
209.84	345.455
210.21	-900.000
210.59	1075.000
210.96	-337.500
211.34	2200.000
211.71	480.000
212.09	683.333
212.46	0.000
212.84	1166.667
213.22	950.000
213.59	-4300.000
213.97	766.667
214.34	771.429
214.72	490.909
215.09	860.000
215.47	-2100.000
215.84	-1700.000
216.22	1500.000
216.59	350.000
216.97	1050.000
217.34	409.091
217.72	-533.333
218.09	0.000
218.47	-3500.000
218.84	666.667
219.22	757.143
219.59	1500.000
219.97	-614.286
220.34	880.000
220.72	-1533.333
221.09	328.571
221.47	1150.000
221.84	-833.333
222.22	0.000
222.59	1350.000
222.97	-2450.000
223.34	900.000
223.72	353.846
224.09	880.000
224.46	2150.000
224.84	-4500.000
225.21	-860.000
225.59	-4800.000
225.96	540.000
226.34	275.000
226.71	2100.000
227.08	500.000
227.46	500.000
227.83	-925.000
228.21	-1850.000
228.58	633.333
228.95	-1900.000
229.33	-2200.000
229.70	1333.333
230.08	600.000
230.45	-620.000
230.82	358.333
231.20	733.333
231.57	542.857
231.95	366.667
232.32	154.545
232.69	372.727
233.07	585.714
233.44	323.077
233.81	-1466.667
234.19	252.632
234.56	358.333
234.93	250.000
235.31	390.909
235.68	276.923
236.05	271.429
236.43	145.455
236.80	205.263
237.17	4200.000
237.55	180.952
237.92	189.286
238.29	200.000
238.67	129.032
239.04	165.517
239.41	108.333
239.79	84.783
240.16	92.857
240.53	100.000
240.91	60.784
241.28	80.000
241.65	64.000
242.02	66.667
242.40	79.032
242.77	50.000
243.14	61.290
243.51	65.169
243.89	54.118
244.26	47.778
244.63	53.763
245.00	55.319
245.38	36.634
245.75	35.514
246.12	32.110
246.49	40.876
246.87	51.200
247.24	37.692
247.61	32.143
247.98	32.026
248.36	25.000
248.73	28.662
249.10	28.662
249.47	24.294
249.84	28.342
250.22	28.342
250.59	25.444
250.96	26.768
251.33	25.592
251.70	23.762
252.08	20.952
252.45	18.386
252.82	19.130
253.19	23.404
253.56	21.961
253.94	23.237
254.31	19.531
254.68	20.385
255.05	21.402
255.42	14.228
255.79	15.074
256.16	17.690
256.54	14.488
256.91	17.082
257.28	10.072
257.65	14.851
258.02	18.944
258.39	14.826
258.76	15.719
259.14	15.774
259.51	13.678
259.88	14.596
260.25	16.012
260.62	16.185
260.99	12.422
261.36	16.216
261.73	12.321
262.10	12.209
262.47	13.521
262.85	13.928
263.22	10.541
263.59	14.530
263.96	12.363
264.33	13.577
264.70	12.632
265.07	14.322
265.44	12.374
265.81	10.949
266.18	11.558
266.55	11.707
266.92	10.319
267.29	11.806
267.66	10.780
268.03	10.909
268.40	11.916
268.77	11.217
269.14	11.036
269.51	11.964
269.88	11.189
270.25	11.287
270.62	8.764
270.99	11.613
271.36	13.734
271.73	9.112
272.10	9.130
272.47	12.903
272.84	11.255
273.21	11.950
273.58	8.297
273.95	8.805
274.32	9.091
274.69	11.777
275.06	8.858
275.43	9.149
275.80	9.018
276.17	9.369
276.54	10.395
276.91	9.091
277.28	10.742
277.65	9.478
278.02	9.524
278.39	9.766
278.76	10.182
279.13	9.245
279.50	10.242
279.87	10.359
280.23	9.381
280.60	10.445
280.97	8.133
281.34	8.496
281.71	10.909
282.08	9.021
282.45	8.545
282.82	7.993
283.19	6.595
283.56	8.596
283.92	8.968
284.29	8.642
284.66	8.530
285.03	7.595
285.40	6.866
285.77	7.407
286.14	8.463
286.51	8.833
286.87	8.547
287.24	10.423
287.61	8.828
287.98	8.766
288.35	7.607
288.72	8.567
289.08	8.451
289.45	6.919
289.82	8.293
290.19	7.064
290.56	7.044
290.93	6.042
291.29	7.362
291.66	8.997
292.03	8.866
292.40	9.692
292.77	6.213
293.13	7.313
293.50	7.289
293.87	6.963
294.24	5.778
294.60	6.114
294.97	7.558
295.34	7.334
295.71	7.386
296.08	7.123
296.44	7.015
296.81	6.209
297.18	7.317
297.55	4.354
297.91	5.937
298.28	6.158
298.65	8.355
299.02	6.719
299.38	6.507
299.75	4.447
300.12	6.769
300.48	6.500
300.85	7.275
301.22	6.752
301.59	5.682
301.95	6.675
302.32	6.418
302.69	6.691
303.05	6.424
303.42	6.296
303.79	6.682
304.15	5.711
304.52	4.983
304.89	4.413
305.25	6.613
305.62	6.682
305.99	6.848
306.35	5.593
306.72	6.054
307.09	6.992
307.45	6.644
307.82	5.469
308.19	6.954
308.55	7.335
308.92	5.800
309.29	5.597
309.65	6.151
310.02	7.082
310.38	5.161
310.75	7.181
311.12	7.574
311.48	6.792
311.85	6.918
312.22	6.660
312.58	5.925
312.95	6.969
313.31	5.534
313.68	6.757
314.05	8.974
314.41	7.136
314.78	7.553
315.14	7.448
315.51	7.724
315.87	7.426
316.24	7.448
316.61	6.823
316.97	7.632
317.34	6.556
317.70	7.648
318.07	7.411
318.43	7.632
318.80	7.873
319.16	7.439
319.53	8.443
319.89	9.429
320.26	8.800
320.62	8.433
320.99	9.495
321.35	8.485
321.72	8.419
322.08	8.391
322.45	10.149
322.81	9.884
323.18	9.441
323.54	9.369
323.91	9.434
324.27	9.082
324.64	8.854
325.00	8.927
325.37	10.555
325.73	9.425
326.10	9.091
326.46	8.781
326.83	10.095
327.19	8.967
327.56	10.105
327.92	9.449
328.29	9.406
328.65	9.853
329.01	10.108
329.38	9.158
329.74	9.603
330.11	9.708
330.47	9.183
330.84	11.581
331.20	9.381
331.56	9.358
331.93	8.704
332.29	9.938
332.66	10.442
333.02	9.324
333.38	10.840
333.75	10.071
334.11	10.498
334.48	10.293
334.84	8.640
335.20	10.000
335.57	9.338
335.93	9.018
336.29	8.608
336.66	9.648
337.02	8.778
337.38	9.722
337.75	8.289
338.11	8.863
338.47	8.195
338.84	10.907
339.20	8.624
339.56	10.036
339.93	8.545
340.29	9.149
340.65	9.537
341.02	9.424
341.38	10.231
341.74	8.947
342.11	9.520
342.47	8.811
342.83	9.161
343.20	10.216
343.56	9.436
343.92	8.947
344.28	9.439
344.65	9.630
345.01	7.997
345.37	7.804
345.73	8.968
346.10	8.781
346.46	8.305
346.82	8.320
347.19	8.939
347.55	8.456
347.91	9.142
348.27	9.532
348.63	9.365
349.00	8.414
349.36	8.867
349.72	9.142
350.08	7.699
350.45	8.218
350.81	8.611
351.17	8.590
351.53	8.354
351.89	7.096
352.26	8.761
352.62	8.180
352.98	7.861
353.34	8.217
353.70	7.201
354.07	8.065
354.43	7.857
354.79	7.723
355.15	8.300
355.51	8.953
355.87	8.245
356.24	7.899
356.60	8.340
356.96	7.482
357.32	7.768
357.68	8.819
358.04	8.551
358.40	8.947
358.77	7.825
359.13	7.261
359.49	7.608
359.85	7.222
360.21	6.619
360.57	7.860
360.93	8.769
361.29	7.483
361.66	7.508
362.02	8.657
362.38	7.529
362.74	7.887
363.10	7.106
363.46	7.630
363.82	7.105
364.18	7.930
364.54	8.544
364.90	8.074
365.26	8.235
365.62	8.108
365.98	7.305
366.35	6.948
366.71	8.098
367.07	7.647
367.43	7.184
367.79	8.280
368.15	7.830
368.51	7.049
368.87	7.352
369.23	7.462
369.59	8.327
369.95	6.544
370.31	8.191
370.67	7.609
371.03	8.015
371.39	7.945
371.75	6.985
372.11	8.108
372.47	7.258
372.83	8.285
373.19	7.153
373.55	6.948
373.91	7.364
374.27	6.598
374.63	6.545
374.99	7.133
375.35	6.769
375.71	7.951
376.07	7.819
376.42	7.153
376.78	7.621
377.14	6.784
377.50	6.887
377.86	6.782
378.22	6.827
378.58	6.955
378.94	6.725
379.30	6.043
379.66	6.980
380.02	7.432
380.38	6.618
380.74	6.783
381.09	6.968
381.45	6.761
381.81	7.002
382.17	7.452
382.53	7.296
382.89	7.037
383.25	5.566
383.61	7.125
383.97	6.316
384.32	6.862
384.68	6.753
385.04	6.515
385.40	6.687
385.76	6.757
386.12	6.801
386.48	7.111
386.83	6.992
387.19	7.112
387.55	6.741
387.91	6.046
388.27	6.193
388.62	7.314
388.98	6.634
389.34	7.134
389.70	6.499
390.06	7.034
390.42	6.615
390.77	7.188
391.13	6.254
391.49	7.043
391.85	6.429
392.20	5.615
392.56	6.313
392.92	6.710
393.28	5.325
393.64	6.235
393.99	7.147
394.35	6.514
394.71	6.085
395.07	6.417
395.42	6.984
395.78	6.552
396.14	6.456
396.50	7.644
396.85	7.120
397.21	6.597
397.57	6.324
397.92	6.370
398.28	5.437
398.64	6.810
399.00	6.547
399.35	6.204
399.71	6.366
400.07	6.268
400.42	6.933
400.78	6.574
401.14	5.610
401.49	5.851
401.85	6.050
402.21	6.108
402.57	5.305
402.92	6.179
403.28	6.121
403.63	5.755
403.99	5.987
404.35	5.939
404.70	5.576
405.06	5.416
405.42	6.301
405.77	5.543
406.13	5.813
406.49	6.623
406.84	6.320
407.20	5.496
407.55	5.297
407.91	5.867
408.27	4.850
408.62	5.599
408.98	6.556
409.34	6.519
409.69	6.323
410.05	6.320
410.40	5.749
410.76	5.317
411.11	6.393
411.47	5.687
411.83	6.292
412.18	5.566
412.54	5.853
412.89	6.145
413.25	5.726
413.60	5.188
413.96	5.404
414.31	5.407
414.67	5.260
415.03	5.762
415.38	5.735
415.74	6.045
416.09	5.617
416.45	5.689
416.80	6.081
417.16	5.898
417.51	6.437
417.87	5.780
418.22	5.868
418.58	7.037
418.93	6.020
419.29	5.220
419.64	5.793
420.00	5.976
420.35	5.797
420.71	5.619
421.06	5.728
421.42	6.199
421.77	5.774
422.12	5.053
422.48	4.533
422.83	5.708
423.19	5.580
423.54	5.456
423.90	5.565
424.25	5.472
424.61	4.881
424.96	5.831
425.31	6.091
425.67	5.000
426.02	5.657
426.38	5.128
426.73	4.974
427.09	5.228
427.44	4.600
427.79	5.060
428.15	6.429
428.50	4.974
428.85	6.079
429.21	5.135
429.56	5.029
429.92	4.781
430.27	4.816
430.62	4.813
430.98	4.722
431.33	5.258
431.68	5.131
432.04	5.218
432.39	5.083
432.74	5.566
433.10	5.093
433.45	5.423
433.80	4.933
434.16	4.434
434.51	4.895
434.86	5.131
435.22	5.225
435.57	5.106
435.92	4.740
436.28	5.160
436.63	6.733
436.98	4.980
437.34	5.665
437.69	5.543
438.04	4.834
438.39	4.597
438.75	5.927
439.10	5.251
439.45	5.490
439.81	4.471
440.16	5.647
440.51	5.624
440.86	5.617
441.22	4.449
441.57	5.414
441.92	4.759
442.27	5.167
442.63	5.003
442.98	5.465
443.33	5.435
443.68	5.421
444.03	4.539
444.39	4.917
444.74	4.816
445.09	5.229
445.44	5.194
445.79	4.602
446.15	5.188
446.50	5.170
446.85	5.087
447.20	5.201
447.55	5.472
447.91	5.295
448.26	5.120
448.61	5.257
448.96	5.371
449.31	5.287
449.66	5.402
450.02	4.735
450.37	5.159
450.72	5.133
451.07	4.631
451.42	4.863
451.77	5.931
452.12	5.600
452.47	5.410
452.83	4.662
453.18	5.562
453.53	5.380
453.88	4.903
454.23	5.200
454.58	5.875
454.93	6.357
455.28	4.489
455.63	5.400
455.98	5.833
456.34	5.779
456.69	5.322
457.04	5.573
457.39	4.968
457.74	5.514
458.09	5.923
458.44	5.017
458.79	4.881
459.14	5.869
459.49	5.546
459.84	5.817
460.19	5.421
460.54	5.382
460.89	5.431
461.24	5.525
461.59	6.566
461.94	5.240
462.29	5.994
462.64	5.105
462.99	4.880
463.34	6.667
463.69	5.316
464.04	6.029
464.39	5.739
464.74	5.882
465.09	5.187
465.44	5.651
465.79	5.201
466.14	5.747
466.49	5.172
466.84	5.896
467.19	5.975
467.54	5.812
467.89	4.862
468.24	5.410
468.59	6.593
468.94	5.925
469.29	4.884
469.64	6.158
469.99	5.210
470.34	5.152
470.68	6.250
471.03	5.510
471.38	5.976
471.73	5.730
472.08	6.711
472.43	5.842
472.78	5.332
473.13	6.354
473.48	6.180
473.83	5.671
474.17	4.792
474.52	6.452
474.87	5.721
475.22	5.746
475.57	4.836
475.92	4.886
476.27	4.679
476.61	5.461
476.96	4.838
477.31	4.814
477.66	5.197
478.01	5.280
478.36	5.711
478.70	5.348
479.05	5.325
479.40	5.118
479.75	5.033
480.10	5.417
480.45	4.664
480.79	5.017
481.14	4.795
481.49	4.983
481.84	5.075
482.19	4.771
482.53	5.183
482.88	4.746
483.23	5.093
483.58	5.096
483.92	5.108
484.27	4.183
484.62	4.612
484.97	4.888
485.31	4.521
485.66	3.466
486.01	3.464
486.36	3.335
486.70	3.441
487.05	3.586
487.40	3.779
487.75	3.724
488.09	4.186
488.44	3.969
488.79	4.014
489.13	4.813
489.48	4.119
489.83	4.100
490.17	4.910
490.52	4.562
490.87	4.749
491.22	4.638
491.56	4.282
491.91	4.793
492.26	4.088
492.60	4.793
492.95	4.443
493.30	5.280
493.64	4.573
493.99	4.596
494.34	4.672
494.68	4.853
495.03	4.840
495.37	4.886
495.72	4.630
496.07	4.640
496.41	4.425
496.76	4.837
497.11	4.773
497.45	4.751
497.80	4.750
498.14	4.155
498.49	4.195
498.84	4.842
499.18	4.476
499.53	4.986
499.87	4.520
500.22	5.370
500.56	5.243
500.91	3.942
501.26	4.694
501.60	4.461
501.95	4.904
502.29	4.639
502.64	4.935
502.98	4.582
503.33	4.707
503.67	4.687
504.02	4.771
504.36	4.726
504.71	5.032
505.06	4.627
505.40	5.056
505.75	4.484
506.09	4.762
506.44	4.785
506.78	4.774
507.13	4.796
507.47	4.848
507.82	5.319
508.16	4.813
508.51	5.175
508.85	5.065
509.19	4.388
509.54	5.306
509.88	4.946
510.23	4.730
510.57	5.418
510.92	5.282
511.26	4.830
511.61	5.135
511.95	5.167
512.30	4.348
512.64	4.675
512.98	5.252
513.33	5.460
513.67	5.016
514.02	5.357
514.36	5.461
514.70	5.534
515.05	5.131
515.39	5.328
515.74	4.730
516.08	5.534
516.42	5.105
516.77	6.299
517.11	4.994
517.46	5.869
517.80	5.226
518.14	4.864
518.49	5.018
518.83	5.739
519.17	4.850
519.52	5.150
519.86	5.819
520.20	5.434
520.55	5.625
520.89	5.535
521.23	6.152
521.58	5.882
521.92	5.940
522.26	5.491
522.61	4.299
522.95	4.972
523.29	5.539
523.64	5.305
523.98	5.545
524.32	5.247
524.66	5.833
525.01	6.250
525.35	5.452
525.69	5.542
526.04	5.919
526.38	5.613
526.72	6.196
527.06	5.901
527.41	4.703
527.75	5.916
528.09	5.138
528.43	5.417
528.78	5.839
529.12	5.091
529.46	5.511
529.80	6.002
530.15	5.670
530.49	5.846
530.83	5.696
531.17	6.266
531.51	6.874
531.86	5.484
532.20	6.389
532.54	6.214
532.88	5.520
533.22	5.621
533.57	6.111
533.91	6.081
534.25	5.346
534.59	6.528
534.93	5.830
535.27	5.371
535.62	6.593
535.96	5.712
536.30	5.722
536.64	5.666
536.98	5.906
537.32	5.267
537.66	5.600
538.01	5.135
538.35	5.559
538.69	7.084
539.03	5.653
539.37	5.240
539.71	4.731
540.05	6.275
540.39	5.980
540.73	5.886
541.07	6.165
541.42	5.675
541.76	6.129
542.10	6.856
542.44	5.298
542.78	6.456
543.12	4.798
543.46	6.098
543.80	6.441
544.14	5.135
544.48	6.095
544.82	5.324
545.16	5.791
545.50	5.784
545.84	5.578
546.18	5.926
546.52	5.643
546.86	5.223
547.20	5.934
547.54	5.411
547.88	6.569
548.22	6.040
548.56	5.660
548.90	4.866
549.24	4.512
549.58	5.798
549.92	5.769
550.26	5.611
550.60	5.602
550.94	5.986
551.28	4.243
551.62	5.464
551.96	5.123
552.30	6.007
552.64	5.882
552.98	5.763
553.32	5.597
553.66	6.612
554.00	7.069
554.34	5.728
554.68	5.937
555.02	5.783
555.36	6.263
555.69	5.413
556.03	5.855
556.37	5.798
556.71	6.412
557.05	5.812
557.39	6.228
557.73	5.999
558.07	5.729
558.41	5.861
558.75	5.878
559.08	5.667
559.42	4.535
559.76	5.809
560.10	5.710
560.44	6.289
560.78	5.256
561.12	6.201
561.45	6.389
561.79	5.669
562.13	5.500
562.47	4.918
562.81	5.300
563.15	5.552
563.48	6.034
563.82	5.675
564.16	5.625
564.50	4.492
564.84	5.310
565.17	5.019
565.51	5.879
565.85	6.218
566.19	5.510
566.52	5.510
566.86	6.028
567.20	5.660
567.54	5.023
567.88	4.943
568.21	5.291
568.55	4.752
568.89	5.010
569.23	4.947
569.56	4.858
569.90	4.415
570.24	4.270
570.57	4.454
570.91	3.749
571.25	4.077
571.59	4.418
571.92	4.061
572.26	3.957
572.60	3.994
572.93	4.138
573.27	4.614
573.61	4.634
573.95	4.315
574.28	3.920
574.62	3.863
574.96	3.847
575.29	3.589
575.63	3.786
575.97	3.619
576.30	4.089
576.64	3.993
576.98	3.525
577.31	3.674
577.65	3.844
577.98	3.538
578.32	3.574
578.66	3.857
578.99	3.880
579.33	3.655
579.67	3.381
580.00	3.764
580.34	3.773
580.67	3.876
581.01	4.003
581.35	3.723
581.68	3.682
582.02	3.358
582.35	3.363
582.69	3.468
583.02	3.578
583.36	3.482
583.70	3.696
584.03	3.527
584.37	3.953
584.70	3.527
585.04	3.938
585.37	3.821
585.71	4.159
586.04	4.035
586.38	4.154
586.72	4.363
587.05	3.749
587.39	3.694
587.72	4.097
588.06	4.002
588.39	4.170
588.73	4.019
589.06	4.176
589.40	4.377
589.73	4.118
590.07	4.128
590.40	4.238
590.73	4.176
591.07	4.599
591.40	5.314
591.74	4.892
592.07	4.712
592.41	4.589
592.74	4.569
593.08	4.364
593.41	4.271
593.75	4.154
594.08	4.291
594.41	4.454
594.75	3.919
595.08	4.223
595.42	4.413
595.75	4.345
596.09	4.769
596.42	4.833
596.75	5.065
597.09	5.065
597.42	4.595
597.75	5.045
598.09	4.957
598.42	4.296
598.76	4.216
599.09	4.219
599.42	4.367
599.76	4.246
600.09	4.007
600.42	4.529
600.76	4.321
601.09	4.590
601.42	4.490
601.76	4.668
602.09	4.427
602.42	4.976
602.76	4.796
603.09	5.350
603.42	4.881
603.76	4.345
604.09	4.459
604.42	4.729
604.76	4.935
605.09	4.675
605.42	4.703
605.75	4.801
606.09	4.229
606.42	4.250
606.75	5.185
607.09	4.772
607.42	4.365
607.75	4.346
608.08	4.559
608.42	5.155
608.75	5.005
609.08	4.764
609.41	4.760
609.75	4.478
610.08	4.995
610.41	4.702
610.74	4.588
611.07	5.040
611.41	4.711
611.74	5.078
612.07	4.814
612.40	4.984
612.73	4.947
613.07	5.819
613.40	5.845
613.73	4.615
614.06	5.430
614.39	5.454
614.72	5.737
615.06	5.567
615.39	4.883
615.72	5.879
616.05	5.369
616.38	5.892
616.71	5.582
617.05	5.948
617.38	6.073
617.71	4.805
618.04	4.808
618.37	4.967
618.70	6.161
619.03	6.513
619.36	5.431
619.69	5.493
620.03	5.838
620.36	5.749
620.69	6.164
621.02	6.490
621.35	5.482
621.68	5.452
622.01	6.269
622.34	5.598
622.67	5.932
623.00	6.310
623.33	6.433
623.66	6.719
623.99	5.523
624.32	5.563
624.65	6.215
624.99	5.382
625.32	5.865
625.65	6.536
625.98	6.533
626.31	7.076
626.64	5.959
626.97	7.066
627.30	5.736
627.63	7.219
627.96	5.803
628.29	7.174
628.62	7.502
628.95	7.264
629.28	7.938
629.61	6.966
629.94	6.857
630.26	6.196
630.59	6.768
630.92	6.897
631.25	7.009
631.58	8.108
631.91	6.085
632.24	7.068
632.57	8.185
632.90	7.018
633.23	7.159
633.56	8.136
633.89	8.947
634.22	7.719
634.55	8.521
634.88	7.186
635.20	7.885
635.53	8.434
635.86	8.168
636.19	7.765
636.52	7.266
636.85	7.675
637.18	8.180
637.51	9.102
637.83	6.535
638.16	7.417
638.49	9.320
638.82	7.838
639.15	7.250
639.48	9.850
639.81	7.775
640.13	8.724
640.46	8.859
640.79	9.115
641.12	7.840
641.45	7.821
641.77	9.426
642.10	9.795
642.43	10.060
642.76	8.514
643.09	10.736
643.41	10.167
643.74	10.957
644.07	8.994
644.40	10.123
644.73	10.236
645.05	10.777
645.38	7.741
645.71	9.501
646.04	9.801
646.36	11.018
646.69	11.706
647.02	9.694
647.35	10.309
647.67	8.850
648.00	11.220
648.33	10.066
648.66	8.939
648.98	10.645
649.31	7.175
649.64	9.118
649.96	8.346
650.29	10.427
650.62	9.385
650.94	11.831
651.27	11.993
651.60	9.983
651.92	11.342
652.25	7.980
652.58	9.969
652.90	9.637
653.23	8.937
653.56	10.551
653.88	11.094
654.21	11.216
