SpectraSuite Data File
++++++++++++++++++++++++++++++++++++
Date: Wed May 13 21:36:56 PDT 2015
User: schluterlab
Dark Spectrum Present: Yes
Reference Spectrum Present: Yes
Number of Sampled Component Spectra: 1
Spectrometers: USB2E3373
Integration Time (usec): 3000 (USB2E3373)
Spectra Averaged: 3 (USB2E3373)
Boxcar Smoothing: 0 (USB2E3373)
Correct for Electrical Dark: No (USB2E3373)
Strobe/Lamp Enabled: No (USB2E3373)
Correct for Detector Non-linearity: No (USB2E3373)
Correct for Stray Light: No (USB2E3373)
Number of Pixels in Processed Spectrum: 2048
>>>>>Begin Processed Spectral Data<<<<<
178.53	0.000
178.91	900.000
179.29	233.333
179.67	-1200.000
180.04	-566.667
180.42	280.000
180.80	1600.000
181.18	283.333
181.56	-500.000
181.94	-300.000
182.31	-54.545
182.69	169.231
183.07	-80.000
183.45	350.000
183.83	166.667
184.20	214.286
184.58	-400.000
184.96	500.000
185.34	257.143
185.72	0.000
186.09	-900.000
186.47	-200.000
186.85	340.000
187.23	-850.000
187.61	800.000
187.98	2000.000
188.36	0.000
188.74	0.000
189.12	-9.091
189.49	30.000
189.87	133.333
190.25	240.000
190.63	1800.000
191.00	-240.000
191.38	520.000
191.76	525.000
192.14	166.667
192.51	-36.842
192.89	600.000
193.27	275.000
193.65	-260.000
194.02	181.818
194.40	210.000
194.78	-1000.000
195.15	280.000
195.53	-240.000
195.91	-62.500
196.29	-66.667
196.66	0.000
197.04	550.000
197.42	-80.000
197.79	80.000
198.17	-137.500
198.55	-433.333
198.92	25.000
199.30	-600.000
199.68	-140.000
200.05	650.000
200.43	166.667
200.81	-1500.000
201.18	-300.000
201.56	-200.000
201.94	575.000
202.31	-13.043
202.69	-242.857
203.07	-333.333
203.44	-360.000
203.82	-566.667
204.19	-150.000
204.57	0.000
204.95	-333.333
205.32	0.000
205.70	-450.000
206.08	-425.000
206.45	-300.000
206.83	425.000
207.20	-500.000
207.58	-100.000
207.96	-1200.000
208.33	-300.000
208.71	-1800.000
209.08	162.500
209.46	750.000
209.84	0.000
210.21	140.000
210.59	1900.000
210.96	280.000
211.34	1300.000
211.71	-850.000
212.09	-116.667
212.46	-150.000
212.84	-233.333
213.22	-150.000
213.59	-2100.000
213.97	-500.000
214.34	-750.000
214.72	-107.692
215.09	237.500
215.47	155.556
215.84	850.000
216.22	-125.000
216.59	-500.000
216.97	866.667
217.34	200.000
217.72	0.000
218.09	400.000
218.47	-400.000
218.84	-128.571
219.22	-75.000
219.59	-500.000
219.97	-275.000
220.34	-162.500
220.72	-180.000
221.09	0.000
221.47	-133.333
221.84	-500.000
222.22	0.000
222.59	2000.000
222.97	-466.667
223.34	-58.333
223.72	-1400.000
224.09	-850.000
224.46	-127.273
224.84	-50.000
225.21	-142.857
225.59	-350.000
225.96	-183.333
226.34	-150.000
226.71	-100.000
227.08	1200.000
227.46	-87.500
227.83	-300.000
228.21	-37.500
228.58	-175.000
228.95	-5.882
229.33	-62.500
229.70	-62.500
230.08	23.077
230.45	-25.000
230.82	-133.333
231.20	257.143
231.57	-475.000
231.95	1500.000
232.32	0.000
232.69	-47.059
233.07	-1300.000
233.44	-43.478
233.81	-400.000
234.19	-8.333
234.56	-86.667
234.93	-20.000
235.31	5.263
235.68	-84.615
236.05	-61.538
236.43	-11.111
236.80	-15.152
237.17	-60.000
237.55	-94.118
237.92	-37.931
238.29	-29.630
238.67	0.000
239.04	-51.613
239.41	-27.660
239.79	0.000
240.16	6.977
240.53	12.500
240.91	14.286
241.28	-3.571
241.65	6.452
242.02	-1.316
242.40	4.348
242.77	0.000
243.14	8.974
243.51	9.574
243.89	12.500
244.26	21.698
244.63	-2.885
245.00	8.333
245.38	12.605
245.75	15.574
246.12	24.812
246.49	-1.626
246.87	8.403
247.24	21.622
247.61	9.934
247.98	13.462
248.36	14.201
248.73	9.551
249.10	15.152
249.47	13.441
249.84	21.579
250.22	14.925
250.59	11.215
250.96	17.273
251.33	7.177
251.70	17.573
252.08	15.063
252.45	18.930
252.82	14.068
253.19	14.786
253.56	12.230
253.94	18.149
254.31	15.141
254.68	19.799
255.05	14.851
255.42	14.685
255.79	16.871
256.16	19.874
256.54	16.825
256.91	15.506
257.28	17.925
257.65	15.287
258.02	14.663
258.39	19.591
258.76	22.674
259.14	15.625
259.51	17.697
259.88	17.344
260.25	17.500
260.62	13.764
260.99	16.976
261.36	19.430
261.73	16.049
262.10	18.830
262.47	15.062
262.85	15.672
263.22	18.462
263.59	17.143
263.96	15.815
264.33	16.587
264.70	15.814
265.07	18.056
265.44	21.839
265.81	16.476
266.18	15.490
266.55	17.686
266.92	17.797
267.29	17.695
267.66	18.471
268.03	17.901
268.40	16.949
268.77	17.769
269.14	19.388
269.51	20.739
269.88	17.719
270.25	17.161
270.62	17.623
270.99	18.307
271.36	15.873
271.73	18.072
272.10	16.190
272.47	17.850
272.84	17.323
273.21	20.352
273.58	18.033
273.95	16.792
274.32	19.963
274.69	19.672
275.06	16.961
275.43	17.137
275.80	16.312
276.17	17.127
276.54	17.940
276.91	18.118
277.28	15.343
277.65	19.406
278.02	19.107
278.39	17.229
278.76	18.729
279.13	16.467
279.50	18.793
279.87	16.486
280.23	17.297
280.60	16.955
280.97	17.045
281.34	17.192
281.71	16.423
282.08	16.752
282.45	17.213
282.82	18.051
283.19	19.970
283.56	17.344
283.92	17.890
284.29	15.913
284.66	15.321
285.03	16.287
285.40	16.314
285.77	19.670
286.14	15.502
286.51	17.091
286.87	15.077
287.24	15.192
287.61	18.675
287.98	16.176
288.35	15.648
288.72	17.647
289.08	16.809
289.45	15.712
289.82	16.036
290.19	16.550
290.56	14.631
290.93	15.055
291.29	16.689
291.66	16.120
292.03	15.804
292.40	15.747
292.77	14.726
293.13	15.900
293.50	15.686
293.87	16.133
294.24	16.005
294.60	15.605
294.97	17.063
295.34	15.831
295.71	14.586
296.08	13.351
296.44	15.561
296.81	14.007
297.18	15.125
297.55	14.623
297.91	15.404
298.28	14.407
298.65	13.916
299.02	15.018
299.38	13.497
299.75	14.062
300.12	13.256
300.48	13.918
300.85	13.626
301.22	13.937
301.59	13.028
301.95	12.892
302.32	13.419
302.69	14.011
303.05	13.732
303.42	13.068
303.79	14.616
304.15	14.239
304.52	15.591
304.89	13.400
305.25	12.404
305.62	14.751
305.99	14.363
306.35	15.047
306.72	12.920
307.09	13.452
307.45	14.058
307.82	12.737
308.19	13.375
308.55	12.487
308.92	14.538
309.29	14.515
309.65	12.987
310.02	13.121
310.38	12.703
310.75	13.807
311.12	13.314
311.48	13.650
311.85	14.075
312.22	14.120
312.58	12.271
312.95	14.030
313.31	13.407
313.68	14.599
314.05	13.327
314.41	14.986
314.78	13.947
315.14	14.259
315.51	14.082
315.87	14.458
316.24	14.509
316.61	13.973
316.97	14.259
317.34	13.458
317.70	15.254
318.07	16.593
318.43	13.911
318.80	14.921
319.16	14.677
319.53	15.233
319.89	15.808
320.26	16.821
320.62	15.385
320.99	15.988
321.35	15.716
321.72	18.094
322.08	15.683
322.45	18.779
322.81	17.837
323.18	18.605
323.54	18.773
323.91	18.338
324.27	19.532
324.64	17.770
325.00	18.723
325.37	21.331
325.73	20.370
326.10	19.765
326.46	20.569
326.83	22.816
327.19	20.894
327.56	22.562
327.92	22.928
328.29	23.289
328.65	23.488
329.01	23.395
329.38	25.043
329.74	24.979
330.11	24.617
330.47	24.479
330.84	25.812
331.20	25.875
331.56	26.359
331.93	26.873
332.29	27.281
332.66	26.864
333.02	27.194
333.38	26.491
333.75	27.304
334.11	28.125
334.48	29.207
334.84	26.060
335.20	28.388
335.57	27.415
335.93	27.405
336.29	27.671
336.66	28.462
337.02	28.609
337.38	28.634
337.75	28.165
338.11	28.096
338.47	28.767
338.84	29.296
339.20	28.748
339.56	30.119
339.93	29.041
340.29	30.401
340.65	30.111
341.02	28.952
341.38	29.307
341.74	29.748
342.11	28.902
342.47	29.372
342.83	29.902
343.20	30.880
343.56	30.253
343.92	30.219
344.28	30.844
344.65	30.531
345.01	29.379
345.37	31.579
345.73	30.801
346.10	31.461
346.46	30.244
346.82	31.782
347.19	30.775
347.55	30.048
347.91	30.865
348.27	30.521
348.63	31.811
349.00	30.739
349.36	31.319
349.72	32.637
350.08	31.435
350.45	31.872
350.81	31.377
351.17	33.487
351.53	30.401
351.89	31.056
352.26	29.961
352.62	31.628
352.98	32.188
353.34	31.481
353.70	32.788
354.07	32.941
354.43	31.182
354.79	32.612
355.15	31.910
355.51	32.118
355.87	33.933
356.24	32.504
356.60	31.978
356.96	34.229
357.32	32.276
357.68	33.308
358.04	31.497
358.40	33.643
358.77	34.021
359.13	33.852
359.49	33.687
359.85	32.980
360.21	33.231
360.57	33.384
360.93	33.687
361.29	33.457
361.66	34.776
362.02	33.358
362.38	33.752
362.74	33.938
363.10	33.984
363.46	33.429
363.82	33.333
364.18	34.228
364.54	35.522
364.90	33.798
365.26	34.112
365.62	33.523
365.98	34.377
366.35	34.752
366.71	34.451
367.07	33.877
367.43	35.819
367.79	33.912
368.15	34.599
368.51	34.740
368.87	34.962
369.23	35.089
369.59	35.800
369.95	35.269
370.31	35.216
370.67	34.540
371.03	36.154
371.39	34.634
371.75	36.286
372.11	35.684
372.47	35.184
372.83	35.576
373.19	36.187
373.55	35.477
373.91	36.351
374.27	34.855
374.63	36.273
374.99	35.237
375.35	36.233
375.71	35.462
376.07	37.286
376.42	36.430
376.78	36.196
377.14	36.271
377.50	36.767
377.86	37.849
378.22	35.967
378.58	36.066
378.94	37.125
379.30	38.039
379.66	37.608
380.02	36.520
380.38	37.831
380.74	36.940
381.09	36.068
381.45	37.183
381.81	37.400
382.17	36.925
382.53	36.308
382.89	37.153
383.25	36.852
383.61	38.075
383.97	38.562
384.32	37.870
384.68	38.556
385.04	36.958
385.40	38.169
385.76	38.504
386.12	37.637
386.48	38.495
386.83	37.922
387.19	37.693
387.55	39.240
387.91	38.561
388.27	39.026
388.62	38.265
388.98	38.673
389.34	38.471
389.70	38.584
390.06	38.062
390.42	40.464
390.77	38.629
391.13	39.710
391.49	37.508
391.85	40.256
392.20	38.409
392.56	38.730
392.92	39.789
393.28	39.163
393.64	39.755
393.99	38.066
394.35	38.765
394.71	38.654
395.07	38.176
395.42	38.635
395.78	38.031
396.14	38.998
396.50	38.935
396.85	39.006
397.21	38.452
397.57	38.323
397.92	38.443
398.28	39.199
398.64	39.405
399.00	38.951
399.35	39.841
399.71	39.080
400.07	39.217
400.42	39.812
400.78	38.912
401.14	39.178
401.49	39.185
401.85	39.619
402.21	40.619
402.57	39.240
402.92	39.299
403.28	39.900
403.63	39.988
403.99	39.731
404.35	39.589
404.70	39.094
405.06	40.047
405.42	38.128
405.77	39.055
406.13	39.371
406.49	39.904
406.84	40.232
407.20	40.320
407.55	40.325
407.91	38.716
408.27	38.553
408.62	39.472
408.98	39.581
409.34	39.604
409.69	40.351
410.05	39.677
410.40	38.527
410.76	40.554
411.11	40.983
411.47	40.876
411.83	38.989
412.18	39.610
412.54	39.348
412.89	38.871
413.25	38.466
413.60	40.063
413.96	39.888
414.31	38.594
414.67	39.111
415.03	39.783
415.38	39.828
415.74	39.701
416.09	39.987
416.45	39.850
416.80	40.671
417.16	39.204
417.51	40.188
417.87	39.220
418.22	39.884
418.58	39.225
418.93	40.552
419.29	41.254
419.64	39.249
420.00	40.444
420.35	39.510
420.71	40.037
421.06	40.713
421.42	40.511
421.77	40.578
422.12	39.828
422.48	39.531
422.83	40.402
423.19	40.081
423.54	39.988
423.90	40.499
424.25	41.075
424.61	40.665
424.96	40.509
425.31	39.933
425.67	41.329
426.02	41.166
426.38	40.920
426.73	41.417
427.09	40.588
427.44	41.515
427.79	40.974
428.15	40.734
428.50	40.181
428.85	41.082
429.21	40.743
429.56	41.339
429.92	40.552
430.27	40.746
430.62	40.556
430.98	41.301
431.33	40.247
431.68	41.001
432.04	42.254
432.39	40.820
432.74	40.711
433.10	42.359
433.45	40.533
433.80	40.632
434.16	41.780
434.51	41.685
434.86	41.225
435.22	41.935
435.57	41.462
435.92	41.918
436.28	41.201
436.63	41.455
436.98	41.774
437.34	41.331
437.69	40.319
438.04	40.917
438.39	41.407
438.75	42.431
439.10	42.973
439.45	42.070
439.81	42.549
440.16	41.855
440.51	42.093
440.86	41.434
441.22	41.079
441.57	41.757
441.92	42.250
442.27	41.396
442.63	42.519
442.98	42.708
443.33	42.946
443.68	41.118
444.03	42.673
444.39	42.985
444.74	42.739
445.09	42.126
445.44	43.099
445.79	42.953
446.15	42.651
446.50	42.511
446.85	43.720
447.20	42.656
447.55	41.914
447.91	42.472
448.26	43.225
448.61	42.578
448.96	43.223
449.31	43.290
449.66	43.898
450.02	42.808
450.37	43.302
450.72	42.595
451.07	43.135
451.42	42.358
451.77	43.883
452.12	42.543
452.47	42.285
452.83	43.278
453.18	43.857
453.53	42.749
453.88	43.735
454.23	42.645
454.58	43.566
454.93	43.874
455.28	44.444
455.63	42.795
455.98	43.883
456.34	43.484
456.69	43.770
457.04	43.034
457.39	44.017
457.74	43.208
458.09	43.246
458.44	44.360
458.79	43.218
459.14	42.978
459.49	44.268
459.84	44.081
460.19	42.497
460.54	42.032
460.89	43.806
461.24	43.588
461.59	44.143
461.94	42.857
462.29	42.953
462.64	44.129
462.99	45.741
463.34	43.923
463.69	43.943
464.04	43.157
464.39	44.173
464.74	43.550
465.09	42.963
465.44	43.154
465.79	43.473
466.14	43.786
466.49	43.871
466.84	43.993
467.19	43.885
467.54	45.496
467.89	44.375
468.24	43.270
468.59	43.595
468.94	44.125
469.29	44.283
469.64	43.584
469.99	44.828
470.34	43.223
470.68	44.833
471.03	45.346
471.38	44.298
471.73	45.542
472.08	45.292
472.43	43.799
472.78	44.692
473.13	42.414
473.48	44.423
473.83	45.512
474.17	44.531
474.52	45.307
474.87	44.150
475.22	43.841
475.57	43.949
475.92	44.711
476.27	44.231
476.61	44.111
476.96	44.146
477.31	43.905
477.66	45.367
478.01	43.571
478.36	44.632
478.70	44.415
479.05	45.560
479.40	42.850
479.75	45.112
480.10	44.773
480.45	43.992
480.79	44.201
481.14	44.225
481.49	45.091
481.84	43.544
482.19	44.975
482.53	44.286
482.88	44.391
483.23	44.514
483.58	44.849
483.92	43.580
484.27	43.870
484.62	44.385
484.97	43.799
485.31	42.562
485.66	39.533
486.01	39.662
486.36	39.733
486.70	41.597
487.05	42.398
487.40	43.274
487.75	44.358
488.09	44.354
488.44	44.760
488.79	45.382
489.13	43.936
489.48	44.121
489.83	44.975
490.17	44.349
490.52	46.844
490.87	44.553
491.22	44.795
491.56	45.903
491.91	45.751
492.26	46.325
492.60	45.406
492.95	45.724
493.30	43.992
493.64	45.036
493.99	44.348
494.34	44.990
494.68	45.107
495.03	45.455
495.37	44.672
495.72	45.965
496.07	45.884
496.41	44.923
496.76	45.155
497.11	45.915
497.45	46.109
497.80	46.391
498.14	47.254
498.49	46.193
498.84	46.660
499.18	46.341
499.53	44.953
499.87	44.493
500.22	45.943
500.56	45.787
500.91	46.982
501.26	44.680
501.60	45.490
501.95	45.568
502.29	46.505
502.64	46.287
502.98	45.135
503.33	45.937
503.67	44.450
504.02	46.225
504.36	46.112
504.71	45.986
505.06	46.816
505.40	47.835
505.75	48.423
506.09	45.887
506.44	46.774
506.78	46.927
507.13	47.973
507.47	46.819
507.82	46.363
508.16	47.282
508.51	46.229
508.85	47.175
509.19	46.296
509.54	47.614
509.88	46.344
510.23	46.000
510.57	47.511
510.92	48.330
511.26	48.240
511.61	47.366
511.95	47.244
512.30	47.474
512.64	48.978
512.98	47.756
513.33	48.676
513.67	48.893
514.02	49.088
514.36	48.090
514.70	49.192
515.05	49.737
515.39	49.351
515.74	49.201
516.08	48.968
516.42	49.136
516.77	48.272
517.11	49.383
517.46	50.120
517.80	50.484
518.14	49.908
518.49	49.910
518.83	49.821
519.17	50.482
519.52	50.483
519.86	51.305
520.20	49.485
520.55	51.244
520.89	50.032
521.23	51.987
521.58	51.896
521.92	50.534
522.26	50.748
522.61	51.778
522.95	51.943
523.29	51.429
523.64	51.748
523.98	51.652
524.32	51.796
524.66	51.558
525.01	52.556
525.35	53.917
525.69	52.883
526.04	51.010
526.38	52.645
526.72	52.005
527.06	53.127
527.41	51.489
527.75	52.537
528.09	53.438
528.43	53.324
528.78	52.132
529.12	52.911
529.46	51.248
529.80	51.909
530.15	52.896
530.49	54.245
530.83	53.148
531.17	54.795
531.51	52.057
531.86	52.642
532.20	53.274
532.54	52.621
532.88	53.370
533.22	53.737
533.57	52.649
533.91	53.935
534.25	53.060
534.59	51.995
534.93	51.467
535.27	53.567
535.62	53.947
535.96	53.155
536.30	52.793
536.64	52.495
536.98	54.240
537.32	54.520
537.66	54.020
538.01	54.924
538.35	52.072
538.69	52.843
539.03	51.611
539.37	52.716
539.71	53.752
540.05	53.104
540.39	53.200
540.73	53.073
541.07	54.014
541.42	53.131
541.76	52.097
542.10	53.216
542.44	53.084
542.78	52.811
543.12	52.830
543.46	52.315
543.80	52.885
544.14	54.439
544.48	51.626
544.82	52.724
545.16	52.197
545.50	54.693
545.84	52.735
546.18	53.787
546.52	54.552
546.86	54.629
547.20	53.324
547.54	54.753
547.88	53.171
548.22	53.550
548.56	54.503
548.90	53.180
549.24	54.583
549.58	53.950
549.92	57.373
550.26	56.974
550.60	55.105
550.94	54.478
551.28	53.747
551.62	55.188
551.96	54.612
552.30	53.275
552.64	52.754
552.98	53.267
553.32	54.362
553.66	53.778
554.00	54.716
554.34	54.725
554.68	56.152
555.02	54.716
555.36	55.219
555.69	54.406
556.03	53.824
556.37	53.485
556.71	52.628
557.05	54.170
557.39	54.107
557.73	54.917
558.07	54.258
558.41	55.867
558.75	55.350
559.08	55.012
559.42	55.704
559.76	54.587
560.10	54.112
560.44	55.195
560.78	54.748
561.12	54.590
561.45	53.810
561.79	54.746
562.13	54.923
562.47	54.571
562.81	53.535
563.15	54.108
563.48	53.476
563.82	54.856
564.16	52.674
564.50	54.071
564.84	52.297
565.17	54.172
565.51	53.275
565.85	53.031
566.19	53.841
566.52	52.818
566.86	51.833
567.20	52.474
567.54	51.468
567.88	51.344
568.21	50.299
568.55	51.278
568.89	50.847
569.23	49.267
569.56	49.395
569.90	48.236
570.24	47.437
570.57	46.708
570.91	46.838
571.25	46.656
571.59	45.971
571.92	46.436
572.26	46.688
572.60	47.244
572.93	46.954
573.27	46.553
573.61	47.077
573.95	45.717
574.28	45.605
574.62	45.297
574.96	45.349
575.29	46.439
575.63	46.391
575.97	47.364
576.30	45.953
576.64	46.136
576.98	46.014
577.31	45.199
577.65	44.687
577.98	45.293
578.32	44.769
578.66	45.505
578.99	45.892
579.33	46.252
579.67	46.741
580.00	45.814
580.34	45.928
580.67	45.811
581.01	45.872
581.35	44.187
581.68	43.877
582.02	44.649
582.35	45.424
582.69	45.662
583.02	45.729
583.36	46.431
583.70	46.934
584.03	46.401
584.37	47.022
584.70	45.593
585.04	46.565
585.37	45.784
585.71	44.887
586.04	46.040
586.38	45.330
586.72	46.923
587.05	46.672
587.39	46.212
587.72	46.303
588.06	45.746
588.39	46.627
588.73	47.142
589.06	47.236
589.40	47.678
589.73	47.072
590.07	47.940
590.40	48.050
590.73	49.230
591.07	48.475
591.40	48.261
591.74	47.977
592.07	49.293
592.41	48.777
592.74	47.338
593.08	46.701
593.41	46.821
593.75	46.576
594.08	47.496
594.41	48.336
594.75	48.163
595.08	48.656
595.42	46.850
595.75	47.252
596.09	48.383
596.42	48.611
596.75	49.276
597.09	49.818
597.42	48.901
597.75	48.711
598.09	49.180
598.42	48.770
598.76	48.363
599.09	48.099
599.42	46.903
599.76	47.202
600.09	46.611
600.42	47.759
600.76	46.157
601.09	47.345
601.42	48.961
601.76	47.606
602.09	47.548
602.42	48.329
602.76	48.616
603.09	49.363
603.42	47.701
603.76	46.726
604.09	47.352
604.42	47.886
604.76	49.105
605.09	49.026
605.42	48.988
605.75	48.180
606.09	46.151
606.42	48.005
606.75	48.918
607.09	48.360
607.42	47.986
607.75	47.484
608.08	49.279
608.42	49.110
608.75	49.164
609.08	48.898
609.41	49.329
609.75	48.865
610.08	49.014
610.41	49.417
610.74	49.856
611.07	48.898
611.41	49.949
611.74	49.275
612.07	48.984
612.40	50.541
612.73	50.165
613.07	49.058
613.40	50.496
613.73	49.133
614.06	49.641
614.39	50.528
614.72	49.584
615.06	49.222
615.39	49.283
615.72	48.974
616.05	48.874
616.38	49.885
616.71	49.610
617.05	50.799
617.38	50.339
617.71	49.694
618.04	49.116
618.37	50.536
618.70	51.229
619.03	52.234
619.36	51.174
619.69	51.827
620.03	50.106
620.36	51.983
620.69	51.249
621.02	53.231
621.35	53.148
621.68	52.812
622.01	51.780
622.34	52.498
622.67	53.485
623.00	51.976
623.33	52.431
623.66	51.896
623.99	53.188
624.32	52.458
624.65	52.003
624.99	50.918
625.32	53.025
625.65	51.550
625.98	53.318
626.31	53.551
626.64	55.546
626.97	54.152
627.30	54.919
627.63	52.941
627.96	51.429
628.29	56.465
628.62	55.222
628.95	56.413
629.28	56.158
629.61	53.301
629.94	54.642
630.26	55.271
630.59	55.345
630.92	55.120
631.25	55.407
631.58	57.173
631.91	55.779
632.24	56.202
