SpectraSuite Data File
++++++++++++++++++++++++++++++++++++
Date: Wed May 13 20:26:36 PDT 2015
User: schluterlab
Dark Spectrum Present: Yes
Reference Spectrum Present: Yes
Number of Sampled Component Spectra: 1
Spectrometers: USB2E3373
Integration Time (usec): 3000 (USB2E3373)
Spectra Averaged: 3 (USB2E3373)
Boxcar Smoothing: 0 (USB2E3373)
Correct for Electrical Dark: No (USB2E3373)
Strobe/Lamp Enabled: No (USB2E3373)
Correct for Detector Non-linearity: No (USB2E3373)
Correct for Stray Light: No (USB2E3373)
Number of Pixels in Processed Spectrum: 2048
>>>>>Begin Processed Spectral Data<<<<<
178.53	0.000
178.91	-1150.000
179.29	-1175.000
179.67	-216.667
180.04	-1075.000
180.42	2300.000
180.80	940.000
181.18	-900.000
181.56	600.000
181.94	0.000
182.31	-500.000
182.69	1566.667
183.07	-550.000
183.45	-477.778
183.83	363.636
184.20	-380.000
184.58	1850.000
184.96	4500.000
185.34	-700.000
185.72	-525.000
186.09	-1900.000
186.47	2150.000
186.85	1550.000
187.23	4500.000
187.61	-1633.333
187.98	975.000
188.36	500.000
188.74	454.545
189.12	-700.000
189.49	510.000
189.87	-4300.000
190.25	-950.000
190.63	407.143
191.00	400.000
191.38	666.667
191.76	-1150.000
192.14	1050.000
192.51	587.500
192.89	883.333
193.27	612.500
193.65	-1050.000
194.02	490.000
194.40	900.000
194.78	530.000
195.15	400.000
195.53	540.000
195.91	-1450.000
196.29	350.000
196.66	289.474
197.04	-200.000
197.42	0.000
197.79	530.000
198.17	-5000.000
198.55	642.857
198.92	462.500
199.30	820.000
199.68	0.000
200.05	305.556
200.43	642.857
200.81	3700.000
201.18	1433.333
201.56	-1133.333
201.94	522.222
202.31	522.222
202.69	441.667
203.07	460.000
203.44	0.000
203.82	1275.000
204.19	557.143
204.57	450.000
204.95	587.500
205.32	1366.667
205.70	445.455
206.08	385.714
206.45	2100.000
206.83	331.250
207.20	716.667
207.58	760.000
207.96	294.444
208.33	700.000
208.71	-833.333
209.08	657.143
209.46	533.333
209.84	454.545
210.21	-1433.333
210.59	1325.000
210.96	-512.500
211.34	2300.000
211.71	480.000
212.09	833.333
212.46	0.000
212.84	1833.333
213.22	1200.000
213.59	-5200.000
213.97	766.667
214.34	728.571
214.72	609.091
215.09	940.000
215.47	-1750.000
215.84	-2650.000
216.22	1633.333
216.59	350.000
216.97	1125.000
217.34	390.909
217.72	-683.333
218.09	0.000
218.47	-4200.000
218.84	588.889
219.22	642.857
219.59	1800.000
219.97	-557.143
220.34	900.000
220.72	-1400.000
221.09	400.000
221.47	1300.000
221.84	-650.000
222.22	0.000
222.59	1500.000
222.97	-1750.000
223.34	800.000
223.72	392.308
224.09	960.000
224.46	1950.000
224.84	-4600.000
225.21	-800.000
225.59	-3700.000
225.96	560.000
226.34	240.000
226.71	2350.000
227.08	525.000
227.46	450.000
227.83	-925.000
228.21	-1800.000
228.58	500.000
228.95	-2350.000
229.33	-2050.000
229.70	1366.667
230.08	728.571
230.45	-880.000
230.82	433.333
231.20	666.667
231.57	728.571
231.95	466.667
232.32	213.636
232.69	418.182
233.07	514.286
233.44	353.846
233.81	-1400.000
234.19	284.211
234.56	300.000
234.93	375.000
235.31	436.364
235.68	361.538
236.05	335.714
236.43	157.576
236.80	268.421
237.17	5200.000
237.55	257.143
237.92	203.571
238.29	261.905
238.67	177.419
239.04	200.000
239.41	141.667
239.79	119.565
240.16	150.000
240.53	120.455
240.91	107.843
241.28	110.000
241.65	112.000
242.02	86.957
242.40	101.613
242.77	100.000
243.14	83.871
243.51	98.876
243.89	74.118
244.26	73.333
244.63	64.516
245.00	73.404
245.38	75.248
245.75	69.159
246.12	57.798
246.49	75.182
246.87	68.000
247.24	67.692
247.61	57.857
247.98	60.784
248.36	52.027
248.73	57.325
249.10	64.331
249.47	58.192
249.84	52.406
250.22	50.802
250.59	50.296
250.96	54.545
251.33	54.028
251.70	60.396
252.08	48.571
252.45	51.121
252.82	47.391
253.19	48.511
253.56	49.804
253.94	49.793
254.31	48.438
254.68	50.000
255.05	44.280
255.42	48.780
255.79	48.162
256.16	45.126
256.54	44.876
256.91	48.399
257.28	44.604
257.65	41.584
258.02	44.410
258.39	43.218
258.76	38.796
259.14	41.369
259.51	41.337
259.88	40.062
260.25	43.202
260.62	45.954
260.99	44.720
261.36	42.643
261.73	43.553
262.10	42.733
262.47	40.000
262.85	42.061
263.22	36.467
263.59	41.595
263.96	41.484
264.33	39.687
264.70	43.684
265.07	40.409
265.44	37.121
265.81	36.983
266.18	39.196
266.55	38.780
266.92	41.032
267.29	41.667
267.66	37.156
268.03	39.545
268.40	39.252
268.77	38.663
269.14	39.414
269.51	41.535
269.88	40.093
270.25	37.246
270.62	38.876
270.99	38.925
271.36	36.266
271.73	38.551
272.10	39.348
272.47	41.075
272.84	37.662
273.21	40.252
273.58	39.738
273.95	36.478
274.32	38.430
274.69	38.758
275.06	35.630
275.43	39.362
275.80	40.281
276.17	35.642
276.54	41.372
276.91	36.364
277.28	37.695
277.65	35.590
278.02	37.888
278.39	38.477
278.76	39.091
279.13	38.868
279.50	37.058
279.87	35.857
280.23	38.922
280.60	34.623
280.97	34.566
281.34	35.752
281.71	37.273
282.08	37.620
282.45	34.727
282.82	34.636
283.19	34.938
283.56	36.316
283.92	38.409
284.29	36.332
284.66	35.753
285.03	36.347
285.40	36.444
285.77	34.680
286.14	35.579
286.51	36.333
286.87	34.017
287.24	36.971
287.61	33.708
287.98	33.766
288.35	35.024
288.72	32.710
289.08	34.116
289.45	34.596
289.82	33.008
290.19	33.281
290.56	32.312
290.93	31.873
291.29	31.902
291.66	31.858
292.03	32.122
292.40	33.921
292.77	32.249
293.13	30.299
293.50	33.236
293.87	31.556
294.24	31.259
294.60	29.694
294.97	31.831
295.34	31.171
295.71	29.687
296.08	29.487
296.44	30.536
296.81	28.402
297.18	29.539
297.55	29.551
297.91	31.003
298.28	30.254
298.65	28.721
299.02	28.986
299.38	28.951
299.75	26.685
300.12	28.097
300.48	27.625
300.85	28.483
301.22	28.790
301.59	27.652
301.95	28.715
302.32	28.626
302.69	28.196
303.05	27.394
303.42	26.173
303.79	26.614
304.15	26.340
304.52	26.999
304.89	26.481
305.25	27.610
305.62	26.840
305.99	27.509
306.35	27.517
306.72	26.345
307.09	27.081
307.45	27.140
307.82	26.339
308.19	26.932
308.55	27.508
308.92	26.745
309.29	25.977
309.65	24.708
310.02	26.850
310.38	27.312
310.75	26.610
311.12	26.714
311.48	27.168
311.85	27.673
312.22	26.119
312.58	26.403
312.95	27.455
313.31	26.019
313.68	28.067
314.05	29.093
314.41	26.030
314.78	27.291
315.14	27.607
315.51	27.600
315.87	28.119
316.24	27.408
316.61	27.388
316.97	27.593
317.34	25.440
317.70	28.394
318.07	26.949
318.43	28.571
318.80	28.304
319.16	27.872
319.53	27.298
319.89	29.333
320.26	29.000
320.62	27.282
320.99	27.879
321.35	28.182
321.72	28.131
322.08	29.121
322.45	30.348
322.81	27.616
323.18	28.035
323.54	29.035
323.91	28.396
324.27	27.725
324.64	27.959
325.00	27.773
325.37	28.935
325.73	29.443
326.10	28.861
326.46	27.330
326.83	28.991
327.19	28.693
327.56	27.787
327.92	28.171
328.29	29.104
328.65	29.558
329.01	27.166
329.38	28.215
329.74	28.070
330.11	29.500
330.47	29.201
330.84	28.952
331.20	27.505
331.56	28.165
331.93	27.315
332.29	27.684
332.66	28.142
333.02	28.154
333.38	27.733
333.75	27.897
334.11	28.470
334.48	27.152
334.84	27.941
335.20	27.909
335.57	27.471
335.93	26.875
336.29	27.106
336.66	28.855
337.02	27.059
337.38	27.778
337.75	25.668
338.11	27.574
338.47	26.888
338.84	28.048
339.20	26.239
339.56	28.102
339.93	25.818
340.29	26.721
340.65	27.005
341.02	28.098
341.38	27.669
341.74	26.404
342.11	27.074
342.47	27.137
342.83	26.027
343.20	26.926
343.56	26.369
343.92	26.140
344.28	26.786
344.65	26.913
345.01	25.842
345.37	25.729
345.73	25.296
346.10	26.087
346.46	26.525
346.82	25.700
347.19	25.230
347.55	26.026
347.91	26.699
348.27	26.952
348.63	26.672
349.00	25.728
349.36	25.123
349.72	25.742
350.08	26.418
350.45	26.200
350.81	25.751
351.17	25.689
351.53	26.618
351.89	24.340
352.26	26.677
352.62	25.421
352.98	25.041
353.34	26.048
353.70	24.714
354.07	24.919
354.43	24.048
354.79	24.537
355.15	24.820
355.51	25.899
355.87	26.286
356.24	25.489
356.60	25.020
356.96	24.537
357.32	25.593
357.68	24.331
358.04	25.574
358.40	25.178
358.77	24.961
359.13	24.862
359.49	24.863
359.85	23.254
360.21	24.880
360.57	25.292
360.93	26.385
361.29	24.868
361.66	24.071
362.02	24.552
362.38	25.247
362.74	24.628
363.10	25.685
363.46	24.725
363.82	24.792
364.18	24.670
364.54	25.334
364.90	24.433
365.26	24.706
365.62	24.836
365.98	24.251
366.35	24.427
366.71	25.163
367.07	24.618
367.43	25.399
367.79	24.697
368.15	24.784
368.51	23.692
368.87	25.767
369.23	25.384
369.59	24.620
369.95	25.294
370.31	24.074
370.67	25.000
371.03	24.719
371.39	25.364
371.75	24.118
372.11	24.467
372.47	25.513
372.83	24.856
373.19	23.410
373.55	24.464
373.91	25.479
374.27	24.261
374.63	24.364
374.99	24.364
375.35	23.796
375.71	24.400
376.07	25.171
376.42	24.553
376.78	24.652
377.14	24.084
377.50	24.238
377.86	23.936
378.22	24.210
378.58	22.932
378.94	23.759
379.30	24.555
379.66	25.127
380.02	24.079
380.38	23.801
380.74	24.250
381.09	25.306
381.45	24.770
381.81	25.246
382.17	24.459
382.53	24.025
382.89	24.259
383.25	24.453
383.61	24.659
383.97	24.515
384.32	24.205
384.68	24.721
385.04	25.507
385.40	25.139
385.76	24.570
386.12	24.352
386.48	24.418
386.83	24.631
387.19	25.974
387.55	24.799
387.91	24.486
388.27	24.157
388.62	25.507
388.98	24.570
389.34	25.469
389.70	24.096
390.06	24.715
390.42	25.681
390.77	25.573
391.13	25.718
391.49	25.254
391.85	25.016
392.20	23.344
392.56	25.189
392.92	24.544
393.28	23.787
393.64	24.640
393.99	24.679
394.35	24.504
394.71	25.094
395.07	23.925
395.42	24.598
395.78	24.364
396.14	25.078
396.50	25.188
396.85	25.366
397.21	25.092
397.57	24.923
397.92	24.339
398.28	24.439
398.64	25.329
399.00	23.447
399.35	23.858
399.71	24.653
400.07	24.423
400.42	25.092
400.78	25.392
401.14	25.549
401.49	25.552
401.85	24.017
402.21	24.311
402.57	23.998
402.92	25.410
403.28	25.109
403.63	24.938
403.99	25.541
404.35	24.727
404.70	24.820
405.06	24.520
405.42	25.140
405.77	23.086
406.13	24.492
406.49	24.423
406.84	25.044
407.20	25.000
407.55	25.144
407.91	25.933
408.27	25.399
408.62	24.865
408.98	25.123
409.34	24.785
409.69	25.548
410.05	25.465
410.40	25.199
410.76	25.030
411.11	26.236
411.47	25.431
411.83	26.084
412.18	24.242
412.54	25.903
412.89	25.482
413.25	25.325
413.60	26.251
413.96	25.440
414.31	25.091
414.67	25.602
415.03	25.298
415.38	25.387
415.74	25.145
416.09	25.735
416.45	24.967
416.80	25.050
417.16	26.139
417.51	25.547
417.87	25.241
418.22	25.615
418.58	25.307
418.93	25.184
419.29	25.461
419.64	25.819
420.00	25.976
420.35	25.217
420.71	26.360
421.06	25.477
421.42	25.556
421.77	25.841
422.12	24.930
422.48	24.069
422.83	25.102
423.19	25.525
423.54	25.421
423.90	25.449
424.25	25.851
424.61	25.179
424.96	25.889
425.31	25.914
425.67	25.393
426.02	24.914
426.38	26.435
426.73	25.395
427.09	26.201
427.44	26.509
427.79	25.992
428.15	26.369
428.50	25.805
428.85	26.818
429.21	25.400
429.56	25.868
429.92	25.466
430.27	25.124
430.62	25.550
430.98	26.207
431.33	25.412
431.68	26.492
432.04	26.571
432.39	25.871
432.74	26.691
433.10	26.429
433.45	26.006
433.80	25.610
434.16	25.641
434.51	25.737
434.86	26.967
435.22	25.792
435.57	25.593
435.92	25.336
436.28	26.097
436.63	26.545
436.98	26.102
437.34	26.655
437.69	26.371
438.04	26.138
438.39	26.806
438.75	26.089
439.10	26.313
439.45	26.033
439.81	26.284
440.16	26.313
440.51	27.124
440.86	26.983
441.22	26.085
441.57	26.274
441.92	26.663
442.27	26.857
442.63	26.066
442.98	27.211
443.33	26.141
443.68	26.433
444.03	27.086
444.39	25.706
444.74	27.273
445.09	26.415
445.44	26.736
445.79	26.472
446.15	26.840
446.50	26.333
446.85	26.465
447.20	26.619
447.55	27.973
447.91	26.917
448.26	26.989
448.61	27.021
448.96	27.298
449.31	27.447
449.66	27.462
450.02	26.351
450.37	27.324
450.72	26.904
451.07	27.544
451.42	26.869
451.77	27.716
452.12	27.136
452.47	27.550
452.83	27.681
453.18	27.873
453.53	28.448
453.88	27.407
454.23	27.794
454.58	27.983
454.93	28.735
455.28	26.995
455.63	27.063
455.98	28.452
456.34	28.392
456.69	29.054
457.04	27.802
457.39	27.528
457.74	27.916
458.09	27.430
458.44	28.905
458.79	27.007
459.14	27.935
459.49	28.255
459.84	28.421
460.19	27.814
460.54	26.852
460.89	27.647
461.24	29.144
461.59	29.343
461.94	27.805
462.29	28.546
462.64	28.526
462.99	28.497
463.34	29.333
463.69	28.143
464.04	29.101
464.39	28.116
464.74	28.580
465.09	28.589
465.44	28.421
465.79	27.796
466.14	28.462
466.49	26.919
466.84	27.788
467.19	28.244
467.54	28.500
467.89	27.671
468.24	28.563
468.59	28.755
468.94	28.772
469.29	29.049
469.64	30.388
469.99	29.364
470.34	29.128
470.68	29.454
471.03	28.980
471.38	31.063
471.73	30.380
472.08	30.132
472.43	30.151
472.78	28.769
473.13	29.525
473.48	29.401
473.83	29.329
474.17	28.563
474.52	29.777
474.87	29.422
475.22	29.425
475.57	28.802
475.92	29.634
476.27	28.861
476.61	29.454
476.96	29.192
477.31	29.461
477.66	29.759
478.01	28.542
478.36	29.191
478.70	29.543
479.05	29.073
479.40	28.506
479.75	29.080
480.10	29.722
480.45	28.891
480.79	28.189
481.14	28.767
481.49	29.283
481.84	28.304
482.19	29.214
482.53	28.257
482.88	29.037
483.23	29.206
483.58	29.618
483.92	29.194
484.27	27.974
484.62	28.578
484.97	28.025
485.31	26.815
485.66	25.688
486.01	24.245
486.36	23.493
486.70	24.231
487.05	25.259
487.40	25.766
487.75	25.958
488.09	26.479
488.44	26.951
488.79	28.137
489.13	28.495
489.48	28.467
489.83	28.399
490.17	29.636
490.52	29.097
490.87	28.991
491.22	28.649
491.56	28.656
491.91	28.758
492.26	29.306
492.60	30.323
492.95	29.373
493.30	28.925
493.64	29.398
493.99	28.923
494.34	29.926
494.68	29.350
495.03	29.652
495.37	29.828
495.72	28.947
496.07	29.466
496.41	29.248
496.76	29.464
497.11	29.446
497.45	29.949
497.80	29.846
498.14	29.227
498.49	29.463
498.84	29.914
499.18	30.238
499.53	30.152
499.87	29.823
500.22	29.958
500.56	30.971
500.91	29.567
501.26	29.587
501.60	30.185
501.95	29.239
502.29	30.553
502.64	30.726
502.98	29.547
503.33	29.388
503.67	28.863
504.02	30.355
504.36	29.995
504.71	29.897
505.06	30.410
505.40	30.092
505.75	29.701
506.09	30.175
506.44	31.031
506.78	31.271
507.13	31.449
507.47	31.212
507.82	31.611
508.16	30.902
508.51	31.811
508.85	29.990
509.19	31.480
509.54	30.357
509.88	30.706
510.23	31.465
510.57	32.147
510.92	31.331
511.26	30.987
511.61	31.535
511.95	30.950
512.30	31.601
512.64	31.166
512.98	31.672
513.33	31.638
513.67	32.070
514.02	31.439
514.36	32.605
514.70	32.097
515.05	32.181
515.39	32.025
515.74	31.532
516.08	31.638
516.42	33.407
516.77	32.497
517.11	32.464
517.46	32.111
517.80	32.288
518.14	32.889
518.49	33.431
518.83	33.068
519.17	33.949
519.52	33.560
519.86	33.485
520.20	34.104
520.55	33.453
520.89	33.577
521.23	33.957
521.58	33.493
521.92	34.476
522.26	33.557
522.61	34.143
522.95	33.395
523.29	34.632
523.64	34.695
523.98	33.333
524.32	34.318
524.66	34.035
525.01	33.456
525.35	33.395
525.69	33.374
526.04	34.081
526.38	33.801
526.72	33.681
527.06	33.584
527.41	33.663
527.75	34.791
528.09	34.682
528.43	33.779
528.78	34.726
529.12	33.030
529.46	33.190
529.80	33.911
530.15	34.642
530.49	31.815
530.83	33.608
531.17	34.530
531.51	35.733
531.86	33.806
532.20	34.355
532.54	33.056
532.88	33.376
533.22	32.917
533.57	32.778
533.91	32.751
534.25	33.293
534.59	33.801
534.93	33.314
535.27	32.046
535.62	32.234
535.96	33.898
536.30	32.549
536.64	33.484
536.98	33.179
537.32	32.521
537.66	33.333
538.01	33.772
538.35	33.290
538.69	34.333
539.03	31.384
539.37	32.141
539.71	32.728
540.05	33.007
540.39	32.691
540.73	32.342
541.07	33.744
541.42	33.725
541.76	32.774
542.10	32.794
542.44	32.848
542.78	33.729
543.12	31.798
543.46	33.115
543.80	33.182
544.14	32.863
544.48	33.333
544.82	32.585
545.16	32.661
545.50	32.712
545.84	32.661
546.18	33.266
546.52	33.517
546.86	32.921
547.20	33.311
547.54	33.333
547.88	31.888
548.22	32.005
548.56	32.579
548.90	31.306
549.24	32.727
549.58	33.083
549.92	32.624
550.26	33.665
550.60	32.365
550.94	33.732
551.28	32.334
551.62	34.148
551.96	32.561
552.30	33.242
552.64	33.739
552.98	33.220
553.32	34.120
553.66	33.742
554.00	32.944
554.34	33.885
554.68	33.834
555.02	33.357
555.36	33.055
555.69	32.476
556.03	32.638
556.37	33.220
556.71	32.128
557.05	33.683
557.39	32.400
557.73	32.816
558.07	34.083
558.41	33.285
558.75	34.166
559.08	34.228
559.42	33.485
559.76	33.529
560.10	34.190
560.44	32.565
560.78	31.737
561.12	33.047
561.45	32.269
561.79	32.037
562.13	32.529
562.47	33.743
562.81	33.333
563.15	32.375
563.48	32.626
563.82	32.355
564.16	31.589
564.50	31.641
564.84	31.290
565.17	31.660
565.51	31.438
565.85	31.218
566.19	30.369
566.52	32.236
566.86	30.078
567.20	31.014
567.54	30.765
567.88	28.626
568.21	29.683
568.55	29.272
568.89	27.870
569.23	27.496
569.56	26.559
569.90	26.642
570.24	26.480
570.57	25.332
570.91	25.242
571.25	24.830
571.59	24.595
571.92	24.510
572.26	24.668
572.60	24.985
572.93	24.318
573.27	24.194
573.61	24.428
573.95	24.186
574.28	23.894
574.62	23.567
574.96	22.605
575.29	23.957
575.63	23.628
575.97	23.405
576.30	23.898
576.64	23.326
576.98	23.408
577.31	22.897
577.65	22.975
577.98	22.879
578.32	22.299
578.66	22.914
578.99	22.986
579.33	23.481
579.67	22.793
580.00	22.896
580.34	23.303
580.67	22.879
581.01	23.297
581.35	22.459
581.68	21.927
582.02	21.322
582.35	21.664
582.69	22.266
583.02	22.264
583.36	22.688
583.70	23.626
584.03	23.642
584.37	23.900
584.70	23.694
585.04	22.896
585.37	22.903
585.71	22.909
586.04	22.614
586.38	23.485
586.72	23.529
587.05	23.282
587.39	22.691
587.72	22.958
588.06	23.372
588.39	23.841
588.73	23.409
589.06	23.933
589.40	24.040
589.73	24.498
590.07	24.520
590.40	24.662
590.73	25.332
591.07	24.827
591.40	25.517
591.74	26.797
592.07	25.698
592.41	25.465
592.74	24.757
593.08	24.184
593.41	24.106
593.75	23.392
594.08	23.701
594.41	23.966
594.75	24.288
595.08	24.266
595.42	23.713
595.75	24.181
596.09	25.272
596.42	24.990
596.75	25.580
597.09	25.498
597.42	24.747
597.75	25.356
598.09	25.261
598.42	25.344
598.76	24.848
599.09	24.173
599.42	23.472
599.76	24.378
600.09	23.971
600.42	24.032
600.76	23.607
601.09	24.117
601.42	24.353
601.76	24.478
602.09	24.269
602.42	25.557
602.76	24.305
603.09	24.469
603.42	24.639
603.76	24.009
604.09	24.467
604.42	24.134
604.76	25.095
605.09	24.552
605.42	24.198
605.75	23.882
606.09	24.278
606.42	23.989
606.75	24.554
607.09	24.906
607.42	24.604
607.75	23.924
608.08	24.620
608.42	25.190
608.75	25.338
609.08	24.746
609.41	25.226
609.75	25.250
610.08	25.401
610.41	24.814
610.74	25.024
611.07	25.000
611.41	25.810
611.74	26.295
612.07	26.190
612.40	26.390
612.73	26.158
613.07	26.347
613.40	26.330
613.73	25.642
614.06	25.484
614.39	25.328
614.72	25.842
615.06	25.893
615.39	24.947
615.72	25.613
616.05	25.518
616.38	26.292
616.71	27.138
617.05	26.855
617.38	26.939
617.71	26.366
618.04	26.743
618.37	27.735
618.70	27.256
619.03	27.895
619.36	27.495
619.69	28.310
620.03	28.365
620.36	28.075
620.69	28.425
621.02	27.729
621.35	28.504
621.68	28.349
622.01	29.257
622.34	29.652
622.67	28.517
623.00	27.660
623.33	28.735
623.66	28.377
623.99	29.602
624.32	28.031
624.65	28.884
624.99	27.975
625.32	28.385
625.65	29.376
625.98	29.285
626.31	30.327
626.64	29.959
626.97	30.175
627.30	30.175
627.63	29.286
627.96	30.614
628.29	30.796
628.62	30.741
628.95	32.736
629.28	31.296
629.61	32.631
629.94	32.381
630.26	30.505
630.59	32.984
630.92	31.801
