SpectraSuite Data File
++++++++++++++++++++++++++++++++++++
Date: Wed May 13 20:28:15 PDT 2015
User: schluterlab
Dark Spectrum Present: Yes
Reference Spectrum Present: Yes
Number of Sampled Component Spectra: 1
Spectrometers: USB2E3373
Integration Time (usec): 3000 (USB2E3373)
Spectra Averaged: 3 (USB2E3373)
Boxcar Smoothing: 0 (USB2E3373)
Correct for Electrical Dark: No (USB2E3373)
Strobe/Lamp Enabled: No (USB2E3373)
Correct for Detector Non-linearity: No (USB2E3373)
Correct for Stray Light: No (USB2E3373)
Number of Pixels in Processed Spectrum: 2048
>>>>>Begin Processed Spectral Data<<<<<
178.53	0.000
178.91	-1200.000
179.29	-875.000
179.67	-133.333
180.04	-925.000
180.42	2150.000
180.80	1080.000
181.18	-725.000
181.56	557.143
181.94	0.000
182.31	-628.571
182.69	1266.667
183.07	-437.500
183.45	-533.333
183.83	481.818
184.20	-340.000
184.58	2000.000
184.96	4000.000
185.34	-780.000
185.72	-475.000
186.09	-1400.000
186.47	2450.000
186.85	1850.000
187.23	4400.000
187.61	-1366.667
187.98	1025.000
188.36	381.818
188.74	400.000
189.12	-680.000
189.49	440.000
189.87	-4300.000
190.25	-925.000
190.63	364.286
191.00	376.923
191.38	650.000
191.76	-925.000
192.14	1150.000
192.51	587.500
192.89	833.333
193.27	437.500
193.65	-850.000
194.02	400.000
194.40	800.000
194.78	420.000
195.15	433.333
195.53	520.000
195.91	-1850.000
196.29	331.250
196.66	305.263
197.04	-360.000
197.42	0.000
197.79	400.000
198.17	-3500.000
198.55	314.286
198.92	612.500
199.30	920.000
199.68	0.000
200.05	277.778
200.43	657.143
200.81	3700.000
201.18	1500.000
201.56	-1266.667
201.94	411.111
202.31	555.556
202.69	350.000
203.07	490.000
203.44	0.000
203.82	1000.000
204.19	571.429
204.57	350.000
204.95	587.500
205.32	1433.333
205.70	518.182
206.08	342.857
206.45	2600.000
206.83	350.000
207.20	783.333
207.58	720.000
207.96	322.222
208.33	600.000
208.71	-633.333
209.08	785.714
209.46	466.667
209.84	318.182
210.21	-1066.667
210.59	1000.000
210.96	-437.500
211.34	2050.000
211.71	580.000
212.09	683.333
212.46	0.000
212.84	1400.000
213.22	1250.000
213.59	-3800.000
213.97	600.000
214.34	714.286
214.72	445.455
215.09	900.000
215.47	-1950.000
215.84	-2400.000
216.22	1500.000
216.59	342.857
216.97	1250.000
217.34	500.000
217.72	-550.000
218.09	0.000
218.47	-3900.000
218.84	444.444
219.22	757.143
219.59	1633.333
219.97	-700.000
220.34	700.000
220.72	-1333.333
221.09	342.857
221.47	1275.000
221.84	-783.333
222.22	0.000
222.59	1025.000
222.97	-2350.000
223.34	940.000
223.72	407.692
224.09	840.000
224.46	1950.000
224.84	-3200.000
225.21	-780.000
225.59	-4400.000
225.96	570.000
226.34	300.000
226.71	2200.000
227.08	462.500
227.46	450.000
227.83	-875.000
228.21	-2200.000
228.58	533.333
228.95	-2300.000
229.33	-1900.000
229.70	1433.333
230.08	700.000
230.45	-760.000
230.82	375.000
231.20	750.000
231.57	614.286
231.95	308.333
232.32	236.364
232.69	327.273
233.07	442.857
233.44	284.615
233.81	-1533.333
234.19	257.895
234.56	391.667
234.93	350.000
235.31	372.727
235.68	269.231
236.05	300.000
236.43	160.606
236.80	263.158
237.17	4300.000
237.55	238.095
237.92	232.143
238.29	271.429
238.67	148.387
239.04	213.793
239.41	144.444
239.79	130.435
240.16	161.905
240.53	154.545
240.91	125.490
241.28	124.000
241.65	144.000
242.02	123.188
242.40	108.065
242.77	116.667
243.14	79.570
243.51	107.865
243.89	96.471
244.26	93.333
244.63	72.043
245.00	86.170
245.38	89.109
245.75	80.374
246.12	81.651
246.49	76.642
246.87	92.800
247.24	84.615
247.61	82.143
247.98	73.856
248.36	60.811
248.73	77.707
249.10	82.803
249.47	65.537
249.84	76.471
250.22	68.449
250.59	72.781
250.96	77.778
251.33	68.720
251.70	70.792
252.08	70.952
252.45	65.919
252.82	63.043
253.19	68.511
253.56	63.529
253.94	61.826
254.31	65.625
254.68	64.615
255.05	65.314
255.42	66.260
255.79	70.221
256.16	68.953
256.54	61.484
256.91	66.548
257.28	61.151
257.65	62.376
258.02	62.733
258.39	60.568
258.76	61.873
259.14	60.119
259.51	61.094
259.88	59.006
260.25	59.517
260.62	56.647
260.99	62.112
261.36	62.162
261.73	56.734
262.10	56.105
262.47	61.690
262.85	57.660
263.22	56.410
263.59	59.829
263.96	56.044
264.33	57.702
264.70	58.684
265.07	56.777
265.44	59.596
265.81	55.718
266.18	61.809
266.55	57.561
266.92	57.985
267.29	56.713
267.66	53.440
268.03	55.227
268.40	55.841
268.77	54.177
269.14	55.856
269.51	53.725
269.88	55.478
270.25	56.208
270.62	55.506
270.99	55.699
271.36	54.721
271.73	58.178
272.10	55.435
272.47	55.054
272.84	54.978
273.21	51.782
273.58	54.803
273.95	50.524
274.32	54.339
274.69	56.103
275.06	53.740
275.43	55.106
275.80	52.906
276.17	54.175
276.54	55.925
276.91	54.545
277.28	53.320
277.65	52.805
278.02	52.588
278.39	52.539
278.76	53.091
279.13	51.887
279.50	50.838
279.87	50.996
280.23	52.695
280.60	50.484
280.97	53.420
281.34	52.389
281.71	50.545
282.08	54.127
282.45	49.818
282.82	51.687
283.19	52.050
283.56	48.596
283.92	52.623
284.29	50.794
284.66	52.632
285.03	49.729
285.40	51.408
285.77	50.168
286.14	48.877
286.51	49.833
286.87	49.915
287.24	51.140
287.61	49.920
287.98	46.916
288.35	46.910
288.72	47.975
289.08	46.948
289.45	49.259
289.82	46.016
290.19	46.468
290.56	47.320
290.93	44.260
291.29	45.092
291.66	45.133
292.03	45.640
292.40	44.787
292.77	43.491
293.13	42.537
293.50	44.898
293.87	43.111
294.24	41.481
294.60	41.921
294.97	42.878
295.34	42.877
295.71	42.756
296.08	40.171
296.44	42.916
296.81	40.026
297.18	42.141
297.55	39.446
297.91	37.731
298.28	41.365
298.65	38.512
299.02	40.843
299.38	38.911
299.75	38.949
300.12	38.570
300.48	40.000
300.85	38.224
301.22	39.236
301.59	37.753
301.95	38.791
302.32	38.511
302.69	36.679
303.05	37.455
303.42	36.049
303.79	36.240
304.15	35.431
304.52	37.543
304.89	37.747
305.25	33.527
305.62	35.334
305.99	36.009
306.35	35.235
306.72	36.435
307.09	34.850
307.45	36.149
307.82	32.031
308.19	35.762
308.55	36.462
308.92	35.768
309.29	34.213
309.65	33.722
310.02	34.038
310.38	33.978
310.75	34.636
311.12	33.777
311.48	34.796
311.85	35.325
312.22	35.172
312.58	33.472
312.95	34.319
313.31	32.233
313.68	34.927
314.05	35.010
314.41	33.869
314.78	34.240
315.14	33.962
315.51	33.265
315.87	33.861
316.24	33.267
316.61	32.359
316.97	33.659
317.34	31.409
317.70	33.270
318.07	33.975
318.43	33.072
318.80	33.927
319.16	32.863
319.53	33.583
319.89	33.429
320.26	34.100
320.62	33.333
320.99	34.242
321.35	33.232
321.72	33.265
322.08	33.268
322.45	34.328
322.81	32.074
323.18	33.044
323.54	33.488
323.91	33.491
324.27	32.696
324.64	32.246
325.00	33.544
325.37	33.667
325.73	33.393
326.10	32.480
326.46	31.810
326.83	33.736
327.19	32.365
327.56	32.840
327.92	32.808
328.29	34.073
328.65	31.860
329.01	32.401
329.38	33.488
329.74	32.964
330.11	33.553
330.47	33.425
330.84	33.364
331.20	32.332
331.56	32.477
331.93	31.944
332.29	31.322
332.66	33.097
333.02	33.638
333.38	31.707
333.75	32.175
334.11	32.117
334.48	32.919
334.84	33.548
335.20	31.545
335.57	31.550
335.93	31.250
336.29	31.593
336.66	32.011
337.02	31.674
337.38	32.315
337.75	31.194
338.11	32.319
338.47	32.228
338.84	32.172
339.20	30.367
339.56	32.391
339.93	29.727
340.29	31.069
340.65	32.175
341.02	31.850
341.38	31.139
341.74	31.930
342.11	32.402
342.47	30.925
342.83	30.394
343.20	31.255
343.56	30.244
343.92	31.842
344.28	30.357
344.65	31.384
345.01	31.229
345.37	31.561
345.73	30.034
346.10	30.776
346.46	30.339
346.82	30.313
347.19	29.156
347.55	30.131
347.91	30.259
348.27	30.485
348.63	30.602
349.00	30.583
349.36	28.982
349.72	30.794
350.08	29.417
350.45	29.618
350.81	30.869
351.17	29.984
351.53	29.238
351.89	28.465
352.26	29.992
352.62	29.030
352.98	29.579
353.34	30.074
353.70	28.642
354.07	29.516
354.43	29.206
354.79	28.238
355.15	28.093
355.51	30.056
355.87	30.367
356.24	29.397
356.60	29.511
356.96	29.123
357.32	28.291
357.68	28.346
358.04	28.504
358.40	28.741
358.77	29.186
359.13	27.072
359.49	28.627
359.85	26.984
360.21	27.352
360.57	28.482
360.93	28.231
361.29	27.664
361.66	27.012
362.02	28.284
362.38	28.973
362.74	28.348
363.10	27.535
363.46	27.733
363.82	28.193
364.18	27.753
364.54	28.900
364.90	27.904
365.26	27.941
365.62	28.707
365.98	27.392
366.35	26.648
366.71	27.332
367.07	28.041
367.43	27.794
367.79	27.623
368.15	28.233
368.51	27.471
368.87	28.908
369.23	27.579
369.59	27.878
369.95	27.574
370.31	27.208
370.67	27.536
371.03	28.390
371.39	27.551
371.75	26.912
372.11	27.169
372.47	28.812
372.83	27.810
373.19	27.529
373.55	27.716
373.91	28.130
374.27	26.186
374.63	26.036
374.99	26.695
375.35	26.169
375.71	26.799
376.07	26.475
376.42	26.823
376.78	26.508
377.14	26.119
377.50	27.219
377.86	26.197
378.22	26.612
378.58	25.501
378.94	25.833
379.30	26.399
379.66	26.459
380.02	25.860
380.38	25.258
380.74	26.170
381.09	27.078
381.45	26.675
381.81	26.904
382.17	25.860
382.53	26.289
382.89	26.605
383.25	25.829
383.61	26.394
383.97	26.016
384.32	25.577
384.68	25.093
385.04	26.122
385.40	25.759
385.76	25.307
386.12	25.842
386.48	26.621
386.83	26.684
387.19	27.211
387.55	26.221
387.91	25.937
388.27	26.180
388.62	25.691
388.98	25.061
389.34	26.220
389.70	25.812
390.06	26.743
390.42	25.746
390.77	25.445
391.13	25.718
391.49	26.015
391.85	25.016
392.20	25.615
392.56	25.884
392.92	24.838
393.28	24.320
393.64	25.839
393.99	25.535
394.35	24.876
394.71	25.910
395.07	24.486
395.42	25.340
395.78	24.746
396.14	25.140
396.50	26.065
396.85	25.429
397.21	25.277
397.57	24.861
397.92	25.361
398.28	24.608
398.64	25.388
399.00	24.231
399.35	24.760
399.71	24.074
400.07	25.370
400.42	25.828
400.78	24.970
401.14	24.939
401.49	25.433
401.85	24.803
402.21	24.251
402.57	24.306
402.92	25.284
403.28	25.609
403.63	25.371
403.99	24.904
404.35	25.212
404.70	24.580
405.06	24.869
405.42	24.704
405.77	24.514
406.13	24.605
406.49	24.719
406.84	24.690
407.20	23.168
407.55	25.016
407.91	24.667
408.27	24.123
408.62	24.142
408.98	24.939
409.34	23.985
409.69	25.677
410.05	25.279
410.40	25.443
410.76	25.329
411.11	24.427
411.47	24.345
411.83	24.313
412.18	24.181
412.54	24.408
412.89	24.458
413.25	24.911
413.60	24.830
413.96	24.651
414.31	24.970
414.67	24.842
415.03	23.311
415.38	24.613
415.74	24.759
416.09	24.298
416.45	24.297
416.80	24.719
417.16	25.670
417.51	24.419
417.87	23.314
418.22	24.543
418.58	25.371
418.93	24.263
419.29	25.080
419.64	25.189
420.00	23.963
420.35	25.159
420.71	24.985
421.06	24.165
421.42	24.912
421.77	24.776
422.12	24.031
422.48	23.475
422.83	25.102
423.19	24.254
423.54	24.028
423.90	24.000
424.25	24.344
424.61	23.631
424.96	25.190
425.31	23.367
425.67	23.146
426.02	24.629
426.38	24.725
426.73	23.406
427.09	23.647
427.44	23.232
427.79	24.094
428.15	25.179
428.50	24.517
428.85	24.017
429.21	23.633
429.56	24.883
429.92	24.056
430.27	23.684
430.62	23.297
430.98	23.819
431.33	22.835
431.68	23.717
432.04	23.482
432.39	24.043
432.74	23.519
433.10	24.335
433.45	23.965
433.80	24.335
434.16	24.359
434.51	23.632
434.86	24.287
435.22	25.181
435.57	24.195
435.92	22.996
436.28	24.852
436.63	23.344
436.98	24.556
437.34	24.150
437.69	24.271
438.04	23.946
438.39	24.597
438.75	24.288
439.10	23.352
439.45	23.849
439.81	22.900
440.16	23.377
440.51	24.429
440.86	24.146
441.22	23.415
441.57	23.673
441.92	23.900
442.27	24.058
442.63	24.855
442.98	24.113
443.33	23.967
443.68	23.335
444.03	24.061
444.39	23.272
444.74	23.972
445.09	23.827
445.44	23.893
445.79	23.602
446.15	23.928
446.50	24.125
446.85	24.101
447.20	23.559
447.55	24.456
447.91	23.828
448.26	24.430
448.61	23.403
448.96	24.086
449.31	23.903
449.66	24.254
450.02	23.900
450.37	24.206
450.72	23.294
451.07	23.888
451.42	24.134
451.77	24.427
452.12	23.903
452.47	24.192
452.83	23.718
453.18	23.594
453.53	24.119
453.88	23.627
454.23	24.029
454.58	24.591
454.93	24.412
455.28	24.127
455.63	23.847
455.98	23.929
456.34	23.807
456.69	23.920
457.04	23.529
457.39	23.378
457.74	23.447
458.09	23.289
458.44	23.888
458.79	23.590
459.14	23.758
459.49	24.402
459.84	24.432
460.19	23.925
460.54	22.975
460.89	23.313
461.24	23.679
461.59	24.114
461.94	24.353
462.29	24.748
462.64	23.676
462.99	23.813
463.34	24.600
463.69	24.765
464.04	23.652
464.39	23.536
464.74	23.767
465.09	23.945
465.44	23.767
465.79	22.651
466.14	23.645
466.49	22.247
466.84	23.234
467.19	23.597
467.54	23.688
467.89	23.169
468.24	23.153
468.59	23.504
468.94	22.969
469.29	22.943
469.64	24.900
469.99	23.951
470.34	22.853
470.68	23.779
471.03	23.469
471.38	24.322
471.73	23.118
472.08	24.013
472.43	22.299
472.78	23.239
473.13	24.005
473.48	23.034
473.83	23.293
474.17	23.211
474.52	24.566
474.87	24.168
475.22	23.041
475.57	21.977
475.92	22.889
476.27	22.604
476.61	23.166
476.96	22.980
477.31	22.972
477.66	22.812
478.01	22.687
478.36	23.321
478.70	23.001
479.05	23.056
479.40	23.081
479.75	22.928
480.10	22.565
480.45	22.703
480.79	22.074
481.14	22.554
481.49	23.113
481.84	22.497
482.19	22.581
482.53	22.294
482.88	22.429
483.23	22.477
483.58	21.884
483.92	22.634
484.27	21.307
484.62	22.112
484.97	21.719
485.31	22.363
485.66	22.271
486.01	22.623
486.36	22.108
486.70	22.017
487.05	22.192
487.40	21.834
487.75	21.824
488.09	22.293
488.44	21.681
488.79	22.495
489.13	22.002
489.48	21.615
489.83	21.407
490.17	22.359
490.52	22.099
490.87	21.483
491.22	21.783
491.56	21.412
491.91	22.010
492.26	21.957
492.60	21.705
492.95	22.123
493.30	21.589
493.64	22.025
493.99	21.588
494.34	21.878
494.68	21.932
495.03	21.852
495.37	22.057
495.72	21.735
496.07	21.810
496.41	20.841
496.76	21.240
497.11	21.477
497.45	21.099
497.80	21.641
498.14	20.580
498.49	21.610
498.84	21.716
499.18	21.095
499.53	21.415
499.87	21.715
500.22	21.573
500.56	21.990
500.91	21.058
501.26	21.859
501.60	22.117
501.95	22.090
502.29	22.352
502.64	21.508
502.98	21.646
503.33	21.389
503.67	21.995
504.02	21.983
504.36	21.432
504.71	21.397
505.06	21.542
505.40	21.390
505.75	20.829
506.09	21.380
506.44	21.510
506.78	21.529
507.13	21.302
507.47	20.859
507.82	21.479
508.16	21.277
508.51	21.969
508.85	21.351
509.19	20.816
509.54	21.531
509.88	21.484
510.23	21.337
510.57	22.291
510.92	21.336
511.26	20.812
511.61	21.317
511.95	20.981
512.30	21.315
512.64	21.762
512.98	20.847
513.33	21.199
513.67	20.704
514.02	20.184
514.36	20.972
514.70	20.974
515.05	21.194
515.39	20.864
515.74	21.284
516.08	21.409
516.42	21.143
516.77	22.018
517.11	20.477
517.46	21.106
517.80	20.732
518.14	20.498
518.49	21.587
518.83	21.080
519.17	21.247
519.52	21.732
519.86	20.936
520.20	21.214
520.55	21.065
520.89	21.350
521.23	21.773
521.58	21.188
521.92	21.923
522.26	20.378
522.61	21.433
522.95	21.240
523.29	20.450
523.64	21.220
523.98	20.518
524.32	21.532
524.66	21.167
525.01	20.159
525.35	20.818
525.69	21.121
526.04	20.935
526.38	20.988
526.72	20.307
527.06	20.590
527.41	20.421
527.75	21.415
528.09	21.387
528.43	21.606
528.78	22.065
529.12	20.970
529.46	22.596
529.80	21.968
530.15	22.056
530.49	20.677
530.83	20.443
531.17	21.214
531.51	22.438
531.86	21.355
532.20	20.860
532.54	21.781
532.88	21.566
533.22	20.612
533.57	21.914
533.91	21.132
534.25	21.810
534.59	21.721
534.93	21.178
535.27	21.123
535.62	22.344
535.96	22.034
536.30	21.615
536.64	21.571
536.98	21.035
537.32	20.803
537.66	20.133
538.01	21.527
538.35	21.461
538.69	22.655
539.03	20.338
539.37	20.383
539.71	19.831
540.05	20.719
540.39	20.797
540.73	20.310
541.07	22.128
541.42	22.048
541.76	21.226
542.10	21.216
542.44	21.722
542.78	22.266
543.12	19.578
543.46	21.836
543.80	21.601
544.14	21.694
544.48	21.841
544.82	21.745
545.16	21.991
545.50	20.887
545.84	21.438
546.18	21.279
546.52	21.886
546.86	21.306
547.20	21.713
547.54	20.908
547.88	22.577
548.22	21.046
548.56	21.258
548.90	20.935
549.24	20.404
549.58	21.692
549.92	22.184
550.26	22.088
550.60	21.577
550.94	21.408
551.28	20.775
551.62	20.776
551.96	21.263
552.30	22.389
552.64	21.839
552.98	21.898
553.32	20.566
553.66	22.631
554.00	21.208
554.34	21.394
554.68	21.173
555.02	21.227
555.36	21.294
555.69	21.110
556.03	20.929
556.37	20.805
556.71	20.668
557.05	21.008
557.39	20.784
557.73	21.665
558.07	21.900
558.41	20.695
558.75	21.161
559.08	21.178
559.42	21.844
559.76	20.956
560.10	20.628
560.44	20.685
560.78	20.825
561.12	21.042
561.45	21.904
561.79	20.962
562.13	20.791
562.47	22.063
562.81	22.106
563.15	20.602
563.48	21.485
563.82	21.918
564.16	21.452
564.50	21.419
564.84	21.176
565.17	21.300
565.51	21.470
565.85	20.876
566.19	21.165
566.52	21.469
566.86	21.640
567.20	21.698
567.54	21.804
567.88	21.076
568.21	21.587
568.55	21.537
568.89	21.595
569.23	21.390
569.56	21.984
569.90	21.660
570.24	21.457
570.57	21.557
570.91	21.429
571.25	21.062
571.59	21.649
571.92	21.429
572.26	21.577
572.60	21.351
572.93	20.690
573.27	21.503
573.61	21.776
573.95	21.809
574.28	21.055
574.62	21.574
574.96	21.290
575.29	21.217
575.63	21.138
575.97	21.297
576.30	21.535
576.64	20.824
576.98	20.953
577.31	21.072
577.65	21.911
577.98	21.452
578.32	21.366
578.66	21.656
578.99	21.525
579.33	20.673
579.67	20.603
580.00	20.834
580.34	21.001
580.67	20.681
581.01	21.228
581.35	21.579
581.68	21.927
582.02	21.637
582.35	21.863
582.69	21.679
583.02	21.155
583.36	20.913
583.70	20.954
584.03	20.768
584.37	21.054
584.70	21.082
585.04	20.890
585.37	21.365
585.71	21.828
586.04	21.817
586.38	21.630
586.72	22.010
587.05	20.701
587.39	20.607
587.72	21.412
588.06	21.612
588.39	21.564
588.73	20.915
589.06	21.315
589.40	21.313
589.73	21.084
590.07	20.996
590.40	20.607
590.73	21.429
591.07	21.368
591.40	21.088
591.74	21.905
592.07	20.637
592.41	21.124
592.74	21.311
593.08	21.452
593.41	22.018
593.75	21.549
594.08	21.488
594.41	21.315
594.75	20.924
595.08	21.725
595.42	21.471
595.75	21.368
596.09	21.142
596.42	21.061
596.75	21.233
597.09	21.602
597.42	21.164
597.75	21.087
598.09	21.304
598.42	20.919
598.76	21.038
599.09	21.437
599.42	21.689
599.76	21.230
600.09	21.311
600.42	21.293
600.76	21.000
601.09	21.056
601.42	21.613
601.76	21.252
602.09	21.739
602.42	21.616
602.76	21.241
603.09	20.810
603.42	21.359
603.76	20.998
604.09	20.628
604.42	20.995
604.76	21.721
605.09	21.276
605.42	21.548
605.75	21.399
606.09	21.187
606.42	21.087
606.75	21.277
607.09	21.264
607.42	21.181
607.75	21.097
608.08	20.886
608.42	20.843
608.75	21.326
609.08	20.675
609.41	21.038
609.75	21.582
610.08	21.772
610.41	21.508
610.74	21.334
611.07	21.443
611.41	21.443
611.74	21.870
612.07	20.807
612.40	21.563
612.73	20.632
613.07	21.013
613.40	21.748
613.73	20.294
614.06	20.860
614.39	20.923
614.72	21.263
615.06	21.534
615.39	20.648
615.72	20.961
616.05	19.777
616.38	20.511
616.71	20.606
617.05	21.555
617.38	22.069
617.71	20.901
618.04	21.755
618.37	20.993
618.70	21.220
619.03	21.382
619.36	22.132
619.69	21.549
620.03	21.223
620.36	21.123
620.69	22.192
621.02	20.796
621.35	21.457
621.68	20.639
622.01	21.440
622.34	22.012
622.67	21.293
623.00	20.836
623.33	21.372
623.66	21.229
623.99	20.987
624.32	21.541
624.65	21.893
624.99	21.388
625.32	20.710
625.65	21.112
625.98	20.907
626.31	21.928
626.64	21.878
626.97	20.283
627.30	19.867
627.63	21.739
627.96	21.531
628.29	22.222
628.62	21.775
628.95	21.321
629.28	21.807
629.61	22.181
629.94	19.810
630.26	20.686
630.59	20.877
630.92	21.839
