SpectraSuite Data File
++++++++++++++++++++++++++++++++++++
Date: Wed May 13 20:28:59 PDT 2015
User: schluterlab
Dark Spectrum Present: Yes
Reference Spectrum Present: Yes
Number of Sampled Component Spectra: 1
Spectrometers: USB2E3373
Integration Time (usec): 3000 (USB2E3373)
Spectra Averaged: 3 (USB2E3373)
Boxcar Smoothing: 0 (USB2E3373)
Correct for Electrical Dark: No (USB2E3373)
Strobe/Lamp Enabled: No (USB2E3373)
Correct for Detector Non-linearity: No (USB2E3373)
Correct for Stray Light: No (USB2E3373)
Number of Pixels in Processed Spectrum: 2048
>>>>>Begin Processed Spectral Data<<<<<
178.53	0.000
178.91	-1075.000
179.29	-1025.000
179.67	-227.778
180.04	-1250.000
180.42	1800.000
180.80	880.000
181.18	-950.000
181.56	500.000
181.94	0.000
182.31	-471.429
182.69	1333.333
183.07	-387.500
183.45	-488.889
183.83	500.000
184.20	-240.000
184.58	1600.000
184.96	4100.000
185.34	-560.000
185.72	-450.000
186.09	-2600.000
186.47	2100.000
186.85	1950.000
187.23	3600.000
187.61	-1500.000
187.98	1150.000
188.36	454.545
188.74	445.455
189.12	-700.000
189.49	430.000
189.87	-4300.000
190.25	-1050.000
190.63	371.429
191.00	330.769
191.38	850.000
191.76	-1100.000
192.14	925.000
192.51	575.000
192.89	750.000
193.27	575.000
193.65	-1075.000
194.02	430.000
194.40	820.000
194.78	420.000
195.15	425.000
195.53	560.000
195.91	-1750.000
196.29	275.000
196.66	331.579
197.04	-360.000
197.42	0.000
197.79	520.000
198.17	-5300.000
198.55	614.286
198.92	537.500
199.30	820.000
199.68	0.000
200.05	294.444
200.43	585.714
200.81	3700.000
201.18	1866.667
201.56	-1500.000
201.94	333.333
202.31	466.667
202.69	325.000
203.07	460.000
203.44	0.000
203.82	1050.000
204.19	628.571
204.57	371.429
204.95	512.500
205.32	1166.667
205.70	463.636
206.08	407.143
206.45	2400.000
206.83	281.250
207.20	683.333
207.58	460.000
207.96	316.667
208.33	500.000
208.71	-733.333
209.08	728.571
209.46	477.778
209.84	345.455
210.21	-1033.333
210.59	1125.000
210.96	-387.500
211.34	2150.000
211.71	550.000
212.09	700.000
212.46	0.000
212.84	1666.667
213.22	1250.000
213.59	-3400.000
213.97	633.333
214.34	714.286
214.72	536.364
215.09	800.000
215.47	-1650.000
215.84	-2050.000
216.22	1433.333
216.59	314.286
216.97	1050.000
217.34	390.909
217.72	-600.000
218.09	0.000
218.47	-4000.000
218.84	600.000
219.22	557.143
219.59	1166.667
219.97	-557.143
220.34	760.000
220.72	-1433.333
221.09	321.429
221.47	1175.000
221.84	-950.000
222.22	0.000
222.59	1200.000
222.97	-1750.000
223.34	900.000
223.72	346.154
224.09	700.000
224.46	1550.000
224.84	-4100.000
225.21	-840.000
225.59	-3300.000
225.96	550.000
226.34	300.000
226.71	2200.000
227.08	662.500
227.46	510.000
227.83	-800.000
228.21	-2400.000
228.58	600.000
228.95	-1900.000
229.33	-1900.000
229.70	1566.667
230.08	628.571
230.45	-680.000
230.82	358.333
231.20	633.333
231.57	642.857
231.95	333.333
232.32	209.091
232.69	390.909
233.07	571.429
233.44	269.231
233.81	-1366.667
234.19	278.947
234.56	333.333
234.93	283.333
235.31	400.000
235.68	346.154
236.05	257.143
236.43	148.485
236.80	300.000
237.17	4700.000
237.55	219.048
237.92	203.571
238.29	257.143
238.67	132.258
239.04	189.655
239.41	136.111
239.79	113.043
240.16	145.238
240.53	152.273
240.91	105.882
241.28	116.000
241.65	102.000
242.02	101.449
242.40	93.548
242.77	93.333
243.14	95.699
243.51	89.888
243.89	84.706
244.26	65.556
244.63	74.194
245.00	76.596
245.38	77.228
245.75	68.224
246.12	77.982
246.49	63.504
246.87	78.400
247.24	70.000
247.61	60.714
247.98	56.863
248.36	54.730
248.73	56.051
249.10	64.331
249.47	49.718
249.84	56.150
250.22	49.733
250.59	58.580
250.96	52.525
251.33	52.607
251.70	52.475
252.08	56.190
252.45	51.570
252.82	47.391
253.19	51.489
253.56	49.020
253.94	51.452
254.31	48.828
254.68	50.000
255.05	50.185
255.42	52.846
255.79	48.897
256.16	48.736
256.54	44.523
256.91	47.331
257.28	46.043
257.65	44.224
258.02	45.031
258.39	45.741
258.76	49.498
259.14	44.345
259.51	44.985
259.88	43.478
260.25	47.734
260.62	42.486
260.99	41.925
261.36	44.745
261.73	43.266
262.10	40.698
262.47	48.169
262.85	44.568
263.22	38.746
263.59	44.729
263.96	42.308
264.33	44.909
264.70	43.947
265.07	42.711
265.44	40.909
265.81	40.146
266.18	44.221
266.55	42.195
266.92	44.963
267.29	42.361
267.66	41.284
268.03	42.273
268.40	40.654
268.77	37.709
269.14	39.189
269.51	39.052
269.88	44.289
270.25	38.826
270.62	43.596
270.99	40.645
271.36	38.627
271.73	40.888
272.10	44.130
272.47	40.860
272.84	40.476
273.21	43.606
273.58	39.301
273.95	37.736
274.32	38.636
274.69	42.184
275.06	37.008
275.43	41.489
275.80	39.078
276.17	39.715
276.54	39.501
276.91	40.119
277.28	38.477
277.65	38.685
278.02	40.166
278.39	40.625
278.76	37.455
279.13	40.755
279.50	37.803
279.87	37.450
280.23	37.126
280.60	37.524
280.97	38.632
281.34	36.814
281.71	38.000
282.08	40.691
282.45	38.364
282.82	37.123
283.19	37.433
283.56	34.912
283.92	39.594
284.29	37.390
284.66	36.661
285.03	37.251
285.40	35.739
285.77	35.522
286.14	34.370
286.51	36.333
286.87	36.410
287.24	36.319
287.61	34.350
287.98	35.390
288.35	35.182
288.72	35.047
289.08	34.585
289.45	33.773
289.82	32.195
290.19	32.182
290.56	33.997
290.93	30.816
291.29	33.282
291.66	31.858
292.03	33.576
292.40	34.802
292.77	32.840
293.13	32.836
293.50	31.633
293.87	32.148
294.24	32.593
294.60	30.422
294.97	31.105
295.34	30.889
295.71	30.114
296.08	29.772
296.44	30.124
296.81	29.458
297.18	29.404
297.55	29.024
297.91	29.683
298.28	29.719
298.65	27.546
299.02	28.854
299.38	29.216
299.75	26.819
300.12	28.480
300.48	26.125
300.85	26.880
301.22	26.497
301.59	27.399
301.95	27.204
302.32	27.343
302.69	27.240
303.05	27.758
303.42	26.790
303.79	27.860
304.15	26.457
304.52	26.072
304.89	26.597
305.25	26.798
305.62	26.161
305.99	27.037
306.35	27.181
306.72	26.457
307.09	28.413
307.45	27.928
307.82	24.107
308.19	25.828
308.55	27.077
308.92	26.853
309.29	24.287
309.65	25.875
310.02	25.370
310.38	25.806
310.75	25.132
311.12	25.179
311.48	25.810
311.85	26.415
312.22	24.037
312.58	25.468
312.95	26.399
313.31	24.854
313.68	25.260
314.05	27.515
314.41	26.533
314.78	25.076
315.14	26.713
315.51	26.468
315.87	26.040
316.24	25.521
316.61	26.803
316.97	25.245
317.34	25.245
317.70	26.099
318.07	26.275
318.43	26.223
318.80	26.992
319.16	26.742
319.53	27.205
319.89	27.333
320.26	28.100
320.62	26.091
320.99	27.273
321.35	27.677
321.72	27.310
322.08	29.418
322.45	30.547
322.81	29.070
323.18	29.672
323.54	29.406
323.91	29.340
324.27	29.828
324.64	28.798
325.00	27.502
325.37	29.663
325.73	29.892
326.10	28.332
326.46	28.584
326.83	30.716
327.19	29.889
327.56	29.791
327.92	30.884
328.29	31.145
328.65	31.860
329.01	32.130
329.38	31.545
329.74	31.579
330.11	32.422
330.47	32.140
330.84	32.996
331.20	31.603
331.56	32.477
331.93	32.593
332.29	32.298
332.66	32.743
333.02	32.815
333.38	33.966
333.75	33.244
334.11	33.452
334.48	32.831
334.84	32.169
335.20	33.818
335.57	33.001
335.93	32.411
336.29	32.784
336.66	32.462
337.02	31.765
337.38	34.167
337.75	32.264
338.11	32.408
338.47	33.794
338.84	34.280
339.20	32.110
339.56	34.580
339.93	33.455
340.29	31.069
340.65	32.799
341.02	32.984
341.38	33.363
341.74	32.281
342.11	32.140
342.47	33.128
342.83	32.877
343.20	33.853
343.56	32.603
343.92	33.158
344.28	32.908
344.65	33.878
345.01	32.744
345.37	31.818
345.73	33.164
346.10	31.202
346.46	33.305
346.82	33.443
347.19	32.247
347.55	31.281
347.91	32.767
348.27	33.854
348.63	33.445
349.00	31.796
349.36	33.744
349.72	31.596
350.08	32.010
350.45	33.523
350.81	32.250
351.17	31.361
351.53	32.023
351.89	32.013
352.26	33.149
352.62	32.398
352.98	32.658
353.34	32.539
353.70	31.506
354.07	33.871
354.43	30.714
354.79	32.261
355.15	31.365
355.51	32.774
355.87	32.816
356.24	32.085
356.60	31.355
356.96	32.904
357.32	32.543
357.68	32.441
358.04	31.829
358.40	31.512
358.77	32.786
359.13	31.097
359.49	31.843
359.85	30.873
360.21	32.376
360.57	32.296
360.93	32.846
361.29	31.444
361.66	30.882
362.02	32.537
362.38	32.852
362.74	31.473
363.10	31.458
363.46	30.448
363.82	31.444
364.18	31.571
364.54	32.689
364.90	32.224
365.26	33.162
365.62	31.337
365.98	32.140
366.35	31.017
366.71	31.598
367.07	32.702
367.43	31.930
367.79	32.120
368.15	33.836
368.51	31.904
368.87	32.548
369.23	31.675
369.59	33.020
369.95	31.618
370.31	32.051
370.67	32.464
371.03	32.659
371.39	32.507
371.75	32.647
372.11	31.935
372.47	33.211
372.83	33.573
373.19	32.514
373.55	33.777
373.91	33.211
374.27	31.065
374.63	32.436
374.99	32.345
375.35	31.682
375.71	32.488
376.07	32.922
376.42	33.494
376.78	32.671
377.14	32.429
377.50	32.781
377.86	31.516
378.22	32.680
378.58	31.015
378.94	32.244
379.30	31.997
379.66	32.805
380.02	32.371
380.38	31.633
380.74	32.413
381.09	32.824
381.45	33.313
381.81	32.924
382.17	32.994
382.53	31.950
382.89	32.654
383.25	33.458
383.61	33.333
383.97	33.083
384.32	32.065
384.68	32.094
385.04	32.637
385.40	31.889
385.76	32.494
386.12	33.031
386.48	32.851
386.83	33.483
387.19	34.447
387.55	32.900
387.91	33.495
388.27	33.231
388.62	33.313
388.98	33.108
389.34	33.855
389.70	33.170
390.06	33.460
390.42	32.555
390.77	34.033
391.13	34.525
391.49	33.249
391.85	33.609
392.20	32.555
392.56	33.270
392.92	32.843
393.28	32.367
393.64	32.974
393.99	33.903
394.35	33.871
394.71	33.312
395.07	32.710
395.42	33.684
395.78	34.160
396.14	34.016
396.50	33.459
396.85	34.584
397.21	33.662
397.57	33.540
397.92	34.014
398.28	32.623
398.64	33.513
399.00	33.744
399.35	33.333
399.71	33.391
400.07	33.826
400.42	34.356
400.78	33.112
401.14	34.329
401.49	34.269
401.85	33.031
402.21	32.994
402.57	33.374
402.92	34.931
403.28	33.666
403.63	33.292
403.99	33.631
404.35	34.000
404.70	34.173
405.06	34.071
405.42	34.373
405.77	34.000
406.13	32.957
406.49	34.181
406.84	34.318
407.20	34.338
407.55	32.610
407.91	34.200
408.27	33.823
408.62	33.353
408.98	33.578
409.34	33.764
409.69	35.161
410.05	33.333
410.40	33.578
410.76	33.871
411.11	34.138
411.47	33.546
411.83	34.087
412.18	33.148
412.54	34.184
412.89	34.096
413.25	33.766
413.60	33.601
413.96	33.151
414.31	32.989
414.67	33.777
415.03	34.172
415.38	34.407
415.74	34.405
416.09	35.075
416.45	34.739
416.80	33.245
417.16	34.584
417.51	35.036
417.87	33.911
418.22	34.826
418.58	33.376
418.93	34.521
419.29	34.373
419.64	35.139
420.00	34.878
420.35	35.362
420.71	34.848
421.06	33.831
421.42	34.094
421.77	34.529
422.12	34.363
422.48	33.891
422.83	34.595
423.19	34.862
423.54	35.055
423.90	34.667
424.25	35.734
424.61	34.583
424.96	34.227
425.31	35.050
425.67	34.157
426.02	33.486
426.38	36.264
426.73	34.640
427.09	35.319
427.44	34.043
427.79	34.963
428.15	35.000
428.50	36.044
428.85	35.638
429.21	34.567
429.56	33.904
429.92	34.826
430.27	34.806
430.62	34.511
430.98	35.236
431.33	34.536
431.68	36.178
432.04	35.197
432.39	35.123
432.74	35.966
433.10	35.427
433.45	36.093
433.80	35.809
434.16	34.936
434.51	35.211
434.86	36.089
435.22	36.242
435.57	35.988
435.92	35.108
436.28	36.477
436.63	36.148
436.98	35.890
437.34	36.434
437.69	36.639
438.04	36.594
438.39	38.448
438.75	37.420
439.10	36.760
439.45	37.485
439.81	36.435
440.16	37.211
440.51	37.551
440.86	37.290
441.22	36.541
441.57	37.739
441.92	37.973
442.27	37.998
442.63	37.809
442.98	38.761
443.33	37.663
443.68	37.377
444.03	37.677
444.39	37.780
444.74	37.554
445.09	38.113
445.44	38.819
445.79	37.853
446.15	38.010
446.50	38.288
446.85	37.667
447.20	38.909
447.55	38.582
447.91	38.831
448.26	38.509
448.61	38.892
448.96	38.649
449.31	38.470
449.66	38.604
450.02	39.109
450.37	39.116
450.72	39.594
451.07	39.062
451.42	38.906
451.77	38.990
452.12	38.799
452.47	39.117
452.83	40.501
453.18	39.120
453.53	39.208
453.88	38.689
454.23	39.510
454.58	40.339
454.93	39.797
455.28	37.968
455.63	39.806
455.98	40.119
456.34	40.452
456.69	41.077
457.04	40.000
457.39	41.029
457.74	39.466
458.09	39.045
458.44	40.080
458.79	39.425
459.14	39.955
459.49	40.280
459.84	39.889
460.19	39.717
460.54	39.005
460.89	40.592
461.24	40.923
461.59	40.383
461.94	39.951
462.29	41.128
462.64	40.523
462.99	40.013
463.34	39.933
463.69	40.838
464.04	41.217
464.39	40.058
464.74	38.740
465.09	38.842
465.44	38.338
465.79	39.262
466.14	39.792
466.49	39.210
466.84	40.689
467.19	39.409
467.54	40.062
467.89	40.336
468.24	39.558
468.59	40.415
468.94	39.951
469.29	40.553
469.64	40.495
469.99	41.475
470.34	40.951
470.68	41.523
471.03	40.204
471.38	41.348
471.73	40.640
472.08	40.987
472.43	40.264
472.78	40.421
473.13	40.693
473.48	41.011
473.83	40.854
474.17	39.950
474.52	41.315
474.87	41.681
475.22	40.104
475.57	40.247
475.92	39.883
476.27	39.741
476.61	40.706
476.96	39.637
477.31	40.502
477.66	39.497
478.01	39.467
478.36	39.714
478.70	39.356
479.05	39.776
479.40	40.328
479.75	41.179
480.10	40.507
480.45	39.362
480.79	38.605
481.14	40.020
481.49	39.867
481.84	39.415
482.19	40.391
482.53	39.450
482.88	39.228
483.23	40.374
483.58	39.354
483.92	41.050
484.27	38.867
484.62	38.922
484.97	39.101
485.31	38.390
485.66	35.964
486.01	35.169
486.36	35.305
486.70	36.731
487.05	37.325
487.40	38.151
487.75	38.171
488.09	39.308
488.44	39.993
488.79	40.542
489.13	40.145
489.48	39.519
489.83	39.361
490.17	39.719
490.52	39.283
490.87	38.987
491.22	39.927
491.56	38.679
491.91	40.112
492.26	39.458
492.60	39.585
492.95	39.242
493.30	39.626
493.64	40.224
493.99	39.694
494.34	39.685
494.68	40.522
495.03	40.367
495.37	39.926
495.72	39.815
496.07	39.675
496.41	38.230
496.76	38.478
497.11	39.352
497.45	40.708
497.80	39.683
498.14	39.952
498.49	40.098
498.84	39.885
499.18	40.286
499.53	39.934
499.87	38.537
500.22	39.802
500.56	41.068
500.91	39.760
501.26	39.877
501.60	41.101
501.95	40.055
502.29	40.675
502.64	40.317
502.98	38.943
503.33	39.717
503.67	40.278
504.02	39.616
504.36	40.431
504.71	40.547
505.06	39.663
505.40	39.815
505.75	39.151
506.09	40.428
506.44	40.701
506.78	40.526
507.13	41.191
507.47	41.061
507.82	41.185
508.16	40.679
508.51	41.299
508.85	40.417
509.19	41.837
509.54	40.510
509.88	40.392
510.23	41.131
510.57	41.950
510.92	40.186
511.26	40.031
511.61	40.975
511.95	40.188
512.30	40.827
512.64	40.677
512.98	41.426
513.33	40.953
513.67	40.768
514.02	41.937
514.36	42.108
514.70	42.003
515.05	42.276
515.39	41.391
515.74	40.597
516.08	42.873
516.42	41.565
516.77	42.085
517.11	41.010
517.46	42.043
517.80	42.102
518.14	40.880
518.49	42.590
518.83	42.159
519.17	43.072
519.52	41.313
519.86	41.472
520.20	41.965
520.55	42.729
520.89	42.762
521.23	43.185
521.58	42.857
521.92	42.498
522.26	41.794
522.61	42.305
522.95	40.945
523.29	41.570
523.64	42.622
523.98	42.083
524.32	41.978
524.66	42.153
525.01	42.708
525.35	42.069
525.69	41.441
526.04	43.364
526.38	41.489
526.72	42.454
527.06	42.812
527.41	41.151
527.75	43.280
528.09	43.610
528.43	42.575
528.78	42.409
529.12	40.667
529.46	42.070
529.80	42.327
530.15	42.866
530.49	41.538
530.83	43.354
531.17	43.016
531.51	43.709
531.86	42.839
532.20	42.308
532.54	41.704
532.88	42.555
533.22	41.099
533.57	42.346
533.91	41.240
534.25	41.677
534.59	42.221
534.93	40.393
535.27	41.098
535.62	40.537
535.96	41.933
536.30	41.767
536.64	43.207
536.98	41.938
537.32	42.660
537.66	42.333
538.01	42.725
538.35	41.694
538.69	43.523
539.03	41.391
539.37	41.406
539.71	42.126
540.05	42.549
540.39	42.126
540.73	41.268
541.07	43.738
541.42	42.661
541.76	41.806
542.10	41.397
542.44	42.384
542.78	42.951
543.12	40.499
543.46	41.049
543.80	40.729
544.14	41.078
544.48	41.524
544.82	40.411
545.16	41.379
545.50	41.003
545.84	41.062
546.18	41.953
546.52	41.982
546.86	41.856
547.20	41.942
547.54	41.617
547.88	41.390
548.22	40.473
548.56	40.943
548.90	41.613
549.24	41.279
549.58	42.428
549.92	41.827
550.26	42.756
550.60	42.531
550.94	42.394
551.28	41.770
551.62	42.703
551.96	40.351
552.30	42.457
552.64	41.717
552.98	41.220
553.32	40.998
553.66	41.377
554.00	41.386
554.34	41.684
554.68	42.632
555.02	41.114
555.36	41.475
555.69	40.528
556.03	40.579
556.37	41.269
556.71	40.655
557.05	40.826
557.39	41.498
557.73	40.438
558.07	42.132
558.41	41.317
558.75	41.881
559.08	40.268
559.42	42.706
559.76	41.324
560.10	41.113
560.44	39.832
560.78	40.120
561.12	39.908
561.45	40.482
561.79	40.277
562.13	40.040
562.47	41.120
562.81	41.423
563.15	39.666
563.48	40.650
563.82	40.117
564.16	39.568
564.50	39.779
564.84	39.633
565.17	40.090
565.51	41.150
565.85	39.086
566.19	39.324
566.52	39.645
566.86	39.180
567.20	39.623
567.54	39.783
567.88	37.968
568.21	38.836
568.55	38.675
568.89	38.521
569.23	36.943
569.56	36.640
569.90	36.528
570.24	36.132
570.57	36.042
570.91	34.195
571.25	35.022
571.59	34.875
571.92	34.591
572.26	35.355
572.60	35.586
572.93	35.292
573.27	34.990
573.61	35.511
573.95	35.116
574.28	34.724
574.62	34.232
574.96	34.050
575.29	34.360
575.63	34.527
575.97	34.470
576.30	34.148
576.64	34.091
576.98	34.443
577.31	34.450
577.65	33.485
577.98	33.554
578.32	33.102
578.66	34.109
578.99	33.919
579.33	34.398
579.67	33.836
580.00	34.284
580.34	34.433
580.67	33.893
581.01	34.270
581.35	33.402
581.68	33.048
582.02	33.164
582.35	33.689
582.69	33.599
583.02	34.066
583.36	34.540
583.70	34.840
584.03	35.293
584.37	35.231
584.70	34.718
585.04	33.953
585.37	33.877
585.71	34.046
586.04	33.849
586.38	34.979
586.72	34.521
587.05	34.203
587.39	33.694
587.72	34.089
588.06	34.658
588.39	34.376
588.73	34.556
589.06	35.276
589.40	35.522
589.73	35.551
590.07	35.480
590.40	35.404
590.73	36.378
591.07	36.956
591.40	36.440
591.74	36.277
592.07	36.169
592.41	35.138
592.74	35.019
593.08	33.744
593.41	34.356
593.75	33.385
594.08	34.395
594.41	35.914
594.75	35.231
595.08	35.075
595.42	35.517
595.75	35.506
596.09	36.538
596.42	36.464
596.75	35.965
597.09	36.364
597.42	34.654
597.75	35.921
598.09	36.087
598.42	35.223
598.76	35.184
599.09	34.930
599.42	34.207
599.76	34.151
600.09	33.661
600.42	34.222
600.76	33.821
601.09	34.718
601.42	34.361
601.76	34.801
602.09	35.099
602.42	35.470
602.76	35.631
603.09	34.186
603.42	34.908
603.76	34.756
604.09	34.083
604.42	34.774
604.76	36.145
605.09	35.736
605.42	34.587
605.75	34.727
606.09	34.933
606.42	34.123
606.75	34.550
607.09	34.952
607.42	34.403
607.75	34.304
608.08	34.477
608.42	35.276
608.75	34.941
609.08	34.736
609.41	34.460
609.75	34.826
610.08	35.580
610.41	34.544
610.74	34.957
611.07	35.573
611.41	36.310
611.74	36.099
612.07	37.008
612.40	36.411
612.73	36.263
613.07	35.614
613.40	36.704
613.73	35.291
614.06	36.022
614.39	35.711
614.72	34.842
615.06	35.609
615.39	35.244
615.72	34.560
616.05	35.673
616.38	36.076
616.71	36.520
617.05	36.219
617.38	36.320
617.71	36.156
618.04	35.697
618.37	36.132
618.70	36.279
619.03	37.434
619.36	36.999
619.69	37.746
620.03	37.157
620.36	36.430
620.69	37.808
621.02	37.832
621.35	37.510
621.68	37.305
622.01	37.848
622.34	37.141
622.67	38.175
623.00	37.271
623.33	35.954
623.66	37.169
623.99	37.776
624.32	36.305
624.65	36.229
624.99	36.544
625.32	37.075
625.65	37.415
625.98	37.279
626.31	38.180
626.64	38.449
626.97	38.404
627.30	37.656
627.63	38.474
627.96	38.856
628.29	39.545
628.62	38.426
628.95	38.585
629.28	37.774
629.61	39.047
629.94	39.810
630.26	38.894
630.59	38.418
630.92	38.889
