SpectraSuite Data File
++++++++++++++++++++++++++++++++++++
Date: Wed May 13 20:29:10 PDT 2015
User: schluterlab
Dark Spectrum Present: Yes
Reference Spectrum Present: Yes
Number of Sampled Component Spectra: 1
Spectrometers: USB2E3373
Integration Time (usec): 3000 (USB2E3373)
Spectra Averaged: 3 (USB2E3373)
Boxcar Smoothing: 0 (USB2E3373)
Correct for Electrical Dark: No (USB2E3373)
Strobe/Lamp Enabled: No (USB2E3373)
Correct for Detector Non-linearity: No (USB2E3373)
Correct for Stray Light: No (USB2E3373)
Number of Pixels in Processed Spectrum: 2048
>>>>>Begin Processed Spectral Data<<<<<
178.53	0.000
178.91	-1125.000
179.29	-1025.000
179.67	-200.000
180.04	-1200.000
180.42	1700.000
180.80	900.000
181.18	-900.000
181.56	600.000
181.94	0.000
182.31	-557.143
182.69	1333.333
183.07	-337.500
183.45	-444.444
183.83	472.727
184.20	-330.000
184.58	1750.000
184.96	4200.000
185.34	-620.000
185.72	-587.500
186.09	-1850.000
186.47	2650.000
186.85	1800.000
187.23	3600.000
187.61	-1466.667
187.98	1075.000
188.36	318.182
188.74	345.455
189.12	-720.000
189.49	500.000
189.87	-4000.000
190.25	-900.000
190.63	350.000
191.00	407.692
191.38	733.333
191.76	-1125.000
192.14	1275.000
192.51	500.000
192.89	883.333
193.27	487.500
193.65	-975.000
194.02	380.000
194.40	700.000
194.78	490.000
195.15	350.000
195.53	450.000
195.91	-1800.000
196.29	262.500
196.66	305.263
197.04	-280.000
197.42	0.000
197.79	560.000
198.17	-3500.000
198.55	485.714
198.92	600.000
199.30	800.000
199.68	0.000
200.05	283.333
200.43	757.143
200.81	2700.000
201.18	1400.000
201.56	-1500.000
201.94	533.333
202.31	555.556
202.69	366.667
203.07	450.000
203.44	0.000
203.82	950.000
204.19	514.286
204.57	364.286
204.95	587.500
205.32	1233.333
205.70	427.273
206.08	328.571
206.45	2200.000
206.83	275.000
207.20	900.000
207.58	540.000
207.96	338.889
208.33	575.000
208.71	-733.333
209.08	714.286
209.46	522.222
209.84	336.364
210.21	-1033.333
210.59	1175.000
210.96	-387.500
211.34	1950.000
211.71	450.000
212.09	800.000
212.46	0.000
212.84	1466.667
213.22	975.000
213.59	-5100.000
213.97	750.000
214.34	728.571
214.72	563.636
215.09	880.000
215.47	-1850.000
215.84	-1950.000
216.22	1700.000
216.59	321.429
216.97	1200.000
217.34	400.000
217.72	-600.000
218.09	0.000
218.47	-3800.000
218.84	544.444
219.22	600.000
219.59	1100.000
219.97	-500.000
220.34	1000.000
220.72	-1500.000
221.09	350.000
221.47	950.000
221.84	-783.333
222.22	0.000
222.59	1200.000
222.97	-2550.000
223.34	1000.000
223.72	292.308
224.09	1020.000
224.46	2250.000
224.84	-5000.000
225.21	-880.000
225.59	-3900.000
225.96	480.000
226.34	205.000
226.71	2550.000
227.08	462.500
227.46	410.000
227.83	-900.000
228.21	-1500.000
228.58	555.556
228.95	-2200.000
229.33	-1550.000
229.70	1566.667
230.08	771.429
230.45	-720.000
230.82	358.333
231.20	666.667
231.57	471.429
231.95	425.000
232.32	213.636
232.69	400.000
233.07	628.571
233.44	238.462
233.81	-1466.667
234.19	205.263
234.56	366.667
234.93	325.000
235.31	354.545
235.68	284.615
236.05	300.000
236.43	139.394
236.80	252.632
237.17	4200.000
237.55	219.048
237.92	203.571
238.29	200.000
238.67	151.613
239.04	172.414
239.41	141.667
239.79	113.043
240.16	133.333
240.53	122.727
240.91	100.000
241.28	110.000
241.65	100.000
242.02	72.464
242.40	82.258
242.77	83.333
243.14	83.871
243.51	82.022
243.89	72.941
244.26	82.222
244.63	61.290
245.00	71.277
245.38	65.347
245.75	58.879
246.12	63.303
246.49	61.314
246.87	65.600
247.24	59.231
247.61	65.000
247.98	61.438
248.36	53.378
248.73	55.414
249.10	56.051
249.47	52.542
249.84	56.150
250.22	52.941
250.59	55.030
250.96	47.980
251.33	57.820
251.70	51.980
252.08	53.333
252.45	48.879
252.82	45.652
253.19	48.511
253.56	46.667
253.94	48.963
254.31	47.656
254.68	45.385
255.05	44.280
255.42	47.561
255.79	45.956
256.16	48.014
256.54	40.989
256.91	43.060
257.28	40.647
257.65	41.584
258.02	42.547
258.39	42.902
258.76	40.803
259.14	44.345
259.51	39.514
259.88	44.410
260.25	43.505
260.62	39.595
260.99	41.304
261.36	42.943
261.73	42.407
262.10	41.860
262.47	42.535
262.85	38.440
263.22	38.746
263.59	43.305
263.96	41.484
264.33	40.209
264.70	38.947
265.07	38.875
265.44	39.141
265.81	39.416
266.18	41.206
266.55	37.561
266.92	40.541
267.29	38.889
267.66	37.385
268.03	37.955
268.40	38.318
268.77	34.845
269.14	40.991
269.51	36.343
269.88	41.492
270.25	37.698
270.62	37.753
270.99	38.280
271.36	38.627
271.73	37.383
272.10	35.652
272.47	40.645
272.84	38.528
273.21	36.059
273.58	37.555
273.95	35.430
274.32	35.331
274.69	38.758
275.06	35.827
275.43	37.660
275.80	35.471
276.17	38.086
276.54	38.877
276.91	38.735
277.28	37.109
277.65	37.331
278.02	33.954
278.39	37.305
278.76	34.182
279.13	36.604
279.50	35.382
279.87	35.657
280.23	38.723
280.60	35.977
280.97	35.120
281.34	37.699
281.71	37.818
282.08	36.660
282.45	34.182
282.82	35.702
283.19	32.620
283.56	35.439
283.92	36.379
284.29	35.273
284.66	33.938
285.03	34.901
285.40	36.972
285.77	34.175
286.14	34.197
286.51	34.500
286.87	34.359
287.24	34.365
287.61	34.350
287.98	34.253
288.35	33.597
288.72	34.112
289.08	32.081
289.45	30.313
289.82	31.545
290.19	32.339
290.56	30.475
290.93	31.118
291.29	30.521
291.66	30.531
292.03	33.140
292.40	31.424
292.77	30.769
293.13	28.955
293.50	29.009
293.87	29.481
294.24	29.333
294.60	28.530
294.97	29.360
295.34	30.465
295.71	28.977
296.08	27.778
296.44	28.748
296.81	28.930
297.18	27.642
297.55	26.385
297.91	27.309
298.28	28.246
298.65	28.198
299.02	26.614
299.38	27.756
299.75	26.415
300.12	26.054
300.48	26.500
300.85	28.237
301.22	26.115
301.59	25.631
301.95	27.456
302.32	28.241
302.69	26.284
303.05	28.485
303.42	26.173
303.79	26.840
304.15	25.874
304.52	25.840
304.89	26.713
305.25	25.754
305.62	26.387
305.99	27.155
306.35	25.615
306.72	25.448
307.09	25.971
307.45	25.788
307.82	24.665
308.19	27.042
308.55	25.243
308.92	27.282
309.29	24.710
309.65	25.451
310.02	26.744
310.38	25.806
310.75	26.082
311.12	26.612
311.48	25.287
311.85	26.415
312.22	26.639
312.58	26.611
312.95	28.194
313.31	25.437
313.68	28.482
314.05	28.895
314.41	26.935
314.78	27.090
315.14	27.706
315.51	28.939
315.87	28.020
316.24	29.593
316.61	28.363
316.97	29.159
317.34	27.593
317.70	30.210
318.07	29.066
318.43	31.703
318.80	30.928
319.16	31.262
319.53	31.051
319.89	31.810
320.26	33.400
320.62	33.135
320.99	33.737
321.35	34.141
321.72	34.394
322.08	34.748
322.45	37.214
322.81	37.016
323.18	36.513
323.54	37.662
323.91	36.887
324.27	37.763
324.64	39.143
325.00	37.421
325.37	40.218
325.73	40.575
326.10	40.335
326.46	41.219
326.83	41.933
327.19	42.613
327.56	43.467
327.92	44.882
328.29	43.922
328.65	44.475
329.01	46.300
329.38	45.606
329.74	45.060
330.11	45.806
330.47	48.944
330.84	48.621
331.20	47.177
331.56	47.890
331.93	48.889
332.29	48.270
332.66	48.761
333.02	49.177
333.38	49.051
333.75	49.465
334.11	50.089
334.48	49.335
334.84	51.011
335.20	50.818
335.57	49.592
335.93	49.375
336.29	50.366
336.66	50.135
337.02	51.041
337.38	51.111
337.75	51.159
338.11	48.075
338.47	51.842
338.84	52.062
339.20	52.110
339.56	52.555
339.93	50.818
340.29	51.178
340.65	52.496
341.02	52.182
341.38	50.267
341.74	50.789
342.11	51.441
342.47	53.216
342.83	51.284
343.20	52.468
343.56	49.200
343.92	51.930
344.28	50.510
344.65	52.365
345.01	49.579
345.37	51.029
345.73	52.538
346.10	51.066
346.46	51.186
346.82	50.577
347.19	51.629
347.55	50.575
347.91	50.728
348.27	51.520
348.63	51.087
349.00	50.809
349.36	49.672
349.72	50.200
350.08	49.271
350.45	51.424
350.81	51.097
351.17	50.405
351.53	50.778
351.89	49.587
352.26	50.592
352.62	50.601
352.98	49.433
353.34	49.712
353.70	50.327
354.07	48.952
354.43	48.175
354.79	49.477
355.15	48.603
355.51	50.600
355.87	50.531
356.24	49.756
356.60	51.002
356.96	49.638
357.32	51.022
357.68	50.236
358.04	48.139
358.40	48.614
358.77	48.826
359.13	47.987
359.49	48.941
359.85	49.127
360.21	50.000
360.57	49.961
360.93	50.462
361.29	48.450
361.66	49.381
362.02	50.075
362.38	48.669
362.74	48.810
363.10	48.631
363.46	49.230
363.82	49.433
364.18	48.458
364.54	48.960
364.90	49.363
365.26	48.309
365.62	48.868
365.98	48.649
366.35	48.424
366.71	50.759
367.07	48.070
367.43	49.419
367.79	49.393
368.15	50.575
368.51	47.529
368.87	49.536
369.23	49.525
369.59	48.733
369.95	48.162
370.31	48.647
370.67	47.754
371.03	48.989
371.39	48.688
371.75	48.088
372.11	47.297
372.47	47.947
372.83	50.072
373.19	48.483
373.55	48.485
373.91	50.221
374.27	47.285
374.63	47.345
374.99	49.011
375.35	48.779
375.71	49.006
376.07	48.491
376.42	48.349
376.78	47.714
377.14	47.897
377.50	48.675
377.86	48.271
378.22	47.598
378.58	47.243
378.94	47.454
379.30	48.919
379.66	49.683
380.02	47.727
380.38	47.541
380.74	48.019
381.09	47.188
381.45	48.617
381.81	48.710
382.17	47.898
382.53	47.736
382.89	47.222
383.25	47.530
383.61	48.265
383.97	47.967
384.32	46.538
384.68	46.902
385.04	47.880
385.40	47.307
385.76	47.236
386.12	48.251
386.48	47.074
386.83	48.300
387.19	48.547
387.55	47.557
387.91	48.670
388.27	47.701
388.62	48.125
388.98	46.867
389.34	47.810
389.70	47.394
390.06	46.705
390.42	47.795
390.77	47.646
391.13	48.309
391.49	48.096
391.85	46.595
392.20	45.300
392.56	47.412
392.92	47.322
393.28	46.450
393.64	47.902
393.99	46.549
394.35	46.154
394.71	46.863
395.07	46.417
395.42	47.837
395.78	46.374
396.14	46.369
396.50	47.619
396.85	47.552
397.21	46.363
397.57	46.869
397.92	45.913
398.28	45.684
398.64	46.834
399.00	46.279
399.35	45.798
399.71	46.875
400.07	46.245
400.42	46.564
400.78	46.622
401.14	46.768
401.49	45.731
401.85	47.066
402.21	46.287
402.57	46.453
402.92	47.793
403.28	47.158
403.63	47.277
403.99	47.197
404.35	47.273
404.70	46.043
405.06	45.778
405.42	45.727
405.77	46.171
406.13	45.485
406.49	46.422
406.84	45.245
407.20	45.449
407.55	45.884
407.91	47.267
408.27	46.075
408.62	45.334
408.98	45.956
409.34	46.002
409.69	46.129
410.05	46.406
410.40	47.523
410.76	46.655
411.11	45.537
411.47	45.623
411.83	45.999
412.18	45.702
412.54	46.575
412.89	45.181
413.25	46.576
413.60	46.757
413.96	45.537
414.31	45.261
414.67	46.008
415.03	45.430
415.38	45.039
415.74	45.145
416.09	46.767
416.45	45.984
416.80	46.530
417.16	47.051
417.51	46.317
417.87	46.821
418.22	48.013
418.58	46.223
418.93	46.007
419.29	47.040
419.64	46.788
420.00	45.183
420.35	46.551
420.71	45.786
421.06	45.406
421.42	45.673
421.77	46.917
422.12	45.649
422.48	45.602
422.83	46.651
423.19	44.807
423.54	45.270
423.90	45.391
424.25	44.947
424.61	45.714
424.96	45.889
425.31	45.792
425.67	44.551
426.02	45.771
426.38	47.131
426.73	45.816
427.09	45.350
427.44	45.601
427.79	46.348
428.15	47.321
428.50	46.109
428.85	46.722
429.21	45.665
429.56	44.894
429.92	45.294
430.27	45.581
430.62	45.059
430.98	45.719
431.33	45.052
431.68	45.969
432.04	45.580
432.39	46.431
432.74	47.636
433.10	45.727
433.45	47.114
433.80	46.729
434.16	45.620
434.51	46.211
434.86	47.491
435.22	45.803
435.57	46.869
435.92	46.109
436.28	47.212
436.63	46.799
436.98	47.167
437.34	47.406
437.69	47.433
438.04	47.330
438.39	47.284
438.75	47.763
439.10	47.318
439.45	47.757
439.81	47.915
440.16	46.640
440.51	47.803
440.86	47.829
441.22	47.219
441.57	48.301
441.92	47.134
442.27	47.309
442.63	46.656
442.98	47.211
443.33	47.283
443.68	47.703
444.03	48.267
444.39	46.884
444.74	47.078
445.09	48.302
445.44	48.879
445.79	47.402
446.15	47.697
446.50	47.765
446.85	47.071
447.20	47.680
447.55	48.967
447.91	48.704
448.26	47.858
448.61	49.180
448.96	48.837
449.31	48.988
449.66	47.777
450.02	47.799
450.37	49.036
450.72	49.859
451.07	48.507
451.42	48.754
451.77	49.383
452.12	49.769
452.47	48.445
452.83	50.058
453.18	49.511
453.53	49.536
453.88	49.734
454.23	48.416
454.58	49.485
454.93	50.477
455.28	49.439
455.63	50.182
455.98	51.488
456.34	49.183
456.69	50.470
457.04	51.765
457.39	48.802
457.74	50.087
458.09	49.971
458.44	49.658
458.79	49.024
459.14	50.508
459.49	49.971
459.84	50.360
460.19	49.381
460.54	48.958
460.89	50.960
461.24	51.002
461.59	51.772
461.94	50.185
462.29	50.623
462.64	51.946
462.99	50.358
463.34	51.333
463.69	50.907
464.04	50.551
464.39	51.420
464.74	50.683
465.09	50.965
465.44	50.194
465.79	49.832
466.14	49.206
466.49	50.556
466.84	51.489
467.19	50.211
467.54	51.250
467.89	50.420
468.24	50.553
468.59	51.709
468.94	50.092
469.29	52.699
469.64	51.473
469.99	52.909
470.34	52.378
470.68	51.796
471.03	50.816
471.38	53.023
471.73	52.099
472.08	52.500
472.43	52.450
472.78	51.415
473.13	51.476
473.48	51.685
473.83	52.927
474.17	52.147
474.52	52.109
474.87	51.372
475.22	51.248
475.57	51.585
475.92	51.567
476.27	52.311
476.61	52.068
476.96	52.172
477.31	51.230
477.66	52.681
478.01	51.176
478.36	52.142
478.70	52.129
479.05	51.384
479.40	52.508
479.75	51.703
480.10	51.590
480.45	50.405
480.79	50.788
481.14	52.348
481.49	52.587
481.84	51.532
482.19	52.794
482.53	52.248
482.88	52.815
483.23	52.009
483.58	53.412
483.92	52.952
484.27	51.024
484.62	51.121
484.97	51.005
485.31	51.062
485.66	49.164
486.01	48.968
486.36	48.340
486.70	48.682
487.05	49.684
487.40	49.617
487.75	49.671
488.09	50.925
488.44	50.934
488.79	51.646
489.13	51.184
489.48	51.713
489.83	51.877
490.17	52.828
490.52	52.480
490.87	52.646
491.22	52.660
491.56	52.301
491.91	52.490
492.26	51.952
492.60	51.751
492.95	52.152
493.30	52.897
493.64	52.870
493.99	52.786
494.34	53.284
494.68	53.617
495.03	54.182
495.37	52.769
495.72	54.094
496.07	52.900
496.41	51.681
496.76	52.287
497.11	53.219
497.45	53.144
497.80	53.791
498.14	52.174
498.49	54.683
498.84	54.171
499.18	53.667
499.53	53.419
499.87	54.287
500.22	53.556
500.56	55.680
500.91	52.885
501.26	53.438
501.60	54.627
501.95	53.346
502.29	55.436
502.64	53.352
502.98	52.922
503.33	53.565
503.67	53.503
504.02	54.303
504.36	53.861
504.71	54.568
505.06	54.458
505.40	53.525
505.75	53.327
506.09	54.713
506.44	54.465
506.78	54.652
507.13	55.528
507.47	54.091
507.82	55.927
508.16	55.522
508.51	55.911
508.85	54.618
509.19	56.224
509.54	55.969
509.88	55.229
510.23	55.681
510.57	57.018
510.92	55.308
511.26	55.139
511.61	54.876
511.95	55.585
512.30	55.355
512.64	55.293
512.98	55.895
513.33	56.156
513.67	55.496
514.02	55.952
514.36	56.800
514.70	57.167
515.05	56.832
515.39	55.917
515.74	55.912
516.08	56.288
516.42	57.214
516.77	57.692
517.11	56.049
517.46	57.393
517.80	58.188
518.14	56.514
518.49	58.810
518.83	56.250
519.17	57.390
519.52	57.329
519.86	57.045
520.20	57.630
520.55	57.690
520.89	59.063
521.23	58.022
521.58	58.283
521.92	58.543
522.26	57.108
522.61	58.879
522.95	58.072
523.29	58.125
523.64	58.354
523.98	58.164
524.32	58.866
524.66	59.050
525.01	57.598
525.35	59.294
525.69	58.190
526.04	58.941
526.38	57.962
526.72	58.037
527.06	60.389
527.41	57.611
527.75	60.836
528.09	59.859
528.43	59.720
528.78	59.680
529.12	58.727
529.46	59.400
529.80	58.725
530.15	58.941
530.49	57.354
530.83	59.430
531.17	60.313
531.51	60.311
531.86	60.323
532.20	59.778
532.54	59.641
532.88	59.820
533.22	57.464
533.57	58.642
533.91	58.579
534.25	58.445
534.59	59.060
534.93	58.180
535.27	59.083
535.62	59.280
535.96	59.887
536.30	57.915
536.64	59.498
536.98	59.390
537.32	58.460
537.66	61.133
538.01	59.974
538.35	59.858
538.69	59.349
539.03	58.545
539.37	58.594
539.71	58.782
540.05	60.327
540.39	60.066
540.73	58.344
541.07	59.961
541.42	60.600
541.76	60.516
542.10	60.285
542.44	60.993
542.78	61.462
543.12	59.373
543.46	60.852
543.80	60.052
544.14	59.371
544.48	60.317
544.82	60.680
545.16	60.117
545.50	59.447
545.84	59.812
546.18	60.808
546.52	62.010
546.86	61.512
547.20	60.620
547.54	60.588
547.88	60.651
548.22	59.651
548.56	60.000
548.90	59.411
549.24	59.327
549.58	60.641
549.92	60.714
550.26	62.216
550.60	60.858
550.94	59.930
551.28	60.644
551.62	61.538
551.96	60.491
552.30	61.433
552.64	60.852
552.98	60.610
553.32	60.688
553.66	61.213
554.00	60.947
554.34	61.146
554.68	62.732
555.02	62.623
555.36	60.682
555.69	59.134
556.03	60.431
556.37	61.801
556.71	60.164
557.05	61.204
557.39	60.952
557.73	61.538
558.07	62.654
558.41	61.795
558.75	63.262
559.08	64.131
559.42	63.265
559.76	61.250
560.10	60.671
560.44	60.657
560.78	61.610
561.12	61.148
561.45	61.082
561.79	61.503
562.13	61.704
562.47	62.910
562.81	62.413
563.15	61.672
563.48	62.533
563.82	60.861
564.16	60.628
564.50	61.589
564.84	61.757
565.17	62.098
565.51	61.981
565.85	61.231
566.19	61.553
566.52	62.635
566.86	60.518
567.20	61.262
567.54	62.329
567.88	61.325
568.21	60.741
568.55	59.808
568.89	59.874
569.23	59.225
569.56	57.490
569.90	59.057
570.24	58.306
570.57	58.041
570.91	56.852
571.25	56.763
571.59	56.878
571.92	56.999
572.26	57.712
572.60	57.688
572.93	57.091
573.27	56.818
573.61	57.286
573.95	56.925
574.28	57.035
574.62	57.167
574.96	55.818
575.29	56.741
575.63	56.529
575.97	56.678
576.30	57.515
576.64	56.634
576.98	57.146
577.31	56.331
577.65	56.678
577.98	56.614
578.32	55.620
578.66	56.918
578.99	56.585
579.33	57.008
579.67	56.045
580.00	56.557
580.34	56.763
580.67	57.315
581.01	56.982
581.35	56.862
581.68	56.537
582.02	55.903
582.35	56.781
582.69	57.305
583.02	56.937
583.36	57.321
583.70	58.516
584.03	58.020
584.37	58.155
584.70	58.595
585.04	56.972
585.37	58.201
585.71	57.965
586.04	57.405
586.38	58.725
586.72	58.879
587.05	57.430
587.39	58.074
587.72	58.464
588.06	59.072
588.39	58.272
588.73	58.492
589.06	58.803
589.40	59.630
589.73	60.049
590.07	59.431
590.40	58.750
590.73	61.319
591.07	62.352
591.40	60.354
591.74	61.861
592.07	60.166
592.41	60.810
592.74	59.738
593.08	59.527
593.41	59.981
593.75	58.526
594.08	58.867
594.41	60.092
594.75	61.035
595.08	60.379
595.42	60.070
595.75	60.292
596.09	61.810
596.42	60.943
596.75	61.207
597.09	61.472
597.42	58.938
597.75	62.225
598.09	60.826
598.42	61.125
598.76	60.519
599.09	60.053
599.42	60.007
599.76	61.274
600.09	60.692
600.42	61.249
600.76	60.250
601.09	60.401
601.42	60.731
601.76	61.252
602.09	61.660
602.42	61.465
602.76	61.951
603.09	60.818
603.42	62.515
603.76	60.366
604.09	61.380
604.42	60.946
604.76	61.957
605.09	61.555
605.42	61.950
605.75	61.424
606.09	61.610
606.42	62.117
606.75	61.842
607.09	61.197
607.42	61.703
607.75	61.477
608.08	61.311
608.42	61.811
608.75	61.317
609.08	62.812
609.41	62.446
609.75	62.125
610.08	63.619
610.41	62.989
610.74	63.150
611.07	63.488
611.41	62.856
611.74	63.801
612.07	63.302
612.40	64.271
612.73	63.737
613.07	65.302
613.40	63.823
613.73	63.660
614.06	65.376
614.39	63.450
614.72	63.684
615.06	63.866
615.39	64.066
615.72	62.168
616.05	63.583
616.38	64.036
616.71	65.736
617.05	65.901
617.38	64.642
617.71	65.526
618.04	66.046
618.37	64.518
618.70	65.588
619.03	67.763
619.36	67.481
619.69	66.338
620.03	67.582
620.36	66.778
620.69	67.397
621.02	67.404
621.35	67.659
621.68	67.523
622.01	67.802
622.34	67.776
622.67	69.734
623.00	67.572
623.33	66.905
623.66	68.120
623.99	69.367
624.32	66.619
624.65	67.161
624.99	65.652
625.32	68.067
625.65	68.445
625.98	70.792
626.31	68.740
626.64	68.898
626.97	70.740
627.30	69.909
627.63	69.729
627.96	70.816
628.29	69.729
628.62	68.527
628.95	71.604
629.28	69.617
629.61	69.753
629.94	71.905
630.26	72.259
630.59	70.829
630.92	69.636
