SpectraSuite Data File
++++++++++++++++++++++++++++++++++++
Date: Wed May 13 20:29:27 PDT 2015
User: schluterlab
Dark Spectrum Present: Yes
Reference Spectrum Present: Yes
Number of Sampled Component Spectra: 1
Spectrometers: USB2E3373
Integration Time (usec): 3000 (USB2E3373)
Spectra Averaged: 3 (USB2E3373)
Boxcar Smoothing: 0 (USB2E3373)
Correct for Electrical Dark: No (USB2E3373)
Strobe/Lamp Enabled: No (USB2E3373)
Correct for Detector Non-linearity: No (USB2E3373)
Correct for Stray Light: No (USB2E3373)
Number of Pixels in Processed Spectrum: 2048
>>>>>Begin Processed Spectral Data<<<<<
178.53	0.000
178.91	-975.000
179.29	-1075.000
179.67	-166.667
180.04	-850.000
180.42	2050.000
180.80	860.000
181.18	-975.000
181.56	557.143
181.94	0.000
182.31	-571.429
182.69	1600.000
183.07	-425.000
183.45	-355.556
183.83	400.000
184.20	-220.000
184.58	1700.000
184.96	4900.000
185.34	-680.000
185.72	-437.500
186.09	-1850.000
186.47	2300.000
186.85	1850.000
187.23	3600.000
187.61	-1433.333
187.98	1225.000
188.36	527.273
188.74	536.364
189.12	-780.000
189.49	510.000
189.87	-3700.000
190.25	-925.000
190.63	285.714
191.00	423.077
191.38	683.333
191.76	-925.000
192.14	1075.000
192.51	450.000
192.89	700.000
193.27	500.000
193.65	-1000.000
194.02	520.000
194.40	640.000
194.78	460.000
195.15	475.000
195.53	500.000
195.91	-1950.000
196.29	306.250
196.66	273.684
197.04	-270.000
197.42	0.000
197.79	470.000
198.17	-3000.000
198.55	657.143
198.92	562.500
199.30	880.000
199.68	0.000
200.05	255.556
200.43	585.714
200.81	3900.000
201.18	1266.667
201.56	-1333.333
201.94	455.556
202.31	400.000
202.69	366.667
203.07	450.000
203.44	0.000
203.82	975.000
204.19	657.143
204.57	435.714
204.95	562.500
205.32	1466.667
205.70	318.182
206.08	335.714
206.45	1900.000
206.83	306.250
207.20	616.667
207.58	380.000
207.96	250.000
208.33	687.500
208.71	-700.000
209.08	628.571
209.46	433.333
209.84	345.455
210.21	-1133.333
210.59	1325.000
210.96	-300.000
211.34	1850.000
211.71	560.000
212.09	766.667
212.46	0.000
212.84	1700.000
213.22	1050.000
213.59	-4200.000
213.97	850.000
214.34	585.714
214.72	481.818
215.09	880.000
215.47	-1550.000
215.84	-2350.000
216.22	1066.667
216.59	350.000
216.97	1000.000
217.34	345.455
217.72	-566.667
218.09	0.000
218.47	-3600.000
218.84	522.222
219.22	557.143
219.59	1666.667
219.97	-628.571
220.34	940.000
220.72	-1333.333
221.09	235.714
221.47	1300.000
221.84	-616.667
222.22	0.000
222.59	1300.000
222.97	-1800.000
223.34	1060.000
223.72	376.923
224.09	860.000
224.46	1600.000
224.84	-4300.000
225.21	-680.000
225.59	-4300.000
225.96	550.000
226.34	235.000
226.71	2150.000
227.08	575.000
227.46	530.000
227.83	-775.000
228.21	-1850.000
228.58	511.111
228.95	-1500.000
229.33	-1450.000
229.70	933.333
230.08	600.000
230.45	-740.000
230.82	275.000
231.20	750.000
231.57	457.143
231.95	366.667
232.32	209.091
232.69	436.364
233.07	614.286
233.44	369.231
233.81	-1233.333
234.19	273.684
234.56	350.000
234.93	266.667
235.31	445.455
235.68	238.462
236.05	314.286
236.43	142.424
236.80	200.000
237.17	3800.000
237.55	228.571
237.92	189.286
238.29	219.048
238.67	141.935
239.04	165.517
239.41	138.889
239.79	100.000
240.16	109.524
240.53	118.182
240.91	90.196
241.28	102.000
241.65	102.000
242.02	85.507
242.40	87.097
242.77	103.333
243.14	74.194
243.51	76.404
243.89	77.647
244.26	70.000
244.63	63.441
245.00	71.277
245.38	69.307
245.75	56.075
246.12	56.881
246.49	62.044
246.87	65.600
247.24	66.154
247.61	55.714
247.98	60.784
248.36	52.703
248.73	50.318
249.10	55.414
249.47	44.068
249.84	54.011
250.22	49.198
250.59	53.254
250.96	47.475
251.33	45.024
251.70	54.455
252.08	45.714
252.45	44.843
252.82	45.217
253.19	43.404
253.56	46.275
253.94	48.548
254.31	45.703
254.68	43.846
255.05	45.018
255.42	39.837
255.79	46.324
256.16	50.181
256.54	39.223
256.91	41.993
257.28	38.129
257.65	38.944
258.02	40.373
258.39	47.319
258.76	38.127
259.14	40.476
259.51	42.553
259.88	38.509
260.25	43.202
260.62	39.595
260.99	36.335
261.36	43.243
261.73	41.834
262.10	37.500
262.47	39.437
262.85	36.769
263.22	37.037
263.59	37.607
263.96	38.736
264.33	37.076
264.70	36.579
265.07	36.829
265.44	35.354
265.81	36.010
266.18	38.945
266.55	38.293
266.92	38.821
267.29	35.880
267.66	36.468
268.03	37.955
268.40	35.514
268.77	34.368
269.14	37.162
269.51	38.149
269.88	36.597
270.25	35.214
270.62	39.101
270.99	39.785
271.36	35.837
271.73	36.215
272.10	35.000
272.47	38.065
272.84	33.766
273.21	35.849
273.58	33.188
273.95	33.333
274.32	34.091
274.69	37.473
275.06	35.827
275.43	35.106
275.80	35.671
276.17	35.234
276.54	34.927
276.91	35.573
277.28	33.008
277.65	34.236
278.02	34.576
278.39	33.789
278.76	34.909
279.13	33.962
279.50	34.451
279.87	33.665
280.23	34.132
280.60	31.335
280.97	34.750
281.34	33.628
281.71	33.273
282.08	33.205
282.45	34.182
282.82	33.393
283.19	31.551
283.56	33.158
283.92	34.349
284.29	32.275
284.66	33.031
285.03	31.284
285.40	32.218
285.77	31.987
286.14	30.397
286.51	33.500
286.87	32.308
287.24	35.668
287.61	29.535
287.98	31.331
288.35	29.952
288.72	28.660
289.08	30.047
289.45	29.819
289.82	31.382
290.19	28.885
290.56	28.637
290.93	28.097
291.29	29.908
291.66	30.383
292.03	27.907
292.40	31.424
292.77	28.107
293.13	28.358
293.50	27.114
293.87	28.889
294.24	26.963
294.60	28.093
294.97	27.326
295.34	29.196
295.71	25.142
296.08	24.786
296.44	26.272
296.81	24.967
297.18	26.558
297.55	26.253
297.91	24.406
298.28	26.908
298.65	25.718
299.02	25.823
299.38	26.029
299.75	22.507
300.12	24.010
300.48	24.625
300.85	23.674
301.22	24.076
301.59	23.106
301.95	24.433
302.32	23.235
302.69	23.895
303.05	22.303
303.42	24.321
303.79	24.349
304.15	22.844
304.52	23.291
304.89	21.951
305.25	23.202
305.62	23.216
305.99	22.668
306.35	22.931
306.72	22.309
307.09	23.196
307.45	23.761
307.82	22.210
308.19	25.497
308.55	24.164
308.92	24.382
309.29	21.436
309.65	21.951
310.02	22.727
310.38	23.978
310.75	21.859
311.12	24.463
311.48	23.197
311.85	24.633
312.22	23.205
312.58	23.077
312.95	23.020
313.31	22.621
313.68	22.141
314.05	24.162
314.41	23.719
314.78	23.666
315.14	24.330
315.51	24.408
315.87	25.644
316.24	23.833
316.61	23.392
316.97	23.777
317.34	24.462
317.70	24.761
318.07	25.409
318.43	24.853
318.80	26.054
319.16	24.294
319.53	25.516
319.89	25.333
320.26	26.300
320.62	26.091
320.99	26.364
321.35	26.768
321.72	28.029
322.08	27.443
322.45	28.458
322.81	27.616
323.18	28.131
323.54	27.087
323.91	28.019
324.27	28.298
324.64	27.400
325.00	27.051
325.37	29.390
325.73	29.623
326.10	29.744
326.46	28.405
326.83	29.508
327.19	27.925
327.56	27.962
327.92	28.609
328.29	28.749
328.65	29.466
329.01	29.061
329.38	28.770
329.74	28.255
330.11	29.500
330.47	30.211
330.84	30.147
331.20	29.872
331.56	30.183
331.93	29.815
332.29	29.104
332.66	30.265
333.02	29.525
333.38	29.901
333.75	28.699
334.11	29.982
334.48	29.902
334.84	29.963
335.20	30.545
335.57	29.828
335.93	29.464
336.29	29.304
336.66	28.945
337.02	27.059
337.38	28.241
337.75	28.342
338.11	28.917
338.47	27.901
338.84	29.514
339.20	28.807
339.56	29.380
339.93	29.091
340.29	30.163
340.65	28.699
341.02	29.232
341.38	28.114
341.74	28.158
342.11	28.210
342.47	29.427
342.83	29.709
343.20	28.918
343.56	28.559
343.92	30.088
344.28	28.741
344.65	29.321
345.01	28.451
345.37	26.844
345.73	28.257
346.10	28.730
346.46	28.475
346.82	27.265
347.19	27.569
347.55	26.601
347.91	28.641
348.27	29.006
348.63	27.258
349.00	28.236
349.36	27.586
349.72	28.468
350.08	27.877
350.45	27.258
350.81	27.620
351.17	28.849
351.53	27.273
351.89	27.145
352.26	26.914
352.62	27.346
352.98	26.904
353.34	26.130
353.70	27.741
354.07	27.823
354.43	27.857
354.79	26.951
355.15	27.294
355.51	27.978
355.87	28.408
356.24	28.013
356.60	26.945
356.96	27.595
357.32	28.209
357.68	29.134
358.04	27.633
358.40	27.633
358.77	27.700
359.13	26.598
359.49	26.980
359.85	26.349
360.21	26.635
360.57	28.249
360.93	27.538
361.29	27.135
361.66	26.780
362.02	27.985
362.38	27.529
362.74	27.307
363.10	26.943
363.46	26.926
363.82	26.682
364.18	27.093
364.54	27.637
364.90	26.983
365.26	25.368
365.62	27.684
365.98	26.077
366.35	25.716
366.71	27.260
367.07	26.657
367.43	26.560
367.79	27.338
368.15	27.586
368.51	26.817
368.87	27.552
369.23	25.677
369.59	27.009
369.95	26.471
370.31	26.781
370.67	26.377
371.03	26.891
371.39	26.531
371.75	26.985
372.11	26.600
372.47	27.786
372.83	28.314
373.19	25.361
373.55	27.790
373.91	27.393
374.27	26.048
374.63	26.691
374.99	27.613
375.35	25.890
375.71	26.182
376.07	26.612
376.42	27.235
376.78	28.297
377.14	26.594
377.50	27.285
377.86	26.862
378.22	26.675
378.58	26.065
378.94	26.838
379.30	26.590
379.66	27.728
380.02	27.088
380.38	25.987
380.74	26.711
381.09	26.467
381.45	28.027
381.81	27.273
382.17	27.771
382.53	26.918
382.89	26.667
383.25	26.767
383.61	26.518
383.97	26.454
384.32	26.138
384.68	26.270
385.04	28.089
385.40	26.316
385.76	26.966
386.12	27.332
386.48	27.753
386.83	28.223
387.19	26.592
387.55	27.458
387.91	26.784
388.27	25.812
388.62	27.658
388.98	27.088
389.34	27.597
389.70	27.345
390.06	26.869
390.42	26.394
390.77	27.036
391.13	27.569
391.49	26.713
391.85	26.607
392.20	26.120
392.56	26.641
392.92	26.898
393.28	26.805
393.64	26.918
393.99	26.634
394.35	26.675
394.71	26.600
395.07	26.231
395.42	27.194
395.78	26.590
396.14	27.002
396.50	27.820
396.85	27.336
397.21	25.832
397.57	26.162
397.92	26.502
398.28	26.401
398.64	26.464
399.00	25.965
399.35	25.437
399.71	26.968
400.07	26.671
400.42	26.810
400.78	27.021
401.14	26.707
401.49	26.448
401.85	25.953
402.21	25.868
402.57	25.725
402.92	27.049
403.28	26.796
403.63	26.609
403.99	25.924
404.35	26.848
404.70	26.019
405.06	25.684
405.42	26.388
405.77	25.486
406.13	25.508
406.49	25.370
406.84	26.108
407.20	25.355
407.55	26.037
407.91	26.133
408.27	25.973
408.62	25.406
408.98	25.429
409.34	26.384
409.69	26.387
410.05	25.836
410.40	25.749
410.76	25.269
411.11	26.236
411.47	25.367
411.83	26.329
412.18	25.850
412.54	25.778
412.89	26.386
413.25	26.328
413.60	25.880
413.96	24.529
414.31	25.759
414.67	25.665
415.03	25.497
415.38	26.418
415.74	25.209
416.09	27.433
416.45	25.703
416.80	25.248
417.16	26.005
417.51	25.813
417.87	25.947
418.22	25.174
418.58	26.146
418.93	25.921
419.29	25.398
419.64	24.496
420.00	25.305
420.35	25.797
420.71	26.240
421.06	25.060
421.42	25.439
421.77	25.504
422.12	24.424
422.48	24.879
422.83	25.976
423.19	24.917
423.54	25.537
423.90	25.507
424.25	24.735
424.61	24.940
424.96	24.257
425.31	24.751
425.67	25.225
426.02	23.886
426.38	25.702
426.73	24.751
427.09	24.924
427.44	24.267
427.79	24.842
428.15	25.119
428.50	23.874
428.85	24.672
429.21	24.627
429.56	25.091
429.92	24.409
430.27	24.479
430.62	24.117
430.98	25.272
431.33	24.124
431.68	25.236
432.04	24.121
432.39	23.872
432.74	24.237
433.10	24.618
433.45	24.898
433.80	24.501
434.16	25.321
434.51	23.105
434.86	25.314
435.22	24.625
435.57	24.377
435.92	25.044
436.28	25.089
436.63	24.669
436.98	24.098
437.34	24.091
437.69	24.912
438.04	24.283
438.39	24.597
438.75	24.521
439.10	24.860
439.45	24.557
439.81	23.565
440.16	23.828
440.51	24.956
440.86	24.378
441.22	24.472
441.57	24.469
441.92	23.951
442.27	24.489
442.63	23.855
442.98	24.958
443.33	24.402
443.68	24.574
444.03	24.549
444.39	23.759
444.74	25.758
445.09	24.960
445.44	24.932
445.79	24.889
446.15	25.093
446.50	25.525
446.85	24.666
447.20	25.038
447.55	25.461
447.91	24.655
448.26	24.930
448.61	25.212
448.96	26.024
449.31	24.747
449.66	24.761
450.02	23.677
450.37	25.057
450.72	24.365
451.07	24.314
451.42	25.471
451.77	24.897
452.12	23.845
452.47	23.943
452.83	24.767
453.18	24.817
453.53	25.603
453.88	24.217
454.23	24.567
454.58	24.712
454.93	25.556
455.28	24.002
455.63	24.757
455.98	26.131
456.34	25.063
456.69	24.358
457.04	24.582
457.39	24.021
457.74	23.738
458.09	24.842
458.44	24.230
458.79	23.753
459.14	24.774
459.49	24.927
459.84	23.546
460.19	23.807
460.54	24.016
460.89	24.026
461.24	24.651
461.59	25.218
461.94	24.414
462.29	24.629
462.64	24.250
462.99	23.357
463.34	24.867
463.69	22.702
464.04	23.710
464.39	24.174
464.74	24.361
465.09	23.583
465.44	23.878
465.79	24.049
466.14	22.989
466.49	23.137
466.84	23.818
467.19	22.692
467.54	23.813
467.89	23.409
468.24	22.862
468.59	24.603
468.94	22.847
469.29	23.907
469.64	24.297
469.99	24.019
470.34	24.240
470.68	24.282
471.03	23.333
471.38	24.044
471.73	23.584
472.08	24.079
472.43	23.492
472.78	22.976
473.13	23.941
473.48	22.722
473.83	22.927
474.17	21.780
474.52	24.132
474.87	23.292
475.22	22.345
475.57	22.622
475.92	22.358
476.27	22.773
476.61	22.780
476.96	21.880
477.31	22.135
477.66	22.319
478.01	21.432
478.36	23.268
478.70	21.859
479.05	23.056
479.40	22.364
479.75	22.674
480.10	22.018
480.45	22.513
480.79	22.121
481.14	21.380
481.49	21.547
481.84	22.405
482.19	21.854
482.53	21.376
482.88	21.685
483.23	21.963
483.58	22.202
483.92	22.306
484.27	20.828
484.62	21.724
484.97	21.088
485.31	20.959
485.66	20.698
486.01	20.892
486.36	20.577
486.70	20.681
487.05	20.523
487.40	20.863
487.75	20.263
488.09	20.594
488.44	20.314
488.79	20.181
489.13	20.092
489.48	20.759
489.83	20.371
490.17	20.824
490.52	20.461
490.87	20.624
491.22	20.828
491.56	20.364
491.91	20.614
492.26	20.165
492.60	20.230
492.95	20.346
493.30	20.841
493.64	20.205
493.99	19.731
494.34	20.490
494.68	20.833
495.03	21.100
495.37	19.870
495.72	20.468
496.07	20.882
496.41	20.000
496.76	20.888
497.11	20.441
497.45	20.121
497.80	19.914
498.14	19.517
498.49	20.244
498.84	20.230
499.18	19.905
499.53	19.753
499.87	20.037
500.22	20.113
500.56	20.291
500.91	19.183
501.26	19.725
501.60	19.981
501.95	19.432
502.29	20.103
502.64	20.345
502.98	19.729
503.33	19.516
503.67	20.232
504.02	19.645
504.36	19.233
504.71	19.687
505.06	19.470
505.40	19.592
505.75	19.094
506.09	18.659
506.44	19.931
506.78	19.191
507.13	20.040
507.47	19.545
507.82	20.010
508.16	20.111
508.51	19.432
508.85	19.513
509.19	19.133
509.54	19.745
509.88	19.217
510.23	18.920
510.57	20.330
510.92	19.265
511.26	19.013
511.61	19.295
511.95	19.468
512.30	18.982
512.64	20.043
512.98	18.917
513.33	19.647
513.67	19.050
514.02	18.615
514.36	19.443
514.70	18.760
515.05	18.349
515.39	18.901
515.74	19.257
516.08	19.340
516.42	19.256
516.77	19.287
517.11	18.424
517.46	19.187
517.80	18.931
518.14	18.703
518.49	18.670
518.83	19.205
519.17	19.226
519.52	18.280
519.86	18.996
520.20	19.017
520.55	18.851
520.89	18.674
521.23	19.180
521.58	18.367
521.92	18.739
522.26	17.938
522.61	17.944
522.95	18.171
523.29	18.685
523.64	18.171
523.98	19.039
524.32	18.034
524.66	18.280
525.01	18.995
525.35	18.897
525.69	18.288
526.04	18.816
526.38	18.365
526.72	18.160
527.06	18.330
527.41	17.884
527.75	17.942
528.09	18.947
528.43	18.929
528.78	18.500
529.12	17.212
529.46	19.535
529.80	18.812
530.15	19.190
530.49	17.662
530.83	18.101
531.17	18.668
531.51	18.677
531.86	18.065
532.20	17.797
532.54	18.706
532.88	18.228
533.22	18.114
533.57	17.654
533.91	18.122
534.25	18.287
534.59	18.304
534.93	17.906
535.27	17.622
535.62	18.864
535.96	18.330
536.30	17.483
536.64	18.287
536.98	17.916
537.32	18.104
537.66	17.933
538.01	18.631
538.35	18.100
538.69	18.762
539.03	17.999
539.37	17.252
539.71	16.656
540.05	17.386
540.39	18.472
540.73	17.853
541.07	18.235
541.42	18.591
541.76	17.871
542.10	17.723
542.44	18.212
542.78	18.841
543.12	16.763
543.46	18.361
543.80	19.323
544.14	17.458
544.48	18.286
544.82	18.602
545.16	18.412
545.50	16.774
545.84	16.935
546.18	17.778
546.52	17.963
546.86	17.526
547.20	18.139
547.54	17.435
547.88	18.367
548.22	16.999
548.56	17.421
548.90	17.670
549.24	17.172
549.58	17.462
549.92	17.308
550.26	17.827
550.60	17.427
550.94	17.183
551.28	16.679
551.62	17.685
551.96	17.825
552.30	17.201
552.64	18.120
552.98	18.508
553.32	17.599
553.66	17.723
554.00	17.296
554.34	17.115
554.68	18.884
555.02	17.137
555.36	17.049
555.69	17.456
556.03	17.968
556.37	17.667
556.71	16.849
557.05	17.857
557.39	17.845
557.73	17.219
558.07	17.984
558.41	17.728
558.75	18.001
559.08	17.524
559.42	16.780
559.76	17.647
560.10	16.988
560.44	16.771
560.78	16.966
561.12	16.821
561.45	17.275
561.79	17.205
562.13	17.103
562.47	17.281
562.81	16.039
563.15	16.656
563.48	16.645
563.82	17.091
564.16	16.154
564.50	15.820
564.84	17.004
565.17	16.602
565.51	17.380
565.85	17.322
566.19	17.408
566.52	17.226
566.86	17.360
567.20	17.158
567.54	16.153
567.88	16.621
568.21	17.090
568.55	17.189
568.89	17.558
569.23	17.647
569.56	16.842
569.90	16.717
570.24	16.469
570.57	16.423
570.91	16.290
571.25	16.893
571.59	16.406
571.92	16.244
572.26	16.147
572.60	16.607
572.93	16.222
573.27	16.327
573.61	16.304
573.95	16.641
574.28	16.281
574.62	15.792
574.96	15.938
575.29	16.125
575.63	16.235
575.97	16.090
576.30	16.171
576.64	15.921
576.98	16.286
577.31	15.943
577.65	16.569
577.98	16.023
578.32	16.064
578.66	16.331
578.99	15.978
579.33	15.565
579.67	15.495
580.00	16.207
580.34	16.184
580.67	16.095
581.01	15.853
581.35	16.241
581.68	15.827
582.02	15.795
582.35	16.311
582.69	16.089
583.02	16.259
583.36	15.702
583.70	16.034
584.03	16.040
584.37	15.968
584.70	15.857
585.04	15.900
585.37	16.146
585.71	16.212
586.04	16.357
586.38	15.752
586.72	16.460
587.05	16.110
587.39	15.963
587.72	16.516
588.06	15.955
588.39	16.488
588.73	16.075
589.06	16.329
589.40	16.061
589.73	16.367
590.07	16.050
590.40	15.930
590.73	15.847
591.07	17.013
591.40	16.617
591.74	16.277
592.07	16.230
592.41	16.742
592.74	16.142
593.08	16.056
593.41	16.767
593.75	16.334
594.08	16.628
594.41	16.260
594.75	16.155
595.08	16.106
595.42	16.112
595.75	16.560
596.09	16.485
596.42	16.542
596.75	16.252
597.09	16.926
597.42	15.894
597.75	16.041
598.09	16.304
598.42	16.710
598.76	15.971
599.09	16.078
599.42	16.339
599.76	16.362
600.09	15.811
600.42	15.851
600.76	15.750
601.09	16.029
601.42	16.286
601.76	15.939
602.09	16.206
602.42	16.242
602.76	16.929
603.09	15.972
603.42	16.322
603.76	15.930
604.09	15.665
604.42	15.858
604.76	16.575
605.09	16.164
605.42	16.032
605.75	16.598
606.09	15.901
606.42	16.878
606.75	16.342
607.09	16.492
607.42	16.089
607.75	15.781
608.08	16.066
608.42	16.360
608.75	16.411
609.08	15.865
609.41	16.373
609.75	16.770
610.08	16.965
610.41	15.922
610.74	16.556
611.07	16.551
611.41	16.830
611.74	16.792
612.07	16.304
612.40	15.950
612.73	16.316
613.07	16.164
613.40	16.588
613.73	15.469
614.06	16.613
614.39	17.410
614.72	16.789
615.06	16.702
615.39	15.924
615.72	15.798
616.05	16.268
616.38	16.287
616.71	16.271
617.05	16.902
617.38	16.597
617.71	15.736
618.04	17.488
618.37	16.263
618.70	17.113
619.03	15.855
619.36	16.904
619.69	16.831
620.03	17.239
620.36	17.513
620.69	17.329
621.02	17.183
621.35	16.993
621.68	16.433
622.01	17.028
622.34	16.944
622.67	16.426
623.00	16.434
623.33	16.369
623.66	17.370
623.99	15.758
624.32	16.405
624.65	16.667
624.99	16.076
625.32	16.872
625.65	16.003
625.98	16.910
626.31	16.096
626.64	16.898
626.97	16.293
627.30	16.958
627.63	17.063
627.96	16.316
628.29	16.185
628.62	17.017
628.95	18.302
629.28	18.339
629.61	17.324
629.94	17.524
630.26	16.301
630.59	17.159
630.92	16.762
631.25	16.584
