SpectraSuite Data File
++++++++++++++++++++++++++++++++++++
Date: Wed May 13 20:29:13 PDT 2015
User: schluterlab
Dark Spectrum Present: Yes
Reference Spectrum Present: Yes
Number of Sampled Component Spectra: 1
Spectrometers: USB2E3373
Integration Time (usec): 3000 (USB2E3373)
Spectra Averaged: 3 (USB2E3373)
Boxcar Smoothing: 0 (USB2E3373)
Correct for Electrical Dark: No (USB2E3373)
Strobe/Lamp Enabled: No (USB2E3373)
Correct for Detector Non-linearity: No (USB2E3373)
Correct for Stray Light: No (USB2E3373)
Number of Pixels in Processed Spectrum: 2048
>>>>>Begin Processed Spectral Data<<<<<
178.53	0.000
178.91	-1025.000
179.29	-1200.000
179.67	-200.000
180.04	-1100.000
180.42	2100.000
180.80	1000.000
181.18	-975.000
181.56	571.429
181.94	0.000
182.31	-657.143
182.69	1533.333
183.07	-462.500
183.45	-455.556
183.83	418.182
184.20	-490.000
184.58	1750.000
184.96	5600.000
185.34	-800.000
185.72	-462.500
186.09	-1600.000
186.47	2200.000
186.85	2150.000
187.23	5700.000
187.61	-1000.000
187.98	1225.000
188.36	472.727
188.74	436.364
189.12	-860.000
189.49	490.000
189.87	-3300.000
190.25	-900.000
190.63	314.286
191.00	353.846
191.38	683.333
191.76	-750.000
192.14	1100.000
192.51	575.000
192.89	900.000
193.27	537.500
193.65	-950.000
194.02	360.000
194.40	740.000
194.78	500.000
195.15	391.667
195.53	570.000
195.91	-1650.000
196.29	300.000
196.66	236.842
197.04	-250.000
197.42	0.000
197.79	430.000
198.17	-4600.000
198.55	628.571
198.92	550.000
199.30	820.000
199.68	0.000
200.05	244.444
200.43	714.286
200.81	4100.000
201.18	1533.333
201.56	-1333.333
201.94	544.444
202.31	600.000
202.69	275.000
203.07	460.000
203.44	0.000
203.82	800.000
204.19	671.429
204.57	392.857
204.95	587.500
205.32	1366.667
205.70	427.273
206.08	307.143
206.45	2200.000
206.83	331.250
207.20	716.667
207.58	740.000
207.96	300.000
208.33	725.000
208.71	-800.000
209.08	557.143
209.46	522.222
209.84	418.182
210.21	-1466.667
210.59	1100.000
210.96	-400.000
211.34	2550.000
211.71	540.000
212.09	633.333
212.46	0.000
212.84	1266.667
213.22	1000.000
213.59	-3400.000
213.97	600.000
214.34	671.429
214.72	627.273
215.09	900.000
215.47	-1900.000
215.84	-2200.000
216.22	1666.667
216.59	400.000
216.97	1050.000
217.34	418.182
217.72	-433.333
218.09	0.000
218.47	-4200.000
218.84	488.889
219.22	614.286
219.59	1600.000
219.97	-542.857
220.34	660.000
220.72	-1666.667
221.09	357.143
221.47	1450.000
221.84	-783.333
222.22	0.000
222.59	1300.000
222.97	-2000.000
223.34	940.000
223.72	369.231
224.09	980.000
224.46	2050.000
224.84	-3700.000
225.21	-780.000
225.59	-3900.000
225.96	500.000
226.34	220.000
226.71	1950.000
227.08	562.500
227.46	460.000
227.83	-1000.000
228.21	-2350.000
228.58	522.222
228.95	-2100.000
229.33	-2050.000
229.70	1233.333
230.08	571.429
230.45	-660.000
230.82	391.667
231.20	766.667
231.57	600.000
231.95	375.000
232.32	181.818
232.69	345.455
233.07	542.857
233.44	338.462
233.81	-1500.000
234.19	242.105
234.56	391.667
234.93	366.667
235.31	390.909
235.68	238.462
236.05	292.857
236.43	166.667
236.80	221.053
237.17	3600.000
237.55	200.000
237.92	167.857
238.29	238.095
238.67	148.387
239.04	196.552
239.41	119.444
239.79	119.565
240.16	126.190
240.53	104.545
240.91	111.765
241.28	80.000
241.65	100.000
242.02	100.000
242.40	85.484
242.77	101.667
243.14	70.968
243.51	86.517
243.89	70.588
244.26	71.111
244.63	55.914
245.00	62.766
245.38	69.307
245.75	61.682
246.12	71.560
246.49	69.343
246.87	68.800
247.24	69.231
247.61	55.000
247.98	56.863
248.36	54.054
248.73	54.777
249.10	57.962
249.47	51.412
249.84	57.219
250.22	53.476
250.59	59.172
250.96	52.020
251.33	53.555
251.70	54.455
252.08	49.524
252.45	48.879
252.82	41.739
253.19	46.809
253.56	43.137
253.94	48.133
254.31	51.172
254.68	49.231
255.05	44.649
255.42	47.967
255.79	44.485
256.16	48.736
256.54	45.230
256.91	43.416
257.28	44.245
257.65	43.234
258.02	45.963
258.39	41.325
258.76	41.137
259.14	42.560
259.51	40.426
259.88	43.789
260.25	44.109
260.62	41.040
260.99	43.168
261.36	45.045
261.73	42.980
262.10	40.116
262.47	41.690
262.85	41.226
263.22	40.171
263.59	43.020
263.96	39.011
264.33	42.298
264.70	41.842
265.07	40.665
265.44	38.889
265.81	38.200
266.18	39.950
266.55	39.268
266.92	38.821
267.29	39.352
267.66	37.156
268.03	37.045
268.40	39.019
268.77	36.277
269.14	36.036
269.51	43.115
269.88	38.228
270.25	37.246
270.62	40.225
270.99	38.710
271.36	37.768
271.73	36.449
272.10	38.696
272.47	37.849
272.84	36.147
273.21	39.413
273.58	34.934
273.95	37.107
274.32	37.190
274.69	39.186
275.06	35.433
275.43	34.894
275.80	36.874
276.17	36.660
276.54	38.462
276.91	36.166
277.28	34.180
277.65	36.364
278.02	36.439
278.39	37.500
278.76	38.000
279.13	38.491
279.50	34.823
279.87	35.060
280.23	36.128
280.60	37.718
280.97	35.860
281.34	33.982
281.71	37.091
282.08	35.701
282.45	35.455
282.82	33.925
283.19	31.729
283.56	33.860
283.92	35.702
284.29	35.626
284.66	32.849
285.03	35.081
285.40	33.275
285.77	34.343
286.14	34.542
286.51	34.000
286.87	32.821
287.24	32.085
287.61	35.313
287.98	36.039
288.35	32.013
288.72	32.399
289.08	30.203
289.45	32.455
289.82	31.545
290.19	30.612
290.56	30.934
290.93	27.644
291.29	32.055
291.66	28.614
292.03	31.250
292.40	32.452
292.77	30.325
293.13	28.358
293.50	29.009
293.87	27.556
294.24	29.333
294.60	28.384
294.97	28.634
295.34	29.619
295.71	28.125
296.08	28.775
296.44	28.473
296.81	27.609
297.18	28.997
297.55	27.704
297.91	25.330
298.28	28.246
298.65	28.068
299.02	27.404
299.38	27.623
299.75	27.358
300.12	26.564
300.48	26.250
300.85	25.647
301.22	25.732
301.59	24.116
301.95	26.826
302.32	26.829
302.69	25.926
303.05	26.545
303.42	25.679
303.79	24.236
304.15	25.291
304.52	25.145
304.89	24.855
305.25	25.406
305.62	25.255
305.99	27.037
306.35	24.720
306.72	26.233
307.09	26.748
307.45	25.563
307.82	24.107
308.19	25.497
308.55	25.890
308.92	25.349
309.29	25.132
309.65	24.178
310.02	25.370
310.38	26.774
310.75	24.921
311.12	24.258
311.48	25.914
311.85	26.205
312.22	26.015
312.58	24.740
312.95	26.610
313.31	24.078
313.68	26.923
314.05	27.318
314.41	26.734
314.78	26.687
315.14	26.316
315.51	27.497
315.87	28.119
316.24	27.110
316.61	26.413
316.97	27.691
317.34	28.082
317.70	28.394
318.07	28.585
318.43	31.018
318.80	30.740
319.16	29.849
319.53	30.019
319.89	31.619
320.26	32.400
320.62	32.837
320.99	31.616
321.35	32.323
321.72	35.216
322.08	34.353
322.45	37.612
322.81	37.016
323.18	38.632
323.54	37.384
323.91	36.698
324.27	37.476
324.64	37.931
325.00	37.241
325.37	40.036
325.73	40.305
326.10	38.835
326.46	40.233
326.83	41.846
327.19	41.845
327.56	43.293
327.92	43.920
328.29	43.744
328.65	45.120
329.01	45.126
329.38	45.976
329.74	45.614
330.11	47.031
330.47	47.199
330.84	48.070
331.20	46.812
331.56	47.982
331.93	47.685
332.29	47.028
332.66	49.115
333.02	49.726
333.38	50.678
333.75	49.465
334.11	49.733
334.48	50.222
334.84	50.827
335.20	51.727
335.57	49.683
335.93	50.982
336.29	50.366
336.66	52.299
337.02	49.502
337.38	51.759
337.75	49.911
338.11	51.298
338.47	52.118
338.84	50.412
339.20	50.642
339.56	51.825
339.93	53.091
340.29	50.453
340.65	50.713
341.02	52.531
341.38	52.402
341.74	49.123
342.11	50.218
342.47	51.806
342.83	50.514
343.20	51.602
343.56	49.958
343.92	51.140
344.28	52.211
344.65	52.021
345.01	50.253
345.37	50.429
345.73	52.030
346.10	50.298
346.46	51.525
346.82	50.165
347.19	49.791
347.55	50.164
347.91	49.919
348.27	51.191
348.63	51.003
349.00	50.162
349.36	49.918
349.72	50.120
350.08	48.379
350.45	49.959
350.81	49.959
351.17	49.190
351.53	50.123
351.89	50.000
352.26	49.803
352.62	49.238
352.98	49.757
353.34	50.205
353.70	48.200
354.07	49.113
354.43	48.889
354.79	48.109
355.15	48.125
355.51	49.640
355.87	48.898
356.24	49.349
356.60	49.318
356.96	48.833
357.32	49.469
357.68	50.236
358.04	48.139
358.40	48.456
358.77	48.905
359.13	48.145
359.49	49.176
359.85	47.302
360.21	48.804
360.57	49.728
360.93	48.615
361.29	47.997
361.66	46.827
362.02	48.731
362.38	47.148
362.74	47.619
363.10	47.668
363.46	47.102
363.82	48.148
364.18	46.990
364.54	47.994
364.90	47.309
365.26	48.162
365.62	48.356
365.98	47.553
366.35	45.630
366.71	48.445
367.07	48.725
367.43	47.823
367.79	48.465
368.15	47.557
368.51	46.439
368.87	47.323
369.23	47.915
369.59	48.154
369.95	46.838
370.31	46.439
370.67	46.087
371.03	46.816
371.39	46.866
371.75	45.882
372.11	46.728
372.47	48.167
372.83	48.487
373.19	46.098
373.55	47.672
373.91	47.791
374.27	45.636
374.63	48.291
374.99	46.681
375.35	45.918
375.71	45.511
376.07	46.571
376.42	45.942
376.78	45.858
377.14	47.083
377.50	46.424
377.86	45.013
378.22	45.765
378.58	45.175
378.94	46.197
379.30	47.010
379.66	46.954
380.02	45.270
380.38	44.748
380.74	45.738
381.09	45.110
381.45	45.790
381.81	46.314
382.17	46.815
382.53	45.409
382.89	46.111
383.25	45.528
383.61	46.468
383.97	46.154
384.32	45.914
384.68	45.167
385.04	45.913
385.40	44.830
385.76	45.516
386.12	45.725
386.48	46.067
386.83	45.478
387.19	45.022
387.55	44.960
387.91	45.103
388.27	43.961
388.62	45.913
388.98	45.209
389.34	44.806
389.70	45.984
390.06	44.740
390.42	47.082
390.77	44.529
391.13	44.799
391.49	45.622
391.85	44.430
392.20	44.606
392.56	45.770
392.92	44.438
393.28	44.142
393.64	45.144
393.99	44.716
394.35	44.417
394.71	44.354
395.07	45.109
395.42	45.921
395.78	43.893
396.14	44.444
396.50	45.363
396.85	44.120
397.21	43.958
397.57	44.513
397.92	44.712
398.28	42.377
398.64	43.907
399.00	44.376
399.35	44.896
399.71	45.602
400.07	44.944
400.42	45.215
400.78	44.813
401.14	45.061
401.49	44.896
401.85	44.646
402.21	43.353
402.57	43.553
402.92	44.325
403.28	44.785
403.63	45.359
403.99	45.350
404.35	43.515
404.70	43.885
405.06	42.749
405.42	45.041
405.77	43.771
406.13	42.833
406.49	44.057
406.84	43.296
407.20	44.090
407.55	44.863
407.91	44.067
408.27	43.586
408.62	43.709
408.98	43.260
409.34	43.419
409.69	45.161
410.05	43.247
410.40	44.404
410.76	43.548
411.11	42.943
411.47	42.939
411.83	43.311
412.18	42.177
412.54	44.396
412.89	43.795
413.25	42.739
413.60	43.669
413.96	43.169
414.31	43.196
414.67	44.170
415.03	43.377
415.38	43.750
415.74	43.344
416.09	45.134
416.45	43.775
416.80	43.820
417.16	43.968
417.51	45.189
417.87	43.866
418.22	43.785
418.58	44.093
418.93	43.919
419.29	43.221
419.64	43.514
420.00	43.841
420.35	42.957
420.71	43.036
421.06	42.840
421.42	43.333
421.77	42.713
422.12	42.617
422.48	43.605
422.83	44.380
423.19	43.315
423.54	43.645
423.90	43.826
424.25	41.876
424.61	44.524
424.96	43.032
425.31	43.522
425.67	42.697
426.02	44.114
426.38	44.261
426.73	42.715
427.09	42.614
427.44	43.301
427.79	43.186
428.15	43.214
428.50	43.476
428.85	43.623
429.21	42.849
429.56	42.613
429.92	43.684
430.27	43.247
430.62	41.935
430.98	42.916
431.33	42.887
431.68	43.508
432.04	42.758
432.39	44.432
432.74	44.883
433.10	44.369
433.45	43.499
433.80	43.736
434.16	42.254
434.51	42.947
434.86	43.672
435.22	43.302
435.57	44.498
435.92	44.119
436.28	44.306
436.63	43.157
436.98	43.675
437.34	45.021
437.69	45.041
438.04	43.283
438.39	43.403
438.75	44.393
439.10	44.525
439.45	43.093
439.81	44.290
440.16	42.744
440.51	44.288
440.86	44.933
441.22	44.383
441.57	43.153
441.92	43.705
442.27	43.757
442.63	44.392
442.98	43.887
443.33	44.076
443.68	44.657
444.03	43.973
444.39	43.574
444.74	44.048
445.09	45.337
445.44	44.286
445.79	44.334
446.15	43.727
446.50	44.911
446.85	45.118
447.20	45.385
447.55	45.170
447.91	44.732
448.26	45.075
448.61	44.828
448.96	45.183
449.31	45.163
449.66	44.401
450.02	44.290
450.37	44.615
450.72	45.403
451.07	45.765
451.42	43.222
451.77	46.741
452.12	44.515
452.47	45.149
452.83	47.086
453.18	46.210
453.53	46.320
453.88	45.245
454.23	45.786
454.58	46.336
454.93	46.535
455.28	46.197
455.63	46.359
455.98	46.429
456.34	45.791
456.69	46.713
457.04	46.378
457.39	46.523
457.74	45.734
458.09	46.463
458.44	45.553
458.79	45.174
459.14	46.727
459.49	46.410
459.84	46.482
460.19	46.376
460.54	44.676
460.89	45.200
461.24	46.509
461.59	47.531
461.94	45.684
462.29	46.409
462.64	46.777
462.99	45.869
463.34	46.533
463.69	47.217
464.04	46.725
464.39	45.623
464.74	45.098
465.09	47.286
465.44	45.762
465.79	45.582
466.14	46.141
466.49	46.830
466.84	46.818
467.19	46.470
467.54	47.562
467.89	45.618
468.24	46.073
468.59	47.375
468.94	45.388
469.29	46.465
469.64	47.323
469.99	47.361
470.34	46.962
470.68	46.911
471.03	46.735
471.38	47.603
471.73	47.035
472.08	47.632
472.43	46.734
472.78	47.465
473.13	46.727
473.48	46.504
473.83	47.256
474.17	46.920
474.52	46.712
474.87	47.227
475.22	46.024
475.57	45.459
475.92	46.681
476.27	45.490
476.61	47.159
476.96	47.059
477.31	46.102
477.66	46.937
478.01	45.060
478.36	46.483
478.70	47.040
479.05	46.699
479.40	47.083
479.75	47.687
480.10	45.924
480.45	46.264
480.79	45.533
481.14	46.918
481.49	46.179
481.84	46.365
482.19	46.751
482.53	46.468
482.88	46.114
483.23	47.009
483.58	46.724
483.92	45.970
484.27	44.749
484.62	46.164
484.97	44.935
485.31	45.685
485.66	43.658
486.01	43.368
486.36	43.297
486.70	43.485
487.05	45.129
487.40	44.637
487.75	45.509
488.09	46.709
488.44	46.898
488.79	47.631
489.13	46.944
489.48	46.900
489.83	45.749
490.17	47.216
490.52	46.280
490.87	46.314
491.22	46.976
491.56	46.241
491.91	45.882
492.26	45.935
492.60	46.544
492.95	46.071
493.30	45.841
493.64	46.664
493.99	45.729
494.34	47.364
494.68	47.070
495.03	47.086
495.37	46.394
495.72	47.271
496.07	48.074
496.41	45.487
496.76	46.394
497.11	46.556
497.45	46.810
497.80	46.977
498.14	46.860
498.49	46.585
498.84	46.884
499.18	46.333
499.53	48.196
499.87	46.692
500.22	47.009
500.56	47.816
500.91	46.827
501.26	46.847
501.60	47.603
501.95	46.242
502.29	47.188
502.64	47.672
502.98	46.704
503.33	45.704
503.67	46.868
504.02	46.960
504.36	46.748
504.71	47.924
505.06	46.602
505.40	46.719
505.75	46.577
506.09	45.918
506.44	46.769
506.78	47.053
507.13	48.006
507.47	46.970
507.82	46.555
508.16	47.416
508.51	47.742
508.85	47.517
509.19	48.010
509.54	47.551
509.88	46.780
510.23	46.632
510.57	48.865
510.92	47.385
511.26	46.300
511.61	47.614
511.95	46.555
512.30	46.872
512.64	48.522
512.98	47.160
513.33	48.287
513.67	45.998
514.02	47.132
514.36	48.498
514.70	47.593
515.05	47.964
515.39	49.243
515.74	48.536
516.08	47.680
516.42	47.558
516.77	47.547
517.11	46.837
517.46	47.460
517.80	47.793
518.14	47.423
518.49	48.075
518.83	47.102
519.17	48.268
519.52	47.255
519.86	47.747
520.20	48.208
520.55	48.893
520.89	48.479
521.23	48.070
521.58	47.719
521.92	48.377
522.26	47.346
522.61	48.349
522.95	48.680
523.29	47.596
523.64	48.720
523.98	48.552
524.32	48.130
524.66	48.707
525.01	48.162
525.35	48.513
525.69	47.167
526.04	48.910
526.38	48.322
526.72	47.607
527.06	48.274
527.41	47.277
527.75	49.196
528.09	49.004
528.43	49.522
528.78	47.818
529.12	48.121
529.46	49.296
529.80	48.577
530.15	49.907
530.49	48.062
530.83	48.608
531.17	50.522
531.51	49.222
531.86	48.194
532.20	48.761
532.54	48.174
532.88	48.909
533.22	47.595
533.57	47.963
533.91	48.224
534.25	48.056
534.59	48.505
534.93	47.888
535.27	47.797
535.62	47.924
535.96	48.525
536.30	49.015
536.64	50.419
536.98	49.900
537.32	48.519
537.66	49.600
538.01	49.111
538.35	48.804
538.69	48.500
539.03	49.058
539.37	48.115
539.71	48.412
540.05	48.824
540.39	48.904
540.73	46.572
541.07	49.578
541.42	50.228
541.76	49.677
542.10	48.965
542.44	49.205
542.78	50.000
543.12	47.729
543.46	49.508
543.80	49.252
544.14	48.460
544.48	49.460
544.82	49.711
545.16	49.317
545.50	48.458
545.84	49.462
546.18	48.822
546.52	49.621
546.86	50.034
547.20	48.415
547.54	49.098
547.88	49.490
548.22	47.883
548.56	47.736
548.90	48.143
549.24	48.822
549.58	48.909
549.92	49.176
550.26	50.284
550.60	49.101
550.94	49.296
551.28	48.866
551.62	48.598
551.96	49.263
552.30	48.532
552.64	49.087
552.98	48.814
553.32	48.618
553.66	49.966
554.00	49.623
554.34	48.585
554.68	48.426
555.02	50.212
555.36	48.782
555.69	48.579
556.03	48.789
556.37	49.659
556.71	48.363
557.05	48.599
557.39	48.845
557.73	48.553
558.07	48.586
558.41	49.638
558.75	50.037
559.08	49.888
559.42	50.340
559.76	50.294
560.10	49.465
560.44	49.126
560.78	47.771
561.12	48.549
561.45	49.674
561.79	49.242
562.13	49.162
562.47	49.385
562.81	49.861
563.15	48.763
563.48	50.000
563.82	49.967
564.16	48.528
564.50	49.805
564.84	48.230
565.17	49.807
565.51	49.521
565.85	48.350
566.19	49.530
566.52	50.285
566.86	48.704
567.20	50.354
567.54	49.715
567.88	47.963
568.21	50.106
568.55	48.989
568.89	49.222
569.23	47.193
569.56	47.935
569.90	47.132
570.24	47.255
570.57	47.059
570.91	47.253
571.25	47.406
571.59	46.333
571.92	47.091
572.26	47.718
572.60	47.508
572.93	47.346
573.27	47.382
573.61	47.655
573.95	47.984
574.28	47.387
574.62	46.720
574.96	47.049
575.29	47.551
575.63	47.561
575.97	47.878
576.30	46.867
576.64	47.865
576.98	47.229
577.31	47.551
577.65	47.579
577.98	47.125
578.32	46.525
578.66	48.260
578.99	48.185
579.33	47.809
579.67	47.507
580.00	48.046
580.34	47.722
580.67	48.168
581.01	47.875
581.35	47.760
581.68	47.052
582.02	47.752
582.35	47.541
582.69	48.456
583.02	48.818
583.36	49.228
583.70	49.700
584.03	48.433
584.37	49.934
584.70	48.798
585.04	47.456
585.37	48.369
585.71	48.520
586.04	48.732
586.38	49.634
586.72	49.434
587.05	48.791
587.39	48.575
587.72	49.369
588.06	49.413
588.39	49.053
588.73	50.249
589.06	50.016
589.40	50.741
589.73	50.158
590.07	50.071
590.40	49.507
590.73	51.327
591.07	51.770
591.40	50.316
591.74	51.299
592.07	51.309
592.41	50.021
592.74	48.951
593.08	49.400
593.41	49.668
593.75	48.813
594.08	50.285
594.41	50.300
594.75	50.869
595.08	49.821
595.42	50.753
595.75	50.641
596.09	50.695
596.42	51.434
596.75	50.950
597.09	50.779
597.42	50.717
597.75	50.841
598.09	49.739
598.42	50.258
598.76	49.453
599.09	49.981
599.42	49.054
599.76	50.110
600.09	50.638
600.42	50.110
600.76	50.000
601.09	49.727
601.42	50.571
601.76	50.209
602.09	51.383
602.42	50.836
602.76	52.035
603.09	50.511
603.42	50.996
603.76	50.800
604.09	50.795
604.42	51.284
604.76	52.214
605.09	51.900
605.42	50.449
605.75	51.614
606.09	51.362
606.42	51.410
606.75	50.975
607.09	51.193
607.42	50.792
607.75	50.506
608.08	50.803
608.42	51.860
608.75	50.902
609.08	51.388
609.41	51.785
609.75	51.834
610.08	51.602
610.41	50.466
610.74	52.554
611.07	52.964
611.41	52.601
611.74	51.634
612.07	53.157
612.40	53.043
612.73	52.211
613.07	53.825
613.40	52.923
613.73	51.599
614.06	53.065
614.39	51.652
614.72	51.263
615.06	52.468
615.39	52.495
615.72	51.534
616.05	52.047
616.38	51.862
616.71	55.226
617.05	52.473
617.38	52.435
617.71	54.174
618.04	53.305
618.37	51.981
618.70	53.391
619.03	54.079
619.36	53.564
619.69	54.014
620.03	53.503
620.36	54.278
620.69	54.795
621.02	55.457
621.35	53.798
621.68	52.648
622.01	55.341
622.34	53.631
622.67	54.449
623.00	53.558
623.33	54.682
623.66	53.395
623.99	54.124
624.32	53.852
624.65	53.037
624.99	54.320
625.32	53.729
625.65	54.170
625.98	54.112
626.31	53.499
626.64	56.163
626.97	56.110
627.30	55.362
627.63	54.061
627.96	55.172
628.29	54.856
628.62	55.810
628.95	56.698
629.28	54.745
629.61	56.645
629.94	56.952
630.26	56.435
630.59	57.293
630.92	54.981
