SpectraSuite Data File
++++++++++++++++++++++++++++++++++++
Date: Wed May 13 20:30:54 PDT 2015
User: schluterlab
Dark Spectrum Present: Yes
Reference Spectrum Present: Yes
Number of Sampled Component Spectra: 1
Spectrometers: USB2E3373
Integration Time (usec): 3000 (USB2E3373)
Spectra Averaged: 3 (USB2E3373)
Boxcar Smoothing: 0 (USB2E3373)
Correct for Electrical Dark: No (USB2E3373)
Strobe/Lamp Enabled: No (USB2E3373)
Correct for Detector Non-linearity: No (USB2E3373)
Correct for Stray Light: No (USB2E3373)
Number of Pixels in Processed Spectrum: 2048
>>>>>Begin Processed Spectral Data<<<<<
178.53	0.000
178.91	-1025.000
179.29	-1175.000
179.67	-172.222
180.04	-975.000
180.42	1950.000
180.80	880.000
181.18	-875.000
181.56	542.857
181.94	0.000
182.31	-442.857
182.69	1500.000
183.07	-387.500
183.45	-377.778
183.83	381.818
184.20	-220.000
184.58	2200.000
184.96	4800.000
185.34	-800.000
185.72	-437.500
186.09	-1450.000
186.47	2300.000
186.85	1650.000
187.23	4100.000
187.61	-1166.667
187.98	875.000
188.36	445.455
188.74	418.182
189.12	-680.000
189.49	530.000
189.87	-3700.000
190.25	-875.000
190.63	414.286
191.00	353.846
191.38	700.000
191.76	-1025.000
192.14	1100.000
192.51	562.500
192.89	850.000
193.27	462.500
193.65	-900.000
194.02	390.000
194.40	800.000
194.78	420.000
195.15	391.667
195.53	520.000
195.91	-1600.000
196.29	281.250
196.66	278.947
197.04	-240.000
197.42	0.000
197.79	500.000
198.17	-3600.000
198.55	557.143
198.92	512.500
199.30	480.000
199.68	0.000
200.05	244.444
200.43	700.000
200.81	3100.000
201.18	1066.667
201.56	-1233.333
201.94	544.444
202.31	555.556
202.69	341.667
203.07	470.000
203.44	0.000
203.82	800.000
204.19	571.429
204.57	378.571
204.95	487.500
205.32	1366.667
205.70	381.818
206.08	264.286
206.45	1650.000
206.83	318.750
207.20	750.000
207.58	680.000
207.96	244.444
208.33	587.500
208.71	-783.333
209.08	600.000
209.46	466.667
209.84	381.818
210.21	-1000.000
210.59	1225.000
210.96	-312.500
211.34	1800.000
211.71	490.000
212.09	616.667
212.46	0.000
212.84	1433.333
213.22	1350.000
213.59	-2500.000
213.97	716.667
214.34	671.429
214.72	518.182
215.09	820.000
215.47	-2000.000
215.84	-1900.000
216.22	1466.667
216.59	328.571
216.97	1225.000
217.34	372.727
217.72	-666.667
218.09	0.000
218.47	-3600.000
218.84	444.444
219.22	585.714
219.59	1233.333
219.97	-500.000
220.34	840.000
220.72	-1400.000
221.09	335.714
221.47	1075.000
221.84	-933.333
222.22	0.000
222.59	1100.000
222.97	-2350.000
223.34	860.000
223.72	353.846
224.09	780.000
224.46	1450.000
224.84	-4200.000
225.21	-880.000
225.59	-4000.000
225.96	500.000
226.34	230.000
226.71	2150.000
227.08	562.500
227.46	430.000
227.83	-800.000
228.21	-1750.000
228.58	511.111
228.95	-1550.000
229.33	-2000.000
229.70	1266.667
230.08	528.571
230.45	-660.000
230.82	333.333
231.20	516.667
231.57	514.286
231.95	391.667
232.32	236.364
232.69	290.909
233.07	342.857
233.44	176.923
233.81	-1300.000
234.19	226.316
234.56	325.000
234.93	316.667
235.31	327.273
235.68	200.000
236.05	242.857
236.43	145.455
236.80	231.579
237.17	3100.000
237.55	104.762
237.92	167.857
238.29	138.095
238.67	132.258
239.04	165.517
239.41	108.333
239.79	82.609
240.16	119.048
240.53	88.636
240.91	70.588
241.28	70.000
241.65	66.000
242.02	78.261
242.40	62.903
242.77	75.000
243.14	47.312
243.51	58.427
243.89	50.588
244.26	40.000
244.63	43.011
245.00	46.809
245.38	34.653
245.75	34.579
246.12	33.945
246.49	45.255
246.87	52.000
247.24	41.538
247.61	34.286
247.98	30.065
248.36	25.000
248.73	29.299
249.10	31.847
249.47	26.554
249.84	32.620
250.22	29.412
250.59	27.811
250.96	31.818
251.33	32.701
251.70	26.733
252.08	27.619
252.45	24.215
252.82	27.826
253.19	23.404
253.56	23.922
253.94	25.311
254.31	21.484
254.68	23.462
255.05	19.188
255.42	23.984
255.79	22.059
256.16	23.827
256.54	20.848
256.91	19.929
257.28	17.266
257.65	20.132
258.02	22.050
258.39	19.874
258.76	21.739
259.14	19.048
259.51	17.933
259.88	20.186
260.25	18.429
260.62	21.098
260.99	18.944
261.36	20.721
261.73	18.625
262.10	16.860
262.47	17.746
262.85	17.827
263.22	14.530
263.59	20.228
263.96	18.132
264.33	15.144
264.70	17.632
265.07	18.926
265.44	17.929
265.81	16.302
266.18	18.342
266.55	15.854
266.92	17.690
267.29	19.213
267.66	18.119
268.03	17.955
268.40	18.925
268.77	11.695
269.14	17.117
269.51	18.059
269.88	19.347
270.25	14.673
270.62	17.079
270.99	17.634
271.36	16.953
271.73	14.953
272.10	16.304
272.47	17.419
272.84	17.965
273.21	18.868
273.58	13.100
273.95	13.208
274.32	14.876
274.69	16.274
275.06	14.764
275.43	17.447
275.80	15.631
276.17	14.460
276.54	14.761
276.91	14.427
277.28	14.453
277.65	16.441
278.02	14.907
278.39	16.602
278.76	15.636
279.13	14.906
279.50	15.270
279.87	15.139
280.23	14.371
280.60	12.959
280.97	13.678
281.34	17.522
281.71	16.364
282.08	14.587
282.45	14.182
282.82	13.499
283.19	12.834
283.56	15.439
283.92	14.552
284.29	14.991
284.66	13.975
285.03	11.031
285.40	14.789
285.77	14.646
286.14	13.817
286.51	11.833
286.87	13.333
287.24	15.472
287.61	14.607
287.98	13.799
288.35	11.410
288.72	14.798
289.08	12.363
289.45	12.191
289.82	13.659
290.19	10.832
290.56	12.404
290.93	11.934
291.29	11.196
291.66	13.422
292.03	13.663
292.40	14.831
292.77	11.982
293.13	12.836
293.50	11.224
293.87	11.704
294.24	10.074
294.60	11.208
294.97	12.355
295.34	13.822
295.71	11.932
296.08	10.684
296.44	11.554
296.81	11.229
297.18	11.518
297.55	9.499
297.91	9.894
298.28	12.316
298.65	11.488
299.02	10.804
299.38	9.960
299.75	9.434
300.12	9.451
300.48	11.000
300.85	9.494
301.22	9.554
301.59	10.732
301.95	10.705
302.32	9.499
302.69	10.514
303.05	10.182
303.42	11.235
303.79	10.079
304.15	10.373
304.52	9.270
304.89	9.292
305.25	10.441
305.62	10.419
305.99	10.862
306.35	8.949
306.72	10.426
307.09	9.545
307.45	10.923
307.82	9.710
308.19	9.713
308.55	9.924
308.92	9.452
309.29	9.504
309.65	9.968
310.02	11.099
310.38	10.753
310.75	9.609
311.12	11.259
311.48	10.136
311.85	11.845
312.22	9.990
312.58	9.356
312.95	9.926
313.31	9.612
313.68	10.187
314.05	12.525
314.41	12.060
314.78	11.279
315.14	9.930
315.51	12.152
315.87	12.178
316.24	11.122
316.61	10.916
316.97	11.057
317.34	11.155
317.70	12.524
318.07	13.186
318.43	12.720
318.80	13.121
319.16	12.241
319.53	13.133
319.89	14.095
320.26	14.000
320.62	13.095
320.99	14.242
321.35	14.545
321.72	15.400
322.08	15.499
322.45	16.318
322.81	16.473
323.18	16.378
323.54	16.141
323.91	17.642
324.27	17.495
324.64	17.801
325.00	18.485
325.37	19.381
325.73	20.108
326.10	19.859
326.46	18.728
326.83	21.743
327.19	20.581
327.56	20.209
327.92	20.997
328.29	22.360
328.65	22.652
329.01	23.014
329.38	23.219
329.74	23.361
330.11	23.940
330.47	24.059
330.84	25.368
331.20	24.317
331.56	25.780
331.93	23.889
332.29	25.288
332.66	26.018
333.02	26.874
333.38	27.010
333.75	28.164
334.11	28.470
334.48	26.708
334.84	28.401
335.20	28.909
335.57	27.924
335.93	27.143
336.29	27.930
336.66	29.125
337.02	29.321
337.38	29.537
337.75	28.342
338.11	28.738
338.47	28.821
338.84	30.247
339.20	28.440
339.56	30.474
339.93	28.909
340.29	30.163
340.65	29.412
341.02	30.017
341.38	29.537
341.74	29.386
342.11	29.258
342.47	30.485
342.83	29.623
343.20	29.784
343.56	28.728
343.92	29.474
344.28	29.847
344.65	29.665
345.01	29.209
345.37	28.045
345.73	29.949
346.10	29.668
346.46	28.814
346.82	30.231
347.19	28.404
347.55	28.736
347.91	30.178
348.27	28.677
348.63	28.595
349.00	27.670
349.36	28.407
349.72	29.751
350.08	29.254
350.45	29.373
350.81	28.188
351.17	28.525
351.53	28.174
351.89	28.630
352.26	28.571
352.62	28.869
352.98	29.011
353.34	29.088
353.70	27.578
354.07	27.742
354.43	27.778
354.79	28.640
355.15	27.614
355.51	28.297
355.87	29.306
356.24	28.257
356.60	27.025
356.96	28.319
357.32	27.964
357.68	27.559
358.04	27.316
358.40	27.633
358.77	27.543
359.13	25.809
359.49	27.216
359.85	26.032
360.21	26.715
360.57	28.171
360.93	27.769
361.29	27.286
361.66	27.477
362.02	28.209
362.38	27.376
362.74	27.381
363.10	26.943
363.46	27.219
363.82	27.438
364.18	26.652
364.54	27.712
364.90	27.408
365.26	27.353
365.62	27.757
365.98	26.954
366.35	25.788
366.71	26.103
367.07	26.730
367.43	26.052
367.79	27.052
368.15	26.940
368.51	26.381
368.87	26.124
369.23	26.701
369.59	27.516
369.95	25.809
370.31	26.211
370.67	27.681
371.03	27.865
371.39	26.458
371.75	27.059
372.11	26.102
372.47	27.346
372.83	27.089
373.19	26.156
373.55	26.534
373.91	26.951
374.27	25.430
374.63	25.600
374.99	26.483
375.35	24.773
375.71	25.840
376.07	26.337
376.42	24.759
376.78	26.640
377.14	25.305
377.50	25.894
377.86	25.864
378.22	26.106
378.58	24.875
378.94	24.764
379.30	26.081
379.66	26.142
380.02	25.921
380.38	25.987
380.74	25.330
381.09	25.733
381.45	25.691
381.81	26.044
382.17	25.478
382.53	25.472
382.89	26.049
383.25	25.453
383.61	26.394
383.97	25.266
384.32	25.078
384.68	24.783
385.04	24.892
385.40	25.077
385.76	26.044
386.12	25.648
386.48	25.110
386.83	25.337
387.19	25.727
387.55	24.985
387.91	24.667
388.27	24.464
388.62	25.384
388.98	24.079
389.34	25.156
389.70	24.954
390.06	25.919
390.42	25.227
390.77	24.682
391.13	24.442
391.49	24.937
391.85	25.016
392.20	23.975
392.56	23.737
392.92	24.720
393.28	23.728
393.64	24.820
393.99	24.007
394.35	25.310
394.71	24.718
395.07	24.548
395.42	25.216
395.78	24.109
396.14	24.519
396.50	25.627
396.85	25.111
397.21	23.921
397.57	24.861
397.92	24.099
398.28	23.038
398.64	23.895
399.00	24.622
399.35	24.253
399.71	24.769
400.07	24.128
400.42	23.804
400.78	24.849
401.14	24.329
401.49	24.955
401.85	24.077
402.21	23.353
402.57	23.874
402.92	24.338
403.28	25.609
403.63	24.443
403.99	24.331
404.35	23.879
404.70	24.041
405.06	23.762
405.42	23.706
405.77	22.743
406.13	23.871
406.49	23.950
406.84	23.804
407.20	22.872
407.55	23.484
407.91	24.333
408.27	23.867
408.62	23.359
408.98	23.529
409.34	23.739
409.69	24.000
410.05	24.164
410.40	23.731
410.76	24.432
411.11	23.160
411.47	23.834
411.83	23.641
412.18	22.140
412.54	23.848
412.89	23.434
413.25	23.672
413.60	23.471
413.96	22.708
414.31	22.904
414.67	24.208
415.03	23.444
415.38	23.969
415.74	23.087
416.09	23.579
416.45	23.829
416.80	24.256
417.16	25.000
417.51	24.486
417.87	22.929
418.22	23.533
418.58	24.209
418.93	23.526
419.29	24.125
419.64	25.000
420.00	25.183
420.35	23.710
420.71	23.610
421.06	24.224
421.42	23.626
421.77	23.262
422.12	22.740
422.48	22.936
422.83	24.869
423.19	23.425
423.54	23.738
423.90	24.464
424.25	24.288
424.61	23.214
424.96	24.548
425.31	23.976
425.67	22.697
426.02	23.886
426.38	25.458
426.73	23.288
427.09	23.283
427.44	23.519
427.79	23.577
428.15	23.988
428.50	23.815
428.85	24.136
429.21	23.744
429.56	23.173
429.92	24.308
430.27	23.088
430.62	23.093
430.98	23.664
431.33	24.381
431.68	23.927
432.04	24.068
432.39	24.043
432.74	25.194
433.10	23.543
433.45	23.790
433.80	24.169
434.16	24.199
434.51	23.947
434.86	24.515
435.22	24.792
435.57	24.985
435.92	23.874
436.28	24.792
436.63	25.166
436.98	24.957
437.34	25.343
437.69	25.788
438.04	24.958
438.39	24.776
438.75	24.637
439.10	25.084
439.45	24.675
439.81	25.680
440.16	25.127
440.51	25.308
440.86	25.304
441.22	25.640
441.57	25.849
441.92	25.589
442.27	25.673
442.63	24.961
442.98	26.423
443.33	25.272
443.68	26.278
444.03	25.622
444.39	25.511
444.74	26.136
445.09	27.008
445.44	26.517
445.79	26.522
446.15	25.940
446.50	26.764
446.85	26.259
447.20	27.282
447.55	26.968
447.91	26.862
448.26	27.379
448.61	26.851
448.96	27.298
449.31	27.840
449.66	27.800
450.02	27.075
450.37	27.664
450.72	27.862
451.07	27.971
451.42	26.444
451.77	28.362
452.12	27.309
452.47	28.296
452.83	27.914
453.18	27.995
453.53	27.767
453.88	28.825
454.23	28.512
454.58	27.983
454.93	29.180
455.28	27.431
455.63	28.459
455.98	29.881
456.34	29.523
456.69	29.743
457.04	28.669
457.39	29.164
457.74	29.019
458.09	29.155
458.44	29.932
458.79	29.284
459.14	29.571
459.49	28.838
459.84	28.476
460.19	29.287
460.54	29.630
460.89	29.292
461.24	29.994
461.59	31.261
461.94	29.162
462.29	29.970
462.64	28.973
462.99	29.148
463.34	31.133
463.69	29.268
464.04	30.319
464.39	30.261
464.74	29.649
465.09	30.519
465.44	28.864
465.79	29.642
466.14	29.776
466.49	29.366
466.84	30.064
467.19	30.718
467.54	30.687
467.89	30.192
468.24	29.901
468.59	31.013
468.94	30.849
469.29	31.555
469.64	32.195
469.99	31.461
470.34	30.845
470.68	31.034
471.03	31.224
471.38	32.036
471.73	31.912
472.08	32.303
472.43	30.716
472.78	31.402
473.13	32.285
473.48	31.211
473.83	32.439
474.17	30.492
474.52	30.583
474.87	30.881
475.22	32.501
475.57	30.951
475.92	31.174
476.27	30.609
476.61	31.274
476.96	32.106
477.31	30.717
477.66	31.565
478.01	31.312
478.36	31.888
478.70	31.308
479.05	32.481
479.40	32.037
479.75	31.622
480.10	31.412
480.45	31.652
480.79	31.916
481.14	31.605
481.49	32.178
481.84	32.053
482.19	31.895
482.53	31.743
482.88	32.015
483.23	31.402
483.58	32.029
483.92	32.193
484.27	31.503
484.62	31.509
484.97	31.652
485.31	31.849
485.66	30.334
486.01	29.993
486.36	30.132
486.70	31.149
487.05	31.191
487.40	31.282
487.75	31.024
488.09	31.908
488.44	31.388
488.79	32.839
489.13	32.238
489.48	32.178
489.83	32.369
490.17	33.626
490.52	32.462
490.87	32.791
491.22	32.651
491.56	32.027
491.91	33.039
492.26	32.430
492.60	32.304
492.95	32.881
493.30	32.617
493.64	33.364
493.99	32.869
494.34	33.673
494.68	33.333
495.03	33.412
495.37	33.504
495.72	33.333
496.07	33.921
496.41	32.655
496.76	33.509
497.11	33.093
497.45	33.954
497.80	33.973
498.14	32.802
498.49	34.927
498.84	34.612
499.18	34.048
499.53	33.713
499.87	33.877
500.22	33.961
500.56	34.466
500.91	33.606
501.26	33.665
501.60	34.551
501.95	34.555
502.29	35.380
502.64	35.009
502.98	34.596
503.33	33.912
503.67	34.153
504.02	34.238
504.36	33.318
504.71	34.685
505.06	34.217
505.40	34.225
505.75	34.812
506.09	34.742
506.44	34.780
506.78	34.730
507.13	35.487
507.47	35.152
507.82	34.802
508.16	35.056
508.51	35.616
508.85	35.253
509.19	35.714
509.54	34.541
509.88	34.776
510.23	34.910
510.57	35.707
510.92	34.852
511.26	35.560
511.61	35.685
511.95	34.708
512.30	35.737
512.64	35.411
512.98	35.477
513.33	35.814
513.67	35.432
514.02	34.903
514.36	36.974
514.70	36.303
515.05	35.248
515.39	36.343
515.74	36.543
516.08	36.557
516.42	36.293
516.77	36.678
517.11	34.850
517.46	36.287
517.80	36.527
518.14	35.495
518.49	37.048
518.83	36.477
519.17	36.028
519.52	36.786
519.86	35.824
520.20	37.514
520.55	38.600
520.89	37.774
521.23	38.118
521.58	36.855
521.92	38.885
522.26	37.218
522.61	38.442
522.95	37.815
523.29	37.492
523.64	36.707
523.98	38.201
524.32	36.912
524.66	36.981
525.01	37.684
525.35	37.237
525.69	36.207
526.04	37.632
526.38	37.340
526.72	37.239
527.06	39.234
527.41	36.324
527.75	37.299
528.09	37.636
528.43	38.368
528.78	38.537
529.12	37.152
529.46	38.396
529.80	38.119
530.15	38.131
530.49	37.785
530.83	38.291
531.17	38.446
531.51	39.300
531.86	39.161
532.20	38.787
532.54	38.693
532.88	38.190
533.22	37.976
533.57	38.642
533.91	37.086
534.25	38.153
534.59	38.194
534.93	38.370
535.27	37.658
535.62	38.523
535.96	38.858
536.30	38.652
536.64	38.699
536.98	38.222
537.32	38.973
537.66	39.333
538.01	39.302
538.35	38.914
538.69	39.056
539.03	37.882
539.37	38.530
539.71	38.043
540.05	39.281
540.39	39.734
540.73	38.810
541.07	39.325
541.42	39.987
541.76	39.613
542.10	39.004
542.44	39.801
542.78	40.250
543.12	38.836
543.46	39.672
543.80	39.167
544.14	39.345
544.48	40.127
544.82	40.026
545.16	40.143
545.50	39.846
545.84	39.046
546.18	39.865
546.52	40.537
546.86	39.794
547.20	40.391
547.54	39.546
547.88	39.605
548.22	39.788
548.56	39.371
548.90	38.348
549.24	39.596
549.58	40.450
549.92	39.148
550.26	40.057
550.60	40.249
550.94	39.648
551.28	39.283
551.62	39.684
551.96	38.877
552.30	40.614
552.64	39.824
552.98	41.763
553.32	39.582
553.66	41.104
554.00	40.014
554.34	38.716
554.68	40.701
555.02	39.915
555.36	39.875
555.69	39.648
556.03	40.511
556.37	40.518
556.71	39.700
557.05	40.266
557.39	39.958
557.73	41.426
558.07	41.334
558.41	40.666
558.75	40.265
559.08	40.716
559.42	41.345
559.76	40.735
560.10	39.971
560.44	40.391
560.78	39.854
561.12	40.369
561.45	40.548
561.79	39.684
562.13	40.376
562.47	40.437
562.81	41.702
563.15	40.535
563.48	40.451
563.82	41.161
564.16	39.438
564.50	40.104
564.84	40.076
565.17	40.798
565.51	41.086
565.85	39.594
566.19	39.324
566.52	40.595
566.86	40.627
567.20	41.097
567.54	40.925
567.88	40.359
568.21	41.217
568.55	39.889
568.89	39.494
569.23	39.750
569.56	38.421
569.90	39.094
570.24	39.003
570.57	38.966
570.91	37.912
571.25	38.666
571.59	38.498
571.92	39.026
572.26	38.821
572.60	38.378
572.93	38.651
573.27	38.598
573.61	38.135
573.95	39.044
574.28	37.814
574.62	38.581
574.96	37.778
575.29	37.852
575.63	38.338
575.97	38.141
576.30	38.449
576.64	38.110
576.98	38.576
577.31	38.771
577.65	38.893
577.98	37.977
578.32	37.947
578.66	38.805
578.99	38.325
579.33	38.247
579.67	39.066
580.00	37.977
580.34	39.179
580.67	38.312
581.01	38.318
581.35	37.963
581.68	38.497
582.02	38.517
582.35	38.535
582.69	38.943
583.02	39.109
583.36	39.175
583.70	40.335
584.03	39.107
584.37	39.736
584.70	38.793
585.04	38.796
585.37	38.327
585.71	38.816
586.04	38.826
586.38	39.472
586.72	40.182
587.05	39.228
587.39	39.288
587.72	39.397
588.06	39.861
588.39	39.726
588.73	39.630
589.06	40.386
589.40	40.875
589.73	40.056
590.07	40.320
590.40	39.496
590.73	40.867
591.07	41.311
591.40	41.291
591.74	41.602
592.07	41.623
592.41	41.133
592.74	40.637
593.08	40.306
593.41	40.525
593.75	39.756
594.08	40.597
594.41	40.474
594.75	40.850
595.08	40.336
595.42	40.665
595.75	41.204
596.09	42.058
596.42	42.083
596.75	41.368
597.09	41.948
597.42	39.840
597.75	41.613
598.09	41.522
598.42	41.065
598.76	40.900
599.09	40.593
599.42	39.847
599.76	40.593
600.09	40.000
600.42	40.175
600.76	40.107
601.09	39.271
601.42	40.830
601.76	40.493
602.09	41.858
602.42	41.521
602.76	41.798
603.09	41.109
603.42	41.429
603.76	41.159
604.09	41.024
604.42	41.867
604.76	41.965
605.09	41.547
605.42	40.658
605.75	41.639
606.09	41.521
606.42	41.479
606.75	41.435
607.09	42.026
607.42	41.463
607.75	40.886
608.08	41.294
608.42	41.954
608.75	41.885
609.08	41.304
609.41	42.218
609.75	42.068
610.08	41.894
610.41	41.341
610.74	42.763
611.07	42.688
611.41	42.689
611.74	43.137
612.07	43.427
612.40	43.179
612.73	42.684
613.07	43.211
613.40	42.970
613.73	42.318
614.06	43.333
614.39	42.475
614.72	42.526
615.06	42.437
615.39	43.047
615.72	41.616
616.05	42.424
616.38	43.135
616.71	44.418
617.05	44.052
617.38	43.957
617.71	43.243
618.04	43.690
618.37	43.820
618.70	44.244
619.03	43.684
619.36	44.128
619.69	44.930
620.03	44.849
620.36	44.652
620.69	44.384
621.02	44.617
621.35	44.871
621.68	44.315
622.01	45.124
622.34	44.478
622.67	46.160
623.00	44.021
623.33	43.817
623.66	44.460
623.99	45.140
624.32	43.723
624.65	44.209
624.99	44.051
625.32	44.605
625.65	44.853
625.98	45.734
626.31	44.635
626.64	45.551
626.97	45.303
627.30	44.057
627.63	46.267
627.96	46.257
628.29	44.619
628.62	46.844
628.95	48.113
629.28	45.803
629.61	47.846
629.94	47.905
630.26	45.949
630.59	47.760
630.92	46.456
631.25	44.916
631.58	46.947
631.91	46.045
