SpectraSuite Data File
++++++++++++++++++++++++++++++++++++
Date: Wed May 13 20:30:21 PDT 2015
User: schluterlab
Dark Spectrum Present: Yes
Reference Spectrum Present: Yes
Number of Sampled Component Spectra: 1
Spectrometers: USB2E3373
Integration Time (usec): 3000 (USB2E3373)
Spectra Averaged: 3 (USB2E3373)
Boxcar Smoothing: 0 (USB2E3373)
Correct for Electrical Dark: No (USB2E3373)
Strobe/Lamp Enabled: No (USB2E3373)
Correct for Detector Non-linearity: No (USB2E3373)
Correct for Stray Light: No (USB2E3373)
Number of Pixels in Processed Spectrum: 2048
>>>>>Begin Processed Spectral Data<<<<<
178.53	0.000
178.91	-975.000
179.29	-900.000
179.67	-166.667
180.04	-1100.000
180.42	1850.000
180.80	780.000
181.18	-600.000
181.56	485.714
181.94	0.000
182.31	-514.286
182.69	1266.667
183.07	-437.500
183.45	-433.333
183.83	463.636
184.20	-330.000
184.58	1850.000
184.96	3700.000
185.34	-640.000
185.72	-525.000
186.09	-1950.000
186.47	2150.000
186.85	2150.000
187.23	3600.000
187.61	-1400.000
187.98	1175.000
188.36	463.636
188.74	354.545
189.12	-500.000
189.49	420.000
189.87	-3600.000
190.25	-1025.000
190.63	350.000
191.00	323.077
191.38	450.000
191.76	-1000.000
192.14	1100.000
192.51	575.000
192.89	900.000
193.27	475.000
193.65	-900.000
194.02	380.000
194.40	840.000
194.78	390.000
195.15	383.333
195.53	560.000
195.91	-1500.000
196.29	287.500
196.66	289.474
197.04	-310.000
197.42	0.000
197.79	630.000
198.17	-3500.000
198.55	714.286
198.92	587.500
199.30	680.000
199.68	0.000
200.05	272.222
200.43	585.714
200.81	3000.000
201.18	1466.667
201.56	-1233.333
201.94	366.667
202.31	466.667
202.69	350.000
203.07	360.000
203.44	0.000
203.82	700.000
204.19	542.857
204.57	307.143
204.95	525.000
205.32	1066.667
205.70	300.000
206.08	257.143
206.45	2100.000
206.83	225.000
207.20	750.000
207.58	680.000
207.96	266.667
208.33	550.000
208.71	-566.667
209.08	685.714
209.46	477.778
209.84	381.818
210.21	-1433.333
210.59	1225.000
210.96	-575.000
211.34	1750.000
211.71	460.000
212.09	650.000
212.46	0.000
212.84	1500.000
213.22	1025.000
213.59	-3900.000
213.97	566.667
214.34	628.571
214.72	472.727
215.09	760.000
215.47	-1950.000
215.84	-2150.000
216.22	1333.333
216.59	314.286
216.97	1100.000
217.34	345.455
217.72	-600.000
218.09	0.000
218.47	-4100.000
218.84	577.778
219.22	642.857
219.59	1200.000
219.97	-514.286
220.34	840.000
220.72	-1266.667
221.09	335.714
221.47	1300.000
221.84	-683.333
222.22	0.000
222.59	1175.000
222.97	-2500.000
223.34	1020.000
223.72	415.385
224.09	1120.000
224.46	1550.000
224.84	-4500.000
225.21	-740.000
225.59	-4100.000
225.96	490.000
226.34	255.000
226.71	2350.000
227.08	512.500
227.46	330.000
227.83	-675.000
228.21	-1400.000
228.58	533.333
228.95	-1800.000
229.33	-2000.000
229.70	1266.667
230.08	814.286
230.45	-600.000
230.82	450.000
231.20	616.667
231.57	585.714
231.95	391.667
232.32	190.909
232.69	345.455
233.07	428.571
233.44	253.846
233.81	-1400.000
234.19	273.684
234.56	483.333
234.93	308.333
235.31	372.727
235.68	323.077
236.05	342.857
236.43	169.697
236.80	221.053
237.17	5000.000
237.55	238.095
237.92	185.714
238.29	247.619
238.67	164.516
239.04	241.379
239.41	166.667
239.79	128.261
240.16	154.762
240.53	140.909
240.91	143.137
241.28	132.000
241.65	128.000
242.02	127.536
242.40	125.806
242.77	115.000
243.14	82.796
243.51	89.888
243.89	97.647
244.26	104.444
244.63	100.000
245.00	90.426
245.38	91.089
245.75	88.785
246.12	80.734
246.49	82.482
246.87	97.600
247.24	94.615
247.61	92.857
247.98	73.203
248.36	77.703
248.73	82.803
249.10	81.529
249.47	79.096
249.84	76.471
250.22	70.053
250.59	81.065
250.96	73.737
251.33	77.251
251.70	73.267
252.08	70.000
252.45	69.955
252.82	68.696
253.19	75.745
253.56	69.412
253.94	74.274
254.31	69.141
254.68	76.923
255.05	69.742
255.42	72.764
255.79	72.794
256.16	72.202
256.54	65.371
256.91	69.395
257.28	68.705
257.65	68.317
258.02	65.217
258.39	65.615
258.76	72.910
259.14	67.262
259.51	64.742
259.88	65.839
260.25	69.184
260.62	63.873
260.99	70.807
261.36	66.667
261.73	65.330
262.10	65.407
262.47	66.761
262.85	66.852
263.22	62.108
263.59	67.806
263.96	66.209
264.33	63.708
264.70	67.105
265.07	63.427
265.44	63.384
265.81	63.017
266.18	66.834
266.55	65.366
266.92	64.619
267.29	63.657
267.66	62.385
268.03	63.182
268.40	64.720
268.77	64.200
269.14	61.712
269.51	62.980
269.88	65.734
270.25	61.851
270.62	63.371
270.99	61.720
271.36	61.373
271.73	64.486
272.10	62.391
272.47	63.226
272.84	62.338
273.21	61.635
273.58	62.445
273.95	61.216
274.32	58.678
274.69	61.670
275.06	60.433
275.43	61.277
275.80	61.323
276.17	58.656
276.54	60.707
276.91	59.881
277.28	59.570
277.65	60.542
278.02	62.526
278.39	60.156
278.76	58.727
279.13	57.736
279.50	60.335
279.87	59.761
280.23	60.080
280.60	61.702
280.97	58.780
281.34	57.345
281.71	57.455
282.08	60.653
282.45	57.818
282.82	57.194
283.19	54.902
283.56	58.246
283.92	57.022
284.29	56.966
284.66	59.347
285.03	58.409
285.40	57.218
285.77	58.249
286.14	54.404
286.51	55.500
286.87	57.778
287.24	56.026
287.61	55.698
287.98	56.169
288.35	53.407
288.72	54.050
289.08	53.365
289.45	53.213
289.82	53.333
290.19	52.276
290.56	53.292
290.93	51.964
291.29	51.687
291.66	50.000
292.03	51.599
292.40	51.395
292.77	49.112
293.13	49.851
293.50	49.854
293.87	47.259
294.24	50.370
294.60	46.870
294.97	47.529
295.34	47.955
295.71	47.301
296.08	46.011
296.44	45.254
296.81	45.971
297.18	46.748
297.55	43.668
297.91	43.799
298.28	45.783
298.65	45.431
299.02	44.796
299.38	43.028
299.75	41.779
300.12	44.189
300.48	42.375
300.85	42.910
301.22	43.822
301.59	41.540
301.95	42.443
302.32	41.977
302.69	42.891
303.05	43.030
303.42	40.741
303.79	41.336
304.15	39.394
304.52	40.788
304.89	40.534
305.25	40.371
305.62	40.091
305.99	40.732
306.35	39.709
306.72	41.143
307.09	41.065
307.45	41.441
307.82	38.728
308.19	39.514
308.55	40.669
308.92	38.883
309.29	38.332
309.65	37.222
310.02	40.698
310.38	39.247
310.75	39.388
311.12	39.611
311.48	38.245
311.85	39.937
312.22	38.814
312.58	36.486
312.95	38.648
313.31	34.951
313.68	37.838
314.05	39.349
314.41	38.492
314.78	38.268
315.14	38.431
315.51	37.590
315.87	37.525
316.24	36.246
316.61	38.694
316.97	36.008
317.34	38.160
317.70	37.572
318.07	37.247
318.43	38.356
318.80	37.113
319.16	37.665
319.53	36.210
319.89	36.190
320.26	37.300
320.62	37.401
320.99	37.273
321.35	36.566
321.72	36.037
322.08	37.710
322.45	37.015
322.81	37.209
323.18	36.224
323.54	35.807
323.91	36.038
324.27	36.520
324.64	36.253
325.00	35.888
325.37	37.307
325.73	36.176
326.10	35.393
326.46	33.961
326.83	37.360
327.19	35.611
327.56	36.324
327.92	35.608
328.29	35.759
328.65	35.267
329.01	36.462
329.38	36.078
329.74	35.826
330.11	35.061
330.47	35.537
330.84	36.029
331.20	34.517
331.56	34.954
331.93	36.574
332.29	33.984
332.66	35.575
333.02	35.558
333.38	35.140
333.75	35.561
334.11	34.431
334.48	33.274
334.84	34.743
335.20	34.182
335.57	33.545
335.93	34.196
336.29	34.524
336.66	35.167
337.02	33.756
337.38	35.185
337.75	33.512
338.11	33.751
338.47	34.715
338.84	34.739
339.20	33.945
339.56	35.219
339.93	34.000
340.29	33.605
340.65	33.244
341.02	34.642
341.38	34.075
341.74	34.123
342.11	34.410
342.47	34.361
342.83	34.332
343.20	32.900
343.56	33.109
343.92	32.807
344.28	33.163
344.65	34.222
345.01	31.987
345.37	31.990
345.73	33.418
346.10	33.163
346.46	33.051
346.82	32.372
347.19	32.080
347.55	32.184
347.91	33.010
348.27	32.375
348.63	33.027
349.00	31.796
349.36	33.251
349.72	33.039
350.08	31.605
350.45	33.442
350.81	32.575
351.17	32.172
351.53	32.269
351.89	31.848
352.26	31.492
352.62	32.318
352.98	32.253
353.34	32.539
353.70	30.033
354.07	32.419
354.43	31.508
354.79	30.571
355.15	32.083
355.51	32.054
355.87	31.102
356.24	31.433
356.60	31.195
356.96	31.456
357.32	31.071
357.68	31.969
358.04	31.354
358.40	30.800
358.77	30.125
359.13	29.597
359.49	30.745
359.85	29.921
360.21	30.861
360.57	31.984
360.93	31.538
361.29	30.763
361.66	30.805
362.02	30.896
362.38	30.418
362.74	30.580
363.10	29.830
363.46	31.255
363.82	29.856
364.18	29.736
364.54	30.609
364.90	30.099
365.26	30.294
365.62	30.898
365.98	30.679
366.35	30.874
366.71	30.007
367.07	30.299
367.43	30.406
367.79	31.049
368.15	30.819
368.51	29.215
368.87	30.121
369.23	29.261
369.59	31.137
369.95	29.632
370.31	30.271
370.67	28.986
371.03	31.011
371.39	31.195
371.75	29.485
372.11	29.445
372.47	30.132
372.83	30.548
373.19	29.841
373.55	29.860
373.91	30.486
374.27	28.866
374.63	29.382
374.99	29.590
375.35	27.983
375.71	29.267
376.07	29.698
376.42	29.023
376.78	29.092
377.14	29.240
377.50	28.742
377.86	27.793
378.22	29.393
378.58	28.070
378.94	28.347
379.30	28.308
379.66	29.124
380.02	28.440
380.38	27.808
380.74	29.172
381.09	28.056
381.45	28.519
381.81	28.624
382.17	29.554
382.53	28.931
382.89	28.519
383.25	28.268
383.61	28.686
383.97	28.768
384.32	28.821
384.68	27.447
385.04	27.720
385.40	27.864
385.76	27.826
386.12	27.267
386.48	29.201
386.83	28.544
387.19	28.942
387.55	27.582
387.91	27.570
388.27	28.204
388.62	28.089
388.98	28.563
389.34	28.098
389.70	27.836
390.06	27.947
390.42	27.691
390.77	27.672
391.13	28.079
391.49	27.665
391.85	27.116
392.20	26.751
392.56	26.957
392.92	27.428
393.28	27.456
393.64	26.918
393.99	27.795
394.35	27.109
394.71	27.039
395.07	27.165
395.42	28.492
395.78	26.718
396.14	27.436
396.50	27.882
396.85	27.781
397.21	27.004
397.57	26.348
397.92	27.043
398.28	26.738
398.64	27.658
399.00	27.420
399.35	27.016
399.71	27.373
400.07	26.730
400.42	27.117
400.78	26.538
401.14	26.341
401.49	27.463
401.85	26.860
402.21	25.808
402.57	26.712
402.92	27.175
403.28	27.545
403.63	26.485
403.99	26.497
404.35	26.727
404.70	27.098
405.06	26.733
405.42	26.388
405.77	25.543
406.13	26.072
406.49	26.966
406.84	27.348
407.20	26.300
407.55	26.101
407.91	26.933
408.27	26.803
408.62	25.647
408.98	26.471
409.34	26.199
409.69	27.935
410.05	26.394
410.40	27.217
410.76	25.986
411.11	26.960
411.47	25.942
411.83	27.795
412.18	26.778
412.54	26.961
412.89	26.566
413.25	25.856
413.60	27.363
413.96	25.744
414.31	25.881
414.67	27.123
415.03	26.954
415.38	26.804
415.74	26.431
416.09	26.388
416.45	25.971
416.80	25.975
417.16	26.005
417.51	27.074
417.87	26.268
418.22	25.868
418.58	27.179
418.93	26.474
419.29	26.480
419.64	26.259
420.00	27.195
420.35	26.319
420.71	25.941
421.06	25.776
421.42	26.082
421.77	25.729
422.12	25.940
422.48	25.256
422.83	26.791
423.19	26.188
423.54	25.653
423.90	25.681
424.25	26.577
424.61	25.000
424.96	25.889
425.31	26.578
425.67	25.955
426.02	25.771
426.38	26.679
426.73	24.517
427.09	26.079
427.44	24.899
427.79	25.072
428.15	25.833
428.50	25.922
428.85	25.745
429.21	25.235
429.56	26.128
429.92	25.617
430.27	26.117
430.62	25.192
430.98	25.272
431.33	24.742
431.68	25.707
432.04	25.293
432.39	25.357
432.74	24.656
433.10	25.523
433.45	25.889
433.80	25.499
434.16	25.641
434.51	25.789
434.86	25.770
435.22	25.514
435.57	25.836
435.92	25.219
436.28	26.690
436.63	25.938
436.98	25.529
437.34	25.880
437.69	25.904
438.04	24.452
438.39	25.134
438.75	25.334
439.10	25.978
439.45	25.207
439.81	25.740
440.16	25.635
440.51	25.776
440.86	25.651
441.22	25.083
441.57	24.894
441.92	25.230
442.27	25.404
442.63	24.750
442.98	26.197
443.33	25.272
443.68	24.987
444.03	25.671
444.39	25.024
444.74	25.703
445.09	25.445
445.44	24.768
445.79	25.383
446.15	25.093
446.50	25.310
446.85	26.002
447.20	24.783
447.55	25.237
447.91	25.317
448.26	25.431
448.61	24.760
448.96	25.028
449.31	24.634
449.66	24.761
450.02	25.348
450.37	24.887
450.72	24.929
451.07	24.863
451.42	24.438
451.77	26.013
452.12	25.289
452.47	25.498
452.83	24.592
453.18	24.328
453.53	24.428
453.88	24.867
454.23	25.284
454.58	24.955
454.93	25.620
455.28	24.377
455.63	25.121
455.98	25.655
456.34	25.000
456.69	25.297
457.04	23.839
457.39	25.015
457.74	24.550
458.09	25.072
458.44	24.401
458.79	24.892
459.14	26.242
459.49	24.518
459.84	24.875
460.19	24.573
460.54	24.421
460.89	25.288
461.24	25.440
461.59	25.683
461.94	25.154
462.29	24.392
462.64	24.761
462.99	24.268
463.34	25.667
463.69	25.328
464.04	25.565
464.39	25.275
464.74	24.718
465.09	25.573
465.44	24.100
465.79	24.105
466.14	24.631
466.49	24.249
466.84	24.694
467.19	23.174
467.54	24.563
467.89	24.010
468.24	24.142
468.59	25.641
468.94	24.618
469.29	24.229
469.64	25.569
469.99	24.831
470.34	24.571
470.68	25.144
471.03	23.741
471.38	25.226
471.73	24.117
472.08	25.329
472.43	23.178
472.78	24.226
473.13	25.032
473.48	24.969
473.83	24.878
474.17	23.771
474.52	24.194
474.87	24.810
475.22	24.608
475.57	23.106
475.92	23.951
476.27	23.619
476.61	24.600
476.96	23.859
477.31	23.600
477.66	24.179
478.01	23.419
478.36	24.907
478.70	23.261
479.05	23.269
479.40	23.746
479.75	23.284
480.10	24.205
480.45	23.941
480.79	23.985
481.14	23.581
481.49	23.541
481.84	23.777
482.19	23.944
482.53	22.982
482.88	23.267
483.23	24.252
483.58	23.840
483.92	23.618
484.27	21.917
484.62	23.319
484.97	23.413
485.31	23.801
485.66	23.574
486.01	24.060
486.36	23.687
486.70	23.518
487.05	23.387
487.40	23.059
487.75	23.083
488.09	23.324
488.44	22.015
488.79	23.363
489.13	22.765
489.48	22.308
489.83	22.313
490.17	23.016
490.52	22.143
490.87	22.343
491.22	21.965
491.56	22.415
491.91	22.662
492.26	22.738
492.60	22.581
492.95	22.170
493.30	22.710
493.64	23.192
493.99	22.656
494.34	22.155
494.68	23.214
495.03	22.838
495.37	22.848
495.72	22.466
496.07	22.135
496.41	21.991
496.76	22.647
497.11	22.422
497.45	22.869
497.80	22.121
498.14	22.319
498.49	22.780
498.84	23.106
499.18	22.095
499.53	22.412
499.87	23.392
500.22	22.186
500.56	23.010
500.91	22.067
501.26	22.760
501.60	23.019
501.95	22.181
502.29	22.680
502.64	23.138
502.98	22.908
503.33	22.349
503.67	21.624
504.02	22.030
504.36	21.993
504.71	22.423
505.06	22.940
505.40	22.314
505.75	22.131
506.09	22.449
506.44	22.595
506.78	21.919
507.13	21.959
507.47	22.273
507.82	22.492
508.16	22.036
508.51	21.918
508.85	21.599
509.19	21.735
509.54	21.990
509.88	22.050
510.23	21.697
510.57	22.652
510.92	22.631
511.26	22.354
511.61	22.303
511.95	22.025
512.30	22.322
512.64	21.924
512.98	21.972
513.33	22.591
513.67	21.878
514.02	20.779
514.36	21.901
514.70	21.970
515.05	21.584
515.39	21.873
515.74	22.128
516.08	21.912
516.42	21.532
516.77	22.464
517.11	21.143
517.46	22.460
517.80	22.590
518.14	20.324
518.49	20.945
518.83	21.420
519.17	21.651
519.52	20.996
519.86	21.677
520.20	23.179
520.55	21.185
520.89	22.141
521.23	21.713
521.58	20.288
521.92	21.923
522.26	20.561
522.61	21.433
522.95	20.933
523.29	21.546
523.64	21.280
523.98	21.503
524.32	21.351
524.66	21.648
525.01	21.936
525.35	21.685
525.69	20.998
526.04	20.872
526.38	20.988
526.72	21.656
527.06	21.030
527.41	19.864
527.75	20.707
528.09	21.323
528.43	21.415
528.78	21.942
529.12	20.727
529.46	21.739
529.80	22.030
530.15	21.620
530.49	21.046
530.83	21.519
531.17	21.867
531.51	22.374
531.86	20.323
532.20	22.686
532.54	21.332
532.88	22.529
533.22	21.799
533.57	22.654
533.91	21.493
534.25	21.446
534.59	22.148
534.93	20.821
535.27	21.605
535.62	21.734
535.96	22.034
536.30	21.043
536.64	22.151
536.98	21.035
537.32	20.342
537.66	22.200
538.01	22.712
538.35	21.332
538.69	22.655
539.03	21.767
539.37	21.406
539.71	20.933
540.05	22.157
540.39	21.927
540.73	20.310
541.07	22.972
541.42	22.440
541.76	22.194
542.10	22.316
542.44	21.656
542.78	22.134
543.12	20.857
543.46	21.508
543.80	21.405
544.14	21.694
544.48	21.714
544.82	21.103
545.16	21.666
545.50	21.787
545.84	21.505
546.18	21.751
546.52	22.092
546.86	21.581
547.20	22.994
547.54	21.844
547.88	21.811
548.22	22.478
548.56	22.390
548.90	21.639
549.24	21.481
549.58	22.237
549.92	21.978
550.26	20.597
550.60	20.678
550.94	21.338
551.28	20.702
551.62	22.142
551.96	20.982
552.30	22.389
552.64	22.312
552.98	22.237
553.32	22.050
553.66	22.290
554.00	22.443
554.34	20.290
554.68	22.818
555.02	20.663
555.36	21.364
555.69	21.245
556.03	20.794
556.37	22.306
556.71	21.078
557.05	21.218
557.39	21.344
557.73	21.313
558.07	22.045
558.41	21.780
558.75	21.602
559.08	21.700
559.42	21.391
559.76	20.956
560.10	21.485
560.44	22.642
560.78	21.357
561.12	21.240
561.45	22.164
561.79	22.017
562.13	22.066
562.47	21.038
562.81	21.548
563.15	21.472
563.48	22.149
563.82	21.592
564.16	21.452
564.50	22.331
564.84	22.440
565.17	22.201
565.51	22.236
565.85	20.812
566.19	21.165
566.52	22.483
566.86	21.579
567.20	22.877
567.54	21.918
567.88	22.488
568.21	21.799
568.55	22.144
568.89	22.617
569.23	22.727
569.56	22.470
569.90	22.679
570.24	22.856
570.57	23.121
570.91	22.818
571.25	22.699
571.59	23.034
571.92	22.926
572.26	22.790
572.60	22.853
572.93	22.369
573.27	22.626
573.61	22.920
573.95	22.972
574.28	22.739
574.62	22.983
574.96	22.796
575.29	22.478
575.63	22.942
575.97	22.520
576.30	22.703
576.64	22.770
576.98	22.849
577.31	22.897
577.65	22.932
577.98	23.321
578.32	23.114
578.66	22.935
578.99	22.940
579.33	22.682
579.67	22.379
580.00	22.704
580.34	23.090
580.67	22.713
581.01	22.644
581.35	22.786
581.68	23.191
582.02	22.984
582.35	23.074
582.69	23.233
583.02	23.227
583.36	22.919
583.70	22.677
584.03	22.335
584.37	22.714
584.70	22.701
585.04	22.750
585.37	22.787
585.71	23.026
586.04	22.662
586.38	23.119
586.72	23.198
587.05	22.684
587.39	22.639
587.72	22.752
588.06	22.866
588.39	23.320
588.73	22.734
589.06	22.343
589.40	23.131
589.73	22.105
590.07	22.776
590.40	22.689
590.73	22.678
591.07	22.222
591.40	22.733
591.74	23.636
592.07	22.949
592.41	22.571
592.74	22.996
593.08	23.584
593.41	23.252
593.75	23.079
594.08	22.695
594.41	22.729
594.75	22.514
595.08	22.870
595.42	22.767
595.75	22.721
596.09	23.357
596.42	23.104
596.75	22.626
597.09	23.506
597.42	21.754
597.75	22.251
598.09	22.304
598.42	21.907
598.76	22.497
599.09	22.653
599.42	22.598
599.76	23.389
600.09	23.133
600.42	22.973
600.76	22.679
601.09	22.550
601.42	22.641
601.76	22.770
602.09	22.095
602.42	24.084
602.76	22.733
603.09	22.935
603.42	23.194
603.76	22.790
604.09	22.102
604.42	22.748
604.76	23.323
605.09	22.543
605.42	22.659
605.75	22.641
606.09	23.099
606.42	23.130
606.75	22.563
607.09	22.562
607.42	22.935
607.75	22.363
608.08	22.579
608.42	22.546
608.75	21.912
609.08	22.525
609.41	22.180
609.75	22.201
610.08	22.526
610.41	22.114
610.74	22.469
611.07	22.036
611.41	22.522
611.74	22.675
612.07	23.033
612.40	23.137
612.73	22.000
613.07	22.791
613.40	22.012
613.73	21.867
614.06	22.151
614.39	22.234
614.72	22.579
615.06	22.899
615.39	22.028
615.72	22.802
616.05	22.435
616.38	22.235
616.71	23.694
617.05	22.261
617.38	22.910
617.71	22.883
618.04	22.476
618.37	22.354
618.70	22.589
619.03	23.289
619.36	21.792
619.69	22.535
620.03	22.734
620.36	23.730
620.69	22.534
621.02	23.083
621.35	20.908
621.68	22.040
622.01	21.672
622.34	22.693
622.67	21.901
623.00	21.937
623.33	22.302
623.66	22.659
623.99	21.649
624.32	22.254
624.65	22.316
624.99	21.813
625.32	21.651
625.65	21.938
625.98	22.137
626.31	21.384
626.64	22.286
626.97	21.363
627.30	21.945
627.63	21.739
627.96	21.699
628.29	20.822
628.62	23.239
628.95	21.981
629.28	21.259
629.61	23.281
629.94	22.000
630.26	22.307
630.59	20.686
630.92	21.552
