SpectraSuite Data File
++++++++++++++++++++++++++++++++++++
Date: Wed May 13 20:30:18 PDT 2015
User: schluterlab
Dark Spectrum Present: Yes
Reference Spectrum Present: Yes
Number of Sampled Component Spectra: 1
Spectrometers: USB2E3373
Integration Time (usec): 3000 (USB2E3373)
Spectra Averaged: 3 (USB2E3373)
Boxcar Smoothing: 0 (USB2E3373)
Correct for Electrical Dark: No (USB2E3373)
Strobe/Lamp Enabled: No (USB2E3373)
Correct for Detector Non-linearity: No (USB2E3373)
Correct for Stray Light: No (USB2E3373)
Number of Pixels in Processed Spectrum: 2048
>>>>>Begin Processed Spectral Data<<<<<
178.53	0.000
178.91	-875.000
179.29	-1000.000
179.67	-227.778
180.04	-950.000
180.42	2500.000
180.80	580.000
181.18	-900.000
181.56	514.286
181.94	0.000
182.31	-642.857
182.69	1200.000
183.07	-425.000
183.45	-344.444
183.83	345.455
184.20	-280.000
184.58	1900.000
184.96	5200.000
185.34	-540.000
185.72	-450.000
186.09	-2000.000
186.47	2250.000
186.85	1950.000
187.23	4200.000
187.61	-1266.667
187.98	950.000
188.36	409.091
188.74	490.909
189.12	-940.000
189.49	450.000
189.87	-4300.000
190.25	-1250.000
190.63	328.571
191.00	315.385
191.38	733.333
191.76	-850.000
192.14	1200.000
192.51	487.500
192.89	833.333
193.27	437.500
193.65	-1050.000
194.02	440.000
194.40	680.000
194.78	470.000
195.15	450.000
195.53	600.000
195.91	-1600.000
196.29	262.500
196.66	294.737
197.04	-150.000
197.42	0.000
197.79	500.000
198.17	-3600.000
198.55	557.143
198.92	662.500
199.30	960.000
199.68	0.000
200.05	355.556
200.43	657.143
200.81	2800.000
201.18	1100.000
201.56	-1033.333
201.94	422.222
202.31	522.222
202.69	325.000
203.07	500.000
203.44	0.000
203.82	875.000
204.19	642.857
204.57	342.857
204.95	537.500
205.32	1066.667
205.70	363.636
206.08	300.000
206.45	2400.000
206.83	300.000
207.20	766.667
207.58	600.000
207.96	272.222
208.33	550.000
208.71	-650.000
209.08	800.000
209.46	566.667
209.84	363.636
210.21	-1200.000
210.59	1325.000
210.96	-425.000
211.34	1950.000
211.71	470.000
212.09	650.000
212.46	0.000
212.84	1033.333
213.22	1150.000
213.59	-3000.000
213.97	750.000
214.34	628.571
214.72	427.273
215.09	760.000
215.47	-1800.000
215.84	-1900.000
216.22	1266.667
216.59	292.857
216.97	1100.000
217.34	327.273
217.72	-666.667
218.09	0.000
218.47	-3700.000
218.84	488.889
219.22	600.000
219.59	1233.333
219.97	-357.143
220.34	720.000
220.72	-1633.333
221.09	335.714
221.47	1250.000
221.84	-616.667
222.22	0.000
222.59	1225.000
222.97	-1900.000
223.34	1020.000
223.72	353.846
224.09	860.000
224.46	1500.000
224.84	-3700.000
225.21	-780.000
225.59	-4300.000
225.96	450.000
226.34	210.000
226.71	1950.000
227.08	512.500
227.46	420.000
227.83	-775.000
228.21	-2150.000
228.58	555.556
228.95	-2100.000
229.33	-1900.000
229.70	1166.667
230.08	714.286
230.45	-560.000
230.82	325.000
231.20	700.000
231.57	471.429
231.95	366.667
232.32	231.818
232.69	381.818
233.07	614.286
233.44	307.692
233.81	-1300.000
234.19	278.947
234.56	433.333
234.93	300.000
235.31	381.818
235.68	246.154
236.05	350.000
236.43	124.242
236.80	252.632
237.17	3400.000
237.55	200.000
237.92	178.571
238.29	228.571
238.67	122.581
239.04	175.862
239.41	147.222
239.79	119.565
240.16	119.048
240.53	120.455
240.91	94.118
241.28	94.000
241.65	100.000
242.02	101.449
242.40	75.806
242.77	100.000
243.14	70.968
243.51	78.652
243.89	84.706
244.26	80.000
244.63	69.892
245.00	65.957
245.38	72.277
245.75	66.355
246.12	61.468
246.49	65.693
246.87	73.600
247.24	66.923
247.61	65.714
247.98	62.092
248.36	55.405
248.73	60.510
249.10	57.962
249.47	57.062
249.84	57.219
250.22	50.267
250.59	59.763
250.96	52.020
251.33	51.659
251.70	59.406
252.08	53.333
252.45	47.085
252.82	54.783
253.19	51.064
253.56	49.412
253.94	45.643
254.31	50.391
254.68	55.000
255.05	48.708
255.42	45.935
255.79	48.897
256.16	44.043
256.54	45.230
256.91	48.043
257.28	43.885
257.65	51.815
258.02	46.894
258.39	47.319
258.76	40.803
259.14	49.702
259.51	44.377
259.88	43.478
260.25	45.921
260.62	44.509
260.99	45.963
261.36	48.649
261.73	42.407
262.10	46.512
262.47	46.479
262.85	42.340
263.22	39.601
263.59	42.735
263.96	43.407
264.33	40.731
264.70	43.684
265.07	41.944
265.44	45.455
265.81	40.389
266.18	44.221
266.55	42.439
266.92	44.963
267.29	43.287
267.66	41.972
268.03	42.955
268.40	41.589
268.77	37.709
269.14	40.766
269.51	41.309
269.88	43.590
270.25	41.535
270.62	40.899
270.99	39.785
271.36	42.060
271.73	40.187
272.10	41.522
272.47	44.086
272.84	43.074
273.21	41.090
273.58	40.175
273.95	39.413
274.32	39.876
274.69	43.469
275.06	38.780
275.43	41.489
275.80	40.681
276.17	40.122
276.54	38.046
276.91	40.514
277.28	40.430
277.65	39.072
278.02	38.716
278.39	39.648
278.76	38.545
279.13	39.623
279.50	39.665
279.87	38.048
280.23	38.323
280.60	40.426
280.97	38.262
281.34	37.699
281.71	36.909
282.08	38.196
282.45	40.182
282.82	38.721
283.19	36.720
283.56	37.719
283.92	39.086
284.29	38.272
284.66	37.024
285.03	36.890
285.40	38.028
285.77	36.027
286.14	36.788
286.51	36.000
286.87	38.291
287.24	36.808
287.61	35.955
287.98	34.903
288.35	33.914
288.72	34.268
289.08	34.429
289.45	35.750
289.82	34.959
290.19	34.223
290.56	33.844
290.93	30.967
291.29	33.896
291.66	34.808
292.03	34.012
292.40	33.186
292.77	31.805
293.13	31.045
293.50	34.257
293.87	32.889
294.24	30.963
294.60	30.277
294.97	31.250
295.34	31.735
295.71	32.670
296.08	29.060
296.44	30.812
296.81	29.987
297.18	31.843
297.55	27.968
297.91	28.364
298.28	29.050
298.65	27.676
299.02	29.644
299.38	28.420
299.75	26.280
300.12	25.670
300.48	27.625
300.85	28.977
301.22	28.280
301.59	27.020
301.95	27.456
302.32	26.444
302.69	27.479
303.05	27.515
303.42	26.296
303.79	26.954
304.15	26.457
304.52	26.419
304.89	25.319
305.25	26.102
305.62	27.180
305.99	27.391
306.35	27.629
306.72	25.112
307.09	26.748
307.45	28.378
307.82	24.888
308.19	25.828
308.55	26.753
308.92	25.242
309.29	25.132
309.65	26.087
310.02	25.899
310.38	24.624
310.75	25.343
311.12	23.746
311.48	26.019
311.85	26.939
312.22	24.558
312.58	24.116
312.95	25.766
313.31	24.175
313.68	26.611
314.05	25.345
314.41	25.528
314.78	24.773
315.14	23.535
315.51	25.026
315.87	25.545
316.24	24.230
316.61	22.807
316.97	24.168
317.34	24.266
317.70	24.474
318.07	24.735
318.43	23.288
318.80	23.805
319.16	23.446
319.53	22.702
319.89	24.286
320.26	23.600
320.62	24.405
320.99	23.333
321.35	24.747
321.72	24.846
322.08	24.778
322.45	24.677
322.81	24.322
323.18	25.048
323.54	23.748
323.91	24.906
324.27	24.092
324.64	23.858
325.00	23.715
325.37	25.387
325.73	24.776
326.10	23.831
326.46	24.373
326.83	25.194
327.19	24.167
327.56	23.868
327.92	25.197
328.29	25.200
328.65	25.599
329.01	23.556
329.38	24.237
329.74	24.469
330.11	24.317
330.47	24.702
330.84	25.735
331.20	24.681
331.56	24.037
331.93	23.981
332.29	22.804
332.66	23.717
333.02	24.223
333.38	25.294
333.75	25.134
334.11	24.733
334.48	23.602
334.84	25.092
335.20	24.364
335.57	23.209
335.93	22.857
336.29	24.542
336.66	23.895
337.02	23.167
337.38	24.815
337.75	22.638
338.11	24.351
338.47	23.204
338.84	24.015
339.20	22.385
339.56	24.635
339.93	22.909
340.29	22.011
340.65	23.262
341.02	24.607
341.38	23.577
341.74	22.193
342.11	24.192
342.47	24.141
342.83	23.630
343.20	23.030
343.56	23.083
343.92	22.719
344.28	22.619
344.65	23.474
345.01	21.801
345.37	21.955
345.73	23.435
346.10	23.103
346.46	23.305
346.82	21.829
347.19	21.303
347.55	22.906
347.91	23.058
348.27	23.090
348.63	23.411
349.00	22.573
349.36	22.250
349.72	23.095
350.08	22.934
350.45	23.434
350.81	22.340
351.17	20.989
351.53	21.376
351.89	21.700
352.26	23.204
352.62	22.935
352.98	22.447
353.34	21.939
353.70	21.931
354.07	23.145
354.43	21.984
354.79	21.480
355.15	21.947
355.51	22.542
355.87	22.939
356.24	22.313
356.60	21.893
356.96	22.124
357.32	21.341
357.68	22.835
358.04	21.298
358.40	22.169
358.77	21.987
359.13	22.021
359.49	21.725
359.85	20.635
360.21	20.973
360.57	21.634
360.93	21.538
361.29	20.408
361.66	20.743
362.02	20.746
362.38	21.521
362.74	20.908
363.10	20.133
363.46	21.277
363.82	20.862
364.18	20.778
364.54	22.140
364.90	21.742
365.26	20.662
365.62	20.964
365.98	20.161
366.35	20.057
366.71	21.114
367.07	21.486
367.43	21.408
367.79	20.557
368.15	21.336
368.51	21.584
368.87	20.628
369.23	21.287
369.59	21.579
369.95	19.044
370.31	20.370
370.67	20.290
371.03	20.824
371.39	19.898
371.75	20.956
372.11	20.341
372.47	20.894
372.83	20.821
373.19	20.665
373.55	20.621
373.91	22.312
374.27	19.725
374.63	19.709
374.99	20.621
375.35	19.958
375.71	20.288
376.07	20.165
376.42	21.527
376.78	20.345
377.14	19.878
377.50	20.530
377.86	19.880
378.22	19.912
378.58	18.985
378.94	19.233
379.30	19.020
379.66	19.416
380.02	19.902
380.38	19.490
380.74	20.108
381.09	19.010
381.45	20.467
381.81	20.393
382.17	19.873
382.53	19.874
382.89	20.062
383.25	19.450
383.61	19.579
383.97	19.887
384.32	20.025
384.68	19.393
385.04	19.484
385.40	19.443
385.76	18.059
386.12	19.041
386.48	19.257
386.83	19.179
387.19	20.408
387.55	19.171
387.91	19.287
388.27	18.761
388.62	19.299
388.98	18.857
389.34	20.526
389.70	19.988
390.06	19.899
390.42	19.844
390.77	19.784
391.13	18.698
391.49	19.543
391.85	18.651
392.20	18.801
392.56	18.497
392.92	18.952
393.28	18.402
393.64	19.125
393.99	19.487
394.35	19.045
394.71	19.699
395.07	18.255
395.42	19.530
395.78	19.975
396.14	19.367
396.50	19.612
396.85	19.771
397.21	18.742
397.57	19.033
397.92	19.050
398.28	18.386
398.64	19.474
399.00	18.858
399.35	18.161
399.71	18.808
400.07	19.338
400.42	18.896
400.78	18.577
401.14	17.927
401.49	19.104
401.85	18.512
402.21	18.623
402.57	18.014
402.92	19.231
403.28	19.425
403.63	18.874
403.99	18.025
404.35	18.788
404.70	19.245
405.06	18.404
405.42	19.339
405.77	17.200
406.13	19.131
406.49	18.569
406.84	18.488
407.20	18.322
407.55	19.145
407.91	19.067
408.27	18.698
408.62	18.543
408.98	18.444
409.34	18.635
409.69	18.903
410.05	18.897
410.40	18.410
410.76	18.399
411.11	18.758
411.47	18.530
411.83	17.776
412.18	17.811
412.54	19.054
412.89	18.373
413.25	18.182
413.60	18.592
413.96	17.972
414.31	18.834
414.67	18.948
415.03	18.609
415.38	19.330
415.74	18.585
416.09	19.530
416.45	18.474
416.80	19.299
417.16	19.236
417.51	19.443
417.87	18.690
418.22	18.107
418.58	19.626
418.93	18.489
419.29	18.905
419.64	19.395
420.00	19.024
420.35	19.130
420.71	19.187
421.06	18.079
421.42	18.304
421.77	18.330
422.12	18.641
422.48	17.917
422.83	18.521
423.19	18.785
423.54	18.224
423.90	18.667
424.25	19.430
424.61	18.631
424.96	18.134
425.31	17.996
425.67	17.640
426.02	18.286
426.38	18.864
426.73	18.256
427.09	18.055
427.44	18.861
427.79	18.056
428.15	18.631
428.50	18.081
428.85	18.474
429.21	18.940
429.56	17.574
429.92	18.269
430.27	18.222
430.62	17.665
430.98	18.630
431.33	17.835
431.68	18.901
432.04	17.519
432.39	17.761
432.74	18.133
433.10	18.619
433.45	17.668
433.80	17.627
434.16	18.910
434.51	18.737
434.86	18.415
435.22	17.899
435.57	17.629
435.92	18.256
436.28	18.683
436.63	18.543
436.98	18.775
437.34	19.261
437.69	19.137
438.04	18.156
438.39	19.642
438.75	19.872
439.10	18.156
439.45	18.713
439.81	18.550
440.16	18.012
440.51	18.571
440.86	18.645
441.22	18.020
441.57	18.684
441.92	18.782
442.27	18.407
442.63	17.904
442.98	18.930
443.33	18.533
443.68	18.224
444.03	18.399
444.39	17.673
444.74	18.128
445.09	18.275
445.44	18.043
445.79	17.862
446.15	18.846
446.50	18.309
446.85	18.397
447.20	18.052
447.55	18.593
447.91	18.423
448.26	18.531
448.61	19.107
448.96	18.715
449.31	18.054
449.66	18.683
450.02	18.384
450.37	18.311
450.72	18.613
451.07	17.733
451.42	17.994
451.77	19.143
452.12	17.610
452.47	18.532
452.83	18.240
453.18	18.460
453.53	19.048
453.88	18.074
454.23	18.231
454.58	18.898
454.93	18.754
455.28	17.706
455.63	19.053
455.98	20.119
456.34	18.342
456.69	18.159
457.04	18.824
457.39	18.819
457.74	18.224
458.09	18.631
458.44	18.985
458.79	18.059
459.14	18.736
459.49	18.155
459.84	18.393
460.19	18.680
460.54	18.576
460.89	19.144
461.24	19.247
461.59	20.046
461.94	18.434
462.29	19.110
462.64	18.060
462.99	18.738
463.34	19.800
463.69	18.637
464.04	18.783
464.39	18.899
464.74	18.063
465.09	18.878
465.44	17.950
465.79	18.456
466.14	18.391
466.49	17.853
466.84	18.330
467.19	19.252
467.54	19.188
467.89	18.788
468.24	18.906
468.59	18.681
468.94	17.654
469.29	19.473
469.64	20.080
469.99	18.945
470.34	17.966
470.68	18.606
471.03	18.163
471.38	18.833
471.73	18.454
472.08	19.276
472.43	18.530
472.78	18.565
473.13	18.228
473.48	17.978
473.83	19.207
474.17	18.233
474.52	19.107
474.87	18.681
475.22	19.153
475.57	18.216
475.92	18.322
476.27	18.546
476.61	18.533
476.96	17.867
477.31	18.106
477.66	17.724
478.01	18.453
478.36	18.932
478.70	18.017
479.05	18.850
479.40	18.321
479.75	18.200
480.10	17.893
480.45	17.896
480.79	17.869
481.14	17.857
481.49	18.367
481.84	18.107
482.19	18.219
482.53	17.982
482.88	17.869
483.23	17.991
483.58	18.244
483.92	17.573
484.27	17.037
484.62	17.543
484.97	17.935
485.31	17.500
485.66	17.380
486.01	16.746
486.36	16.871
486.70	16.856
487.05	16.734
487.40	16.956
487.75	17.388
488.09	17.137
488.44	16.444
488.79	17.288
489.13	17.456
489.48	17.292
489.83	17.350
490.17	17.536
490.52	17.803
490.87	18.001
491.22	17.690
491.56	17.221
491.91	17.543
492.26	18.190
492.60	17.604
492.95	17.399
493.30	17.664
493.64	17.172
493.99	17.734
494.34	18.039
494.68	18.086
495.03	18.515
495.37	17.310
495.72	18.031
496.07	18.144
496.41	17.832
496.76	17.986
497.11	17.380
497.45	17.327
497.80	17.706
498.14	17.536
498.49	17.317
498.84	17.737
499.18	17.143
499.53	18.139
499.87	17.661
500.22	17.805
500.56	18.641
500.91	17.740
501.26	18.018
501.60	18.462
501.95	17.644
502.29	18.041
502.64	18.343
502.98	17.625
503.33	17.779
503.67	18.051
504.02	18.428
504.36	17.688
504.71	18.271
505.06	18.410
505.40	17.793
505.75	17.502
506.09	17.201
506.44	17.908
506.78	17.828
507.13	18.021
507.47	18.030
507.82	18.288
508.16	17.832
508.51	18.519
508.85	18.421
509.19	17.755
509.54	18.112
509.88	17.826
510.23	17.943
510.57	19.350
510.92	18.591
511.26	18.088
511.61	18.672
511.95	17.589
512.30	18.293
512.64	17.786
512.98	19.078
513.33	18.255
513.67	17.823
514.02	16.937
514.36	18.241
514.70	18.373
515.05	18.070
515.39	17.499
515.74	17.905
516.08	18.390
516.42	18.757
516.77	18.339
517.11	18.202
517.46	17.946
517.80	19.048
518.14	17.313
518.49	18.261
518.83	18.523
519.17	17.956
519.52	18.506
519.86	18.483
520.20	18.844
520.55	19.090
520.89	18.735
521.23	17.853
521.58	18.247
521.92	19.167
522.26	17.389
522.61	17.819
522.95	18.355
523.29	17.772
523.64	17.927
523.98	18.854
524.32	17.793
524.66	18.521
525.01	18.137
525.35	18.463
525.69	18.350
526.04	19.128
526.38	18.670
526.72	18.037
527.06	18.456
527.41	17.327
527.75	18.778
528.09	18.690
528.43	18.738
528.78	19.299
529.12	18.727
529.46	19.228
529.80	17.946
530.15	19.315
530.49	18.646
530.83	19.684
531.17	19.909
531.51	19.844
531.86	19.097
532.20	19.100
532.54	19.475
532.88	20.090
533.22	18.613
533.57	18.765
533.91	18.964
534.25	18.773
534.59	18.670
534.93	18.501
535.27	18.648
535.62	18.681
535.96	18.456
536.30	18.182
536.64	18.545
536.98	19.907
537.32	18.697
537.66	18.800
538.01	18.631
538.35	19.005
538.69	19.272
539.03	18.324
539.37	19.105
539.71	17.304
540.05	19.412
540.39	18.405
540.73	17.982
541.07	20.117
541.42	18.461
541.76	18.903
542.10	19.211
542.44	18.940
542.78	19.433
543.12	18.362
543.46	18.951
543.80	19.453
544.14	18.742
544.48	18.730
544.82	18.858
545.16	18.933
545.50	18.573
545.84	18.548
546.18	19.259
546.52	19.821
546.86	19.381
547.20	19.690
547.54	19.105
547.88	19.324
548.22	18.804
548.56	18.805
548.90	18.566
549.24	17.912
549.58	18.145
549.92	18.750
550.26	18.892
550.60	17.981
550.94	18.310
551.28	18.873
551.62	19.554
551.96	19.158
552.30	19.590
552.64	19.743
552.98	19.186
553.32	19.353
553.66	19.359
554.00	19.561
554.34	19.255
554.68	19.957
555.02	19.252
555.36	19.485
555.69	18.945
556.03	19.044
556.37	19.372
556.71	18.554
557.05	18.417
557.39	19.244
557.73	18.772
558.07	19.579
558.41	18.017
558.75	19.177
559.08	18.046
559.42	19.048
559.76	19.191
560.10	19.486
560.44	18.588
560.78	19.162
561.12	18.997
561.45	19.687
561.79	18.523
562.13	18.913
562.47	19.467
562.81	18.898
563.15	18.997
563.48	18.634
563.82	19.113
564.16	18.705
564.50	18.424
564.84	18.394
565.17	18.211
565.51	19.105
565.85	19.099
566.19	17.721
566.52	19.253
566.86	19.168
567.20	18.868
567.54	18.721
567.88	18.360
568.21	19.101
568.55	18.857
568.89	18.482
569.23	18.004
569.56	18.947
569.90	18.528
570.24	18.120
570.57	17.681
570.91	17.582
571.25	18.005
571.59	17.437
571.92	17.627
572.26	17.707
572.60	17.748
572.93	17.241
573.27	17.657
573.61	17.616
573.95	17.623
574.28	17.764
574.62	17.274
574.96	16.965
575.29	17.192
575.63	17.200
575.97	17.443
576.30	17.339
576.64	16.679
576.98	17.185
577.31	17.375
577.65	17.633
577.98	17.310
578.32	17.017
578.66	17.296
578.99	17.005
579.33	17.187
579.67	16.444
580.00	16.639
580.34	17.133
580.67	17.065
581.01	17.225
581.35	17.509
581.68	17.463
582.02	17.107
582.35	17.161
582.69	17.396
583.02	17.179
583.36	17.293
583.70	17.233
584.03	17.163
584.37	17.365
584.70	17.476
585.04	17.392
585.37	17.404
585.71	17.716
586.04	17.444
586.38	17.659
586.72	17.978
587.05	17.142
587.39	17.203
587.72	17.495
588.06	17.263
588.39	17.695
588.73	17.835
589.06	17.763
589.40	17.508
589.73	17.705
590.07	17.402
590.40	17.866
590.73	18.228
591.07	17.908
591.40	17.588
591.74	18.874
592.07	17.845
592.41	17.652
592.74	17.491
593.08	17.955
593.41	18.127
593.75	17.270
594.08	17.499
594.41	17.992
594.75	17.412
595.08	17.609
595.42	18.109
595.75	18.305
596.09	18.363
596.42	18.507
596.75	18.067
597.09	17.879
597.42	17.454
597.75	18.284
598.09	18.478
598.42	17.912
598.76	17.835
599.09	17.446
599.42	17.067
599.76	18.119
600.09	17.996
600.42	17.495
600.76	17.429
601.09	17.486
601.42	18.037
601.76	17.837
602.09	17.945
602.42	17.994
602.76	17.856
603.09	18.096
603.42	18.626
603.76	17.835
604.09	17.332
604.42	18.223
604.76	18.515
605.09	17.912
605.42	17.443
605.75	17.757
606.09	17.568
606.42	17.654
606.75	17.752
607.09	18.292
607.42	18.143
607.75	17.722
608.08	17.803
608.42	17.840
608.75	17.674
609.08	17.761
609.41	18.563
609.75	18.723
610.08	19.039
610.41	18.156
610.74	17.975
611.07	17.935
611.41	17.910
611.74	19.206
612.07	18.685
612.40	19.150
612.73	18.263
613.07	18.912
613.40	19.115
613.73	18.196
614.06	18.065
614.39	17.724
614.72	18.421
615.06	18.382
615.39	18.259
615.72	17.740
616.05	17.544
616.38	18.566
616.71	19.062
617.05	19.022
617.38	18.400
617.71	18.438
618.04	18.510
618.37	18.510
618.70	19.166
619.03	18.553
619.36	19.009
619.69	19.366
620.03	19.712
620.36	18.650
620.69	19.658
621.02	19.543
621.35	19.107
621.68	18.536
622.01	19.427
622.34	18.835
622.67	20.304
623.00	18.929
623.33	18.871
623.66	19.871
623.99	19.661
624.32	18.688
624.65	19.280
624.99	18.555
625.32	18.248
625.65	18.783
625.98	19.216
626.31	19.440
626.64	18.776
626.97	18.786
627.30	18.869
627.63	19.360
627.96	20.017
628.29	19.598
628.62	19.122
628.95	21.415
629.28	19.526
629.61	21.357
629.94	19.524
630.26	19.447
630.59	18.398
630.92	19.923
631.25	19.941
