SpectraSuite Data File
++++++++++++++++++++++++++++++++++++
Date: Wed May 13 20:30:59 PDT 2015
User: schluterlab
Dark Spectrum Present: Yes
Reference Spectrum Present: Yes
Number of Sampled Component Spectra: 1
Spectrometers: USB2E3373
Integration Time (usec): 3000 (USB2E3373)
Spectra Averaged: 3 (USB2E3373)
Boxcar Smoothing: 0 (USB2E3373)
Correct for Electrical Dark: No (USB2E3373)
Strobe/Lamp Enabled: No (USB2E3373)
Correct for Detector Non-linearity: No (USB2E3373)
Correct for Stray Light: No (USB2E3373)
Number of Pixels in Processed Spectrum: 2048
>>>>>Begin Processed Spectral Data<<<<<
178.53	0.000
178.91	-1050.000
179.29	-900.000
179.67	-183.333
180.04	-1025.000
180.42	2250.000
180.80	660.000
181.18	-975.000
181.56	457.143
181.94	0.000
182.31	-400.000
182.69	1333.333
183.07	-412.500
183.45	-400.000
183.83	381.818
184.20	-230.000
184.58	1500.000
184.96	4200.000
185.34	-560.000
185.72	-575.000
186.09	-1500.000
186.47	1800.000
186.85	1400.000
187.23	4100.000
187.61	-1400.000
187.98	1075.000
188.36	490.909
188.74	445.455
189.12	-820.000
189.49	470.000
189.87	-3400.000
190.25	-825.000
190.63	364.286
191.00	346.154
191.38	483.333
191.76	-875.000
192.14	1075.000
192.51	550.000
192.89	800.000
193.27	400.000
193.65	-775.000
194.02	350.000
194.40	700.000
194.78	470.000
195.15	408.333
195.53	480.000
195.91	-1500.000
196.29	287.500
196.66	257.895
197.04	-310.000
197.42	0.000
197.79	490.000
198.17	-3900.000
198.55	500.000
198.92	512.500
199.30	640.000
199.68	0.000
200.05	227.778
200.43	700.000
200.81	2300.000
201.18	1233.333
201.56	-1300.000
201.94	422.222
202.31	511.111
202.69	266.667
203.07	350.000
203.44	0.000
203.82	975.000
204.19	600.000
204.57	400.000
204.95	500.000
205.32	1033.333
205.70	327.273
206.08	300.000
206.45	1700.000
206.83	300.000
207.20	600.000
207.58	460.000
207.96	305.556
208.33	662.500
208.71	-533.333
209.08	528.571
209.46	511.111
209.84	381.818
210.21	-966.667
210.59	1025.000
210.96	-262.500
211.34	1650.000
211.71	500.000
212.09	650.000
212.46	0.000
212.84	1100.000
213.22	1250.000
213.59	-3300.000
213.97	550.000
214.34	600.000
214.72	436.364
215.09	880.000
215.47	-1750.000
215.84	-2000.000
216.22	1300.000
216.59	300.000
216.97	1000.000
217.34	336.364
217.72	-600.000
218.09	0.000
218.47	-3300.000
218.84	522.222
219.22	600.000
219.59	1266.667
219.97	-571.429
220.34	700.000
220.72	-1400.000
221.09	307.143
221.47	1350.000
221.84	-750.000
222.22	0.000
222.59	1100.000
222.97	-1800.000
223.34	680.000
223.72	315.385
224.09	780.000
224.46	1850.000
224.84	-3000.000
225.21	-780.000
225.59	-4100.000
225.96	500.000
226.34	250.000
226.71	2050.000
227.08	587.500
227.46	450.000
227.83	-800.000
228.21	-2400.000
228.58	433.333
228.95	-1600.000
229.33	-1750.000
229.70	1233.333
230.08	771.429
230.45	-740.000
230.82	291.667
231.20	783.333
231.57	500.000
231.95	358.333
232.32	204.545
232.69	372.727
233.07	542.857
233.44	300.000
233.81	-1300.000
234.19	221.053
234.56	308.333
234.93	316.667
235.31	300.000
235.68	307.692
236.05	242.857
236.43	148.485
236.80	194.737
237.17	4000.000
237.55	152.381
237.92	178.571
238.29	176.190
238.67	141.935
239.04	186.207
239.41	127.778
239.79	106.522
240.16	114.286
240.53	102.273
240.91	98.039
241.28	92.000
241.65	68.000
242.02	66.667
242.40	80.645
242.77	75.000
243.14	66.667
243.51	67.416
243.89	63.529
244.26	48.889
244.63	54.839
245.00	52.128
245.38	53.465
245.75	46.729
246.12	55.046
246.49	55.474
246.87	48.000
247.24	59.231
247.61	41.429
247.98	43.137
248.36	40.541
248.73	38.217
249.10	41.401
249.47	40.678
249.84	48.128
250.22	32.620
250.59	33.136
250.96	39.899
251.33	40.284
251.70	36.139
252.08	30.952
252.45	33.632
252.82	36.957
253.19	37.021
253.56	33.333
253.94	35.270
254.31	34.766
254.68	37.692
255.05	31.734
255.42	34.146
255.79	31.618
256.16	32.852
256.54	31.802
256.91	33.096
257.28	27.338
257.65	32.013
258.02	29.193
258.39	30.599
258.76	29.097
259.14	31.548
259.51	29.179
259.88	27.640
260.25	32.326
260.62	28.613
260.99	26.708
261.36	31.231
261.73	29.799
262.10	28.198
262.47	28.169
262.85	31.476
263.22	27.635
263.59	30.199
263.96	29.396
264.33	28.721
264.70	31.842
265.07	29.156
265.44	26.515
265.81	26.764
266.18	27.638
266.55	29.512
266.92	27.273
267.29	26.852
267.66	27.294
268.03	29.318
268.40	26.402
268.77	24.344
269.14	27.027
269.51	27.314
269.88	24.942
270.25	28.894
270.62	24.494
270.99	29.032
271.36	26.180
271.73	24.065
272.10	24.783
272.47	27.312
272.84	24.675
273.21	25.367
273.58	25.109
273.95	24.528
274.32	24.380
274.69	25.910
275.06	24.409
275.43	25.106
275.80	25.651
276.17	25.662
276.54	24.324
276.91	24.308
277.28	23.438
277.65	23.791
278.02	23.395
278.39	28.320
278.76	22.909
279.13	27.736
279.50	25.326
279.87	27.490
280.23	24.750
280.60	23.017
280.97	23.845
281.34	23.717
281.71	24.000
282.08	23.225
282.45	24.364
282.82	22.913
283.19	22.282
283.56	23.158
283.92	23.519
284.29	22.928
284.66	23.775
285.03	23.327
285.40	22.535
285.77	22.727
286.14	21.416
286.51	22.500
286.87	22.393
287.24	23.779
287.61	21.830
287.98	22.403
288.35	20.444
288.72	21.963
289.08	22.535
289.45	21.911
289.82	22.927
290.19	19.466
290.56	22.358
290.93	18.882
291.29	20.092
291.66	19.912
292.03	21.512
292.40	21.439
292.77	20.414
293.13	20.149
293.50	20.845
293.87	19.111
294.24	19.852
294.60	18.486
294.97	18.750
295.34	19.323
295.71	19.034
296.08	17.949
296.44	18.569
296.81	17.437
297.18	18.835
297.55	16.623
297.91	17.810
298.28	18.876
298.65	18.538
299.02	18.314
299.38	17.397
299.75	15.903
300.12	16.986
300.48	16.375
300.85	16.400
301.22	17.197
301.59	16.540
301.95	17.884
302.32	17.330
302.69	18.160
303.05	17.697
303.42	16.543
303.79	17.327
304.15	16.317
304.52	15.991
304.89	16.841
305.25	15.429
305.62	17.327
305.99	17.119
306.35	16.667
306.72	18.386
307.09	15.871
307.45	18.356
307.82	15.848
308.19	15.894
308.55	16.936
308.92	16.756
309.29	15.417
309.65	16.861
310.02	15.751
310.38	16.559
310.75	16.684
311.12	16.684
311.48	16.614
311.85	16.457
312.22	15.713
312.58	15.593
312.95	16.684
313.31	16.214
313.68	17.256
314.05	18.836
314.41	18.291
314.78	18.328
315.14	16.882
315.51	17.611
315.87	16.535
316.24	17.676
316.61	17.544
316.97	18.102
317.34	17.710
317.70	18.834
318.07	19.153
318.43	19.863
318.80	19.588
319.16	19.303
319.53	19.231
319.89	21.810
320.26	20.700
320.62	22.024
320.99	21.717
321.35	21.717
321.72	22.587
322.08	23.001
322.45	22.985
322.81	24.419
323.18	23.314
323.54	25.232
323.91	25.000
324.27	25.430
324.64	24.790
325.00	26.060
325.37	27.753
325.73	28.546
326.10	28.332
326.46	26.882
326.83	29.163
327.19	29.035
327.56	30.139
327.92	28.871
328.29	31.056
328.65	31.215
329.01	31.227
329.38	30.805
329.74	32.041
330.11	32.045
330.47	33.609
330.84	34.191
331.20	32.878
331.56	32.018
331.93	32.963
332.29	32.919
332.66	33.982
333.02	33.912
333.38	34.237
333.75	34.314
334.11	34.342
334.48	34.516
334.84	34.835
335.20	35.909
335.57	35.358
335.93	34.643
336.29	34.341
336.66	35.708
337.02	34.570
337.38	36.389
337.75	34.759
338.11	35.989
338.47	35.635
338.84	36.297
339.20	34.495
339.56	37.591
339.93	36.364
340.29	36.685
340.65	35.829
341.02	36.213
341.38	36.477
341.74	35.789
342.11	37.205
342.47	37.269
342.83	35.616
343.20	36.537
343.56	35.889
343.92	38.596
344.28	36.480
344.65	37.919
345.01	36.195
345.37	36.535
345.73	36.802
346.10	37.425
346.46	37.542
346.82	37.644
347.19	39.181
347.55	36.043
347.91	37.783
348.27	37.880
348.63	37.625
349.00	37.460
349.36	37.192
349.72	39.214
350.08	38.250
350.45	39.300
350.81	39.886
351.17	39.789
351.53	40.704
351.89	38.861
352.26	39.463
352.62	39.535
352.98	38.736
353.34	39.523
353.70	39.280
354.07	39.274
354.43	37.540
354.79	40.145
355.15	41.022
355.51	41.327
355.87	40.653
356.24	39.821
356.60	39.695
356.96	41.754
357.32	40.720
357.68	41.732
358.04	40.618
358.40	41.013
358.77	41.941
359.13	41.279
359.49	41.569
359.85	41.032
360.21	42.823
360.57	43.191
360.93	43.385
361.29	42.706
361.66	43.498
362.02	43.284
362.38	42.433
362.74	42.857
363.10	43.079
363.46	44.094
363.82	42.555
364.18	43.245
364.54	44.577
364.90	44.759
365.26	45.074
365.62	45.142
365.98	44.485
366.35	45.272
366.71	44.830
367.07	45.666
367.43	46.444
367.79	45.610
368.15	48.204
368.51	44.767
368.87	45.539
369.23	46.745
369.59	47.357
369.95	46.985
370.31	46.581
370.67	46.957
371.03	46.816
371.39	47.157
371.75	48.750
372.11	45.519
372.47	49.413
372.83	49.063
373.19	48.121
373.55	49.963
373.91	50.515
374.27	48.935
374.63	47.564
374.99	49.011
375.35	49.407
375.71	48.321
376.07	49.726
376.42	48.693
376.78	49.967
377.14	49.118
377.50	51.258
377.86	50.000
378.22	49.494
378.58	49.812
378.94	50.094
379.30	50.891
379.66	50.888
380.02	51.290
380.38	51.002
380.74	51.140
381.09	50.550
381.45	52.243
381.81	51.536
382.17	51.783
382.53	53.019
382.89	52.099
383.25	52.158
383.61	52.788
383.97	51.970
384.32	51.466
384.68	51.549
385.04	52.735
385.40	52.136
385.76	52.273
386.12	51.943
386.48	53.115
386.83	53.688
387.19	54.731
387.55	52.876
387.91	53.990
388.27	52.667
388.62	52.551
388.98	52.334
389.34	53.379
389.70	53.280
390.06	53.232
390.42	52.853
390.77	52.608
391.13	54.435
391.49	52.284
391.85	52.769
392.20	52.681
392.56	54.040
392.92	53.620
393.28	53.491
393.64	53.297
393.99	53.207
394.35	52.730
394.71	52.886
395.07	52.212
395.42	52.967
395.78	52.863
396.14	52.886
396.50	53.070
396.85	52.638
397.21	51.726
397.57	52.883
397.92	53.065
398.28	52.522
398.64	52.091
399.00	52.658
399.35	52.735
399.71	52.662
400.07	52.632
400.42	51.227
400.78	52.714
401.14	52.744
401.49	52.716
401.85	53.479
402.21	51.677
402.57	52.437
402.92	52.144
403.28	52.217
403.63	52.537
403.99	51.592
404.35	51.879
404.70	51.859
405.06	51.660
405.42	52.963
405.77	51.200
406.13	51.354
406.49	51.508
406.84	50.856
407.20	50.118
407.55	50.479
407.91	52.533
408.27	50.989
408.62	51.355
408.98	51.716
409.34	51.415
409.69	51.935
410.05	51.549
410.40	50.031
410.76	50.717
411.11	49.457
411.47	50.799
411.83	50.886
412.18	50.711
412.54	51.930
412.89	50.241
413.25	51.417
413.60	51.081
413.96	49.787
414.31	50.608
414.67	50.697
415.03	50.927
415.38	50.193
415.74	51.447
416.09	51.404
416.45	51.339
416.80	50.892
417.16	52.279
417.51	50.365
417.87	49.197
418.22	51.924
418.58	51.388
418.93	51.413
419.29	51.623
419.64	51.574
420.00	51.402
420.35	50.435
420.71	51.046
421.06	49.940
421.42	50.643
421.77	49.496
422.12	50.421
422.48	50.081
422.83	51.019
423.19	50.497
423.54	51.306
423.90	51.188
424.25	51.256
424.61	50.119
424.96	51.195
425.31	49.723
425.67	50.056
426.02	49.943
426.38	52.686
426.73	51.609
427.09	50.942
427.44	50.259
427.79	50.201
428.15	50.774
428.50	50.965
428.85	50.834
429.21	50.248
429.56	50.285
429.92	50.931
430.27	49.652
430.62	50.538
430.98	51.790
431.33	50.876
431.68	51.518
432.04	49.681
432.39	52.541
432.74	50.449
433.10	51.217
433.45	51.195
433.80	51.220
434.16	51.923
434.51	50.684
434.86	50.855
435.22	50.973
435.57	51.550
435.92	51.902
436.28	51.246
436.63	51.380
436.98	51.231
437.34	52.594
437.69	51.284
438.04	51.490
438.39	52.000
438.75	52.121
439.10	51.285
439.45	51.889
439.81	50.816
440.16	50.480
440.51	51.025
440.86	51.303
441.22	51.669
441.57	50.637
441.92	50.768
442.27	51.830
442.63	51.185
442.98	51.155
443.33	50.489
443.68	51.368
444.03	50.512
444.39	50.243
444.74	50.866
445.09	50.889
445.44	50.738
445.79	49.579
446.15	49.921
446.50	50.188
446.85	50.103
447.20	49.873
447.55	50.698
447.91	50.745
448.26	50.195
448.61	49.124
448.96	50.498
449.31	50.281
449.66	49.465
450.02	49.805
450.37	49.546
450.72	50.818
451.07	49.604
451.42	47.903
451.77	50.088
452.12	49.134
452.47	49.502
452.83	49.883
453.18	49.878
453.53	49.784
453.88	48.966
454.23	48.416
454.58	49.788
454.93	49.841
455.28	49.127
455.63	49.029
455.98	50.238
456.34	49.309
456.69	49.092
457.04	47.988
457.39	47.808
457.74	49.391
458.09	48.534
458.44	48.575
458.79	47.505
459.14	48.758
459.49	48.803
459.84	47.922
460.19	48.026
460.54	46.991
460.89	48.382
461.24	49.120
461.59	48.809
461.94	48.027
462.29	47.656
462.64	46.586
462.99	46.975
463.34	47.600
463.69	46.717
464.04	47.420
464.39	46.957
464.74	46.762
465.09	46.441
465.44	46.759
465.79	46.365
466.14	46.962
466.49	45.217
466.84	46.585
467.19	44.599
467.54	45.250
467.89	45.018
468.24	45.608
468.59	45.910
468.94	44.227
469.29	46.979
469.64	46.787
469.99	45.737
470.34	45.310
470.68	44.397
471.03	44.354
471.38	45.865
471.73	44.437
472.08	44.934
472.43	43.719
472.78	44.108
473.13	44.352
473.48	44.694
473.83	45.244
474.17	44.431
474.52	45.409
474.87	44.250
475.22	43.587
475.57	42.880
475.92	43.016
476.27	43.799
476.61	42.306
476.96	43.430
477.31	42.491
477.66	43.435
478.01	42.081
478.36	42.570
478.70	42.471
479.05	42.492
479.40	42.375
479.75	42.095
480.10	42.744
480.45	41.171
480.79	40.994
481.14	41.928
481.49	42.145
481.84	41.472
482.19	41.890
482.53	40.092
482.88	41.601
483.23	40.841
483.58	40.901
483.92	40.300
484.27	39.259
484.62	39.828
484.97	39.220
485.31	39.315
485.66	38.397
486.01	38.744
486.36	38.334
486.70	38.452
487.05	38.385
487.40	38.100
487.75	37.130
488.09	37.944
488.44	37.325
488.79	38.192
489.13	38.197
489.48	38.581
489.83	37.764
490.17	38.667
490.52	37.378
490.87	37.630
491.22	38.563
491.56	36.765
491.91	37.506
492.26	36.932
492.60	36.820
492.95	37.184
493.30	37.056
493.64	37.844
493.99	36.862
494.34	37.095
494.68	37.408
495.03	37.406
495.37	35.598
495.72	37.622
496.07	36.984
496.41	36.195
496.76	36.104
497.11	35.615
497.45	36.842
497.80	35.845
498.14	36.135
498.49	35.707
498.84	36.002
499.18	36.286
499.53	35.660
499.87	35.135
500.22	35.657
500.56	36.019
500.91	34.712
501.26	35.325
501.60	35.785
501.95	34.235
502.29	35.895
502.64	34.963
502.98	35.203
503.33	33.318
503.67	34.153
504.02	34.425
504.36	32.943
504.71	34.392
505.06	34.169
505.40	34.516
505.75	34.571
506.09	33.965
506.44	33.448
506.78	34.194
507.13	34.225
507.47	33.535
507.82	33.485
508.16	33.941
508.51	33.942
508.85	33.069
509.19	33.520
509.54	33.469
509.88	32.354
510.23	32.031
510.57	33.540
510.92	31.901
511.26	32.580
511.61	32.417
511.95	32.620
512.30	32.874
512.64	31.220
512.98	32.905
513.33	31.906
513.67	32.177
514.02	31.602
514.36	32.987
514.70	31.101
515.05	32.850
515.39	32.305
515.74	31.588
516.08	31.358
516.42	31.909
516.77	32.219
517.11	31.687
517.46	31.828
517.80	31.882
518.14	31.152
518.49	31.739
518.83	30.511
519.17	30.947
519.52	31.692
519.86	31.090
520.20	30.925
520.55	31.239
520.89	31.569
521.23	31.242
521.58	31.633
521.92	31.843
522.26	30.567
522.61	30.530
522.95	31.308
523.29	31.467
523.64	30.427
523.98	30.930
524.32	30.519
524.66	30.848
525.01	30.760
525.35	29.802
525.69	31.096
526.04	30.717
526.38	29.713
526.72	29.202
527.06	29.692
527.41	28.713
527.75	29.775
528.09	29.094
528.43	31.039
528.78	29.932
529.12	29.030
529.46	30.496
529.80	31.250
530.15	30.280
530.49	29.415
530.83	29.747
531.17	29.569
531.51	30.285
531.86	29.806
532.20	29.270
532.54	29.340
532.88	28.883
533.22	28.295
533.57	28.580
533.91	27.875
534.25	29.222
534.59	28.981
534.93	27.365
535.27	28.183
535.62	28.571
535.96	28.123
536.30	28.798
536.64	28.847
536.98	28.865
537.32	26.991
537.66	27.933
538.01	28.374
538.35	27.860
538.69	28.526
539.03	28.135
539.37	27.604
539.71	27.025
540.05	28.105
540.39	28.106
540.73	27.555
541.07	27.709
541.42	27.854
541.76	28.065
542.10	28.072
542.44	26.623
542.78	28.195
543.12	27.191
543.46	27.738
543.80	27.781
544.14	26.958
544.48	27.683
544.82	26.299
545.16	27.912
545.50	26.735
545.84	27.285
546.18	26.397
546.52	27.254
546.86	26.735
547.20	27.849
547.54	26.386
547.88	26.913
548.22	26.526
548.56	26.604
548.90	26.056
549.24	26.532
549.58	27.149
549.92	26.511
550.26	27.628
550.60	26.349
550.94	26.197
551.28	25.091
551.62	26.743
551.96	26.035
552.30	26.416
552.64	26.572
552.98	26.305
553.32	26.096
553.66	27.471
554.00	27.179
554.34	25.604
554.68	27.039
555.02	25.035
555.36	25.539
555.69	24.493
556.03	25.168
556.37	25.989
556.71	25.580
557.05	25.350
557.39	26.312
557.73	25.053
558.07	26.541
558.41	24.964
558.75	25.422
559.08	24.981
559.42	25.397
559.76	25.294
560.10	25.125
560.44	25.577
560.78	24.884
561.12	24.736
561.45	24.446
561.79	24.588
562.13	25.486
562.47	25.683
562.81	25.105
563.15	23.612
563.48	24.536
563.82	25.375
564.16	25.507
564.50	24.219
564.84	24.842
565.17	24.710
565.51	24.984
565.85	24.239
566.19	24.546
566.52	24.446
566.86	23.508
567.20	24.528
567.54	23.916
567.88	23.303
568.21	24.021
568.55	23.458
568.89	23.298
569.23	22.950
569.56	23.320
569.90	23.660
570.24	22.677
570.57	22.951
570.91	21.849
571.25	22.761
571.59	22.474
571.92	22.120
572.26	22.068
572.60	21.982
572.93	21.949
573.27	21.710
573.61	22.278
573.95	21.731
574.28	21.106
574.62	22.036
574.96	20.932
575.29	21.072
575.63	21.341
575.97	21.244
576.30	21.136
576.64	21.607
576.98	20.953
577.31	21.280
577.65	21.303
577.98	21.351
578.32	20.532
578.66	21.195
578.99	20.863
579.33	21.157
579.67	20.555
580.00	20.954
580.34	20.930
580.67	20.586
581.01	21.048
581.35	20.945
581.68	20.736
582.02	20.658
582.35	20.741
582.69	20.580
583.02	20.695
583.36	20.706
583.70	20.355
584.03	20.951
584.37	20.369
584.70	20.873
585.04	20.450
585.37	20.270
585.71	20.254
586.04	20.633
586.38	20.873
586.72	20.795
587.05	20.538
587.39	20.290
587.72	20.459
588.06	20.811
588.39	20.988
588.73	20.505
589.06	21.128
589.40	20.842
589.73	20.204
590.07	20.854
590.40	20.424
590.73	20.882
591.07	20.879
591.40	21.088
591.74	21.948
592.07	21.204
592.41	20.959
592.74	20.674
593.08	20.919
593.41	21.006
593.75	19.831
594.08	20.148
594.41	19.830
594.75	20.037
595.08	20.938
595.42	20.140
595.75	20.691
596.09	20.653
596.42	20.943
596.75	21.444
597.09	21.299
597.42	19.941
597.75	20.181
598.09	20.826
598.42	20.232
598.76	20.592
599.09	20.030
599.42	20.451
599.76	19.985
600.09	20.109
600.42	19.795
600.76	19.714
601.09	20.219
601.42	20.015
601.76	20.076
602.09	19.842
602.42	20.263
602.76	20.516
603.09	20.024
603.42	20.226
603.76	20.008
604.09	20.279
604.42	20.220
604.76	20.793
605.09	20.227
605.42	19.923
605.75	19.992
606.09	19.845
606.42	19.575
606.75	19.701
607.09	20.594
607.42	19.555
607.75	19.873
608.08	19.366
608.42	20.215
608.75	19.928
609.08	20.213
609.41	19.372
609.75	19.628
610.08	20.688
610.41	19.553
610.74	19.868
611.07	20.208
611.41	20.216
611.74	20.714
612.07	20.704
612.40	20.042
612.73	20.579
613.07	20.474
613.40	20.748
613.73	19.822
614.06	20.484
614.39	20.503
614.72	20.947
615.06	20.116
615.39	20.223
615.72	19.376
616.05	20.096
616.38	20.511
616.71	20.606
617.05	20.495
617.38	20.325
617.71	19.640
618.04	20.012
618.37	19.929
618.70	20.162
619.03	21.513
619.36	21.045
619.69	20.563
620.03	19.986
620.36	20.789
620.69	21.096
621.02	20.133
621.35	20.595
621.68	19.860
622.01	19.892
622.34	20.499
622.67	21.521
623.00	20.470
623.33	19.871
623.66	21.158
623.99	20.692
624.32	20.542
624.65	19.915
624.99	19.122
625.32	20.130
625.65	20.361
625.98	21.214
626.31	19.907
626.64	21.796
626.97	20.615
627.30	20.698
627.63	21.821
627.96	20.353
628.29	20.997
628.62	21.409
628.95	22.736
629.28	21.807
629.61	21.815
629.94	21.333
630.26	20.686
630.59	21.163
630.92	20.307
631.25	21.422
