SpectraSuite Data File
++++++++++++++++++++++++++++++++++++
Date: Wed May 13 20:32:41 PDT 2015
User: schluterlab
Dark Spectrum Present: Yes
Reference Spectrum Present: Yes
Number of Sampled Component Spectra: 1
Spectrometers: USB2E3373
Integration Time (usec): 3000 (USB2E3373)
Spectra Averaged: 3 (USB2E3373)
Boxcar Smoothing: 0 (USB2E3373)
Correct for Electrical Dark: No (USB2E3373)
Strobe/Lamp Enabled: No (USB2E3373)
Correct for Detector Non-linearity: No (USB2E3373)
Correct for Stray Light: No (USB2E3373)
Number of Pixels in Processed Spectrum: 2048
>>>>>Begin Processed Spectral Data<<<<<
178.53	0.000
178.91	-1250.000
179.29	-925.000
179.67	-144.444
180.04	-900.000
180.42	2000.000
180.80	500.000
181.18	-775.000
181.56	542.857
181.94	0.000
182.31	-428.571
182.69	1133.333
183.07	-350.000
183.45	-366.667
183.83	472.727
184.20	-370.000
184.58	1500.000
184.96	3400.000
185.34	-560.000
185.72	-462.500
186.09	-1800.000
186.47	1900.000
186.85	1550.000
187.23	3200.000
187.61	-1333.333
187.98	800.000
188.36	390.909
188.74	409.091
189.12	-580.000
189.49	370.000
189.87	-2900.000
190.25	-700.000
190.63	357.143
191.00	315.385
191.38	666.667
191.76	-800.000
192.14	775.000
192.51	425.000
192.89	750.000
193.27	400.000
193.65	-1000.000
194.02	380.000
194.40	660.000
194.78	380.000
195.15	316.667
195.53	470.000
195.91	-1450.000
196.29	325.000
196.66	242.105
197.04	-180.000
197.42	0.000
197.79	440.000
198.17	-4600.000
198.55	457.143
198.92	587.500
199.30	700.000
199.68	0.000
200.05	277.778
200.43	571.429
200.81	2600.000
201.18	1166.667
201.56	-1233.333
201.94	355.556
202.31	422.222
202.69	250.000
203.07	360.000
203.44	0.000
203.82	1025.000
204.19	542.857
204.57	407.143
204.95	500.000
205.32	900.000
205.70	436.364
206.08	257.143
206.45	2000.000
206.83	337.500
207.20	733.333
207.58	560.000
207.96	266.667
208.33	562.500
208.71	-500.000
209.08	628.571
209.46	455.556
209.84	318.182
210.21	-966.667
210.59	1200.000
210.96	-362.500
211.34	1900.000
211.71	480.000
212.09	633.333
212.46	0.000
212.84	866.667
213.22	775.000
213.59	-2900.000
213.97	533.333
214.34	600.000
214.72	509.091
215.09	780.000
215.47	-1450.000
215.84	-2150.000
216.22	1100.000
216.59	271.429
216.97	1025.000
217.34	390.909
217.72	-500.000
218.09	0.000
218.47	-3600.000
218.84	555.556
219.22	628.571
219.59	1033.333
219.97	-457.143
220.34	820.000
220.72	-1166.667
221.09	364.286
221.47	1225.000
221.84	-616.667
222.22	0.000
222.59	1125.000
222.97	-1700.000
223.34	740.000
223.72	384.615
224.09	740.000
224.46	1600.000
224.84	-3800.000
225.21	-880.000
225.59	-3300.000
225.96	460.000
226.34	250.000
226.71	2300.000
227.08	450.000
227.46	410.000
227.83	-575.000
228.21	-1150.000
228.58	444.444
228.95	-1750.000
229.33	-1650.000
229.70	800.000
230.08	500.000
230.45	-440.000
230.82	350.000
231.20	600.000
231.57	414.286
231.95	391.667
232.32	190.909
232.69	381.818
233.07	571.429
233.44	253.846
233.81	-1400.000
234.19	194.737
234.56	316.667
234.93	283.333
235.31	363.636
235.68	307.692
236.05	292.857
236.43	115.152
236.80	205.263
237.17	3000.000
237.55	161.905
237.92	146.429
238.29	180.952
238.67	122.581
239.04	144.828
239.41	111.111
239.79	73.913
240.16	92.857
240.53	81.818
240.91	72.549
241.28	68.000
241.65	68.000
242.02	68.116
242.40	66.129
242.77	45.000
243.14	51.613
243.51	46.067
243.89	49.412
244.26	43.333
244.63	44.086
245.00	31.915
245.38	43.564
245.75	35.514
246.12	35.780
246.49	44.526
246.87	50.400
247.24	34.615
247.61	33.571
247.98	28.758
248.36	30.405
248.73	28.025
249.10	28.662
249.47	32.203
249.84	34.759
250.22	25.134
250.59	27.219
250.96	25.253
251.33	27.488
251.70	28.713
252.08	25.714
252.45	25.112
252.82	23.913
253.19	19.574
253.56	22.353
253.94	24.066
254.31	21.484
254.68	20.385
255.05	22.878
255.42	20.325
255.79	20.221
256.16	19.856
256.54	16.254
256.91	19.929
257.28	14.748
257.65	16.172
258.02	19.255
258.39	16.404
258.76	17.057
259.14	16.964
259.51	17.933
259.88	13.043
260.25	20.242
260.62	16.185
260.99	16.460
261.36	20.721
261.73	16.619
262.10	18.314
262.47	18.310
262.85	16.435
263.22	12.251
263.59	13.960
263.96	15.934
264.33	18.799
264.70	15.000
265.07	17.903
265.44	15.152
265.81	13.869
266.18	15.829
266.55	16.098
266.92	16.216
267.29	16.898
267.66	14.679
268.03	16.136
268.40	16.355
268.77	13.604
269.14	12.387
269.51	16.479
269.88	15.618
270.25	13.770
270.62	14.157
270.99	16.344
271.36	15.236
271.73	10.748
272.10	13.043
272.47	14.839
272.84	14.719
273.21	15.723
273.58	13.319
273.95	12.579
274.32	13.843
274.69	12.848
275.06	13.386
275.43	12.979
275.80	13.828
276.17	13.442
276.54	14.345
276.91	14.427
277.28	12.305
277.65	12.959
278.02	14.493
278.39	13.477
278.76	13.091
279.13	14.151
279.50	13.035
279.87	11.554
280.23	12.575
280.60	10.832
280.97	10.721
281.34	13.097
281.71	14.182
282.08	12.668
282.45	13.455
282.82	13.677
283.19	10.160
283.56	12.632
283.92	13.875
284.29	13.228
284.66	12.523
285.03	11.573
285.40	11.268
285.77	12.626
286.14	10.708
286.51	11.667
286.87	13.333
287.24	12.215
287.61	10.915
287.98	11.526
288.35	12.044
288.72	13.084
289.08	10.955
289.45	10.708
289.82	11.870
290.19	10.204
290.56	11.792
290.93	8.610
291.29	11.196
291.66	11.504
292.03	11.919
292.40	11.894
292.77	10.059
293.13	11.045
293.50	11.370
293.87	10.815
294.24	9.630
294.60	8.734
294.97	11.919
295.34	10.719
295.71	9.801
296.08	10.256
296.44	10.454
296.81	8.851
297.18	10.705
297.55	8.971
297.91	8.839
298.28	10.576
298.65	10.574
299.02	10.540
299.38	9.960
299.75	8.221
300.12	8.301
300.48	9.375
300.85	8.878
301.22	9.936
301.59	8.207
301.95	9.824
302.32	8.087
302.69	9.558
303.05	8.848
303.42	9.506
303.79	10.193
304.15	8.625
304.52	8.922
304.89	8.362
305.25	8.933
305.62	9.060
305.99	8.737
306.35	8.277
306.72	7.848
307.09	9.101
307.45	9.685
307.82	8.817
308.19	8.830
308.55	9.601
308.92	10.419
309.29	8.659
309.65	8.378
310.02	9.514
310.38	8.602
310.75	8.976
311.12	10.235
311.48	9.300
311.85	9.329
312.22	9.365
312.58	9.771
312.95	9.398
313.31	9.515
313.68	10.499
314.05	10.947
314.41	10.653
314.78	10.473
315.14	9.732
315.51	10.711
315.87	11.980
316.24	10.427
316.61	11.306
316.97	11.742
317.34	11.350
317.70	11.759
318.07	12.127
318.43	13.503
318.80	13.590
319.16	12.241
319.53	13.321
319.89	15.048
320.26	15.400
320.62	16.468
320.99	15.758
321.35	16.061
321.72	16.324
322.08	18.361
322.45	19.502
322.81	18.508
323.18	19.750
323.54	18.924
323.91	20.472
324.27	20.268
324.64	19.571
325.00	20.559
325.37	21.474
325.73	21.993
326.10	21.801
326.46	22.222
326.83	23.727
327.19	23.228
327.56	24.129
327.92	23.622
328.29	25.732
328.65	24.678
329.01	25.812
329.38	25.994
329.74	25.392
330.11	26.202
330.47	27.181
330.84	27.941
331.20	26.867
331.56	26.055
331.93	26.759
332.29	26.176
332.66	27.257
333.02	28.611
333.38	28.546
333.75	28.431
334.11	27.135
334.48	27.418
334.84	29.412
335.20	28.727
335.57	28.286
335.93	27.411
336.29	27.656
336.66	28.584
337.02	28.235
337.38	27.315
337.75	28.431
338.11	28.917
338.47	29.558
338.84	29.881
339.20	28.440
339.56	30.566
339.93	28.818
340.29	29.167
340.65	28.431
341.02	29.494
341.38	28.470
341.74	29.035
342.11	28.996
342.47	30.220
342.83	30.137
343.20	29.610
343.56	28.475
343.92	30.439
344.28	28.741
344.65	29.579
345.01	28.704
345.37	28.473
345.73	29.695
346.10	30.009
346.46	30.339
346.82	29.572
347.19	29.073
347.55	29.310
347.91	29.693
348.27	30.403
348.63	30.936
349.00	29.854
349.36	30.296
349.72	28.949
350.08	28.282
350.45	28.967
350.81	29.894
351.17	29.984
351.53	28.993
351.89	29.620
352.26	29.282
352.62	31.676
352.98	30.065
353.34	30.567
353.70	28.887
354.07	30.403
354.43	29.206
354.79	30.008
355.15	29.370
355.51	31.735
355.87	31.918
356.24	30.130
356.60	29.350
356.96	31.134
357.32	30.417
357.68	31.417
358.04	29.691
358.40	30.483
358.77	30.751
359.13	29.361
359.49	30.275
359.85	30.714
360.21	30.781
360.57	30.661
360.93	30.769
361.29	29.630
361.66	31.037
362.02	30.597
362.38	30.951
362.74	30.878
363.10	30.422
363.46	29.934
363.82	31.066
364.18	31.204
364.54	31.575
364.90	31.657
365.26	32.206
365.62	32.871
365.98	30.460
366.35	31.232
366.71	31.453
367.07	31.464
367.43	32.583
367.79	32.762
368.15	31.968
368.51	32.122
368.87	31.763
369.23	31.822
369.59	32.440
369.95	31.985
370.31	32.265
370.67	31.087
371.03	34.232
371.39	32.799
371.75	32.647
372.11	32.006
372.47	32.111
372.83	33.790
373.19	31.720
373.55	32.890
373.91	32.990
374.27	31.615
374.63	32.291
374.99	33.263
375.35	33.077
375.71	33.173
376.07	33.128
376.42	33.494
376.78	33.267
377.14	33.446
377.50	34.437
377.86	33.045
378.22	32.807
378.58	32.644
378.94	33.312
379.30	33.142
379.66	34.708
380.02	32.924
380.38	32.544
380.74	33.613
381.09	33.680
381.45	34.235
381.81	34.091
382.17	33.312
382.53	33.648
382.89	33.642
383.25	34.271
383.61	35.006
383.97	35.022
384.32	34.373
384.68	33.643
385.04	34.050
385.40	33.746
385.76	34.337
386.12	35.104
386.48	35.620
386.83	35.279
387.19	35.436
387.55	35.436
387.91	34.946
388.27	34.641
388.62	36.386
388.98	35.811
389.34	35.357
389.70	35.193
390.06	35.361
390.42	34.112
390.77	34.860
391.13	36.056
391.49	34.581
391.85	34.819
392.20	33.502
392.56	34.975
392.92	35.315
393.28	33.964
393.64	35.312
393.99	35.064
394.35	35.484
394.71	34.065
395.07	35.763
395.42	36.465
395.78	34.860
396.14	35.506
396.50	35.777
396.85	36.109
397.21	35.142
397.57	35.090
397.92	35.877
398.28	34.417
398.64	35.484
399.00	35.814
399.35	35.477
399.71	35.359
400.07	35.600
400.42	35.951
400.78	35.283
401.14	34.878
401.49	35.343
401.85	34.846
402.21	34.491
402.57	35.410
402.92	35.120
403.28	36.040
403.63	35.953
403.99	36.242
404.35	35.515
404.70	35.312
405.06	34.712
405.42	35.808
405.77	35.029
406.13	34.876
406.49	35.127
406.84	35.027
407.20	34.220
407.55	35.163
407.91	36.733
408.27	35.609
408.62	36.364
408.98	35.355
409.34	33.702
409.69	36.774
410.05	35.688
410.40	36.269
410.76	35.364
411.11	36.128
411.47	35.783
411.83	34.514
412.18	35.312
412.54	36.052
412.89	34.699
413.25	35.773
413.60	36.504
413.96	34.487
414.31	35.723
414.67	35.171
415.03	36.225
415.38	35.760
415.74	35.305
416.09	35.924
416.45	35.877
416.80	35.757
417.16	36.394
417.51	35.567
417.87	35.517
418.22	35.521
418.58	35.571
418.93	35.504
419.29	35.201
419.64	35.894
420.00	34.756
420.35	35.072
420.71	35.684
421.06	34.308
421.42	34.035
421.77	35.538
422.12	35.149
422.48	34.053
422.83	35.702
423.19	34.751
423.54	35.055
423.90	34.899
424.25	35.399
424.61	34.226
424.96	35.102
425.31	34.551
425.67	34.045
426.02	34.057
426.38	37.424
426.73	34.465
427.09	35.258
427.44	35.710
427.79	34.848
428.15	35.893
428.50	35.284
428.85	34.446
429.21	34.235
429.56	35.355
429.92	34.675
430.27	35.005
430.62	34.357
430.98	34.977
431.33	34.124
431.68	34.450
432.04	34.345
432.39	34.437
432.74	34.770
433.10	35.201
433.45	35.977
433.80	33.925
434.16	34.829
434.51	34.632
434.86	34.949
435.22	34.130
435.57	35.684
435.92	33.704
436.28	35.528
436.63	35.320
436.98	34.287
437.34	35.242
437.69	35.239
438.04	34.851
438.39	34.388
438.75	35.270
439.10	34.972
439.45	35.301
439.81	35.650
440.16	34.049
440.51	34.681
440.86	34.742
441.22	33.760
441.57	34.607
441.92	34.647
442.27	34.930
442.63	34.281
442.98	36.620
443.33	34.674
443.68	34.693
444.03	34.358
444.39	33.252
444.74	34.686
445.09	34.340
445.44	35.101
445.79	33.696
446.15	34.039
446.50	34.572
446.85	34.018
447.20	34.268
447.55	35.399
447.91	34.473
448.26	35.281
448.61	34.031
448.96	33.942
449.31	34.758
449.66	34.102
450.02	33.426
450.37	34.410
450.72	34.631
451.07	33.882
451.42	33.070
451.77	35.056
452.12	34.758
452.47	33.831
452.83	35.082
453.18	33.680
453.53	35.065
453.88	34.022
454.23	34.549
454.58	34.403
454.93	35.601
455.28	33.416
455.63	34.587
455.98	35.119
456.34	33.857
456.69	33.626
457.04	34.675
457.39	34.249
457.74	32.908
458.09	33.813
458.44	33.580
458.79	32.755
459.14	34.763
459.49	33.917
459.84	32.964
460.19	33.471
460.54	32.755
460.89	33.736
461.24	34.062
461.59	34.805
461.94	34.649
462.29	35.134
462.64	34.078
462.99	32.596
463.34	32.867
463.69	33.083
464.04	33.217
464.39	33.275
464.74	32.858
465.09	33.715
465.44	32.465
465.79	32.047
466.14	32.074
466.49	33.037
466.84	33.392
467.19	31.744
467.54	33.438
467.89	33.313
468.24	32.693
468.59	33.516
468.94	32.071
469.29	33.098
469.64	34.337
469.99	33.897
470.34	32.827
470.68	32.902
471.03	32.585
471.38	33.634
471.73	32.978
472.08	32.961
472.43	32.349
472.78	33.311
473.13	32.092
473.48	32.022
473.83	32.317
474.17	32.607
474.52	32.196
474.87	32.866
475.22	32.618
475.57	31.650
475.92	32.183
476.27	32.074
476.61	32.046
476.96	31.666
477.31	32.077
477.66	30.744
478.01	31.155
478.36	32.205
478.70	31.464
479.05	31.203
479.40	31.525
479.75	31.825
480.10	31.362
480.45	30.557
480.79	30.578
481.14	31.067
481.49	30.375
481.84	30.910
482.19	30.986
482.53	30.505
482.88	30.805
483.23	30.654
483.58	30.573
483.92	30.412
484.27	29.847
484.62	30.302
484.97	28.971
485.31	29.212
485.66	27.704
486.01	27.634
486.36	27.490
486.70	28.111
487.05	28.033
487.40	28.447
487.75	28.806
488.09	29.208
488.44	29.320
488.79	29.042
489.13	29.488
489.48	28.670
489.83	28.183
490.17	29.899
490.52	29.407
490.87	30.167
491.22	29.013
491.56	28.610
491.91	29.223
492.26	28.342
492.60	29.677
492.95	28.251
493.30	28.925
493.64	29.398
493.99	28.459
494.34	28.353
494.68	30.082
495.03	28.900
495.37	28.153
495.72	28.801
496.07	29.095
496.41	27.301
496.76	28.276
497.11	28.546
497.45	28.784
497.80	28.551
498.14	28.213
498.49	28.244
498.84	29.530
499.18	27.762
499.53	27.445
499.87	27.866
500.22	28.309
500.56	28.155
500.91	28.029
501.26	28.070
501.60	28.856
501.95	27.635
502.29	28.819
502.64	27.654
502.98	28.050
503.33	27.422
503.67	27.842
504.02	27.081
504.36	27.375
504.71	28.285
505.06	27.373
505.40	27.321
505.75	27.580
506.09	27.988
506.44	27.923
506.78	27.910
507.13	28.067
507.47	27.222
507.82	27.457
508.16	27.660
508.51	27.702
508.85	27.061
509.19	26.837
509.54	26.990
509.88	27.357
510.23	27.044
510.57	27.915
510.92	27.758
511.26	26.619
511.61	27.334
511.95	26.566
512.30	27.041
512.64	26.706
512.98	27.599
513.33	27.516
513.67	26.147
514.02	26.569
514.36	27.362
514.70	27.061
515.05	26.492
515.39	26.528
515.74	26.858
516.08	27.110
516.42	27.192
516.77	27.202
517.11	26.138
517.46	26.354
517.80	27.700
518.14	26.578
518.49	26.488
518.83	26.648
519.17	27.367
519.52	26.486
519.86	26.868
520.20	27.052
520.55	26.571
520.89	27.251
521.23	27.744
521.58	26.831
521.92	27.006
522.26	25.869
522.61	26.293
522.95	25.230
523.29	25.989
523.64	25.549
523.98	25.385
524.32	26.116
524.66	26.398
525.01	27.022
525.35	25.836
525.69	25.493
526.04	25.794
526.38	26.663
526.72	26.319
527.06	25.675
527.41	24.443
527.75	26.238
528.09	26.076
528.43	26.386
528.78	26.060
529.12	25.273
529.46	25.781
529.80	26.423
530.15	25.857
530.49	25.231
530.83	25.443
531.17	25.783
531.51	27.108
531.86	26.452
532.20	25.033
532.54	25.945
532.88	25.289
533.22	24.422
533.57	24.506
533.91	25.587
534.25	25.516
534.59	25.442
534.93	24.807
535.27	24.381
535.62	24.420
535.96	24.670
536.30	24.094
536.64	25.177
536.98	25.216
537.32	25.082
537.66	24.733
538.01	24.819
538.35	23.271
538.69	24.697
539.03	23.847
539.37	23.387
539.71	23.007
540.05	24.575
540.39	24.784
540.73	23.933
541.07	24.530
541.42	25.245
541.76	24.774
542.10	23.286
542.44	23.841
542.78	24.506
543.12	23.736
543.46	24.131
543.80	24.203
544.14	22.786
544.48	23.365
544.82	23.669
545.16	23.097
545.50	23.907
545.84	23.992
546.18	23.636
546.52	24.019
546.86	23.574
547.20	23.466
547.54	22.779
547.88	23.724
548.22	23.101
548.56	22.830
548.90	22.343
549.24	23.502
549.58	23.874
549.92	23.146
550.26	22.940
550.60	23.375
550.94	22.113
551.28	22.312
551.62	23.149
551.96	23.088
552.30	23.208
552.64	23.665
552.98	23.254
553.32	22.927
553.66	23.381
554.00	23.130
554.34	23.050
554.68	23.104
555.02	23.695
555.36	23.939
555.69	21.786
556.03	21.669
556.37	22.442
556.71	21.692
557.05	22.829
557.39	22.323
557.73	22.795
558.07	21.755
558.41	22.214
558.75	22.557
559.08	23.192
559.42	21.618
559.76	21.838
560.10	21.699
560.44	22.222
560.78	21.557
561.12	22.164
561.45	21.904
561.79	21.490
562.13	21.194
562.47	22.199
562.81	22.664
563.15	21.271
563.48	21.950
563.82	21.918
564.16	21.190
564.50	20.443
564.84	20.986
565.17	20.656
565.51	21.214
565.85	21.320
566.19	20.351
566.52	21.469
566.86	20.555
567.20	21.108
567.54	20.548
567.88	20.043
568.21	21.005
568.55	19.970
568.89	19.893
569.23	19.207
569.56	18.826
569.90	18.755
570.24	18.012
570.57	18.599
570.91	17.809
571.25	18.005
571.59	18.027
571.92	17.972
572.26	18.169
572.60	17.958
572.93	17.751
573.27	17.717
573.61	17.839
573.95	17.804
574.28	17.387
574.62	17.201
574.96	17.252
575.29	17.362
575.63	17.073
575.97	17.287
576.30	17.392
576.64	16.730
576.98	16.894
577.31	16.913
577.65	16.873
577.98	16.968
578.32	16.283
578.66	16.625
578.99	16.800
579.33	16.969
579.67	16.736
580.00	16.615
580.34	16.754
580.67	16.592
581.01	16.483
581.35	16.854
581.68	16.552
582.02	16.005
582.35	16.365
582.69	16.543
583.02	16.593
583.36	16.509
583.70	16.833
584.03	16.771
584.37	16.785
584.70	16.510
585.04	16.316
585.37	15.913
585.71	16.400
586.04	16.332
586.38	16.458
586.72	16.625
587.05	16.246
587.39	15.884
587.72	16.826
588.06	15.795
588.39	16.187
588.73	16.486
589.06	17.015
589.40	16.734
589.73	16.931
590.07	16.762
590.40	16.441
590.73	17.486
591.07	17.053
591.40	17.630
591.74	17.792
592.07	17.321
592.41	17.528
592.74	16.479
593.08	16.389
593.41	16.450
593.75	15.990
594.08	16.661
594.41	16.083
594.75	17.043
595.08	16.679
595.42	16.287
595.75	16.667
596.09	17.161
596.42	17.328
596.75	16.927
597.09	17.662
597.42	16.526
597.75	17.206
598.09	17.130
598.42	16.495
598.76	16.457
599.09	15.926
599.42	16.048
599.76	16.288
600.09	16.393
600.42	15.778
600.76	15.964
601.09	15.701
601.42	15.601
601.76	15.939
602.09	16.403
602.42	16.600
602.76	16.808
603.09	16.680
603.42	17.142
603.76	15.663
604.09	16.130
604.42	16.592
604.76	16.828
605.09	16.339
605.42	16.375
605.75	15.480
606.09	16.104
606.42	15.856
606.75	15.761
607.09	16.367
607.42	15.276
607.75	15.907
608.08	16.066
608.42	16.764
608.75	15.735
609.08	16.466
609.41	16.040
609.75	15.865
610.08	16.777
610.41	15.736
610.74	16.320
611.07	16.453
611.41	16.290
611.74	17.345
612.07	16.511
612.40	16.579
612.73	16.895
613.07	17.134
613.40	16.798
613.73	16.413
614.06	16.290
614.39	16.099
614.72	16.526
615.06	17.227
615.39	15.658
615.72	16.513
616.05	16.693
616.38	15.842
616.71	16.449
617.05	16.784
617.38	16.176
617.71	16.937
618.04	16.767
618.37	16.499
618.70	16.988
619.03	17.895
619.36	17.515
619.69	17.324
620.03	17.651
620.36	17.580
620.69	17.192
621.02	18.953
621.35	17.228
621.68	16.044
622.01	18.034
622.34	17.852
622.67	16.578
623.00	17.021
623.33	16.154
623.66	16.512
623.99	17.526
624.32	17.332
624.65	16.737
624.99	15.581
625.32	16.075
625.65	17.506
625.98	17.294
626.31	17.807
626.64	17.714
626.97	17.789
627.30	17.290
627.63	17.719
627.96	18.503
628.29	18.023
628.62	19.396
628.95	19.717
629.28	18.066
629.61	18.332
629.94	18.857
630.26	17.922
630.59	19.161
630.92	17.720
631.25	18.263
631.58	17.618
631.91	18.763
632.24	19.198
