SpectraSuite Data File
++++++++++++++++++++++++++++++++++++
Date: Wed May 13 20:32:02 PDT 2015
User: schluterlab
Dark Spectrum Present: Yes
Reference Spectrum Present: Yes
Number of Sampled Component Spectra: 1
Spectrometers: USB2E3373
Integration Time (usec): 3000 (USB2E3373)
Spectra Averaged: 3 (USB2E3373)
Boxcar Smoothing: 0 (USB2E3373)
Correct for Electrical Dark: No (USB2E3373)
Strobe/Lamp Enabled: No (USB2E3373)
Correct for Detector Non-linearity: No (USB2E3373)
Correct for Stray Light: No (USB2E3373)
Number of Pixels in Processed Spectrum: 2048
>>>>>Begin Processed Spectral Data<<<<<
178.53	0.000
178.91	-1000.000
179.29	-1150.000
179.67	-122.222
180.04	-825.000
180.42	1700.000
180.80	860.000
181.18	-800.000
181.56	528.571
181.94	0.000
182.31	-385.714
182.69	1300.000
183.07	-475.000
183.45	-366.667
183.83	409.091
184.20	-330.000
184.58	1600.000
184.96	4200.000
185.34	-940.000
185.72	-437.500
186.09	-1650.000
186.47	2200.000
186.85	1450.000
187.23	4500.000
187.61	-966.667
187.98	1075.000
188.36	363.636
188.74	454.545
189.12	-700.000
189.49	470.000
189.87	-1800.000
190.25	-725.000
190.63	314.286
191.00	353.846
191.38	733.333
191.76	-850.000
192.14	1150.000
192.51	437.500
192.89	816.667
193.27	462.500
193.65	-825.000
194.02	380.000
194.40	860.000
194.78	320.000
195.15	333.333
195.53	500.000
195.91	-1900.000
196.29	300.000
196.66	173.684
197.04	-250.000
197.42	0.000
197.79	510.000
198.17	-2900.000
198.55	457.143
198.92	712.500
199.30	700.000
199.68	0.000
200.05	305.556
200.43	628.571
200.81	3800.000
201.18	1200.000
201.56	-933.333
201.94	411.111
202.31	466.667
202.69	325.000
203.07	440.000
203.44	0.000
203.82	975.000
204.19	528.571
204.57	364.286
204.95	512.500
205.32	1066.667
205.70	418.182
206.08	357.143
206.45	2150.000
206.83	287.500
207.20	533.333
207.58	640.000
207.96	227.778
208.33	512.500
208.71	-466.667
209.08	614.286
209.46	388.889
209.84	345.455
210.21	-1100.000
210.59	900.000
210.96	-375.000
211.34	1700.000
211.71	410.000
212.09	733.333
212.46	0.000
212.84	1466.667
213.22	1100.000
213.59	-3600.000
213.97	733.333
214.34	600.000
214.72	536.364
215.09	800.000
215.47	-1900.000
215.84	-1800.000
216.22	1300.000
216.59	285.714
216.97	850.000
217.34	345.455
217.72	-500.000
218.09	0.000
218.47	-2900.000
218.84	466.667
219.22	614.286
219.59	1133.333
219.97	-457.143
220.34	740.000
220.72	-933.333
221.09	300.000
221.47	1075.000
221.84	-700.000
222.22	0.000
222.59	825.000
222.97	-1950.000
223.34	900.000
223.72	330.769
224.09	980.000
224.46	1400.000
224.84	-3500.000
225.21	-900.000
225.59	-3400.000
225.96	480.000
226.34	200.000
226.71	1600.000
227.08	625.000
227.46	480.000
227.83	-975.000
228.21	-1650.000
228.58	455.556
228.95	-1750.000
229.33	-1850.000
229.70	1266.667
230.08	600.000
230.45	-680.000
230.82	291.667
231.20	733.333
231.57	500.000
231.95	450.000
232.32	204.545
232.69	309.091
233.07	357.143
233.44	276.923
233.81	-1400.000
234.19	184.211
234.56	316.667
234.93	225.000
235.31	345.455
235.68	276.923
236.05	257.143
236.43	127.273
236.80	142.105
237.17	3500.000
237.55	128.571
237.92	139.286
238.29	171.429
238.67	112.903
239.04	120.690
239.41	116.667
239.79	91.304
240.16	109.524
240.53	90.909
240.91	86.275
241.28	88.000
241.65	74.000
242.02	59.420
242.40	61.290
242.77	60.000
243.14	40.860
243.51	65.169
243.89	50.588
244.26	36.667
244.63	44.086
245.00	46.809
245.38	34.653
245.75	46.729
246.12	32.110
246.49	40.876
246.87	53.600
247.24	38.462
247.61	32.143
247.98	31.373
248.36	26.351
248.73	35.032
249.10	34.395
249.47	32.768
249.84	35.294
250.22	26.203
250.59	32.544
250.96	31.313
251.33	30.806
251.70	30.198
252.08	29.524
252.45	25.561
252.82	26.087
253.19	27.234
253.56	27.843
253.94	28.216
254.31	26.953
254.68	26.538
255.05	26.199
255.42	19.919
255.79	24.265
256.16	27.076
256.54	19.081
256.91	20.285
257.28	22.662
257.65	23.432
258.02	25.466
258.39	23.028
258.76	22.074
259.14	23.810
259.51	20.669
259.88	15.217
260.25	22.054
260.62	19.364
260.99	18.634
261.36	22.222
261.73	20.917
262.10	14.826
262.47	20.282
262.85	20.334
263.22	15.954
263.59	20.798
263.96	18.956
264.33	16.449
264.70	17.895
265.07	20.205
265.44	18.182
265.81	18.735
266.18	16.834
266.55	17.073
266.92	19.902
267.29	18.519
267.66	16.514
268.03	18.409
268.40	20.093
268.77	18.377
269.14	18.694
269.51	20.090
269.88	18.415
270.25	14.898
270.62	17.528
270.99	21.290
271.36	18.670
271.73	17.523
272.10	18.043
272.47	17.634
272.84	14.935
273.21	20.335
273.58	14.629
273.95	18.868
274.32	14.876
274.69	19.486
275.06	16.339
275.43	16.596
275.80	15.631
276.17	15.479
276.54	14.969
276.91	18.775
277.28	15.430
277.65	17.602
278.02	15.114
278.39	18.164
278.76	15.636
279.13	14.717
279.50	13.966
279.87	16.135
280.23	16.168
280.60	15.280
280.97	14.048
281.34	16.460
281.71	17.273
282.08	17.466
282.45	15.091
282.82	15.098
283.19	12.834
283.56	14.912
283.92	13.367
284.29	14.638
284.66	15.064
285.03	16.456
285.40	13.908
285.77	13.973
286.14	15.371
286.51	16.833
286.87	15.214
287.24	15.798
287.61	15.570
287.98	15.260
288.35	14.263
288.72	13.551
289.08	15.023
289.45	14.333
289.82	13.984
290.19	14.600
290.56	14.701
290.93	11.782
291.29	13.650
291.66	15.339
292.03	14.390
292.40	16.153
292.77	13.018
293.13	13.731
293.50	13.994
293.87	14.074
294.24	12.296
294.60	11.063
294.97	11.919
295.34	13.540
295.71	13.068
296.08	10.684
296.44	11.692
296.81	11.096
297.18	13.415
297.55	10.818
297.91	11.214
298.28	13.521
298.65	12.141
299.02	13.175
299.38	12.085
299.75	9.838
300.12	10.473
300.48	12.250
300.85	12.084
301.22	11.210
301.59	11.364
301.95	11.965
302.32	10.655
302.69	10.394
303.05	10.424
303.42	10.864
303.79	11.552
304.15	10.373
304.52	10.892
304.89	10.801
305.25	11.949
305.62	11.099
305.99	11.216
306.35	10.626
306.72	11.099
307.09	11.432
307.45	11.712
307.82	9.821
308.19	10.817
308.55	11.435
308.92	10.419
309.29	9.293
309.65	9.332
310.02	10.148
310.38	10.645
310.75	10.771
311.12	10.952
311.48	10.763
311.85	9.853
312.22	9.781
312.58	10.291
312.95	11.404
313.31	9.515
313.68	8.836
314.05	11.440
314.41	11.256
314.78	10.070
315.14	10.228
315.51	10.608
315.87	10.396
316.24	10.328
316.61	10.234
316.97	9.883
317.34	9.100
317.70	9.943
318.07	10.010
318.43	10.568
318.80	9.653
319.16	10.075
319.53	9.193
319.89	10.476
320.26	10.700
320.62	9.425
320.99	9.899
321.35	10.000
321.72	10.883
322.08	10.168
322.45	10.647
322.81	10.950
323.18	10.405
323.54	11.039
323.91	11.132
324.27	10.516
324.64	9.226
325.00	9.558
325.37	11.647
325.73	10.233
326.10	9.267
326.46	9.140
326.83	9.060
327.19	9.052
327.56	9.930
327.92	9.886
328.29	10.648
328.65	10.129
329.01	10.650
329.38	9.436
329.74	10.065
330.11	9.142
330.47	9.734
330.84	11.673
331.20	9.927
331.56	10.183
331.93	9.352
332.29	10.470
332.66	10.442
333.02	10.055
333.38	10.027
333.75	10.784
334.11	9.786
334.48	10.115
334.84	9.743
335.20	9.091
335.57	8.432
335.93	9.018
336.29	9.890
336.66	9.288
337.02	9.593
337.38	10.185
337.75	9.537
338.11	8.863
338.47	9.300
338.84	10.357
339.20	8.349
339.56	11.040
339.93	9.545
340.29	9.601
340.65	9.537
341.02	10.820
341.38	10.676
341.74	8.947
342.11	9.258
342.47	9.515
342.83	9.589
343.20	10.736
343.56	9.014
343.92	8.947
344.28	10.374
344.65	9.200
345.01	8.754
345.37	9.005
345.73	9.391
346.10	9.463
346.46	10.339
346.82	9.720
347.19	9.190
347.55	9.195
347.91	10.032
348.27	9.367
348.63	9.030
349.00	8.657
349.36	9.113
349.72	8.741
350.08	9.562
350.45	9.357
350.81	8.448
351.17	9.157
351.53	7.535
351.89	8.416
352.26	9.787
352.62	9.062
352.98	9.076
353.34	8.463
353.70	8.920
354.07	9.355
354.43	9.365
354.79	7.884
355.15	8.380
355.51	9.033
355.87	9.224
356.24	8.632
356.60	8.099
356.96	8.930
357.32	8.095
357.68	8.583
358.04	8.947
358.40	9.184
358.77	8.294
359.13	8.524
359.49	8.784
359.85	6.746
360.21	8.373
360.57	8.794
360.93	9.308
361.29	8.390
361.66	8.050
362.02	9.030
362.38	8.137
362.74	9.226
363.10	7.624
363.46	8.731
363.82	7.710
364.18	8.664
364.54	8.692
364.90	8.782
365.26	7.647
365.62	9.058
365.98	7.670
366.35	7.235
366.71	8.894
367.07	8.303
367.43	7.983
367.79	8.779
368.15	9.842
368.51	8.358
368.87	8.637
369.23	7.754
369.59	8.182
369.95	7.132
370.31	8.262
370.67	8.261
371.03	8.464
371.39	8.892
371.75	7.941
372.11	8.464
372.47	8.284
372.83	8.934
373.19	7.225
373.55	7.982
373.91	8.984
374.27	8.041
374.63	8.436
374.99	9.463
375.35	7.746
375.71	7.676
376.07	8.985
376.42	7.290
376.78	8.085
377.14	7.666
377.50	8.477
377.86	8.045
378.22	8.154
378.58	7.331
378.94	7.605
379.30	7.252
379.66	8.122
380.02	8.170
380.38	7.407
380.74	8.283
381.09	7.946
381.45	8.359
381.81	8.292
382.17	7.707
382.53	6.792
382.89	8.148
383.25	7.255
383.61	7.683
383.97	8.193
384.32	7.735
384.68	7.373
385.04	7.253
385.40	7.430
385.76	7.617
386.12	8.161
386.48	7.615
386.83	7.120
387.19	8.720
387.55	7.792
387.91	7.255
388.27	7.051
388.62	8.297
388.98	6.572
389.34	8.511
389.70	7.787
390.06	7.858
390.42	8.171
390.77	7.824
391.13	7.849
391.49	8.185
391.85	7.957
392.20	6.309
392.56	7.197
392.92	7.357
393.28	6.095
393.64	7.434
393.99	7.697
394.35	7.692
394.71	7.026
395.07	7.601
395.42	7.355
395.78	7.697
396.14	8.007
396.50	7.769
396.85	7.629
397.21	7.398
397.57	7.688
397.92	7.692
398.28	6.895
398.64	7.467
399.00	7.331
399.35	6.825
399.71	7.176
400.07	8.161
400.42	7.485
400.78	7.660
401.14	6.768
401.49	7.701
401.85	7.260
402.21	6.826
402.57	7.650
402.92	7.945
403.28	7.933
403.63	7.797
403.99	6.561
404.35	7.818
404.70	8.273
405.06	6.931
405.42	7.673
405.77	6.514
406.13	7.280
406.49	8.161
406.84	7.679
407.20	7.506
407.55	8.041
407.91	7.400
408.27	7.020
408.62	7.646
408.98	8.088
409.34	7.073
409.69	7.742
410.05	7.435
410.40	7.523
410.76	7.826
411.11	8.504
411.47	6.581
411.83	7.208
412.18	7.174
412.54	7.970
412.89	8.554
413.25	7.379
413.60	7.783
413.96	7.347
414.31	8.080
414.67	8.682
415.03	7.483
415.38	8.634
415.74	7.781
416.09	8.295
416.45	8.300
416.80	7.535
417.16	8.445
417.51	7.963
417.87	6.872
418.22	8.265
418.58	8.651
418.93	7.555
419.29	7.829
419.64	8.375
420.00	7.744
420.35	7.826
420.71	8.069
421.06	7.876
421.42	7.427
421.77	8.296
422.12	7.075
422.48	6.746
422.83	7.804
423.19	8.232
423.54	7.139
423.90	7.884
424.25	8.152
424.61	7.202
424.96	7.114
425.31	8.084
425.67	7.528
426.02	7.200
426.38	7.509
426.73	7.782
427.09	7.720
427.44	7.821
427.79	7.418
428.15	8.988
428.50	7.782
428.85	7.926
429.21	7.289
429.56	7.206
429.92	7.650
430.27	7.696
430.62	6.861
430.98	7.525
431.33	7.320
431.68	8.325
432.04	8.040
432.39	7.881
432.74	8.318
433.10	7.074
433.45	8.280
433.80	7.871
434.16	8.066
434.51	7.632
434.86	7.697
435.22	7.782
435.57	7.660
435.92	7.548
436.28	7.829
436.63	8.278
436.98	7.728
437.34	8.408
437.69	8.576
438.04	8.038
438.39	8.000
438.75	8.483
439.10	8.045
439.45	7.733
439.81	7.432
440.16	7.284
440.51	7.733
440.86	7.585
441.22	7.564
441.57	8.015
441.92	7.267
442.27	8.181
442.63	7.530
442.98	8.563
443.33	8.152
443.68	7.744
444.03	7.565
444.39	7.400
444.74	7.900
445.09	8.248
445.44	8.584
445.79	7.422
446.15	8.205
446.50	7.270
446.85	7.451
447.20	7.802
447.55	7.370
447.91	7.612
448.26	7.735
448.61	7.575
448.96	8.195
449.31	8.436
449.66	7.991
450.02	7.632
450.37	8.050
450.72	7.783
451.07	7.800
451.42	7.112
451.77	7.986
452.12	8.661
452.47	8.209
452.83	7.634
453.18	8.313
453.53	8.596
453.88	8.033
454.23	8.428
454.58	8.359
454.93	8.392
455.28	7.107
455.63	8.313
455.98	7.976
456.34	8.040
456.69	8.516
457.04	7.988
457.39	7.189
457.74	7.835
458.09	7.763
458.44	8.438
458.79	7.484
459.14	7.844
459.49	7.881
459.84	8.144
460.19	7.602
460.54	8.275
460.89	7.844
461.24	8.500
461.59	9.355
461.94	7.337
462.29	8.843
462.64	8.807
462.99	8.393
463.34	9.267
463.69	8.318
464.04	7.942
464.39	8.928
464.74	7.903
465.09	8.444
465.44	7.701
465.79	7.438
466.14	8.703
466.49	8.120
466.84	8.231
467.19	8.811
467.54	8.438
467.89	8.163
468.24	8.319
468.59	8.242
468.94	8.369
469.29	9.512
469.64	9.438
469.99	8.254
470.34	7.926
470.68	8.046
471.03	8.503
471.38	8.895
471.73	9.260
472.08	8.882
472.43	8.794
472.78	8.361
473.13	8.537
473.48	8.427
473.83	8.537
474.17	8.587
474.52	8.189
474.87	8.581
475.22	8.822
475.57	8.168
475.92	8.497
476.27	8.174
476.61	8.660
476.96	7.916
477.31	8.111
477.66	8.151
478.01	8.207
478.36	8.567
478.70	7.632
479.05	8.733
479.40	8.802
479.75	8.083
480.10	8.101
480.45	8.425
480.79	7.979
481.14	8.268
481.49	7.879
481.84	7.956
482.19	7.996
482.53	8.257
482.88	8.376
483.23	8.598
483.58	8.189
483.92	7.591
484.27	7.233
484.62	7.888
484.97	7.726
485.31	7.500
485.66	6.195
486.01	6.061
486.36	5.914
486.70	6.094
487.05	6.495
487.40	6.691
487.75	6.763
488.09	6.976
488.44	6.871
488.79	7.595
489.13	7.525
489.48	7.178
489.83	8.157
490.17	8.505
490.52	7.927
490.87	7.915
491.22	8.367
491.56	8.109
491.91	8.190
492.26	8.039
492.60	8.710
492.95	7.484
493.30	8.785
493.64	8.213
493.99	8.496
494.34	8.187
494.68	8.929
495.03	7.989
495.37	8.609
495.72	8.918
496.07	9.095
496.41	7.920
496.76	8.575
497.11	8.600
497.45	8.617
497.80	8.205
498.14	7.778
498.49	8.439
498.84	8.725
499.18	8.333
499.53	8.025
499.87	8.434
500.22	8.431
500.56	8.495
500.91	8.173
501.26	9.104
501.60	9.397
501.95	9.074
502.29	8.716
502.64	8.287
502.98	8.649
503.33	8.729
503.67	7.935
504.02	8.746
504.36	8.891
504.71	8.305
505.06	8.819
505.40	9.383
505.75	8.293
506.09	8.698
506.44	8.337
506.78	8.962
507.13	9.288
507.47	9.040
507.82	9.119
508.16	9.017
508.51	9.335
508.85	8.689
509.19	8.929
509.54	8.980
509.88	9.222
510.23	9.254
510.57	9.701
510.92	9.218
511.26	9.096
511.61	9.388
511.95	9.342
512.30	9.014
512.64	9.242
512.98	9.218
513.33	9.636
513.67	9.338
514.02	9.686
514.36	10.049
514.70	9.629
515.05	8.589
515.39	10.376
515.74	9.910
516.08	10.732
516.42	10.100
516.77	9.922
517.11	9.878
517.46	10.102
517.80	10.105
518.14	9.265
518.49	9.802
518.83	10.682
519.17	9.353
519.52	10.187
519.86	10.496
520.20	11.040
520.55	11.071
520.89	10.523
521.23	10.615
521.58	10.324
521.92	11.145
522.26	10.372
522.61	10.405
522.95	10.681
523.29	10.286
523.64	10.549
523.98	10.721
524.32	11.098
524.66	10.944
525.01	11.029
525.35	11.029
525.69	10.530
526.04	10.841
526.38	10.738
526.72	11.718
527.06	10.923
527.41	9.963
527.75	11.190
528.09	10.662
528.43	10.516
528.78	10.756
529.12	10.667
529.46	11.758
529.80	11.077
530.15	11.277
530.49	10.831
530.83	11.266
531.17	11.423
531.51	11.414
531.86	11.548
532.20	12.125
532.54	11.083
532.88	11.104
533.22	10.369
533.57	11.173
533.91	11.078
534.25	10.936
534.59	11.226
534.93	11.184
535.27	10.923
535.62	11.416
535.96	10.860
536.30	11.189
536.64	11.333
536.98	11.546
537.32	10.731
537.66	10.000
538.01	11.784
538.35	10.472
538.69	11.551
539.03	10.526
539.37	11.182
539.71	9.981
540.05	10.915
540.39	11.163
540.73	10.737
541.07	10.902
541.42	11.285
541.76	12.000
542.10	11.514
542.44	11.325
542.78	11.858
543.12	11.068
543.46	11.148
543.80	11.321
544.14	10.270
544.48	10.794
544.82	11.097
545.16	10.995
545.50	11.440
545.84	11.156
546.18	11.717
546.52	11.700
546.86	11.134
547.20	11.935
547.54	11.824
547.88	11.990
548.22	10.212
548.56	10.692
548.90	10.563
549.24	10.505
549.58	11.733
549.92	11.882
550.26	11.648
550.60	11.618
550.94	11.479
551.28	11.046
551.62	11.934
551.96	11.509
552.30	11.126
552.64	11.697
552.98	11.458
553.32	11.396
553.66	12.406
554.00	12.011
554.34	12.491
554.68	12.160
555.02	11.425
555.36	11.343
555.69	10.893
556.03	12.584
556.37	11.187
556.71	11.119
557.05	11.415
557.39	11.617
557.73	12.350
558.07	10.660
558.41	11.867
558.75	11.609
559.08	12.155
559.42	11.943
559.76	11.985
560.10	11.349
560.44	11.461
560.78	10.845
561.12	10.554
561.45	12.386
561.79	11.404
562.13	10.865
562.47	11.680
562.81	11.646
563.15	11.572
563.48	10.875
563.82	11.416
564.16	10.791
564.50	10.677
564.84	10.430
565.17	9.910
565.51	10.990
565.85	10.787
566.19	10.770
566.52	10.513
566.86	10.488
567.20	11.439
567.54	10.388
567.88	9.614
568.21	10.635
568.55	10.212
568.89	10.019
569.23	9.180
569.56	9.595
569.90	8.340
570.24	8.970
570.57	8.943
570.91	8.274
571.25	8.153
571.59	8.630
571.92	8.180
572.26	8.117
572.60	8.318
572.93	8.246
573.27	8.045
573.61	8.208
573.95	8.088
574.28	7.915
574.62	7.993
574.96	7.861
575.29	8.123
575.63	7.851
575.97	7.915
576.30	8.232
576.64	7.657
576.98	7.535
577.31	7.440
577.65	7.470
577.98	7.539
578.32	7.208
578.66	7.610
578.99	7.806
579.33	8.037
579.67	7.760
580.00	7.624
580.34	7.641
580.67	7.729
581.01	8.185
581.35	7.384
581.68	7.328
582.02	7.084
582.35	7.306
582.69	7.751
583.02	7.659
583.36	7.747
583.70	7.892
584.03	8.203
584.37	8.037
584.70	8.020
585.04	8.219
585.37	7.945
585.71	8.130
586.04	8.094
586.38	8.020
586.72	8.423
587.05	8.041
587.39	7.942
587.72	8.168
588.06	7.924
588.39	8.477
588.73	8.067
589.06	8.632
589.40	8.519
589.73	8.342
590.07	8.683
590.40	8.769
590.73	9.329
591.07	9.239
591.40	9.152
591.74	9.394
592.07	9.468
592.41	9.673
592.74	8.876
593.08	8.927
593.41	8.257
593.75	8.620
594.08	8.917
594.41	9.049
594.75	8.392
595.08	9.127
595.42	8.301
595.75	8.547
596.09	8.750
596.42	9.627
596.75	9.033
597.09	10.043
597.42	9.106
597.75	9.530
598.09	9.087
598.42	9.493
598.76	8.999
599.09	8.438
599.42	8.443
599.76	8.968
600.09	8.852
600.42	8.583
600.76	8.536
601.09	8.743
601.42	9.018
601.76	8.994
602.09	8.577
602.42	9.475
602.76	9.593
603.09	8.851
603.42	9.176
603.76	9.184
604.09	8.298
604.42	8.928
604.76	9.363
605.09	9.043
605.42	8.850
605.75	9.644
606.09	8.865
606.42	8.786
606.75	9.042
607.09	9.502
607.42	8.943
607.75	8.439
608.08	8.597
608.42	9.951
608.75	9.603
609.08	9.158
609.41	9.567
609.75	9.576
610.08	9.896
610.41	9.590
610.74	9.366
611.07	9.486
611.41	10.402
611.74	10.558
612.07	9.990
612.40	9.811
612.73	9.526
613.07	10.453
613.40	10.111
613.73	9.596
614.06	9.570
614.39	10.593
614.72	10.316
615.06	9.874
615.39	10.032
615.72	9.765
616.05	9.463
616.38	10.061
616.71	10.154
617.05	10.777
617.38	10.162
617.71	10.150
618.04	9.736
618.37	10.349
618.70	10.330
619.03	11.908
619.36	11.609
619.69	11.690
620.03	11.676
620.36	11.029
620.69	10.959
621.02	10.767
621.35	10.650
621.68	10.981
622.01	11.378
622.34	11.573
622.67	12.928
623.00	10.638
623.33	10.722
623.66	11.008
623.99	11.046
624.32	11.983
624.65	11.582
624.99	10.269
625.32	11.586
625.65	10.744
625.98	11.606
626.31	13.219
626.64	12.327
626.97	10.973
627.30	11.970
627.63	13.372
627.96	12.616
628.29	12.336
628.62	14.639
628.95	13.019
629.28	12.682
629.61	13.566
629.94	13.810
630.26	12.679
630.59	12.965
630.92	12.835
631.25	12.636
631.58	13.413
631.91	14.402
632.24	12.764
632.57	13.431
632.90	13.377
633.23	13.870
633.56	14.463
633.89	14.043
634.22	12.713
634.55	15.976
634.88	13.533
635.20	14.934
635.53	14.699
635.86	13.490
636.19	14.000
636.52	14.418
636.85	14.089
637.18	13.594
637.51	14.539
637.83	13.810
638.16	14.450
638.49	15.869
638.82	15.929
639.15	15.125
639.48	14.713
639.81	14.477
640.13	16.797
640.46	15.034
640.79	14.927
641.12	14.718
641.45	15.642
641.77	16.789
642.10	15.205
642.43	14.865
642.76	15.325
643.09	17.025
643.41	16.540
643.74	17.901
644.07	16.463
644.40	18.252
644.73	17.795
645.05	17.908
645.38	17.062
645.71	16.103
646.04	16.611
