SpectraSuite Data File
++++++++++++++++++++++++++++++++++++
Date: Wed May 13 20:32:21 PDT 2015
User: schluterlab
Dark Spectrum Present: Yes
Reference Spectrum Present: Yes
Number of Sampled Component Spectra: 1
Spectrometers: USB2E3373
Integration Time (usec): 3000 (USB2E3373)
Spectra Averaged: 3 (USB2E3373)
Boxcar Smoothing: 0 (USB2E3373)
Correct for Electrical Dark: No (USB2E3373)
Strobe/Lamp Enabled: No (USB2E3373)
Correct for Detector Non-linearity: No (USB2E3373)
Correct for Stray Light: No (USB2E3373)
Number of Pixels in Processed Spectrum: 2048
>>>>>Begin Processed Spectral Data<<<<<
178.53	0.000
178.91	-875.000
179.29	-925.000
179.67	-127.778
180.04	-925.000
180.42	2050.000
180.80	800.000
181.18	-825.000
181.56	528.571
181.94	0.000
182.31	-514.286
182.69	1166.667
183.07	-362.500
183.45	-333.333
183.83	336.364
184.20	-300.000
184.58	1250.000
184.96	3700.000
185.34	-660.000
185.72	-412.500
186.09	-1550.000
186.47	1950.000
186.85	1800.000
187.23	3500.000
187.61	-1033.333
187.98	875.000
188.36	409.091
188.74	363.636
189.12	-640.000
189.49	400.000
189.87	-2900.000
190.25	-825.000
190.63	292.857
191.00	307.692
191.38	650.000
191.76	-1025.000
192.14	1300.000
192.51	475.000
192.89	733.333
193.27	312.500
193.65	-900.000
194.02	400.000
194.40	760.000
194.78	410.000
195.15	441.667
195.53	520.000
195.91	-1900.000
196.29	262.500
196.66	294.737
197.04	-270.000
197.42	0.000
197.79	480.000
198.17	-3800.000
198.55	385.714
198.92	537.500
199.30	620.000
199.68	0.000
200.05	300.000
200.43	585.714
200.81	3500.000
201.18	1300.000
201.56	-1233.333
201.94	344.444
202.31	433.333
202.69	375.000
203.07	430.000
203.44	0.000
203.82	1025.000
204.19	557.143
204.57	435.714
204.95	550.000
205.32	1366.667
205.70	463.636
206.08	285.714
206.45	2150.000
206.83	337.500
207.20	616.667
207.58	440.000
207.96	272.222
208.33	487.500
208.71	-850.000
209.08	628.571
209.46	466.667
209.84	354.545
210.21	-1200.000
210.59	1250.000
210.96	-450.000
211.34	2300.000
211.71	490.000
212.09	533.333
212.46	0.000
212.84	966.667
213.22	1125.000
213.59	-3700.000
213.97	683.333
214.34	657.143
214.72	445.455
215.09	820.000
215.47	-2000.000
215.84	-1750.000
216.22	1100.000
216.59	328.571
216.97	975.000
217.34	490.909
217.72	-600.000
218.09	0.000
218.47	-3900.000
218.84	466.667
219.22	500.000
219.59	1600.000
219.97	-585.714
220.34	780.000
220.72	-1433.333
221.09	292.857
221.47	1200.000
221.84	-716.667
222.22	0.000
222.59	1125.000
222.97	-2400.000
223.34	800.000
223.72	353.846
224.09	960.000
224.46	1750.000
224.84	-3600.000
225.21	-820.000
225.59	-3900.000
225.96	420.000
226.34	270.000
226.71	2050.000
227.08	525.000
227.46	470.000
227.83	-700.000
228.21	-2050.000
228.58	455.556
228.95	-1550.000
229.33	-2400.000
229.70	1700.000
230.08	714.286
230.45	-700.000
230.82	408.333
231.20	683.333
231.57	528.571
231.95	408.333
232.32	218.182
232.69	363.636
233.07	485.714
233.44	307.692
233.81	-1633.333
234.19	242.105
234.56	391.667
234.93	350.000
235.31	390.909
235.68	230.769
236.05	307.143
236.43	184.848
236.80	215.789
237.17	3700.000
237.55	252.381
237.92	207.143
238.29	285.714
238.67	174.194
239.04	186.207
239.41	172.222
239.79	108.696
240.16	157.143
240.53	143.182
240.91	113.725
241.28	130.000
241.65	136.000
242.02	95.652
242.40	122.581
242.77	128.333
243.14	98.925
243.51	100.000
243.89	100.000
244.26	96.667
244.63	96.774
245.00	90.426
245.38	100.000
245.75	89.720
246.12	77.982
246.49	86.131
246.87	92.000
247.24	90.769
247.61	91.429
247.98	83.007
248.36	76.351
248.73	80.255
249.10	91.720
249.47	79.096
249.84	81.283
250.22	80.214
250.59	81.065
250.96	83.333
251.33	71.090
251.70	82.178
252.08	79.524
252.45	74.439
252.82	70.435
253.19	81.277
253.56	76.471
253.94	76.349
254.31	68.359
254.68	81.538
255.05	74.539
255.42	74.390
255.79	73.897
256.16	75.090
256.54	73.498
256.91	76.157
257.28	67.986
257.65	71.287
258.02	68.323
258.39	69.716
258.76	69.900
259.14	70.833
259.51	65.957
259.88	70.807
260.25	73.414
260.62	71.098
260.99	71.739
261.36	70.571
261.73	69.054
262.10	68.895
262.47	72.113
262.85	63.231
263.22	68.946
263.59	69.801
263.96	69.231
264.33	68.407
264.70	69.737
265.07	70.588
265.44	67.929
265.81	61.800
266.18	66.583
266.55	64.878
266.92	67.568
267.29	65.509
267.66	63.532
268.03	65.682
268.40	66.822
268.77	67.303
269.14	65.766
269.51	61.174
269.88	66.434
270.25	67.043
270.62	65.618
270.99	66.667
271.36	63.090
271.73	68.224
272.10	67.174
272.47	67.527
272.84	66.450
273.21	63.312
273.58	64.192
273.95	62.893
274.32	59.711
274.69	65.310
275.06	61.811
275.43	67.447
275.80	65.531
276.17	65.173
276.54	64.033
276.91	64.427
277.28	64.063
277.65	63.830
278.02	63.561
278.39	64.453
278.76	62.000
279.13	64.340
279.50	59.963
279.87	62.351
280.23	64.072
280.60	63.250
280.97	62.662
281.34	60.000
281.71	59.636
282.08	66.219
282.45	59.273
282.82	61.634
283.19	58.824
283.56	60.175
283.92	61.929
284.29	60.141
284.66	61.343
285.03	57.866
285.40	58.803
285.77	58.249
286.14	58.549
286.51	58.667
286.87	58.120
287.24	57.818
287.61	57.303
287.98	56.656
288.35	57.211
288.72	55.607
289.08	54.617
289.45	56.837
289.82	55.122
290.19	53.375
290.56	54.824
290.93	51.057
291.29	53.834
291.66	52.655
292.03	53.634
292.40	52.570
292.77	50.296
293.13	51.642
293.50	52.624
293.87	50.519
294.24	48.296
294.60	50.801
294.97	49.564
295.34	49.083
295.71	51.705
296.08	47.436
296.44	49.656
296.81	45.971
297.18	49.458
297.55	46.174
297.91	46.174
298.28	48.594
298.65	45.170
299.02	47.431
299.38	47.145
299.75	44.609
300.12	44.955
300.48	46.000
300.85	45.006
301.22	45.860
301.59	45.455
301.95	47.607
302.32	45.315
302.69	43.847
303.05	43.636
303.42	43.580
303.79	42.922
304.15	42.774
304.52	43.105
304.89	42.741
305.25	41.647
305.62	42.016
305.99	43.684
306.35	41.723
306.72	43.161
307.09	42.175
307.45	43.356
307.82	42.299
308.19	42.494
308.55	42.503
308.92	42.535
309.29	40.021
309.65	41.145
310.02	41.543
310.38	41.935
310.75	41.816
311.12	41.351
311.48	40.857
311.85	42.348
312.22	41.519
312.58	41.164
312.95	41.816
313.31	39.417
313.68	42.412
314.05	42.899
314.41	42.613
314.78	43.202
315.14	42.105
315.51	42.636
315.87	41.782
316.24	43.694
316.61	40.936
316.97	41.389
317.34	41.683
317.70	43.977
318.07	44.273
318.43	44.716
318.80	43.205
319.16	44.821
319.53	44.841
319.89	44.571
320.26	45.700
320.62	46.131
320.99	44.747
321.35	46.667
321.72	47.947
322.08	47.779
322.45	48.458
322.81	47.481
323.18	48.555
323.54	48.794
323.91	49.434
324.27	50.478
324.64	50.792
325.00	51.037
325.37	51.319
325.73	50.898
326.10	51.280
326.46	52.688
326.83	53.667
327.19	53.715
327.56	54.443
327.92	54.943
328.29	55.989
328.65	56.354
329.01	54.422
329.38	56.152
329.74	55.402
330.11	57.399
330.47	56.749
330.84	56.526
331.20	57.468
331.56	56.147
331.93	58.056
332.29	58.385
332.66	57.876
333.02	58.501
333.38	58.446
333.75	58.467
334.11	59.075
334.48	59.184
334.84	61.581
335.20	61.545
335.57	58.568
335.93	57.500
336.29	59.066
336.66	61.226
337.02	57.466
337.38	59.167
337.75	59.447
338.11	59.803
338.47	62.063
338.84	61.045
339.20	59.450
339.56	60.949
339.93	60.091
340.29	60.598
340.65	61.408
341.02	60.820
341.38	60.676
341.74	60.175
342.11	62.096
342.47	60.352
342.83	61.130
343.20	61.905
343.56	59.983
343.92	61.667
344.28	60.119
344.65	62.683
345.01	60.017
345.37	60.463
345.73	60.745
346.10	61.125
346.46	60.678
346.82	60.379
347.19	60.735
347.55	60.591
347.91	61.327
348.27	61.380
348.63	60.284
349.00	59.628
349.36	61.823
349.72	60.385
350.08	61.912
350.45	62.490
350.81	61.332
351.17	60.049
351.53	60.770
351.89	60.314
352.26	61.563
352.62	61.989
352.98	61.994
353.34	61.709
353.70	60.229
354.07	61.129
354.43	60.635
354.79	62.108
355.15	61.612
355.51	63.149
355.87	64.245
356.24	62.215
356.60	62.630
356.96	64.280
357.32	62.633
357.68	63.071
358.04	62.708
358.40	62.074
358.77	62.363
359.13	63.299
359.49	61.961
359.85	61.746
360.21	62.919
360.57	64.981
360.93	65.231
361.29	63.341
361.66	63.545
362.02	63.507
362.38	65.627
362.74	65.179
363.10	64.175
363.46	65.150
363.82	64.701
364.18	62.628
364.54	65.007
364.90	65.439
365.26	66.471
365.62	66.545
365.98	64.792
366.35	64.685
366.71	66.450
367.07	65.914
367.43	67.344
367.79	66.881
368.15	66.595
368.51	67.224
368.87	68.094
369.23	67.593
369.59	66.836
369.95	67.868
370.31	67.379
370.67	65.870
371.03	68.689
371.39	68.513
371.75	68.603
372.11	67.781
372.47	69.135
372.83	70.965
373.19	67.919
373.55	70.658
373.91	71.208
374.27	68.866
374.63	70.036
374.99	70.198
375.35	69.505
375.71	70.528
376.07	70.645
376.42	70.014
376.78	70.842
377.14	70.353
377.50	72.185
377.86	70.612
378.22	71.745
378.58	70.426
378.94	71.590
379.30	71.883
379.66	72.970
380.02	72.973
380.38	71.706
380.74	73.649
381.09	73.533
381.45	74.554
381.81	73.587
382.17	73.822
382.53	75.220
382.89	75.556
383.25	74.422
383.61	74.845
383.97	75.109
384.32	74.672
384.68	73.792
385.04	75.722
385.40	75.480
385.76	74.140
386.12	77.267
386.48	77.722
386.83	79.282
387.19	79.097
387.55	77.180
387.91	77.207
388.27	76.824
388.62	77.996
388.98	78.194
389.34	79.036
389.70	78.786
390.06	79.658
390.42	79.896
390.77	78.499
391.13	79.770
391.49	78.807
391.85	78.740
392.20	78.486
392.56	79.924
392.92	80.224
393.28	80.473
393.64	79.856
393.99	80.330
394.35	81.328
394.71	80.928
395.07	80.062
395.42	82.386
395.78	80.216
396.14	81.813
396.50	83.772
396.85	83.471
397.21	81.381
397.57	82.765
397.92	82.873
398.28	83.352
398.64	83.513
399.00	83.828
399.35	83.305
399.71	84.896
400.07	83.442
400.42	82.638
400.78	83.353
401.14	84.695
401.49	86.388
401.85	85.118
402.21	83.533
402.57	86.305
402.92	85.876
403.28	86.071
403.63	86.324
403.99	87.452
404.35	86.667
404.70	85.612
405.06	86.954
405.42	87.960
405.77	86.114
406.13	85.440
406.49	87.522
406.84	87.005
407.20	88.180
407.55	88.577
407.91	89.267
408.27	89.279
408.62	88.019
408.98	87.745
409.34	89.483
409.69	90.516
410.05	90.520
410.40	90.459
410.76	90.323
411.11	87.998
411.47	89.776
411.83	88.027
412.18	89.177
412.54	90.224
412.89	88.735
413.25	90.024
413.60	92.156
413.96	90.103
414.31	89.976
414.67	91.191
415.03	92.185
415.38	89.497
415.74	91.061
416.09	92.031
416.45	91.299
416.80	93.391
417.16	92.225
417.51	92.568
417.87	90.944
418.22	91.167
418.58	92.447
418.93	93.489
419.29	90.516
419.64	92.884
420.00	91.829
420.35	91.420
420.71	91.154
421.06	90.036
421.42	92.105
421.77	93.161
422.12	92.532
422.48	91.365
422.83	94.234
423.19	91.878
423.54	93.674
423.90	91.768
424.25	91.848
424.61	91.310
424.96	91.953
425.31	92.968
425.67	91.067
426.02	91.086
426.38	93.162
426.73	91.691
427.09	92.462
427.44	91.547
427.79	93.214
428.15	92.976
428.50	92.744
428.85	93.087
429.21	92.490
429.56	93.105
429.92	91.193
430.27	92.205
430.62	91.603
430.98	93.721
431.33	91.443
431.68	93.403
432.04	90.788
432.39	92.975
432.74	92.759
433.10	94.510
433.45	92.886
433.80	93.570
434.16	93.483
434.51	92.632
434.86	92.873
435.22	94.163
435.57	93.799
435.92	92.978
436.28	94.958
436.63	92.826
436.98	94.047
437.34	95.408
437.69	96.091
438.04	94.154
438.39	93.910
438.75	94.945
439.10	95.084
439.45	94.864
439.81	93.776
440.16	93.224
440.51	94.083
440.86	94.036
441.22	94.438
441.57	94.002
441.92	94.933
442.27	94.295
442.63	94.207
442.98	94.366
443.33	92.826
443.68	95.044
444.03	93.948
444.39	94.645
444.74	94.968
445.09	94.124
445.44	94.259
445.79	94.062
446.15	93.647
446.50	93.753
446.85	94.399
447.20	94.595
447.55	95.868
447.91	93.381
448.26	93.155
448.61	93.499
448.96	95.238
449.31	94.713
449.66	92.741
450.02	92.423
450.37	93.594
450.72	94.078
451.07	92.444
451.42	91.733
451.77	93.893
452.12	93.014
452.47	92.910
452.83	93.124
453.18	92.604
453.53	93.939
453.88	94.507
454.23	93.545
454.58	94.125
454.93	94.342
455.28	92.706
455.63	93.265
455.98	96.250
456.34	92.902
456.69	95.492
457.04	95.108
457.39	91.935
457.74	94.660
458.09	92.754
458.44	94.812
458.79	91.215
459.14	92.833
459.49	91.769
459.84	90.914
460.19	92.575
460.54	90.567
460.89	94.131
461.24	93.078
461.59	94.189
461.94	92.355
462.29	92.760
462.64	91.130
462.99	92.518
463.34	93.133
463.69	92.745
464.04	92.754
464.39	92.464
464.74	94.177
465.09	93.064
465.44	91.967
465.79	91.779
466.14	91.516
466.49	93.548
466.84	93.403
467.19	91.430
467.54	93.812
467.89	91.837
468.24	93.077
468.59	94.200
468.94	92.425
469.29	92.674
469.64	93.507
469.99	94.317
470.34	93.857
470.68	93.103
471.03	92.789
471.38	95.344
471.73	92.605
472.08	94.145
472.43	93.907
472.78	92.100
473.13	91.784
473.48	93.134
473.83	95.366
474.17	94.337
474.52	94.603
474.87	92.586
475.22	93.151
475.57	93.391
475.92	92.724
476.27	92.616
476.61	94.374
476.96	94.997
477.31	91.889
477.66	94.092
478.01	92.577
478.36	94.870
478.70	93.250
479.05	94.036
479.40	94.524
479.75	93.442
480.10	93.439
480.45	91.909
480.79	93.454
481.14	93.836
481.49	92.406
481.84	93.096
482.19	93.821
482.53	93.073
482.88	92.601
483.23	91.589
483.58	92.493
483.92	92.455
484.27	89.847
484.62	91.207
484.97	90.106
485.31	91.575
485.66	88.520
486.01	87.620
486.36	87.641
486.70	89.001
487.05	89.896
487.40	89.581
487.75	89.896
488.09	90.689
488.44	89.927
488.79	91.537
489.13	91.444
489.48	91.028
489.83	91.239
490.17	93.117
490.52	91.143
490.87	92.537
491.22	91.496
491.56	90.797
491.91	91.252
492.26	90.537
492.60	91.336
492.95	91.066
493.30	91.028
493.64	91.274
493.99	90.251
494.34	91.027
494.68	93.178
495.03	92.481
495.37	92.136
495.72	92.300
496.07	92.483
496.41	89.912
496.76	90.150
497.11	90.995
497.45	90.918
497.80	92.466
498.14	91.836
498.49	91.220
498.84	92.713
499.18	91.619
499.53	90.836
499.87	91.286
500.22	91.945
500.56	93.738
500.91	90.865
501.26	91.418
501.60	92.691
501.95	90.697
502.29	93.533
502.64	92.970
502.98	93.081
503.33	90.219
503.67	91.879
504.02	91.254
504.36	91.483
504.71	92.623
505.06	92.578
505.40	92.854
505.75	92.816
506.09	92.323
506.44	94.623
506.78	94.301
507.13	93.993
507.47	94.495
507.82	93.820
508.16	96.606
508.51	95.485
508.85	94.240
509.19	95.561
509.54	95.051
509.88	95.106
510.23	94.859
510.57	96.285
510.92	96.945
511.26	95.118
511.61	95.954
511.95	94.207
512.30	96.713
512.64	96.454
512.98	96.677
513.33	97.591
513.67	93.970
514.02	96.320
514.36	97.761
514.70	97.399
515.05	97.267
515.39	95.681
515.74	98.311
516.08	96.870
516.42	98.946
516.77	99.610
517.11	97.059
517.46	97.968
517.80	99.477
518.14	99.479
518.49	100.875
518.83	99.261
519.17	99.711
519.52	99.151
519.86	100.627
520.20	101.156
520.55	100.838
520.89	103.771
521.23	101.870
521.58	100.420
521.92	102.449
522.26	99.756
522.61	102.243
522.95	101.596
523.29	101.887
523.64	103.293
523.98	102.280
524.32	102.111
524.66	101.082
525.01	101.838
525.35	101.611
525.69	99.815
526.04	101.246
526.38	102.135
526.72	100.798
527.06	104.206
527.41	98.639
527.75	103.408
528.09	103.276
528.43	102.677
528.78	102.643
529.12	99.758
529.46	102.572
529.80	103.094
530.15	103.614
530.49	100.862
530.83	101.392
531.17	103.851
531.51	103.113
531.86	102.387
532.20	103.520
532.54	103.780
532.88	102.888
533.22	101.062
533.57	101.111
533.91	100.722
534.25	101.701
534.59	102.257
534.93	101.309
535.27	102.052
535.62	102.320
535.96	102.699
536.30	104.768
536.64	102.833
536.98	105.640
537.32	100.658
537.66	102.733
538.01	104.411
538.35	102.133
538.69	101.851
539.03	100.585
539.37	101.597
539.71	100.843
540.05	102.810
540.39	102.126
540.73	99.224
541.07	101.622
541.42	102.870
541.76	102.774
542.10	101.682
542.44	101.987
542.78	100.725
543.12	100.256
543.46	100.131
543.80	101.561
544.14	100.770
544.48	100.762
544.82	101.475
545.16	101.627
545.50	99.100
545.84	102.218
546.18	102.155
546.52	101.032
546.86	99.863
547.20	101.551
547.54	101.136
547.88	101.467
548.22	97.509
548.56	99.560
548.90	100.256
549.24	102.559
549.58	100.750
549.92	101.305
550.26	103.125
550.60	98.824
550.94	101.056
551.28	100.219
551.62	101.078
551.96	99.368
552.30	101.160
552.64	100.676
552.98	99.797
553.32	98.854
553.66	99.318
554.00	101.647
554.34	100.414
554.68	100.501
555.02	98.872
555.36	98.260
555.69	98.782
556.03	98.452
556.37	99.523
556.71	98.909
557.05	99.510
557.39	99.230
557.73	99.718
558.07	99.782
558.41	99.638
558.75	100.073
559.08	100.746
559.42	101.587
559.76	99.191
560.10	98.144
560.44	99.161
560.78	97.139
561.12	97.032
561.45	98.501
561.79	96.638
562.13	99.799
562.47	98.292
562.81	101.325
563.15	97.258
563.48	97.812
563.82	98.174
564.16	97.646
564.50	97.331
564.84	94.943
565.17	98.456
565.51	98.722
565.85	96.510
566.19	94.928
566.52	97.973
566.86	95.238
567.20	96.226
567.54	98.573
567.88	95.872
568.21	96.402
568.55	94.742
568.89	95.574
569.23	92.825
569.56	92.834
569.90	93.283
570.24	93.864
570.57	92.792
570.91	91.273
571.25	91.692
571.59	91.046
571.92	91.647
572.26	91.854
572.60	92.973
572.93	89.385
573.27	90.417
573.61	90.396
573.95	90.594
574.28	89.548
574.62	90.258
574.96	88.889
575.29	88.943
575.63	89.126
575.97	88.857
576.30	88.502
576.64	88.552
576.98	88.624
577.31	88.886
577.65	89.229
577.98	88.862
578.32	87.788
578.66	88.155
578.99	88.656
579.33	88.840
579.67	88.178
580.00	88.444
580.34	89.155
580.67	88.750
581.01	87.610
581.35	87.359
581.68	87.800
582.02	87.074
582.35	88.083
582.69	88.118
583.02	88.219
583.36	88.656
583.70	88.212
584.03	89.368
584.37	88.011
584.70	88.689
585.04	86.473
585.37	86.976
585.71	87.946
586.04	87.364
586.38	88.401
586.72	88.622
587.05	87.096
587.39	86.966
587.72	87.838
588.06	88.100
588.39	86.694
588.73	88.178
589.06	88.532
589.40	89.024
589.73	88.948
590.07	88.754
590.40	88.601
590.73	89.813
591.07	89.377
591.40	89.625
591.74	89.524
592.07	89.442
592.41	88.838
592.74	87.341
593.08	86.709
593.41	88.042
593.75	85.759
594.08	87.697
594.41	87.275
594.75	88.281
595.08	86.936
595.42	87.776
595.75	87.785
596.09	88.096
596.42	87.544
596.75	88.012
597.09	87.835
597.42	86.341
597.75	87.279
598.09	87.000
598.42	86.727
598.76	87.718
599.09	86.735
599.42	85.044
599.76	86.457
600.09	85.392
600.42	86.158
600.76	85.143
601.09	86.412
601.42	85.997
601.76	86.148
602.09	85.929
602.42	86.704
602.76	86.578
603.09	87.254
603.42	87.193
603.76	86.014
604.09	85.808
604.42	85.161
604.76	85.702
605.09	86.588
605.42	84.780
605.75	84.810
606.09	86.255
606.42	85.370
606.75	85.566
607.09	84.387
607.42	85.237
607.75	84.093
608.08	85.106
608.42	85.970
608.75	85.392
609.08	84.181
609.41	85.293
609.75	84.707
610.08	84.213
610.41	85.940
610.74	85.572
611.07	86.314
611.41	84.936
611.74	85.721
612.07	85.559
612.40	87.093
612.73	85.000
613.07	86.530
613.40	85.835
613.73	85.370
614.06	86.022
614.39	84.321
614.72	83.632
615.06	83.824
615.39	84.607
615.72	83.640
616.05	84.583
616.38	85.992
616.71	87.173
617.05	84.923
617.38	86.350
617.71	86.246
618.04	86.779
618.37	83.146
618.70	85.065
619.03	86.776
619.36	85.404
619.69	87.113
620.03	87.706
620.36	86.497
620.69	88.356
621.02	86.578
621.35	87.862
621.68	85.280
622.01	85.991
622.34	85.930
622.67	87.833
623.00	85.180
623.33	86.204
623.66	86.562
623.99	88.439
624.32	84.665
624.65	86.441
624.99	86.048
625.32	84.721
625.65	86.927
625.98	87.932
626.31	84.448
626.64	86.612
626.97	86.284
627.30	86.367
627.63	86.300
627.96	87.973
628.29	87.752
628.62	86.459
628.95	88.774
