SpectraSuite Data File
++++++++++++++++++++++++++++++++++++
Date: Wed May 13 20:33:35 PDT 2015
User: schluterlab
Dark Spectrum Present: Yes
Reference Spectrum Present: Yes
Number of Sampled Component Spectra: 1
Spectrometers: USB2E3373
Integration Time (usec): 3000 (USB2E3373)
Spectra Averaged: 3 (USB2E3373)
Boxcar Smoothing: 0 (USB2E3373)
Correct for Electrical Dark: No (USB2E3373)
Strobe/Lamp Enabled: No (USB2E3373)
Correct for Detector Non-linearity: No (USB2E3373)
Correct for Stray Light: No (USB2E3373)
Number of Pixels in Processed Spectrum: 2048
>>>>>Begin Processed Spectral Data<<<<<
178.53	0.000
178.91	-1025.000
179.29	-1025.000
179.67	-144.444
180.04	-975.000
180.42	2150.000
180.80	900.000
181.18	-900.000
181.56	500.000
181.94	0.000
182.31	-485.714
182.69	1300.000
183.07	-400.000
183.45	-388.889
183.83	372.727
184.20	-220.000
184.58	2050.000
184.96	4900.000
185.34	-760.000
185.72	-450.000
186.09	-1700.000
186.47	1900.000
186.85	2100.000
187.23	4100.000
187.61	-1233.333
187.98	1075.000
188.36	318.182
188.74	390.909
189.12	-740.000
189.49	500.000
189.87	-3600.000
190.25	-725.000
190.63	292.857
191.00	330.769
191.38	616.667
191.76	-900.000
192.14	1175.000
192.51	462.500
192.89	633.333
193.27	312.500
193.65	-750.000
194.02	340.000
194.40	580.000
194.78	440.000
195.15	333.333
195.53	440.000
195.91	-1750.000
196.29	193.750
196.66	257.895
197.04	-260.000
197.42	0.000
197.79	300.000
198.17	-3600.000
198.55	614.286
198.92	537.500
199.30	680.000
199.68	0.000
200.05	222.222
200.43	442.857
200.81	3600.000
201.18	1433.333
201.56	-1100.000
201.94	511.111
202.31	466.667
202.69	325.000
203.07	320.000
203.44	0.000
203.82	825.000
204.19	542.857
204.57	278.571
204.95	412.500
205.32	1400.000
205.70	381.818
206.08	314.286
206.45	1550.000
206.83	281.250
207.20	666.667
207.58	620.000
207.96	250.000
208.33	550.000
208.71	-500.000
209.08	428.571
209.46	511.111
209.84	281.818
210.21	-900.000
210.59	750.000
210.96	-387.500
211.34	1850.000
211.71	480.000
212.09	600.000
212.46	0.000
212.84	1400.000
213.22	1075.000
213.59	-3500.000
213.97	466.667
214.34	728.571
214.72	409.091
215.09	520.000
215.47	-1450.000
215.84	-1600.000
216.22	1266.667
216.59	257.143
216.97	925.000
217.34	318.182
217.72	-350.000
218.09	0.000
218.47	-3300.000
218.84	488.889
219.22	471.429
219.59	1300.000
219.97	-385.714
220.34	780.000
220.72	-1100.000
221.09	285.714
221.47	1025.000
221.84	-683.333
222.22	0.000
222.59	850.000
222.97	-1650.000
223.34	880.000
223.72	223.077
224.09	580.000
224.46	1200.000
224.84	-3600.000
225.21	-800.000
225.59	-2700.000
225.96	420.000
226.34	250.000
226.71	2550.000
227.08	300.000
227.46	460.000
227.83	-775.000
228.21	-1600.000
228.58	377.778
228.95	-1900.000
229.33	-1450.000
229.70	1166.667
230.08	457.143
230.45	-680.000
230.82	241.667
231.20	533.333
231.57	300.000
231.95	325.000
232.32	204.545
232.69	263.636
233.07	428.571
233.44	223.077
233.81	-966.667
234.19	178.947
234.56	300.000
234.93	258.333
235.31	327.273
235.68	76.923
236.05	185.714
236.43	118.182
236.80	142.105
237.17	2400.000
237.55	138.095
237.92	128.571
238.29	185.714
238.67	119.355
239.04	117.241
239.41	88.889
239.79	73.913
240.16	80.952
240.53	79.545
240.91	66.667
241.28	80.000
241.65	74.000
242.02	52.174
242.40	40.323
242.77	60.000
243.14	43.011
243.51	46.067
243.89	36.471
244.26	40.000
244.63	36.559
245.00	34.043
245.38	27.723
245.75	27.103
246.12	30.275
246.49	32.117
246.87	31.200
247.24	33.077
247.61	22.857
247.98	28.105
248.36	13.514
248.73	19.108
249.10	29.936
249.47	19.774
249.84	20.321
250.22	18.717
250.59	20.118
250.96	22.727
251.33	22.275
251.70	19.802
252.08	21.429
252.45	14.350
252.82	20.435
253.19	14.468
253.56	19.608
253.94	17.842
254.31	17.187
254.68	16.538
255.05	15.867
255.42	15.854
255.79	13.603
256.16	15.162
256.54	13.781
256.91	14.235
257.28	8.273
257.65	12.871
258.02	10.870
258.39	13.880
258.76	10.702
259.14	14.881
259.51	10.638
259.88	10.248
260.25	13.293
260.62	12.139
260.99	9.627
261.36	12.613
261.73	11.461
262.10	9.884
262.47	12.113
262.85	13.370
263.22	11.111
263.59	12.251
263.96	11.538
264.33	11.749
264.70	11.053
265.07	12.276
265.44	10.101
265.81	9.002
266.18	10.553
266.55	10.732
266.92	8.354
267.29	10.417
267.66	9.633
268.03	10.682
268.40	10.748
268.77	8.831
269.14	10.135
269.51	10.835
269.88	11.422
270.25	8.804
270.62	9.663
270.99	11.183
271.36	10.086
271.73	5.841
272.10	8.696
272.47	12.258
272.84	9.957
273.21	10.273
273.58	7.205
273.95	8.595
274.32	10.537
274.69	7.281
275.06	10.039
275.43	9.362
275.80	8.617
276.17	6.517
276.54	10.603
276.91	8.300
277.28	7.227
277.65	9.284
278.02	7.660
278.39	8.984
278.76	8.364
279.13	10.755
279.50	9.683
279.87	6.375
280.23	8.184
280.60	8.704
280.97	7.024
281.34	8.673
281.71	9.818
282.08	7.678
282.45	7.273
282.82	7.105
283.19	6.061
283.56	6.842
283.92	8.629
284.29	8.289
284.66	7.078
285.03	5.244
285.40	5.986
285.77	6.229
286.14	7.254
286.51	7.500
286.87	8.376
287.24	6.678
287.61	7.865
287.98	8.604
288.35	7.132
288.72	7.632
289.08	8.451
289.45	5.601
289.82	7.967
290.19	5.495
290.56	7.198
290.93	5.287
291.29	5.828
291.66	6.932
292.03	8.140
292.40	9.251
292.77	6.065
293.13	6.418
293.50	6.706
293.87	6.667
294.24	4.444
294.60	4.803
294.97	6.541
295.34	8.181
295.71	7.244
296.08	4.416
296.44	5.640
296.81	5.812
297.18	7.859
297.55	4.881
297.91	5.541
298.28	6.693
298.65	6.136
299.02	5.797
299.38	4.648
299.75	2.426
300.12	5.747
300.48	5.125
300.85	5.672
301.22	4.076
301.59	4.419
301.95	5.416
302.32	6.290
302.69	4.301
303.05	4.485
303.42	4.198
303.79	6.002
304.15	5.012
304.52	4.519
304.89	4.530
305.25	4.176
305.62	5.323
305.99	5.785
306.35	5.705
306.72	4.821
307.09	5.882
307.45	6.419
307.82	3.125
308.19	5.408
308.55	5.933
308.92	5.478
309.29	4.118
309.65	4.348
310.02	4.757
310.38	5.699
310.75	5.702
311.12	5.322
311.48	4.493
311.85	5.870
312.22	4.995
312.58	4.782
312.95	5.069
313.31	4.369
313.68	4.574
314.05	6.607
314.41	3.819
314.78	5.035
315.14	5.065
315.51	5.355
315.87	4.257
316.24	5.065
316.61	4.288
316.97	3.914
317.34	3.327
317.70	4.589
318.07	5.390
318.43	4.501
318.80	5.530
319.16	5.179
319.53	4.315
319.89	5.429
320.26	5.500
320.62	5.060
320.99	5.152
321.35	4.646
321.72	5.749
322.08	5.627
322.45	6.169
322.81	5.814
323.18	5.491
323.54	5.102
323.91	5.943
324.27	4.302
324.64	3.821
325.00	3.697
325.37	4.914
325.73	6.104
326.10	4.678
326.46	4.391
326.83	5.436
327.19	5.124
327.56	4.181
327.92	4.812
328.29	4.969
328.65	5.433
329.01	5.235
329.38	5.273
329.74	4.617
330.11	4.618
330.47	5.510
330.84	5.607
331.20	5.282
331.56	4.679
331.93	3.889
332.29	6.122
332.66	6.195
333.02	5.302
333.38	5.059
333.75	6.863
334.11	6.050
334.48	4.437
334.84	5.790
335.20	5.455
335.57	4.261
335.93	4.821
336.29	4.579
336.66	5.410
337.02	4.253
337.38	5.000
337.75	4.367
338.11	5.192
338.47	3.223
338.84	5.225
339.20	3.945
339.56	4.745
339.93	4.182
340.29	4.529
340.65	5.258
341.02	4.450
341.38	5.160
341.74	5.175
342.11	5.066
342.47	4.493
342.83	5.565
343.20	4.848
343.56	5.055
343.92	3.947
344.28	4.337
344.65	5.331
345.01	4.545
345.37	3.431
345.73	5.330
346.10	4.348
346.46	4.831
346.82	4.860
347.19	4.344
347.55	4.105
347.91	5.421
348.27	5.588
348.63	4.515
349.00	4.773
349.36	4.762
349.72	4.812
350.08	4.376
350.45	4.068
350.81	4.793
351.17	4.376
351.53	4.750
351.89	4.290
352.26	4.972
352.62	5.373
352.98	4.700
353.34	4.437
353.70	3.764
354.07	4.516
354.43	3.889
354.79	4.747
355.15	3.591
355.51	4.077
355.87	3.673
356.24	3.990
356.60	3.849
356.96	4.425
357.32	4.170
357.68	4.961
358.04	4.434
358.40	4.830
358.77	5.164
359.13	3.710
359.49	4.784
359.85	2.460
360.21	3.907
360.57	3.891
360.93	4.154
361.29	4.006
361.66	3.483
362.02	4.851
362.38	3.878
362.74	4.018
363.10	3.997
363.46	4.255
363.82	3.401
364.18	4.258
364.54	4.903
364.90	4.391
365.26	3.750
365.62	3.141
365.98	3.360
366.35	2.937
366.71	4.121
367.07	4.297
367.43	3.701
367.79	4.140
368.15	4.813
368.51	3.706
368.87	4.140
369.23	4.170
369.59	4.345
369.95	3.382
370.31	3.775
370.67	4.275
371.03	4.569
371.39	3.936
371.75	3.750
372.11	3.556
372.47	4.619
372.83	4.539
373.19	3.685
373.55	3.178
373.91	4.860
374.27	3.918
374.63	3.127
374.99	4.379
375.35	3.489
375.71	3.633
376.07	4.458
376.42	4.127
376.78	4.573
377.14	3.867
377.50	3.775
377.86	3.723
378.22	4.172
378.58	3.383
378.94	2.703
379.30	2.926
379.66	3.871
380.02	4.238
380.38	3.461
380.74	3.842
381.09	3.973
381.45	4.487
381.81	4.054
382.17	4.331
382.53	2.767
382.89	3.272
383.25	3.377
383.61	4.275
383.97	3.815
384.32	3.057
384.68	3.036
385.04	3.688
385.40	3.344
385.76	3.870
386.12	3.627
386.48	3.776
386.83	3.720
387.19	4.143
387.55	3.525
387.91	3.507
388.27	3.679
388.62	4.179
388.98	3.071
389.34	3.817
389.70	4.292
390.06	4.246
390.42	3.956
390.77	3.372
391.13	3.574
391.49	3.617
391.85	3.628
392.20	2.776
392.56	2.967
392.92	3.414
393.28	2.663
393.64	3.177
393.99	3.543
394.35	3.164
394.71	3.074
395.07	3.115
395.42	3.399
395.78	3.117
396.14	3.538
396.50	4.135
396.85	2.988
397.21	3.761
397.57	3.348
397.92	3.666
398.28	3.027
398.64	3.943
399.00	3.246
399.35	2.707
399.71	3.472
400.07	4.435
400.42	4.540
400.78	3.438
401.14	2.561
401.49	3.224
401.85	2.783
402.21	2.395
402.57	2.653
402.92	3.594
403.28	3.623
403.63	3.775
403.99	2.994
404.35	3.515
404.70	3.597
405.06	2.679
405.42	3.119
405.77	2.971
406.13	3.217
406.49	3.371
406.84	3.662
407.20	3.310
407.55	2.999
407.91	3.533
408.27	3.191
408.62	3.131
408.98	3.554
409.34	2.829
409.69	3.161
410.05	3.098
410.40	3.364
410.76	3.524
411.11	3.619
411.47	3.706
411.83	3.910
412.18	2.968
412.54	3.238
412.89	3.916
413.25	3.778
413.60	3.088
413.96	3.643
414.31	3.341
414.67	3.169
415.03	3.311
415.38	3.995
415.74	2.701
416.09	3.462
416.45	3.146
416.80	3.635
417.16	4.357
417.51	3.716
417.87	3.340
418.22	4.290
418.58	4.132
418.93	3.256
419.29	3.628
419.64	3.526
420.00	3.598
420.35	3.536
420.71	4.423
421.06	3.520
421.42	3.567
421.77	3.756
422.12	2.246
422.48	2.644
422.83	3.203
423.19	3.425
423.54	2.960
423.90	3.188
424.25	3.518
424.61	3.214
424.96	3.382
425.31	3.654
425.67	3.034
426.02	3.371
426.38	3.785
426.73	3.686
427.09	3.343
427.44	2.875
427.79	2.990
428.15	3.929
428.50	2.984
428.85	4.112
429.21	2.871
429.56	3.007
429.92	3.674
430.27	2.830
430.62	2.970
430.98	3.321
431.33	3.660
431.68	3.717
432.04	4.153
432.39	3.312
432.74	2.873
433.10	3.509
433.45	3.149
433.80	3.326
434.16	3.632
434.51	3.579
434.86	3.706
435.22	3.669
435.57	2.979
435.92	2.867
436.28	3.915
436.63	3.698
436.98	3.320
437.34	3.518
437.69	3.792
438.04	2.979
438.39	3.164
438.75	3.312
439.10	3.240
439.45	3.719
439.81	2.719
440.16	2.880
440.51	3.046
440.86	3.937
441.22	3.003
441.57	3.238
441.92	3.838
442.27	3.767
442.63	3.370
442.98	3.155
443.33	3.641
443.68	2.788
444.03	3.123
444.39	2.824
444.74	3.463
445.09	3.235
445.44	3.335
445.79	3.365
446.15	4.341
446.50	3.285
446.85	3.340
447.20	3.417
447.55	3.350
447.91	3.089
448.26	3.728
448.61	3.053
448.96	3.821
449.31	3.600
449.66	2.983
450.02	2.507
450.37	3.628
450.72	3.158
451.07	2.864
451.42	3.161
451.77	3.934
452.12	3.406
452.47	3.420
452.83	2.739
453.18	3.362
453.53	3.772
453.88	2.953
454.23	3.766
454.58	3.816
454.93	4.005
455.28	2.930
455.63	3.155
455.98	4.048
456.34	3.204
456.69	3.006
457.04	3.715
457.39	3.331
457.74	2.902
458.09	3.565
458.44	3.478
458.79	2.766
459.14	3.386
459.49	4.086
459.84	3.047
460.19	2.770
460.54	3.704
460.89	3.182
461.24	4.068
461.59	4.590
461.94	3.083
462.29	3.561
462.64	4.148
462.99	3.123
463.34	3.600
463.69	3.877
464.04	4.058
464.39	3.710
464.74	3.803
465.09	3.317
465.44	3.158
465.79	2.908
466.14	3.777
466.49	3.337
466.84	3.678
467.19	3.923
467.54	3.562
467.89	3.361
468.24	3.956
468.59	4.274
468.94	3.543
469.29	3.920
469.64	4.418
469.99	3.789
470.34	2.840
470.68	3.807
471.03	3.129
471.38	3.822
471.73	4.131
472.08	4.276
472.43	3.832
472.78	3.687
473.13	4.044
473.48	3.808
473.83	3.049
474.17	3.174
474.52	4.032
474.87	4.028
475.22	3.540
475.57	3.224
475.92	3.664
476.27	3.100
476.61	3.034
476.96	3.738
477.31	3.087
477.66	2.954
478.01	2.561
478.36	3.913
478.70	2.856
479.05	3.088
479.40	3.531
479.75	3.254
480.10	3.082
480.45	3.284
480.79	2.628
481.14	3.376
481.49	3.227
481.84	3.064
482.19	3.044
482.53	3.486
482.88	3.257
483.23	3.037
483.58	3.048
483.92	2.858
484.27	3.007
484.62	2.845
484.97	2.523
485.31	2.671
485.66	2.139
486.01	1.824
486.36	1.644
486.70	1.757
487.05	2.075
487.40	1.992
487.75	2.108
488.09	2.548
488.44	2.168
488.79	2.423
489.13	2.865
489.48	2.773
489.83	2.676
490.17	2.850
490.52	3.056
490.87	2.804
491.22	2.865
491.56	2.415
491.91	2.559
492.26	2.986
492.60	2.903
492.95	2.760
493.30	3.271
493.64	2.613
493.99	2.368
494.34	2.729
494.68	2.976
495.03	2.961
495.37	3.211
495.72	2.875
496.07	3.155
496.41	2.788
496.76	2.946
497.11	2.476
497.45	2.655
497.80	2.975
498.14	3.092
498.49	2.732
498.84	3.547
499.18	3.000
499.53	2.659
499.87	2.796
500.22	3.344
500.56	3.204
500.91	2.692
501.26	2.608
501.60	3.227
501.95	3.116
502.29	3.140
502.64	3.212
502.98	3.319
503.33	3.336
503.67	2.831
504.02	3.368
504.36	3.276
504.71	2.833
505.06	3.614
505.40	2.528
505.75	2.700
506.09	2.867
506.44	2.713
506.78	3.264
507.13	3.180
507.47	3.838
507.82	3.141
508.16	3.242
508.51	2.689
508.85	2.781
509.19	2.704
509.54	2.959
509.88	2.885
510.23	2.622
510.57	4.128
510.92	2.900
511.26	3.032
511.61	3.060
511.95	2.871
512.30	2.704
512.64	2.633
512.98	3.215
513.33	3.533
513.67	3.362
514.02	2.760
514.36	3.168
514.70	3.044
515.05	2.454
515.39	3.309
515.74	3.322
516.08	4.136
516.42	3.496
516.77	3.790
517.11	3.330
517.46	3.725
517.80	3.717
518.14	3.243
518.49	3.267
518.83	3.920
519.17	3.695
519.52	3.113
519.86	4.278
520.20	3.873
520.55	3.591
520.89	4.258
521.23	3.619
521.58	3.962
521.92	3.429
522.26	3.417
522.61	2.804
522.95	3.254
523.29	2.921
523.64	3.780
523.98	2.773
524.32	3.679
524.66	4.089
525.01	3.554
525.35	3.284
525.69	3.448
526.04	3.427
526.38	3.722
526.72	4.110
527.06	3.264
527.41	2.785
527.75	3.666
528.09	3.340
528.43	3.187
528.78	3.688
529.12	3.939
529.46	3.735
529.80	4.394
530.15	3.925
530.49	3.569
530.83	4.114
531.17	4.308
531.51	4.734
531.86	3.548
532.20	3.716
532.54	4.676
532.88	3.723
533.22	3.373
533.57	4.259
533.91	3.311
534.25	4.313
534.59	3.478
534.93	3.748
535.27	3.923
535.62	3.358
535.96	4.080
536.30	3.624
536.64	3.606
536.98	3.915
537.32	3.555
537.66	3.667
538.01	4.411
538.35	3.555
538.69	4.531
539.03	3.574
539.37	3.131
539.71	3.111
540.05	3.595
540.39	3.987
540.73	3.558
541.07	4.153
541.42	4.175
541.76	5.097
542.10	4.204
542.44	4.040
542.78	4.414
543.12	3.071
543.46	4.197
543.80	4.489
544.14	3.402
544.48	3.683
544.82	3.784
545.16	3.383
545.50	3.535
545.84	3.427
546.18	3.906
546.52	3.441
546.86	3.986
547.20	4.383
547.54	3.607
547.88	4.337
548.22	3.611
548.56	3.899
548.90	3.201
549.24	3.434
549.58	3.342
549.92	3.640
550.26	3.835
550.60	4.149
550.94	3.732
551.28	2.780
551.62	3.810
551.96	3.860
552.30	4.369
552.64	3.651
552.98	4.407
553.32	4.248
553.66	4.294
554.00	4.187
554.34	3.451
554.68	4.506
555.02	3.949
555.36	3.897
555.69	3.654
556.03	4.038
556.37	3.820
556.71	3.274
557.05	4.482
557.39	4.059
557.73	4.164
558.07	3.408
558.41	3.256
558.75	4.262
559.08	4.623
559.42	2.570
559.76	4.118
560.10	3.712
560.44	4.053
560.78	3.659
561.12	3.760
561.45	4.042
561.79	3.164
562.13	3.622
562.47	3.415
562.81	3.556
563.15	4.415
563.48	3.780
563.82	3.262
564.16	2.812
564.50	2.995
564.84	3.413
565.17	3.411
565.51	3.770
565.85	3.744
566.19	3.006
566.52	3.990
566.86	3.315
567.20	3.479
567.54	2.797
567.88	2.662
568.21	4.074
568.55	3.134
568.89	2.432
569.23	3.298
569.56	2.753
569.90	3.057
570.24	2.512
570.57	2.652
570.91	2.456
571.25	2.532
571.59	2.857
571.92	2.045
572.26	2.224
572.60	2.733
572.93	2.519
573.27	2.751
573.61	2.345
573.95	2.558
574.28	2.462
574.62	1.871
574.96	2.079
575.29	2.231
575.63	2.464
575.97	2.369
576.30	2.443
576.64	2.249
576.98	2.163
577.31	1.964
577.65	2.410
577.98	2.010
578.32	2.025
578.66	2.034
578.99	2.123
579.33	1.695
579.67	2.092
580.00	1.918
580.34	2.159
580.67	2.222
581.01	2.339
581.35	1.964
581.68	2.046
582.02	1.714
582.35	2.025
582.69	1.971
583.02	2.218
583.36	2.352
583.70	2.423
584.03	2.168
584.37	2.477
584.70	1.803
585.04	2.250
585.37	2.423
585.71	2.279
586.04	2.126
586.38	2.273
586.72	2.568
587.05	2.146
587.39	2.058
587.72	2.422
588.06	2.348
588.39	2.305
588.73	2.376
589.06	2.680
589.40	2.222
589.73	2.851
590.07	2.811
590.40	2.594
590.73	2.615
591.07	2.890
591.40	3.163
591.74	2.727
592.07	3.098
592.41	2.646
592.74	2.622
593.08	2.865
593.41	2.531
593.75	2.811
594.08	2.514
594.41	3.217
594.75	2.218
595.08	2.863
595.42	2.522
595.75	2.956
596.09	3.154
596.42	3.497
596.75	2.786
597.09	3.593
597.42	2.867
597.75	2.587
598.09	3.261
598.42	2.835
598.76	2.392
599.09	2.737
599.42	2.948
599.76	2.855
600.09	2.368
600.42	2.776
600.76	2.393
601.09	2.842
601.42	2.283
601.76	2.960
602.09	2.767
602.42	2.906
602.76	3.184
603.09	3.186
603.42	3.007
603.76	2.706
604.09	2.326
604.42	3.057
604.76	3.501
605.09	2.752
605.42	2.950
605.75	2.856
606.09	2.643
606.42	2.861
606.75	2.696
607.09	3.391
607.42	2.867
607.75	2.658
608.08	3.387
608.42	3.541
608.75	3.111
609.08	3.006
609.41	3.094
609.75	2.906
610.08	3.299
610.41	3.026
610.74	2.460
611.07	2.767
611.41	3.484
611.74	3.268
612.07	3.261
612.40	3.830
612.73	3.474
613.07	3.610
613.40	3.791
613.73	2.517
614.06	2.849
614.39	3.566
614.72	3.842
615.06	3.099
615.39	3.079
615.72	3.630
616.05	3.083
616.38	3.280
616.71	3.622
617.05	4.064
617.38	3.187
617.71	2.583
618.04	3.245
618.37	3.903
618.70	3.920
619.03	4.079
619.36	3.259
619.69	3.944
620.03	3.709
620.36	4.144
620.69	4.589
621.02	4.277
621.35	3.367
621.68	4.751
622.01	3.251
622.34	4.614
622.67	4.106
623.00	3.595
623.33	3.574
623.66	4.003
623.99	2.798
624.32	3.638
624.65	4.308
624.99	3.399
625.32	3.403
625.65	3.982
625.98	3.997
626.31	4.899
626.64	4.163
626.97	3.491
627.30	4.323
627.63	5.004
627.96	4.458
628.29	4.462
628.62	4.666
628.95	6.698
629.28	4.653
629.61	6.049
629.94	4.952
630.26	4.480
630.59	4.194
630.92	4.885
631.25	4.344
631.58	4.605
631.91	5.071
632.24	4.536
632.57	4.827
632.90	5.702
633.23	5.593
633.56	5.424
633.89	4.757
634.22	6.924
634.55	4.970
634.88	4.790
635.20	7.168
635.53	6.386
635.86	5.693
636.19	5.647
636.52	6.344
636.85	5.384
637.18	5.415
637.51	6.147
637.83	3.699
638.16	5.754
638.49	6.549
638.82	6.068
639.15	7.250
639.48	6.858
639.81	6.032
640.13	6.901
640.46	6.577
640.79	6.869
641.12	6.052
641.45	6.006
641.77	5.302
642.10	5.117
642.43	5.856
642.76	6.347
643.09	6.135
643.41	5.615
643.74	6.481
644.07	7.165
644.40	8.896
644.73	7.087
645.05	8.716
645.38	6.635
645.71	5.958
646.04	5.814
646.36	7.679
646.69	8.361
647.02	7.143
647.35	8.419
647.67	6.372
648.00	8.780
648.33	6.271
648.66	6.364
648.98	7.796
649.31	6.278
649.64	6.428
649.96	5.961
650.29	6.793
650.62	6.472
650.94	8.914
651.27	8.615
651.60	8.319
651.92	7.348
652.25	6.352
652.58	8.411
652.90	8.373
653.23	6.009
653.56	7.087
653.88	6.498
654.21	8.057
654.54	6.271
654.86	6.698
655.19	6.622
655.52	2.690
