SpectraSuite Data File
++++++++++++++++++++++++++++++++++++
Date: Wed May 13 20:34:17 PDT 2015
User: schluterlab
Dark Spectrum Present: Yes
Reference Spectrum Present: Yes
Number of Sampled Component Spectra: 1
Spectrometers: USB2E3373
Integration Time (usec): 3000 (USB2E3373)
Spectra Averaged: 3 (USB2E3373)
Boxcar Smoothing: 0 (USB2E3373)
Correct for Electrical Dark: No (USB2E3373)
Strobe/Lamp Enabled: No (USB2E3373)
Correct for Detector Non-linearity: No (USB2E3373)
Correct for Stray Light: No (USB2E3373)
Number of Pixels in Processed Spectrum: 2048
>>>>>Begin Processed Spectral Data<<<<<
178.53	0.000
178.91	-1075.000
179.29	-875.000
179.67	-111.111
180.04	-1025.000
180.42	1500.000
180.80	860.000
181.18	-725.000
181.56	442.857
181.94	0.000
182.31	-328.571
182.69	1300.000
183.07	-475.000
183.45	-322.222
183.83	454.545
184.20	-190.000
184.58	1550.000
184.96	3900.000
185.34	-540.000
185.72	-400.000
186.09	-1550.000
186.47	1750.000
186.85	1550.000
187.23	2800.000
187.61	-1466.667
187.98	975.000
188.36	472.727
188.74	372.727
189.12	-540.000
189.49	380.000
189.87	-3800.000
190.25	-650.000
190.63	314.286
191.00	353.846
191.38	666.667
191.76	-925.000
192.14	1425.000
192.51	512.500
192.89	716.667
193.27	387.500
193.65	-725.000
194.02	410.000
194.40	540.000
194.78	380.000
195.15	333.333
195.53	430.000
195.91	-1600.000
196.29	237.500
196.66	305.263
197.04	-130.000
197.42	0.000
197.79	400.000
198.17	-2700.000
198.55	428.571
198.92	475.000
199.30	700.000
199.68	0.000
200.05	283.333
200.43	557.143
200.81	3600.000
201.18	1166.667
201.56	-1066.667
201.94	488.889
202.31	400.000
202.69	291.667
203.07	320.000
203.44	0.000
203.82	950.000
204.19	571.429
204.57	300.000
204.95	437.500
205.32	1066.667
205.70	354.545
206.08	292.857
206.45	1800.000
206.83	237.500
207.20	433.333
207.58	560.000
207.96	205.556
208.33	600.000
208.71	-400.000
209.08	600.000
209.46	388.889
209.84	390.909
210.21	-1166.667
210.59	1050.000
210.96	-400.000
211.34	2100.000
211.71	430.000
212.09	466.667
212.46	0.000
212.84	1033.333
213.22	900.000
213.59	-2100.000
213.97	550.000
214.34	728.571
214.72	381.818
215.09	540.000
215.47	-1600.000
215.84	-1800.000
216.22	1366.667
216.59	300.000
216.97	900.000
217.34	345.455
217.72	-550.000
218.09	0.000
218.47	-4200.000
218.84	444.444
219.22	585.714
219.59	1333.333
219.97	-371.429
220.34	800.000
220.72	-1566.667
221.09	292.857
221.47	1100.000
221.84	-666.667
222.22	0.000
222.59	1250.000
222.97	-1900.000
223.34	620.000
223.72	330.769
224.09	740.000
224.46	1800.000
224.84	-2800.000
225.21	-740.000
225.59	-3600.000
225.96	520.000
226.34	235.000
226.71	1850.000
227.08	625.000
227.46	390.000
227.83	-750.000
228.21	-1350.000
228.58	444.444
228.95	-2000.000
229.33	-1200.000
229.70	1200.000
230.08	600.000
230.45	-720.000
230.82	341.667
231.20	650.000
231.57	585.714
231.95	366.667
232.32	159.091
232.69	263.636
233.07	542.857
233.44	300.000
233.81	-966.667
234.19	242.105
234.56	325.000
234.93	275.000
235.31	236.364
235.68	246.154
236.05	171.429
236.43	139.394
236.80	178.947
237.17	2500.000
237.55	138.095
237.92	142.857
238.29	119.048
238.67	96.774
239.04	120.690
239.41	91.667
239.79	78.261
240.16	107.143
240.53	77.273
240.91	45.098
241.28	70.000
241.65	56.000
242.02	82.609
242.40	70.968
242.77	51.667
243.14	41.935
243.51	40.449
243.89	42.353
244.26	31.111
244.63	50.538
245.00	38.298
245.38	33.663
245.75	28.037
246.12	28.440
246.49	40.146
246.87	32.800
247.24	33.077
247.61	30.000
247.98	26.797
248.36	20.946
248.73	29.936
249.10	29.299
249.47	24.294
249.84	25.134
250.22	21.925
250.59	21.302
250.96	29.798
251.33	19.905
251.70	25.248
252.08	18.571
252.45	17.040
252.82	16.087
253.19	19.574
253.56	21.176
253.94	24.066
254.31	19.922
254.68	20.385
255.05	15.498
255.42	19.106
255.79	13.603
256.16	20.217
256.54	15.548
256.91	18.149
257.28	10.791
257.65	16.172
258.02	17.081
258.39	17.350
258.76	14.381
259.14	17.262
259.51	14.590
259.88	13.354
260.25	14.199
260.62	14.451
260.99	12.733
261.36	14.114
261.73	13.181
262.10	10.465
262.47	13.521
262.85	13.928
263.22	9.972
263.59	18.803
263.96	13.187
264.33	14.360
264.70	11.579
265.07	12.532
265.44	11.111
265.81	10.949
266.18	12.814
266.55	12.683
266.92	11.794
267.29	12.037
267.66	11.009
268.03	12.273
268.40	13.084
268.77	8.592
269.14	11.486
269.51	13.770
269.88	9.790
270.25	11.738
270.62	10.337
270.99	10.968
271.36	13.090
271.73	10.047
272.10	9.783
272.47	12.473
272.84	11.255
273.21	11.950
273.58	8.734
273.95	8.595
274.32	12.397
274.69	10.707
275.06	10.827
275.43	10.638
275.80	9.419
276.17	9.165
276.54	12.266
276.91	11.265
277.28	9.375
277.65	10.445
278.02	8.075
278.39	13.672
278.76	11.273
279.13	8.868
279.50	10.428
279.87	9.163
280.23	9.980
280.60	10.251
280.97	9.427
281.34	12.389
281.71	11.091
282.08	11.132
282.45	8.909
282.82	10.124
283.19	9.091
283.56	10.175
283.92	10.152
284.29	8.466
284.66	8.893
285.03	8.318
285.40	8.803
285.77	8.586
286.14	8.636
286.51	12.333
286.87	10.256
287.24	11.401
287.61	9.631
287.98	10.065
288.35	9.984
288.72	8.879
289.08	9.390
289.45	8.731
289.82	9.431
290.19	8.006
290.56	7.810
290.93	8.006
291.29	8.589
291.66	8.997
292.03	10.029
292.40	8.664
292.77	8.580
293.13	9.254
293.50	8.163
293.87	7.407
294.24	8.000
294.60	7.132
294.97	8.285
295.34	9.309
295.71	8.807
296.08	7.407
296.44	7.840
296.81	6.605
297.18	7.724
297.55	6.201
297.91	6.201
298.28	8.434
298.65	7.833
299.02	8.827
299.38	7.171
299.75	6.065
300.12	5.875
300.48	8.000
300.85	7.522
301.22	6.242
301.59	6.313
301.95	7.305
302.32	5.905
302.69	7.288
303.05	6.545
303.42	5.309
303.79	7.248
304.15	5.594
304.52	5.794
304.89	6.620
305.25	6.961
305.62	8.154
305.99	7.084
306.35	7.383
306.72	6.839
307.09	6.770
307.45	7.995
307.82	5.246
308.19	6.402
308.55	6.041
308.92	6.122
309.29	6.019
309.65	5.938
310.02	5.814
310.38	6.237
310.75	6.125
311.12	7.677
311.48	6.374
311.85	7.128
312.22	7.076
312.58	5.509
312.95	7.286
313.31	5.922
313.68	6.549
314.05	9.073
314.41	7.638
314.78	6.546
315.14	7.746
315.51	7.930
315.87	7.921
316.24	7.150
316.61	6.920
316.97	6.458
317.34	6.556
317.70	8.222
318.07	8.373
318.43	8.513
318.80	8.810
319.16	9.040
319.53	8.537
319.89	9.524
320.26	10.800
320.62	10.714
320.99	10.505
321.35	10.202
321.72	12.526
322.08	10.760
322.45	12.537
322.81	13.081
323.18	12.139
323.54	12.152
323.91	14.528
324.27	13.193
324.64	13.886
325.00	13.616
325.37	15.560
325.73	15.350
326.10	14.916
326.46	14.427
326.83	15.617
327.19	15.884
327.56	15.331
327.92	16.885
328.29	16.681
328.65	15.101
329.01	17.148
329.38	16.836
329.74	15.882
330.11	16.871
330.47	17.539
330.84	17.371
331.20	17.122
331.56	17.248
331.93	16.944
332.29	18.279
332.66	18.584
333.02	17.459
333.38	18.248
333.75	18.093
334.11	17.705
334.48	17.036
334.84	17.371
335.20	18.000
335.57	16.591
335.93	16.429
336.29	17.582
336.66	17.313
337.02	17.195
337.38	18.333
337.75	17.469
338.11	17.010
338.47	18.140
338.84	19.432
339.20	16.972
339.56	17.974
339.93	16.091
340.29	17.482
340.65	18.004
341.02	18.935
341.38	17.438
341.74	17.632
342.11	17.729
342.47	18.062
342.83	17.295
343.20	17.576
343.56	16.765
343.92	16.579
344.28	17.347
344.65	18.057
345.01	16.667
345.37	15.952
345.73	17.005
346.10	17.306
346.46	17.373
346.82	16.886
347.19	15.873
347.55	16.502
347.91	16.909
348.27	17.502
348.63	17.057
349.00	16.909
349.36	16.667
349.72	15.958
350.08	15.559
350.45	17.413
350.81	16.572
351.17	16.613
351.53	16.462
351.89	15.347
352.26	16.496
352.62	16.359
352.98	16.207
353.34	16.352
353.70	15.630
354.07	16.048
354.43	15.238
354.79	15.688
355.15	16.281
355.51	15.907
355.87	15.837
356.24	17.020
356.60	15.076
356.96	16.573
357.32	16.026
357.68	15.354
358.04	15.360
358.40	15.519
358.77	15.493
359.13	14.838
359.49	14.980
359.85	15.159
360.21	14.673
360.57	15.953
360.93	15.154
361.29	15.042
361.66	13.700
362.02	15.672
362.38	15.361
362.74	15.551
363.10	14.138
363.46	14.674
363.82	14.210
364.18	15.345
364.54	14.339
364.90	15.368
365.26	15.221
365.62	15.047
365.98	13.733
366.35	13.610
366.71	14.895
367.07	14.202
367.43	14.514
367.79	14.918
368.15	14.511
368.51	14.244
368.87	13.847
369.23	14.557
369.59	14.337
369.95	13.529
370.31	14.387
370.67	14.203
371.03	14.382
371.39	13.921
371.75	14.632
372.11	14.225
372.47	14.223
372.83	14.914
373.19	13.584
373.55	14.117
373.91	14.580
374.27	13.608
374.63	13.382
374.99	14.901
375.35	13.538
375.71	13.639
376.07	14.815
376.42	13.067
376.78	14.248
377.14	13.908
377.50	13.775
377.86	13.298
378.22	13.717
378.58	13.158
378.94	13.199
379.30	13.168
379.66	13.832
380.02	13.943
380.38	13.054
380.74	14.226
381.09	13.692
381.45	14.075
381.81	13.636
382.17	13.185
382.53	12.390
382.89	14.321
383.25	13.759
383.61	13.321
383.97	14.009
384.32	12.851
384.68	12.515
385.04	12.723
385.40	13.251
385.76	13.329
386.12	12.824
386.48	12.964
386.83	13.470
387.19	13.544
387.55	12.492
387.91	11.911
388.27	13.059
388.62	13.645
388.98	12.408
389.34	13.329
389.70	12.692
390.06	13.752
390.42	12.387
390.77	13.677
391.13	12.380
391.49	14.150
391.85	12.794
392.20	12.366
392.56	12.437
392.92	12.949
393.28	11.598
393.64	12.770
393.99	13.134
394.35	12.221
394.71	12.296
395.07	12.087
395.42	12.114
395.78	12.850
396.14	13.097
396.50	12.970
396.85	13.096
397.21	12.330
397.57	12.647
397.92	12.680
398.28	11.379
398.64	12.485
399.00	12.311
399.35	12.014
399.71	13.252
400.07	11.650
400.42	13.006
400.78	12.847
401.14	12.256
401.49	12.060
401.85	11.615
402.21	12.156
402.57	11.906
402.92	12.736
403.28	12.117
403.63	12.376
403.99	11.083
404.35	12.061
404.70	11.631
405.06	11.939
405.42	12.227
405.77	10.971
406.13	12.302
406.49	12.005
406.84	12.345
407.20	11.407
407.55	12.572
407.91	11.733
408.27	11.678
408.62	11.981
408.98	12.071
409.34	11.685
409.69	12.323
410.05	12.020
410.40	11.988
410.76	10.992
411.11	12.666
411.47	11.182
411.83	11.607
412.18	12.059
412.54	11.519
412.89	11.807
413.25	12.338
413.60	12.724
413.96	11.658
414.31	11.786
414.67	12.357
415.03	11.391
415.38	12.049
415.74	11.961
416.09	11.888
416.45	11.245
416.80	11.765
417.16	12.534
417.51	11.480
417.87	10.533
418.22	11.356
418.58	11.879
418.93	11.425
419.29	12.222
419.64	12.154
420.00	11.463
420.35	11.536
420.71	11.536
421.06	11.635
421.42	11.287
421.77	11.771
422.12	10.949
422.48	11.225
422.83	10.833
423.19	11.989
423.54	11.492
423.90	11.652
424.25	11.502
424.61	11.131
424.96	11.778
425.31	11.130
425.67	10.899
426.02	11.029
426.38	12.393
426.73	11.527
427.09	11.185
427.44	11.041
427.79	11.213
428.15	11.310
428.50	11.644
428.85	12.396
429.21	10.933
429.56	10.938
429.92	11.072
430.27	11.221
430.62	10.241
430.98	10.742
431.33	10.876
431.68	11.257
432.04	11.502
432.39	10.908
432.74	11.071
433.10	11.602
433.45	10.845
433.80	10.698
434.16	11.699
434.51	10.895
434.86	11.460
435.22	11.062
435.57	11.185
435.92	10.825
436.28	11.862
436.63	11.700
436.98	11.048
437.34	11.032
437.69	11.610
438.04	11.074
438.39	11.045
438.75	11.447
439.10	11.844
439.45	10.921
439.81	10.151
440.16	11.519
440.51	11.775
440.86	11.870
441.22	10.679
441.57	11.093
441.92	11.361
442.27	12.002
442.63	11.164
442.98	11.493
443.33	10.924
443.68	10.842
444.03	11.030
444.39	10.370
444.74	10.660
445.09	11.482
445.44	10.880
445.79	10.539
446.15	11.752
446.50	11.632
446.85	11.048
447.20	12.035
447.55	11.390
447.91	10.425
448.26	11.742
448.61	11.532
448.96	10.797
449.31	11.361
449.66	11.311
450.02	10.585
450.37	10.998
450.72	10.829
451.07	10.786
451.42	10.821
451.77	11.861
452.12	11.952
452.47	11.318
452.83	11.072
453.18	10.880
453.53	11.565
453.88	10.986
454.23	12.074
454.58	11.629
454.93	12.206
455.28	11.097
455.63	10.619
455.98	11.845
456.34	11.307
456.69	11.396
457.04	11.641
457.39	10.929
457.74	11.201
458.09	11.961
458.44	11.060
458.79	10.358
459.14	11.061
459.49	12.259
459.84	11.191
460.19	10.725
460.54	11.053
460.89	11.081
461.24	10.565
461.59	11.912
461.94	11.282
462.29	11.869
462.64	11.742
462.99	11.191
463.34	12.200
463.69	11.757
464.04	11.710
464.39	12.000
464.74	11.230
465.09	10.615
465.44	10.416
465.79	10.626
466.14	11.330
466.49	10.567
466.84	11.442
467.19	11.467
467.54	11.375
467.89	11.285
468.24	11.169
468.59	12.271
468.94	11.423
469.29	11.118
469.64	12.985
469.99	11.299
470.34	11.162
470.68	10.991
471.03	10.952
471.38	11.744
471.73	11.526
472.08	12.039
472.43	10.867
472.78	10.797
473.13	10.911
473.48	11.298
473.83	10.488
474.17	11.450
474.52	10.670
474.87	12.026
475.22	11.201
475.57	10.908
475.92	10.834
476.27	10.710
476.61	11.031
476.96	11.105
477.31	10.413
477.66	10.886
478.01	10.664
478.36	10.947
478.70	10.903
479.05	10.543
479.40	10.798
479.75	10.320
480.10	10.388
480.45	10.138
480.79	9.699
481.14	10.078
481.49	10.109
481.84	10.197
482.19	10.086
482.53	10.183
482.88	10.470
483.23	10.888
483.58	10.828
483.92	10.169
484.27	9.499
484.62	10.345
484.97	10.091
485.31	10.034
485.66	8.972
486.01	8.714
486.36	8.895
486.70	9.133
487.05	8.863
487.40	9.448
487.75	9.474
488.09	9.645
488.44	9.706
488.79	9.620
489.13	10.008
489.48	9.666
489.83	9.754
490.17	10.609
490.52	10.363
490.87	9.950
491.22	10.095
491.56	9.795
491.91	9.819
492.26	9.554
492.60	10.415
492.95	9.448
493.30	9.953
493.64	9.939
493.99	9.889
494.34	10.731
494.68	10.256
495.03	9.586
495.37	10.517
495.72	9.893
496.07	10.348
496.41	9.912
496.76	10.422
497.11	9.905
497.45	9.921
497.80	10.125
498.14	9.372
498.49	10.146
498.84	10.642
499.18	10.095
499.53	9.829
499.87	9.879
500.22	10.080
500.56	10.534
500.91	10.048
501.26	10.242
501.60	10.252
501.95	9.533
502.29	9.888
502.64	9.823
502.98	9.771
503.33	9.141
503.67	10.394
504.02	9.775
504.36	9.920
504.71	9.477
505.06	10.072
505.40	10.647
505.75	9.450
506.09	9.524
506.44	9.719
506.78	10.229
507.13	9.541
507.47	10.606
507.82	10.638
508.16	10.182
508.51	10.350
508.85	9.335
509.19	9.541
509.54	10.000
509.88	9.531
510.23	9.409
510.57	10.578
510.92	9.477
511.26	9.558
511.61	10.581
511.95	9.290
512.30	9.332
512.64	10.210
512.98	10.718
513.33	10.225
513.67	9.392
514.02	9.145
514.36	10.377
514.70	10.238
515.05	9.314
515.39	10.376
515.74	9.741
516.08	9.950
516.42	10.433
516.77	10.424
517.11	9.878
517.46	9.876
517.80	10.046
518.14	9.959
518.49	9.452
518.83	10.341
519.17	10.566
519.52	9.734
519.86	10.211
520.20	10.405
520.55	10.652
520.89	9.428
521.23	10.615
521.58	10.204
521.92	10.104
522.26	10.067
522.61	10.405
522.95	10.190
523.29	10.347
523.64	10.610
523.98	9.489
524.32	10.374
524.66	9.922
525.01	9.620
525.35	9.789
525.69	9.791
526.04	10.031
526.38	9.945
526.72	10.429
527.06	9.605
527.41	8.601
527.75	10.547
528.09	9.955
528.43	10.516
528.78	10.326
529.12	10.667
529.46	10.410
529.80	10.025
530.15	10.280
530.49	9.785
530.83	9.620
531.17	10.183
531.51	11.284
531.86	9.806
532.20	10.039
532.54	10.442
532.88	10.719
533.22	9.307
533.57	9.444
533.91	10.054
534.25	9.842
534.59	10.555
534.93	9.756
535.27	9.777
535.62	9.402
535.96	9.918
536.30	8.900
536.64	10.109
536.98	9.688
537.32	9.677
537.66	10.200
538.01	9.612
538.35	9.696
538.69	9.828
539.03	8.902
539.37	9.329
539.71	8.555
540.05	10.458
540.39	9.900
540.73	9.638
541.07	10.318
541.42	10.241
541.76	10.387
542.10	11.125
542.44	9.404
542.78	10.672
543.12	9.405
543.46	9.770
543.80	10.020
544.14	9.564
544.48	9.587
544.82	9.365
545.16	10.345
545.50	10.026
545.84	9.005
546.18	9.630
546.52	10.323
546.86	9.966
547.20	10.856
547.54	10.154
547.88	9.821
548.22	9.651
548.56	10.000
548.90	9.795
549.24	9.495
549.58	9.754
549.92	9.066
550.26	9.730
550.60	9.544
550.94	8.380
551.28	9.071
551.62	9.849
551.96	9.333
552.30	10.444
552.64	9.398
552.98	10.576
553.32	10.317
553.66	9.952
554.00	10.226
554.34	9.386
554.68	9.371
555.02	10.367
555.36	10.160
555.69	9.811
556.03	10.162
556.37	9.004
556.71	9.141
557.05	9.874
557.39	10.217
557.73	9.951
558.07	10.152
558.41	8.973
558.75	10.360
559.08	9.993
559.42	9.221
559.76	10.000
560.10	9.136
560.44	9.434
560.78	8.051
561.12	9.828
561.45	11.017
561.79	9.690
562.13	9.658
562.47	9.768
562.81	9.414
563.15	9.231
563.48	9.615
563.82	9.263
564.16	8.698
564.50	8.789
564.84	9.735
565.17	9.524
565.51	9.329
565.85	9.518
566.19	8.704
566.52	8.930
566.86	8.861
567.20	9.434
567.54	8.847
567.88	8.474
568.21	9.312
568.55	8.544
568.89	7.879
569.23	8.512
569.56	8.340
569.90	8.189
570.24	8.432
570.57	8.024
570.91	8.080
571.25	8.153
571.59	7.894
571.92	7.517
572.26	7.452
572.60	7.508
572.93	7.736
573.27	7.986
573.61	7.984
573.95	7.649
574.28	7.312
574.62	7.604
574.96	7.288
575.29	7.420
575.63	7.393
575.97	7.368
576.30	7.594
576.64	7.278
576.98	7.098
577.31	7.255
577.65	6.992
577.98	7.077
578.32	7.149
578.66	7.023
578.99	7.647
579.33	7.238
579.67	7.103
580.00	7.288
580.34	7.285
580.67	7.421
581.01	7.623
581.35	7.118
581.68	7.142
582.02	6.979
582.35	6.854
582.69	7.258
583.02	7.156
583.36	7.401
583.70	7.168
584.03	7.393
584.37	7.536
584.70	7.445
585.04	7.534
585.37	7.339
585.71	7.519
586.04	7.586
586.38	7.288
586.72	7.898
587.05	7.281
587.39	7.546
587.72	7.627
588.06	7.311
588.39	7.407
588.73	7.275
589.06	7.728
589.40	7.710
589.73	7.955
590.07	7.794
590.40	7.490
590.73	7.572
591.07	7.937
591.40	8.646
591.74	8.182
592.07	7.941
592.41	8.020
592.74	8.165
593.08	7.662
593.41	7.687
593.75	7.495
594.08	7.643
594.41	7.777
594.75	7.468
595.08	7.910
595.42	7.776
595.75	7.336
596.09	7.886
596.42	8.369
596.75	8.316
597.09	8.225
597.42	7.462
597.75	7.848
598.09	8.174
598.42	8.033
598.76	7.215
599.09	7.716
599.42	7.751
599.76	7.650
600.09	7.796
600.42	7.670
600.76	7.750
601.09	7.577
601.42	7.725
601.76	7.818
602.09	7.470
602.42	7.922
602.76	8.263
603.09	7.592
603.42	7.497
603.76	7.546
604.09	7.212
604.42	7.705
604.76	8.351
605.09	7.864
605.42	7.311
605.75	8.237
606.09	7.401
606.42	7.724
606.75	7.549
607.09	8.372
607.42	8.087
607.75	7.173
608.08	7.555
608.42	8.158
608.75	8.431
609.08	8.372
609.41	7.996
609.75	8.480
610.08	7.917
610.41	7.402
610.74	7.852
611.07	8.251
611.41	8.243
611.74	8.597
612.07	8.437
612.40	8.552
612.73	8.421
613.07	8.567
613.40	8.583
613.73	7.446
614.06	8.602
614.39	8.600
614.72	8.632
615.06	8.193
615.39	8.015
615.72	8.384
616.05	7.921
616.38	7.949
616.71	8.670
617.05	8.775
617.38	8.419
617.71	8.649
618.04	8.293
618.37	8.634
618.70	8.836
619.03	9.474
619.36	9.233
619.69	10.070
620.03	9.753
620.36	9.358
620.69	10.000
621.02	9.071
621.35	8.927
621.68	8.411
622.01	8.978
622.34	9.607
622.67	8.365
623.00	8.951
623.33	8.863
623.66	9.078
623.99	8.247
624.32	8.845
624.65	9.605
624.99	8.003
625.32	8.400
625.65	9.166
625.98	8.686
626.31	10.031
626.64	9.061
626.97	9.227
627.30	8.894
627.63	9.844
627.96	10.008
628.29	9.274
628.62	10.430
628.95	10.755
629.28	10.128
629.61	9.716
629.94	10.000
630.26	9.914
630.59	10.200
630.92	10.728
631.25	9.674
631.58	9.910
631.91	10.345
632.24	10.232
632.57	10.283
632.90	9.978
633.23	11.186
633.56	11.525
633.89	11.212
634.22	10.783
634.55	12.071
634.88	10.539
635.20	12.067
635.53	11.687
635.86	11.015
636.19	9.765
636.52	10.265
636.85	10.424
637.18	10.253
637.51	11.584
637.83	8.755
638.16	9.207
638.49	9.446
638.82	12.769
639.15	12.375
639.48	12.469
639.81	10.590
640.13	11.328
640.46	11.946
640.79	11.625
641.12	11.417
