SpectraSuite Data File
++++++++++++++++++++++++++++++++++++
Date: Wed May 13 20:34:12 PDT 2015
User: schluterlab
Dark Spectrum Present: Yes
Reference Spectrum Present: Yes
Number of Sampled Component Spectra: 1
Spectrometers: USB2E3373
Integration Time (usec): 3000 (USB2E3373)
Spectra Averaged: 3 (USB2E3373)
Boxcar Smoothing: 0 (USB2E3373)
Correct for Electrical Dark: No (USB2E3373)
Strobe/Lamp Enabled: No (USB2E3373)
Correct for Detector Non-linearity: No (USB2E3373)
Correct for Stray Light: No (USB2E3373)
Number of Pixels in Processed Spectrum: 2048
>>>>>Begin Processed Spectral Data<<<<<
178.53	0.000
178.91	-925.000
179.29	-850.000
179.67	-138.889
180.04	-850.000
180.42	1950.000
180.80	900.000
181.18	-800.000
181.56	585.714
181.94	0.000
182.31	-514.286
182.69	1533.333
183.07	-512.500
183.45	-355.556
183.83	409.091
184.20	-350.000
184.58	1800.000
184.96	4600.000
185.34	-460.000
185.72	-412.500
186.09	-1450.000
186.47	2200.000
186.85	1950.000
187.23	3600.000
187.61	-1200.000
187.98	900.000
188.36	400.000
188.74	454.545
189.12	-720.000
189.49	510.000
189.87	-3200.000
190.25	-900.000
190.63	314.286
191.00	346.154
191.38	533.333
191.76	-800.000
192.14	1075.000
192.51	487.500
192.89	700.000
193.27	425.000
193.65	-750.000
194.02	370.000
194.40	700.000
194.78	440.000
195.15	341.667
195.53	430.000
195.91	-1850.000
196.29	300.000
196.66	231.579
197.04	-270.000
197.42	0.000
197.79	450.000
198.17	-3200.000
198.55	385.714
198.92	512.500
199.30	700.000
199.68	0.000
200.05	266.667
200.43	614.286
200.81	2500.000
201.18	1100.000
201.56	-1200.000
201.94	377.778
202.31	366.667
202.69	316.667
203.07	370.000
203.44	0.000
203.82	1100.000
204.19	585.714
204.57	342.857
204.95	250.000
205.32	1000.000
205.70	372.727
206.08	221.429
206.45	1850.000
206.83	243.750
207.20	716.667
207.58	580.000
207.96	238.889
208.33	575.000
208.71	-500.000
209.08	514.286
209.46	444.444
209.84	354.545
210.21	-766.667
210.59	1175.000
210.96	-300.000
211.34	2000.000
211.71	470.000
212.09	550.000
212.46	0.000
212.84	1233.333
213.22	1000.000
213.59	-2400.000
213.97	516.667
214.34	628.571
214.72	472.727
215.09	800.000
215.47	-1750.000
215.84	-1600.000
216.22	966.667
216.59	307.143
216.97	750.000
217.34	327.273
217.72	-400.000
218.09	0.000
218.47	-3600.000
218.84	355.556
219.22	500.000
219.59	1266.667
219.97	-385.714
220.34	560.000
220.72	-1200.000
221.09	271.429
221.47	1050.000
221.84	-700.000
222.22	0.000
222.59	1025.000
222.97	-1800.000
223.34	720.000
223.72	330.769
224.09	780.000
224.46	1500.000
224.84	-3600.000
225.21	-800.000
225.59	-3600.000
225.96	500.000
226.34	230.000
226.71	2050.000
227.08	537.500
227.46	470.000
227.83	-600.000
228.21	-1750.000
228.58	388.889
228.95	-1200.000
229.33	-1700.000
229.70	1233.333
230.08	528.571
230.45	-600.000
230.82	308.333
231.20	716.667
231.57	542.857
231.95	400.000
232.32	172.727
232.69	281.818
233.07	428.571
233.44	276.923
233.81	-1166.667
234.19	221.053
234.56	366.667
234.93	250.000
235.31	354.545
235.68	215.385
236.05	250.000
236.43	133.333
236.80	215.789
237.17	2200.000
237.55	214.286
237.92	167.857
238.29	157.143
238.67	129.032
239.04	165.517
239.41	122.222
239.79	100.000
240.16	92.857
240.53	84.091
240.91	101.961
241.28	104.000
241.65	80.000
242.02	76.812
242.40	74.194
242.77	76.667
243.14	77.419
243.51	61.798
243.89	56.471
244.26	61.111
244.63	49.462
245.00	57.447
245.38	59.406
245.75	49.533
246.12	50.459
246.49	55.474
246.87	56.800
247.24	63.077
247.61	58.571
247.98	41.176
248.36	36.486
248.73	47.134
249.10	45.223
249.47	44.633
249.84	45.455
250.22	40.642
250.59	43.787
250.96	42.929
251.33	41.232
251.70	44.554
252.08	33.333
252.45	35.874
252.82	37.826
253.19	39.574
253.56	38.824
253.94	37.759
254.31	37.500
254.68	33.846
255.05	43.911
255.42	35.772
255.79	34.559
256.16	37.906
256.54	31.802
256.91	32.028
257.28	28.417
257.65	33.003
258.02	34.161
258.39	36.278
258.76	33.110
259.14	35.714
259.51	35.562
259.88	29.503
260.25	38.671
260.62	30.636
260.99	31.988
261.36	33.033
261.73	32.951
262.10	28.488
262.47	33.803
262.85	34.540
263.22	33.048
263.59	35.328
263.96	33.516
264.33	33.943
264.70	33.421
265.07	32.992
265.44	30.808
265.81	26.764
266.18	35.176
266.55	31.951
266.92	28.747
267.29	31.944
267.66	29.128
268.03	29.091
268.40	33.879
268.77	30.072
269.14	30.180
269.51	32.280
269.88	32.168
270.25	30.023
270.62	29.663
270.99	30.753
271.36	32.403
271.73	29.673
272.10	32.826
272.47	30.968
272.84	29.870
273.21	30.818
273.58	30.349
273.95	29.350
274.32	27.273
274.69	27.623
275.06	27.559
275.43	28.936
275.80	29.659
276.17	26.477
276.54	28.690
276.91	29.644
277.28	27.344
277.65	30.561
278.02	33.126
278.39	30.859
278.76	29.636
279.13	28.868
279.50	29.423
279.87	27.490
280.23	28.942
280.60	29.400
280.97	28.281
281.34	27.788
281.71	27.273
282.08	28.215
282.45	28.727
282.82	28.064
283.19	26.203
283.56	27.895
283.92	29.442
284.29	26.984
284.66	28.131
285.03	25.859
285.40	25.704
285.77	28.283
286.14	27.461
286.51	26.667
286.87	27.521
287.24	27.036
287.61	26.003
287.98	25.649
288.35	26.783
288.72	26.947
289.08	25.978
289.45	25.535
289.82	25.691
290.19	26.217
290.56	23.583
290.93	24.018
291.29	24.693
291.66	24.926
292.03	25.581
292.40	25.257
292.77	22.781
293.13	23.881
293.50	24.490
293.87	22.815
294.24	23.407
294.60	21.106
294.97	23.401
295.34	24.965
295.71	22.869
296.08	22.507
296.44	21.733
296.81	21.400
297.18	23.442
297.55	20.844
297.91	21.504
298.28	23.293
298.65	21.671
299.02	21.739
299.38	20.717
299.75	20.889
300.12	20.817
300.48	20.750
300.85	21.455
301.22	20.764
301.59	18.561
301.95	21.537
302.32	19.127
302.69	20.550
303.05	21.091
303.42	19.877
303.79	19.366
304.15	18.298
304.52	18.772
304.89	19.280
305.25	18.794
305.62	20.951
305.99	20.189
306.35	20.694
306.72	20.628
307.09	18.535
307.45	20.721
307.82	17.969
308.19	20.088
308.55	20.820
308.92	19.764
309.29	17.846
309.65	18.664
310.02	20.507
310.38	18.602
310.75	18.268
311.12	19.243
311.48	20.063
311.85	19.392
312.22	19.771
312.58	18.815
312.95	19.852
313.31	18.738
313.68	21.102
314.05	21.105
314.41	19.698
314.78	19.436
315.14	19.464
315.51	20.288
315.87	21.287
316.24	19.762
316.61	19.493
316.97	20.352
317.34	19.472
317.70	20.841
318.07	19.634
318.43	20.939
318.80	20.806
319.16	21.940
319.53	20.919
319.89	22.381
320.26	22.800
320.62	22.718
320.99	21.717
321.35	23.131
321.72	23.101
322.08	24.383
322.45	25.274
322.81	24.806
323.18	24.855
323.54	24.490
323.91	24.717
324.27	24.283
324.64	24.045
325.00	24.346
325.37	24.750
325.73	25.494
326.10	25.508
326.46	24.821
326.83	26.920
327.19	26.388
327.56	26.481
327.92	25.809
328.29	27.595
328.65	27.716
329.01	27.617
329.38	26.272
329.74	26.870
330.11	27.238
330.47	26.997
330.84	28.033
331.20	27.687
331.56	27.431
331.93	27.222
332.29	27.595
332.66	27.611
333.02	27.879
333.38	28.094
333.75	27.718
334.11	26.957
334.48	26.797
334.84	28.309
335.20	28.545
335.57	27.924
335.93	26.786
336.29	27.564
336.66	27.773
337.02	26.968
337.38	28.704
337.75	27.897
338.11	27.842
338.47	27.072
338.84	28.139
339.20	26.789
339.56	28.102
339.93	27.000
340.29	27.536
340.65	28.520
341.02	27.574
341.38	26.690
341.74	27.105
342.11	27.860
342.47	27.048
342.83	26.455
343.20	26.494
343.56	26.116
343.92	27.895
344.28	26.871
344.65	27.945
345.01	26.684
345.37	24.786
345.73	26.396
346.10	28.218
346.46	27.458
346.82	25.783
347.19	25.146
347.55	26.437
347.91	27.265
348.27	26.705
348.63	27.007
349.00	25.405
349.36	25.944
349.72	26.464
350.08	25.203
350.45	26.200
350.81	26.564
351.17	24.473
351.53	26.454
351.89	25.495
352.26	26.283
352.62	27.185
352.98	25.284
353.34	25.555
353.70	24.959
354.07	24.919
354.43	25.317
354.79	25.422
355.15	24.661
355.51	25.500
355.87	26.122
356.24	24.674
356.60	24.860
356.96	25.261
357.32	25.920
357.68	25.906
358.04	25.178
358.40	26.207
358.77	25.743
359.13	24.546
359.49	24.078
359.85	24.286
360.21	25.199
360.57	25.992
360.93	24.846
361.29	23.885
361.66	25.310
362.02	25.448
362.38	25.779
362.74	25.223
363.10	25.019
363.46	25.165
363.82	24.263
364.18	24.816
364.54	24.591
364.90	25.354
365.26	24.559
365.62	24.982
365.98	23.594
366.35	24.928
366.71	24.150
367.07	24.181
367.43	24.383
367.79	25.054
368.15	25.431
368.51	23.183
368.87	24.839
369.23	24.506
369.59	24.837
369.95	23.603
370.31	24.359
370.67	23.478
371.03	24.270
371.39	23.834
371.75	24.118
372.11	24.395
372.47	24.194
372.83	24.496
373.19	23.338
373.55	24.612
373.91	24.595
374.27	23.436
374.63	23.564
374.99	24.647
375.35	22.889
375.71	23.715
376.07	23.800
376.42	24.484
376.78	24.254
377.14	23.677
377.50	24.437
377.86	22.872
378.22	24.336
378.58	23.622
378.94	23.067
379.30	23.346
379.66	23.668
380.02	22.973
380.38	23.133
380.74	24.370
381.09	24.205
381.45	24.278
381.81	24.877
382.17	22.930
382.53	23.711
382.89	23.827
383.25	23.515
383.61	23.482
383.97	22.827
384.32	23.643
384.68	23.172
385.04	23.233
385.40	23.220
385.76	23.403
386.12	23.251
386.48	23.285
386.83	24.118
387.19	24.119
387.55	23.933
387.91	22.068
388.27	23.728
388.62	22.864
388.98	22.666
389.34	23.592
389.70	23.360
390.06	23.828
390.42	23.541
390.77	23.728
391.13	23.484
391.49	22.335
391.85	22.215
392.20	22.145
392.56	22.917
392.92	22.543
393.28	22.485
393.64	23.921
393.99	23.396
394.35	22.581
394.71	22.020
395.07	23.364
395.42	23.239
395.78	22.901
396.14	22.098
396.50	23.434
396.85	23.522
397.21	23.551
397.57	21.947
397.92	23.438
398.28	21.917
398.64	23.716
399.00	22.160
399.35	21.602
399.71	22.569
400.07	24.187
400.42	23.129
400.78	22.618
401.14	22.378
401.49	22.567
401.85	22.021
402.21	22.216
402.57	22.394
402.92	22.951
403.28	22.673
403.63	22.339
403.99	22.229
404.35	22.970
404.70	21.823
405.06	22.015
405.42	22.021
405.77	21.943
406.13	23.081
406.49	23.122
406.84	22.741
407.20	22.340
407.55	22.782
407.91	22.867
408.27	21.634
408.62	22.456
408.98	22.120
409.34	22.017
409.69	22.194
410.05	22.429
410.40	22.324
410.76	22.043
411.11	22.618
411.47	22.300
411.83	21.442
412.18	21.212
412.54	22.976
412.89	22.229
413.25	21.606
413.60	22.359
413.96	22.951
414.31	22.236
414.67	22.243
415.03	22.384
415.38	23.067
415.74	21.994
416.09	21.946
416.45	22.356
416.80	22.736
417.16	22.788
417.51	22.760
417.87	22.030
418.22	22.650
418.58	23.176
418.93	22.543
419.29	22.406
419.64	22.166
420.00	22.805
420.35	22.957
420.71	23.013
421.06	21.420
421.42	21.871
421.77	21.805
422.12	21.224
422.48	21.695
422.83	21.957
423.19	21.713
423.54	22.519
423.90	22.957
424.25	21.831
424.61	21.488
424.96	21.633
425.31	22.093
425.67	21.573
426.02	21.657
426.38	22.405
426.73	21.592
427.09	21.520
427.44	22.657
427.79	21.909
428.15	21.429
428.50	21.709
428.85	22.884
429.21	21.701
429.56	21.514
429.92	21.892
430.27	21.500
430.62	20.891
430.98	22.211
431.33	21.649
431.68	22.199
432.04	21.778
432.39	21.816
432.74	21.484
433.10	21.845
433.45	21.691
433.80	21.840
434.16	22.115
434.51	21.895
434.86	22.919
435.22	21.957
435.57	21.824
435.92	22.294
436.28	22.539
436.63	23.068
436.98	21.007
437.34	22.421
437.69	22.754
438.04	21.248
438.39	22.985
438.75	22.255
439.10	22.682
439.45	22.668
439.81	21.994
440.16	22.021
440.51	21.558
440.86	22.293
441.22	21.691
441.57	22.134
441.92	21.853
442.27	21.475
442.63	21.801
442.98	21.972
443.33	22.391
443.68	21.425
444.03	21.816
444.39	21.616
444.74	21.429
445.09	21.671
445.44	22.253
445.79	22.217
446.15	22.075
446.50	21.809
446.85	21.634
447.20	22.336
447.55	21.831
447.91	21.566
448.26	22.259
448.61	21.651
448.96	22.148
449.31	22.385
449.66	22.341
450.02	20.557
450.37	21.542
450.72	21.602
451.07	22.182
451.42	21.763
451.77	23.429
452.12	21.420
452.47	22.264
452.83	22.203
453.18	21.944
453.53	21.954
453.88	21.914
454.23	21.399
454.58	22.835
454.93	23.268
455.28	21.883
455.63	23.180
455.98	23.631
456.34	22.299
456.69	22.605
457.04	23.034
457.39	22.151
457.74	21.997
458.09	21.852
458.44	21.380
458.79	21.041
459.14	22.291
459.49	22.008
459.84	23.047
460.19	22.216
460.54	22.106
460.89	22.600
461.24	22.587
461.59	23.765
461.94	22.318
462.29	22.077
462.64	21.761
462.99	21.535
463.34	23.533
463.69	22.076
464.04	22.841
464.39	22.203
464.74	21.985
465.09	21.834
465.44	22.216
465.79	21.421
466.14	22.277
466.49	21.524
466.84	23.059
467.19	22.873
467.54	23.125
467.89	21.248
468.24	22.746
468.59	22.344
468.94	21.381
469.29	22.494
469.64	23.360
469.99	23.072
470.34	22.259
470.68	21.983
471.03	22.449
471.38	23.002
471.73	23.051
472.08	23.487
472.43	21.294
472.78	23.173
473.13	22.721
473.48	22.534
473.83	22.744
474.17	22.340
474.52	23.015
474.87	22.767
475.22	22.403
475.57	21.548
475.92	21.721
476.27	21.421
476.61	22.173
476.96	22.375
477.31	22.292
477.66	22.155
478.01	21.746
478.36	22.475
478.70	21.963
479.05	21.778
479.40	21.801
479.75	21.810
480.10	22.167
480.45	21.894
480.79	21.548
481.14	21.771
481.49	21.642
481.84	21.491
482.19	21.808
482.53	22.294
482.88	21.824
483.23	20.981
483.58	21.611
483.92	21.321
484.27	21.394
484.62	22.155
484.97	20.654
485.31	21.370
485.66	19.764
486.01	19.989
486.36	19.642
486.70	20.260
487.05	20.659
487.40	20.787
487.75	21.276
488.09	22.050
488.44	20.881
488.79	21.808
489.13	21.581
489.48	21.615
489.83	21.364
490.17	22.008
490.52	21.346
490.87	21.076
491.22	21.373
491.56	20.638
491.91	21.591
492.26	20.808
492.60	21.244
492.95	20.159
493.30	20.841
493.64	20.485
493.99	21.216
494.34	21.647
494.68	21.841
495.03	21.664
495.37	21.266
495.72	21.881
496.07	21.299
496.41	20.752
496.76	21.284
497.11	22.107
497.45	21.239
497.80	21.113
498.14	21.498
498.49	21.756
498.84	20.997
499.18	21.000
499.53	21.652
499.87	21.062
500.22	21.196
500.56	21.796
500.91	21.538
501.26	21.053
501.60	21.595
501.95	20.623
502.29	21.321
502.64	21.415
502.98	20.711
503.33	21.252
503.67	20.371
504.02	21.048
504.36	21.151
504.71	21.397
505.06	21.301
505.40	21.536
505.75	21.022
506.09	21.283
506.44	20.671
506.78	21.189
507.13	21.050
507.47	21.111
507.82	20.973
508.16	20.618
508.51	21.664
508.85	20.953
509.19	20.969
509.54	21.531
509.88	20.659
510.23	20.566
510.57	21.827
510.92	21.750
511.26	21.480
511.61	20.643
511.95	20.720
512.30	20.520
512.64	20.956
512.98	20.686
513.33	21.199
513.67	20.811
514.02	21.320
514.36	21.628
514.70	20.974
515.05	20.915
515.39	21.425
515.74	20.495
516.08	21.520
516.42	21.643
516.77	21.906
517.11	20.921
517.46	21.275
517.80	21.893
518.14	20.382
518.49	21.704
518.83	20.739
519.17	20.092
519.52	21.279
519.86	20.764
520.20	21.214
520.55	21.604
520.89	22.019
521.23	21.472
521.58	21.549
521.92	21.127
522.26	20.866
522.61	21.308
522.95	20.688
523.29	20.694
523.64	21.707
523.98	22.366
524.32	21.049
524.66	20.445
525.01	21.446
525.35	20.570
525.69	20.197
526.04	20.561
526.38	20.256
526.72	21.227
527.06	21.092
527.41	20.235
527.75	21.929
528.09	21.580
528.43	21.734
528.78	20.037
529.12	19.818
529.46	20.943
529.80	21.597
530.15	21.121
530.49	20.738
530.83	20.759
531.17	19.909
531.51	21.530
531.86	20.129
532.20	21.708
532.54	21.397
532.88	21.053
533.22	19.925
533.57	20.741
533.91	20.771
534.25	20.413
534.59	20.256
534.93	20.405
535.27	20.579
535.62	20.269
535.96	20.213
536.30	20.470
536.64	21.249
536.98	21.301
537.32	20.671
537.66	20.467
538.01	21.001
538.35	20.944
538.69	21.506
539.03	19.688
539.37	19.169
539.71	19.183
540.05	19.935
540.39	20.266
540.73	20.310
541.07	20.247
541.42	20.678
541.76	20.516
542.10	20.893
542.44	19.801
542.78	20.553
543.12	19.642
543.46	20.525
543.80	20.494
544.14	20.026
544.48	19.746
544.82	20.718
545.16	20.950
545.50	19.216
545.84	20.161
546.18	20.202
546.52	21.610
546.86	20.481
547.20	21.038
547.54	20.908
547.88	20.089
548.22	20.112
548.56	20.126
548.90	19.782
549.24	19.394
549.58	20.668
549.92	20.261
550.26	19.957
550.60	20.470
550.94	20.423
551.28	19.971
551.62	20.489
551.96	19.228
552.30	20.887
552.64	20.216
552.98	19.797
553.32	20.499
553.66	19.496
554.00	19.629
554.34	20.083
554.68	20.744
555.02	20.592
555.36	20.390
555.69	19.553
556.03	19.852
556.37	19.918
556.71	20.259
557.05	18.978
557.39	19.594
557.73	20.819
558.07	20.450
558.41	19.609
558.75	20.573
559.08	21.327
559.42	20.484
559.76	20.147
560.10	19.415
560.44	19.078
560.78	18.762
561.12	19.987
561.45	19.883
561.79	19.183
562.13	19.987
562.47	20.219
562.81	20.084
563.15	19.732
563.48	20.424
563.82	19.635
564.16	19.294
564.50	19.076
564.84	19.027
565.17	19.369
565.51	19.872
565.85	19.099
566.19	18.848
566.52	19.569
566.86	17.722
567.20	19.399
567.54	19.521
567.88	18.577
568.21	19.841
568.55	18.099
568.89	19.212
569.23	18.316
569.56	17.976
569.90	18.377
570.24	17.940
570.57	18.565
570.91	18.100
571.25	17.943
571.59	17.997
571.92	17.857
572.26	18.255
572.60	18.138
572.93	17.721
573.27	18.101
573.61	18.063
573.95	17.442
574.28	17.538
574.62	17.687
574.96	17.395
575.29	17.653
575.63	17.962
575.97	17.678
576.30	17.764
576.64	17.665
576.98	17.015
577.31	18.022
577.65	17.351
577.98	17.350
578.32	17.216
578.66	17.275
578.99	17.759
579.33	17.284
579.67	17.149
580.00	17.382
580.34	17.110
580.67	17.395
581.01	17.675
581.35	17.120
581.68	17.054
582.02	16.879
582.35	16.817
582.69	17.245
583.02	17.096
583.36	17.916
583.70	18.082
584.03	17.503
584.37	18.155
584.70	17.529
585.04	17.295
585.37	17.171
585.71	17.434
586.04	17.347
586.38	17.529
586.72	18.144
587.05	16.925
587.39	16.702
587.72	17.289
588.06	16.916
588.39	17.723
588.73	17.131
589.06	18.043
589.40	17.744
589.73	17.951
590.07	17.972
590.40	17.903
590.73	18.189
591.07	18.966
591.40	18.473
591.74	18.701
592.07	18.455
592.41	17.569
592.74	17.491
593.08	17.655
593.41	17.241
593.75	16.833
594.08	17.432
594.41	17.321
594.75	17.264
595.08	17.466
595.42	17.863
595.75	17.806
596.09	17.950
596.42	18.389
596.75	17.602
597.09	18.874
597.42	17.243
597.75	17.421
598.09	18.304
598.42	17.225
598.76	17.430
599.09	16.724
599.42	17.358
599.76	17.460
600.09	16.867
600.42	16.874
600.76	17.107
601.09	16.903
601.42	17.466
601.76	16.584
602.09	17.470
602.42	18.352
602.76	17.856
603.09	17.231
603.42	17.376
603.76	16.997
604.09	17.216
604.42	17.203
604.76	17.841
605.09	16.994
605.42	17.144
605.75	17.219
606.09	17.080
606.42	17.000
606.75	17.337
607.09	17.455
607.42	17.202
607.75	16.456
608.08	17.412
608.42	17.929
608.75	16.501
609.08	17.391
609.41	16.754
609.75	17.580
610.08	17.484
610.41	16.993
610.74	17.219
611.07	17.737
611.41	17.468
611.74	17.949
612.07	17.909
612.40	17.629
612.73	17.053
613.07	17.619
613.40	18.115
613.73	17.514
614.06	18.011
614.39	17.305
614.72	17.526
615.06	18.067
615.39	16.667
615.72	17.434
616.05	17.384
616.38	17.621
616.71	17.221
617.05	18.492
617.38	17.739
617.71	17.477
618.04	17.728
618.37	16.972
618.70	17.673
619.03	17.895
619.36	17.787
619.69	17.887
620.03	18.681
620.36	18.783
620.69	18.630
621.02	18.805
621.35	17.854
621.68	17.991
622.01	18.189
622.34	18.079
622.67	18.327
623.00	17.755
623.33	16.869
623.66	17.870
623.99	18.189
624.32	17.261
624.65	17.797
624.99	16.431
625.32	17.958
625.65	18.482
625.98	18.063
626.31	18.663
626.64	18.694
626.97	18.121
627.30	18.038
627.63	18.868
627.96	19.008
628.29	18.898
628.62	18.939
628.95	18.868
629.28	18.339
629.61	18.698
629.94	20.000
630.26	17.827
630.59	19.638
630.92	17.433
631.25	18.460
