SpectraSuite Data File
++++++++++++++++++++++++++++++++++++
Date: Wed May 13 20:34:06 PDT 2015
User: schluterlab
Dark Spectrum Present: Yes
Reference Spectrum Present: Yes
Number of Sampled Component Spectra: 1
Spectrometers: USB2E3373
Integration Time (usec): 3000 (USB2E3373)
Spectra Averaged: 3 (USB2E3373)
Boxcar Smoothing: 0 (USB2E3373)
Correct for Electrical Dark: No (USB2E3373)
Strobe/Lamp Enabled: No (USB2E3373)
Correct for Detector Non-linearity: No (USB2E3373)
Correct for Stray Light: No (USB2E3373)
Number of Pixels in Processed Spectrum: 2048
>>>>>Begin Processed Spectral Data<<<<<
178.53	0.000
178.91	-1025.000
179.29	-950.000
179.67	-161.111
180.04	-825.000
180.42	1450.000
180.80	920.000
181.18	-700.000
181.56	500.000
181.94	0.000
182.31	-428.571
182.69	1133.333
183.07	-412.500
183.45	-411.111
183.83	381.818
184.20	-300.000
184.58	1550.000
184.96	3400.000
185.34	-480.000
185.72	-512.500
186.09	-1100.000
186.47	1950.000
186.85	1700.000
187.23	2400.000
187.61	-1566.667
187.98	875.000
188.36	354.545
188.74	390.909
189.12	-580.000
189.49	500.000
189.87	-3600.000
190.25	-875.000
190.63	278.571
191.00	323.077
191.38	783.333
191.76	-800.000
192.14	1025.000
192.51	525.000
192.89	683.333
193.27	512.500
193.65	-800.000
194.02	340.000
194.40	680.000
194.78	420.000
195.15	341.667
195.53	530.000
195.91	-1350.000
196.29	206.250
196.66	231.579
197.04	-150.000
197.42	0.000
197.79	540.000
198.17	-3400.000
198.55	442.857
198.92	550.000
199.30	680.000
199.68	0.000
200.05	283.333
200.43	557.143
200.81	3100.000
201.18	1133.333
201.56	-1033.333
201.94	377.778
202.31	522.222
202.69	350.000
203.07	370.000
203.44	0.000
203.82	1025.000
204.19	728.571
204.57	357.143
204.95	450.000
205.32	1133.333
205.70	463.636
206.08	314.286
206.45	1850.000
206.83	287.500
207.20	650.000
207.58	540.000
207.96	233.333
208.33	637.500
208.71	-466.667
209.08	628.571
209.46	455.556
209.84	345.455
210.21	-1000.000
210.59	1075.000
210.96	-287.500
211.34	1950.000
211.71	430.000
212.09	633.333
212.46	0.000
212.84	1300.000
213.22	950.000
213.59	-3800.000
213.97	666.667
214.34	642.857
214.72	454.545
215.09	760.000
215.47	-2000.000
215.84	-1550.000
216.22	1200.000
216.59	328.571
216.97	1100.000
217.34	309.091
217.72	-466.667
218.09	0.000
218.47	-3000.000
218.84	455.556
219.22	528.571
219.59	1333.333
219.97	-442.857
220.34	760.000
220.72	-1166.667
221.09	321.429
221.47	975.000
221.84	-700.000
222.22	0.000
222.59	900.000
222.97	-1700.000
223.34	1080.000
223.72	292.308
224.09	880.000
224.46	1650.000
224.84	-4300.000
225.21	-740.000
225.59	-3300.000
225.96	520.000
226.34	245.000
226.71	2000.000
227.08	537.500
227.46	560.000
227.83	-600.000
228.21	-1450.000
228.58	377.778
228.95	-1500.000
229.33	-2000.000
229.70	1233.333
230.08	585.714
230.45	-540.000
230.82	341.667
231.20	666.667
231.57	628.571
231.95	383.333
232.32	172.727
232.69	372.727
233.07	514.286
233.44	292.308
233.81	-1233.333
234.19	268.421
234.56	466.667
234.93	333.333
235.31	381.818
235.68	200.000
236.05	342.857
236.43	151.515
236.80	242.105
237.17	3800.000
237.55	233.333
237.92	185.714
238.29	214.286
238.67	138.710
239.04	162.069
239.41	163.889
239.79	158.696
240.16	138.095
240.53	152.273
240.91	113.725
241.28	118.000
241.65	118.000
242.02	94.203
242.40	114.516
242.77	111.667
243.14	89.247
243.51	96.629
243.89	90.588
244.26	91.111
244.63	87.097
245.00	86.170
245.38	103.960
245.75	86.916
246.12	87.156
246.49	81.022
246.87	92.800
247.24	80.769
247.61	79.286
247.98	77.124
248.36	79.730
248.73	71.338
249.10	79.618
249.47	75.141
249.84	80.749
250.22	71.658
250.59	75.740
250.96	77.273
251.33	74.408
251.70	72.772
252.08	70.952
252.45	64.126
252.82	67.826
253.19	71.064
253.56	67.059
253.94	67.220
254.31	68.359
254.68	71.538
255.05	67.159
255.42	68.699
255.79	68.750
256.16	67.148
256.54	62.544
256.91	69.039
257.28	65.468
257.65	67.327
258.02	67.081
258.39	65.931
258.76	61.538
259.14	64.583
259.51	61.398
259.88	63.043
260.25	63.746
260.62	62.717
260.99	63.975
261.36	68.168
261.73	64.756
262.10	62.791
262.47	66.761
262.85	63.788
263.22	59.544
263.59	67.521
263.96	62.912
264.33	60.052
264.70	63.421
265.07	66.240
265.44	62.374
265.81	59.367
266.18	61.809
266.55	60.244
266.92	63.391
267.29	60.880
267.66	59.862
268.03	61.136
268.40	62.617
268.77	60.859
269.14	61.036
269.51	60.948
269.88	60.839
270.25	60.045
270.62	60.000
270.99	62.151
271.36	60.730
271.73	64.720
272.10	62.609
272.47	60.860
272.84	58.874
273.21	58.281
273.58	58.079
273.95	56.813
274.32	56.818
274.69	62.099
275.06	57.874
275.43	59.787
275.80	60.120
276.17	61.507
276.54	60.499
276.91	55.929
277.28	57.422
277.65	59.381
278.02	59.834
278.39	58.984
278.76	58.545
279.13	55.094
279.50	56.052
279.87	58.765
280.23	57.485
280.60	56.867
280.97	57.486
281.34	58.761
281.71	56.000
282.08	58.925
282.45	55.636
282.82	55.240
283.19	55.437
283.56	56.491
283.92	55.838
284.29	55.203
284.66	53.539
285.03	54.611
285.40	55.282
285.77	53.199
286.14	55.786
286.51	54.833
286.87	56.068
287.24	54.235
287.61	54.254
287.98	51.786
288.35	51.506
288.72	49.533
289.08	51.643
289.45	53.048
289.82	51.707
290.19	50.863
290.56	49.923
290.93	48.943
291.29	49.847
291.66	49.263
292.03	48.692
292.40	50.954
292.77	44.822
293.13	46.866
293.50	46.501
293.87	47.556
294.24	46.815
294.60	46.434
294.97	46.512
295.34	46.262
295.71	47.869
296.08	45.014
296.44	45.805
296.81	45.443
297.18	46.477
297.55	43.140
297.91	42.480
298.28	45.114
298.65	44.648
299.02	43.347
299.38	44.489
299.75	42.318
300.12	42.529
300.48	42.250
300.85	41.184
301.22	42.548
301.59	40.783
301.95	41.814
302.32	42.619
302.69	41.338
303.05	41.455
303.42	40.370
303.79	42.016
304.15	39.044
304.52	40.324
304.89	40.650
305.25	40.023
305.62	39.185
305.99	42.621
306.35	40.045
306.72	40.919
307.09	40.400
307.45	39.414
307.82	39.621
308.19	38.962
308.55	39.698
308.92	39.957
309.29	39.493
309.65	41.039
310.02	39.641
310.38	39.677
310.75	40.655
311.12	39.509
311.48	41.797
311.85	39.623
312.22	41.415
312.58	39.189
312.95	39.810
313.31	38.058
313.68	42.723
314.05	41.913
314.41	41.106
314.78	41.692
315.14	41.907
315.51	42.430
315.87	41.386
316.24	41.907
316.61	43.762
316.97	42.564
317.34	42.466
317.70	43.308
318.07	44.755
318.43	44.912
318.80	45.829
319.16	45.198
319.53	44.934
319.89	46.190
320.26	46.700
320.62	48.611
320.99	47.273
321.35	47.576
321.72	48.768
322.08	49.556
322.45	53.433
322.81	51.744
323.18	53.468
323.54	53.154
323.91	53.302
324.27	54.876
324.64	53.308
325.00	52.840
325.37	54.413
325.73	55.027
326.10	54.369
326.46	55.824
326.83	56.859
327.19	56.277
327.56	57.143
327.92	59.318
328.29	58.651
328.65	59.853
329.01	59.025
329.38	58.834
329.74	60.018
330.11	59.284
330.47	60.331
330.84	60.662
331.20	58.925
331.56	59.725
331.93	61.111
332.29	61.136
332.66	60.442
333.02	60.238
333.38	61.337
333.75	62.032
334.11	59.875
334.48	61.579
334.84	61.765
335.20	61.545
335.57	60.381
335.93	59.643
336.29	60.623
336.66	60.775
337.02	59.457
337.38	60.833
337.75	60.160
338.11	59.803
338.47	60.589
338.84	62.420
339.20	58.899
339.56	62.500
339.93	60.455
340.29	59.330
340.65	60.963
341.02	60.384
341.38	61.210
341.74	59.123
342.11	58.690
342.47	60.000
342.83	58.990
343.20	60.087
343.56	58.804
343.92	59.123
344.28	59.439
344.65	60.017
345.01	57.744
345.37	58.491
345.73	59.983
346.10	58.312
346.46	59.576
346.82	59.061
347.19	57.393
347.55	57.061
347.91	59.142
348.27	57.847
348.63	58.278
349.00	57.362
349.36	58.539
349.72	57.979
350.08	56.726
350.45	57.038
350.81	56.864
351.17	58.104
351.53	57.330
351.89	57.178
352.26	55.959
352.62	55.894
352.98	56.564
353.34	56.697
353.70	56.628
354.07	57.419
354.43	55.317
354.79	54.626
355.15	57.063
355.51	56.914
355.87	57.714
356.24	55.782
356.60	54.050
356.96	57.442
357.32	56.827
357.68	55.512
358.04	55.265
358.40	55.186
358.77	55.008
359.13	56.196
359.49	55.294
359.85	53.571
360.21	54.466
360.57	55.564
360.93	55.538
361.29	55.707
361.66	53.947
362.02	56.269
362.38	55.057
362.74	54.018
363.10	53.812
363.46	54.292
363.82	53.666
364.18	54.772
364.54	55.275
364.90	53.754
365.26	54.044
365.62	54.638
365.98	54.273
366.35	52.650
366.71	53.073
367.07	53.387
367.43	56.023
367.79	54.390
368.15	55.172
368.51	53.343
368.87	53.819
369.23	54.133
369.59	53.077
369.95	52.426
370.31	53.276
370.67	51.667
371.03	54.757
371.39	53.280
371.75	54.191
372.11	53.058
372.47	53.519
372.83	54.035
373.19	53.540
373.55	52.624
373.91	54.713
374.27	50.859
374.63	53.818
374.99	52.331
375.35	51.710
375.71	51.337
376.07	52.058
376.42	52.201
376.78	51.822
377.14	52.103
377.50	52.914
377.86	51.862
378.22	52.149
378.58	50.815
378.94	51.037
379.30	51.209
379.66	52.411
380.02	52.396
380.38	50.880
380.74	51.681
381.09	51.956
381.45	52.919
381.81	51.351
382.17	51.019
382.53	51.572
382.89	51.914
383.25	50.719
383.61	52.726
383.97	51.970
384.32	50.593
384.68	50.743
385.04	50.277
385.40	49.721
385.76	50.369
386.12	51.554
386.48	52.234
386.83	51.507
387.19	51.020
387.55	50.526
387.91	51.088
388.27	50.031
388.62	50.830
388.98	49.263
389.34	51.377
389.70	51.380
390.06	51.331
390.42	50.778
390.77	49.809
391.13	51.500
391.49	50.571
391.85	50.732
392.20	48.517
392.56	50.063
392.92	49.264
393.28	50.592
393.64	49.580
393.99	50.153
394.35	49.566
394.71	49.498
395.07	50.218
395.42	49.567
395.78	49.936
396.14	49.783
396.50	50.000
396.85	48.887
397.21	48.644
397.57	49.163
397.92	49.579
398.28	48.767
398.64	49.044
399.00	48.741
399.35	48.336
399.71	48.148
400.07	49.083
400.42	49.693
400.78	48.372
401.14	49.085
401.49	49.970
401.85	49.123
402.21	47.545
402.57	48.735
402.92	49.748
403.28	48.844
403.63	50.000
403.99	49.554
404.35	47.818
404.70	47.062
405.06	48.165
405.42	48.596
405.77	47.886
406.13	46.727
406.49	48.196
406.84	47.844
407.20	48.168
407.55	47.862
407.91	49.133
408.27	49.075
408.62	47.983
408.98	47.243
409.34	48.647
409.69	48.581
410.05	47.770
410.40	47.706
410.76	47.909
411.11	46.441
411.47	46.965
411.83	48.931
412.18	47.001
412.54	47.323
412.89	47.349
413.25	47.580
413.60	48.363
413.96	46.084
414.31	47.631
414.67	47.782
415.03	47.020
415.38	48.067
415.74	46.495
416.09	48.138
416.45	46.653
416.80	47.918
417.16	47.989
417.51	47.711
417.87	46.949
418.22	46.562
418.58	47.192
418.93	46.622
419.29	45.576
419.64	47.418
420.00	47.500
420.35	46.551
420.71	47.280
421.06	46.718
421.42	46.374
421.77	46.020
422.12	45.929
422.48	46.573
422.83	47.932
423.19	45.691
423.54	45.966
423.90	46.493
424.25	46.678
424.61	46.726
424.96	46.122
425.31	46.013
425.67	45.843
426.02	45.314
426.38	47.680
426.73	44.822
427.09	45.836
427.44	45.716
427.79	45.831
428.15	44.940
428.50	45.992
428.85	45.948
429.21	45.665
429.56	44.842
429.92	45.093
430.27	45.978
430.62	45.008
430.98	45.407
431.33	45.412
431.68	45.131
432.04	44.728
432.39	45.974
432.74	46.918
433.10	45.614
433.45	45.423
433.80	43.514
434.16	45.139
434.51	45.105
434.86	46.180
435.22	45.636
435.57	46.687
435.92	46.109
436.28	45.611
436.63	45.475
436.98	45.564
437.34	45.438
437.69	47.433
438.04	45.812
438.39	45.194
438.75	46.136
439.10	45.475
439.45	46.163
439.81	46.344
440.16	45.963
440.51	46.046
440.86	45.165
441.22	44.994
441.57	45.648
441.92	45.803
442.27	45.748
442.63	44.866
442.98	46.704
443.33	44.783
443.68	44.553
444.03	45.534
444.39	44.596
444.74	45.563
445.09	44.259
445.44	45.161
445.79	44.978
446.15	45.368
446.50	44.696
446.85	44.913
447.20	43.753
447.55	45.505
447.91	44.677
448.26	44.797
448.61	44.488
448.96	45.736
449.31	45.107
449.66	44.344
450.02	43.955
450.37	44.501
450.72	44.444
451.07	43.754
451.42	44.498
451.77	45.390
452.12	44.977
452.47	45.398
452.83	45.163
453.18	44.254
453.53	46.011
453.88	43.591
454.23	44.949
454.58	45.488
454.93	45.772
455.28	44.327
455.63	44.964
455.98	45.952
456.34	44.598
456.69	44.145
457.04	45.882
457.39	43.717
457.74	44.225
458.09	45.601
458.44	43.558
458.79	43.818
459.14	43.905
459.49	43.316
459.84	43.878
460.19	43.017
460.54	42.650
460.89	44.048
461.24	44.991
461.59	44.509
461.94	43.773
462.29	43.858
462.64	44.097
462.99	43.071
463.34	45.200
463.69	44.090
464.04	43.710
464.39	41.971
464.74	42.484
465.09	43.305
465.44	43.102
465.79	43.512
466.14	42.474
466.49	42.881
466.84	43.608
467.19	43.211
467.54	43.812
467.89	43.637
468.24	43.921
468.59	43.895
468.94	43.250
469.29	43.509
469.64	43.373
469.99	43.775
470.34	42.933
470.68	44.468
471.03	43.265
471.38	43.711
471.73	42.638
472.08	44.013
472.43	42.776
472.78	42.660
473.13	42.747
473.48	43.196
473.83	42.500
474.17	42.315
474.52	43.672
474.87	42.090
475.22	42.484
475.57	42.074
475.92	42.061
476.27	41.995
476.61	41.423
476.96	41.671
477.31	41.863
477.66	42.834
478.01	40.774
478.36	42.200
478.70	41.641
479.05	42.439
479.40	42.272
479.75	41.790
480.10	41.153
480.45	41.266
480.79	40.659
481.14	41.145
481.49	41.718
481.84	41.289
482.19	41.890
482.53	41.560
482.88	41.275
483.23	41.075
483.58	41.492
483.92	41.471
484.27	39.826
484.62	40.431
484.97	40.244
485.31	40.274
485.66	37.365
486.01	38.283
486.36	38.350
486.70	39.733
487.05	40.573
487.40	40.220
487.75	41.621
488.09	42.099
488.44	41.795
488.79	42.242
489.13	41.635
489.48	40.579
489.83	40.440
490.17	40.947
490.52	40.257
490.87	40.570
491.22	40.155
491.56	39.590
491.91	40.298
492.26	39.825
492.60	39.171
492.95	40.412
493.30	38.925
493.64	40.364
493.99	39.740
494.34	39.778
494.68	39.744
495.03	40.555
495.37	38.809
495.72	40.400
496.07	39.490
496.41	39.735
496.76	39.842
497.11	38.856
497.45	39.218
497.80	38.244
498.14	39.565
498.49	39.659
498.84	38.495
499.18	40.048
499.53	38.699
499.87	38.863
500.22	39.614
500.56	40.971
500.91	38.942
501.26	38.928
501.60	39.962
501.95	38.955
502.29	40.159
502.64	39.246
502.98	39.317
503.33	37.294
503.67	38.979
504.02	38.213
504.36	38.606
504.71	38.202
505.06	38.988
505.40	39.135
505.75	38.235
506.09	38.533
506.44	39.023
506.78	38.383
507.13	39.879
507.47	38.889
507.82	38.652
508.16	39.007
508.51	38.508
508.85	37.835
509.19	37.755
509.54	37.959
509.88	38.382
510.23	37.892
510.57	39.680
510.92	37.338
511.26	38.284
511.61	37.967
511.95	37.891
512.30	37.381
512.64	37.829
512.98	37.138
513.33	38.116
513.67	37.620
514.02	38.041
514.36	38.886
514.70	37.797
515.05	38.037
515.39	37.353
515.74	37.556
516.08	38.290
516.42	37.458
516.77	38.071
517.11	37.569
517.46	37.472
517.80	38.560
518.14	37.290
518.49	37.923
518.83	37.670
519.17	38.048
519.52	37.238
519.86	37.935
520.20	37.572
520.55	38.300
520.89	37.165
521.23	37.817
521.58	37.695
521.92	36.926
522.26	35.509
522.61	38.069
522.95	36.771
523.29	38.101
523.64	37.500
523.98	37.585
524.32	36.429
524.66	36.981
525.01	37.316
525.35	36.865
525.69	37.377
526.04	36.822
526.38	36.486
526.72	35.890
527.06	37.476
527.41	34.777
527.75	37.556
528.09	37.508
528.43	36.839
528.78	36.202
529.12	35.879
529.46	36.191
529.80	36.943
530.15	36.822
530.49	36.369
530.83	37.089
531.17	37.598
531.51	37.484
531.86	36.581
532.20	37.288
532.54	37.092
532.88	35.815
533.22	35.665
533.57	36.049
533.91	35.822
534.25	36.148
534.59	36.791
534.93	35.574
535.27	35.727
535.62	37.302
535.96	37.665
536.30	36.491
536.64	36.381
536.98	36.496
537.32	35.155
537.66	35.933
538.01	35.616
538.35	36.652
538.69	36.567
539.03	35.543
539.37	35.208
539.71	34.349
540.05	36.863
540.39	36.346
540.73	35.252
541.07	35.302
541.42	36.464
541.76	36.258
542.10	36.934
542.44	36.623
542.78	36.430
543.12	34.997
543.46	35.213
543.80	36.370
544.14	35.109
544.48	36.127
544.82	36.498
545.16	35.784
545.50	35.090
545.84	36.290
546.18	36.229
546.52	36.683
546.86	35.876
547.20	36.615
547.54	36.273
547.88	35.651
548.22	35.803
548.56	34.528
548.90	35.787
549.24	35.421
549.58	35.266
549.92	35.783
550.26	36.080
550.60	34.855
550.94	34.296
551.28	35.772
551.62	35.083
551.96	35.368
552.30	35.427
552.64	35.903
552.98	36.068
553.32	35.199
553.66	35.992
554.00	36.170
554.34	34.852
554.68	36.266
555.02	35.684
555.36	35.839
555.69	34.506
556.03	35.935
556.37	35.334
556.71	33.697
557.05	34.524
557.39	33.730
557.73	34.721
558.07	35.460
558.41	34.443
558.75	36.076
559.08	35.272
559.42	35.450
559.76	34.706
560.10	33.976
560.44	33.823
560.78	34.065
561.12	34.103
561.45	35.528
561.79	34.344
562.13	33.736
562.47	34.904
562.81	34.728
563.15	34.582
563.48	33.886
563.82	34.247
564.16	33.617
564.50	33.203
564.84	33.249
565.17	34.942
565.51	33.930
565.85	34.391
566.19	34.064
566.52	35.149
566.86	33.635
567.20	34.021
567.54	34.075
567.88	33.840
568.21	34.974
568.55	32.811
568.89	34.290
569.23	33.021
569.56	33.360
569.90	33.321
570.24	33.226
570.57	33.322
570.91	32.967
571.25	32.736
571.59	33.225
571.92	33.266
572.26	33.160
572.60	33.604
572.93	33.343
573.27	33.392
573.61	32.803
573.95	32.972
574.28	33.040
574.62	32.459
574.96	32.832
575.29	33.099
575.63	32.901
575.97	33.194
576.30	33.378
576.64	33.055
576.98	32.766
577.31	33.202
577.65	32.942
577.98	32.770
578.32	32.566
578.66	33.145
578.99	33.486
579.33	32.680
579.67	32.985
580.00	32.894
580.34	33.223
580.67	33.751
581.01	33.281
581.35	32.338
581.68	32.267
582.02	32.342
582.35	33.038
582.69	32.954
583.02	33.250
583.36	33.479
583.70	33.941
584.03	33.751
584.37	34.598
584.70	33.882
585.04	33.366
585.37	32.572
585.71	32.848
586.04	32.762
586.38	33.229
586.72	33.499
587.05	32.980
587.39	32.454
587.72	33.084
588.06	33.244
588.39	33.800
588.73	33.324
589.06	33.624
589.40	33.603
589.73	34.073
590.07	33.701
590.40	33.577
590.73	33.646
591.07	34.799
591.40	33.615
591.74	34.416
592.07	32.199
592.41	32.906
592.74	32.285
593.08	32.012
593.41	32.490
593.75	32.417
594.08	32.316
594.41	33.263
594.75	32.865
595.08	32.534
595.42	32.715
595.75	32.692
596.09	33.759
596.42	33.556
596.75	33.727
597.09	33.680
597.42	32.589
597.75	32.687
598.09	32.435
598.42	31.830
598.76	31.861
599.09	31.699
599.42	32.096
599.76	32.540
600.09	31.985
600.42	31.812
600.76	32.214
601.09	32.204
601.42	32.877
601.76	32.638
602.09	32.055
602.42	32.962
602.76	32.729
603.09	32.376
603.42	33.424
603.76	32.584
604.09	32.493
604.42	32.124
604.76	32.898
605.09	31.935
605.42	31.937
605.75	32.161
606.09	31.761
606.42	31.876
606.75	32.103
607.09	32.524
607.42	32.520
607.75	31.772
608.08	32.306
608.42	32.766
608.75	31.019
609.08	32.609
609.41	31.509
609.75	31.872
610.08	32.328
610.41	31.378
610.74	31.693
611.07	33.053
611.41	32.826
611.74	33.233
612.07	33.230
612.40	32.371
612.73	31.632
613.07	32.974
613.40	33.228
613.73	32.092
614.06	31.774
614.39	31.673
614.72	31.684
615.06	32.511
615.39	31.741
615.72	31.544
616.05	32.057
616.38	32.073
616.71	33.670
617.05	33.157
617.38	32.051
617.71	31.892
618.04	32.452
618.37	32.229
618.70	32.794
619.03	32.566
619.36	32.790
619.69	32.887
620.03	32.280
620.36	33.021
620.69	32.397
621.02	33.112
621.35	31.637
621.68	32.866
622.01	31.424
622.34	31.619
622.67	32.015
623.00	30.521
623.33	31.451
623.66	32.452
623.99	32.548
624.32	30.956
624.65	31.497
624.99	30.453
625.32	30.920
625.65	32.457
625.98	32.898
626.31	32.193
626.64	32.082
626.97	31.172
627.30	31.505
627.63	32.978
627.96	31.876
628.29	32.458
628.62	32.388
628.95	33.208
629.28	30.839
629.61	33.272
629.94	32.381
630.26	30.982
630.59	31.745
630.92	31.034
631.25	30.109
