SpectraSuite Data File
++++++++++++++++++++++++++++++++++++
Date: Wed May 13 20:33:52 PDT 2015
User: schluterlab
Dark Spectrum Present: Yes
Reference Spectrum Present: Yes
Number of Sampled Component Spectra: 1
Spectrometers: USB2E3373
Integration Time (usec): 3000 (USB2E3373)
Spectra Averaged: 3 (USB2E3373)
Boxcar Smoothing: 0 (USB2E3373)
Correct for Electrical Dark: No (USB2E3373)
Strobe/Lamp Enabled: No (USB2E3373)
Correct for Detector Non-linearity: No (USB2E3373)
Correct for Stray Light: No (USB2E3373)
Number of Pixels in Processed Spectrum: 2048
>>>>>Begin Processed Spectral Data<<<<<
178.53	0.000
178.91	-1075.000
179.29	-775.000
179.67	-188.889
180.04	-975.000
180.42	1750.000
180.80	740.000
181.18	-875.000
181.56	400.000
181.94	0.000
182.31	-414.286
182.69	1133.333
183.07	-450.000
183.45	-300.000
183.83	290.909
184.20	-280.000
184.58	1450.000
184.96	4200.000
185.34	-560.000
185.72	-512.500
186.09	-1600.000
186.47	1550.000
186.85	1850.000
187.23	2800.000
187.61	-933.333
187.98	1000.000
188.36	436.364
188.74	436.364
189.12	-680.000
189.49	490.000
189.87	-3400.000
190.25	-1100.000
190.63	328.571
191.00	369.231
191.38	733.333
191.76	-950.000
192.14	925.000
192.51	487.500
192.89	700.000
193.27	375.000
193.65	-950.000
194.02	390.000
194.40	440.000
194.78	510.000
195.15	375.000
195.53	430.000
195.91	-1350.000
196.29	262.500
196.66	178.947
197.04	-120.000
197.42	0.000
197.79	550.000
198.17	-4300.000
198.55	457.143
198.92	525.000
199.30	780.000
199.68	0.000
200.05	233.333
200.43	642.857
200.81	2400.000
201.18	1300.000
201.56	-933.333
201.94	511.111
202.31	411.111
202.69	258.333
203.07	480.000
203.44	0.000
203.82	675.000
204.19	571.429
204.57	392.857
204.95	500.000
205.32	1033.333
205.70	381.818
206.08	321.429
206.45	2200.000
206.83	243.750
207.20	766.667
207.58	580.000
207.96	188.889
208.33	487.500
208.71	-516.667
209.08	757.143
209.46	466.667
209.84	327.273
210.21	-1133.333
210.59	950.000
210.96	-412.500
211.34	2050.000
211.71	470.000
212.09	566.667
212.46	0.000
212.84	1066.667
213.22	925.000
213.59	-2600.000
213.97	583.333
214.34	542.857
214.72	427.273
215.09	660.000
215.47	-1450.000
215.84	-1650.000
216.22	1100.000
216.59	214.286
216.97	925.000
217.34	300.000
217.72	-400.000
218.09	0.000
218.47	-4100.000
218.84	400.000
219.22	628.571
219.59	1066.667
219.97	-400.000
220.34	740.000
220.72	-1200.000
221.09	321.429
221.47	1150.000
221.84	-783.333
222.22	0.000
222.59	925.000
222.97	-1850.000
223.34	740.000
223.72	253.846
224.09	940.000
224.46	1550.000
224.84	-3200.000
225.21	-520.000
225.59	-2700.000
225.96	380.000
226.34	170.000
226.71	2000.000
227.08	462.500
227.46	370.000
227.83	-600.000
228.21	-1900.000
228.58	366.667
228.95	-1700.000
229.33	-1750.000
229.70	1200.000
230.08	657.143
230.45	-880.000
230.82	325.000
231.20	350.000
231.57	571.429
231.95	333.333
232.32	163.636
232.69	290.909
233.07	514.286
233.44	230.769
233.81	-1466.667
234.19	268.421
234.56	391.667
234.93	233.333
235.31	372.727
235.68	346.154
236.05	250.000
236.43	145.455
236.80	252.632
237.17	4200.000
237.55	180.952
237.92	142.857
238.29	171.429
238.67	119.355
239.04	155.172
239.41	133.333
239.79	104.348
240.16	121.429
240.53	100.000
240.91	92.157
241.28	82.000
241.65	78.000
242.02	71.014
242.40	75.806
242.77	70.000
243.14	60.215
243.51	80.899
243.89	64.706
244.26	56.667
244.63	49.462
245.00	51.064
245.38	54.455
245.75	53.271
246.12	48.624
246.49	48.175
246.87	53.600
247.24	47.692
247.61	49.286
247.98	44.444
248.36	43.243
248.73	45.860
249.10	47.134
249.47	43.503
249.84	47.594
250.22	42.246
250.59	44.970
250.96	43.434
251.33	39.810
251.70	43.564
252.08	39.524
252.45	37.220
252.82	35.652
253.19	37.021
253.56	34.902
253.94	35.685
254.31	37.109
254.68	39.615
255.05	35.055
255.42	37.805
255.79	37.132
256.16	38.989
256.54	32.509
256.91	41.281
257.28	37.770
257.65	38.284
258.02	36.025
258.39	33.438
258.76	35.117
259.14	36.310
259.51	32.219
259.88	31.988
260.25	35.045
260.62	31.214
260.99	36.025
261.36	32.432
261.73	31.805
262.10	31.395
262.47	33.803
262.85	32.869
263.22	30.484
263.59	35.613
263.96	32.143
264.33	31.593
264.70	33.158
265.07	32.992
265.44	32.071
265.81	27.981
266.18	30.653
266.55	32.927
266.92	29.484
267.29	32.639
267.66	29.587
268.03	30.682
268.40	29.673
268.77	31.026
269.14	33.108
269.51	34.763
269.88	30.536
270.25	29.571
270.62	30.112
270.99	33.118
271.36	30.043
271.73	31.776
272.10	30.435
272.47	31.613
272.84	30.519
273.21	31.866
273.58	29.476
273.95	28.721
274.32	29.339
274.69	30.407
275.06	30.512
275.43	32.766
275.80	29.259
276.17	28.106
276.54	30.769
276.91	28.261
277.28	28.711
277.65	28.240
278.02	27.536
278.39	29.687
278.76	28.909
279.13	29.057
279.50	27.933
279.87	28.486
280.23	30.539
280.60	26.692
280.97	27.357
281.34	29.204
281.71	28.545
282.08	27.639
282.45	28.000
282.82	26.465
283.19	26.025
283.56	26.316
283.92	30.795
284.29	27.513
284.66	27.042
285.03	27.306
285.40	28.521
285.77	27.104
286.14	27.807
286.51	28.500
286.87	26.838
287.24	27.687
287.61	26.003
287.98	26.461
288.35	26.783
288.72	23.832
289.08	26.761
289.45	24.217
289.82	24.553
290.19	23.548
290.56	26.034
290.93	22.961
291.29	25.920
291.66	23.009
292.03	26.890
292.40	26.432
292.77	24.556
293.13	24.328
293.50	25.073
293.87	24.000
294.24	22.222
294.60	23.872
294.97	23.837
295.34	24.260
295.71	23.295
296.08	21.368
296.44	22.008
296.81	21.929
297.18	25.068
297.55	19.393
297.91	22.296
298.28	22.222
298.65	20.757
299.02	21.607
299.38	21.116
299.75	20.620
300.12	20.690
300.48	20.875
300.85	21.825
301.22	21.146
301.59	19.066
301.95	21.285
302.32	19.769
302.69	21.147
303.05	19.515
303.42	20.123
303.79	21.291
304.15	18.182
304.52	19.583
304.89	18.118
305.25	19.374
305.62	21.065
305.99	21.251
306.35	19.575
306.72	19.843
307.09	20.533
307.45	21.509
307.82	18.192
308.19	20.309
308.55	20.173
308.92	20.408
309.29	19.852
309.65	18.558
310.02	19.133
310.38	20.215
310.75	18.902
311.12	18.219
311.48	18.182
311.85	19.916
312.22	19.251
312.58	18.607
312.95	20.275
313.31	19.223
313.68	19.127
314.05	21.105
314.41	18.291
314.78	18.832
315.14	18.868
315.51	19.876
315.87	18.515
316.24	18.471
316.61	18.324
316.97	18.591
317.34	18.297
317.70	19.790
318.07	19.153
318.43	19.276
318.80	20.056
319.16	18.456
319.53	19.043
319.89	18.762
320.26	21.300
320.62	20.833
320.99	19.495
321.35	18.283
321.72	20.431
322.08	21.619
322.45	22.488
322.81	20.736
323.18	21.387
323.54	20.965
323.91	21.226
324.27	21.511
324.64	20.224
325.00	21.100
325.37	21.292
325.73	22.531
326.10	22.418
326.46	20.699
326.83	22.951
327.19	23.057
327.56	23.084
327.92	22.397
328.29	22.715
328.65	23.204
329.01	22.202
329.38	22.109
329.74	22.161
330.11	23.563
330.47	22.498
330.84	25.092
331.20	23.133
331.56	23.761
331.93	23.889
332.29	23.248
332.66	23.894
333.02	22.943
333.38	23.487
333.75	24.153
334.11	22.865
334.48	23.514
334.84	22.794
335.20	24.273
335.57	23.300
335.93	22.143
336.29	22.985
336.66	23.535
337.02	22.805
337.38	23.796
337.75	22.995
338.11	23.635
338.47	23.389
338.84	23.556
339.20	22.294
339.56	23.540
339.93	23.545
340.29	22.826
340.65	23.351
341.02	24.869
341.38	23.399
341.74	23.421
342.11	23.319
342.47	23.084
342.83	22.346
343.20	24.242
343.56	23.757
343.92	22.193
344.28	23.724
344.65	23.990
345.01	22.054
345.37	21.441
345.73	22.504
346.10	23.188
346.46	23.051
346.82	23.806
347.19	23.392
347.55	22.003
347.91	21.845
348.27	23.336
348.63	22.659
349.00	22.654
349.36	22.578
349.72	21.893
350.08	21.556
350.45	22.783
350.81	22.177
351.17	21.718
351.53	22.686
351.89	21.370
352.26	22.968
352.62	22.614
352.98	22.528
353.34	22.514
353.70	21.358
354.07	21.935
354.43	22.381
354.79	22.204
355.15	22.027
355.51	22.942
355.87	22.041
356.24	21.743
356.60	22.213
356.96	21.883
357.32	22.649
357.68	22.047
358.04	22.169
358.40	22.328
358.77	22.066
359.13	20.994
359.49	22.824
359.85	20.000
360.21	21.850
360.57	22.179
360.93	22.923
361.29	22.449
361.66	20.898
362.02	22.090
362.38	22.205
362.74	23.363
363.10	22.872
363.46	21.643
363.82	23.280
364.18	21.439
364.54	21.471
364.90	22.450
365.26	21.618
365.62	21.768
365.98	20.672
366.35	20.487
366.71	21.620
367.07	21.777
367.43	21.553
367.79	23.340
368.15	22.414
368.51	21.512
368.87	21.699
369.23	21.361
369.59	22.013
369.95	21.103
370.31	22.222
370.67	21.957
371.03	22.172
371.39	22.157
371.75	22.206
372.11	21.408
372.47	22.067
372.83	22.478
373.19	21.749
373.55	22.542
373.91	23.049
374.27	21.100
374.63	21.600
374.99	22.316
375.35	22.401
375.71	21.316
376.07	22.291
376.42	21.939
376.78	21.935
377.14	21.845
377.50	22.053
377.86	21.410
378.22	22.630
378.58	20.990
378.94	21.496
379.30	21.310
379.66	22.779
380.02	22.297
380.38	21.736
380.74	23.049
381.09	22.922
381.45	22.926
381.81	22.604
382.17	22.357
382.53	22.138
382.89	22.160
383.25	22.452
383.61	22.924
383.97	21.451
384.32	21.834
384.68	22.057
385.04	21.451
385.40	21.362
385.76	23.034
386.12	22.539
386.48	22.970
386.83	23.669
387.19	23.438
387.55	22.263
387.91	23.398
388.27	22.931
388.62	22.680
388.98	22.236
389.34	22.966
389.70	22.808
390.06	22.940
390.42	23.606
390.77	22.519
391.13	22.208
391.49	22.970
391.85	22.024
392.20	22.524
392.56	22.854
392.92	22.955
393.28	22.130
393.64	23.381
393.99	24.007
394.35	23.201
394.71	22.334
395.07	22.928
395.42	23.053
395.78	24.046
396.14	23.464
396.50	24.311
396.85	23.522
397.21	23.181
397.57	23.249
397.92	23.498
398.28	22.814
398.64	23.775
399.00	23.727
399.35	24.365
399.71	23.785
400.07	23.655
400.42	23.742
400.78	24.789
401.14	24.207
401.49	24.060
401.85	24.743
402.21	24.132
402.57	24.553
402.92	25.095
403.28	25.047
403.63	24.072
403.99	24.777
404.35	24.727
404.70	24.221
405.06	25.277
405.42	25.390
405.77	24.286
406.13	24.831
406.49	25.547
406.84	24.276
407.20	25.236
407.55	25.335
407.91	25.933
408.27	25.590
408.62	25.587
408.98	25.858
409.34	25.461
409.69	26.452
410.05	26.022
410.40	25.872
410.76	26.225
411.11	26.116
411.47	26.326
411.83	25.473
412.18	25.850
412.54	26.276
412.89	26.084
413.25	26.741
413.60	26.992
413.96	26.958
414.31	26.488
414.67	26.743
415.03	26.755
415.38	26.482
415.74	27.138
416.09	28.217
416.45	27.577
416.80	27.231
417.16	27.681
417.51	27.870
417.87	27.296
418.22	27.003
418.58	27.760
418.93	27.518
419.29	27.371
419.64	26.952
420.00	27.073
420.35	28.638
420.71	28.273
421.06	27.446
421.42	26.959
421.77	27.410
422.12	26.783
422.48	27.253
422.83	27.839
423.19	27.017
423.54	27.394
423.90	27.710
424.25	27.192
424.61	27.857
424.96	27.347
425.31	27.962
425.67	26.854
426.02	27.543
426.38	29.243
426.73	28.789
427.09	27.295
427.44	27.430
427.79	28.292
428.15	27.917
428.50	27.853
428.85	28.308
429.21	27.940
429.56	27.061
429.92	26.724
430.27	26.961
430.62	27.240
430.98	28.023
431.33	26.701
431.68	27.749
432.04	27.529
432.39	27.527
432.74	28.127
433.10	27.504
433.45	28.163
433.80	27.439
434.16	28.953
434.51	27.737
434.86	27.537
435.22	27.460
435.57	28.632
435.92	28.321
436.28	28.055
436.63	27.925
436.98	27.361
437.34	28.026
437.69	28.763
438.04	28.162
438.39	28.119
438.75	28.646
439.10	29.385
439.45	29.339
439.81	28.399
440.16	28.007
440.51	28.588
440.86	27.968
441.22	28.254
441.57	28.132
441.92	29.069
442.27	28.041
442.63	27.383
442.98	28.732
443.33	27.935
443.68	27.414
444.03	28.502
444.39	27.751
444.74	28.193
445.09	28.194
445.44	28.267
445.79	28.055
446.15	27.898
446.50	27.410
446.85	28.160
447.20	28.098
447.55	28.364
447.91	28.240
448.26	27.490
448.61	28.095
448.96	28.405
449.31	28.121
449.66	27.406
450.02	27.521
450.37	27.494
450.72	28.878
451.07	27.118
451.42	26.687
451.77	28.186
452.12	28.118
452.47	28.047
452.83	28.438
453.18	28.056
453.53	28.386
453.88	27.702
454.23	27.974
454.58	27.922
454.93	28.417
455.28	28.117
455.63	29.248
455.98	28.929
456.34	27.952
456.69	28.554
457.04	29.102
457.39	28.054
457.74	26.698
458.09	27.660
458.44	27.252
458.79	26.844
459.14	28.104
459.49	28.021
459.84	27.147
460.19	26.930
460.54	26.562
460.89	27.592
461.24	28.112
461.59	28.298
461.94	27.559
462.29	28.190
462.64	27.505
462.99	27.391
463.34	28.000
463.69	27.205
464.04	27.072
464.39	27.130
464.74	26.381
465.09	26.779
465.44	27.424
465.79	26.846
466.14	26.875
466.49	27.197
466.84	27.612
467.19	27.218
467.54	27.812
467.89	26.651
468.24	27.981
468.59	26.801
468.94	26.329
469.29	27.892
469.64	26.707
469.99	27.605
470.34	28.005
470.68	26.365
471.03	26.531
471.38	28.284
471.73	28.381
472.08	27.368
472.43	26.445
472.78	26.794
473.13	27.471
473.48	27.715
473.83	26.829
474.17	27.691
474.52	27.481
474.87	27.262
475.22	26.291
475.57	26.169
475.92	27.403
476.27	26.663
476.61	26.531
476.96	27.213
477.31	26.792
477.66	26.313
478.01	26.032
478.36	26.071
478.70	26.428
479.05	26.145
479.40	26.100
479.75	26.436
480.10	26.640
480.45	26.749
480.79	26.087
481.14	26.614
481.49	26.151
481.84	25.926
482.19	26.942
482.53	25.826
482.88	25.686
483.23	26.822
483.58	26.206
483.92	25.961
484.27	25.534
484.62	25.603
484.97	25.305
485.31	25.514
485.66	23.402
486.01	23.195
486.36	22.962
486.70	23.023
487.05	23.433
487.40	24.030
487.75	23.467
488.09	25.023
488.44	23.516
488.79	24.774
489.13	25.554
489.48	25.326
489.83	25.507
490.17	26.392
490.52	24.579
490.87	25.871
491.22	25.693
491.56	25.011
491.91	25.268
492.26	25.586
492.60	25.806
492.95	24.790
493.30	25.841
493.64	25.945
493.99	25.395
494.34	26.041
494.68	25.962
495.03	26.175
495.37	25.919
495.72	26.462
496.07	25.104
496.41	25.088
496.76	25.330
497.11	25.484
497.45	25.757
497.80	25.576
498.14	25.314
498.49	25.610
498.84	25.695
499.18	24.857
499.53	26.211
499.87	26.048
500.22	25.530
500.56	25.922
500.91	25.913
501.26	25.415
501.60	25.676
501.95	25.848
502.29	25.305
502.64	25.326
502.98	25.526
503.33	25.091
503.67	25.893
504.02	25.444
504.36	25.550
504.71	25.794
505.06	25.880
505.40	26.057
505.75	25.699
506.09	25.316
506.44	26.147
506.78	25.962
507.13	25.946
507.47	25.960
507.82	26.140
508.16	25.177
508.51	26.788
508.85	25.223
509.19	26.020
509.54	25.714
509.88	25.193
510.23	25.861
510.57	26.780
510.92	25.945
511.26	26.208
511.61	25.156
511.95	25.678
512.30	25.663
512.64	26.115
512.98	26.099
513.33	25.910
513.67	25.187
514.02	25.866
514.36	26.161
514.70	26.176
515.05	26.213
515.39	25.519
515.74	26.239
516.08	26.887
516.42	26.970
516.77	26.589
517.11	26.249
517.46	26.524
517.80	26.829
518.14	25.594
518.49	27.130
518.83	25.966
519.17	26.963
519.52	27.165
519.86	26.298
520.20	27.688
520.55	27.349
520.89	27.251
521.23	27.865
521.58	27.131
521.92	27.924
522.26	26.113
522.61	26.916
522.95	27.133
523.29	27.267
523.64	27.744
523.98	27.542
524.32	27.021
524.66	27.781
525.01	27.145
525.35	27.695
525.69	26.355
526.04	27.975
526.38	26.846
526.72	27.423
527.06	27.244
527.41	26.114
527.75	27.588
528.09	28.067
528.43	26.514
528.78	27.474
529.12	26.667
529.46	27.189
529.80	27.537
530.15	27.664
530.49	26.338
530.83	27.089
531.17	27.807
531.51	28.340
531.86	27.484
532.20	27.901
532.54	27.803
532.88	28.113
533.22	26.234
533.57	26.420
533.91	26.129
534.25	26.974
534.59	26.602
534.93	27.424
535.27	26.735
535.62	26.923
535.96	27.119
536.30	26.764
536.64	27.238
536.98	27.405
537.32	26.662
537.66	27.800
538.01	26.794
538.35	26.180
538.69	27.441
539.03	26.511
539.37	27.029
539.71	25.146
540.05	26.797
540.39	26.312
540.73	26.585
541.07	27.190
541.42	26.941
541.76	27.613
542.10	27.426
542.44	26.556
542.78	27.800
543.12	26.424
543.46	26.820
543.80	26.415
544.14	26.187
544.48	26.730
544.82	26.555
545.16	26.805
545.50	25.835
545.84	27.151
546.18	27.071
546.52	27.047
546.86	26.667
547.20	26.096
547.54	25.852
547.88	26.977
548.22	26.027
548.56	26.667
548.90	25.160
549.24	26.397
549.58	26.944
549.92	26.992
550.26	26.634
550.60	26.625
550.94	26.901
551.28	26.116
551.62	28.469
551.96	26.877
552.30	27.782
552.64	26.572
552.98	26.915
553.32	27.444
553.66	26.721
554.00	27.179
554.34	26.501
554.68	27.182
555.02	26.798
555.36	26.792
555.69	26.793
556.03	26.514
556.37	27.149
556.71	27.149
557.05	25.980
557.39	27.082
557.73	26.747
558.07	27.121
558.41	25.977
558.75	26.598
559.08	26.547
559.42	26.606
559.76	27.794
560.10	26.552
560.44	26.695
560.78	26.148
561.12	26.187
561.45	26.206
561.79	26.368
562.13	25.822
562.47	26.913
562.81	27.057
563.15	26.288
563.48	25.862
563.82	25.832
564.16	25.114
564.50	25.391
564.84	25.032
565.17	25.869
565.51	25.559
565.85	25.571
566.19	25.423
566.52	25.966
566.86	25.497
567.20	25.000
567.54	25.057
567.88	24.280
568.21	24.974
568.55	24.823
568.89	23.979
569.23	23.752
569.56	23.158
569.90	23.509
570.24	22.354
570.57	22.373
570.91	21.526
571.25	21.526
571.59	21.591
571.92	21.457
572.26	21.664
572.60	21.441
572.93	21.829
573.27	21.384
573.61	21.580
573.95	21.964
574.28	21.206
574.62	21.113
574.96	20.980
575.29	20.829
575.63	20.833
575.97	20.646
576.30	21.136
576.64	20.975
576.98	20.856
577.31	20.864
577.65	20.760
577.98	20.487
578.32	20.552
578.66	20.818
578.99	20.840
579.33	20.358
579.67	20.555
580.00	20.475
580.34	20.479
580.67	20.775
581.01	20.913
581.35	20.086
581.68	20.476
582.02	20.010
582.35	20.217
582.69	20.296
583.02	20.255
583.36	20.844
583.70	20.604
584.03	20.820
584.37	21.291
584.70	20.559
585.04	20.426
585.37	20.783
585.71	20.771
586.04	20.391
586.38	21.003
586.72	21.265
587.05	20.538
587.39	20.237
587.72	20.845
588.06	20.678
588.39	20.521
588.73	20.886
589.06	21.689
589.40	21.448
589.73	21.225
590.07	21.352
590.40	21.483
590.73	21.624
591.07	22.304
591.40	22.311
591.74	22.511
592.07	21.990
592.41	22.323
592.74	21.985
593.08	21.486
593.41	21.101
593.75	21.174
594.08	21.589
594.41	21.386
594.75	20.998
595.08	21.152
595.42	21.821
595.75	21.617
596.09	21.630
596.42	22.318
596.75	22.330
597.09	21.991
597.42	20.911
597.75	21.949
598.09	22.043
598.42	21.821
598.76	21.281
599.09	20.829
599.42	20.742
599.76	21.083
600.09	20.984
600.42	21.220
600.76	21.321
601.09	21.566
601.42	21.043
601.76	21.139
602.09	21.502
602.42	21.218
602.76	22.209
603.09	21.164
603.42	20.929
603.76	20.884
604.09	21.365
604.42	21.158
604.76	22.185
605.09	21.276
605.42	21.377
605.75	21.772
606.09	21.350
606.42	21.782
606.75	21.651
607.09	21.683
607.42	21.823
607.75	21.013
608.08	20.452
608.42	21.425
608.75	21.776
609.08	21.462
609.41	21.752
609.75	21.963
610.08	21.631
610.41	21.927
610.74	21.570
611.07	22.431
611.41	22.228
611.74	22.574
612.07	22.205
612.40	21.983
612.73	22.053
613.07	23.006
613.40	22.591
613.73	21.867
614.06	22.151
614.39	21.867
614.72	22.842
615.06	22.479
615.39	22.028
615.72	21.933
616.05	21.372
616.38	22.568
616.71	23.159
617.05	23.086
617.38	22.489
617.71	22.643
618.04	22.536
618.37	22.531
618.70	22.962
619.03	24.474
619.36	24.304
619.69	23.028
620.03	23.764
620.36	23.396
620.69	24.041
621.02	24.410
621.35	23.727
621.68	23.598
622.01	24.303
622.34	24.433
622.67	24.487
623.00	23.478
623.33	23.946
623.66	24.303
623.99	23.859
624.32	23.466
624.65	23.941
624.99	22.663
625.32	23.606
625.65	23.140
625.98	24.673
626.31	24.495
626.64	24.327
626.97	24.771
627.30	25.021
627.63	24.364
627.96	24.979
628.29	25.459
628.62	26.349
628.95	26.792
629.28	25.639
629.61	24.748
629.94	26.857
630.26	25.834
630.59	26.692
630.92	25.862
631.25	25.271
