SpectraSuite Data File
++++++++++++++++++++++++++++++++++++
Date: Wed May 13 20:35:43 PDT 2015
User: schluterlab
Dark Spectrum Present: Yes
Reference Spectrum Present: Yes
Number of Sampled Component Spectra: 1
Spectrometers: USB2E3373
Integration Time (usec): 3000 (USB2E3373)
Spectra Averaged: 3 (USB2E3373)
Boxcar Smoothing: 0 (USB2E3373)
Correct for Electrical Dark: No (USB2E3373)
Strobe/Lamp Enabled: No (USB2E3373)
Correct for Detector Non-linearity: No (USB2E3373)
Correct for Stray Light: No (USB2E3373)
Number of Pixels in Processed Spectrum: 2048
>>>>>Begin Processed Spectral Data<<<<<
178.53	0.000
178.91	-850.000
179.29	-925.000
179.67	-155.556
180.04	-975.000
180.42	1550.000
180.80	720.000
181.18	-925.000
181.56	442.857
181.94	0.000
182.31	-471.429
182.69	1400.000
183.07	-437.500
183.45	-400.000
183.83	463.636
184.20	-250.000
184.58	1950.000
184.96	4200.000
185.34	-600.000
185.72	-437.500
186.09	-1500.000
186.47	2100.000
186.85	2000.000
187.23	3100.000
187.61	-833.333
187.98	950.000
188.36	463.636
188.74	318.182
189.12	-600.000
189.49	380.000
189.87	-3500.000
190.25	-750.000
190.63	364.286
191.00	276.923
191.38	700.000
191.76	-850.000
192.14	825.000
192.51	400.000
192.89	733.333
193.27	450.000
193.65	-950.000
194.02	370.000
194.40	640.000
194.78	380.000
195.15	400.000
195.53	480.000
195.91	-1150.000
196.29	250.000
196.66	226.316
197.04	-170.000
197.42	0.000
197.79	450.000
198.17	-3100.000
198.55	400.000
198.92	575.000
199.30	700.000
199.68	0.000
200.05	322.222
200.43	542.857
200.81	3500.000
201.18	1533.333
201.56	-1000.000
201.94	444.444
202.31	422.222
202.69	266.667
203.07	330.000
203.44	0.000
203.82	675.000
204.19	542.857
204.57	328.571
204.95	412.500
205.32	966.667
205.70	345.455
206.08	300.000
206.45	1800.000
206.83	262.500
207.20	766.667
207.58	480.000
207.96	266.667
208.33	550.000
208.71	-666.667
209.08	614.286
209.46	444.444
209.84	336.364
210.21	-900.000
210.59	1000.000
210.96	-400.000
211.34	1950.000
211.71	450.000
212.09	350.000
212.46	0.000
212.84	1333.333
213.22	950.000
213.59	-4100.000
213.97	666.667
214.34	700.000
214.72	472.727
215.09	700.000
215.47	-1900.000
215.84	-2050.000
216.22	1466.667
216.59	350.000
216.97	1150.000
217.34	345.455
217.72	-533.333
218.09	0.000
218.47	-2800.000
218.84	600.000
219.22	514.286
219.59	1133.333
219.97	-271.429
220.34	620.000
220.72	-1433.333
221.09	371.429
221.47	1100.000
221.84	-900.000
222.22	0.000
222.59	975.000
222.97	-1950.000
223.34	1020.000
223.72	346.154
224.09	760.000
224.46	1350.000
224.84	-3000.000
225.21	-820.000
225.59	-2300.000
225.96	510.000
226.34	240.000
226.71	2150.000
227.08	450.000
227.46	470.000
227.83	-550.000
228.21	-1350.000
228.58	600.000
228.95	-1350.000
229.33	-1650.000
229.70	1100.000
230.08	628.571
230.45	-780.000
230.82	266.667
231.20	566.667
231.57	614.286
231.95	325.000
232.32	200.000
232.69	272.727
233.07	400.000
233.44	330.769
233.81	-1533.333
234.19	247.368
234.56	350.000
234.93	241.667
235.31	254.545
235.68	269.231
236.05	257.143
236.43	133.333
236.80	205.263
237.17	3200.000
237.55	171.429
237.92	185.714
238.29	171.429
238.67	119.355
239.04	137.931
239.41	111.111
239.79	100.000
240.16	123.810
240.53	104.545
240.91	92.157
241.28	82.000
241.65	88.000
242.02	75.362
242.40	82.258
242.77	73.333
243.14	61.290
243.51	61.798
243.89	61.176
244.26	65.556
244.63	50.538
245.00	60.638
245.38	54.455
245.75	54.206
246.12	58.716
246.49	55.474
246.87	52.000
247.24	59.231
247.61	41.429
247.98	45.752
248.36	46.622
248.73	44.586
249.10	48.408
249.47	43.503
249.84	48.663
250.22	46.524
250.59	45.562
250.96	48.485
251.33	41.706
251.70	46.535
252.08	42.857
252.45	41.256
252.82	38.696
253.19	40.426
253.56	41.176
253.94	41.909
254.31	37.500
254.68	41.923
255.05	38.376
255.42	38.211
255.79	36.765
256.16	38.989
256.54	33.569
256.91	38.790
257.28	33.094
257.65	41.914
258.02	40.683
258.39	34.069
258.76	35.117
259.14	36.012
259.51	32.523
259.88	31.366
260.25	36.858
260.62	34.971
260.99	38.820
261.36	36.937
261.73	33.238
262.10	34.012
262.47	36.620
262.85	34.262
263.22	33.333
263.59	36.467
263.96	29.121
264.33	34.987
264.70	35.789
265.07	34.527
265.44	32.323
265.81	32.603
266.18	35.176
266.55	33.171
266.92	31.695
267.29	33.333
267.66	32.569
268.03	33.864
268.40	31.542
268.77	31.981
269.14	30.856
269.51	32.506
269.88	33.566
270.25	30.926
270.62	32.584
270.99	30.323
271.36	31.974
271.73	32.710
272.10	33.913
272.47	32.688
272.84	31.818
273.21	31.866
273.58	31.223
273.95	30.608
274.32	30.372
274.69	30.621
275.06	32.087
275.43	30.851
275.80	31.864
276.17	30.346
276.54	33.056
276.91	30.830
277.28	31.250
277.65	33.849
278.02	32.298
278.39	32.422
278.76	30.000
279.13	30.943
279.50	31.471
279.87	31.873
280.23	27.745
280.60	30.754
280.97	30.684
281.34	29.735
281.71	30.545
282.08	32.438
282.45	28.364
282.82	29.485
283.19	27.451
283.56	28.596
283.92	30.964
284.29	27.160
284.66	29.583
285.03	30.199
285.40	28.521
285.77	29.630
286.14	30.915
286.51	30.000
286.87	30.427
287.24	31.596
287.61	27.769
287.98	29.383
288.35	28.051
288.72	28.193
289.08	27.074
289.45	26.524
289.82	25.854
290.19	26.531
290.56	26.953
290.93	26.133
291.29	28.374
291.66	25.664
292.03	26.599
292.40	28.488
292.77	23.373
293.13	24.925
293.50	25.656
293.87	24.593
294.24	25.481
294.60	24.017
294.97	24.128
295.34	25.670
295.71	25.000
296.08	21.795
296.44	22.008
296.81	22.853
297.18	24.255
297.55	21.636
297.91	22.955
298.28	21.687
298.65	23.760
299.02	22.134
299.38	21.381
299.75	20.889
300.12	21.456
300.48	20.375
300.85	22.935
301.22	21.274
301.59	21.717
301.95	20.907
302.32	22.850
302.69	20.430
303.05	21.576
303.42	19.877
303.79	20.838
304.15	20.862
304.52	20.510
304.89	19.977
305.25	21.114
305.62	20.612
305.99	21.251
306.35	20.694
306.72	21.413
307.09	20.089
307.45	20.946
307.82	21.205
308.19	20.861
308.55	20.388
308.92	20.301
309.29	20.169
309.65	20.467
310.02	21.036
310.38	19.785
310.75	20.063
311.12	20.266
311.48	19.122
311.85	20.650
312.22	20.395
312.58	20.062
312.95	20.908
313.31	19.320
313.68	20.894
314.05	21.795
314.41	20.402
314.78	20.645
315.14	19.166
315.51	19.979
315.87	20.594
316.24	20.357
316.61	22.125
316.97	20.744
317.34	20.744
317.70	22.371
318.07	21.078
318.43	22.407
318.80	22.680
319.16	21.846
319.53	21.388
319.89	22.190
320.26	23.200
320.62	23.214
320.99	22.525
321.35	22.828
321.72	23.819
322.08	24.383
322.45	23.483
322.81	24.612
323.18	25.337
323.54	24.026
323.91	25.660
324.27	25.717
324.64	25.349
325.00	25.158
325.37	27.025
325.73	27.738
326.10	27.361
326.46	27.151
326.83	28.645
327.19	28.096
327.56	29.094
327.92	29.221
328.29	29.015
328.65	30.571
329.01	29.964
329.38	29.417
329.74	30.379
330.11	30.537
330.47	30.211
330.84	31.710
331.20	31.148
331.56	31.193
331.93	29.907
332.29	30.790
332.66	32.124
333.02	30.622
333.38	30.443
333.75	33.422
334.11	31.584
334.48	31.233
334.84	31.801
335.20	32.364
335.57	31.822
335.93	31.071
336.29	31.593
336.66	32.011
337.02	30.498
337.38	33.056
337.75	31.283
338.11	31.065
338.47	32.136
338.84	32.997
339.20	32.202
339.56	33.668
339.93	32.545
340.29	31.793
340.65	32.353
341.02	33.857
341.38	33.096
341.74	33.772
342.11	33.450
342.47	33.040
342.83	31.678
343.20	34.199
343.56	32.856
343.92	32.456
344.28	32.228
344.65	33.534
345.01	31.734
345.37	33.105
345.73	31.641
346.10	33.760
346.46	32.034
346.82	32.208
347.19	32.498
347.55	32.020
347.91	33.738
348.27	33.361
348.63	34.281
349.00	32.605
349.36	32.594
349.72	33.601
350.08	32.820
350.45	32.954
350.81	32.900
351.17	34.036
351.53	33.333
351.89	32.261
352.26	33.781
352.62	34.483
352.98	33.225
353.34	33.196
353.70	32.815
354.07	33.387
354.43	32.540
354.79	33.226
355.15	31.844
355.51	33.413
355.87	34.531
356.24	33.388
356.60	31.836
356.96	33.387
357.32	33.524
357.68	32.835
358.04	33.492
358.40	33.096
358.77	33.255
359.13	33.307
359.49	33.098
359.85	33.413
360.21	33.652
360.57	35.486
360.93	33.846
361.29	33.409
361.66	32.663
362.02	33.433
362.38	33.080
362.74	33.482
363.10	33.457
363.46	34.043
363.82	33.182
364.18	34.141
364.54	34.621
364.90	34.419
365.26	34.779
365.62	34.770
365.98	33.163
366.35	33.596
366.71	34.201
367.07	34.159
367.43	34.978
367.79	35.046
368.15	34.842
368.51	34.811
368.87	34.547
369.23	35.040
369.59	34.323
369.95	34.779
370.31	33.974
370.67	33.261
371.03	34.831
371.39	34.548
371.75	34.779
372.11	33.926
372.47	35.411
372.83	35.879
373.19	34.176
373.55	34.959
373.91	35.272
374.27	34.914
374.63	35.273
374.99	35.593
375.35	34.264
375.71	34.544
376.07	35.391
376.42	36.039
376.78	34.062
377.14	35.210
377.50	35.497
377.86	34.907
378.22	36.283
378.58	34.837
378.94	35.512
379.30	35.051
379.66	36.041
380.02	35.872
380.38	34.487
380.74	35.174
381.09	36.980
381.45	37.492
381.81	36.241
382.17	34.904
382.53	35.535
382.89	35.926
383.25	37.023
383.61	37.546
383.97	37.398
384.32	35.246
384.68	35.998
385.04	35.157
385.40	35.418
385.76	35.811
386.12	37.111
386.48	36.879
386.83	36.818
387.19	38.157
387.55	36.178
387.91	36.276
388.27	36.358
388.62	37.246
388.98	35.934
389.34	36.671
389.70	37.278
390.06	36.819
390.42	37.484
390.77	36.832
391.13	36.950
391.49	37.437
391.85	36.092
392.20	37.161
392.56	36.490
392.92	37.905
393.28	36.331
393.64	37.830
393.99	36.897
394.35	36.663
394.71	37.327
395.07	36.262
395.42	36.712
395.78	37.023
396.14	36.747
396.50	36.591
396.85	35.728
397.21	35.820
397.57	36.640
397.92	36.418
398.28	36.211
398.64	37.455
399.00	36.989
399.35	35.646
399.71	36.921
400.07	37.079
400.42	36.748
400.78	36.610
401.14	36.829
401.49	36.299
401.85	37.024
402.21	35.928
402.57	36.644
402.92	36.885
403.28	37.851
403.63	37.129
403.99	36.688
404.35	37.576
404.70	36.271
405.06	36.867
405.42	37.929
405.77	36.000
406.13	36.625
406.49	37.079
406.84	35.913
407.20	36.170
407.55	36.950
407.91	37.200
408.27	37.524
408.62	35.822
408.98	35.784
409.34	36.039
409.69	36.258
410.05	36.183
410.40	36.942
410.76	36.738
411.11	35.766
411.47	36.677
411.83	36.469
412.18	35.683
412.54	35.866
412.89	35.964
413.25	36.305
413.60	35.763
413.96	35.641
414.31	35.905
414.67	36.122
415.03	35.960
415.38	36.920
415.74	36.270
416.09	36.839
416.45	34.873
416.80	35.228
417.16	37.198
417.51	37.359
417.87	36.159
418.22	35.079
418.58	36.669
418.93	35.504
419.29	35.964
419.64	35.957
420.00	35.549
420.35	35.594
420.71	36.999
421.06	35.263
421.42	35.556
421.77	35.930
422.12	34.868
422.48	35.564
422.83	34.828
423.19	34.917
423.54	35.055
423.90	35.188
424.25	35.399
424.61	35.476
424.96	34.985
425.31	35.382
425.67	35.000
426.02	34.629
426.38	35.653
426.73	35.050
427.09	35.137
427.44	35.538
427.79	34.158
428.15	35.179
428.50	34.991
428.85	35.518
429.21	35.726
429.56	34.785
429.92	34.273
430.27	34.161
430.62	34.665
430.98	34.406
431.33	34.794
431.68	34.974
432.04	33.653
432.39	35.465
432.74	34.829
433.10	34.692
433.45	34.636
433.80	34.035
434.16	34.615
434.51	34.632
434.86	34.949
435.22	34.019
435.57	35.076
435.92	33.470
436.28	34.757
436.63	34.658
436.98	33.543
437.34	34.943
437.69	35.356
438.04	33.614
438.39	34.866
438.75	34.689
439.10	33.799
439.45	35.065
439.81	33.958
440.16	33.710
440.51	34.446
440.86	34.453
441.22	33.482
441.57	32.962
441.92	33.675
442.27	33.531
442.63	34.597
442.98	34.986
443.33	33.967
443.68	33.609
444.03	33.968
444.39	32.765
444.74	33.117
445.09	33.531
445.44	32.586
445.79	33.597
446.15	33.033
446.50	33.172
446.85	34.070
447.20	33.656
447.55	32.887
447.91	32.819
448.26	32.276
448.61	33.578
448.96	33.942
449.31	32.902
449.66	32.696
450.02	32.925
450.37	33.447
450.72	33.277
451.07	32.236
451.42	33.070
451.77	32.707
452.12	33.256
452.47	32.774
452.83	32.751
453.18	32.641
453.53	33.395
453.88	31.896
454.23	32.098
454.58	32.041
454.93	33.566
455.28	31.733
455.63	31.553
455.98	32.917
456.34	32.224
456.69	32.436
457.04	32.817
457.39	32.788
457.74	31.515
458.09	31.340
458.44	32.383
458.79	30.586
459.14	32.844
459.49	32.166
459.84	31.191
460.19	31.526
460.54	30.093
460.89	31.871
461.24	30.905
461.59	32.307
461.94	30.949
462.29	31.810
462.64	31.334
462.99	30.384
463.34	32.000
463.69	30.832
464.04	30.319
464.39	31.362
464.74	30.303
465.09	30.036
465.44	30.416
465.79	30.369
466.14	30.432
466.49	30.256
466.84	30.706
467.19	30.477
467.54	30.438
467.89	29.772
468.24	30.716
468.59	30.647
468.94	30.055
469.29	30.398
469.64	30.522
469.99	29.635
470.34	28.864
470.68	30.532
471.03	28.912
471.38	30.368
471.73	29.580
472.08	29.474
472.43	28.832
472.78	29.625
473.13	29.268
473.48	30.275
473.83	29.878
474.17	29.185
474.52	29.280
474.87	30.356
475.22	28.497
475.57	29.608
475.92	28.731
476.27	29.312
476.61	28.847
476.96	28.037
477.31	28.781
477.66	28.884
478.01	28.437
478.36	28.926
478.70	27.934
479.05	28.328
479.40	28.506
479.75	28.368
480.10	28.479
480.45	27.035
480.79	26.995
481.14	27.642
481.49	28.239
481.84	27.115
482.19	27.351
482.53	27.661
482.88	26.989
483.23	27.523
483.58	27.025
483.92	27.366
484.27	27.277
484.62	27.414
484.97	26.330
485.31	26.507
485.66	26.155
486.01	25.792
486.36	25.798
486.70	25.988
487.05	26.455
487.40	25.766
487.75	25.821
488.09	26.266
488.44	25.284
488.79	25.931
489.13	26.509
489.48	26.387
489.83	25.939
490.17	26.655
490.52	25.686
490.87	25.690
491.22	26.194
491.56	25.877
491.91	25.872
492.26	25.448
492.60	26.037
492.95	25.631
493.30	25.701
493.64	26.085
493.99	25.348
494.34	25.532
494.68	26.557
495.03	26.175
495.37	25.872
495.72	25.390
496.07	26.265
496.41	24.071
496.76	25.198
497.11	25.439
497.45	25.803
497.80	25.720
498.14	25.024
498.49	25.561
498.84	24.928
499.18	25.619
499.53	25.878
499.87	25.116
500.22	25.106
500.56	26.359
500.91	25.144
501.26	25.036
501.60	25.486
501.95	24.748
502.29	25.539
502.64	24.581
502.98	24.731
503.33	24.269
503.67	25.336
504.02	24.462
504.36	24.661
504.71	24.670
505.06	24.675
505.40	24.113
505.75	24.253
506.09	24.344
506.44	24.568
506.78	23.916
507.13	24.987
507.47	24.798
507.82	25.329
508.16	24.721
508.51	24.759
508.85	23.684
509.19	24.490
509.54	24.745
509.88	24.317
510.23	23.805
510.57	24.871
510.92	24.184
511.26	24.615
511.61	24.326
511.95	23.747
512.30	23.701
512.64	23.912
512.98	23.901
513.33	24.518
513.67	22.679
514.02	23.918
514.36	23.703
514.70	24.073
515.05	24.094
515.39	24.790
515.74	24.381
516.08	23.477
516.42	24.528
516.77	25.084
517.11	23.585
517.46	24.323
517.80	24.042
518.14	23.798
518.49	24.212
518.83	23.750
519.17	23.845
519.52	23.599
519.86	24.073
520.20	23.642
520.55	24.237
520.89	23.540
521.23	23.945
521.58	23.830
521.92	24.250
522.26	23.002
522.61	23.551
522.95	23.266
523.29	23.615
523.64	23.537
523.98	23.660
524.32	23.040
524.66	23.993
525.01	23.346
525.35	23.792
525.69	23.584
526.04	23.863
526.38	23.978
526.72	23.129
527.06	23.164
527.41	21.782
527.75	24.309
528.09	23.250
528.43	23.072
528.78	23.171
529.12	22.303
529.46	23.393
529.80	23.577
530.15	23.115
530.49	22.892
530.83	23.165
531.17	23.433
531.51	24.643
531.86	22.645
532.20	23.794
532.54	23.831
532.88	24.069
533.22	22.923
533.57	22.963
533.91	23.721
534.25	23.269
534.59	23.246
534.93	22.368
535.27	22.692
535.62	22.650
535.96	23.227
536.30	22.314
536.64	23.181
536.98	22.960
537.32	21.791
537.66	22.133
538.01	23.305
538.35	23.465
538.69	22.846
539.03	22.482
539.37	21.661
539.71	21.646
540.05	22.288
540.39	21.927
540.73	21.992
541.07	23.297
541.42	22.570
541.76	23.484
542.10	22.639
542.44	23.311
542.78	23.386
543.12	22.137
543.46	22.098
543.80	24.073
544.14	21.759
544.48	22.794
544.82	22.963
545.16	22.707
545.50	21.337
545.84	23.185
546.18	22.559
546.52	22.299
546.86	22.612
547.20	22.724
547.54	22.578
547.88	22.385
548.22	22.229
548.56	22.390
548.90	21.447
549.24	22.020
549.58	22.647
549.92	21.909
550.26	23.295
550.60	21.715
550.94	22.183
551.28	22.165
551.62	23.005
551.96	21.123
552.30	22.730
552.64	21.839
552.98	22.915
553.32	21.915
553.66	23.313
554.00	22.443
554.34	21.463
554.68	23.462
555.02	22.355
555.36	21.642
555.69	21.245
556.03	21.265
556.37	21.146
556.71	21.282
557.05	22.199
557.39	21.554
557.73	22.230
558.07	22.117
558.41	21.780
558.75	22.851
559.08	21.104
559.42	22.147
559.76	21.471
560.10	20.985
560.44	21.454
560.78	20.692
561.12	21.306
561.45	21.121
561.79	20.435
562.13	20.858
562.47	21.790
562.81	21.897
563.15	20.936
563.48	20.955
563.82	21.070
564.16	21.190
564.50	20.573
564.84	21.934
565.17	20.721
565.51	21.086
565.85	21.003
566.19	19.599
566.52	20.836
566.86	20.133
567.20	20.873
567.54	20.605
567.88	20.261
568.21	21.534
568.55	20.425
568.89	20.963
569.23	20.053
569.56	20.243
569.90	20.377
570.24	20.739
570.57	20.163
570.91	18.940
571.25	19.889
571.59	20.088
571.92	19.988
572.26	19.700
572.60	20.300
572.93	19.370
573.27	20.112
573.61	19.765
573.95	19.483
574.28	19.598
574.62	19.704
574.96	19.211
575.29	19.665
575.63	19.614
575.97	19.266
576.30	19.543
576.64	19.181
576.98	19.324
577.31	19.270
577.65	19.240
577.98	19.542
578.32	19.500
578.66	19.203
578.99	19.425
579.33	19.390
579.67	19.217
580.00	18.892
580.34	19.198
580.67	18.932
581.01	19.429
581.35	19.084
581.68	19.416
582.02	18.944
582.35	19.168
582.69	19.064
583.02	18.728
583.36	19.115
583.70	19.281
584.03	18.966
584.37	19.209
584.70	18.521
585.04	18.518
585.37	19.222
585.71	19.337
586.04	19.038
586.38	19.096
586.72	19.856
587.05	19.343
587.39	18.391
587.72	19.299
588.06	19.317
588.39	19.177
588.73	19.302
589.06	19.196
589.40	19.259
589.73	19.676
590.07	19.075
590.40	18.962
590.73	19.477
591.07	19.780
591.40	19.317
591.74	20.087
592.07	19.372
592.41	19.016
592.74	18.876
593.08	19.454
593.41	19.646
593.75	18.488
594.08	19.209
594.41	19.265
594.75	19.298
595.08	18.969
595.42	18.844
595.75	18.875
596.09	19.377
596.42	19.332
596.75	18.911
597.09	19.654
597.42	18.423
597.75	19.319
598.09	19.348
598.42	19.201
598.76	18.849
599.09	18.890
599.42	19.250
599.76	19.143
600.09	18.761
600.42	18.554
600.76	18.286
601.09	18.652
601.42	19.178
601.76	18.824
602.09	18.696
602.42	18.869
602.76	19.146
603.09	18.529
603.42	19.328
603.76	18.902
604.09	19.077
604.42	18.426
604.76	19.106
605.09	19.528
605.42	18.598
605.75	18.377
606.09	18.341
606.42	18.594
606.75	18.706
607.09	18.460
607.42	19.127
607.75	18.186
608.08	18.281
608.42	19.184
608.75	18.936
609.08	18.825
609.41	18.039
609.75	18.056
610.08	18.803
610.41	18.156
610.74	18.023
611.07	19.071
611.41	18.695
611.74	18.703
612.07	19.203
612.40	19.412
612.73	18.474
613.07	19.289
613.40	19.273
613.73	17.724
614.06	18.656
614.39	18.825
614.72	18.895
615.06	19.328
615.39	19.055
615.72	18.814
616.05	18.767
616.38	18.399
616.71	19.418
617.05	18.375
617.38	18.400
617.71	18.498
618.04	19.050
618.37	18.096
618.70	18.917
619.03	19.605
619.36	18.058
619.69	19.648
620.03	19.231
620.36	19.452
620.69	19.041
621.02	19.100
621.35	18.637
621.68	18.302
622.01	19.118
622.34	19.213
622.67	18.707
623.00	18.709
623.33	19.299
623.66	18.585
623.99	20.103
624.32	19.472
624.65	18.220
624.99	18.059
625.32	18.465
625.65	19.684
625.98	19.600
626.31	19.518
626.64	20.000
626.97	18.537
627.30	18.786
627.63	19.442
627.96	20.269
628.29	19.073
628.62	19.945
628.95	20.472
629.28	19.252
629.61	19.982
629.94	19.714
630.26	18.398
630.59	18.780
630.92	19.349
631.25	18.559
