SpectraSuite Data File
++++++++++++++++++++++++++++++++++++
Date: Wed May 13 20:35:41 PDT 2015
User: schluterlab
Dark Spectrum Present: Yes
Reference Spectrum Present: Yes
Number of Sampled Component Spectra: 1
Spectrometers: USB2E3373
Integration Time (usec): 3000 (USB2E3373)
Spectra Averaged: 3 (USB2E3373)
Boxcar Smoothing: 0 (USB2E3373)
Correct for Electrical Dark: No (USB2E3373)
Strobe/Lamp Enabled: No (USB2E3373)
Correct for Detector Non-linearity: No (USB2E3373)
Correct for Stray Light: No (USB2E3373)
Number of Pixels in Processed Spectrum: 2048
>>>>>Begin Processed Spectral Data<<<<<
178.53	0.000
178.91	-975.000
179.29	-850.000
179.67	-144.444
180.04	-1025.000
180.42	1800.000
180.80	800.000
181.18	-725.000
181.56	428.571
181.94	0.000
182.31	-571.429
182.69	1700.000
183.07	-362.500
183.45	-377.778
183.83	427.273
184.20	-210.000
184.58	2000.000
184.96	4100.000
185.34	-740.000
185.72	-412.500
186.09	-1600.000
186.47	2200.000
186.85	2400.000
187.23	3200.000
187.61	-966.667
187.98	900.000
188.36	418.182
188.74	318.182
189.12	-700.000
189.49	540.000
189.87	-4300.000
190.25	-800.000
190.63	292.857
191.00	276.923
191.38	500.000
191.76	-900.000
192.14	900.000
192.51	487.500
192.89	750.000
193.27	462.500
193.65	-825.000
194.02	370.000
194.40	700.000
194.78	370.000
195.15	466.667
195.53	480.000
195.91	-1200.000
196.29	256.250
196.66	252.632
197.04	-200.000
197.42	0.000
197.79	460.000
198.17	-3700.000
198.55	600.000
198.92	525.000
199.30	740.000
199.68	0.000
200.05	261.111
200.43	614.286
200.81	2700.000
201.18	1333.333
201.56	-1400.000
201.94	333.333
202.31	444.444
202.69	358.333
203.07	410.000
203.44	0.000
203.82	975.000
204.19	600.000
204.57	335.714
204.95	475.000
205.32	1133.333
205.70	363.636
206.08	314.286
206.45	2250.000
206.83	293.750
207.20	550.000
207.58	520.000
207.96	233.333
208.33	587.500
208.71	-716.667
209.08	585.714
209.46	433.333
209.84	245.455
210.21	-766.667
210.59	875.000
210.96	-325.000
211.34	1950.000
211.71	320.000
212.09	516.667
212.46	0.000
212.84	1433.333
213.22	800.000
213.59	-3200.000
213.97	500.000
214.34	600.000
214.72	490.909
215.09	740.000
215.47	-1450.000
215.84	-1800.000
216.22	1266.667
216.59	271.429
216.97	950.000
217.34	418.182
217.72	-500.000
218.09	0.000
218.47	-3600.000
218.84	488.889
219.22	614.286
219.59	1000.000
219.97	-528.571
220.34	480.000
220.72	-1066.667
221.09	321.429
221.47	1075.000
221.84	-683.333
222.22	0.000
222.59	1075.000
222.97	-1600.000
223.34	1020.000
223.72	323.077
224.09	800.000
224.46	1750.000
224.84	-2700.000
225.21	-780.000
225.59	-2900.000
225.96	450.000
226.34	205.000
226.71	1900.000
227.08	450.000
227.46	310.000
227.83	-950.000
228.21	-1700.000
228.58	444.444
228.95	-1500.000
229.33	-1650.000
229.70	1400.000
230.08	500.000
230.45	-580.000
230.82	291.667
231.20	733.333
231.57	457.143
231.95	283.333
232.32	131.818
232.69	290.909
233.07	385.714
233.44	315.385
233.81	-1000.000
234.19	226.316
234.56	366.667
234.93	350.000
235.31	318.182
235.68	184.615
236.05	250.000
236.43	112.121
236.80	163.158
237.17	3200.000
237.55	161.905
237.92	139.286
238.29	157.143
238.67	103.226
239.04	144.828
239.41	108.333
239.79	84.783
240.16	104.762
240.53	95.455
240.91	50.980
241.28	86.000
241.65	58.000
242.02	75.362
242.40	56.452
242.77	58.333
243.14	50.538
243.51	61.798
243.89	52.941
244.26	44.444
244.63	44.086
245.00	32.979
245.38	34.653
245.75	40.187
246.12	38.532
246.49	40.876
246.87	37.600
247.24	30.000
247.61	30.714
247.98	34.641
248.36	25.000
248.73	31.210
249.10	38.217
249.47	24.859
249.84	34.759
250.22	25.668
250.59	22.485
250.96	26.263
251.33	27.014
251.70	29.703
252.08	22.381
252.45	23.767
252.82	27.826
253.19	23.404
253.56	21.569
253.94	23.651
254.31	19.141
254.68	24.615
255.05	21.771
255.42	17.886
255.79	22.794
256.16	22.383
256.54	19.788
256.91	20.641
257.28	15.468
257.65	22.112
258.02	19.876
258.39	18.927
258.76	20.067
259.14	20.238
259.51	17.933
259.88	17.391
260.25	17.825
260.62	17.919
260.99	16.460
261.36	21.622
261.73	18.911
262.10	18.023
262.47	17.746
262.85	16.156
263.22	12.536
263.59	19.658
263.96	18.132
264.33	17.232
264.70	18.421
265.07	17.136
265.44	17.929
265.81	15.815
266.18	19.598
266.55	15.366
266.92	16.953
267.29	18.981
267.66	16.972
268.03	20.227
268.40	16.822
268.77	14.081
269.14	15.315
269.51	16.930
269.88	15.152
270.25	14.673
270.62	17.978
270.99	17.849
271.36	16.309
271.73	16.121
272.10	16.304
272.47	17.634
272.84	12.771
273.21	18.029
273.58	13.755
273.95	13.836
274.32	13.843
274.69	14.989
275.06	12.992
275.43	14.043
275.80	14.629
276.17	13.442
276.54	14.553
276.91	13.834
277.28	13.477
277.65	13.540
278.02	14.286
278.39	16.406
278.76	14.000
279.13	14.717
279.50	15.456
279.87	15.538
280.23	14.970
280.60	14.700
280.97	13.494
281.34	13.097
281.71	16.545
282.08	14.779
282.45	12.727
282.82	17.052
283.19	11.586
283.56	12.982
283.92	15.059
284.29	13.757
284.66	13.249
285.03	13.924
285.40	13.908
285.77	13.973
286.14	12.953
286.51	13.000
286.87	15.043
287.24	12.215
287.61	13.804
287.98	12.987
288.35	12.678
288.72	13.396
289.08	14.241
289.45	10.708
289.82	13.171
290.19	12.245
290.56	13.476
290.93	12.085
291.29	11.350
291.66	14.159
292.03	15.552
292.40	12.482
292.77	11.686
293.13	12.239
293.50	11.370
293.87	12.148
294.24	11.852
294.60	11.790
294.97	10.901
295.34	11.566
295.71	11.790
296.08	10.684
296.44	11.417
296.81	10.040
297.18	12.466
297.55	8.839
297.91	10.950
298.28	12.182
298.65	11.227
299.02	11.726
299.38	12.351
299.75	9.569
300.12	9.451
300.48	9.875
300.85	10.234
301.22	10.191
301.59	8.965
301.95	10.076
302.32	10.013
302.69	10.872
303.05	9.939
303.42	9.877
303.79	11.099
304.15	9.557
304.52	7.648
304.89	9.059
305.25	10.905
305.62	10.419
305.99	10.153
306.35	10.515
306.72	10.090
307.09	11.654
307.45	10.473
307.82	8.371
308.19	10.486
308.55	9.493
308.92	9.667
309.29	9.504
309.65	10.286
310.02	8.985
310.38	9.355
310.75	9.820
311.12	10.235
311.48	9.509
311.85	10.273
312.22	9.573
312.58	8.732
312.95	10.137
313.31	9.709
313.68	10.187
314.05	11.243
314.41	10.352
314.78	9.164
315.14	10.030
315.51	10.608
315.87	11.485
316.24	10.626
316.61	10.526
316.97	11.350
317.34	10.861
317.70	11.090
318.07	11.550
318.43	12.035
318.80	12.933
319.16	10.829
319.53	12.289
319.89	13.238
320.26	13.500
320.62	13.194
320.99	13.232
321.35	13.939
321.72	14.476
322.08	14.511
322.45	15.721
322.81	15.504
323.18	14.644
323.54	15.306
323.91	16.981
324.27	15.966
324.64	16.309
325.00	15.960
325.37	16.924
325.73	17.684
326.10	18.270
326.46	18.369
326.83	18.550
327.19	18.531
327.56	18.990
327.92	18.548
328.29	21.029
328.65	21.179
329.01	19.043
329.38	20.537
329.74	20.406
330.11	20.829
330.47	21.947
330.84	23.254
331.20	20.856
331.56	22.110
331.93	21.481
332.29	21.207
332.66	22.301
333.02	22.212
333.38	23.035
333.75	23.084
334.11	23.221
334.48	23.159
334.84	24.540
335.20	23.818
335.57	22.937
335.93	22.054
336.29	22.436
336.66	23.625
337.02	22.443
337.38	23.611
337.75	23.173
338.11	23.724
338.47	23.573
338.84	24.840
339.20	25.138
339.56	24.909
339.93	23.000
340.29	23.732
340.65	24.688
341.02	24.520
341.38	24.466
341.74	23.509
342.11	23.406
342.47	24.846
342.83	23.801
343.20	26.061
343.56	25.190
343.92	24.298
344.28	25.340
344.65	25.021
345.01	24.411
345.37	24.357
345.73	25.635
346.10	24.893
346.46	24.915
346.82	25.206
347.19	25.230
347.55	24.959
347.91	24.353
348.27	26.541
348.63	24.415
349.00	24.919
349.36	25.205
349.72	25.501
350.08	23.825
350.45	26.444
350.81	25.508
351.17	25.446
351.53	25.553
351.89	25.083
352.26	26.361
352.62	26.303
352.98	25.851
353.34	25.719
353.70	24.550
354.07	25.565
354.43	25.714
354.79	25.181
355.15	24.022
355.51	26.779
355.87	25.551
356.24	25.814
356.60	25.822
356.96	26.227
357.32	26.574
357.68	25.669
358.04	25.812
358.40	25.732
358.77	26.761
359.13	25.651
359.49	26.745
359.85	24.921
360.21	25.279
360.57	27.082
360.93	26.154
361.29	26.304
361.66	26.006
362.02	26.194
362.38	26.920
362.74	26.562
363.10	26.055
363.46	26.266
363.82	26.606
364.18	26.505
364.54	26.523
364.90	26.416
365.26	26.324
365.62	26.297
365.98	26.735
366.35	25.716
366.71	26.464
367.07	27.021
367.43	27.286
367.79	27.409
368.15	27.658
368.51	26.526
368.87	27.766
369.23	27.725
369.59	27.227
369.95	26.838
370.31	26.496
370.67	26.087
371.03	28.015
371.39	27.187
371.75	27.647
372.11	26.529
372.47	28.446
372.83	27.810
373.19	27.168
373.55	28.160
373.91	28.203
374.27	26.942
374.63	26.545
374.99	28.390
375.35	26.867
375.71	27.073
376.07	27.709
376.42	28.267
376.78	28.429
377.14	26.934
377.50	28.874
377.86	26.263
378.22	27.623
378.58	27.318
378.94	28.158
379.30	28.244
379.66	27.982
380.02	27.764
380.38	27.322
380.74	27.851
381.09	27.323
381.45	28.765
381.81	28.747
382.17	28.408
382.53	27.862
382.89	28.642
383.25	27.267
383.61	28.748
383.97	28.018
384.32	27.760
384.68	28.625
385.04	27.966
385.40	27.554
385.76	28.133
386.12	28.174
386.48	28.823
386.83	28.736
387.19	28.015
387.55	28.448
387.91	27.872
388.27	28.449
388.62	28.703
388.98	27.703
389.34	28.723
389.70	28.449
390.06	29.087
390.42	28.988
390.77	29.135
391.13	27.888
391.49	28.426
391.85	28.071
392.20	27.571
392.56	29.167
392.92	28.487
393.28	28.107
393.64	28.537
393.99	28.345
394.35	27.419
394.71	28.294
395.07	26.916
395.42	28.739
395.78	28.372
396.14	28.988
396.50	28.759
396.85	29.561
397.21	27.065
397.57	28.146
397.92	27.704
398.28	27.859
398.64	28.076
399.00	27.868
399.35	28.314
399.71	28.241
400.07	28.681
400.42	28.773
400.78	27.986
401.14	27.256
401.49	28.896
401.85	27.102
402.21	27.844
402.57	28.254
402.92	27.680
403.28	28.232
403.63	27.723
403.99	27.580
404.35	27.939
404.70	27.038
405.06	27.024
405.42	28.010
405.77	27.143
406.13	27.201
406.49	28.208
406.84	27.702
407.20	27.600
407.55	26.994
407.91	28.267
408.27	28.143
408.62	28.055
408.98	28.309
409.34	27.675
409.69	28.387
410.05	27.138
410.40	27.095
410.76	27.419
411.11	27.503
411.47	27.348
411.83	27.550
412.18	26.036
412.54	27.086
412.89	27.229
413.25	27.450
413.60	27.301
413.96	27.019
414.31	27.400
414.67	26.933
415.03	26.424
415.38	27.706
415.74	27.331
416.09	27.564
416.45	26.841
416.80	26.966
417.16	28.217
417.51	26.941
417.87	26.654
418.22	27.066
418.58	27.050
418.93	26.781
419.29	26.862
419.64	26.826
420.00	26.280
420.35	26.725
420.71	26.539
421.06	25.716
421.42	26.023
421.77	26.009
422.12	25.884
422.48	25.796
422.83	27.315
423.19	25.414
423.54	24.840
423.90	25.275
424.25	26.410
424.61	25.774
424.96	25.598
425.31	25.803
425.67	24.944
426.02	26.000
426.38	25.763
426.73	25.336
427.09	25.532
427.44	24.497
427.79	25.762
428.15	25.595
428.50	24.985
428.85	24.791
429.21	24.186
429.56	24.520
429.92	25.214
430.27	25.323
430.62	24.424
430.98	24.805
431.33	24.485
431.68	25.183
432.04	24.494
432.39	24.329
432.74	24.476
433.10	24.222
433.45	24.781
433.80	24.002
434.16	24.252
434.51	24.105
434.86	24.629
435.22	24.625
435.57	24.195
435.92	24.283
436.28	24.259
436.63	24.724
436.98	24.041
437.34	23.137
437.69	23.862
438.04	23.272
438.39	23.642
438.75	23.998
439.10	23.464
439.45	24.085
439.81	23.263
440.16	22.473
440.51	24.077
440.86	24.841
441.22	22.636
441.57	23.779
441.92	23.234
442.27	23.466
442.63	23.065
442.98	23.211
443.33	23.370
443.68	22.303
444.03	23.621
444.39	22.152
444.74	22.781
445.09	22.749
445.44	22.526
445.79	22.316
446.15	22.922
446.50	22.456
446.85	21.994
447.20	22.743
447.55	22.166
447.91	21.732
448.26	23.094
448.61	21.933
448.96	23.256
449.31	22.385
449.66	21.666
450.02	21.671
450.37	21.655
450.72	22.899
451.07	21.755
451.42	21.398
451.77	22.020
452.12	21.709
452.47	21.704
452.83	20.979
453.18	21.760
453.53	22.573
453.88	21.028
454.23	20.741
454.58	21.199
454.93	21.996
455.28	21.135
455.63	20.995
455.98	21.786
456.34	21.859
456.69	22.167
457.04	21.548
457.39	21.040
457.74	20.720
458.09	21.449
458.44	21.209
458.79	20.607
459.14	21.445
459.49	20.724
459.84	20.720
460.19	20.860
460.54	19.907
460.89	20.406
461.24	19.976
461.59	20.802
461.94	20.838
462.29	20.831
462.64	20.676
462.99	19.974
463.34	21.267
463.69	20.575
464.04	19.420
464.39	19.826
464.74	19.786
465.09	19.059
465.44	19.224
465.79	19.519
466.14	19.485
466.49	19.633
466.84	19.965
467.19	21.123
467.54	20.688
467.89	19.328
468.24	19.837
468.59	20.452
468.94	19.487
469.29	19.087
469.64	20.013
469.99	19.215
470.34	19.683
470.68	19.828
471.03	18.844
471.38	18.833
471.73	19.054
472.08	19.474
472.43	18.907
472.78	18.499
473.13	18.742
473.48	19.913
473.83	18.110
474.17	19.166
474.52	18.238
474.87	19.381
475.22	18.398
475.57	18.001
475.92	18.056
476.27	18.602
476.61	17.816
476.96	17.977
477.31	18.001
477.66	18.326
478.01	18.296
478.36	17.927
478.70	17.186
479.05	17.945
479.40	18.117
479.75	18.099
480.10	17.942
480.45	17.135
480.79	16.627
481.14	17.319
481.49	17.750
481.84	16.598
482.19	16.765
482.53	17.523
482.88	16.892
483.23	17.150
483.58	17.152
483.92	17.901
484.27	16.471
484.62	16.681
484.97	16.397
485.31	16.199
485.66	15.364
486.01	15.125
486.36	15.372
486.70	15.044
487.05	15.381
487.40	15.373
487.75	15.498
488.09	15.863
488.44	15.844
488.79	15.769
489.13	16.387
489.48	16.109
489.83	15.580
490.17	15.914
490.52	16.696
490.87	16.327
491.22	16.053
491.56	15.945
491.91	15.775
492.26	15.939
492.60	16.452
492.95	15.856
493.30	15.561
493.64	16.519
493.99	15.645
494.34	15.819
494.68	15.522
495.03	16.071
495.37	15.449
495.72	14.571
496.07	16.009
496.41	15.442
496.76	15.435
497.11	15.804
497.45	15.463
497.80	15.931
498.14	15.121
498.49	15.561
498.84	15.868
499.18	15.238
499.53	15.764
499.87	15.657
500.22	14.932
500.56	16.359
500.91	15.577
501.26	16.074
501.60	15.710
501.95	15.399
502.29	15.089
502.64	15.596
502.98	15.101
503.33	15.174
503.67	15.777
504.02	14.406
504.36	15.629
504.71	15.046
505.06	15.325
505.40	14.584
505.75	15.429
506.09	15.403
506.44	14.899
506.78	15.441
507.13	15.447
507.47	15.354
507.82	15.805
508.16	15.502
508.51	15.880
508.85	14.697
509.19	14.388
509.54	15.969
509.88	14.838
510.23	15.064
510.57	15.944
510.92	15.018
511.26	15.057
511.61	14.834
511.95	14.614
512.30	14.369
512.64	15.261
512.98	14.791
513.33	14.668
513.67	14.141
514.02	14.340
514.36	14.965
514.70	15.329
515.05	13.720
515.39	14.863
515.74	14.640
516.08	15.539
516.42	14.595
516.77	15.608
517.11	14.650
517.46	15.519
517.80	15.505
518.14	14.360
518.49	14.119
518.83	15.511
519.17	15.300
519.52	14.601
519.86	15.060
520.20	15.029
520.55	14.841
520.89	14.964
521.23	15.199
521.58	14.826
521.92	15.370
522.26	14.887
522.61	14.579
522.95	14.119
523.29	15.033
523.64	15.305
523.98	15.034
524.32	14.837
524.66	14.793
525.01	14.890
525.35	14.684
525.69	13.855
526.04	14.704
526.38	15.192
526.72	14.417
527.06	14.940
527.41	13.490
527.75	15.241
528.09	15.222
528.43	14.595
528.78	14.813
529.12	14.242
529.46	14.268
529.80	14.480
530.15	14.642
530.49	13.785
530.83	15.253
531.17	15.078
531.51	15.888
531.86	14.710
532.20	14.993
532.54	15.054
532.88	14.121
533.22	14.366
533.57	14.136
533.91	14.389
534.25	14.824
534.59	14.460
534.93	15.289
535.27	13.820
535.62	14.042
535.96	15.443
536.30	13.541
536.64	14.617
536.98	14.333
537.32	14.088
537.66	14.533
538.01	15.010
538.35	15.385
538.69	14.422
539.03	14.230
539.37	13.866
539.71	12.897
540.05	14.118
540.39	14.286
540.73	13.519
541.07	14.082
541.42	14.351
541.76	14.774
542.10	14.748
542.44	14.172
542.78	14.756
543.12	13.884
543.46	15.016
543.80	14.769
544.14	14.056
544.48	14.159
544.82	14.368
545.16	13.923
545.50	14.524
545.84	14.180
546.18	14.815
546.52	14.246
546.86	13.746
547.20	13.958
547.54	14.496
547.88	14.668
548.22	14.446
548.56	14.151
548.90	13.572
549.24	13.401
549.58	14.256
549.92	13.805
550.26	14.631
550.60	13.693
550.94	13.944
551.28	13.899
551.62	13.947
551.96	13.684
552.30	14.608
552.64	14.604
552.98	13.898
553.32	14.160
553.66	14.656
554.00	14.001
554.34	13.872
554.68	14.163
555.02	13.329
555.36	13.779
555.69	13.261
556.03	13.526
556.37	14.188
556.71	12.824
557.05	12.885
557.39	13.786
557.73	13.761
558.07	12.618
558.41	12.446
558.75	14.107
559.08	15.213
559.42	13.454
559.76	14.118
560.10	13.562
560.44	12.788
560.78	13.041
561.12	13.984
561.45	14.276
561.79	13.777
562.13	13.347
562.47	13.730
562.81	12.831
563.15	12.910
563.48	13.793
563.82	13.046
564.16	12.623
564.50	13.672
564.84	13.148
565.17	13.642
565.51	13.674
565.85	13.642
566.19	12.461
566.52	12.603
566.86	12.658
567.20	13.443
567.54	12.728
567.88	12.493
568.21	13.704
568.55	12.841
568.89	12.354
569.23	12.344
569.56	11.943
569.90	11.623
570.24	11.984
570.57	11.901
570.91	11.959
571.25	11.767
571.59	12.548
571.92	11.348
572.26	11.698
572.60	11.982
572.93	11.244
573.27	11.920
573.61	11.753
573.95	11.447
574.28	11.432
574.62	11.200
574.96	10.729
575.29	10.839
575.63	11.103
575.97	11.247
576.30	11.312
576.64	11.044
576.98	11.206
577.31	11.114
577.65	11.075
577.98	11.057
578.32	11.021
578.66	11.195
578.99	11.185
579.33	11.208
579.67	10.679
580.00	11.100
580.34	11.011
580.67	10.730
581.01	11.041
581.35	10.882
581.68	11.028
582.02	10.880
582.35	11.013
582.69	10.802
583.02	10.860
583.36	10.952
583.70	10.839
584.03	11.129
584.37	11.436
584.70	11.181
585.04	11.155
585.37	11.137
585.71	11.419
586.04	10.727
586.38	10.867
586.72	11.654
587.05	10.894
587.39	10.844
587.72	11.312
588.06	10.592
588.39	11.550
588.73	11.440
589.06	11.530
589.40	11.481
589.73	11.580
590.07	11.317
590.40	11.217
590.73	11.514
591.07	11.966
591.40	12.020
591.74	11.861
592.07	11.038
592.41	11.658
592.74	11.348
593.08	11.426
593.41	11.262
593.75	11.274
594.08	11.297
594.41	11.417
594.75	11.534
595.08	11.382
595.42	11.559
595.75	11.254
596.09	11.228
596.42	11.473
596.75	11.060
597.09	11.991
597.42	10.961
597.75	11.470
598.09	11.522
598.42	11.125
598.76	10.944
599.09	11.060
599.42	10.917
599.76	11.420
600.09	10.893
600.42	10.920
600.76	10.643
601.09	10.893
601.42	11.035
601.76	11.233
602.09	10.988
602.42	11.226
602.76	11.487
603.09	11.448
603.42	11.636
603.76	10.976
604.09	11.206
604.42	11.088
604.76	12.105
605.09	11.402
605.42	10.902
605.75	11.921
606.09	10.736
606.42	10.789
606.75	11.074
607.09	11.176
607.42	10.954
607.75	10.422
608.08	10.812
608.42	11.251
608.75	11.542
609.08	11.240
609.41	11.138
609.75	11.196
610.08	11.499
610.41	11.080
610.74	11.116
611.07	11.117
611.41	11.433
611.74	11.212
612.07	11.491
612.40	12.120
612.73	11.263
613.07	11.530
613.40	11.638
613.73	11.064
614.06	11.667
614.39	12.008
614.72	11.895
615.06	12.027
615.39	11.093
615.72	11.452
616.05	10.792
616.38	11.395
616.71	11.639
617.05	12.014
617.38	11.726
617.71	11.652
618.04	12.440
618.37	11.177
618.70	12.010
619.03	12.632
619.36	11.745
619.69	11.972
620.03	11.607
620.36	12.233
620.69	13.151
621.02	12.684
621.35	12.529
621.68	11.215
622.01	12.616
622.34	12.935
622.67	11.635
623.00	11.812
623.33	12.652
623.66	12.223
623.99	13.328
624.32	12.482
624.65	12.641
624.99	11.331
625.32	11.586
625.65	11.871
625.98	12.913
626.31	12.675
626.64	12.408
626.97	12.136
627.30	12.884
627.63	12.879
627.96	12.111
628.29	13.036
628.62	13.266
628.95	14.811
629.28	13.595
629.61	13.566
629.94	13.238
630.26	11.916
630.59	12.297
630.92	12.452
631.25	12.636
631.58	13.614
631.91	13.387
