SpectraSuite Data File
++++++++++++++++++++++++++++++++++++
Date: Wed May 13 20:35:38 PDT 2015
User: schluterlab
Dark Spectrum Present: Yes
Reference Spectrum Present: Yes
Number of Sampled Component Spectra: 1
Spectrometers: USB2E3373
Integration Time (usec): 3000 (USB2E3373)
Spectra Averaged: 3 (USB2E3373)
Boxcar Smoothing: 0 (USB2E3373)
Correct for Electrical Dark: No (USB2E3373)
Strobe/Lamp Enabled: No (USB2E3373)
Correct for Detector Non-linearity: No (USB2E3373)
Correct for Stray Light: No (USB2E3373)
Number of Pixels in Processed Spectrum: 2048
>>>>>Begin Processed Spectral Data<<<<<
178.53	0.000
178.91	-975.000
179.29	-950.000
179.67	-150.000
180.04	-925.000
180.42	2000.000
180.80	980.000
181.18	-625.000
181.56	500.000
181.94	0.000
182.31	-514.286
182.69	1600.000
183.07	-387.500
183.45	-377.778
183.83	409.091
184.20	-200.000
184.58	1550.000
184.96	3400.000
185.34	-620.000
185.72	-425.000
186.09	-1750.000
186.47	1950.000
186.85	1650.000
187.23	2800.000
187.61	-1266.667
187.98	1275.000
188.36	400.000
188.74	381.818
189.12	-440.000
189.49	360.000
189.87	-3700.000
190.25	-925.000
190.63	328.571
191.00	353.846
191.38	550.000
191.76	-775.000
192.14	950.000
192.51	450.000
192.89	750.000
193.27	425.000
193.65	-725.000
194.02	360.000
194.40	820.000
194.78	480.000
195.15	425.000
195.53	540.000
195.91	-1400.000
196.29	275.000
196.66	194.737
197.04	-250.000
197.42	0.000
197.79	440.000
198.17	-3200.000
198.55	442.857
198.92	475.000
199.30	520.000
199.68	0.000
200.05	250.000
200.43	571.429
200.81	2200.000
201.18	1166.667
201.56	-1100.000
201.94	366.667
202.31	366.667
202.69	333.333
203.07	400.000
203.44	0.000
203.82	1050.000
204.19	542.857
204.57	321.429
204.95	462.500
205.32	1000.000
205.70	381.818
206.08	300.000
206.45	2050.000
206.83	262.500
207.20	583.333
207.58	420.000
207.96	277.778
208.33	500.000
208.71	-733.333
209.08	642.857
209.46	444.444
209.84	381.818
210.21	-966.667
210.59	950.000
210.96	-187.500
211.34	1550.000
211.71	360.000
212.09	616.667
212.46	0.000
212.84	1200.000
213.22	1150.000
213.59	-2900.000
213.97	450.000
214.34	685.714
214.72	500.000
215.09	780.000
215.47	-1700.000
215.84	-1000.000
216.22	1300.000
216.59	300.000
216.97	875.000
217.34	409.091
217.72	-533.333
218.09	0.000
218.47	-2600.000
218.84	444.444
219.22	442.857
219.59	866.667
219.97	-428.571
220.34	720.000
220.72	-1566.667
221.09	335.714
221.47	975.000
221.84	-716.667
222.22	0.000
222.59	950.000
222.97	-1850.000
223.34	640.000
223.72	369.231
224.09	840.000
224.46	1450.000
224.84	-2500.000
225.21	-560.000
225.59	-2600.000
225.96	490.000
226.34	205.000
226.71	1850.000
227.08	350.000
227.46	350.000
227.83	-750.000
228.21	-1250.000
228.58	466.667
228.95	-1600.000
229.33	-1600.000
229.70	1266.667
230.08	514.286
230.45	-640.000
230.82	325.000
231.20	516.667
231.57	342.857
231.95	341.667
232.32	200.000
232.69	290.909
233.07	457.143
233.44	284.615
233.81	-1333.333
234.19	205.263
234.56	341.667
234.93	275.000
235.31	272.727
235.68	215.385
236.05	207.143
236.43	118.182
236.80	205.263
237.17	3900.000
237.55	147.619
237.92	157.143
238.29	133.333
238.67	129.032
239.04	155.172
239.41	122.222
239.79	86.957
240.16	95.238
240.53	93.182
240.91	74.510
241.28	70.000
241.65	80.000
242.02	57.971
242.40	59.677
242.77	68.333
243.14	48.387
243.51	64.045
243.89	52.941
244.26	48.889
244.63	55.914
245.00	40.426
245.38	44.554
245.75	35.514
246.12	37.615
246.49	50.365
246.87	40.800
247.24	46.923
247.61	40.714
247.98	31.373
248.36	32.432
248.73	35.032
249.10	35.669
249.47	31.073
249.84	33.690
250.22	27.807
250.59	27.811
250.96	33.838
251.33	28.910
251.70	33.663
252.08	27.619
252.45	22.870
252.82	27.826
253.19	26.809
253.56	26.275
253.94	28.631
254.31	24.609
254.68	28.462
255.05	24.723
255.42	22.764
255.79	22.794
256.16	24.549
256.54	25.442
256.91	23.488
257.28	17.266
257.65	22.442
258.02	25.155
258.39	21.136
258.76	22.742
259.14	21.429
259.51	23.100
259.88	20.807
260.25	22.356
260.62	23.988
260.99	20.807
261.36	22.823
261.73	20.630
262.10	19.477
262.47	20.845
262.85	22.563
263.22	17.664
263.59	23.932
263.96	18.956
264.33	21.671
264.70	17.632
265.07	21.228
265.44	21.465
265.81	18.248
266.18	21.608
266.55	20.244
266.92	17.936
267.29	19.907
267.66	18.807
268.03	21.136
268.40	19.393
268.77	17.661
269.14	16.216
269.51	19.639
269.88	18.881
270.25	20.316
270.62	17.753
270.99	21.075
271.36	17.382
271.73	17.991
272.10	18.261
272.47	20.000
272.84	19.048
273.21	21.174
273.58	16.594
273.95	17.610
274.32	17.562
274.69	17.987
275.06	15.748
275.43	18.298
275.80	19.639
276.17	16.497
276.54	18.087
276.91	18.182
277.28	16.602
277.65	17.795
278.02	16.770
278.39	18.359
278.76	17.818
279.13	19.434
279.50	18.250
279.87	15.139
280.23	17.365
280.60	16.828
280.97	18.484
281.34	17.522
281.71	16.727
282.08	18.426
282.45	16.727
282.82	17.052
283.19	14.973
283.56	16.667
283.92	15.905
284.29	16.226
284.66	16.697
285.03	14.286
285.40	14.261
285.77	15.320
286.14	14.335
286.51	16.500
286.87	15.385
287.24	17.101
287.61	14.607
287.98	16.558
288.35	15.848
288.72	13.707
289.08	16.432
289.45	14.498
289.82	13.984
290.19	14.129
290.56	16.998
290.93	13.142
291.29	13.804
291.66	13.717
292.03	17.151
292.40	16.446
292.77	13.166
293.13	14.776
293.50	13.994
293.87	12.444
294.24	13.926
294.60	12.227
294.97	13.372
295.34	15.656
295.71	14.631
296.08	14.245
296.44	12.655
296.81	13.342
297.18	12.873
297.55	11.346
297.91	12.797
298.28	13.655
298.65	14.752
299.02	14.229
299.38	12.218
299.75	10.647
300.12	11.111
300.48	13.625
300.85	12.577
301.22	12.611
301.59	10.606
301.95	12.720
302.32	11.810
302.69	13.142
303.05	11.879
303.42	10.988
303.79	11.438
304.15	10.956
304.52	11.935
304.89	10.801
305.25	12.529
305.62	12.571
305.99	12.043
306.35	11.409
306.72	11.435
307.09	12.875
307.45	12.387
307.82	12.388
308.19	11.589
308.55	13.053
308.92	11.493
309.29	11.616
309.65	11.241
310.02	12.368
310.38	11.828
310.75	11.299
311.12	12.897
311.48	13.898
311.85	12.474
312.22	11.550
312.58	11.227
312.95	13.622
313.31	11.748
313.68	12.890
314.05	13.511
314.41	12.663
314.78	14.602
315.14	14.201
315.51	13.697
315.87	14.257
316.24	13.009
316.61	13.450
316.97	14.971
317.34	13.796
317.70	15.296
318.07	17.036
318.43	14.775
318.80	16.401
319.16	15.913
319.53	15.760
319.89	17.333
320.26	18.900
320.62	17.163
320.99	18.081
321.35	17.980
321.72	19.097
322.08	19.842
322.45	20.000
322.81	21.124
323.18	19.461
323.54	20.872
323.91	21.981
324.27	22.658
324.64	21.062
325.00	22.002
325.37	21.474
325.73	23.609
326.10	23.919
326.46	23.566
326.83	23.469
327.19	25.448
327.56	25.523
327.92	24.759
328.29	26.531
328.65	27.624
329.01	25.722
329.38	27.012
329.74	25.946
330.11	27.333
330.47	27.181
330.84	27.665
331.20	25.683
331.56	27.064
331.93	29.167
332.29	28.217
332.66	27.965
333.02	28.702
333.38	29.268
333.75	29.590
334.11	28.915
334.48	29.459
334.84	29.320
335.20	30.545
335.57	29.374
335.93	29.018
336.29	29.762
336.66	28.945
337.02	28.959
337.38	29.167
337.75	28.520
338.11	30.170
338.47	30.203
338.84	30.981
339.20	29.450
339.56	31.478
339.93	29.364
340.29	30.163
340.65	30.125
341.02	30.279
341.38	29.626
341.74	29.912
342.11	30.917
342.47	30.573
342.83	30.051
343.20	30.909
343.56	29.823
343.92	30.877
344.28	30.782
344.65	31.384
345.01	30.051
345.37	29.331
345.73	31.387
346.10	31.543
346.46	31.186
346.82	31.878
347.19	30.159
347.55	30.296
347.91	30.744
348.27	31.800
348.63	31.187
349.00	30.987
349.36	30.952
349.72	31.195
350.08	30.389
350.45	32.384
350.81	31.438
351.17	31.686
351.53	30.876
351.89	30.941
352.26	31.097
352.62	31.516
352.98	31.199
353.34	31.800
353.70	31.669
354.07	31.774
354.43	30.952
354.79	32.019
355.15	31.445
355.51	32.854
355.87	33.714
356.24	32.492
356.60	30.954
356.96	33.065
357.32	32.298
357.68	32.283
358.04	31.829
358.40	32.225
358.77	32.707
359.13	31.886
359.49	32.000
359.85	30.635
360.21	33.094
360.57	32.607
360.93	33.154
361.29	32.653
361.66	32.895
362.02	31.866
362.38	33.156
362.74	33.259
363.10	32.717
363.46	32.355
363.82	33.031
364.18	32.305
364.54	34.250
364.90	32.861
365.26	33.162
365.62	33.163
365.98	33.090
366.35	32.235
366.71	33.044
367.07	33.940
367.43	33.672
367.79	34.904
368.15	34.411
368.51	33.576
368.87	34.047
369.23	33.211
369.59	33.744
369.95	33.382
370.31	33.903
370.67	33.333
371.03	33.633
371.39	33.746
371.75	33.603
372.11	33.784
372.47	34.531
372.83	34.366
373.19	34.754
373.55	34.959
373.91	34.978
374.27	33.814
374.63	33.018
374.99	35.028
375.35	33.985
375.71	34.339
376.07	34.431
376.42	35.076
376.78	35.189
377.14	35.007
377.50	36.093
377.86	34.109
378.22	35.082
378.58	32.331
378.94	34.381
379.30	34.796
379.66	34.645
380.02	35.319
380.38	34.062
380.74	34.694
381.09	34.352
381.45	35.587
381.81	36.057
382.17	35.287
382.53	35.472
382.89	35.185
383.25	35.835
383.61	35.626
383.97	35.210
384.32	35.122
384.68	33.953
385.04	35.157
385.40	34.613
385.76	34.705
386.12	35.751
386.48	36.186
386.83	36.305
387.19	37.106
387.55	35.993
387.91	35.550
388.27	35.561
388.62	36.140
388.98	35.504
389.34	36.045
389.70	36.113
390.06	35.741
390.42	35.538
390.77	36.578
391.13	37.205
391.49	36.041
391.85	35.964
392.20	35.584
392.56	36.111
392.92	35.962
393.28	35.385
393.64	36.211
393.99	35.431
394.35	36.290
394.71	35.634
395.07	35.265
395.42	35.105
395.78	36.196
396.14	36.065
396.50	35.777
396.85	36.364
397.21	35.327
397.57	35.772
397.92	35.998
398.28	35.090
398.64	35.962
399.00	36.374
399.35	35.307
399.71	36.111
400.07	35.600
400.42	35.153
400.78	35.283
401.14	35.305
401.49	36.179
401.85	35.269
402.21	35.928
402.57	35.534
402.92	36.633
403.28	36.227
403.63	35.767
403.99	35.732
404.35	35.394
404.70	35.012
405.06	35.119
405.42	35.309
405.77	34.800
406.13	34.594
406.49	35.245
406.84	35.145
407.20	34.220
407.55	36.120
407.91	34.733
408.27	34.844
408.62	35.641
408.98	35.110
409.34	34.440
409.69	35.355
410.05	35.254
410.40	35.229
410.76	34.827
411.11	34.318
411.47	35.463
411.83	34.148
412.18	33.519
412.54	34.807
412.89	34.398
413.25	35.242
413.60	35.207
413.96	34.244
414.31	34.386
414.67	34.411
415.03	34.437
415.38	34.472
415.74	34.084
416.09	34.487
416.45	34.806
416.80	33.906
417.16	33.847
417.51	34.904
417.87	33.847
418.22	34.574
418.58	33.699
418.93	33.784
419.29	33.800
419.64	34.005
420.00	33.963
420.35	33.855
420.71	34.310
421.06	33.592
421.42	33.216
421.77	33.184
422.12	33.184
422.48	33.567
422.83	33.314
423.19	33.425
423.54	33.314
423.90	32.986
424.25	33.222
424.61	33.571
424.96	33.003
425.31	32.835
425.67	33.146
426.02	33.314
426.38	33.455
426.73	33.470
427.09	33.009
427.44	33.065
427.79	32.605
428.15	32.679
428.50	33.236
428.85	33.790
429.21	32.468
429.56	32.504
429.92	31.102
430.27	32.175
430.62	32.104
430.98	32.797
431.33	32.629
431.68	32.408
432.04	32.055
432.39	32.096
432.74	32.735
433.10	32.032
433.45	33.061
433.80	31.375
434.16	31.838
434.51	32.526
434.86	32.383
435.22	31.684
435.57	32.888
435.92	33.002
436.28	32.918
436.63	31.843
436.98	31.769
437.34	31.604
437.69	32.730
438.04	32.378
438.39	32.299
438.75	31.493
439.10	32.346
439.45	32.231
439.81	31.178
440.16	30.887
440.51	31.283
440.86	30.921
441.22	30.701
441.57	31.635
441.92	31.934
442.27	31.970
442.63	30.226
442.98	31.268
443.33	30.815
443.68	31.079
444.03	31.381
444.39	29.455
444.74	30.574
445.09	30.836
445.44	30.946
445.79	31.321
446.15	30.281
446.50	30.264
446.85	30.678
447.20	31.260
447.55	31.658
447.91	30.557
448.26	30.328
448.61	30.243
448.96	31.285
449.31	30.259
449.66	29.713
450.02	29.471
450.37	29.025
450.72	30.288
451.07	29.677
451.42	29.362
451.77	29.419
452.12	29.850
452.47	29.415
452.83	30.361
453.18	29.034
453.53	30.056
453.88	29.297
454.23	29.468
454.58	28.468
454.93	29.434
455.28	28.242
455.63	29.490
455.98	30.179
456.34	29.397
456.69	28.554
457.04	29.659
457.39	28.872
457.74	28.613
458.09	29.787
458.44	28.563
458.79	27.711
459.14	29.120
459.49	28.430
459.84	28.310
460.19	28.403
460.54	27.720
460.89	28.854
461.24	29.083
461.59	29.343
461.94	27.990
462.29	27.834
462.64	28.079
462.99	28.042
463.34	28.600
463.69	28.518
464.04	27.536
464.39	27.130
464.74	28.342
465.09	27.503
465.44	27.258
465.79	26.734
466.14	27.367
466.49	27.419
466.84	27.204
467.19	26.735
467.54	26.875
467.89	26.951
468.24	26.527
468.59	27.473
468.94	26.390
469.29	26.671
469.64	27.175
469.99	26.996
470.34	26.816
470.68	26.940
471.03	26.667
471.38	26.199
471.73	27.049
472.08	26.645
472.43	27.010
472.78	26.860
473.13	27.150
473.48	26.529
473.83	26.829
474.17	25.513
474.52	26.365
474.87	26.095
475.22	25.363
475.57	24.342
475.92	25.704
476.27	25.085
476.61	25.097
476.96	25.179
477.31	25.222
477.66	25.274
478.01	24.882
478.36	25.965
478.70	24.039
479.05	24.707
479.40	24.565
479.75	24.708
480.10	24.453
480.45	24.560
480.79	24.654
481.14	24.804
481.49	24.300
481.84	23.640
482.19	24.125
482.53	24.587
482.88	24.011
483.23	23.598
483.58	24.249
483.92	23.758
484.27	23.181
484.62	23.362
484.97	23.335
485.31	23.082
485.66	21.804
486.01	22.071
486.36	21.705
486.70	21.706
487.05	21.922
487.40	21.885
487.75	21.714
488.09	22.202
488.44	21.981
488.79	22.242
489.13	22.995
489.48	22.268
489.83	22.270
490.17	22.841
490.52	22.675
490.87	22.298
491.22	23.283
491.56	22.278
491.91	22.196
492.26	22.095
492.60	22.120
492.95	21.609
493.30	21.822
493.64	22.445
493.99	22.284
494.34	22.618
494.68	22.940
495.03	22.603
495.37	21.778
495.72	22.466
496.07	22.413
496.41	22.345
496.76	21.460
497.11	22.107
497.45	22.357
497.80	21.641
498.14	21.304
498.49	21.463
498.84	22.291
499.18	21.476
499.53	21.747
499.87	22.181
500.22	21.950
500.56	22.718
500.91	21.779
501.26	22.333
501.60	22.117
501.95	21.219
502.29	22.071
502.64	20.857
502.98	21.739
503.33	21.161
503.67	21.671
504.02	21.656
504.36	21.338
504.71	21.495
505.06	21.349
505.40	21.001
505.75	20.347
506.09	20.943
506.44	21.263
506.78	21.822
507.13	21.050
507.47	21.465
507.82	21.378
508.16	21.783
508.51	21.055
508.85	21.400
509.19	20.663
509.54	20.918
509.88	20.711
510.23	20.823
510.57	21.981
510.92	20.663
511.26	20.761
511.61	21.162
511.95	20.929
512.30	20.573
512.64	21.118
512.98	21.061
513.33	20.985
513.67	21.185
514.02	20.455
514.36	21.245
514.70	20.365
515.05	20.524
515.39	21.481
515.74	20.721
516.08	21.017
516.42	21.865
516.77	21.405
517.11	20.699
517.46	21.670
517.80	21.196
518.14	19.919
518.49	21.645
518.83	20.682
519.17	20.439
519.52	19.864
519.86	20.365
520.20	20.809
520.55	20.826
520.89	21.655
521.23	21.713
521.58	20.468
521.92	21.372
522.26	20.134
522.61	21.308
522.95	20.626
523.29	20.937
523.64	21.220
523.98	20.702
524.32	21.954
524.66	20.565
525.01	21.017
525.35	21.190
525.69	20.628
526.04	20.685
526.38	20.805
526.72	20.061
527.06	20.527
527.41	19.926
527.75	20.129
528.09	20.424
528.43	20.523
528.78	20.774
529.12	20.061
529.46	21.004
529.80	20.730
530.15	20.623
530.49	19.938
530.83	20.506
531.17	21.214
531.51	21.271
531.86	20.000
532.20	20.991
532.54	20.372
532.88	20.411
533.22	18.676
533.57	20.123
533.91	20.289
534.25	20.535
534.59	18.548
534.93	19.453
535.27	20.097
535.62	19.902
535.96	20.151
536.30	19.517
536.64	20.476
536.98	20.173
537.32	20.079
537.66	19.200
538.01	20.540
538.35	19.845
538.69	21.059
539.03	19.363
539.37	19.361
539.71	18.600
540.05	19.869
540.39	20.199
540.73	19.793
541.07	19.598
541.42	18.982
541.76	19.935
542.10	19.922
542.44	19.272
542.78	19.829
543.12	19.002
543.46	19.213
543.80	20.364
544.14	18.614
544.48	19.683
544.82	19.179
545.16	18.868
545.50	19.280
545.84	18.750
546.18	19.259
546.52	19.064
546.86	19.656
547.20	19.622
547.54	19.572
547.88	19.770
548.22	18.929
548.56	19.434
548.90	18.246
549.24	17.980
549.58	18.759
549.92	19.849
550.26	19.531
550.60	19.225
550.94	18.803
551.28	19.020
551.62	18.548
551.96	18.807
552.30	18.567
552.64	19.946
552.98	19.864
553.32	18.813
553.66	18.746
554.00	18.806
554.34	18.012
554.68	19.027
555.02	19.182
555.36	18.441
555.69	18.742
556.03	18.775
556.37	19.100
556.71	18.076
557.05	17.857
557.39	18.684
557.73	18.278
558.07	18.927
558.41	18.017
558.75	19.618
559.08	19.165
559.42	18.594
559.76	18.382
560.10	19.272
560.44	17.610
560.78	17.565
561.12	18.206
561.45	19.492
561.79	17.271
562.13	18.176
562.47	18.579
562.81	17.434
563.15	17.860
563.48	18.302
563.82	18.591
564.16	18.313
564.50	17.578
564.84	18.142
565.17	17.053
565.51	18.211
565.85	17.703
566.19	17.595
566.52	16.973
566.86	17.300
567.20	17.866
567.54	17.009
567.88	17.382
568.21	17.672
568.55	17.543
568.89	17.656
569.23	16.667
569.56	16.721
569.90	16.830
570.24	15.895
570.57	15.947
570.91	15.740
571.25	15.936
571.59	16.348
571.92	16.043
572.26	15.598
572.60	15.916
572.93	15.742
573.27	15.380
573.61	16.052
573.95	15.556
574.28	15.101
574.62	15.112
574.96	14.743
575.29	15.398
575.63	15.371
575.97	15.413
576.30	15.374
576.64	15.188
576.98	14.998
577.31	14.949
577.65	15.309
577.98	14.918
578.32	14.952
578.66	15.136
578.99	15.019
579.33	14.839
579.67	14.790
580.00	14.817
580.34	14.713
580.67	15.008
581.01	15.111
581.35	14.809
581.68	14.618
582.02	14.483
582.35	14.647
582.69	14.705
583.02	15.003
583.36	14.757
583.70	15.160
584.03	15.047
584.37	14.941
584.70	14.760
585.04	14.726
585.37	15.051
585.71	14.991
586.04	14.859
586.38	15.152
586.72	14.885
587.05	14.779
587.39	14.723
587.72	14.764
588.06	14.594
588.39	14.733
588.73	14.638
589.06	15.238
589.40	15.185
589.73	15.241
590.07	15.516
590.40	14.834
590.73	15.340
591.07	15.792
591.40	15.605
591.74	16.017
592.07	15.314
592.41	15.668
592.74	15.169
593.08	14.757
593.41	14.869
593.75	14.678
594.08	15.052
594.41	15.235
594.75	15.046
595.08	15.426
595.42	15.412
595.75	14.744
596.09	15.434
596.42	15.796
596.75	14.943
597.09	15.541
597.42	15.261
597.75	15.308
598.09	15.696
598.42	15.421
598.76	15.241
599.09	15.051
599.42	14.956
599.76	15.264
600.09	14.572
600.42	14.427
600.76	14.393
601.09	14.499
601.42	14.650
601.76	14.383
602.09	14.506
602.42	14.928
602.76	15.558
603.09	14.595
603.42	15.775
603.76	14.939
604.09	15.200
604.42	14.554
604.76	15.774
605.09	15.116
605.42	14.964
605.75	14.983
606.09	14.599
606.42	15.039
606.75	14.890
607.09	15.195
607.42	14.163
607.75	15.105
608.08	14.503
608.42	15.285
608.75	15.284
609.08	14.986
609.41	15.183
609.75	15.007
610.08	15.410
610.41	14.525
610.74	14.806
611.07	15.464
611.41	15.456
611.74	15.485
612.07	15.839
612.40	15.268
612.73	14.842
613.07	15.302
613.40	15.219
613.73	14.683
614.06	15.645
614.39	15.574
614.72	15.000
615.06	15.126
615.39	14.650
615.72	14.775
616.05	14.514
616.38	15.342
616.71	15.677
617.05	15.607
617.38	14.973
617.71	14.955
618.04	15.805
618.37	15.553
618.70	14.872
619.03	16.250
619.36	16.090
619.69	15.915
620.03	16.621
620.36	16.644
620.69	16.164
621.02	16.077
621.35	15.975
621.68	16.044
622.01	16.022
622.34	15.961
622.67	15.513
623.00	15.334
623.33	15.654
623.66	15.940
623.99	15.169
624.32	16.548
624.65	15.113
624.99	14.589
625.32	15.568
625.65	15.101
625.98	15.680
626.31	16.407
626.64	16.490
626.97	17.290
627.30	16.542
627.63	17.391
627.96	16.232
628.29	16.623
628.62	17.292
628.95	16.981
629.28	16.971
629.61	17.049
629.94	16.190
630.26	16.301
630.59	16.778
630.92	16.379
631.25	15.597
631.58	18.018
