SpectraSuite Data File
++++++++++++++++++++++++++++++++++++
Date: Wed May 13 20:37:02 PDT 2015
User: schluterlab
Dark Spectrum Present: Yes
Reference Spectrum Present: Yes
Number of Sampled Component Spectra: 1
Spectrometers: USB2E3373
Integration Time (usec): 3000 (USB2E3373)
Spectra Averaged: 3 (USB2E3373)
Boxcar Smoothing: 0 (USB2E3373)
Correct for Electrical Dark: No (USB2E3373)
Strobe/Lamp Enabled: No (USB2E3373)
Correct for Detector Non-linearity: No (USB2E3373)
Correct for Stray Light: No (USB2E3373)
Number of Pixels in Processed Spectrum: 2048
>>>>>Begin Processed Spectral Data<<<<<
178.53	0.000
178.91	-875.000
179.29	-1125.000
179.67	-155.556
180.04	-800.000
180.42	1750.000
180.80	700.000
181.18	-475.000
181.56	500.000
181.94	0.000
182.31	-500.000
182.69	1266.667
183.07	-375.000
183.45	-322.222
183.83	418.182
184.20	-130.000
184.58	1650.000
184.96	4100.000
185.34	-600.000
185.72	-462.500
186.09	-1650.000
186.47	2050.000
186.85	2100.000
187.23	3000.000
187.61	-1400.000
187.98	1050.000
188.36	409.091
188.74	409.091
189.12	-500.000
189.49	390.000
189.87	-2600.000
190.25	-725.000
190.63	250.000
191.00	323.077
191.38	533.333
191.76	-900.000
192.14	1100.000
192.51	387.500
192.89	833.333
193.27	412.500
193.65	-750.000
194.02	340.000
194.40	640.000
194.78	430.000
195.15	400.000
195.53	460.000
195.91	-1600.000
196.29	225.000
196.66	289.474
197.04	-320.000
197.42	0.000
197.79	500.000
198.17	-3400.000
198.55	428.571
198.92	575.000
199.30	540.000
199.68	0.000
200.05	227.778
200.43	571.429
200.81	3800.000
201.18	1466.667
201.56	-1166.667
201.94	400.000
202.31	444.444
202.69	258.333
203.07	370.000
203.44	0.000
203.82	975.000
204.19	600.000
204.57	328.571
204.95	512.500
205.32	1166.667
205.70	354.545
206.08	257.143
206.45	1650.000
206.83	287.500
207.20	650.000
207.58	460.000
207.96	277.778
208.33	500.000
208.71	-616.667
209.08	528.571
209.46	333.333
209.84	381.818
210.21	-1000.000
210.59	850.000
210.96	-325.000
211.34	2000.000
211.71	420.000
212.09	533.333
212.46	0.000
212.84	1166.667
213.22	1275.000
213.59	-2900.000
213.97	533.333
214.34	600.000
214.72	454.545
215.09	820.000
215.47	-1800.000
215.84	-1750.000
216.22	1133.333
216.59	242.857
216.97	1075.000
217.34	400.000
217.72	-516.667
218.09	0.000
218.47	-3200.000
218.84	411.111
219.22	485.714
219.59	1100.000
219.97	-371.429
220.34	700.000
220.72	-1300.000
221.09	292.857
221.47	1075.000
221.84	-616.667
222.22	0.000
222.59	975.000
222.97	-2000.000
223.34	700.000
223.72	307.692
224.09	760.000
224.46	1700.000
224.84	-2900.000
225.21	-760.000
225.59	-2700.000
225.96	390.000
226.34	230.000
226.71	1700.000
227.08	437.500
227.46	370.000
227.83	-650.000
228.21	-1400.000
228.58	466.667
228.95	-2150.000
229.33	-1750.000
229.70	1533.333
230.08	528.571
230.45	-480.000
230.82	291.667
231.20	566.667
231.57	371.429
231.95	366.667
232.32	145.455
232.69	290.909
233.07	428.571
233.44	238.462
233.81	-800.000
234.19	189.474
234.56	300.000
234.93	208.333
235.31	263.636
235.68	238.462
236.05	278.571
236.43	154.545
236.80	131.579
237.17	2800.000
237.55	161.905
237.92	153.571
238.29	161.905
238.67	83.871
239.04	134.483
239.41	116.667
239.79	95.652
240.16	95.238
240.53	79.545
240.91	82.353
241.28	82.000
241.65	56.000
242.02	68.116
242.40	66.129
242.77	71.667
243.14	61.290
243.51	66.292
243.89	55.294
244.26	50.000
244.63	50.538
245.00	46.809
245.38	52.475
245.75	43.925
246.12	38.532
246.49	51.095
246.87	46.400
247.24	46.154
247.61	40.000
247.98	43.137
248.36	34.459
248.73	30.573
249.10	40.764
249.47	35.028
249.84	36.364
250.22	36.364
250.59	33.136
250.96	39.899
251.33	34.597
251.70	34.653
252.08	28.571
252.45	30.942
252.82	29.130
253.19	28.511
253.56	29.412
253.94	29.876
254.31	25.000
254.68	31.154
255.05	26.937
255.42	29.268
255.79	27.941
256.16	27.076
256.54	25.442
256.91	27.402
257.28	25.540
257.65	29.373
258.02	28.261
258.39	26.183
258.76	25.753
259.14	25.893
259.51	28.267
259.88	22.360
260.25	31.118
260.62	23.410
260.99	22.981
261.36	27.628
261.73	27.221
262.10	22.384
262.47	27.606
262.85	24.791
263.22	23.932
263.59	27.635
263.96	22.802
264.33	23.760
264.70	25.000
265.07	24.552
265.44	23.485
265.81	22.141
266.18	25.126
266.55	24.146
266.92	24.816
267.29	24.769
267.66	24.312
268.03	24.091
268.40	24.299
268.77	22.912
269.14	21.847
269.51	25.056
269.88	23.310
270.25	23.702
270.62	23.596
270.99	25.161
271.36	21.674
271.73	22.897
272.10	21.739
272.47	22.796
272.84	24.242
273.21	22.432
273.58	20.524
273.95	19.706
274.32	20.455
274.69	21.842
275.06	20.276
275.43	21.489
275.80	21.242
276.17	22.607
276.54	20.374
276.91	21.937
277.28	20.703
277.65	22.050
278.02	19.462
278.39	23.242
278.76	20.182
279.13	21.887
279.50	20.857
279.87	19.721
280.23	20.559
280.60	21.470
280.97	18.299
281.34	20.531
281.71	20.727
282.08	22.073
282.45	20.182
282.82	20.426
283.19	20.499
283.56	21.053
283.92	19.966
284.29	19.048
284.66	19.238
285.03	18.807
285.40	19.014
285.77	18.519
286.14	16.062
286.51	20.500
286.87	20.513
287.24	19.381
287.61	18.620
287.98	19.643
288.35	19.176
288.72	18.692
289.08	17.997
289.45	20.099
289.82	18.699
290.19	16.954
290.56	18.989
290.93	15.408
291.29	17.331
291.66	16.814
292.03	18.169
292.40	17.034
292.77	16.272
293.13	18.209
293.50	17.055
293.87	17.185
294.24	17.037
294.60	14.847
294.97	17.006
295.34	17.630
295.71	15.767
296.08	15.527
296.44	16.094
296.81	15.456
297.18	17.615
297.55	14.248
297.91	14.776
298.28	15.395
298.65	15.796
299.02	15.020
299.38	14.874
299.75	13.342
300.12	13.538
300.48	14.125
300.85	14.057
301.22	15.669
301.59	14.394
301.95	14.861
302.32	15.276
302.69	13.859
303.05	14.182
303.42	14.198
303.79	14.949
304.15	13.403
304.52	14.021
304.89	14.518
305.25	13.689
305.62	15.402
305.99	14.640
306.35	14.430
306.72	13.453
307.09	15.427
307.45	15.878
307.82	13.504
308.19	14.349
308.55	14.024
308.92	14.930
309.29	13.411
309.65	12.831
310.02	12.896
310.38	14.194
310.75	14.784
311.12	14.023
311.48	13.898
311.85	12.998
312.22	13.736
312.58	13.306
312.95	14.044
313.31	12.913
313.68	13.514
314.05	14.201
314.41	13.668
314.78	13.696
315.14	14.101
315.51	14.521
315.87	13.960
316.24	14.300
316.61	14.327
316.97	13.894
317.34	13.112
317.70	14.818
318.07	15.688
318.43	14.481
318.80	16.870
319.16	15.725
319.53	14.634
319.89	16.476
320.26	17.500
320.62	17.560
320.99	16.465
321.35	16.768
321.72	17.351
322.08	17.473
322.45	18.706
322.81	19.186
323.18	18.593
323.54	18.646
323.91	18.774
324.27	18.929
324.64	18.453
325.00	19.387
325.37	19.472
325.73	21.634
326.10	21.006
326.46	21.147
326.83	22.519
327.19	21.605
327.56	22.387
327.92	21.522
328.29	23.514
328.65	23.020
329.01	22.924
329.38	22.942
329.74	22.992
330.11	24.976
330.47	23.691
330.84	25.092
331.20	24.499
331.56	24.587
331.93	24.815
332.29	23.780
332.66	25.841
333.02	25.411
333.38	25.565
333.75	26.292
334.11	25.445
334.48	25.555
334.84	26.287
335.20	26.636
335.57	25.839
335.93	23.929
336.29	26.648
336.66	26.961
337.02	25.430
337.38	26.481
337.75	26.471
338.11	26.052
338.47	26.335
338.84	26.398
339.20	25.413
339.56	26.825
339.93	26.182
340.29	26.359
340.65	26.916
341.02	28.010
341.38	27.046
341.74	26.404
342.11	26.638
342.47	27.313
342.83	27.825
343.20	26.667
343.56	26.369
343.92	27.895
344.28	26.446
344.65	26.225
345.01	26.431
345.37	26.672
345.73	26.819
346.10	27.451
346.46	26.695
346.82	26.689
347.19	26.817
347.55	25.616
347.91	27.427
348.27	28.513
348.63	27.174
349.00	26.052
349.36	27.586
349.72	26.303
350.08	26.499
350.45	27.339
350.81	27.701
351.17	26.661
351.53	27.600
351.89	25.495
352.26	27.624
352.62	27.105
352.98	27.715
353.34	26.869
353.70	27.087
354.07	26.613
354.43	27.063
354.79	26.468
355.15	25.858
355.51	28.377
355.87	26.776
356.24	27.280
356.60	25.261
356.96	27.514
357.32	27.555
357.68	27.638
358.04	26.128
358.40	27.553
358.77	26.839
359.13	25.651
359.49	26.431
359.85	25.476
360.21	26.077
360.57	26.615
360.93	25.923
361.29	26.379
361.66	25.464
362.02	27.090
362.38	25.627
362.74	26.265
363.10	27.313
363.46	25.605
363.82	26.531
364.18	27.093
364.54	26.226
364.90	27.479
365.26	26.103
365.62	26.808
365.98	26.662
366.35	26.218
366.71	26.681
367.07	26.584
367.43	28.157
367.79	26.338
368.15	26.796
368.51	26.090
368.87	26.124
369.23	26.993
369.59	26.720
369.95	26.618
370.31	26.282
370.67	27.101
371.03	27.416
371.39	25.219
371.75	26.250
372.11	25.818
372.47	26.540
372.83	26.585
373.19	25.289
373.55	26.090
373.91	28.351
374.27	25.911
374.63	26.909
374.99	26.201
375.35	25.750
375.71	26.525
376.07	25.103
376.42	26.410
376.78	26.706
377.14	26.052
377.50	26.358
377.86	26.197
378.22	26.043
378.58	25.815
378.94	25.644
379.30	26.018
379.66	25.888
380.02	26.536
380.38	25.076
380.74	25.750
381.09	26.956
381.45	26.245
381.81	26.229
382.17	26.815
382.53	26.289
382.89	26.790
383.25	26.892
383.61	26.270
383.97	27.017
384.32	25.889
384.68	25.589
385.04	25.200
385.40	26.006
385.76	25.676
386.12	26.425
386.48	26.809
386.83	27.325
387.19	26.902
387.55	25.232
387.91	26.481
388.27	24.954
388.62	26.675
388.98	25.614
389.34	26.408
389.70	26.242
390.06	26.996
390.42	25.875
390.77	26.336
391.13	25.846
391.49	26.523
391.85	26.289
392.20	24.543
392.56	25.947
392.92	26.251
393.28	24.911
393.64	26.559
393.99	25.046
394.35	25.496
394.71	24.592
395.07	25.919
395.42	24.907
395.78	24.936
396.14	25.388
396.50	25.564
396.85	25.493
397.21	24.661
397.57	25.480
397.92	25.120
398.28	23.767
398.64	24.791
399.00	24.678
399.35	24.140
399.71	23.611
400.07	25.310
400.42	25.092
400.78	24.608
401.14	25.244
401.49	24.597
401.85	24.077
402.21	24.731
402.57	24.121
402.92	23.960
403.28	24.672
403.63	23.886
403.99	23.885
404.35	24.121
404.70	23.201
405.06	22.889
405.42	23.394
405.77	22.571
406.13	22.912
406.49	23.241
406.84	23.686
407.20	22.163
407.55	22.910
407.91	22.133
408.27	23.357
408.62	22.577
408.98	22.978
409.34	22.325
409.69	22.194
410.05	22.119
410.40	22.936
410.76	21.804
411.11	22.135
411.47	22.364
411.83	23.030
412.18	21.583
412.54	21.980
412.89	21.988
413.25	21.370
413.60	21.927
413.96	20.219
414.31	20.960
414.67	22.180
415.03	21.589
415.38	21.585
415.74	20.707
416.09	22.404
416.45	20.817
416.80	21.084
417.16	22.453
417.51	21.102
417.87	20.873
418.22	21.199
418.58	21.627
418.93	21.253
419.29	20.687
419.64	20.151
420.00	20.976
420.35	20.522
420.71	20.263
421.06	20.406
421.42	20.117
421.77	20.235
422.12	19.989
422.48	19.914
422.83	20.151
423.19	19.669
423.54	19.153
423.90	19.652
424.25	19.542
424.61	18.810
424.96	19.534
425.31	19.324
425.67	18.876
426.02	19.543
426.38	19.353
426.73	18.373
427.09	18.663
427.44	18.056
427.79	18.746
428.15	18.690
428.50	18.315
428.85	18.951
429.21	17.946
429.56	18.144
429.92	17.967
430.27	18.073
430.62	18.024
430.98	18.163
431.33	17.938
431.68	18.272
432.04	17.945
432.39	18.504
432.74	18.193
433.10	18.223
433.45	18.134
433.80	17.627
434.16	17.682
434.51	18.526
434.86	18.130
435.22	17.009
435.57	17.690
435.92	17.028
436.28	17.675
436.63	18.598
436.98	16.829
437.34	17.233
437.69	17.853
438.04	17.707
438.39	17.493
438.75	17.257
439.10	17.430
439.45	17.178
439.81	17.402
440.16	17.617
440.51	17.165
440.86	17.545
441.22	16.685
441.57	17.144
441.92	16.735
442.27	17.653
442.63	16.272
442.98	17.634
443.33	16.793
443.68	16.624
444.03	17.570
444.39	16.650
444.74	16.721
445.09	16.873
445.44	16.512
445.79	17.021
446.15	16.993
446.50	16.478
446.85	15.519
447.20	16.726
447.55	16.136
447.91	16.437
448.26	16.694
448.61	16.846
448.96	16.390
449.31	17.435
449.66	16.488
450.02	16.490
450.37	16.213
450.72	16.300
451.07	15.844
451.42	15.866
451.77	16.735
452.12	15.473
452.47	16.107
452.83	16.375
453.18	16.687
453.53	16.759
453.88	16.184
454.23	16.139
454.58	16.657
454.93	16.847
455.28	16.397
455.63	15.655
455.98	17.143
456.34	16.080
456.69	15.780
457.04	15.728
457.39	16.072
457.74	15.670
458.09	16.159
458.44	15.849
458.79	15.727
459.14	16.140
459.49	16.521
459.84	15.457
460.19	15.203
460.54	15.394
460.89	15.634
461.24	15.240
461.59	16.560
461.94	15.660
462.29	15.846
462.64	15.635
462.99	15.355
463.34	17.067
463.69	15.322
464.04	15.710
464.39	15.826
464.74	15.330
465.09	15.742
465.44	15.845
465.79	14.933
466.14	15.818
466.49	14.794
466.84	15.528
467.19	15.691
467.54	15.937
467.89	15.006
468.24	15.590
468.59	15.446
468.94	14.417
469.29	15.360
469.64	16.466
469.99	15.765
470.34	14.927
470.68	15.445
471.03	15.442
471.38	14.732
471.73	15.923
472.08	15.329
472.43	14.322
472.78	14.417
473.13	15.661
473.48	15.231
473.83	14.207
474.17	14.748
474.52	14.888
474.87	15.120
475.22	14.800
475.57	14.347
475.92	15.135
476.27	14.374
476.61	14.672
476.96	14.678
477.31	14.443
477.66	14.278
478.01	14.323
478.36	14.225
478.70	15.109
479.05	14.590
479.40	14.176
479.75	14.387
480.10	13.867
480.45	13.898
480.79	13.808
481.14	14.971
481.49	13.621
481.84	13.992
482.19	14.130
482.53	13.211
482.88	14.379
483.23	14.533
483.58	13.558
483.92	14.574
484.27	13.203
484.62	13.621
484.97	13.441
485.31	13.322
485.66	13.029
486.01	12.620
486.36	12.295
486.70	12.463
487.05	12.765
487.40	12.334
487.75	12.158
488.09	12.466
488.44	12.742
488.79	13.092
489.13	13.025
489.48	12.806
489.83	13.681
490.17	13.371
490.52	13.242
490.87	13.704
491.22	13.097
491.56	12.984
491.91	13.309
492.26	12.954
492.60	13.779
492.95	13.424
493.30	13.318
493.64	13.019
493.99	13.092
494.34	13.414
494.68	14.194
495.03	13.393
495.37	13.169
495.72	13.645
496.07	13.968
496.41	12.788
496.76	13.412
497.11	12.742
497.45	13.833
497.80	13.196
498.14	12.802
498.49	12.537
498.84	13.375
499.18	13.000
499.53	13.010
499.87	13.374
500.22	13.000
500.56	14.029
500.91	13.462
501.26	13.229
501.60	13.289
501.95	13.474
502.29	13.636
502.64	13.361
502.98	13.417
503.33	13.300
503.67	13.364
504.02	12.956
504.36	12.962
504.71	13.483
505.06	13.446
505.40	12.591
505.75	12.247
506.09	12.828
506.44	13.863
506.78	13.736
507.13	12.721
507.47	12.727
507.82	13.222
508.16	13.374
508.51	13.191
508.85	12.959
509.19	13.418
509.54	13.010
509.88	13.395
510.23	12.494
510.57	14.241
510.92	13.309
511.26	13.361
511.61	13.952
511.95	12.735
512.30	13.256
512.64	13.272
512.98	13.451
513.33	13.812
513.67	13.447
514.02	13.095
514.36	13.326
514.70	13.669
515.05	12.716
515.39	13.460
515.74	13.119
516.08	14.142
516.42	14.151
516.77	13.657
517.11	12.819
517.46	13.544
517.80	13.763
518.14	12.913
518.49	13.419
518.83	13.466
519.17	13.568
519.52	13.186
519.86	13.862
520.20	14.162
520.55	14.004
520.89	14.112
521.23	13.390
521.58	13.625
521.92	12.982
522.26	12.447
522.61	13.146
522.95	13.382
523.29	13.390
523.64	13.049
523.98	13.678
524.32	13.329
524.66	13.770
525.01	13.235
525.35	13.755
525.69	13.054
526.04	13.707
526.38	13.057
526.72	14.233
527.06	13.120
527.41	12.376
527.75	13.955
528.09	13.038
528.43	13.958
528.78	13.768
529.12	12.727
529.46	13.533
529.80	13.366
530.15	14.206
530.49	13.354
530.83	13.228
531.17	13.773
531.51	15.240
531.86	13.097
532.20	14.537
532.54	13.709
532.88	13.800
533.22	13.429
533.57	13.457
533.91	13.064
534.25	13.913
534.59	13.240
534.93	14.277
535.27	13.036
535.62	13.797
535.96	13.497
536.30	13.414
536.64	13.844
536.98	13.537
537.32	12.837
537.66	13.467
538.01	13.891
538.35	13.575
538.69	13.784
539.03	13.060
539.37	12.907
539.71	12.378
540.05	14.183
540.39	13.289
540.73	13.131
541.07	14.536
541.42	12.916
541.76	13.032
542.10	13.001
542.44	12.517
542.78	14.361
543.12	12.476
543.46	13.443
543.80	13.468
544.14	12.580
544.48	13.206
544.82	13.149
545.16	13.468
545.50	12.404
545.84	13.105
546.18	13.603
546.52	13.833
546.86	13.540
547.20	13.688
547.54	12.558
547.88	14.094
548.22	13.387
548.56	13.774
548.90	13.444
549.24	13.737
549.58	13.984
549.92	13.599
550.26	13.494
550.60	13.555
550.94	13.944
551.28	12.363
551.62	13.587
551.96	12.912
552.30	13.311
552.64	14.199
552.98	13.288
553.32	13.891
553.66	14.724
554.00	13.452
554.34	12.905
554.68	14.092
555.02	13.047
555.36	13.083
555.69	12.855
556.03	12.382
556.37	12.415
556.71	12.824
557.05	13.025
557.39	13.016
557.73	13.479
558.07	14.068
558.41	12.952
558.75	13.813
559.08	14.243
559.42	13.983
559.76	12.794
560.10	13.776
560.44	13.697
560.78	13.373
561.12	13.720
561.45	12.647
561.79	12.657
562.13	12.676
562.47	14.071
562.81	13.110
563.15	13.244
563.48	13.528
563.82	13.568
564.16	12.688
564.50	12.500
564.84	12.010
565.17	13.578
565.51	12.716
565.85	13.769
566.19	12.523
566.52	12.286
566.86	12.719
567.20	13.149
567.54	13.356
567.88	12.493
568.21	13.439
568.55	12.336
568.89	12.305
569.23	11.898
569.56	12.227
569.90	12.566
570.24	12.056
570.57	11.221
570.91	11.118
571.25	11.736
571.59	11.105
571.92	11.204
572.26	11.930
572.60	11.081
572.93	11.394
573.27	11.121
573.61	11.195
573.95	11.344
574.28	11.357
574.62	11.297
574.96	10.944
575.29	11.178
575.63	11.077
575.97	10.778
576.30	11.046
576.64	10.639
576.98	10.622
577.31	11.021
577.65	11.270
577.98	10.796
578.32	10.743
578.66	10.964
578.99	10.888
579.33	10.579
579.67	10.362
580.00	10.573
580.34	10.916
580.67	10.659
581.01	10.951
581.35	11.066
581.68	10.824
582.02	10.897
582.35	10.796
582.69	10.839
583.02	10.504
583.36	10.952
583.70	10.889
584.03	10.763
584.37	11.067
584.70	10.841
585.04	10.861
585.37	11.184
585.71	11.067
586.04	10.824
586.38	10.946
586.72	11.461
587.05	10.676
587.39	10.633
587.72	11.234
588.06	10.619
588.39	10.919
588.73	11.030
589.06	11.530
589.40	11.380
589.73	11.404
590.07	11.103
590.40	11.034
590.73	11.319
591.07	12.210
591.40	11.430
591.74	12.208
592.07	11.126
592.41	12.154
592.74	11.648
593.08	11.426
593.41	11.579
593.75	11.274
594.08	11.566
594.41	11.771
594.75	11.091
595.08	11.238
595.42	11.419
595.75	10.933
596.09	11.641
596.42	12.102
596.75	11.017
597.09	11.905
597.42	11.762
597.75	12.074
598.09	11.609
598.42	11.813
598.76	11.634
599.09	11.441
599.42	11.536
599.76	11.384
600.09	11.148
600.42	11.432
600.76	10.929
601.09	11.257
601.42	11.111
601.76	11.613
602.09	11.304
602.42	11.146
602.76	11.487
603.09	11.369
603.42	11.909
603.76	11.623
604.09	11.477
604.42	11.415
604.76	12.020
605.09	11.053
605.42	11.030
605.75	11.465
606.09	11.427
606.42	11.688
606.75	11.282
607.09	12.055
607.42	11.339
607.75	11.181
608.08	10.899
608.42	12.371
608.75	11.226
609.08	11.147
609.41	11.518
609.75	11.339
610.08	12.017
610.41	11.732
610.74	11.447
611.07	11.117
611.41	11.678
611.74	12.016
612.07	11.957
612.40	11.962
612.73	11.263
613.07	12.069
613.40	12.375
613.73	11.641
614.06	11.452
614.39	11.327
614.72	11.947
615.06	11.450
615.39	12.049
615.72	11.605
616.05	11.058
616.38	12.062
616.71	12.352
617.05	12.014
617.38	12.267
617.71	11.952
618.04	12.680
618.37	11.354
618.70	11.761
619.03	12.961
619.36	12.492
619.69	12.254
620.03	13.118
620.36	13.302
620.69	11.986
621.02	13.643
621.35	12.373
621.68	12.072
622.01	13.080
622.34	12.859
622.67	11.711
623.00	12.399
623.33	11.866
623.66	12.938
623.99	11.856
624.32	12.910
624.65	12.641
624.99	11.331
625.32	11.875
625.65	12.322
625.98	12.452
626.31	13.142
626.64	13.143
626.97	14.048
627.30	13.051
627.63	14.110
627.96	14.214
628.29	13.998
628.62	13.907
628.95	13.774
629.28	13.504
629.61	13.841
629.94	14.000
630.26	12.297
630.59	14.204
630.92	12.548
631.25	13.031
