SpectraSuite Data File
++++++++++++++++++++++++++++++++++++
Date: Wed May 13 20:36:59 PDT 2015
User: schluterlab
Dark Spectrum Present: Yes
Reference Spectrum Present: Yes
Number of Sampled Component Spectra: 1
Spectrometers: USB2E3373
Integration Time (usec): 3000 (USB2E3373)
Spectra Averaged: 3 (USB2E3373)
Boxcar Smoothing: 0 (USB2E3373)
Correct for Electrical Dark: No (USB2E3373)
Strobe/Lamp Enabled: No (USB2E3373)
Correct for Detector Non-linearity: No (USB2E3373)
Correct for Stray Light: No (USB2E3373)
Number of Pixels in Processed Spectrum: 2048
>>>>>Begin Processed Spectral Data<<<<<
178.53	0.000
178.91	-825.000
179.29	-950.000
179.67	-127.778
180.04	-700.000
180.42	1800.000
180.80	860.000
181.18	-675.000
181.56	414.286
181.94	0.000
182.31	-357.143
182.69	1166.667
183.07	-450.000
183.45	-322.222
183.83	336.364
184.20	-270.000
184.58	1200.000
184.96	3100.000
185.34	-640.000
185.72	-437.500
186.09	-1850.000
186.47	1450.000
186.85	1550.000
187.23	3000.000
187.61	-1033.333
187.98	975.000
188.36	381.818
188.74	309.091
189.12	-700.000
189.49	460.000
189.87	-4200.000
190.25	-825.000
190.63	278.571
191.00	307.692
191.38	583.333
191.76	-875.000
192.14	1075.000
192.51	400.000
192.89	900.000
193.27	462.500
193.65	-825.000
194.02	330.000
194.40	580.000
194.78	470.000
195.15	433.333
195.53	490.000
195.91	-1550.000
196.29	243.750
196.66	231.579
197.04	-250.000
197.42	0.000
197.79	490.000
198.17	-3400.000
198.55	514.286
198.92	512.500
199.30	720.000
199.68	0.000
200.05	266.667
200.43	585.714
200.81	3400.000
201.18	1166.667
201.56	-1033.333
201.94	522.222
202.31	411.111
202.69	308.333
203.07	460.000
203.44	0.000
203.82	450.000
204.19	671.429
204.57	314.286
204.95	475.000
205.32	1033.333
205.70	409.091
206.08	171.429
206.45	2350.000
206.83	268.750
207.20	683.333
207.58	600.000
207.96	244.444
208.33	637.500
208.71	-516.667
209.08	657.143
209.46	511.111
209.84	463.636
210.21	-1333.333
210.59	1350.000
210.96	-287.500
211.34	1950.000
211.71	490.000
212.09	500.000
212.46	0.000
212.84	1200.000
213.22	1000.000
213.59	-3600.000
213.97	666.667
214.34	571.429
214.72	427.273
215.09	620.000
215.47	-1600.000
215.84	-1500.000
216.22	1300.000
216.59	335.714
216.97	900.000
217.34	318.182
217.72	-383.333
218.09	0.000
218.47	-3400.000
218.84	488.889
219.22	571.429
219.59	1166.667
219.97	-400.000
220.34	840.000
220.72	-1233.333
221.09	292.857
221.47	1100.000
221.84	-616.667
222.22	0.000
222.59	1150.000
222.97	-2100.000
223.34	840.000
223.72	346.154
224.09	840.000
224.46	1750.000
224.84	-4400.000
225.21	-700.000
225.59	-2400.000
225.96	430.000
226.34	280.000
226.71	1650.000
227.08	525.000
227.46	380.000
227.83	-800.000
228.21	-1850.000
228.58	555.556
228.95	-1700.000
229.33	-1550.000
229.70	1266.667
230.08	585.714
230.45	-680.000
230.82	366.667
231.20	650.000
231.57	428.571
231.95	341.667
232.32	218.182
232.69	345.455
233.07	342.857
233.44	207.692
233.81	-1366.667
234.19	268.421
234.56	450.000
234.93	250.000
235.31	236.364
235.68	315.385
236.05	300.000
236.43	127.273
236.80	200.000
237.17	3700.000
237.55	185.714
237.92	171.429
238.29	200.000
238.67	161.290
239.04	172.414
239.41	147.222
239.79	89.130
240.16	128.571
240.53	129.545
240.91	92.157
241.28	98.000
241.65	92.000
242.02	85.507
242.40	90.323
242.77	81.667
243.14	72.043
243.51	60.674
243.89	51.765
244.26	60.000
244.63	61.290
245.00	58.511
245.38	56.436
245.75	58.879
246.12	57.798
246.49	60.584
246.87	70.400
247.24	57.692
247.61	55.714
247.98	51.634
248.36	50.000
248.73	50.955
249.10	54.140
249.47	51.412
249.84	49.198
250.22	46.524
250.59	50.888
250.96	52.525
251.33	48.815
251.70	50.990
252.08	53.810
252.45	47.534
252.82	43.913
253.19	43.830
253.56	47.059
253.94	44.398
254.31	46.875
254.68	46.538
255.05	45.387
255.42	45.935
255.79	42.279
256.16	42.599
256.54	42.403
256.91	39.858
257.28	41.727
257.65	41.584
258.02	43.168
258.39	37.224
258.76	39.465
259.14	41.667
259.51	40.729
259.88	37.888
260.25	40.181
260.62	40.462
260.99	40.683
261.36	43.544
261.73	36.676
262.10	40.988
262.47	41.972
262.85	42.061
263.22	39.316
263.59	40.741
263.96	39.835
264.33	38.642
264.70	37.895
265.07	39.386
265.44	40.152
265.81	35.280
266.18	38.191
266.55	38.537
266.92	37.592
267.29	37.037
267.66	36.927
268.03	36.818
268.40	36.215
268.77	31.742
269.14	35.811
269.51	35.440
269.88	36.830
270.25	34.537
270.62	38.427
270.99	37.634
271.36	34.335
271.73	36.682
272.10	34.348
272.47	36.559
272.84	37.013
273.21	37.526
273.58	35.590
273.95	35.849
274.32	32.645
274.69	35.974
275.06	33.661
275.43	35.319
275.80	35.070
276.17	35.234
276.54	35.551
276.91	33.794
277.28	33.789
277.65	37.137
278.02	32.919
278.39	34.570
278.76	35.455
279.13	35.472
279.50	34.637
279.87	35.857
280.23	34.132
280.60	35.010
280.97	32.532
281.34	31.681
281.71	34.909
282.08	34.549
282.45	30.909
282.82	36.234
283.19	31.907
283.56	32.456
283.92	35.025
284.29	33.686
284.66	33.212
285.03	32.369
285.40	31.338
285.77	32.828
286.14	30.743
286.51	33.833
286.87	32.479
287.24	35.342
287.61	29.856
287.98	32.630
288.35	30.111
288.72	29.283
289.08	30.673
289.45	28.830
289.82	33.008
290.19	26.217
290.56	29.250
290.93	29.003
291.29	29.908
291.66	29.351
292.03	30.959
292.40	30.837
292.77	28.550
293.13	27.612
293.50	27.551
293.87	29.778
294.24	27.556
294.60	26.201
294.97	26.308
295.34	27.645
295.71	27.415
296.08	26.211
296.44	26.547
296.81	26.288
297.18	26.152
297.55	25.198
297.91	25.198
298.28	26.640
298.65	25.587
299.02	25.033
299.38	25.365
299.75	23.315
300.12	24.904
300.48	24.875
300.85	24.538
301.22	25.987
301.59	25.505
301.95	25.441
302.32	24.134
302.69	25.090
303.05	24.242
303.42	22.346
303.79	23.216
304.15	22.727
304.52	23.870
304.89	22.184
305.25	23.434
305.62	23.443
305.99	24.439
306.35	25.839
306.72	23.879
307.09	23.973
307.45	25.000
307.82	23.437
308.19	22.406
308.55	24.703
308.92	22.771
309.29	22.809
309.65	22.375
310.02	22.939
310.38	22.473
310.75	22.809
311.12	22.006
311.48	23.093
311.85	25.157
312.22	25.182
312.58	23.077
312.95	24.604
313.31	22.524
313.68	23.077
314.05	24.951
314.41	24.422
314.78	24.371
315.14	24.628
315.51	24.305
315.87	24.554
316.24	24.628
316.61	23.977
316.97	24.168
317.34	25.636
317.70	26.099
318.07	26.275
318.43	25.440
318.80	27.273
319.16	28.154
319.53	26.548
319.89	28.571
320.26	29.100
320.62	28.671
320.99	27.475
321.35	30.202
321.72	29.363
322.08	31.787
322.45	33.333
322.81	34.205
323.18	33.526
323.54	35.343
323.91	33.679
324.27	34.895
324.64	35.228
325.00	36.700
325.37	38.308
325.73	38.241
326.10	37.688
326.46	38.262
326.83	39.776
327.19	40.734
327.56	42.160
327.92	45.057
328.29	44.011
328.65	45.672
329.01	45.487
329.38	46.253
329.74	45.891
330.11	47.125
330.47	46.189
330.84	48.713
331.20	47.177
331.56	48.073
331.93	49.167
332.29	50.044
332.66	50.088
333.02	50.000
333.38	50.858
333.75	52.139
334.11	51.690
334.48	51.198
334.84	53.309
335.20	52.000
335.57	52.856
335.93	51.429
336.29	53.571
336.66	53.562
337.02	52.760
337.38	52.963
337.75	53.119
338.11	53.089
338.47	55.157
338.84	54.262
339.20	52.661
339.56	55.292
339.93	54.455
340.29	55.978
340.65	54.724
341.02	54.974
341.38	56.228
341.74	55.877
342.11	55.371
342.47	55.242
342.83	56.592
343.20	56.277
343.56	55.350
343.92	56.404
344.28	56.293
344.65	57.008
345.01	55.387
345.37	55.832
345.73	57.191
346.10	56.266
346.46	55.763
346.82	55.931
347.19	55.556
347.55	55.419
347.91	57.282
348.27	56.286
348.63	56.773
349.00	57.282
349.36	56.814
349.72	57.658
350.08	57.699
350.45	57.364
350.81	56.621
351.17	57.455
351.53	57.412
351.89	56.188
352.26	57.143
352.62	56.856
352.98	56.078
353.34	58.505
353.70	57.119
354.07	57.016
354.43	55.952
354.79	56.879
355.15	57.143
355.51	58.753
355.87	59.265
356.24	56.596
356.60	55.894
356.96	58.970
357.32	58.054
357.68	56.142
358.04	57.957
358.40	56.770
358.77	56.964
359.13	57.459
359.49	57.804
359.85	57.778
360.21	59.410
360.57	58.988
360.93	58.462
361.29	57.294
361.66	56.811
362.02	57.015
362.38	57.643
362.74	58.631
363.10	57.069
363.46	56.200
363.82	57.370
364.18	57.856
364.54	59.138
364.90	57.861
365.26	58.162
365.62	57.999
365.98	57.852
366.35	56.519
366.71	58.496
367.07	57.902
367.43	59.071
367.79	59.957
368.15	56.609
368.51	57.485
368.87	57.388
369.23	58.449
369.59	58.364
369.95	58.309
370.31	57.835
370.67	56.812
371.03	58.577
371.39	57.070
371.75	56.691
372.11	57.681
372.47	58.651
372.83	58.501
373.19	57.370
373.55	58.610
373.91	58.689
374.27	56.770
374.63	58.982
374.99	58.616
375.35	58.060
375.71	56.271
376.07	56.447
376.42	57.978
376.78	57.058
377.14	56.920
377.50	57.219
377.86	55.984
378.22	56.827
378.58	56.140
378.94	56.380
379.30	56.425
379.66	57.995
380.02	57.371
380.38	56.588
380.74	56.423
381.09	56.112
381.45	57.775
381.81	57.125
382.17	56.815
382.53	56.541
382.89	58.272
383.25	56.410
383.61	57.745
383.97	56.348
384.32	56.020
384.68	56.629
385.04	55.501
385.40	55.913
385.76	56.634
386.12	56.995
386.48	56.010
386.83	56.703
387.19	56.339
387.55	55.040
387.91	55.925
388.27	55.487
388.62	57.283
388.98	55.160
389.34	55.569
389.70	56.284
390.06	55.133
390.42	56.031
390.77	54.962
391.13	55.329
391.49	55.076
391.85	54.679
392.20	54.700
392.56	55.177
392.92	55.444
393.28	54.260
393.64	55.695
393.99	53.879
394.35	53.908
394.71	55.082
395.07	53.271
395.42	54.944
395.78	54.198
396.14	55.059
396.50	54.762
396.85	54.736
397.21	53.268
397.57	54.619
397.92	54.688
398.28	53.475
398.64	54.421
399.00	53.442
399.35	53.074
399.71	53.472
400.07	53.282
400.42	53.865
400.78	54.403
401.14	53.354
401.49	53.194
401.85	52.390
402.21	53.234
402.57	52.252
402.92	53.090
403.28	53.716
403.63	52.351
403.99	52.293
404.35	51.697
404.70	51.859
405.06	51.776
405.42	52.589
405.77	52.057
406.13	50.959
406.49	52.158
406.84	51.802
407.20	50.591
407.55	53.223
407.91	52.467
408.27	52.265
408.62	51.475
408.98	50.306
409.34	51.476
409.69	51.871
410.05	52.292
410.40	51.070
410.76	50.836
411.11	51.749
411.47	50.288
411.83	51.069
412.18	50.835
412.54	50.809
412.89	50.422
413.25	49.823
413.60	50.896
413.96	49.302
414.31	49.757
414.67	49.683
415.03	50.000
415.38	49.613
415.74	49.968
416.09	50.686
416.45	49.732
416.80	49.306
417.16	49.933
417.51	50.033
417.87	49.004
418.22	50.726
418.58	49.322
418.93	49.816
419.29	48.631
419.64	49.370
420.00	49.573
420.35	48.928
420.71	48.595
421.06	47.613
421.42	47.778
421.77	48.767
422.12	48.568
422.48	47.652
422.83	48.398
423.19	47.403
423.54	48.172
423.90	47.362
424.25	48.074
424.61	47.262
424.96	48.222
425.31	47.176
425.67	47.022
426.02	47.657
426.38	49.023
426.73	46.928
427.09	47.052
427.44	48.246
427.79	45.888
428.15	46.726
428.50	46.518
428.85	46.484
429.21	47.322
429.56	46.604
429.92	45.848
430.27	45.829
430.62	45.878
430.98	46.341
431.33	45.567
431.68	46.963
432.04	46.379
432.39	47.344
432.74	46.080
433.10	45.897
433.45	46.531
433.80	45.122
434.16	45.299
434.51	45.263
434.86	45.610
435.22	46.526
435.57	45.775
435.92	45.231
436.28	45.136
436.63	46.192
436.98	44.190
437.34	46.512
437.69	45.858
438.04	45.812
438.39	44.657
438.75	44.509
439.10	45.251
439.45	45.809
439.81	45.378
440.16	44.890
440.51	45.050
440.86	45.570
441.22	44.883
441.57	43.737
441.92	44.371
442.27	44.187
442.63	43.865
442.98	45.690
443.33	43.859
443.68	45.070
444.03	45.339
444.39	43.427
444.74	44.859
445.09	43.774
445.44	44.779
445.79	43.939
446.15	44.627
446.50	43.134
446.85	43.731
447.20	44.212
447.55	44.891
447.91	44.126
448.26	43.851
448.61	43.810
448.96	42.802
449.31	43.588
449.66	43.106
450.02	43.733
450.37	42.857
450.72	42.922
451.07	42.901
451.42	41.702
451.77	43.159
452.12	42.783
452.47	43.159
452.83	43.240
453.18	42.115
453.53	44.280
453.88	43.296
454.23	43.096
454.58	42.883
454.93	44.374
455.28	43.392
455.63	43.265
455.98	42.976
456.34	43.342
456.69	42.893
457.04	42.786
457.39	41.555
457.74	41.730
458.09	42.151
458.44	42.873
458.79	40.998
459.14	41.874
459.49	40.455
459.84	41.274
460.19	42.015
460.54	41.204
460.89	41.580
461.24	40.923
461.59	42.301
461.94	40.937
462.29	42.730
462.64	40.779
462.99	41.054
463.34	41.400
463.69	40.525
464.04	40.406
464.39	39.072
464.74	40.701
465.09	40.350
465.44	40.665
465.79	39.765
466.14	39.683
466.49	40.712
466.84	39.988
467.19	39.952
467.54	41.250
467.89	39.136
468.24	40.605
468.59	40.171
468.94	39.279
469.29	40.553
469.64	40.161
469.99	40.663
470.34	40.225
470.68	40.876
471.03	39.116
471.38	40.306
471.73	40.306
472.08	39.342
472.43	39.573
472.78	39.697
473.13	37.677
473.48	38.265
473.83	38.537
474.17	39.017
474.52	39.392
474.87	38.996
475.22	38.770
475.57	37.775
475.92	39.565
476.27	37.993
476.61	38.279
476.96	38.153
477.31	37.991
477.66	39.004
478.01	37.637
478.36	37.229
478.70	38.214
479.05	38.179
479.40	38.280
479.75	37.621
480.10	37.177
480.45	36.602
480.79	37.410
481.14	37.133
481.49	37.019
481.84	37.083
482.19	36.574
482.53	37.339
482.88	36.436
483.23	37.056
483.58	36.624
483.92	36.692
484.27	35.468
484.62	36.466
484.97	35.514
485.31	34.418
485.66	32.866
486.01	32.885
486.36	32.227
486.70	33.309
487.05	33.604
487.40	33.963
487.75	35.159
488.09	35.335
488.44	35.791
488.79	35.769
489.13	36.784
489.48	35.726
489.83	35.909
490.17	35.379
490.52	34.942
490.87	35.459
491.22	35.061
491.56	35.399
491.91	34.714
492.26	34.727
492.60	34.608
492.95	34.892
493.30	34.860
493.64	35.511
493.99	33.890
494.34	35.014
494.68	34.295
495.03	34.868
495.37	34.993
495.72	35.234
496.07	34.246
496.41	33.274
496.76	34.125
497.11	33.453
497.45	34.234
497.80	34.309
498.14	33.961
498.49	34.195
498.84	34.468
499.18	33.762
499.53	33.476
499.87	34.203
500.22	33.066
500.56	34.757
500.91	33.462
501.26	33.807
501.60	34.267
501.95	33.822
502.29	33.974
502.64	32.588
502.98	34.222
503.33	32.952
503.67	33.457
504.02	33.396
504.36	32.663
504.71	33.952
505.06	32.627
505.40	33.155
505.75	32.739
506.09	33.431
506.44	34.238
506.78	32.976
507.13	33.317
507.47	34.040
507.82	33.587
508.16	33.435
508.51	33.942
508.85	32.622
509.19	33.265
509.54	32.755
509.88	32.715
510.23	33.419
510.57	33.540
510.92	33.092
511.26	32.374
511.61	33.351
511.95	32.724
512.30	32.927
512.64	32.456
512.98	32.637
513.33	33.137
513.67	31.377
514.02	32.792
514.36	33.261
514.70	31.599
515.05	32.627
515.39	32.529
515.74	32.658
516.08	32.644
516.42	33.130
516.77	33.389
517.11	31.853
517.46	33.296
517.80	33.043
518.14	31.442
518.49	32.380
518.83	32.784
519.17	32.564
519.52	32.881
519.86	32.402
520.20	33.526
520.55	32.615
520.89	32.238
521.23	33.293
521.58	32.713
521.92	33.558
522.26	31.178
522.61	32.897
522.95	32.351
523.29	30.919
523.64	32.073
523.98	32.594
524.32	32.087
524.66	32.592
525.01	31.924
525.35	32.652
525.69	31.527
526.04	31.900
526.38	31.849
526.72	31.166
527.06	31.764
527.41	30.631
527.75	31.383
528.09	31.985
528.43	31.485
528.78	32.329
529.12	31.394
529.46	32.762
529.80	31.683
530.15	32.274
530.49	31.446
530.83	32.405
531.17	32.180
531.51	33.009
531.86	31.935
532.20	32.269
532.54	31.710
532.88	32.221
533.22	31.168
533.57	31.420
533.91	30.584
534.25	30.437
534.59	31.971
534.93	29.923
535.27	30.477
535.62	31.319
535.96	31.199
536.30	31.341
536.64	31.874
536.98	31.387
537.32	31.336
537.66	30.933
538.01	31.666
538.35	30.834
538.69	31.334
539.03	29.760
539.37	29.712
539.71	29.164
540.05	30.850
540.39	31.694
540.73	29.948
541.07	31.019
541.42	30.072
541.76	31.161
542.10	30.660
542.44	30.728
542.78	31.423
543.12	30.198
543.46	31.148
543.80	30.579
544.14	29.461
544.48	30.349
544.82	30.340
545.16	30.839
545.50	29.756
545.84	30.242
546.18	30.842
546.52	31.177
546.86	30.034
547.20	30.614
547.54	30.595
547.88	31.122
548.22	29.826
548.56	29.874
548.90	29.385
549.24	29.630
549.58	30.764
549.92	29.739
550.26	30.895
550.60	29.530
550.94	30.211
551.28	29.407
551.62	30.697
551.96	29.404
552.30	30.171
552.64	30.629
552.98	30.441
553.32	29.737
553.66	30.266
554.00	29.856
554.34	30.297
554.68	30.687
555.02	30.536
555.36	29.715
555.69	28.146
556.03	28.398
556.37	28.718
556.71	27.967
557.05	29.902
557.39	30.301
557.73	28.652
558.07	30.457
558.41	29.450
558.75	29.684
559.08	29.605
559.42	29.101
559.76	29.632
560.10	28.908
560.44	28.442
560.78	27.611
561.12	28.760
561.45	29.661
561.79	28.345
562.13	29.510
562.47	29.098
562.81	28.522
563.15	28.428
563.48	28.912
563.82	28.376
564.16	28.842
564.50	28.060
564.84	28.255
565.17	28.057
565.51	29.137
565.85	28.363
566.19	28.053
566.52	28.626
566.86	28.210
567.20	28.420
567.54	27.626
567.88	26.725
568.21	27.566
568.55	28.210
568.89	26.508
569.23	26.961
569.56	26.113
569.90	26.528
570.24	26.444
570.57	26.046
570.91	25.372
571.25	25.355
571.59	25.950
571.92	25.518
572.26	25.477
572.60	26.547
572.93	25.697
573.27	26.028
573.61	25.042
573.95	25.271
574.28	25.101
574.62	24.854
574.96	24.779
575.29	24.539
575.63	24.721
575.97	25.228
576.30	25.066
576.64	25.044
576.98	24.866
577.31	24.607
577.65	24.908
577.98	24.326
578.32	24.087
578.66	24.675
578.99	24.971
579.33	24.861
579.67	24.422
580.00	24.910
580.34	25.083
580.67	24.651
581.01	24.871
581.35	24.115
581.68	24.140
582.02	23.596
582.35	24.322
582.69	24.806
583.02	24.147
583.36	24.718
583.70	25.025
584.03	24.739
584.37	25.665
584.70	25.026
585.04	25.073
585.37	24.557
585.71	24.460
586.04	24.450
586.38	25.157
586.72	24.993
587.05	24.694
587.39	24.538
587.72	24.478
588.06	24.573
588.39	24.966
588.73	25.257
589.06	25.273
589.40	25.522
589.73	25.977
590.07	25.623
590.40	25.137
590.73	25.371
591.07	25.845
591.40	26.276
591.74	26.234
592.07	25.829
592.41	25.424
592.74	24.457
593.08	24.450
593.41	24.676
593.75	24.297
594.08	24.740
594.41	24.814
594.75	24.843
595.08	25.161
595.42	24.939
595.75	24.679
596.09	25.873
596.42	25.383
596.75	25.201
597.09	26.104
597.42	24.789
597.75	25.097
598.09	24.957
598.42	24.656
598.76	25.051
599.09	23.907
599.42	24.418
599.76	24.488
600.09	23.607
600.42	23.594
600.76	24.107
601.09	24.153
601.42	24.772
601.76	24.630
602.09	24.585
602.42	24.881
602.76	24.667
603.09	24.823
603.42	24.444
603.76	24.352
604.09	24.622
604.42	24.541
604.76	25.011
605.09	24.596
605.42	24.498
605.75	23.800
606.09	24.278
606.42	24.193
606.75	23.932
607.09	24.487
607.42	23.877
607.75	23.502
608.08	24.229
608.42	24.204
608.75	24.572
609.08	24.422
609.41	24.798
609.75	24.011
610.08	25.448
610.41	24.209
610.74	25.024
611.07	25.049
611.41	24.877
611.74	25.691
612.07	24.534
612.40	25.236
612.73	24.684
613.07	25.216
613.40	24.855
613.73	25.013
614.06	24.355
614.39	24.331
614.72	25.105
615.06	24.317
615.39	23.938
615.72	24.438
616.05	23.923
616.38	25.125
616.71	24.703
617.05	25.029
617.38	24.955
617.71	24.324
618.04	24.880
618.37	25.192
618.70	25.762
619.03	25.789
619.36	24.644
619.69	25.493
620.03	25.549
620.36	25.535
620.69	25.411
621.02	25.885
621.35	25.372
621.68	25.156
622.01	25.542
622.34	26.399
622.67	25.856
623.00	23.991
623.33	24.875
623.66	25.018
623.99	24.816
624.32	25.107
624.65	24.506
624.99	24.504
625.32	24.692
625.65	25.094
625.98	25.288
626.31	25.894
626.64	26.939
626.97	25.436
627.30	25.353
627.63	26.005
627.96	26.493
628.29	26.422
628.62	26.075
628.95	26.509
629.28	25.730
629.61	28.506
629.94	27.048
630.26	26.692
630.59	26.311
630.92	26.149
631.25	25.666
