SpectraSuite Data File
++++++++++++++++++++++++++++++++++++
Date: Wed May 13 20:36:46 PDT 2015
User: schluterlab
Dark Spectrum Present: Yes
Reference Spectrum Present: Yes
Number of Sampled Component Spectra: 1
Spectrometers: USB2E3373
Integration Time (usec): 3000 (USB2E3373)
Spectra Averaged: 3 (USB2E3373)
Boxcar Smoothing: 0 (USB2E3373)
Correct for Electrical Dark: No (USB2E3373)
Strobe/Lamp Enabled: No (USB2E3373)
Correct for Detector Non-linearity: No (USB2E3373)
Correct for Stray Light: No (USB2E3373)
Number of Pixels in Processed Spectrum: 2048
>>>>>Begin Processed Spectral Data<<<<<
178.53	0.000
178.91	-575.000
179.29	-750.000
179.67	-172.222
180.04	-925.000
180.42	1900.000
180.80	760.000
181.18	-825.000
181.56	414.286
181.94	0.000
182.31	-385.714
182.69	1233.333
183.07	-437.500
183.45	-222.222
183.83	400.000
184.20	-300.000
184.58	1800.000
184.96	4700.000
185.34	-540.000
185.72	-387.500
186.09	-1700.000
186.47	2100.000
186.85	2350.000
187.23	2900.000
187.61	-1666.667
187.98	1125.000
188.36	409.091
188.74	345.455
189.12	-740.000
189.49	390.000
189.87	-3100.000
190.25	-950.000
190.63	278.571
191.00	330.769
191.38	616.667
191.76	-975.000
192.14	1100.000
192.51	512.500
192.89	566.667
193.27	437.500
193.65	-775.000
194.02	390.000
194.40	700.000
194.78	340.000
195.15	391.667
195.53	490.000
195.91	-1450.000
196.29	281.250
196.66	257.895
197.04	-220.000
197.42	0.000
197.79	420.000
198.17	-4400.000
198.55	528.571
198.92	587.500
199.30	640.000
199.68	0.000
200.05	244.444
200.43	642.857
200.81	2800.000
201.18	1166.667
201.56	-866.667
201.94	444.444
202.31	355.556
202.69	283.333
203.07	400.000
203.44	0.000
203.82	850.000
204.19	500.000
204.57	350.000
204.95	387.500
205.32	933.333
205.70	427.273
206.08	335.714
206.45	1850.000
206.83	181.250
207.20	716.667
207.58	660.000
207.96	255.556
208.33	525.000
208.71	-483.333
209.08	585.714
209.46	366.667
209.84	372.727
210.21	-900.000
210.59	1075.000
210.96	-275.000
211.34	1350.000
211.71	420.000
212.09	466.667
212.46	0.000
212.84	1066.667
213.22	875.000
213.59	-3600.000
213.97	733.333
214.34	700.000
214.72	436.364
215.09	780.000
215.47	-1850.000
215.84	-2000.000
216.22	900.000
216.59	371.429
216.97	925.000
217.34	372.727
217.72	-550.000
218.09	0.000
218.47	-3500.000
218.84	422.222
219.22	628.571
219.59	1233.333
219.97	-414.286
220.34	640.000
220.72	-1333.333
221.09	300.000
221.47	1200.000
221.84	-683.333
222.22	0.000
222.59	925.000
222.97	-2400.000
223.34	860.000
223.72	292.308
224.09	780.000
224.46	1650.000
224.84	-3800.000
225.21	-780.000
225.59	-4200.000
225.96	460.000
226.34	245.000
226.71	2250.000
227.08	412.500
227.46	410.000
227.83	-875.000
228.21	-1500.000
228.58	400.000
228.95	-1450.000
229.33	-1200.000
229.70	1000.000
230.08	485.714
230.45	-580.000
230.82	300.000
231.20	633.333
231.57	485.714
231.95	308.333
232.32	168.182
232.69	127.273
233.07	642.857
233.44	192.308
233.81	-1200.000
234.19	178.947
234.56	283.333
234.93	275.000
235.31	300.000
235.68	176.923
236.05	214.286
236.43	133.333
236.80	163.158
237.17	3000.000
237.55	128.571
237.92	107.143
238.29	185.714
238.67	119.355
239.04	155.172
239.41	80.556
239.79	54.348
240.16	69.048
240.53	54.545
240.91	72.549
241.28	50.000
241.65	72.000
242.02	68.116
242.40	56.452
242.77	58.333
243.14	59.140
243.51	49.438
243.89	37.647
244.26	34.444
244.63	43.011
245.00	35.106
245.38	31.683
245.75	30.841
246.12	19.266
246.49	36.496
246.87	37.600
247.24	26.923
247.61	29.286
247.98	26.797
248.36	20.270
248.73	29.936
249.10	26.115
249.47	23.164
249.84	21.390
250.22	17.112
250.59	16.568
250.96	20.202
251.33	21.801
251.70	27.723
252.08	20.952
252.45	17.937
252.82	15.652
253.19	20.000
253.56	15.294
253.94	17.012
254.31	17.578
254.68	15.769
255.05	16.974
255.42	11.789
255.79	13.603
256.16	20.939
256.54	12.367
256.91	14.591
257.28	11.151
257.65	13.531
258.02	15.217
258.39	16.404
258.76	12.375
259.14	14.286
259.51	12.766
259.88	10.870
260.25	13.293
260.62	12.717
260.99	12.422
261.36	12.613
261.73	13.467
262.10	11.628
262.47	10.423
262.85	13.370
263.22	8.547
263.59	15.670
263.96	10.989
264.33	14.360
264.70	12.105
265.07	12.276
265.44	11.616
265.81	11.679
266.18	11.055
266.55	12.439
266.92	11.794
267.29	11.343
267.66	9.862
268.03	10.227
268.40	10.981
268.77	7.160
269.14	10.360
269.51	13.318
269.88	10.956
270.25	11.738
270.62	10.337
270.99	13.333
271.36	10.515
271.73	7.944
272.10	10.217
272.47	13.118
272.84	12.987
273.21	10.482
273.58	7.860
273.95	9.015
274.32	9.504
274.69	9.636
275.06	9.252
275.43	12.128
275.80	10.621
276.17	9.776
276.54	10.187
276.91	11.265
277.28	8.008
277.65	10.251
278.02	8.903
278.39	9.180
278.76	11.273
279.13	9.245
279.50	8.752
279.87	9.363
280.23	8.782
280.60	7.350
280.97	8.503
281.34	9.558
281.71	8.909
282.08	9.789
282.45	7.091
282.82	7.282
283.19	4.991
283.56	10.702
283.92	9.645
284.29	8.642
284.66	8.530
285.03	8.499
285.40	6.162
285.77	7.912
286.14	7.254
286.51	8.667
286.87	9.573
287.24	8.469
287.61	7.705
287.98	9.740
288.35	7.765
288.72	8.723
289.08	8.920
289.45	6.755
289.82	9.756
290.19	7.535
290.56	8.576
290.93	6.949
291.29	7.362
291.66	9.145
292.03	9.302
292.40	8.370
292.77	7.544
293.13	5.970
293.50	7.580
293.87	6.815
294.24	5.778
294.60	5.531
294.97	6.831
295.34	7.757
295.71	8.381
296.08	6.410
296.44	5.640
296.81	4.624
297.18	7.453
297.55	3.298
297.91	5.805
298.28	5.756
298.65	6.789
299.02	8.037
299.38	5.046
299.75	4.987
300.12	6.258
300.48	5.500
300.85	5.549
301.22	5.860
301.59	6.187
301.95	6.675
302.32	5.905
302.69	6.452
303.05	5.697
303.42	4.691
303.79	7.248
304.15	5.245
304.52	4.867
304.89	4.878
305.25	5.452
305.62	6.229
305.99	5.549
306.35	4.810
306.72	5.942
307.09	5.993
307.45	7.207
307.82	6.362
308.19	7.174
308.55	6.041
308.92	5.156
309.29	5.385
309.65	4.772
310.02	5.391
310.38	5.484
310.75	5.069
311.12	6.141
311.48	5.538
311.85	5.136
312.22	5.515
312.58	5.405
312.95	6.019
313.31	6.117
313.68	5.613
314.05	6.410
314.41	6.533
314.78	6.848
315.14	6.455
315.51	4.840
315.87	6.535
316.24	4.767
316.61	5.556
316.97	5.284
317.34	4.207
317.70	5.832
318.07	5.679
318.43	5.088
318.80	6.092
319.16	6.685
319.53	5.910
319.89	6.190
320.26	7.400
320.62	5.159
320.99	7.071
321.35	6.768
321.72	6.982
322.08	7.404
322.45	6.965
322.81	6.686
323.18	7.514
323.54	8.534
323.91	7.925
324.27	7.266
324.64	6.803
325.00	6.853
325.37	8.007
325.73	9.515
326.10	7.326
326.46	7.168
326.83	8.973
327.19	8.625
327.56	7.491
327.92	8.224
328.29	10.115
328.65	9.484
329.01	8.484
329.38	8.788
329.74	8.957
330.11	7.823
330.47	8.081
330.84	10.018
331.20	9.381
331.56	8.991
331.93	9.259
332.29	8.429
332.66	9.469
333.02	9.872
333.38	9.395
333.75	9.002
334.11	9.609
334.48	9.672
334.84	9.191
335.20	9.545
335.57	10.154
335.93	6.964
336.29	9.249
336.66	9.107
337.02	9.593
337.38	9.259
337.75	8.378
338.11	9.758
338.47	8.379
338.84	9.991
339.20	9.174
339.56	10.493
339.93	9.182
340.29	8.062
340.65	10.071
341.02	10.471
341.38	8.719
341.74	8.246
342.11	9.782
342.47	9.780
342.83	8.733
343.20	11.082
343.56	9.436
343.92	9.474
344.28	9.099
344.65	9.372
345.01	8.754
345.37	8.919
345.73	8.460
346.10	9.378
346.46	9.153
346.82	9.967
347.19	8.521
347.55	10.099
347.91	10.356
348.27	9.778
348.63	9.699
349.00	9.385
349.36	9.524
349.72	9.383
350.08	8.995
350.45	10.578
350.81	9.667
351.17	10.130
351.53	9.746
351.89	9.076
352.26	11.444
352.62	8.982
352.98	10.049
353.34	9.449
353.70	8.265
354.07	9.516
354.43	9.603
354.79	9.493
355.15	9.417
355.51	9.752
355.87	9.959
356.24	9.691
356.60	8.982
356.96	10.056
357.32	9.812
357.68	10.000
358.04	10.451
358.40	9.422
358.77	10.720
359.13	8.840
359.49	10.196
359.85	7.778
360.21	8.692
360.57	9.650
360.93	10.385
361.29	9.599
361.66	8.359
362.02	10.000
362.38	9.962
362.74	8.929
363.10	9.845
363.46	9.318
363.82	10.280
364.18	10.132
364.54	11.070
364.90	10.057
365.26	9.779
365.62	10.811
365.98	9.204
366.35	9.312
366.71	10.051
367.07	10.124
367.43	10.305
367.79	10.778
368.15	10.273
368.51	10.029
368.87	10.493
369.23	10.095
369.59	10.644
369.95	10.368
370.31	10.826
370.67	11.377
371.03	10.412
371.39	10.277
371.75	10.735
372.11	10.953
372.47	11.584
372.83	10.879
373.19	10.332
373.55	9.904
373.91	10.751
374.27	10.722
374.63	11.636
374.99	10.452
375.35	9.630
375.71	10.487
376.07	11.866
376.42	10.935
376.78	10.802
377.14	10.380
377.50	10.861
377.86	11.104
378.22	11.820
378.58	10.213
378.94	9.742
379.30	10.560
379.66	10.279
380.02	11.364
380.38	10.504
380.74	11.164
381.09	11.186
381.45	11.186
381.81	11.486
382.17	10.955
382.53	11.195
382.89	11.852
383.25	11.069
383.61	12.454
383.97	10.569
384.32	11.291
384.68	11.338
385.04	11.248
385.40	11.084
385.76	11.425
386.12	10.946
386.48	12.272
386.83	11.546
387.19	11.998
387.55	11.317
387.91	11.366
388.27	12.078
388.62	12.907
388.98	10.688
389.34	12.140
389.70	11.772
390.06	12.738
390.42	11.868
390.77	12.405
391.13	12.061
391.49	11.675
391.85	12.412
392.20	11.104
392.56	12.689
392.92	12.419
393.28	11.243
393.64	11.871
393.99	12.217
394.35	12.097
394.71	11.606
395.07	11.900
395.42	12.299
395.78	12.341
396.14	13.284
396.50	12.657
396.85	11.952
397.21	12.639
397.57	11.965
397.92	12.620
398.28	11.603
398.64	13.082
399.00	12.591
399.35	12.126
399.71	13.137
400.07	12.005
400.42	12.699
400.78	12.485
401.14	12.622
401.49	12.358
401.85	12.160
402.21	12.635
402.57	12.091
402.92	11.854
403.28	12.617
403.63	12.067
403.99	12.739
404.35	13.091
404.70	12.590
405.06	12.522
405.42	12.102
405.77	12.114
406.13	12.472
406.49	13.069
406.84	12.936
407.20	12.589
407.55	12.827
407.91	13.067
408.27	12.444
408.62	13.064
408.98	11.887
409.34	12.977
409.69	13.226
410.05	12.887
410.40	13.456
410.76	13.262
411.11	13.028
411.47	12.843
411.83	12.889
412.18	12.801
412.54	13.450
412.89	13.072
413.25	12.751
413.60	13.280
413.96	13.115
414.31	13.487
414.67	13.245
415.03	12.914
415.38	13.144
415.74	12.990
416.09	12.802
416.45	13.521
416.80	13.087
417.16	13.003
417.51	13.072
417.87	12.974
418.22	13.943
418.58	13.622
418.93	12.285
419.29	13.622
419.64	13.602
420.00	13.476
420.35	12.580
420.71	13.270
421.06	13.365
421.42	12.807
421.77	13.173
422.12	12.802
422.48	12.844
422.83	13.046
423.19	13.315
423.54	13.523
423.90	13.913
424.25	13.177
424.61	12.857
424.96	13.936
425.31	12.901
425.67	12.809
426.02	13.200
426.38	13.980
426.73	12.990
427.09	13.617
427.44	13.629
427.79	13.111
428.15	13.631
428.50	13.166
428.85	14.362
429.21	12.976
429.56	12.856
429.92	12.330
430.27	13.009
430.62	12.954
430.98	13.441
431.33	12.629
431.68	13.351
432.04	13.845
432.39	13.078
432.74	13.405
433.10	13.469
433.45	13.353
433.80	13.692
434.16	13.622
434.51	12.895
434.86	13.284
435.22	13.118
435.57	13.191
435.92	13.341
436.28	13.642
436.63	14.349
436.98	12.936
437.34	13.298
437.69	13.594
438.04	14.390
438.39	13.433
438.75	14.178
439.10	13.631
439.45	13.577
439.81	13.051
440.16	13.156
440.51	13.884
440.86	13.550
441.22	13.515
441.57	14.703
441.92	13.869
442.27	13.348
442.63	12.638
442.98	14.366
443.33	13.967
443.68	13.939
444.03	13.226
444.39	12.707
444.74	13.258
445.09	13.100
445.44	12.794
445.79	13.409
446.15	13.605
446.50	13.086
446.85	13.207
447.20	13.157
447.55	13.903
447.91	12.466
448.26	14.079
448.61	13.397
448.96	13.566
449.31	13.780
449.66	13.900
450.02	13.593
450.37	12.698
450.72	13.593
451.07	12.980
451.42	12.462
451.77	13.740
452.12	13.684
452.47	13.495
452.83	12.704
453.18	13.203
453.53	13.420
453.88	12.936
454.23	12.911
454.58	13.325
454.93	13.795
455.28	12.095
455.63	13.046
455.98	13.452
456.34	13.317
456.69	13.338
457.04	14.118
457.39	12.975
457.74	13.639
458.09	13.629
458.44	14.025
458.79	12.744
459.14	13.826
459.49	13.427
459.84	12.742
460.19	12.610
460.54	12.847
460.89	13.823
461.24	14.086
461.59	14.468
461.94	13.009
462.29	12.878
462.64	12.636
462.99	13.598
463.34	13.867
463.69	12.445
464.04	13.739
464.39	12.928
464.74	12.834
465.09	12.726
465.44	12.299
465.79	12.304
466.14	13.191
466.49	11.902
466.84	12.668
467.19	13.518
467.54	13.312
467.89	13.205
468.24	13.264
468.59	13.675
468.94	13.134
469.29	12.468
469.64	13.521
469.99	13.126
470.34	11.889
470.68	12.716
471.03	13.197
471.38	12.648
471.73	13.458
472.08	13.487
472.43	12.751
472.78	11.982
473.13	12.709
473.48	14.045
473.83	12.134
474.17	12.259
474.52	13.710
474.87	13.018
475.22	12.594
475.57	12.681
475.92	12.215
476.27	12.232
476.61	12.300
476.96	12.479
477.31	12.402
477.66	12.144
478.01	12.284
478.36	12.639
478.70	10.748
479.05	12.460
479.40	11.975
479.75	12.100
480.10	12.028
480.45	11.566
480.79	11.562
481.14	11.791
481.49	11.913
481.84	12.163
482.19	11.995
482.53	11.651
482.88	11.680
483.23	11.589
483.58	11.920
483.92	11.903
484.27	11.242
484.62	11.250
484.97	11.234
485.31	10.925
485.66	9.931
486.01	9.856
486.36	9.507
486.70	9.956
487.05	10.217
487.40	10.546
487.75	10.433
488.09	10.767
488.44	10.374
488.79	10.995
489.13	11.230
489.48	10.767
489.83	10.574
490.17	11.705
490.52	11.160
490.87	11.352
491.22	11.050
491.56	10.843
491.91	11.308
492.26	11.254
492.60	11.475
492.95	10.243
493.30	10.701
493.64	11.246
493.99	10.492
494.34	10.731
494.68	11.035
495.03	11.090
495.37	10.842
495.72	10.916
496.07	10.998
496.41	10.619
496.76	10.906
497.11	10.941
497.45	10.899
497.80	10.557
498.14	11.353
498.49	10.683
498.84	10.978
499.18	10.667
499.53	10.019
499.87	10.951
500.22	10.928
500.56	11.311
500.91	10.721
501.26	10.669
501.60	11.106
501.95	10.678
502.29	11.200
502.64	10.615
502.98	10.519
503.33	10.878
503.67	10.116
504.02	10.664
504.36	11.090
504.71	10.845
505.06	10.506
505.40	10.112
505.75	9.836
506.09	9.767
506.44	10.755
506.78	10.911
507.13	10.702
507.47	10.707
507.82	11.246
508.16	10.790
508.51	10.604
508.85	10.228
509.19	10.357
509.54	10.612
509.88	10.407
510.23	10.129
510.57	11.404
510.92	10.306
511.26	10.534
511.61	11.255
511.95	9.864
512.30	10.021
512.64	10.801
512.98	10.718
513.33	10.974
513.67	9.925
514.02	10.011
514.36	11.524
514.70	10.570
515.05	10.987
515.39	11.722
515.74	10.586
516.08	11.627
516.42	11.154
516.77	11.204
517.11	10.488
517.46	10.835
517.80	11.150
518.14	10.307
518.49	10.677
518.83	11.534
519.17	10.912
519.52	11.092
519.86	11.637
520.20	10.520
520.55	11.430
520.89	10.888
521.23	11.701
521.58	11.345
521.92	10.961
522.26	10.250
522.61	11.153
522.95	10.866
523.29	11.260
523.64	11.402
523.98	10.967
524.32	10.434
524.66	11.064
525.01	11.765
525.35	11.214
525.69	11.084
526.04	11.215
526.38	11.409
526.72	11.104
527.06	10.923
527.41	9.653
527.75	11.125
528.09	11.240
528.43	10.580
528.78	11.616
529.12	10.727
529.46	10.900
529.80	11.881
530.15	10.903
530.49	11.262
530.83	11.013
531.17	11.358
531.51	11.738
531.86	11.355
532.20	10.626
532.54	12.300
532.88	10.591
533.22	10.618
533.57	11.481
533.91	11.138
534.25	10.328
534.59	10.433
534.93	10.946
535.27	10.682
535.62	10.562
535.96	10.358
536.30	9.599
536.64	11.333
536.98	10.750
537.32	10.994
537.66	10.200
538.01	10.533
538.35	10.472
538.69	11.615
539.03	10.591
539.37	10.032
539.71	8.944
540.05	10.392
540.39	10.033
540.73	9.702
541.07	10.902
541.42	10.959
541.76	11.742
542.10	11.190
542.44	10.927
542.78	11.001
543.12	10.045
543.46	11.541
543.80	11.061
544.14	9.756
544.48	10.921
544.82	10.391
545.16	9.759
545.50	10.090
545.84	10.618
546.18	11.313
546.52	10.805
546.86	10.584
547.20	10.924
547.54	11.022
547.88	10.714
548.22	10.461
548.56	10.629
548.90	10.115
549.24	9.562
549.58	10.027
549.92	11.195
550.26	10.511
550.60	11.134
550.94	10.563
551.28	9.437
551.62	11.574
551.96	9.965
552.30	10.922
552.64	10.818
552.98	11.119
553.32	9.980
553.66	11.111
554.00	10.776
554.34	10.007
554.68	10.658
555.02	10.367
555.36	10.160
555.69	9.743
556.03	10.296
556.37	9.618
556.71	10.709
557.05	9.944
557.39	10.007
557.73	10.374
558.07	10.805
558.41	10.058
558.75	10.580
559.08	10.216
559.42	9.826
559.76	10.809
560.10	10.136
560.44	10.133
560.78	9.448
561.12	9.960
561.45	10.430
561.79	10.349
562.13	9.993
562.47	9.699
562.81	10.112
563.15	9.030
563.48	10.411
563.82	9.785
564.16	9.549
564.50	8.594
564.84	9.482
565.17	9.202
565.51	9.968
565.85	9.264
566.19	9.267
566.52	10.006
566.86	9.584
567.20	9.493
567.54	9.189
567.88	8.908
568.21	9.524
568.55	8.847
568.89	8.755
569.23	8.111
569.56	8.340
569.90	8.528
570.24	8.145
570.57	8.024
570.91	7.434
571.25	7.412
571.59	7.452
571.92	7.546
572.26	7.250
572.60	7.688
572.93	7.766
573.27	7.069
573.61	7.286
573.95	7.183
574.28	7.261
574.62	7.191
574.96	7.312
575.29	6.887
575.63	7.063
575.97	7.342
576.30	7.143
576.64	6.596
576.98	6.928
577.31	6.654
577.65	6.797
577.98	6.614
578.32	6.871
578.66	6.792
578.99	7.213
579.33	6.730
579.67	6.762
580.00	6.737
580.34	6.858
580.67	6.972
581.01	7.151
581.35	6.566
581.68	6.565
582.02	6.384
582.35	6.528
582.69	6.746
583.02	6.508
583.36	7.009
583.70	7.018
584.03	6.870
584.37	7.194
584.70	6.766
585.04	7.094
585.37	7.036
585.71	6.767
586.04	6.765
586.38	7.079
586.72	7.291
587.05	6.357
587.39	6.596
587.72	7.112
588.06	6.830
588.39	6.941
588.73	7.158
589.06	7.230
589.40	7.407
589.73	7.110
590.07	7.900
590.40	6.869
590.73	7.650
591.07	7.814
591.40	7.423
591.74	7.879
592.07	8.290
592.41	7.358
592.74	6.929
593.08	7.295
593.41	7.150
593.75	6.996
594.08	7.107
594.41	7.317
594.75	6.950
595.08	7.087
595.42	7.145
595.75	6.660
596.09	7.473
596.42	7.819
596.75	7.429
597.09	7.489
597.42	7.209
597.75	7.719
598.09	7.870
598.42	7.259
598.76	7.175
599.09	6.918
599.42	6.659
599.76	6.881
600.09	7.104
600.42	7.049
600.76	6.607
601.09	6.667
601.42	7.154
601.76	7.135
602.09	6.996
602.42	7.763
602.76	7.416
603.09	7.278
603.42	7.497
603.76	7.165
604.09	6.979
604.42	7.256
604.76	7.465
605.09	7.864
605.42	7.439
605.75	7.368
606.09	6.954
606.42	7.152
606.75	7.092
607.09	7.367
607.42	6.804
607.75	7.426
608.08	6.991
608.42	8.068
608.75	7.529
609.08	7.169
609.41	7.330
609.75	7.909
610.08	7.540
610.41	7.216
610.74	7.190
611.07	6.966
611.41	7.458
611.74	8.044
612.07	7.971
612.40	7.765
612.73	8.053
613.07	8.082
613.40	7.741
613.73	6.712
614.06	7.419
614.39	8.076
614.72	7.684
615.06	7.983
615.39	7.537
615.72	7.413
616.05	7.602
616.38	7.560
616.71	7.067
617.05	8.245
617.38	8.238
617.71	7.327
618.04	8.113
618.37	7.629
618.70	8.463
619.03	9.211
619.36	8.011
619.69	7.887
620.03	8.654
620.36	8.289
620.69	8.562
621.02	9.071
621.35	8.379
621.68	7.944
622.01	8.359
622.34	9.002
622.67	9.278
623.00	7.997
623.33	8.077
623.66	8.149
623.99	8.542
624.32	8.345
624.65	7.980
624.99	7.649
625.32	7.241
625.65	8.715
625.98	8.993
626.31	9.331
626.64	8.082
626.97	9.643
627.30	8.645
627.63	8.450
627.96	9.420
628.29	9.536
628.62	9.607
628.95	10.660
629.28	9.945
629.61	10.082
629.94	9.810
630.26	8.103
630.59	9.247
630.92	9.195
631.25	9.082
631.58	10.711
631.91	8.925
632.24	9.916
632.57	10.283
632.90	9.539
633.23	11.074
633.56	10.847
633.89	11.099
634.22	8.967
634.55	10.178
634.88	10.539
635.20	11.231
635.53	9.398
635.86	9.777
636.19	11.059
636.52	8.997
636.85	10.080
637.18	8.641
637.51	9.574
637.83	9.001
638.16	11.125
638.49	10.327
638.82	11.504
639.15	10.625
639.48	10.973
639.81	11.528
640.13	10.547
640.46	9.933
640.79	12.682
641.12	10.729
641.45	10.894
641.77	9.573
