SpectraSuite Data File
++++++++++++++++++++++++++++++++++++
Date: Wed May 13 20:36:24 PDT 2015
User: schluterlab
Dark Spectrum Present: Yes
Reference Spectrum Present: Yes
Number of Sampled Component Spectra: 1
Spectrometers: USB2E3373
Integration Time (usec): 3000 (USB2E3373)
Spectra Averaged: 3 (USB2E3373)
Boxcar Smoothing: 0 (USB2E3373)
Correct for Electrical Dark: No (USB2E3373)
Strobe/Lamp Enabled: No (USB2E3373)
Correct for Detector Non-linearity: No (USB2E3373)
Correct for Stray Light: No (USB2E3373)
Number of Pixels in Processed Spectrum: 2048
>>>>>Begin Processed Spectral Data<<<<<
178.53	0.000
178.91	-1150.000
179.29	-1125.000
179.67	-150.000
180.04	-1075.000
180.42	1850.000
180.80	960.000
181.18	-575.000
181.56	571.429
181.94	0.000
182.31	-471.429
182.69	1466.667
183.07	-400.000
183.45	-388.889
183.83	436.364
184.20	-300.000
184.58	2250.000
184.96	3900.000
185.34	-580.000
185.72	-437.500
186.09	-1900.000
186.47	1750.000
186.85	1500.000
187.23	4100.000
187.61	-1366.667
187.98	1225.000
188.36	427.273
188.74	390.909
189.12	-600.000
189.49	440.000
189.87	-3600.000
190.25	-850.000
190.63	335.714
191.00	330.769
191.38	550.000
191.76	-950.000
192.14	1050.000
192.51	437.500
192.89	666.667
193.27	387.500
193.65	-900.000
194.02	390.000
194.40	700.000
194.78	390.000
195.15	375.000
195.53	530.000
195.91	-1450.000
196.29	243.750
196.66	231.579
197.04	-210.000
197.42	0.000
197.79	460.000
198.17	-3100.000
198.55	471.429
198.92	462.500
199.30	680.000
199.68	0.000
200.05	294.444
200.43	542.857
200.81	3300.000
201.18	1133.333
201.56	-1400.000
201.94	400.000
202.31	377.778
202.69	300.000
203.07	310.000
203.44	0.000
203.82	925.000
204.19	500.000
204.57	400.000
204.95	387.500
205.32	1166.667
205.70	409.091
206.08	278.571
206.45	1750.000
206.83	250.000
207.20	600.000
207.58	420.000
207.96	238.889
208.33	562.500
208.71	-550.000
209.08	628.571
209.46	466.667
209.84	336.364
210.21	-833.333
210.59	1025.000
210.96	-362.500
211.34	1450.000
211.71	530.000
212.09	583.333
212.46	0.000
212.84	1266.667
213.22	900.000
213.59	-3600.000
213.97	633.333
214.34	728.571
214.72	409.091
215.09	700.000
215.47	-1600.000
215.84	-1500.000
216.22	1200.000
216.59	285.714
216.97	800.000
217.34	381.818
217.72	-483.333
218.09	0.000
218.47	-3400.000
218.84	455.556
219.22	485.714
219.59	1200.000
219.97	-528.571
220.34	580.000
220.72	-966.667
221.09	278.571
221.47	1000.000
221.84	-750.000
222.22	0.000
222.59	1000.000
222.97	-1950.000
223.34	740.000
223.72	323.077
224.09	860.000
224.46	1350.000
224.84	-3700.000
225.21	-740.000
225.59	-2400.000
225.96	480.000
226.34	210.000
226.71	1800.000
227.08	450.000
227.46	380.000
227.83	-500.000
228.21	-1550.000
228.58	566.667
228.95	-1700.000
229.33	-1550.000
229.70	900.000
230.08	500.000
230.45	-520.000
230.82	266.667
231.20	600.000
231.57	514.286
231.95	400.000
232.32	168.182
232.69	263.636
233.07	485.714
233.44	300.000
233.81	-1000.000
234.19	189.474
234.56	266.667
234.93	241.667
235.31	354.545
235.68	176.923
236.05	250.000
236.43	130.303
236.80	178.947
237.17	2800.000
237.55	142.857
237.92	139.286
238.29	119.048
238.67	80.645
239.04	165.517
239.41	80.556
239.79	73.913
240.16	78.571
240.53	88.636
240.91	52.941
241.28	68.000
241.65	42.000
242.02	60.870
242.40	53.226
242.77	48.333
243.14	58.065
243.51	44.944
243.89	32.941
244.26	32.222
244.63	35.484
245.00	28.723
245.38	32.673
245.75	23.364
246.12	25.688
246.49	34.307
246.87	36.800
247.24	25.385
247.61	21.429
247.98	24.183
248.36	18.243
248.73	21.019
249.10	32.484
249.47	20.904
249.84	29.412
250.22	17.647
250.59	17.160
250.96	20.707
251.33	20.853
251.70	21.782
252.08	22.857
252.45	16.143
252.82	15.217
253.19	18.298
253.56	14.510
253.94	14.108
254.31	17.969
254.68	14.615
255.05	18.081
255.42	11.382
255.79	11.029
256.16	13.357
256.54	12.721
256.91	13.167
257.28	11.511
257.65	11.221
258.02	17.702
258.39	11.987
258.76	11.371
259.14	11.607
259.51	10.942
259.88	7.764
260.25	13.595
260.62	11.561
260.99	12.112
261.36	9.610
261.73	10.888
262.10	11.628
262.47	9.859
262.85	10.864
263.22	9.117
263.59	9.402
263.96	9.890
264.33	11.227
264.70	9.474
265.07	13.299
265.44	9.848
265.81	8.516
266.18	9.548
266.55	9.024
266.92	8.600
267.29	8.565
267.66	7.798
268.03	8.864
268.40	9.813
268.77	6.921
269.14	7.207
269.51	9.255
269.88	8.858
270.25	7.675
270.62	7.865
270.99	10.108
271.36	9.871
271.73	7.710
272.10	8.913
272.47	7.957
272.84	8.658
273.21	9.224
273.58	7.205
273.95	6.499
274.32	8.264
274.69	7.709
275.06	5.906
275.43	8.085
275.80	7.214
276.17	8.758
276.54	8.940
276.91	7.115
277.28	6.641
277.65	7.157
278.02	3.727
278.39	6.836
278.76	10.000
279.13	8.302
279.50	7.076
279.87	6.972
280.23	7.585
280.60	7.157
280.97	6.100
281.34	7.611
281.71	8.545
282.08	8.829
282.45	7.273
282.82	8.171
283.19	5.169
283.56	7.018
283.92	6.599
284.29	5.996
284.66	7.804
285.03	5.244
285.40	4.577
285.77	5.892
286.14	6.390
286.51	6.333
286.87	7.009
287.24	6.352
287.61	7.063
287.98	6.494
288.35	6.498
288.72	8.100
289.08	7.512
289.45	3.789
289.82	5.854
290.19	5.808
290.56	5.666
290.93	4.381
291.29	5.675
291.66	6.785
292.03	7.703
292.40	7.930
292.77	5.769
293.13	6.418
293.50	6.268
293.87	5.037
294.24	5.185
294.60	4.221
294.97	5.378
295.34	6.629
295.71	7.386
296.08	5.698
296.44	5.227
296.81	4.756
297.18	6.911
297.55	2.770
297.91	4.485
298.28	6.827
298.65	5.744
299.02	6.061
299.38	3.984
299.75	2.022
300.12	4.981
300.48	4.500
300.85	4.192
301.22	3.694
301.59	4.293
301.95	3.149
302.32	3.594
302.69	4.301
303.05	3.758
303.42	4.198
303.79	5.549
304.15	3.963
304.52	3.129
304.89	3.717
305.25	3.016
305.62	5.776
305.99	4.368
306.35	4.586
306.72	4.821
307.09	4.329
307.45	4.730
307.82	3.683
308.19	4.084
308.55	3.991
308.92	4.189
309.29	3.168
309.65	2.651
310.02	3.700
310.38	4.409
310.75	4.013
311.12	5.015
311.48	3.657
311.85	5.031
312.22	3.850
312.58	3.534
312.95	4.224
313.31	3.883
313.68	4.990
314.05	5.424
314.41	3.417
314.78	3.424
315.14	3.277
315.51	4.119
315.87	3.960
316.24	2.880
316.61	3.314
316.97	3.620
317.34	3.620
317.70	3.442
318.07	3.657
318.43	3.327
318.80	3.655
319.16	4.708
319.53	3.283
319.89	5.810
320.26	4.800
320.62	4.067
320.99	3.737
321.35	5.051
321.72	3.799
322.08	3.653
322.45	4.179
322.81	4.942
323.18	4.817
323.54	4.267
323.91	4.811
324.27	4.015
324.64	3.541
325.00	3.968
325.37	4.823
325.73	5.027
326.10	4.413
326.46	4.122
326.83	5.349
327.19	4.868
327.56	4.181
327.92	4.024
328.29	5.590
328.65	4.512
329.01	4.783
329.38	4.070
329.74	2.955
330.11	3.299
330.47	4.040
330.84	5.515
331.20	3.825
331.56	5.413
331.93	3.148
332.29	4.082
332.66	4.867
333.02	4.388
333.38	5.239
333.75	5.704
334.11	5.249
334.48	4.082
334.84	4.687
335.20	4.545
335.57	3.898
335.93	4.286
336.29	4.212
336.66	4.328
337.02	3.801
337.38	5.185
337.75	5.080
338.11	4.029
338.47	4.052
338.84	4.216
339.20	3.211
339.56	5.383
339.93	2.818
340.29	3.351
340.65	4.189
341.02	5.497
341.38	4.715
341.74	4.211
342.11	4.279
342.47	4.405
342.83	4.024
343.20	4.589
343.56	4.718
343.92	3.333
344.28	4.167
344.65	4.987
345.01	4.461
345.37	3.859
345.73	4.230
346.10	4.092
346.46	3.983
346.82	4.283
347.19	3.926
347.55	3.859
347.91	4.369
348.27	4.930
348.63	5.017
349.00	4.773
349.36	3.941
349.72	4.972
350.08	4.052
350.45	4.150
350.81	4.468
351.17	3.728
351.53	3.931
351.89	3.218
352.26	5.288
352.62	5.533
352.98	4.538
353.34	3.862
353.70	3.682
354.07	4.435
354.43	3.413
354.79	3.701
355.15	3.512
355.51	4.796
355.87	3.837
356.24	3.827
356.60	3.288
356.96	4.103
357.32	4.088
357.68	4.094
358.04	3.484
358.40	4.751
358.77	3.756
359.13	3.552
359.49	4.157
359.85	2.302
360.21	3.987
360.57	4.514
360.93	3.769
361.29	4.157
361.66	2.941
362.02	4.478
362.38	3.650
362.74	3.646
363.10	3.997
363.46	3.742
363.82	3.401
364.18	3.671
364.54	4.086
364.90	4.320
365.26	3.088
365.62	3.725
365.98	3.579
366.35	2.937
366.71	3.543
367.07	3.132
367.43	3.483
367.79	3.926
368.15	4.670
368.51	2.689
368.87	3.640
369.23	3.072
369.59	4.200
369.95	2.647
370.31	3.775
370.67	4.348
371.03	3.670
371.39	3.863
371.75	3.309
372.11	3.627
372.47	3.739
372.83	4.179
373.19	3.324
373.55	2.882
373.91	4.124
374.27	3.436
374.63	3.055
374.99	3.814
375.35	3.140
375.71	3.221
376.07	3.909
376.42	3.164
376.78	2.783
377.14	3.867
377.50	3.377
377.86	2.859
378.22	3.729
378.58	2.318
378.94	2.766
379.30	2.672
379.66	3.046
380.02	3.563
380.38	3.461
380.74	3.181
381.09	3.851
381.45	3.319
381.81	3.194
382.17	2.739
382.53	3.333
382.89	2.963
383.25	2.814
383.61	3.222
383.97	3.627
384.32	2.870
384.68	3.532
385.04	2.090
385.40	3.591
385.76	3.071
386.12	2.979
386.48	3.713
386.83	3.656
387.19	4.143
387.55	3.092
387.91	3.083
388.27	3.066
388.62	3.565
388.98	3.071
389.34	4.005
389.70	3.433
390.06	3.676
390.42	2.983
390.77	3.753
391.13	2.808
391.49	3.934
391.85	3.310
392.20	2.334
392.56	3.409
392.92	2.766
393.28	2.367
393.64	2.698
393.99	4.032
394.35	2.792
394.71	3.137
395.07	2.991
395.42	3.214
395.78	3.435
396.14	3.662
396.50	3.571
396.85	3.242
397.21	3.329
397.57	2.728
397.92	3.125
398.28	3.195
398.64	3.047
399.00	2.910
399.35	2.764
399.71	2.894
400.07	3.489
400.42	3.558
400.78	3.981
401.14	2.317
401.49	3.522
401.85	2.420
402.21	3.174
402.57	2.838
402.92	2.774
403.28	3.373
403.63	3.589
403.99	2.484
404.35	3.152
404.70	2.878
405.06	3.494
405.42	2.745
405.77	2.800
406.13	3.386
406.49	3.726
406.84	3.544
407.20	2.837
407.55	3.191
407.91	2.467
408.27	2.680
408.62	3.913
408.98	2.574
409.34	2.583
409.69	3.419
410.05	3.284
410.40	3.486
410.76	2.748
411.11	3.438
411.47	2.748
411.83	3.421
412.18	2.783
412.54	3.549
412.89	3.855
413.25	2.952
413.60	3.335
413.96	3.036
414.31	3.706
414.67	3.612
415.03	2.914
415.38	3.222
415.74	3.601
416.09	3.201
416.45	2.744
416.80	2.379
417.16	3.686
417.51	3.318
417.87	3.532
418.22	3.659
418.58	4.261
418.93	3.071
419.29	3.437
419.64	3.841
420.00	3.537
420.35	4.058
420.71	3.646
421.06	3.282
421.42	3.099
421.77	3.419
422.12	2.527
422.48	2.375
422.83	2.737
423.19	3.039
423.54	3.482
423.90	3.188
424.25	3.406
424.61	2.738
424.96	3.848
425.31	3.267
425.67	3.034
426.02	3.486
426.38	3.724
426.73	2.809
427.09	3.161
427.44	2.818
427.79	2.933
428.15	3.571
428.50	3.745
428.85	3.874
429.21	3.424
429.56	2.799
429.92	3.171
430.27	3.128
430.62	2.970
430.98	3.321
431.33	3.557
431.68	3.298
432.04	2.822
432.39	2.741
432.74	3.291
433.10	3.113
433.45	3.790
433.80	2.882
434.16	2.671
434.51	3.105
434.86	3.820
435.22	3.224
435.57	3.100
435.92	3.277
436.28	4.093
436.63	3.974
436.98	2.576
437.34	3.280
437.69	3.909
438.04	2.979
438.39	3.343
438.75	3.312
439.10	2.737
439.45	3.188
439.81	3.565
440.16	3.557
440.51	3.398
440.86	3.243
441.22	2.781
441.57	3.397
441.92	3.327
442.27	3.498
442.63	3.265
442.98	3.775
443.33	3.750
443.68	3.304
444.03	3.270
444.39	2.580
444.74	3.355
445.09	3.558
445.44	3.335
445.79	3.216
446.15	3.864
446.50	3.123
446.85	3.237
447.20	3.519
447.55	3.350
447.91	3.475
448.26	3.450
448.61	3.505
448.96	3.765
449.31	3.881
449.66	4.164
450.02	2.730
450.37	3.175
450.72	3.102
451.07	2.620
451.42	2.979
451.77	3.699
452.12	3.580
452.47	3.918
452.83	3.380
453.18	3.606
453.53	3.649
453.88	3.485
454.23	3.766
454.58	4.422
454.93	3.942
455.28	3.055
455.63	3.883
455.98	4.167
456.34	4.083
456.69	3.945
457.04	3.406
457.39	3.565
457.74	3.831
458.09	4.025
458.44	3.136
458.79	3.742
459.14	3.837
459.49	3.736
459.84	3.435
460.19	3.241
460.54	4.051
460.89	3.785
461.24	4.129
461.59	5.404
461.94	3.576
462.29	3.976
462.64	4.148
462.99	3.513
463.34	4.467
463.69	4.065
464.04	3.478
464.39	3.942
464.74	3.565
465.09	4.282
465.44	4.100
465.79	3.579
466.14	3.941
466.49	4.394
466.84	4.145
467.19	4.345
467.54	4.125
467.89	3.842
468.24	4.712
468.59	4.518
468.94	4.154
469.29	4.434
469.64	4.752
469.99	4.668
470.34	4.095
470.68	5.172
471.03	3.810
471.38	4.448
471.73	4.597
472.08	4.276
472.43	3.706
472.78	3.621
473.13	4.557
473.48	4.682
473.83	4.207
474.17	3.671
474.52	4.529
474.87	4.203
475.22	4.063
475.57	3.923
475.92	3.824
476.27	3.777
476.61	3.916
476.96	3.683
477.31	3.768
477.66	3.993
478.01	3.764
478.36	3.860
478.70	3.219
479.05	4.313
479.40	3.736
479.75	3.915
480.10	3.032
480.45	3.760
480.79	2.914
481.14	4.061
481.49	3.749
481.84	3.567
482.19	3.180
482.53	3.624
482.88	3.676
483.23	3.879
483.58	3.503
483.92	3.327
484.27	3.137
484.62	3.233
484.97	2.996
485.31	2.979
485.66	2.753
486.01	2.358
486.36	2.385
486.70	2.434
487.05	2.842
487.40	2.707
487.75	2.957
488.09	3.154
488.44	2.735
488.79	2.857
489.13	3.285
489.48	3.059
489.83	3.323
490.17	3.507
490.52	3.543
490.87	2.985
491.22	3.547
491.56	2.506
491.91	3.211
492.26	3.215
492.60	3.687
492.95	2.760
493.30	3.692
493.64	3.360
493.99	3.296
494.34	3.793
494.68	3.938
495.03	3.712
495.37	4.002
495.72	3.363
496.07	3.712
496.41	3.053
496.76	3.562
497.11	3.152
497.45	3.307
497.80	3.935
498.14	3.140
498.49	3.317
498.84	4.075
499.18	3.571
499.53	3.419
499.87	3.774
500.22	3.533
500.56	3.981
500.91	3.510
501.26	3.841
501.60	3.702
501.95	3.483
502.29	3.749
502.64	4.050
502.98	3.787
503.33	3.748
503.67	3.434
504.02	3.742
504.36	4.212
504.71	3.664
505.06	3.614
505.40	3.986
505.75	3.182
506.09	3.790
506.44	4.391
506.78	3.653
507.13	3.786
507.47	4.444
507.82	4.255
508.16	3.799
508.51	3.907
508.85	3.774
509.19	3.163
509.54	4.184
509.88	3.709
510.23	4.062
510.57	4.541
510.92	4.505
511.26	4.008
511.61	4.098
511.95	4.071
512.30	3.393
512.64	4.245
512.98	3.805
513.33	4.711
513.67	4.002
514.02	3.571
514.36	3.987
514.70	3.763
515.05	3.458
515.39	4.599
515.74	4.279
516.08	4.248
516.42	4.606
516.77	5.072
517.11	3.330
517.46	4.176
517.80	3.949
518.14	3.822
518.49	4.317
518.83	4.489
519.17	4.792
519.52	4.641
519.86	3.993
520.20	4.451
520.55	4.608
520.89	3.771
521.23	5.489
521.58	4.082
521.92	5.021
522.26	4.271
522.61	4.299
522.95	4.236
523.29	3.895
523.64	4.207
523.98	4.190
524.32	4.524
524.66	4.811
525.01	4.473
525.35	4.337
525.69	4.187
526.04	4.299
526.38	5.430
526.72	4.724
527.06	4.896
527.41	3.775
527.75	4.244
528.09	5.267
528.43	4.716
528.78	5.040
529.12	4.303
529.46	5.021
529.80	4.827
530.15	4.984
530.49	4.677
530.83	4.747
531.17	5.091
531.51	4.929
531.86	4.323
532.20	5.085
532.54	5.189
532.88	5.263
533.22	4.310
533.57	4.753
533.91	4.515
534.25	4.921
534.59	4.454
534.93	4.878
535.27	4.949
535.62	4.884
535.96	4.520
536.30	4.450
536.64	4.958
536.98	4.446
537.32	4.674
537.66	4.667
538.01	5.003
538.35	5.042
538.69	5.680
539.03	4.483
539.37	4.665
539.71	3.370
540.05	4.575
540.39	4.518
540.73	4.851
541.07	5.062
541.42	4.697
541.76	5.355
542.10	4.981
542.44	4.437
542.78	5.534
543.12	4.223
543.46	4.525
543.80	5.140
544.14	4.236
544.48	5.270
544.82	4.041
545.16	4.554
545.50	4.949
545.84	4.973
546.18	4.781
546.52	5.368
546.86	4.192
547.20	5.327
547.54	4.810
547.88	5.740
548.22	5.106
548.56	4.969
548.90	4.225
549.24	4.714
549.58	4.707
549.92	5.014
550.26	4.901
550.60	5.256
550.94	5.070
551.28	4.097
551.62	4.457
551.96	4.702
552.30	5.597
552.64	5.071
552.98	5.153
553.32	5.597
553.66	4.976
554.00	5.559
554.34	4.900
554.68	5.722
555.02	5.219
555.36	4.732
555.69	4.195
556.03	4.845
556.37	4.843
556.71	5.184
557.05	4.482
557.39	4.969
557.73	5.152
558.07	4.786
558.41	5.572
558.75	5.070
559.08	5.593
559.42	4.762
559.76	6.103
560.10	5.282
560.44	5.311
560.78	4.857
561.12	4.881
561.45	5.020
561.79	5.076
562.13	5.567
562.47	5.396
562.81	5.160
563.15	5.017
563.48	5.172
563.82	4.305
564.16	4.840
564.50	5.143
564.84	4.994
565.17	4.054
565.51	4.537
565.85	4.251
566.19	4.884
566.52	5.320
566.86	5.063
567.20	4.776
567.54	4.680
567.88	3.911
568.21	5.608
568.55	4.398
568.89	3.453
569.23	4.189
569.56	4.211
569.90	3.774
570.24	3.624
570.57	4.046
570.91	3.943
571.25	3.675
571.59	3.770
571.92	3.859
572.26	3.235
572.60	3.964
572.93	3.448
573.27	3.608
573.61	3.853
573.95	3.721
574.28	3.593
574.62	3.231
574.96	3.226
575.29	3.346
575.63	3.709
575.97	3.463
576.30	3.877
576.64	3.639
576.98	3.281
577.31	3.189
577.65	3.474
577.98	3.418
578.32	3.435
578.66	3.606
578.99	3.470
579.33	3.365
579.67	3.114
580.00	3.524
580.34	3.393
580.67	3.333
581.01	3.508
581.35	3.539
581.68	3.236
582.02	3.201
582.35	3.201
582.69	3.619
583.02	3.202
583.36	3.574
583.70	3.297
584.03	3.631
584.37	3.557
584.70	3.344
585.04	3.620
585.37	3.402
585.71	3.853
586.04	3.769
586.38	3.579
586.72	3.756
587.05	3.287
587.39	3.615
587.72	3.633
588.06	3.682
588.39	3.786
588.73	3.901
589.06	3.895
589.40	3.872
589.73	4.153
590.07	4.164
590.40	3.836
590.73	3.786
591.07	4.762
591.40	4.302
591.74	4.329
592.07	4.843
592.41	4.093
592.74	3.858
593.08	4.197
593.41	3.923
593.75	3.935
594.08	4.224
594.41	4.030
594.75	3.586
595.08	4.009
595.42	4.273
595.75	4.024
596.09	4.131
596.42	4.637
596.75	3.968
597.09	4.762
597.42	4.300
597.75	4.010
598.09	4.304
598.42	4.338
598.76	3.810
599.09	3.915
599.42	3.603
599.76	4.173
600.09	3.862
600.42	3.944
600.76	3.750
601.09	3.716
601.42	4.490
601.76	4.364
602.09	3.755
602.42	4.697
602.76	4.676
603.09	4.327
603.42	4.256
603.76	3.963
604.09	3.955
604.42	4.403
604.76	4.850
605.09	4.019
605.42	4.104
605.75	4.470
606.09	4.026
606.42	3.555
606.75	3.899
607.09	4.646
607.42	3.680
607.75	3.544
608.08	4.255
608.42	4.706
608.75	4.734
609.08	3.885
609.41	4.617
609.75	4.050
610.08	4.430
610.41	3.445
610.74	3.500
611.07	4.644
611.41	4.809
611.74	4.575
612.07	4.503
612.40	4.565
612.73	4.263
613.07	4.957
613.40	5.213
613.73	4.667
614.06	3.871
614.39	4.877
614.72	4.632
615.06	3.992
615.39	4.246
615.72	4.550
616.05	4.094
616.38	4.669
616.71	4.394
617.05	5.124
617.38	4.570
617.71	4.505
618.04	4.868
618.37	4.554
618.70	5.040
619.03	5.395
619.36	4.888
619.69	4.437
620.03	5.632
620.36	5.147
620.69	5.685
621.02	5.383
621.35	4.464
621.68	4.907
622.01	5.108
622.34	5.295
622.67	5.171
623.00	4.696
623.33	4.575
623.66	5.504
623.99	4.418
624.32	5.278
624.65	5.226
624.99	4.674
625.32	4.345
625.65	5.334
625.98	4.612
626.31	6.065
626.64	5.633
626.97	5.985
627.30	5.071
627.63	6.317
627.96	5.551
628.29	7.087
628.62	6.496
628.95	7.170
629.28	6.022
629.61	6.599
629.94	5.429
630.26	5.338
630.59	5.815
630.92	5.268
631.25	4.837
631.58	6.006
631.91	5.984
632.24	5.485
632.57	6.925
632.90	5.921
633.23	6.264
633.56	6.780
633.89	6.229
634.22	7.037
634.55	7.574
634.88	5.868
635.20	6.452
635.53	7.470
635.86	6.559
636.19	6.941
636.52	6.920
636.85	7.446
637.18	6.682
637.51	6.738
637.83	5.425
638.16	6.650
638.49	6.801
638.82	7.585
639.15	6.625
639.48	6.733
639.81	8.043
640.13	8.984
640.46	7.114
640.79	8.454
641.12	6.465
641.45	6.564
641.77	6.775
642.10	7.164
642.43	6.456
642.76	8.359
643.09	6.748
643.41	6.525
643.74	8.488
644.07	7.317
644.40	9.202
644.73	7.717
645.05	8.875
645.38	6.477
645.71	7.729
646.04	9.136
646.36	9.516
646.69	9.532
647.02	8.333
647.35	7.904
647.67	7.965
648.00	7.642
648.33	7.096
648.66	8.636
648.98	9.745
649.31	4.783
649.64	7.474
649.96	6.557
650.29	7.583
650.62	6.796
650.94	7.455
651.27	8.953
651.60	8.819
651.92	8.147
652.25	7.166
652.58	6.386
652.90	9.005
653.23	6.934
653.56	5.984
653.88	8.558
654.21	8.689
654.54	6.601
654.86	7.632
655.19	5.676
655.52	2.869
655.84	2.592
