SpectraSuite Data File
++++++++++++++++++++++++++++++++++++
Date: Wed May 13 20:36:49 PDT 2015
User: schluterlab
Dark Spectrum Present: Yes
Reference Spectrum Present: Yes
Number of Sampled Component Spectra: 1
Spectrometers: USB2E3373
Integration Time (usec): 3000 (USB2E3373)
Spectra Averaged: 3 (USB2E3373)
Boxcar Smoothing: 0 (USB2E3373)
Correct for Electrical Dark: No (USB2E3373)
Strobe/Lamp Enabled: No (USB2E3373)
Correct for Detector Non-linearity: No (USB2E3373)
Correct for Stray Light: No (USB2E3373)
Number of Pixels in Processed Spectrum: 2048
>>>>>Begin Processed Spectral Data<<<<<
178.53	0.000
178.91	-925.000
179.29	-925.000
179.67	-155.556
180.04	-775.000
180.42	2400.000
180.80	640.000
181.18	-600.000
181.56	414.286
181.94	0.000
182.31	-485.714
182.69	1166.667
183.07	-425.000
183.45	-444.444
183.83	427.273
184.20	-220.000
184.58	2000.000
184.96	4200.000
185.34	-400.000
185.72	-450.000
186.09	-1950.000
186.47	1800.000
186.85	1400.000
187.23	4100.000
187.61	-1200.000
187.98	1175.000
188.36	472.727
188.74	381.818
189.12	-740.000
189.49	480.000
189.87	-4000.000
190.25	-775.000
190.63	285.714
191.00	284.615
191.38	566.667
191.76	-800.000
192.14	1150.000
192.51	475.000
192.89	683.333
193.27	312.500
193.65	-875.000
194.02	410.000
194.40	560.000
194.78	430.000
195.15	416.667
195.53	510.000
195.91	-1100.000
196.29	218.750
196.66	263.158
197.04	-230.000
197.42	0.000
197.79	510.000
198.17	-3300.000
198.55	414.286
198.92	525.000
199.30	640.000
199.68	0.000
200.05	300.000
200.43	600.000
200.81	4000.000
201.18	833.333
201.56	-700.000
201.94	366.667
202.31	477.778
202.69	308.333
203.07	360.000
203.44	0.000
203.82	875.000
204.19	542.857
204.57	378.571
204.95	487.500
205.32	1000.000
205.70	381.818
206.08	335.714
206.45	2300.000
206.83	237.500
207.20	783.333
207.58	580.000
207.96	222.222
208.33	487.500
208.71	-666.667
209.08	614.286
209.46	455.556
209.84	363.636
210.21	-933.333
210.59	875.000
210.96	-262.500
211.34	2100.000
211.71	500.000
212.09	583.333
212.46	0.000
212.84	1400.000
213.22	1300.000
213.59	-3500.000
213.97	700.000
214.34	657.143
214.72	381.818
215.09	660.000
215.47	-1500.000
215.84	-1550.000
216.22	1166.667
216.59	357.143
216.97	875.000
217.34	272.727
217.72	-416.667
218.09	0.000
218.47	-2900.000
218.84	488.889
219.22	542.857
219.59	1100.000
219.97	-414.286
220.34	720.000
220.72	-1000.000
221.09	328.571
221.47	1175.000
221.84	-783.333
222.22	0.000
222.59	1025.000
222.97	-1800.000
223.34	940.000
223.72	276.923
224.09	740.000
224.46	1750.000
224.84	-3600.000
225.21	-540.000
225.59	-2800.000
225.96	430.000
226.34	185.000
226.71	2150.000
227.08	425.000
227.46	400.000
227.83	-800.000
228.21	-1550.000
228.58	477.778
228.95	-1950.000
229.33	-1650.000
229.70	1100.000
230.08	557.143
230.45	-640.000
230.82	375.000
231.20	716.667
231.57	328.571
231.95	366.667
232.32	177.273
232.69	209.091
233.07	485.714
233.44	269.231
233.81	-1000.000
234.19	163.158
234.56	350.000
234.93	241.667
235.31	327.273
235.68	238.462
236.05	321.429
236.43	121.212
236.80	178.947
237.17	2200.000
237.55	166.667
237.92	103.571
238.29	147.619
238.67	103.226
239.04	168.966
239.41	100.000
239.79	100.000
240.16	100.000
240.53	86.364
240.91	47.059
241.28	48.000
241.65	56.000
242.02	73.913
242.40	46.774
242.77	58.333
243.14	49.462
243.51	42.697
243.89	48.235
244.26	34.444
244.63	47.312
245.00	35.106
245.38	34.653
245.75	29.907
246.12	30.275
246.49	42.336
246.87	35.200
247.24	28.462
247.61	29.286
247.98	27.451
248.36	21.622
248.73	24.204
249.10	33.758
249.47	20.904
249.84	21.390
250.22	20.856
250.59	26.627
250.96	21.717
251.33	26.066
251.70	28.713
252.08	24.762
252.45	17.937
252.82	15.652
253.19	16.596
253.56	21.176
253.94	21.577
254.31	20.313
254.68	16.538
255.05	16.974
255.42	12.602
255.79	13.603
256.16	15.523
256.54	11.307
256.91	16.726
257.28	11.151
257.65	14.521
258.02	17.391
258.39	15.142
258.76	13.378
259.14	17.560
259.51	15.502
259.88	12.112
260.25	16.012
260.62	15.318
260.99	11.180
261.36	15.015
261.73	14.613
262.10	12.791
262.47	11.831
262.85	15.320
263.22	9.402
263.59	12.821
263.96	12.088
264.33	14.099
264.70	11.579
265.07	10.486
265.44	12.374
265.81	9.732
266.18	11.055
266.55	13.415
266.92	10.565
267.29	11.111
267.66	11.927
268.03	10.227
268.40	11.916
268.77	8.353
269.14	10.811
269.51	14.898
269.88	10.956
270.25	12.867
270.62	12.135
270.99	12.688
271.36	12.446
271.73	9.813
272.10	10.000
272.47	12.043
272.84	10.390
273.21	10.901
273.58	9.389
273.95	8.595
274.32	10.537
274.69	10.921
275.06	9.252
275.43	11.915
275.80	9.820
276.17	10.998
276.54	11.227
276.91	9.881
277.28	9.180
277.65	11.025
278.02	8.489
278.39	11.328
278.76	10.909
279.13	10.377
279.50	10.987
279.87	11.952
280.23	9.780
280.60	7.930
280.97	9.797
281.34	10.442
281.71	12.182
282.08	9.789
282.45	8.545
282.82	10.480
283.19	8.556
283.56	8.947
283.92	10.152
284.29	8.113
284.66	7.804
285.03	6.691
285.40	8.627
285.77	8.754
286.14	9.499
286.51	10.667
286.87	10.256
287.24	10.749
287.61	9.791
287.98	9.416
288.35	9.192
288.72	8.879
289.08	8.764
289.45	7.578
289.82	8.618
290.19	7.378
290.56	7.657
290.93	7.251
291.29	8.129
291.66	8.702
292.03	10.901
292.40	9.985
292.77	7.396
293.13	7.463
293.50	8.892
293.87	7.556
294.24	7.111
294.60	7.715
294.97	7.849
295.34	8.181
295.71	7.244
296.08	7.265
296.44	7.290
296.81	6.869
297.18	8.401
297.55	5.409
297.91	6.728
298.28	7.363
298.65	7.441
299.02	7.510
299.38	6.640
299.75	4.447
300.12	6.258
300.48	7.500
300.85	6.905
301.22	6.115
301.59	6.187
301.95	6.423
302.32	5.263
302.69	6.691
303.05	5.697
303.42	5.432
303.79	6.002
304.15	6.061
304.52	5.098
304.89	5.226
305.25	6.032
305.62	6.908
305.99	6.021
306.35	7.494
306.72	5.493
307.09	6.881
307.45	7.770
307.82	4.799
308.19	7.174
308.55	7.228
308.92	6.552
309.29	5.913
309.65	6.045
310.02	7.505
310.38	6.129
310.75	6.864
311.12	6.244
311.48	6.061
311.85	6.918
312.22	6.139
312.58	5.821
312.95	6.864
313.31	6.019
313.68	6.549
314.05	7.692
314.41	6.935
314.78	7.251
315.14	6.852
315.51	7.003
315.87	6.931
316.24	5.760
316.61	5.361
316.97	6.164
317.34	6.067
317.70	7.266
318.07	6.160
318.43	7.143
318.80	7.310
319.16	7.910
319.53	6.754
319.89	7.714
320.26	7.800
320.62	7.738
320.99	7.374
321.35	8.081
321.72	8.830
322.08	8.391
322.45	8.060
322.81	9.109
323.18	9.249
323.54	10.204
323.91	9.811
324.27	9.465
324.64	7.829
325.00	8.566
325.37	9.463
325.73	10.233
326.10	10.327
326.46	9.677
326.83	11.475
327.19	10.675
327.56	9.582
327.92	10.324
328.29	11.890
328.65	11.234
329.01	11.462
329.38	11.008
329.74	10.988
330.11	12.441
330.47	11.754
330.84	12.224
331.20	11.931
331.56	12.018
331.93	12.315
332.29	12.067
332.66	11.327
333.02	12.797
333.38	13.550
333.75	13.102
334.11	12.900
334.48	11.801
334.84	13.051
335.20	12.545
335.57	11.786
335.93	12.054
336.29	12.729
336.66	13.345
337.02	12.308
337.38	12.778
337.75	11.854
338.11	13.787
338.47	12.615
338.84	13.566
339.20	11.835
339.56	13.321
339.93	12.727
340.29	12.409
340.65	13.458
341.02	13.874
341.38	13.167
341.74	13.772
342.11	12.926
342.47	14.097
342.83	13.356
343.20	13.853
343.56	13.058
343.92	12.895
344.28	13.605
344.65	14.273
345.01	13.215
345.37	13.379
345.73	13.113
346.10	13.981
346.46	13.898
346.82	13.097
347.19	13.367
347.55	13.629
347.91	14.482
348.27	13.558
348.63	14.214
349.00	13.350
349.36	13.711
349.72	14.675
350.08	13.128
350.45	14.809
350.81	13.810
351.17	13.614
351.53	15.233
351.89	14.109
352.26	14.128
352.62	14.595
352.98	12.885
353.34	13.969
353.70	13.421
354.07	13.952
354.43	14.683
354.79	13.435
355.15	14.765
355.51	16.147
355.87	14.531
356.24	14.088
356.60	14.435
356.96	14.401
357.32	14.064
357.68	14.567
358.04	14.727
358.40	16.073
358.77	15.258
359.13	14.286
359.49	15.373
359.85	13.968
360.21	14.673
360.57	15.564
360.93	16.538
361.29	15.495
361.66	15.093
362.02	14.925
362.38	16.350
362.74	15.625
363.10	15.766
363.46	15.627
363.82	15.268
364.18	17.034
364.54	16.642
364.90	16.856
365.26	15.662
365.62	15.194
365.98	15.121
366.35	15.330
366.71	16.052
367.07	16.096
367.43	16.328
367.79	17.559
368.15	17.241
368.51	16.134
368.87	17.273
369.23	16.533
369.59	17.161
369.95	16.324
370.31	17.735
370.67	16.304
371.03	18.352
371.39	17.347
371.75	18.456
372.11	17.781
372.47	18.182
372.83	17.435
373.19	17.269
373.55	17.147
373.91	18.115
374.27	18.076
374.63	17.673
374.99	17.585
375.35	17.655
375.71	17.683
376.07	18.313
376.42	18.776
376.78	18.224
377.14	17.775
377.50	18.609
377.86	17.287
378.22	18.078
378.58	17.293
378.94	18.542
379.30	19.148
379.66	19.162
380.02	18.120
380.38	18.397
380.74	19.688
381.09	18.521
381.45	19.299
381.81	18.550
382.17	19.554
382.53	18.553
382.89	19.630
383.25	19.325
383.61	20.570
383.97	19.575
384.32	18.964
384.68	20.074
385.04	19.176
385.40	19.319
385.76	19.287
386.12	19.430
386.48	19.824
386.83	20.334
387.19	19.975
387.55	20.223
387.91	20.496
388.27	19.804
388.62	20.406
388.98	19.472
389.34	20.588
389.70	19.191
390.06	21.039
390.42	20.039
390.77	21.692
391.13	20.549
391.49	21.574
391.85	20.560
392.20	20.442
392.56	21.086
392.92	20.541
393.28	19.467
393.64	20.084
393.99	20.953
394.35	21.216
394.71	20.703
395.07	20.748
395.42	21.384
395.78	21.438
396.14	21.539
396.50	20.802
396.85	21.233
397.21	21.270
397.57	21.265
397.92	21.695
398.28	20.852
398.64	20.908
399.00	20.873
399.35	21.207
399.71	21.875
400.07	21.940
400.42	21.350
400.78	21.472
401.14	21.646
401.49	21.493
401.85	20.932
402.21	20.599
402.57	21.407
402.92	21.690
403.28	20.987
403.63	21.658
403.99	21.210
404.35	21.576
404.70	20.624
405.06	20.909
405.42	21.522
405.77	20.629
406.13	20.767
406.49	21.526
406.84	21.855
407.20	21.395
407.55	21.634
407.91	22.200
408.27	21.506
408.62	21.734
408.98	21.385
409.34	21.710
409.69	22.000
410.05	21.871
410.40	20.673
410.76	21.744
411.11	21.592
411.47	21.470
411.83	22.297
412.18	21.707
412.54	21.856
412.89	21.566
413.25	22.491
413.60	21.742
413.96	21.797
414.31	21.021
414.67	22.243
415.03	22.318
415.38	22.165
415.74	22.637
416.09	21.424
416.45	22.088
416.80	20.886
417.16	21.649
417.51	22.495
417.87	21.580
418.22	22.271
418.58	21.821
418.93	22.420
419.29	21.133
419.64	22.418
420.00	22.317
420.35	22.435
420.71	22.355
421.06	22.255
421.42	21.988
421.77	22.365
422.12	21.898
422.48	20.993
422.83	22.772
423.19	21.602
423.54	21.474
423.90	22.203
424.25	21.496
424.61	22.440
424.96	21.691
425.31	21.816
425.67	21.067
426.02	22.000
426.38	21.917
426.73	21.358
427.09	22.310
427.44	22.542
427.79	21.507
428.15	21.369
428.50	20.889
428.85	22.229
429.21	21.535
429.56	20.581
429.92	20.936
430.27	21.450
430.62	21.608
430.98	21.225
431.33	21.186
431.68	21.623
432.04	21.565
432.39	21.588
432.74	21.783
433.10	21.505
433.45	22.216
433.80	21.120
434.16	21.741
434.51	21.947
434.86	22.862
435.22	21.679
435.57	21.884
435.92	21.123
436.28	21.767
436.63	22.296
436.98	21.007
437.34	21.288
437.69	21.645
438.04	21.248
438.39	21.254
438.75	21.673
439.10	21.620
439.45	22.137
439.81	21.450
440.16	21.118
440.51	22.496
440.86	21.946
441.22	21.190
441.57	21.975
441.92	21.699
442.27	21.851
442.63	21.854
442.98	22.197
443.33	21.196
443.68	21.064
444.03	21.376
444.39	20.935
444.74	20.725
445.09	21.348
445.44	21.214
445.79	21.079
446.15	21.810
446.50	20.948
446.85	21.634
447.20	22.387
447.55	20.938
447.91	20.849
448.26	21.425
448.61	20.577
448.96	21.705
449.31	20.979
449.66	21.497
450.02	20.891
450.37	21.315
450.72	21.376
451.07	20.902
451.42	21.033
451.77	21.315
452.12	21.478
452.47	21.020
452.83	20.455
453.18	21.271
453.53	20.841
453.88	20.910
454.23	21.279
454.58	21.926
454.93	21.869
455.28	21.072
455.63	20.692
455.98	21.726
456.34	21.545
456.69	21.039
457.04	21.176
457.39	20.748
457.74	20.720
458.09	21.104
458.44	20.867
458.79	19.794
459.14	20.880
459.49	20.432
459.84	20.776
460.19	20.448
460.54	20.197
460.89	20.516
461.24	21.494
461.59	22.429
461.94	20.407
462.29	22.255
462.64	20.868
462.99	20.039
463.34	21.667
463.69	21.764
464.04	20.348
464.39	20.580
464.74	20.440
465.09	19.903
465.44	20.332
465.79	20.694
466.14	20.088
466.49	19.744
466.84	20.198
467.19	19.976
467.54	20.125
467.89	20.168
468.24	20.768
468.59	20.696
468.94	20.342
469.29	19.859
469.64	21.419
469.99	21.380
470.34	21.136
470.68	21.336
471.03	20.068
471.38	20.361
471.73	20.786
472.08	21.118
472.43	19.158
472.78	19.552
473.13	19.769
473.48	20.849
473.83	20.549
474.17	19.913
474.52	20.720
474.87	20.374
475.22	19.733
475.57	19.398
475.92	20.021
476.27	18.997
476.61	19.305
476.96	18.747
477.31	19.728
477.66	19.694
478.01	19.812
478.36	19.937
478.70	18.744
479.05	19.968
479.40	19.447
479.75	19.115
480.10	19.284
480.45	19.277
480.79	18.156
481.14	18.787
481.49	19.791
481.84	18.610
482.19	18.855
482.53	19.128
482.88	18.753
483.23	19.159
483.58	19.108
483.92	19.306
484.27	17.255
484.62	17.931
484.97	17.540
485.31	17.397
485.66	16.470
486.01	15.789
486.36	15.727
486.70	15.904
487.05	16.509
487.40	16.803
487.75	17.087
488.09	17.774
488.44	17.045
488.79	17.794
489.13	17.991
489.48	17.170
489.83	18.645
490.17	18.281
490.52	17.803
490.87	17.503
491.22	17.462
491.56	17.677
491.91	18.660
492.26	18.098
492.60	18.111
492.95	17.306
493.30	17.804
493.64	18.152
493.99	17.642
494.34	17.669
494.68	17.537
495.03	18.186
495.37	18.008
495.72	17.154
496.07	17.819
496.41	16.947
496.76	17.634
497.11	17.019
497.45	17.466
497.80	17.418
498.14	17.101
498.49	17.561
498.84	17.066
499.18	17.143
499.53	17.142
499.87	17.428
500.22	17.051
500.56	17.233
500.91	16.635
501.26	16.738
501.60	17.133
501.95	16.544
502.29	17.573
502.64	17.318
502.98	16.971
503.33	16.453
503.67	16.798
504.02	16.417
504.36	17.033
504.71	16.561
505.06	16.530
505.40	15.946
505.75	16.586
506.09	16.667
506.44	16.774
506.78	16.659
507.13	16.608
507.47	17.525
507.82	16.869
508.16	16.363
508.51	16.946
508.85	16.882
509.19	16.888
509.54	16.990
509.88	16.641
510.23	16.452
510.57	17.699
510.92	17.245
511.26	17.369
511.61	17.272
511.95	16.754
512.30	16.808
512.64	16.980
512.98	17.310
513.33	17.184
513.67	16.489
514.02	16.071
514.36	16.767
514.70	17.875
515.05	16.564
515.39	17.611
515.74	16.723
516.08	17.440
516.42	16.704
516.77	17.503
517.11	17.092
517.46	16.479
517.80	17.364
518.14	16.097
518.49	17.270
518.83	17.557
519.17	17.206
519.52	16.865
519.86	17.171
520.20	17.977
520.55	18.013
520.89	17.701
521.23	17.793
521.58	17.047
521.92	18.249
522.26	17.023
522.61	18.505
522.95	17.373
523.29	17.407
523.64	17.622
523.98	17.560
524.32	16.586
524.66	17.859
525.01	18.015
525.35	17.162
525.69	18.042
526.04	18.318
526.38	17.694
526.72	17.607
527.06	17.954
527.41	17.574
527.75	17.170
528.09	18.176
528.43	17.655
528.78	17.701
529.12	17.152
529.46	18.004
529.80	17.450
530.15	18.006
530.49	17.846
530.83	18.101
531.17	18.342
531.51	18.872
531.86	17.290
532.20	19.296
532.54	17.681
532.88	17.587
533.22	16.989
533.57	17.778
533.91	17.038
534.25	15.978
534.59	17.328
534.93	17.430
535.27	16.838
535.62	17.216
535.96	18.142
536.30	16.974
536.64	17.901
536.98	17.120
537.32	17.907
537.66	17.400
538.01	17.972
538.35	17.195
538.69	19.017
539.03	17.349
539.37	16.550
539.71	15.943
540.05	17.582
540.39	17.475
540.73	16.947
541.07	18.170
541.42	17.156
541.76	17.290
542.10	17.658
542.44	16.026
542.78	17.852
543.12	17.147
543.46	17.377
543.80	16.916
544.14	16.496
544.48	16.571
544.82	16.549
545.16	16.981
545.50	16.260
545.84	16.801
546.18	16.768
546.52	17.412
546.86	17.457
547.20	16.858
547.54	16.967
547.88	16.901
548.22	16.501
548.56	16.289
548.90	16.581
549.24	16.768
549.58	16.439
549.92	17.033
550.26	16.690
550.60	16.736
550.94	17.113
551.28	15.947
551.62	16.391
551.96	16.351
552.30	16.177
552.64	16.295
552.98	16.610
553.32	16.318
553.66	16.973
554.00	17.227
554.34	16.080
554.68	17.239
555.02	16.643
555.36	16.284
555.69	16.103
556.03	15.882
556.37	16.371
556.71	15.621
557.05	17.087
557.39	16.725
557.73	15.879
558.07	16.679
558.41	16.353
558.75	17.561
559.08	16.107
559.42	16.704
559.76	16.397
560.10	16.274
560.44	15.933
560.78	15.502
561.12	16.029
561.45	16.623
561.79	15.755
562.13	15.895
562.47	16.257
562.81	15.342
563.15	15.518
563.48	15.451
563.82	14.742
564.16	15.697
564.50	15.169
564.84	16.182
565.17	15.444
565.51	15.208
565.85	15.546
566.19	14.402
566.52	14.630
566.86	13.864
567.20	15.035
567.54	13.984
567.88	14.449
568.21	14.921
568.55	14.156
568.89	13.716
569.23	14.127
569.56	13.360
569.90	13.170
570.24	12.881
570.57	12.785
570.91	12.443
571.25	12.230
571.59	12.489
571.92	12.673
572.26	12.478
572.60	12.853
572.93	12.354
573.27	12.570
573.61	12.451
573.95	11.886
574.28	11.759
574.62	11.735
574.96	11.900
575.29	12.221
575.63	12.068
575.97	12.184
576.30	12.082
576.64	11.802
576.98	11.400
577.31	11.460
577.65	11.661
577.98	11.681
578.32	11.120
578.66	11.530
578.99	11.641
579.33	11.281
579.67	11.189
580.00	11.292
580.34	11.533
580.67	11.463
581.01	11.468
581.35	10.984
581.68	11.028
582.02	10.792
582.35	10.796
582.69	11.200
583.02	11.153
583.36	11.506
583.70	11.613
584.03	11.311
584.37	11.805
584.70	11.494
585.04	11.546
585.37	11.417
585.71	11.208
586.04	11.186
586.38	11.233
586.72	11.958
587.05	11.383
587.39	10.923
587.72	11.518
588.06	11.259
588.39	11.303
588.73	11.294
589.06	11.655
589.40	11.818
589.73	12.144
590.07	12.349
590.40	11.692
590.73	11.749
591.07	12.414
591.40	12.737
591.74	12.684
592.07	12.347
592.41	12.733
592.74	11.685
593.08	11.492
593.41	11.610
593.75	11.399
594.08	11.331
594.41	12.124
594.75	11.608
595.08	12.276
595.42	11.699
595.75	11.645
596.09	12.279
596.42	12.299
596.75	11.946
597.09	12.814
597.42	11.509
597.75	11.902
598.09	12.217
598.42	11.598
598.76	11.066
599.09	11.517
599.42	11.099
599.76	11.567
600.09	11.111
600.42	11.541
600.76	11.143
601.09	11.475
601.42	11.377
601.76	11.423
602.09	11.028
602.42	12.062
602.76	11.810
603.09	11.330
603.42	11.363
603.76	11.166
604.09	11.051
604.42	12.108
604.76	12.273
605.09	11.970
605.42	11.372
605.75	11.879
606.09	11.509
606.42	11.483
606.75	11.613
607.09	12.181
607.42	11.382
607.75	11.181
608.08	11.420
608.42	12.506
608.75	12.038
609.08	11.286
609.41	11.566
609.75	11.815
610.08	12.347
610.41	11.453
610.74	11.779
611.07	11.364
611.41	11.825
611.74	12.418
612.07	12.371
612.40	11.857
612.73	11.737
613.07	12.015
613.40	12.849
613.73	11.589
614.06	11.882
614.39	11.589
614.72	12.316
615.06	12.973
615.39	12.208
615.72	12.065
616.05	11.802
616.38	11.784
616.71	12.352
617.05	11.837
617.38	12.628
617.71	11.892
618.04	12.740
618.37	11.886
618.70	13.441
619.03	12.829
619.36	12.967
619.69	12.535
620.03	14.423
620.36	13.436
620.69	13.425
621.02	13.864
621.35	12.764
621.68	13.474
622.01	12.848
622.34	13.238
622.67	12.319
623.00	12.546
623.33	13.510
623.66	11.794
623.99	12.960
624.32	12.981
624.65	13.418
624.99	11.756
625.32	13.179
625.65	12.847
625.98	13.067
626.31	13.841
626.64	13.469
626.97	13.051
627.30	12.635
627.63	13.946
627.96	13.373
628.29	13.911
628.62	15.096
628.95	15.472
629.28	13.960
629.61	13.932
629.94	14.952
630.26	14.395
630.59	14.585
630.92	13.506
631.25	14.413
631.58	13.213
631.91	14.807
632.24	13.608
632.57	13.851
632.90	14.583
633.23	13.758
633.56	15.480
633.89	15.402
634.22	15.210
