SpectraSuite Data File
++++++++++++++++++++++++++++++++++++
Date: Wed May 13 21:42:11 PDT 2015
User: schluterlab
Dark Spectrum Present: Yes
Reference Spectrum Present: Yes
Number of Sampled Component Spectra: 1
Spectrometers: USB2E3373
Integration Time (usec): 3000 (USB2E3373)
Spectra Averaged: 3 (USB2E3373)
Boxcar Smoothing: 0 (USB2E3373)
Correct for Electrical Dark: No (USB2E3373)
Strobe/Lamp Enabled: No (USB2E3373)
Correct for Detector Non-linearity: No (USB2E3373)
Correct for Stray Light: No (USB2E3373)
Number of Pixels in Processed Spectrum: 2048
>>>>>Begin Processed Spectral Data<<<<<
178.53	0.000
178.91	350.000
179.29	166.667
179.67	-850.000
180.04	-466.667
180.42	60.000
180.80	500.000
181.18	300.000
181.56	-275.000
181.94	125.000
182.31	-9.091
182.69	100.000
183.07	-140.000
183.45	283.333
183.83	166.667
184.20	100.000
184.58	-66.667
184.96	233.333
185.34	328.571
185.72	0.000
186.09	0.000
186.47	-400.000
186.85	100.000
187.23	100.000
187.61	150.000
187.98	1400.000
188.36	-37.500
188.74	0.000
189.12	-54.545
189.49	-10.000
189.87	100.000
190.25	260.000
190.63	200.000
191.00	-160.000
191.38	240.000
191.76	25.000
192.14	200.000
192.51	-42.105
192.89	633.333
193.27	200.000
193.65	-80.000
194.02	172.727
194.40	240.000
194.78	-300.000
195.15	200.000
195.53	-200.000
195.91	-25.000
196.29	-366.667
196.66	0.000
197.04	650.000
197.42	-20.000
197.79	-60.000
198.17	-100.000
198.55	-266.667
198.92	350.000
199.30	-500.000
199.68	20.000
200.05	100.000
200.43	183.333
200.81	-1500.000
201.18	-200.000
201.56	-66.667
201.94	750.000
202.31	-17.391
202.69	-71.429
203.07	-200.000
203.44	-200.000
203.82	-600.000
204.19	-50.000
204.57	0.000
204.95	-100.000
205.32	0.000
205.70	-350.000
206.08	-250.000
206.45	-100.000
206.83	275.000
207.20	-466.667
207.58	-30.000
207.96	-2000.000
208.33	-142.857
208.71	-2000.000
209.08	125.000
209.46	425.000
209.84	0.000
210.21	150.000
210.59	2000.000
210.96	280.000
211.34	1200.000
211.71	-900.000
212.09	-233.333
212.46	-170.000
212.84	-200.000
213.22	-125.000
213.59	-900.000
213.97	-950.000
214.34	-650.000
214.72	-23.077
215.09	137.500
215.47	188.889
215.84	600.000
216.22	-12.500
216.59	-600.000
216.97	700.000
217.34	122.222
217.72	0.000
218.09	466.667
218.47	-300.000
218.84	-171.429
219.22	-112.500
219.59	-200.000
219.97	-475.000
220.34	-162.500
220.72	-220.000
221.09	0.000
221.47	-200.000
221.84	-400.000
222.22	0.000
222.59	1200.000
222.97	-366.667
223.34	-66.667
223.72	-600.000
224.09	-300.000
224.46	-9.091
224.84	-62.500
225.21	-142.857
225.59	-500.000
225.96	50.000
226.34	-50.000
226.71	-142.857
227.08	700.000
227.46	-137.500
227.83	-700.000
228.21	-12.500
228.58	-150.000
228.95	5.882
229.33	12.500
229.70	-25.000
230.08	-30.769
230.45	-112.500
230.82	-91.667
231.20	285.714
231.57	-250.000
231.95	1100.000
232.32	-83.333
232.69	-41.176
233.07	-1300.000
233.44	4.348
233.81	-750.000
234.19	20.833
234.56	-60.000
234.93	-73.333
235.31	0.000
235.68	-53.846
236.05	-115.385
236.43	-66.667
236.80	-6.061
237.17	-40.000
237.55	11.765
237.92	-13.793
238.29	-29.630
238.67	-8.333
239.04	0.000
239.41	-14.894
239.79	6.383
240.16	2.326
240.53	26.786
240.91	17.857
241.28	3.571
241.65	12.903
242.02	13.158
242.40	11.594
242.77	13.043
243.14	14.103
243.51	6.383
243.89	20.192
244.26	23.585
244.63	9.615
245.00	25.000
245.38	10.924
245.75	13.115
246.12	18.797
246.49	9.756
246.87	7.563
247.24	23.649
247.61	18.543
247.98	17.308
248.36	17.160
248.73	11.798
249.10	21.212
249.47	17.204
249.84	25.263
250.22	15.423
250.59	12.617
250.96	24.545
251.33	13.876
251.70	20.502
252.08	18.828
252.45	20.576
252.82	20.532
253.19	18.288
253.56	21.583
253.94	19.573
254.31	17.958
254.68	22.148
255.05	21.452
255.42	19.930
255.79	17.178
256.16	18.297
256.54	20.000
256.91	19.304
257.28	21.069
257.65	18.471
258.02	19.062
258.39	21.637
258.76	17.442
259.14	20.739
259.51	19.101
259.88	22.764
260.25	20.278
260.62	17.978
260.99	24.403
261.36	24.611
261.73	19.753
262.10	16.539
262.47	20.494
262.85	19.403
263.22	19.231
263.59	21.299
263.96	19.951
264.33	18.510
264.70	20.930
265.07	21.991
265.44	22.989
265.81	19.908
266.18	18.679
266.55	21.179
266.92	19.068
267.29	20.165
267.66	23.355
268.03	20.576
268.40	21.822
268.77	21.901
269.14	21.633
269.51	24.435
269.88	19.756
270.25	21.186
270.62	17.418
270.99	20.079
271.36	20.040
271.73	21.285
272.10	21.524
272.47	21.881
272.84	21.457
273.21	19.961
273.58	21.311
273.95	19.623
274.32	20.896
274.69	19.308
275.06	21.555
275.43	19.397
275.80	18.440
276.17	19.337
276.54	17.762
276.91	21.429
277.28	18.773
277.65	22.203
278.02	20.357
278.39	19.716
278.76	22.241
279.13	18.525
279.50	17.069
279.87	17.391
280.23	21.261
280.60	19.723
280.97	18.994
281.34	20.820
281.71	16.911
282.08	20.171
282.45	22.295
282.82	20.607
283.19	19.970
283.56	19.844
283.92	18.807
284.29	20.749
284.66	18.287
285.03	18.893
285.40	21.148
285.77	22.523
286.14	18.845
286.51	22.489
286.87	18.923
287.24	20.501
287.61	21.386
287.98	19.412
288.35	19.374
288.72	18.938
289.08	19.801
289.45	19.383
289.82	19.062
290.19	17.812
290.56	18.750
290.93	18.232
291.29	17.100
291.66	15.984
292.03	18.801
292.40	18.035
292.77	18.742
293.13	19.107
293.50	17.516
293.87	18.000
294.24	17.857
294.60	17.555
294.97	18.122
295.34	14.776
295.71	16.163
296.08	14.660
296.44	16.582
296.81	16.687
297.18	17.125
297.55	16.627
297.91	17.143
298.28	16.586
298.65	16.133
299.02	16.361
299.38	16.933
299.75	17.788
300.12	15.116
300.48	15.673
300.85	15.704
301.22	16.260
301.59	15.728
301.95	15.099
302.32	14.469
302.69	16.271
303.05	14.618
303.42	15.909
303.79	16.719
304.15	15.115
304.52	16.452
304.89	15.061
305.25	15.587
305.62	15.835
305.99	14.581
306.35	17.450
306.72	16.582
307.09	15.641
307.45	15.655
307.82	15.684
308.19	15.256
308.55	15.046
308.92	17.092
309.29	13.814
309.65	14.585
310.02	16.600
310.38	15.244
310.75	14.398
311.12	15.549
311.48	14.738
311.85	15.650
312.22	16.054
312.58	15.072
312.95	16.517
313.31	15.519
313.68	14.885
314.05	16.257
314.41	16.138
314.78	15.844
315.14	16.944
315.51	15.794
315.87	15.107
316.24	15.335
316.61	15.982
316.97	16.852
317.34	15.775
317.70	16.592
318.07	16.060
318.43	16.712
318.80	15.794
319.16	15.561
319.53	15.950
319.89	16.260
320.26	16.728
320.62	16.404
320.99	16.085
321.35	15.061
321.72	16.266
322.08	17.435
322.45	16.929
322.81	16.174
323.18	16.905
323.54	16.065
323.91	15.808
324.27	16.022
324.64	16.551
325.00	15.573
325.37	17.321
325.73	15.909
326.10	17.157
326.46	16.304
326.83	15.453
327.19	16.341
327.56	17.244
327.92	16.895
328.29	18.114
328.65	16.740
329.01	16.623
329.38	18.087
329.74	16.567
330.11	16.501
330.47	15.538
330.84	16.245
331.20	16.396
331.56	15.942
331.93	16.365
332.29	15.899
332.66	16.949
333.02	16.594
333.38	15.965
333.75	16.553
334.11	17.622
334.48	16.914
334.84	15.459
335.20	16.981
335.57	15.927
335.93	15.722
336.29	15.061
336.66	15.556
337.02	16.261
337.38	16.188
337.75	14.901
338.11	16.311
338.47	15.240
338.84	15.808
339.20	14.991
339.56	16.382
339.93	15.212
340.29	15.713
340.65	16.168
341.02	15.807
341.38	15.287
341.74	14.370
342.11	16.763
342.47	14.979
342.83	15.441
343.20	15.736
343.56	15.536
343.92	15.272
344.28	15.341
344.65	14.857
345.01	15.819
345.37	15.461
345.73	16.667
346.10	16.453
346.46	14.959
346.82	15.169
347.19	15.111
347.55	15.590
347.91	15.121
348.27	15.221
348.63	14.663
349.00	14.623
349.36	15.149
349.72	15.159
350.08	15.757
350.45	14.722
350.81	14.867
351.17	15.858
351.53	15.868
351.89	13.662
352.26	14.286
352.62	15.581
352.98	14.856
353.34	15.217
353.70	15.109
354.07	15.059
354.43	15.552
354.79	15.465
355.15	15.062
355.51	15.262
355.87	15.950
356.24	14.767
356.60	14.386
356.96	14.582
357.32	14.164
357.68	15.126
358.04	14.895
358.40	15.736
358.77	15.826
359.13	14.630
359.49	15.140
359.85	15.163
360.21	14.032
360.57	14.601
360.93	15.781
361.29	15.248
361.66	15.034
362.02	14.974
362.38	14.919
362.74	14.648
363.10	15.112
363.46	14.553
363.82	15.595
364.18	14.793
364.54	14.004
364.90	14.216
365.26	14.084
365.62	14.773
365.98	14.662
366.35	15.674
366.71	13.980
367.07	14.316
367.43	14.355
367.79	15.288
368.15	14.627
368.51	13.432
368.87	15.841
369.23	14.591
369.59	14.729
369.95	14.731
370.31	14.296
370.67	14.410
371.03	15.293
371.39	14.975
371.75	15.643
372.11	15.171
372.47	13.554
372.83	15.326
373.19	15.036
373.55	14.740
373.91	15.417
374.27	14.177
374.63	14.865
374.99	14.345
375.35	14.932
375.71	14.334
376.07	15.284
376.42	14.840
376.78	14.597
377.14	15.119
377.50	14.733
377.86	15.272
378.22	14.602
378.58	14.691
378.94	15.250
379.30	15.178
379.66	14.858
380.02	14.522
380.38	14.940
380.74	15.242
381.09	14.475
381.45	14.813
381.81	14.664
382.17	14.178
382.53	15.323
382.89	15.259
383.25	16.111
383.61	15.557
383.97	15.062
384.32	14.745
384.68	14.806
385.04	14.783
385.40	15.006
385.76	15.085
386.12	15.107
386.48	15.110
386.83	14.768
387.19	14.744
387.55	15.267
387.91	15.129
388.27	15.228
388.62	15.231
388.98	14.956
389.34	14.662
389.70	13.980
390.06	15.000
390.42	15.013
390.77	14.798
391.13	15.278
391.49	14.864
391.85	15.144
392.20	15.226
392.56	15.111
392.92	15.272
393.28	14.643
393.64	15.107
393.99	14.198
394.35	14.444
394.71	14.487
395.07	14.340
395.42	15.478
395.78	15.187
396.14	14.268
396.50	14.458
396.85	15.679
397.21	15.106
397.57	14.783
397.92	13.892
398.28	13.875
398.64	15.361
399.00	15.346
399.35	15.437
399.71	15.026
400.07	14.759
400.42	14.671
400.78	15.106
401.14	14.408
401.49	14.020
401.85	15.049
402.21	14.985
402.57	15.635
402.92	15.645
403.28	15.260
403.63	15.375
403.99	15.675
404.35	14.838
404.70	15.287
405.06	14.797
405.42	14.510
405.77	15.265
406.13	14.971
406.49	14.739
406.84	15.263
407.20	14.861
407.55	15.130
407.91	14.758
408.27	14.099
408.62	14.979
408.98	15.105
409.34	15.099
409.69	16.439
410.05	14.988
410.40	14.607
410.76	15.644
411.11	15.174
411.47	14.532
411.83	14.722
412.18	15.113
412.54	15.414
412.89	14.734
413.25	14.277
413.60	14.796
413.96	15.044
414.31	15.043
414.67	14.857
415.03	15.088
415.38	14.201
415.74	15.530
416.09	15.135
416.45	15.379
416.80	14.899
417.16	15.385
417.51	14.735
417.87	15.146
418.22	15.191
418.58	14.323
418.93	15.191
419.29	15.842
419.64	15.076
420.00	16.063
420.35	15.242
420.71	16.088
421.06	15.006
421.42	15.511
421.77	15.549
422.12	15.931
422.48	15.376
422.83	15.416
423.19	15.296
423.54	15.018
423.90	15.914
424.25	15.136
424.61	15.835
424.96	15.316
425.31	14.919
425.67	15.168
426.02	17.314
426.38	15.050
426.73	15.883
427.09	14.884
427.44	15.502
427.79	15.321
428.15	15.719
428.50	15.650
428.85	16.236
429.21	15.419
429.56	15.675
429.92	15.773
430.27	15.849
430.62	15.215
430.98	15.918
431.33	15.798
431.68	16.028
432.04	15.718
432.39	15.704
432.74	15.880
433.10	16.153
433.45	15.680
433.80	15.632
434.16	15.511
434.51	16.304
434.86	15.371
435.22	15.507
435.57	15.848
435.92	16.043
436.28	15.796
436.63	16.051
436.98	16.510
437.34	16.117
437.69	16.116
438.04	16.072
438.39	16.252
438.75	15.971
439.10	16.715
439.45	15.496
439.81	15.948
440.16	16.870
440.51	15.933
440.86	16.064
441.22	16.236
441.57	16.269
441.92	16.433
442.27	15.639
442.63	15.393
442.98	15.799
443.33	16.591
443.68	15.498
444.03	16.692
444.39	16.956
444.74	16.068
445.09	15.969
445.44	16.620
445.79	15.953
446.15	16.583
446.50	16.465
446.85	17.157
447.20	16.414
447.55	16.452
447.91	16.517
448.26	17.038
448.61	15.708
448.96	16.515
449.31	16.448
449.66	17.004
450.02	16.146
450.37	16.216
450.72	16.246
451.07	17.179
451.42	16.843
451.77	16.433
452.12	16.815
452.47	16.462
452.83	16.450
453.18	16.423
453.53	16.646
453.88	17.048
454.23	16.811
454.58	16.850
454.93	15.908
455.28	16.635
455.63	16.220
455.98	16.251
456.34	16.592
456.69	16.422
457.04	16.533
457.39	16.236
457.74	16.577
458.09	17.299
458.44	17.274
458.79	16.145
459.14	16.461
459.49	16.585
459.84	17.080
460.19	16.747
460.54	16.545
460.89	16.836
461.24	17.324
461.59	17.089
461.94	17.446
462.29	15.625
462.64	16.161
462.99	16.901
463.34	16.989
463.69	17.075
464.04	16.807
464.39	16.656
464.74	16.523
465.09	16.925
465.44	16.891
465.79	18.114
466.14	17.389
466.49	16.598
466.84	17.573
467.19	16.433
467.54	17.239
467.89	17.159
468.24	17.333
468.59	16.953
468.94	17.305
469.29	16.986
469.64	17.992
469.99	17.931
470.34	16.993
470.68	17.621
471.03	18.477
471.38	17.177
471.73	18.313
472.08	16.907
472.43	17.480
472.78	17.782
473.13	16.689
473.48	16.699
473.83	17.828
474.17	17.383
474.52	17.346
474.87	17.189
475.22	16.848
475.57	17.457
475.92	17.121
476.27	17.424
476.61	18.233
476.96	17.647
477.31	17.368
477.66	17.232
478.01	17.088
478.36	16.730
478.70	17.401
479.05	17.925
479.40	17.889
479.75	17.269
480.10	18.103
480.45	16.920
480.79	17.521
481.14	17.984
481.49	18.007
481.84	17.484
482.19	17.045
482.53	17.429
482.88	17.737
483.23	16.747
483.58	17.580
483.92	17.850
484.27	17.338
484.62	16.955
484.97	17.296
485.31	17.125
485.66	16.889
486.01	17.162
486.36	16.913
486.70	16.731
487.05	17.065
487.40	17.394
487.75	17.715
488.09	16.641
488.44	17.035
488.79	18.319
489.13	17.416
489.48	17.315
489.83	17.776
490.17	17.522
490.52	18.326
490.87	17.710
491.22	17.946
491.56	17.681
491.91	18.195
492.26	17.940
492.60	17.797
492.95	18.367
493.30	18.169
493.64	17.458
493.99	18.116
494.34	18.353
494.68	18.807
495.03	17.836
495.37	17.470
495.72	17.995
496.07	17.974
496.41	16.846
496.76	18.236
497.11	17.512
497.45	18.337
497.80	19.182
498.14	19.194
498.49	18.104
498.84	17.814
499.18	18.118
499.53	18.415
499.87	17.273
500.22	18.417
500.56	18.154
500.91	18.813
501.26	18.128
501.60	17.696
501.95	17.825
502.29	18.350
502.64	18.949
502.98	18.064
503.33	17.567
503.67	17.916
504.02	18.137
504.36	17.930
504.71	18.089
505.06	18.136
505.40	18.918
505.75	19.532
506.09	17.578
506.44	18.246
506.78	17.979
507.13	18.295
507.47	18.717
507.82	17.844
508.16	18.364
508.51	18.647
508.85	18.403
509.19	18.201
509.54	18.874
509.88	18.925
510.23	18.947
510.57	19.174
510.92	18.966
511.26	18.592
511.61	18.332
511.95	18.467
512.30	17.879
512.64	20.148
512.98	19.557
513.33	18.704
513.67	18.853
514.02	18.985
514.36	18.483
514.70	19.284
515.05	19.193
515.39	19.399
515.74	19.065
516.08	18.997
516.42	18.606
516.77	18.161
517.11	18.754
517.46	19.388
517.80	19.734
518.14	18.800
518.49	18.927
518.83	19.212
519.17	19.277
519.52	19.723
519.86	18.640
520.20	19.284
520.55	18.843
520.89	18.596
521.23	19.295
521.58	20.101
521.92	18.668
522.26	19.714
522.61	19.522
522.95	19.236
523.29	19.365
523.64	19.008
523.98	19.949
524.32	19.471
524.66	18.896
525.01	19.069
525.35	20.211
525.69	19.814
526.04	19.023
526.38	19.120
526.72	19.592
527.06	19.536
527.41	19.193
527.75	19.426
528.09	20.150
528.43	20.488
528.78	20.220
529.12	19.793
529.46	19.770
529.80	19.482
530.15	18.790
530.49	20.418
530.83	19.973
531.17	20.205
531.51	19.555
531.86	19.444
532.20	20.813
532.54	18.828
532.88	20.218
533.22	19.663
533.57	19.272
533.91	20.774
534.25	19.531
534.59	18.211
534.93	19.324
535.27	19.936
535.62	18.684
535.96	20.494
536.30	19.880
536.64	19.207
536.98	19.622
537.32	19.929
537.66	20.733
538.01	19.764
538.35	19.682
538.69	19.264
539.03	19.195
539.37	19.651
539.71	19.031
540.05	18.489
540.39	19.683
540.73	19.623
541.07	18.707
541.42	20.067
541.76	19.350
542.10	20.108
542.44	18.780
542.78	19.639
543.12	19.811
543.46	19.350
543.80	19.416
544.14	19.821
544.48	18.248
544.82	19.032
545.16	20.014
545.50	20.527
545.84	19.004
546.18	19.004
546.52	19.689
546.86	18.092
547.20	18.585
547.54	20.157
547.88	20.175
548.22	19.674
548.56	19.280
548.90	19.892
549.24	19.861
549.58	19.146
549.92	20.690
550.26	20.664
550.60	19.069
550.94	19.552
551.28	20.818
551.62	21.053
551.96	19.839
552.30	19.360
552.64	18.573
552.98	20.170
553.32	18.962
553.66	19.809
554.00	19.510
554.34	19.267
554.68	19.985
555.02	20.584
555.36	20.424
555.69	19.811
556.03	19.657
556.37	18.777
556.71	19.622
557.05	20.295
557.39	19.819
557.73	20.877
558.07	20.723
558.41	20.288
558.75	20.708
559.08	18.845
559.42	20.063
559.76	20.336
560.10	19.062
560.44	20.192
560.78	18.993
561.12	19.271
561.45	19.048
561.79	19.601
562.13	20.183
562.47	20.643
562.81	19.913
563.15	18.697
563.48	19.546
563.82	20.315
564.16	19.702
564.50	19.199
564.84	19.054
565.17	19.338
565.51	19.118
565.85	18.254
566.19	18.940
566.52	18.938
566.86	18.710
567.20	18.998
567.54	19.113
567.88	17.637
568.21	18.251
568.55	18.362
568.89	17.647
569.23	18.332
569.56	17.689
569.90	17.485
570.24	17.040
570.57	17.503
570.91	17.210
571.25	17.229
571.59	17.228
571.92	17.688
572.26	17.137
572.60	17.493
572.93	17.588
573.27	17.461
573.61	17.075
573.95	17.451
574.28	17.015
574.62	16.811
574.96	17.495
575.29	17.352
575.63	17.281
575.97	17.310
576.30	17.043
576.64	17.291
576.98	16.877
577.31	16.962
577.65	17.075
577.98	16.780
578.32	16.694
578.66	16.685
578.99	17.254
579.33	16.967
579.67	17.133
580.00	16.621
580.34	16.893
580.67	16.610
581.01	17.257
581.35	16.948
581.68	17.263
582.02	16.631
582.35	16.409
582.69	16.541
583.02	16.600
583.36	16.914
583.70	16.654
584.03	16.986
584.37	16.448
584.70	16.991
585.04	16.902
585.37	16.598
585.71	17.028
586.04	17.143
586.38	16.548
586.72	16.802
587.05	17.287
587.39	17.649
587.72	17.234
588.06	16.744
588.39	16.821
588.73	17.118
589.06	16.683
589.40	16.821
589.73	16.780
590.07	17.135
590.40	16.888
590.73	17.788
591.07	17.217
591.40	17.304
591.74	18.408
592.07	17.983
592.41	17.761
592.74	17.554
593.08	16.957
593.41	17.630
593.75	17.087
594.08	17.064
594.41	17.258
594.75	17.316
595.08	18.223
595.42	16.822
595.75	17.245
596.09	17.860
596.42	17.729
596.75	18.078
597.09	17.971
597.42	17.676
597.75	18.000
598.09	18.397
598.42	18.031
598.76	18.136
599.09	17.407
599.42	17.674
599.76	17.724
600.09	17.357
600.42	17.853
600.76	17.923
601.09	17.702
601.42	17.758
601.76	17.683
602.09	17.430
602.42	18.324
602.76	17.282
603.09	17.864
603.42	17.073
603.76	17.264
604.09	17.510
604.42	17.329
604.76	18.202
605.09	17.716
605.42	18.219
605.75	17.602
606.09	17.343
606.42	18.329
606.75	17.662
607.09	17.287
607.42	17.644
607.75	16.980
608.08	18.305
608.42	17.385
608.75	18.299
609.08	18.422
609.41	18.132
609.75	18.356
610.08	17.702
610.41	17.493
610.74	18.335
611.07	17.836
611.41	18.526
611.74	17.961
612.07	17.561
612.40	18.270
612.73	17.892
613.07	18.016
613.40	18.833
613.73	18.310
614.06	18.519
614.39	18.566
614.72	19.156
615.06	18.667
615.39	18.653
615.72	17.981
616.05	18.637
616.38	18.099
616.71	18.356
617.05	18.980
617.38	18.731
617.71	17.525
618.04	17.063
618.37	18.675
618.70	19.017
619.03	17.595
619.36	18.932
619.69	18.202
620.03	18.657
620.36	18.441
620.69	18.344
621.02	18.308
621.35	18.070
621.68	18.745
622.01	19.094
622.34	18.715
622.67	18.794
623.00	18.769
623.33	18.325
623.66	18.513
623.99	18.905
624.32	18.415
624.65	20.104
624.99	18.589
625.32	18.895
625.65	18.140
625.98	18.799
626.31	19.020
626.64	19.776
626.97	19.810
627.30	18.991
627.63	18.426
627.96	19.048
628.29	20.093
628.62	20.116
628.95	20.541
629.28	18.916
629.61	20.191
629.94	20.503
630.26	20.394
630.59	18.182
630.92	19.076
631.25	20.906
631.58	20.236
631.91	19.300
632.24	19.100
632.57	17.889
