SpectraSuite Data File
++++++++++++++++++++++++++++++++++++
Date: Wed May 13 21:45:11 PDT 2015
User: schluterlab
Dark Spectrum Present: Yes
Reference Spectrum Present: Yes
Number of Sampled Component Spectra: 1
Spectrometers: USB2E3373
Integration Time (usec): 3000 (USB2E3373)
Spectra Averaged: 3 (USB2E3373)
Boxcar Smoothing: 0 (USB2E3373)
Correct for Electrical Dark: No (USB2E3373)
Strobe/Lamp Enabled: No (USB2E3373)
Correct for Detector Non-linearity: No (USB2E3373)
Correct for Stray Light: No (USB2E3373)
Number of Pixels in Processed Spectrum: 2048
>>>>>Begin Processed Spectral Data<<<<<
178.53	0.000
178.91	500.000
179.29	175.000
179.67	-300.000
180.04	-233.333
180.42	120.000
180.80	900.000
181.18	283.333
181.56	-350.000
181.94	-375.000
182.31	-45.455
182.69	115.385
183.07	20.000
183.45	383.333
183.83	122.222
184.20	42.857
184.58	-266.667
184.96	266.667
185.34	157.143
185.72	0.000
186.09	-300.000
186.47	-20.000
186.85	100.000
187.23	-250.000
187.61	450.000
187.98	1100.000
188.36	25.000
188.74	0.000
189.12	-36.364
189.49	100.000
189.87	133.333
190.25	260.000
190.63	400.000
191.00	-160.000
191.38	200.000
191.76	225.000
192.14	183.333
192.51	5.263
192.89	400.000
193.27	175.000
193.65	-180.000
194.02	127.273
194.40	190.000
194.78	-200.000
195.15	340.000
195.53	-220.000
195.91	-62.500
196.29	-100.000
196.66	0.000
197.04	250.000
197.42	0.000
197.79	-30.000
198.17	-37.500
198.55	-200.000
198.92	75.000
199.30	-133.333
199.68	30.000
200.05	250.000
200.43	83.333
200.81	-1900.000
201.18	-220.000
201.56	33.333
201.94	675.000
202.31	-4.348
202.69	0.000
203.07	-466.667
203.44	-40.000
203.82	-200.000
204.19	-130.000
204.57	0.000
204.95	-166.667
205.32	0.000
205.70	-600.000
206.08	-475.000
206.45	-166.667
206.83	425.000
207.20	33.333
207.58	-90.000
207.96	-1600.000
208.33	-242.857
208.71	-600.000
209.08	237.500
209.46	375.000
209.84	0.000
210.21	190.000
210.59	1300.000
210.96	340.000
211.34	700.000
211.71	-800.000
212.09	33.333
212.46	-130.000
212.84	-366.667
213.22	100.000
213.59	-1200.000
213.97	-550.000
214.34	-1100.000
214.72	15.385
215.09	175.000
215.47	88.889
215.84	450.000
216.22	-137.500
216.59	-200.000
216.97	633.333
217.34	233.333
217.72	0.000
218.09	366.667
218.47	-500.000
218.84	-28.571
219.22	-200.000
219.59	-300.000
219.97	-125.000
220.34	150.000
220.72	-160.000
221.09	0.000
221.47	-266.667
221.84	-200.000
222.22	0.000
222.59	1400.000
222.97	-400.000
223.34	-25.000
223.72	-700.000
224.09	-650.000
224.46	-45.455
224.84	75.000
225.21	-214.286
225.59	-150.000
225.96	0.000
226.34	-10.000
226.71	-185.714
227.08	300.000
227.46	-137.500
227.83	0.000
228.21	-18.750
228.58	-275.000
228.95	0.000
229.33	-62.500
229.70	-200.000
230.08	-23.077
230.45	-125.000
230.82	-66.667
231.20	157.143
231.57	-300.000
231.95	700.000
232.32	41.667
232.69	35.294
233.07	-900.000
233.44	-47.826
233.81	-750.000
234.19	-20.833
234.56	-80.000
234.93	-26.667
235.31	-5.263
235.68	-61.538
236.05	-30.769
236.43	-44.444
236.80	-9.091
237.17	-140.000
237.55	-82.353
237.92	-58.621
238.29	-62.963
238.67	-22.222
239.04	-41.935
239.41	-12.766
239.79	12.766
240.16	-16.279
240.53	0.000
240.91	-1.786
241.28	-23.214
241.65	16.129
242.02	-11.842
242.40	10.145
242.77	-4.348
243.14	-24.359
243.51	-22.340
243.89	-13.462
244.26	6.604
244.63	-12.500
245.00	5.208
245.38	-5.042
245.75	0.000
246.12	0.000
246.49	-12.195
246.87	-10.084
247.24	5.405
247.61	-6.623
247.98	-1.282
248.36	-5.917
248.73	-11.798
249.10	0.000
249.47	-4.301
249.84	-4.737
250.22	-3.483
250.59	-1.402
250.96	2.273
251.33	-4.785
251.70	1.255
252.08	-1.674
252.45	1.235
252.82	1.521
253.19	-0.389
253.56	-1.439
253.94	2.491
254.31	-1.761
254.68	2.013
255.05	0.000
255.42	-0.699
255.79	-0.613
256.16	5.047
256.54	1.587
256.91	1.266
257.28	1.572
257.65	-3.185
258.02	-1.466
258.39	4.094
258.76	0.291
259.14	-1.705
259.51	-2.247
259.88	3.252
260.25	-1.944
260.62	-3.090
260.99	2.122
261.36	3.368
261.73	0.247
262.10	-1.018
262.47	0.988
262.85	-1.244
263.22	0.256
263.59	-0.260
263.96	3.406
264.33	-0.481
264.70	0.465
265.07	1.157
265.44	2.069
265.81	0.000
266.18	-0.683
266.55	-0.873
266.92	-0.424
267.29	2.881
267.66	2.548
268.03	2.263
268.40	-1.271
268.77	1.446
269.14	0.816
269.51	6.366
269.88	-0.611
270.25	0.636
270.62	-1.025
270.99	2.559
271.36	-0.794
271.73	1.807
272.10	2.095
272.47	1.919
272.84	2.165
273.21	0.783
273.58	-0.615
273.95	0.566
274.32	0.187
274.69	0.546
275.06	2.297
275.43	1.883
275.80	1.241
276.17	0.368
276.54	1.776
276.91	0.000
277.28	-1.083
277.65	1.573
278.02	1.964
278.39	-0.178
278.76	0.836
279.13	0.515
279.50	0.000
279.87	0.181
280.23	0.000
280.60	-0.346
280.97	1.786
281.34	3.628
281.71	-0.488
282.08	2.051
282.45	0.492
282.82	1.278
283.19	3.659
283.56	1.406
283.92	1.223
284.29	1.404
284.66	-0.659
285.03	-0.977
285.40	1.360
285.77	2.252
286.14	1.976
286.51	2.249
286.87	-0.462
287.24	1.327
287.61	0.301
287.98	0.882
288.35	-1.043
288.72	2.009
289.08	2.422
289.45	2.203
289.82	2.269
290.19	1.403
290.56	1.989
290.93	1.381
291.29	-0.547
291.66	0.820
292.03	1.499
292.40	1.480
292.77	1.071
293.13	0.697
293.50	0.261
293.87	2.400
294.24	1.058
294.60	1.300
294.97	2.381
295.34	1.319
295.71	-1.577
296.08	0.785
296.44	0.638
296.81	1.096
297.18	2.125
297.55	1.769
297.91	1.242
298.28	1.211
298.65	1.478
299.02	2.564
299.38	1.227
299.75	0.841
300.12	0.116
300.48	1.170
300.85	1.270
301.22	1.510
301.59	1.174
301.95	0.232
302.32	1.400
302.69	0.339
303.05	0.775
303.42	1.250
303.79	2.839
304.15	1.862
304.52	1.935
304.89	0.775
305.25	0.329
305.62	0.759
305.99	0.326
306.35	1.672
306.72	2.340
307.09	1.773
307.45	1.065
307.82	0.737
308.19	0.104
308.55	1.740
308.92	2.652
309.29	0.501
309.65	0.999
310.02	1.491
310.38	1.626
310.75	2.071
311.12	0.680
311.48	1.088
311.85	2.657
312.22	1.354
312.58	1.159
312.95	1.692
313.31	2.388
313.68	2.195
314.05	2.741
314.41	3.170
314.78	2.657
315.14	2.870
315.51	2.379
315.87	3.151
316.24	3.122
316.61	3.196
316.97	2.870
317.34	2.139
317.70	3.390
318.07	3.283
318.43	2.800
318.80	2.792
319.16	2.653
319.53	2.330
319.89	1.987
320.26	2.773
320.62	3.244
320.99	2.229
321.35	1.871
321.72	4.139
322.08	3.690
322.45	2.960
322.81	3.974
323.18	3.131
323.54	2.617
323.91	4.607
324.27	3.240
324.64	2.962
325.00	3.325
325.37	4.010
325.73	3.956
326.10	2.944
326.46	4.515
326.83	3.479
327.19	3.496
327.56	3.546
327.92	4.264
328.29	5.259
328.65	5.259
329.01	3.694
329.38	4.783
329.74	5.150
330.11	3.156
330.47	2.691
330.84	3.520
331.20	4.611
331.56	2.899
331.93	4.565
332.29	4.605
332.66	3.644
333.02	5.560
333.38	4.123
333.75	3.840
334.11	4.688
334.48	4.272
334.84	3.710
335.20	4.117
335.57	4.091
335.93	4.210
336.29	2.890
336.66	4.103
337.02	3.478
337.38	4.526
337.75	3.531
338.11	3.843
338.47	3.853
338.84	4.210
339.20	4.850
339.56	3.669
339.93	3.976
340.29	3.587
340.65	3.251
341.02	4.326
341.38	3.378
341.74	2.689
342.11	4.129
342.47	2.678
342.83	3.676
343.20	3.299
343.56	4.007
343.92	3.656
344.28	3.409
344.65	2.694
345.01	3.632
345.37	3.865
345.73	4.902
346.10	3.451
346.46	3.089
346.82	3.451
347.19	3.797
347.55	3.312
347.91	3.507
348.27	3.076
348.63	3.766
349.00	2.987
349.36	3.532
349.72	4.176
350.08	3.978
350.45	3.759
350.81	3.443
351.17	4.003
351.53	3.928
351.89	2.939
352.26	2.394
352.62	3.566
352.98	2.636
353.34	2.738
353.70	3.816
354.07	2.980
354.43	3.266
354.79	2.724
355.15	3.183
355.51	3.417
355.87	4.066
356.24	1.766
356.60	3.127
356.96	2.840
357.32	4.025
357.68	3.056
358.04	4.189
358.40	3.566
358.77	2.829
359.13	3.035
359.49	3.709
359.85	3.184
360.21	3.315
360.57	2.738
360.93	2.580
361.29	3.183
361.66	3.417
362.02	2.965
362.38	3.397
362.74	2.973
363.10	3.688
363.46	3.098
363.82	3.326
364.18	3.263
364.54	3.282
364.90	2.857
365.26	2.902
365.62	3.125
365.98	2.989
366.35	3.475
366.71	2.710
367.07	2.977
367.43	2.718
367.79	2.710
368.15	3.657
368.51	2.532
368.87	3.419
369.23	2.989
369.59	3.242
369.95	2.758
370.31	3.208
370.67	3.548
371.03	3.860
371.39	3.407
371.75	2.929
372.11	2.849
372.47	3.389
372.83	3.051
373.19	2.806
373.55	3.251
373.91	3.465
374.27	2.697
374.63	3.627
374.99	3.412
375.35	3.425
375.71	2.785
376.07	3.838
376.42	3.743
376.78	4.293
377.14	3.593
377.50	3.064
377.86	3.054
378.22	3.034
378.58	2.837
378.94	4.187
379.30	3.435
379.66	3.576
380.02	3.493
380.38	3.012
380.74	3.646
381.09	3.920
381.45	3.144
381.81	3.389
382.17	3.466
382.53	3.754
382.89	3.438
383.25	3.086
383.61	4.479
383.97	3.750
384.32	2.899
384.68	2.838
385.04	2.810
385.40	3.549
385.76	3.954
386.12	3.744
386.48	3.448
386.83	3.442
387.19	3.701
387.55	3.740
387.91	3.567
388.27	3.268
388.62	3.620
388.98	3.379
389.34	2.945
389.70	3.602
390.06	3.750
390.42	4.059
390.77	3.652
391.13	3.535
391.49	2.657
391.85	3.003
392.20	4.073
392.56	3.619
392.92	3.218
393.28	3.428
393.64	3.119
393.99	3.488
394.35	4.012
394.71	3.910
395.07	2.390
395.42	3.413
395.78	3.346
396.14	3.234
396.50	3.171
396.85	4.270
397.21	3.246
397.57	2.795
397.92	3.533
398.28	3.553
398.64	3.279
399.00	3.739
399.35	3.746
399.71	2.912
400.07	2.711
400.42	3.135
400.78	3.202
401.14	2.575
401.49	2.816
401.85	3.440
402.21	2.910
402.57	4.231
402.92	3.630
403.28	3.252
403.63	3.720
403.99	3.519
404.35	3.304
404.70	3.444
405.06	2.936
405.42	2.450
405.77	2.592
406.13	3.143
406.49	2.516
406.84	3.175
407.20	3.493
407.55	2.727
407.91	2.978
408.27	3.369
408.62	3.867
408.98	2.836
409.34	2.661
409.69	2.924
410.05	3.047
410.40	2.617
410.76	3.189
411.11	3.607
411.47	3.716
411.83	2.870
412.18	3.401
412.54	3.759
412.89	2.633
413.25	3.304
413.60	2.821
413.96	2.996
414.31	3.514
414.67	3.492
415.03	3.112
415.38	2.840
415.74	3.054
416.09	3.569
416.45	3.076
416.80	2.483
417.16	2.969
417.51	3.818
417.87	2.910
418.22	2.650
418.58	2.300
418.93	3.202
419.29	3.234
419.64	3.626
420.00	3.556
420.35	4.005
420.71	2.620
421.06	3.567
421.42	3.589
421.77	3.006
422.12	3.782
422.48	2.999
422.83	3.308
423.19	3.048
423.54	3.769
423.90	2.672
424.25	3.871
424.61	3.820
424.96	2.898
425.31	3.365
425.67	3.116
426.02	4.122
426.38	3.856
426.73	2.871
427.09	3.002
427.44	3.406
427.79	3.207
428.15	3.242
428.50	3.263
428.85	3.752
429.21	3.264
429.56	4.038
429.92	3.696
430.27	3.374
430.62	3.620
430.98	4.389
431.33	3.385
431.68	4.100
432.04	4.225
432.39	3.753
432.74	2.636
433.10	3.777
433.45	3.432
433.80	3.621
434.16	3.441
434.51	3.370
434.86	3.004
435.22	2.716
435.57	3.317
435.92	3.438
436.28	3.483
436.63	4.157
436.98	3.878
437.34	3.663
437.69	2.774
438.04	3.169
438.39	3.736
438.75	2.920
439.10	4.049
439.45	3.087
439.81	3.448
440.16	3.826
440.51	3.686
440.86	4.446
441.22	4.188
441.57	3.633
441.92	4.458
442.27	3.301
442.63	3.606
442.98	3.009
443.33	3.386
443.68	3.057
444.03	4.173
444.39	3.520
444.74	3.203
445.09	3.524
445.44	4.732
445.79	3.201
446.15	4.160
446.50	4.075
446.85	3.528
447.20	4.548
447.55	3.302
447.91	3.764
448.26	3.888
448.61	3.797
448.96	4.043
449.31	4.455
449.66	3.933
450.02	4.264
450.37	3.995
450.72	3.330
451.07	3.762
451.42	3.306
451.77	4.017
452.12	3.624
452.47	3.744
452.83	3.538
453.18	4.137
453.53	3.594
453.88	3.916
454.23	3.523
454.58	3.922
454.93	4.169
455.28	4.432
455.63	3.057
455.98	3.287
456.34	2.670
456.69	4.345
457.04	3.591
457.39	3.848
457.74	3.291
458.09	3.377
458.44	3.760
458.79	4.174
459.14	3.820
459.49	3.780
459.84	3.213
460.19	3.061
460.54	3.710
460.89	3.660
461.24	3.884
461.59	3.684
461.94	4.298
462.29	2.941
462.64	3.430
462.99	4.024
463.34	3.867
463.69	3.866
464.04	3.061
464.39	3.417
464.74	3.747
465.09	3.410
465.44	4.882
465.79	4.543
466.14	3.364
466.49	3.284
466.84	3.945
467.19	3.248
467.54	4.796
467.89	4.274
468.24	3.934
468.59	3.633
468.94	4.278
469.29	3.966
469.64	3.766
469.99	4.621
470.34	3.574
470.68	3.123
471.03	3.808
471.38	3.825
471.73	3.772
472.08	3.711
472.43	4.485
472.78	4.260
473.13	4.090
473.48	3.653
473.83	3.704
474.17	2.865
474.52	3.625
474.87	3.257
475.22	3.925
475.57	4.016
475.92	4.144
476.27	3.147
476.61	4.304
476.96	3.541
477.31	3.937
477.66	4.181
478.01	3.132
478.36	3.651
478.70	4.243
479.05	4.828
479.40	3.692
479.75	3.507
480.10	3.876
480.45	3.678
480.79	4.181
481.14	4.103
481.49	4.489
481.84	3.582
482.19	4.354
482.53	3.714
482.88	4.219
483.23	3.465
483.58	4.206
483.92	3.502
484.27	4.026
484.62	3.462
484.97	3.691
485.31	4.067
485.66	3.971
486.01	3.929
486.36	3.751
486.70	3.652
487.05	4.042
487.40	3.889
487.75	3.905
488.09	3.847
488.44	3.785
488.79	4.504
489.13	4.374
489.48	4.062
489.83	4.198
490.17	4.222
490.52	4.021
490.87	3.987
491.22	4.004
491.56	4.792
491.91	4.033
492.26	3.675
492.60	4.377
492.95	3.936
493.30	3.828
493.64	4.125
493.99	4.396
494.34	3.998
494.68	3.771
495.03	2.866
495.37	4.185
495.72	3.960
496.07	3.653
496.41	3.978
496.76	4.479
497.11	3.803
497.45	4.037
497.80	4.594
498.14	4.332
498.49	3.732
498.84	3.644
499.18	4.131
499.53	3.693
499.87	3.202
500.22	3.932
500.56	4.463
500.91	4.125
501.26	4.335
501.60	3.725
501.95	3.546
502.29	3.786
502.64	4.870
502.98	4.287
503.33	4.331
503.67	4.333
504.02	3.529
504.36	3.913
504.71	3.201
505.06	4.228
505.40	3.711
505.75	4.069
506.09	4.343
506.44	3.982
506.78	4.165
507.13	4.886
507.47	4.083
507.82	3.349
508.16	4.380
508.51	3.564
508.85	3.784
509.19	3.439
509.54	4.504
509.88	3.978
510.23	3.947
510.57	4.290
510.92	4.310
511.26	4.070
511.61	3.732
511.95	4.355
512.30	3.665
512.64	4.824
512.98	4.598
513.33	4.000
513.67	3.748
514.02	4.504
514.36	4.382
514.70	3.753
515.05	4.564
515.39	4.481
515.74	4.500
516.08	4.012
516.42	4.205
516.77	4.335
517.11	3.939
517.46	4.622
517.80	4.722
518.14	4.042
518.49	4.641
518.83	4.117
519.17	3.855
519.52	4.041
519.86	3.825
520.20	3.396
520.55	5.286
520.89	3.732
521.23	4.615
521.58	4.867
521.92	4.085
522.26	4.099
522.61	4.008
522.95	4.469
523.29	4.444
523.64	4.832
523.98	3.558
524.32	4.096
524.66	3.896
525.01	4.653
525.35	3.818
525.69	3.512
526.04	3.909
526.38	4.334
526.72	3.945
527.06	4.771
527.41	3.177
527.75	4.473
528.09	3.948
528.43	4.342
528.78	4.070
529.12	3.816
529.46	4.159
529.80	4.466
530.15	3.990
530.49	3.369
530.83	3.318
531.17	4.315
531.51	4.450
531.86	3.930
532.20	3.584
532.54	3.310
532.88	4.152
533.22	4.916
533.57	4.040
533.91	4.516
534.25	4.492
534.59	3.861
534.93	3.890
535.27	4.268
535.62	3.618
535.96	4.099
536.30	5.253
536.64	3.759
536.98	3.224
537.32	3.843
537.66	4.161
538.01	4.161
538.35	4.006
538.69	4.013
539.03	4.765
539.37	3.353
539.71	4.093
540.05	3.441
540.39	3.716
540.73	4.120
541.07	4.286
541.42	4.512
541.76	3.924
542.10	3.385
542.44	3.326
542.78	4.025
543.12	3.639
543.46	4.216
543.80	3.802
544.14	4.474
544.48	3.583
544.82	4.035
545.16	2.772
545.50	4.456
545.84	3.296
546.18	4.067
546.52	4.446
546.86	2.898
547.20	2.859
547.54	3.360
547.88	4.251
548.22	4.169
548.56	3.602
548.90	2.706
549.24	4.792
549.58	3.416
549.92	3.668
550.26	5.609
550.60	4.354
550.94	3.358
551.28	3.634
551.62	4.436
551.96	4.100
552.30	3.493
552.64	3.531
552.98	4.190
553.32	4.542
553.66	3.888
554.00	3.600
554.34	3.150
554.68	3.654
555.02	3.443
555.36	3.858
555.69	3.423
556.03	3.645
556.37	3.983
556.71	4.064
557.05	3.985
557.39	3.919
557.73	4.614
558.07	3.542
558.41	3.482
558.75	4.619
559.08	3.609
559.42	4.327
559.76	4.205
560.10	3.536
560.44	3.758
560.78	3.453
561.12	3.574
561.45	4.286
561.79	4.195
562.13	3.165
562.47	3.929
562.81	3.824
563.15	3.754
563.48	3.579
563.82	4.309
564.16	4.198
564.50	4.138
564.84	3.108
565.17	4.437
565.51	3.275
565.85	2.798
566.19	4.172
566.52	3.670
566.86	3.856
567.20	4.643
567.54	3.972
567.88	3.247
568.21	3.911
568.55	3.965
568.89	3.240
569.23	3.621
569.56	3.713
569.90	3.988
570.24	3.141
570.57	3.889
570.91	3.862
571.25	3.503
571.59	3.488
571.92	3.608
572.26	3.534
572.60	3.727
572.93	3.405
573.27	3.705
573.61	3.686
573.95	3.702
574.28	3.506
574.62	3.579
574.96	3.814
575.29	3.661
575.63	3.372
575.97	3.696
576.30	3.249
576.64	3.249
576.98	3.431
577.31	3.916
577.65	3.424
577.98	3.497
578.32	3.494
578.66	3.772
578.99	3.568
579.33	3.923
579.67	3.513
580.00	3.503
580.34	3.345
580.67	3.699
581.01	3.405
581.35	3.694
581.68	3.615
582.02	3.640
582.35	3.528
582.69	3.498
583.02	3.649
583.36	3.510
583.70	3.721
584.03	3.990
584.37	3.579
584.70	3.728
585.04	3.705
585.37	3.426
585.71	3.666
586.04	3.383
586.38	3.315
586.72	3.653
587.05	3.807
587.39	3.421
587.72	3.537
588.06	3.529
588.39	3.946
588.73	3.700
589.06	3.395
589.40	3.165
589.73	2.695
590.07	3.390
590.40	3.559
590.73	4.052
591.07	4.179
591.40	3.522
591.74	3.691
592.07	3.651
592.41	3.132
592.74	3.897
593.08	3.453
593.41	3.436
593.75	3.295
594.08	3.420
594.41	3.035
594.75	3.748
595.08	3.622
595.42	3.436
595.75	3.615
596.09	3.387
596.42	3.350
596.75	3.203
597.09	4.322
597.42	3.589
597.75	3.822
598.09	3.506
598.42	4.161
598.76	3.023
599.09	3.842
599.42	3.474
599.76	3.530
600.09	3.539
600.42	3.842
600.76	3.215
601.09	3.503
601.42	3.410
601.76	3.629
602.09	3.851
602.42	3.921
602.76	3.314
603.09	3.491
603.42	3.639
603.76	3.741
604.09	3.715
604.42	2.972
604.76	3.492
605.09	3.942
605.42	4.184
605.75	2.698
606.09	3.104
606.42	3.990
606.75	3.074
607.09	3.679
607.42	3.503
607.75	3.020
608.08	3.922
608.42	3.702
608.75	3.583
609.08	4.018
609.41	4.223
609.75	3.127
610.08	3.945
610.41	3.256
610.74	3.417
611.07	3.707
611.41	4.043
611.74	3.468
612.07	4.013
612.40	3.892
612.73	3.897
613.07	3.437
613.40	3.634
613.73	3.954
614.06	3.648
614.39	3.335
614.72	4.220
615.06	3.444
615.39	3.311
615.72	3.456
616.05	2.365
616.38	3.952
616.71	2.999
617.05	3.624
617.38	4.251
617.71	2.941
618.04	3.413
618.37	3.218
618.70	3.558
619.03	3.368
619.36	3.132
619.69	3.582
620.03	3.534
620.36	3.201
620.69	3.069
621.02	3.462
621.35	2.698
621.68	3.341
622.01	3.155
622.34	3.886
622.67	4.072
623.00	3.343
623.33	3.740
623.66	3.048
623.99	4.501
624.32	3.962
624.65	3.338
624.99	3.821
625.32	3.286
625.65	3.333
625.98	3.555
626.31	3.184
626.64	3.095
626.97	3.806
627.30	4.619
627.63	2.941
627.96	2.944
628.29	3.721
628.62	4.255
628.95	3.206
629.28	2.562
629.61	4.498
629.94	2.611
630.26	3.941
630.59	4.196
630.92	3.715
631.25	3.399
631.58	4.604
631.91	2.545
632.24	3.074
632.57	3.222
632.90	3.151
633.23	1.199
633.56	3.957
633.89	2.751
634.22	5.771
634.55	4.263
634.88	3.431
635.20	4.625
635.53	1.938
635.86	3.462
636.19	3.970
636.52	3.902
636.85	3.378
637.18	2.071
637.51	4.869
637.83	4.569
638.16	3.200
638.49	2.670
638.82	3.529
639.15	3.457
639.48	3.610
639.81	2.778
640.13	3.239
640.46	4.661
640.79	1.583
641.12	0.444
641.45	3.639
641.77	3.240
642.10	4.841
642.43	3.459
642.76	4.101
643.09	3.514
643.41	2.392
643.74	3.716
644.07	1.294
644.40	4.643
644.73	2.881
645.05	0.524
645.38	4.319
645.71	3.401
646.04	1.684
646.36	3.993
646.69	2.448
647.02	3.643
647.35	4.753
647.67	2.957
648.00	2.174
648.33	3.220
648.66	2.003
648.98	3.571
649.31	3.221
649.64	2.191
649.96	4.423
650.29	1.471
650.62	3.295
650.94	2.586
651.27	2.650
651.60	3.147
651.92	3.405
652.25	3.350
652.58	3.135
652.90	2.862
653.23	0.679
653.56	2.314
653.88	2.218
654.21	1.365
654.54	1.993
654.86	1.138
655.19	1.681
655.52	4.449
655.84	2.938
656.17	3.400
656.49	4.569
656.82	4.774
657.15	3.641
