SpectraSuite Data File
++++++++++++++++++++++++++++++++++++
Date: Wed May 13 21:52:21 PDT 2015
User: schluterlab
Dark Spectrum Present: Yes
Reference Spectrum Present: Yes
Number of Sampled Component Spectra: 1
Spectrometers: USB2E3373
Integration Time (usec): 3000 (USB2E3373)
Spectra Averaged: 3 (USB2E3373)
Boxcar Smoothing: 0 (USB2E3373)
Correct for Electrical Dark: No (USB2E3373)
Strobe/Lamp Enabled: No (USB2E3373)
Correct for Detector Non-linearity: No (USB2E3373)
Correct for Stray Light: No (USB2E3373)
Number of Pixels in Processed Spectrum: 2048
>>>>>Begin Processed Spectral Data<<<<<
178.53	0.000
178.91	650.000
179.29	158.333
179.67	-400.000
180.04	-633.333
180.42	260.000
180.80	900.000
181.18	283.333
181.56	-450.000
181.94	-450.000
182.31	-18.182
182.69	84.615
183.07	-260.000
183.45	250.000
183.83	211.111
184.20	157.143
184.58	-266.667
184.96	533.333
185.34	257.143
185.72	0.000
186.09	-200.000
186.47	-240.000
186.85	320.000
187.23	-650.000
187.61	500.000
187.98	1300.000
188.36	-87.500
188.74	0.000
189.12	-109.091
189.49	30.000
189.87	133.333
190.25	100.000
190.63	1200.000
191.00	-280.000
191.38	160.000
191.76	575.000
192.14	150.000
192.51	-47.368
192.89	566.667
193.27	400.000
193.65	-220.000
194.02	209.091
194.40	240.000
194.78	-1200.000
195.15	260.000
195.53	-240.000
195.91	-75.000
196.29	-200.000
196.66	0.000
197.04	250.000
197.42	-100.000
197.79	-60.000
198.17	-162.500
198.55	-233.333
198.92	200.000
199.30	-500.000
199.68	30.000
200.05	300.000
200.43	333.333
200.81	-1700.000
201.18	-200.000
201.56	-183.333
201.94	550.000
202.31	-21.739
202.69	-257.143
203.07	-500.000
203.44	-160.000
203.82	-800.000
204.19	-30.000
204.57	0.000
204.95	-16.667
205.32	0.000
205.70	-550.000
206.08	-450.000
206.45	-233.333
206.83	475.000
207.20	-166.667
207.58	-110.000
207.96	-1900.000
208.33	-314.286
208.71	-1500.000
209.08	212.500
209.46	650.000
209.84	0.000
210.21	120.000
210.59	2700.000
210.96	320.000
211.34	1700.000
211.71	-900.000
212.09	-183.333
212.46	-230.000
212.84	-66.667
213.22	150.000
213.59	-1100.000
213.97	-400.000
214.34	-800.000
214.72	-69.231
215.09	237.500
215.47	133.333
215.84	1150.000
216.22	-100.000
216.59	-550.000
216.97	633.333
217.34	277.778
217.72	0.000
218.09	233.333
218.47	-600.000
218.84	-214.286
219.22	-112.500
219.59	-200.000
219.97	-250.000
220.34	-175.000
220.72	-320.000
221.09	0.000
221.47	-50.000
221.84	-400.000
222.22	0.000
222.59	1500.000
222.97	-366.667
223.34	-166.667
223.72	-2200.000
224.09	-850.000
224.46	-63.636
224.84	-112.500
225.21	-200.000
225.59	-475.000
225.96	-133.333
226.34	0.000
226.71	-214.286
227.08	800.000
227.46	-100.000
227.83	-100.000
228.21	-68.750
228.58	-600.000
228.95	-58.824
229.33	-75.000
229.70	-87.500
230.08	-107.692
230.45	-187.500
230.82	-91.667
231.20	300.000
231.57	-375.000
231.95	1000.000
232.32	-66.667
232.69	-82.353
233.07	-1200.000
233.44	17.391
233.81	-700.000
234.19	-20.833
234.56	-106.667
234.93	-26.667
235.31	-57.895
235.68	-23.077
236.05	-61.538
236.43	-50.000
236.80	-30.303
237.17	-60.000
237.55	-58.824
237.92	-31.034
238.29	-70.370
238.67	-38.889
239.04	-32.258
239.41	4.255
239.79	-2.128
240.16	-9.302
240.53	-16.071
240.91	14.286
241.28	16.071
241.65	19.355
242.02	-9.211
242.40	1.449
242.77	-11.594
243.14	7.692
243.51	5.319
243.89	9.615
244.26	18.868
244.63	7.692
245.00	6.250
245.38	8.403
245.75	17.213
246.12	10.526
246.49	4.878
246.87	9.244
247.24	15.541
247.61	9.934
247.98	19.231
248.36	18.935
248.73	15.730
249.10	10.606
249.47	17.742
249.84	12.105
250.22	16.915
250.59	11.215
250.96	17.273
251.33	12.919
251.70	21.757
252.08	17.992
252.45	18.519
252.82	16.730
253.19	16.732
253.56	16.187
253.94	16.726
254.31	17.606
254.68	19.799
255.05	17.162
255.42	17.133
255.79	18.405
256.16	16.404
256.54	18.095
256.91	12.658
257.28	18.868
257.65	19.745
258.02	18.475
258.39	18.713
258.76	15.698
259.14	21.591
259.51	18.258
259.88	18.157
260.25	16.389
260.62	19.944
260.99	20.424
261.36	19.948
261.73	19.753
262.10	19.593
262.47	15.309
262.85	18.905
263.22	20.256
263.59	21.299
263.96	18.735
264.33	18.029
264.70	20.698
265.07	19.907
265.44	19.540
265.81	18.307
266.18	19.590
266.55	17.031
266.92	16.102
267.29	19.753
267.66	21.019
268.03	20.165
268.40	20.127
268.77	17.975
269.14	20.408
269.51	20.945
269.88	18.737
270.25	20.127
270.62	19.672
270.99	17.520
271.36	17.262
271.73	22.490
272.10	20.190
272.47	16.891
272.84	20.866
273.21	19.569
273.58	20.902
273.95	21.321
274.32	19.776
274.69	20.401
275.06	21.025
275.43	19.962
275.80	19.504
276.17	20.810
276.54	17.584
276.91	19.686
277.28	18.412
277.65	20.979
278.02	20.893
278.39	19.361
278.76	18.395
279.13	20.755
279.50	20.345
279.87	19.565
280.23	19.640
280.60	19.377
280.97	19.968
281.34	20.347
281.71	18.537
282.08	18.462
282.45	20.656
282.82	20.447
283.19	19.360
283.56	20.000
283.92	20.336
284.29	18.721
284.66	19.110
285.03	17.752
285.40	19.335
285.77	19.369
286.14	19.605
286.51	21.739
286.87	18.769
287.24	19.174
287.61	20.482
287.98	19.412
288.35	18.480
288.72	19.225
289.08	19.516
289.45	19.383
289.82	17.398
290.19	19.495
290.56	16.903
290.93	16.989
291.29	18.605
291.66	17.486
292.03	19.210
292.40	19.112
292.77	18.072
293.13	17.294
293.50	20.392
293.87	19.200
294.24	18.651
294.60	19.246
294.97	20.370
295.34	16.755
295.71	14.980
296.08	15.576
296.44	17.730
296.81	17.783
297.18	17.125
297.55	18.750
297.91	19.130
298.28	18.886
298.65	18.103
299.02	20.024
299.38	16.810
299.75	18.630
300.12	17.442
300.48	18.246
300.85	17.436
301.22	18.002
301.59	19.601
301.95	18.699
302.32	17.503
302.69	18.644
303.05	17.829
303.42	18.864
303.79	19.453
304.15	17.196
304.52	19.140
304.89	19.048
305.25	17.783
305.62	19.740
305.99	18.063
306.35	20.376
306.72	20.346
307.09	19.395
307.45	20.341
307.82	19.895
308.19	18.913
308.55	19.243
308.92	22.299
309.29	20.521
309.65	21.079
310.02	22.068
310.38	19.715
310.75	20.118
311.12	21.866
311.48	21.167
311.85	22.638
312.22	21.663
312.58	22.319
312.95	22.886
313.31	23.691
313.68	23.282
314.05	23.913
314.41	24.111
314.78	25.142
315.14	24.259
315.51	24.453
315.87	25.950
316.24	27.181
316.61	26.027
316.97	25.278
317.34	25.312
317.70	28.635
318.07	26.797
318.43	27.733
318.80	26.789
319.16	26.083
319.53	28.047
319.89	27.823
320.26	28.373
320.62	29.194
320.99	29.845
321.35	28.531
321.72	29.259
322.08	29.797
322.45	30.990
322.81	30.869
323.18	30.233
323.54	32.401
323.91	32.069
324.27	33.483
324.64	33.362
325.00	33.333
325.37	33.618
325.73	33.165
326.10	34.567
326.46	35.033
326.83	33.900
327.19	35.285
327.56	36.100
327.92	35.076
328.29	36.561
328.65	38.212
329.01	36.324
329.38	37.217
329.74	37.082
330.11	37.872
330.47	35.330
330.84	37.906
331.20	38.002
331.56	38.678
331.93	38.329
332.29	37.706
332.66	38.983
333.02	37.185
333.38	37.632
333.75	37.031
334.11	37.240
334.48	39.146
334.84	38.163
335.20	38.165
335.57	38.294
335.93	37.715
336.29	38.792
336.66	38.120
337.02	38.174
337.38	38.642
337.75	37.812
338.11	36.550
338.47	37.158
338.84	37.543
339.20	37.654
339.56	37.031
339.93	38.807
340.29	36.465
340.65	38.666
341.02	36.772
341.38	38.007
341.74	37.479
342.11	36.829
342.47	37.573
342.83	36.111
343.20	38.409
343.56	38.921
343.92	37.368
344.28	37.256
344.65	38.367
345.01	36.481
345.37	38.487
345.73	37.745
346.10	36.677
346.46	37.886
346.82	36.677
347.19	36.551
347.55	37.237
347.91	36.399
348.27	37.697
348.63	37.340
349.00	37.579
349.36	36.578
349.72	37.819
350.08	36.583
350.45	37.275
350.81	37.480
351.17	36.490
351.53	35.742
351.89	36.855
352.26	36.062
352.62	35.969
352.98	37.300
353.34	36.795
353.70	36.760
354.07	36.078
354.43	36.081
354.79	36.939
355.15	37.500
355.51	37.054
355.87	37.373
356.24	36.597
356.60	36.122
356.96	36.224
357.32	36.920
357.68	36.211
358.04	36.928
358.40	36.744
358.77	36.544
359.13	37.043
359.49	37.169
359.85	35.557
360.21	37.394
360.57	34.905
360.93	37.557
361.29	38.490
361.66	37.130
362.02	36.249
362.38	36.263
362.74	36.113
363.10	36.298
363.46	35.447
363.82	36.364
364.18	35.968
364.54	36.616
364.90	37.143
365.26	37.084
365.62	36.506
365.98	35.730
366.35	37.234
366.71	35.949
367.07	36.428
367.43	35.610
367.79	37.109
368.15	37.060
368.51	34.669
368.87	36.776
369.23	35.872
369.59	34.884
369.95	36.139
370.31	35.356
370.67	34.540
371.03	35.932
371.39	35.344
371.75	35.214
372.11	35.897
372.47	35.833
372.83	35.090
373.19	36.403
373.55	35.910
373.91	36.139
374.27	34.924
374.63	36.202
374.99	33.844
375.35	35.479
375.71	32.745
376.07	35.641
376.42	35.762
376.78	36.063
377.14	35.525
377.50	35.984
377.86	35.193
378.22	36.094
378.58	35.057
378.94	35.625
379.30	35.228
379.66	34.155
380.02	35.172
380.38	35.060
380.74	36.043
381.09	35.585
381.45	34.160
381.81	36.291
382.17	34.089
382.53	34.769
382.89	34.017
383.25	35.309
383.61	35.714
383.97	35.250
384.32	34.216
384.68	33.745
385.04	33.842
385.40	34.682
385.76	33.637
386.12	34.926
386.48	33.542
386.83	33.542
387.19	34.670
387.55	34.151
387.91	34.748
388.27	33.477
388.62	33.645
388.98	34.230
389.34	34.900
389.70	33.394
390.06	32.875
390.42	34.665
390.77	33.120
391.13	34.154
391.49	32.448
391.85	32.971
392.20	33.772
392.56	33.270
392.92	32.534
393.28	33.295
393.64	33.150
393.99	32.619
394.35	32.469
394.71	33.269
395.07	31.698
395.42	33.090
395.78	33.076
396.14	31.516
396.50	32.086
396.85	32.059
397.21	31.461
397.57	31.491
397.92	31.677
398.28	32.769
398.64	32.119
399.00	31.306
399.35	32.066
399.71	31.741
400.07	31.446
400.42	32.226
400.78	31.601
401.14	31.637
401.49	31.336
401.85	31.450
402.21	31.393
402.57	31.330
402.92	30.914
403.28	31.832
403.63	30.874
403.99	31.478
404.35	31.297
404.70	29.970
405.06	30.945
405.42	31.156
405.77	30.127
406.13	29.714
406.49	30.497
406.84	30.769
407.20	29.959
407.55	31.558
407.91	30.973
408.27	29.445
408.62	30.694
408.98	30.025
409.34	29.579
409.69	31.254
410.05	30.348
410.40	30.067
410.76	31.408
411.11	28.296
411.47	30.856
411.83	30.381
412.18	30.038
412.54	30.576
412.89	29.843
413.25	28.909
413.60	30.219
413.96	29.338
414.31	29.038
414.67	29.968
415.03	29.973
415.38	29.855
415.74	30.084
416.09	29.213
416.45	29.323
416.80	28.926
417.16	29.420
417.51	28.935
417.87	29.960
418.22	29.864
418.58	29.172
418.93	30.132
419.29	30.429
419.64	28.562
420.00	30.413
420.35	28.811
420.71	29.677
421.06	29.274
421.42	30.109
421.77	29.538
422.12	29.685
422.48	29.716
422.83	29.947
423.19	30.707
423.54	29.682
423.90	29.276
424.25	30.040
424.61	30.314
424.96	30.278
425.31	29.052
425.67	30.394
426.02	30.506
426.38	29.478
426.73	29.688
427.09	30.269
427.44	29.947
427.79	28.860
428.15	29.908
428.50	29.849
428.85	30.258
429.21	29.994
429.56	30.181
429.92	30.349
430.27	29.857
430.62	29.801
430.98	30.619
431.33	30.091
431.68	30.405
432.04	29.577
432.39	30.312
432.74	29.614
433.10	31.493
433.45	30.651
433.80	30.172
434.16	30.912
434.51	30.272
434.86	31.449
435.22	30.956
435.57	30.160
435.92	31.001
436.28	30.150
436.63	30.600
436.98	29.083
437.34	30.403
437.69	30.638
438.04	30.900
438.39	31.445
438.75	30.632
439.10	30.827
439.45	30.630
439.81	31.404
440.16	31.362
440.51	31.688
440.86	30.646
441.22	30.350
441.57	31.020
441.92	31.882
442.27	30.898
442.63	31.270
442.98	30.845
443.33	30.643
443.68	30.047
444.03	30.601
444.39	30.987
444.74	30.646
445.09	30.231
445.44	32.394
445.79	30.976
446.15	31.392
446.50	30.727
446.85	31.267
447.20	31.417
447.55	31.505
447.91	31.517
448.26	30.646
448.61	30.840
448.96	31.207
449.31	30.611
449.66	30.654
450.02	30.017
450.37	31.492
450.72	31.171
451.07	31.348
451.42	30.193
451.77	30.676
452.12	30.422
452.47	32.279
452.83	30.130
453.18	32.018
453.53	31.021
453.88	31.325
454.23	30.841
454.58	31.801
454.93	31.302
455.28	32.306
455.63	31.129
455.98	32.623
456.34	31.214
456.69	30.863
457.04	31.269
457.39	30.848
457.74	32.136
458.09	30.332
458.44	31.140
458.79	30.807
459.14	31.236
459.49	30.793
459.84	30.722
460.19	30.972
460.54	30.718
460.89	31.194
461.24	31.134
461.59	30.495
461.94	31.163
462.29	31.924
462.64	31.266
462.99	31.992
463.34	31.354
463.69	30.412
464.04	30.972
464.39	30.933
464.74	30.958
465.09	30.812
465.44	30.808
465.79	30.822
466.14	30.616
466.49	31.496
466.84	31.441
467.19	31.529
467.54	32.145
467.89	31.741
468.24	32.329
468.59	31.039
468.94	30.907
469.29	32.452
469.64	31.241
469.99	32.000
470.34	31.693
470.68	30.558
471.03	31.453
471.38	30.250
471.73	31.619
472.08	31.821
472.43	31.464
472.78	32.387
473.13	30.013
473.48	31.050
473.83	31.890
474.17	31.250
474.52	30.939
474.87	31.846
475.22	30.616
475.57	30.396
475.92	31.080
476.27	31.235
476.61	30.861
476.96	31.068
477.31	31.931
477.66	31.073
478.01	30.275
478.36	31.499
478.70	31.257
479.05	31.021
479.40	30.317
479.75	31.615
480.10	30.240
480.45	29.769
480.79	31.160
481.14	31.054
481.49	30.538
481.84	29.972
482.19	30.245
482.53	29.476
482.88	30.345
483.23	30.703
483.58	31.427
483.92	30.253
484.27	29.643
484.62	29.916
484.97	30.112
485.31	29.290
485.66	27.469
486.01	27.312
486.36	27.443
486.70	28.058
487.05	28.801
487.40	28.954
487.75	29.543
488.09	28.902
488.44	30.669
488.79	30.356
489.13	30.616
489.48	30.098
489.83	30.862
490.17	30.776
490.52	31.697
490.87	29.856
491.22	31.276
491.56	31.097
491.91	30.053
492.26	30.077
492.60	30.640
492.95	31.244
493.30	30.669
493.64	29.400
493.99	30.531
494.34	30.925
494.68	30.692
495.03	30.632
495.37	30.024
495.72	30.426
496.07	30.833
496.41	30.182
496.76	30.347
497.11	30.376
497.45	31.566
497.80	31.550
498.14	30.932
498.49	29.501
498.84	29.960
499.18	30.363
499.53	29.887
499.87	30.956
500.22	30.911
500.56	30.592
500.91	31.690
501.26	30.197
501.60	30.196
501.95	30.091
502.29	29.466
502.64	30.521
502.98	30.250
503.33	31.144
503.67	30.282
504.02	30.294
504.36	29.965
504.71	30.589
505.06	30.413
505.40	30.722
505.75	31.689
506.09	29.535
506.44	30.544
506.78	29.964
507.13	30.925
507.47	31.018
507.82	29.984
508.16	32.032
508.51	29.959
508.85	30.171
509.19	31.164
509.54	31.475
509.88	30.806
510.23	30.263
510.57	30.403
510.92	30.765
511.26	31.463
511.61	30.187
511.95	30.650
512.30	30.927
512.64	30.647
512.98	30.416
513.33	30.648
513.67	31.459
514.02	30.958
514.36	29.944
514.70	31.293
515.05	32.241
515.39	30.837
515.74	31.439
516.08	30.914
516.42	30.876
516.77	30.814
517.11	30.511
517.46	31.092
517.80	31.901
518.14	30.680
518.49	30.802
518.83	31.146
519.17	31.386
519.52	31.242
519.86	31.330
520.20	30.564
520.55	31.032
520.89	31.815
521.23	32.115
521.58	31.922
521.92	31.804
522.26	31.685
522.61	31.997
522.95	31.477
523.29	30.857
523.64	31.723
523.98	31.449
524.32	30.498
524.66	31.883
525.01	31.062
525.35	30.941
525.69	32.339
526.04	31.270
526.38	30.402
526.72	30.638
527.06	30.690
527.41	29.848
527.75	30.908
528.09	31.586
528.43	32.225
528.78	30.039
529.12	31.565
529.46	30.902
529.80	30.291
530.15	30.695
530.49	30.997
530.83	30.467
531.17	30.890
531.51	29.872
531.86	31.233
532.20	31.151
532.54	29.931
532.88	31.110
533.22	30.505
533.57	30.331
533.91	30.452
534.25	31.445
534.59	29.730
534.93	30.485
535.27	29.745
535.62	30.526
535.96	29.798
536.30	30.120
536.64	30.212
536.98	30.203
537.32	30.676
537.66	31.171
538.01	29.958
538.35	29.834
538.69	29.498
539.03	28.591
539.37	28.907
539.71	30.832
540.05	30.364
540.39	30.007
540.73	29.539
541.07	29.864
541.42	29.966
541.76	29.364
542.10	28.571
542.44	29.037
542.78	29.424
543.12	29.515
543.46	28.818
543.80	29.803
544.14	28.975
544.48	28.666
544.82	28.917
545.16	28.803
545.50	29.237
545.84	30.224
546.18	29.804
546.52	29.358
546.86	29.187
547.20	28.592
547.54	29.664
547.88	29.285
548.22	28.795
548.56	28.419
548.90	28.890
549.24	29.722
549.58	28.754
549.92	30.961
550.26	30.627
550.60	29.204
550.94	29.403
551.28	29.750
551.62	30.075
551.96	29.136
552.30	29.112
552.64	28.249
552.98	28.906
553.32	30.065
553.66	29.714
554.00	29.446
554.34	28.791
554.68	30.350
555.02	29.266
555.36	29.501
555.69	27.968
556.03	29.092
556.37	28.734
556.71	28.872
557.05	30.627
557.39	28.787
557.73	29.425
558.07	29.992
558.41	29.599
558.75	29.561
559.08	29.912
559.42	29.111
559.76	29.511
560.10	29.362
560.44	30.435
560.78	28.201
561.12	28.031
561.45	28.435
561.79	28.542
562.13	28.551
562.47	29.714
562.81	28.860
563.15	28.258
563.48	27.323
563.82	28.317
564.16	29.045
564.50	29.172
564.84	28.176
565.17	29.139
565.51	28.275
565.85	26.849
566.19	28.411
566.52	27.851
566.86	27.181
567.20	27.856
567.54	26.713
567.88	25.476
568.21	26.344
568.55	25.769
568.89	25.872
569.23	25.481
569.56	25.365
569.90	25.268
570.24	23.502
570.57	24.599
570.91	23.901
571.25	23.726
571.59	23.542
571.92	23.233
572.26	23.909
572.60	23.406
572.93	23.586
573.27	23.656
573.61	23.524
573.95	23.242
574.28	23.176
574.62	22.636
574.96	23.130
575.29	22.818
575.63	22.972
575.97	23.234
576.30	23.265
576.64	22.845
576.98	23.310
577.31	22.883
577.65	22.531
577.98	22.305
578.32	22.497
578.66	22.548
578.99	23.099
579.33	22.764
579.67	22.632
580.00	22.559
580.34	22.637
580.67	22.856
581.01	22.435
581.35	21.958
581.68	21.863
582.02	21.910
582.35	22.069
582.69	22.106
583.02	22.780
583.36	22.992
583.70	22.530
584.03	22.782
584.37	22.787
584.70	23.249
585.04	22.923
585.37	22.600
585.71	22.817
586.04	22.657
586.38	22.599
586.72	22.759
587.05	22.532
587.39	23.323
587.72	23.005
588.06	22.654
588.39	22.978
588.73	22.653
589.06	23.375
589.40	23.701
589.73	22.997
590.07	23.879
590.40	23.211
590.73	23.703
591.07	24.572
591.40	24.261
591.74	23.655
592.07	24.601
592.41	24.196
592.74	23.071
593.08	22.427
593.41	22.993
593.75	23.030
594.08	23.316
594.41	23.510
594.75	23.613
595.08	23.749
595.42	22.763
595.75	23.066
596.09	23.133
596.42	23.284
596.75	24.441
597.09	24.659
597.42	24.585
597.75	23.378
598.09	23.634
598.42	24.519
598.76	23.468
599.09	23.649
599.42	23.338
599.76	24.033
600.09	23.381
600.42	23.013
600.76	22.653
601.09	23.277
601.42	23.599
601.76	23.127
602.09	24.159
602.42	23.442
602.76	23.784
603.09	24.025
603.42	22.591
603.76	23.071
604.09	23.439
604.42	23.064
604.76	23.963
605.09	24.513
605.42	24.336
605.75	22.398
606.09	22.848
606.42	23.940
606.75	23.074
607.09	23.670
607.42	23.468
607.75	22.626
608.08	24.527
608.42	23.899
608.75	23.602
609.08	23.371
609.41	24.193
609.75	23.601
610.08	24.408
610.41	23.810
610.74	23.773
611.07	24.850
611.41	24.258
611.74	24.068
612.07	24.283
612.40	24.919
612.73	24.094
613.07	24.557
613.40	25.275
613.73	24.160
614.06	25.041
614.39	24.069
614.72	24.653
615.06	24.444
615.39	24.448
615.72	24.568
616.05	24.887
616.38	23.597
616.71	24.595
617.05	24.631
617.38	24.646
617.71	23.958
618.04	24.680
618.37	24.479
618.70	25.226
619.03	24.536
619.36	24.911
619.69	25.146
620.03	24.523
620.36	24.565
620.69	24.911
621.02	25.077
621.35	25.511
621.68	26.243
622.01	25.485
622.34	26.249
622.67	25.294
623.00	25.152
623.33	25.131
623.66	24.387
623.99	26.257
624.32	25.092
624.65	24.926
624.99	24.173
625.32	25.243
625.65	25.659
625.98	25.513
626.31	25.388
626.64	27.515
626.97	25.346
627.30	26.262
627.63	26.557
627.96	25.455
628.29	27.628
628.62	28.530
628.95	27.655
629.28	26.897
629.61	27.656
629.94	27.369
630.26	26.995
630.59	25.974
630.92	27.309
631.25	26.056
631.58	27.516
631.91	26.935
