SpectraSuite Data File
++++++++++++++++++++++++++++++++++++
Date: Wed May 13 21:47:15 PDT 2015
User: schluterlab
Dark Spectrum Present: Yes
Reference Spectrum Present: Yes
Number of Sampled Component Spectra: 1
Spectrometers: USB2E3373
Integration Time (usec): 3000 (USB2E3373)
Spectra Averaged: 3 (USB2E3373)
Boxcar Smoothing: 0 (USB2E3373)
Correct for Electrical Dark: No (USB2E3373)
Strobe/Lamp Enabled: No (USB2E3373)
Correct for Detector Non-linearity: No (USB2E3373)
Correct for Stray Light: No (USB2E3373)
Number of Pixels in Processed Spectrum: 2048
>>>>>Begin Processed Spectral Data<<<<<
178.53	0.000
178.91	50.000
179.29	175.000
179.67	-350.000
180.04	-233.333
180.42	140.000
180.80	1400.000
181.18	233.333
181.56	-275.000
181.94	-200.000
182.31	-18.182
182.69	84.615
183.07	-160.000
183.45	283.333
183.83	122.222
184.20	228.571
184.58	-266.667
184.96	466.667
185.34	357.143
185.72	0.000
186.09	-700.000
186.47	-320.000
186.85	400.000
187.23	-300.000
187.61	400.000
187.98	500.000
188.36	-25.000
188.74	0.000
189.12	-18.182
189.49	10.000
189.87	116.667
190.25	200.000
190.63	300.000
191.00	-240.000
191.38	360.000
191.76	450.000
192.14	91.667
192.51	-36.842
192.89	300.000
193.27	475.000
193.65	-200.000
194.02	209.091
194.40	170.000
194.78	-800.000
195.15	300.000
195.53	-180.000
195.91	12.500
196.29	166.667
196.66	0.000
197.04	500.000
197.42	0.000
197.79	-90.000
198.17	-50.000
198.55	-166.667
198.92	100.000
199.30	-333.333
199.68	-20.000
200.05	600.000
200.43	200.000
200.81	-700.000
201.18	-140.000
201.56	-16.667
201.94	400.000
202.31	26.087
202.69	-185.714
203.07	-433.333
203.44	-80.000
203.82	-333.333
204.19	-70.000
204.57	0.000
204.95	-83.333
205.32	0.000
205.70	250.000
206.08	-350.000
206.45	-200.000
206.83	300.000
207.20	-366.667
207.58	0.000
207.96	-2200.000
208.33	-157.143
208.71	-1500.000
209.08	162.500
209.46	375.000
209.84	0.000
210.21	150.000
210.59	1300.000
210.96	260.000
211.34	-0.000
211.71	-750.000
212.09	-166.667
212.46	-140.000
212.84	33.333
213.22	25.000
213.59	-900.000
213.97	-450.000
214.34	-1200.000
214.72	-76.923
215.09	225.000
215.47	100.000
215.84	1100.000
216.22	-100.000
216.59	-600.000
216.97	400.000
217.34	55.556
217.72	0.000
218.09	400.000
218.47	-100.000
218.84	14.286
219.22	12.500
219.59	-200.000
219.97	-125.000
220.34	-137.500
220.72	-300.000
221.09	0.000
221.47	-266.667
221.84	-400.000
222.22	0.000
222.59	100.000
222.97	-300.000
223.34	-41.667
223.72	-1200.000
224.09	-500.000
224.46	-90.909
224.84	-12.500
225.21	-171.429
225.59	-600.000
225.96	-150.000
226.34	-20.000
226.71	-257.143
227.08	250.000
227.46	-37.500
227.83	-600.000
228.21	-75.000
228.58	-200.000
228.95	-41.176
229.33	18.750
229.70	-75.000
230.08	-46.154
230.45	-75.000
230.82	-41.667
231.20	185.714
231.57	-25.000
231.95	500.000
232.32	-50.000
232.69	-5.882
233.07	-1200.000
233.44	-34.783
233.81	-500.000
234.19	-4.167
234.56	-53.333
234.93	6.667
235.31	42.105
235.68	-46.154
236.05	-53.846
236.43	-5.556
236.80	27.273
237.17	-100.000
237.55	-117.647
237.92	-13.793
238.29	-22.222
238.67	-25.000
239.04	-16.129
239.41	10.638
239.79	29.787
240.16	-2.326
240.53	10.714
240.91	16.071
241.28	16.071
241.65	19.355
242.02	2.632
242.40	24.638
242.77	2.899
243.14	-3.846
243.51	23.404
243.89	12.500
244.26	20.755
244.63	17.308
245.00	21.875
245.38	26.050
245.75	21.311
246.12	20.301
246.49	10.569
246.87	10.084
247.24	20.270
247.61	26.490
247.98	18.590
248.36	13.018
248.73	19.101
249.10	18.182
249.47	22.581
249.84	20.000
250.22	18.905
250.59	17.757
250.96	20.909
251.33	15.789
251.70	24.686
252.08	17.573
252.45	20.988
252.82	20.913
253.19	21.401
253.56	20.863
253.94	25.979
254.31	21.127
254.68	22.483
255.05	20.792
255.42	18.881
255.79	21.472
256.16	22.713
256.54	21.587
256.91	18.671
257.28	19.811
257.65	21.019
258.02	21.701
258.39	22.807
258.76	18.314
259.14	20.455
259.51	21.629
259.88	21.680
260.25	23.611
260.62	19.944
260.99	22.546
261.36	22.798
261.73	19.506
262.10	19.338
262.47	21.235
262.85	19.154
263.22	20.513
263.59	21.299
263.96	16.788
264.33	18.750
264.70	21.860
265.07	18.287
265.44	22.069
265.81	19.908
266.18	21.185
266.55	20.524
266.92	16.949
267.29	21.811
267.66	23.567
268.03	21.193
268.40	18.432
268.77	22.934
269.14	22.245
269.51	22.382
269.88	18.941
270.25	22.246
270.62	19.467
270.99	21.654
271.36	22.222
271.73	22.490
272.10	19.238
272.47	23.800
272.84	23.031
273.21	19.178
273.58	19.467
273.95	17.925
274.32	20.336
274.69	20.765
275.06	22.085
275.43	21.657
275.80	23.050
276.17	22.284
276.54	19.893
276.91	20.383
277.28	20.758
277.65	20.804
278.02	21.607
278.39	20.604
278.76	20.903
279.13	19.383
279.50	20.000
279.87	21.920
280.23	20.541
280.60	21.453
280.97	20.455
281.34	21.767
281.71	20.650
282.08	21.197
282.45	21.148
282.82	21.565
283.19	19.970
283.56	21.250
283.92	20.948
284.29	20.437
284.66	20.428
285.03	19.707
285.40	20.393
285.77	19.369
286.14	18.845
286.51	20.990
286.87	20.769
287.24	20.059
287.61	21.536
287.98	22.059
288.35	18.033
288.72	20.947
289.08	21.225
289.45	20.264
289.82	19.365
290.19	19.355
290.56	19.744
290.93	19.613
291.29	19.699
291.66	20.902
292.03	20.163
292.40	18.439
292.77	22.088
293.13	19.526
293.50	20.523
293.87	20.800
294.24	22.619
294.60	21.196
294.97	22.884
295.34	20.449
295.71	18.791
296.08	19.241
296.44	20.918
296.81	18.879
297.18	20.750
297.55	20.047
297.91	21.863
298.28	21.065
298.65	19.581
299.02	22.100
299.38	20.491
299.75	20.553
300.12	20.233
300.48	20.702
300.85	19.169
301.22	19.628
301.59	21.596
301.95	21.022
302.32	21.820
302.69	20.452
303.05	20.487
303.42	22.045
303.79	21.977
304.15	21.358
304.52	23.226
304.89	20.930
305.25	20.856
305.62	21.800
305.99	22.851
306.35	23.406
306.72	22.380
307.09	21.898
307.45	22.577
307.82	20.632
308.19	22.571
308.55	21.904
308.92	24.460
309.29	22.923
309.65	23.676
310.02	22.962
310.38	23.069
310.75	23.767
311.12	24.295
311.48	23.838
311.85	25.197
312.22	23.888
312.58	22.995
312.95	24.677
313.31	25.069
313.68	24.809
314.05	26.371
314.41	26.513
314.78	25.332
315.14	25.648
315.51	27.878
315.87	26.506
316.24	26.446
316.61	26.393
316.97	25.833
317.34	25.490
317.70	28.100
318.07	26.797
318.43	27.913
318.80	27.836
319.16	27.056
319.53	27.688
319.89	28.094
320.26	29.020
320.62	29.101
320.99	28.682
321.35	27.689
321.72	28.874
322.08	30.443
322.45	29.602
322.81	31.238
323.18	30.680
323.54	31.949
323.91	31.617
324.27	31.683
324.64	30.401
325.00	30.709
325.37	32.935
325.73	31.061
326.10	31.623
326.46	32.776
326.83	32.929
327.19	33.740
327.56	34.005
327.92	32.824
328.29	34.307
328.65	34.969
329.01	33.597
329.38	34.870
329.74	34.850
330.11	34.536
330.47	34.462
330.84	35.018
331.20	34.842
331.56	34.692
331.93	35.831
332.29	35.969
332.66	34.407
333.02	35.708
333.38	35.088
333.75	34.556
334.11	35.417
334.48	35.484
334.84	35.071
335.20	35.935
335.57	35.509
335.93	35.567
336.29	35.727
336.66	34.359
337.02	34.696
337.38	34.465
337.75	34.625
338.11	33.988
338.47	34.332
338.84	34.708
339.20	35.626
339.56	34.044
339.93	34.745
340.29	32.878
340.65	35.586
341.02	34.443
341.38	33.784
341.74	34.622
342.11	33.526
342.47	35.983
342.83	33.824
343.20	35.195
343.56	35.323
343.92	33.387
344.28	34.903
344.65	34.122
345.01	33.253
345.37	34.704
345.73	33.497
346.10	34.671
346.46	34.309
346.82	34.831
347.19	33.386
347.55	34.168
347.91	34.061
348.27	33.912
348.63	33.173
349.00	33.255
349.36	33.987
349.72	34.416
350.08	34.399
350.45	35.317
350.81	35.133
351.17	33.949
351.53	33.464
351.89	32.804
352.26	33.514
352.62	34.186
352.98	34.185
353.34	33.897
353.70	35.202
354.07	33.647
354.43	33.437
354.79	34.856
355.15	33.307
355.51	32.878
355.87	34.949
356.24	34.430
356.60	32.604
356.96	34.766
357.32	34.520
357.68	33.613
358.04	34.135
358.40	34.341
358.77	33.716
359.13	34.942
359.49	33.535
359.85	34.723
360.21	35.004
360.57	34.221
360.93	34.067
361.29	34.049
361.66	34.624
362.02	34.248
362.38	35.377
362.74	33.648
363.10	35.141
363.46	32.637
363.82	34.664
364.18	33.793
364.54	34.865
364.90	33.728
365.26	34.395
365.62	33.097
365.98	34.164
366.35	33.830
366.71	34.165
367.07	34.231
367.43	33.728
367.79	33.843
368.15	33.122
368.51	33.896
368.87	34.682
369.23	34.520
369.59	33.968
369.95	33.890
370.31	34.937
370.67	33.092
371.03	35.561
371.39	34.209
371.75	34.786
372.11	35.043
372.47	34.751
372.83	35.090
373.19	34.388
373.55	34.393
373.91	34.300
374.27	33.264
374.63	34.282
374.99	33.635
375.35	35.068
375.71	34.239
376.07	34.270
376.42	33.890
376.78	34.610
377.14	35.254
377.50	35.007
377.86	33.533
378.22	33.881
378.58	34.615
378.94	34.375
379.30	33.979
379.66	34.155
380.02	34.130
380.38	34.096
380.74	34.429
381.09	34.439
381.45	35.127
381.81	34.812
382.17	33.774
382.53	34.338
382.89	33.233
383.25	34.938
383.61	35.291
383.97	35.375
384.32	33.711
384.68	34.485
385.04	33.720
385.40	34.869
385.76	34.611
386.12	35.055
386.48	34.545
386.83	35.294
387.19	34.547
387.55	34.273
387.91	36.285
388.27	34.525
388.62	34.082
388.98	34.668
389.34	34.023
389.70	34.554
390.06	34.000
390.42	34.987
390.77	34.914
391.13	34.091
391.49	34.282
391.85	34.569
392.20	33.835
392.56	35.556
392.92	35.108
393.28	34.282
393.64	35.535
393.99	33.599
394.35	34.444
394.71	34.551
395.07	34.277
395.42	35.527
395.78	35.393
396.14	34.750
396.50	34.306
396.85	35.883
397.21	33.895
397.57	33.665
397.92	33.533
398.28	34.574
398.64	34.973
399.00	35.100
399.35	34.904
399.71	34.013
400.07	34.578
400.42	34.545
400.78	34.743
401.14	34.273
401.49	33.853
401.85	35.442
402.21	34.427
402.57	34.825
402.92	34.919
403.28	34.772
403.63	34.408
403.99	34.805
404.35	33.853
404.70	34.864
405.06	33.647
405.42	34.799
405.77	34.505
406.13	33.714
406.49	34.632
406.84	35.226
407.20	34.340
407.55	35.779
407.91	34.017
408.27	33.999
408.62	34.316
408.98	35.635
409.34	34.653
409.69	34.893
410.05	34.639
410.40	34.267
410.76	35.138
411.11	34.328
411.47	35.766
411.83	34.685
412.18	34.698
412.54	35.150
412.89	34.420
413.25	32.153
413.60	34.232
413.96	34.145
414.31	35.142
414.67	33.841
415.03	35.792
415.38	34.676
415.74	35.153
416.09	35.426
416.45	34.792
416.80	35.168
417.16	34.683
417.51	35.231
417.87	35.913
418.22	34.712
418.58	34.428
418.93	34.589
419.29	35.248
419.64	34.924
420.00	35.619
420.35	34.011
420.71	34.979
421.06	35.055
421.42	35.219
421.77	35.434
422.12	35.186
422.48	34.406
422.83	35.381
423.19	35.710
423.54	35.689
423.90	34.145
424.25	34.547
424.61	36.168
424.96	34.713
425.31	34.885
425.67	35.802
426.02	36.042
426.38	35.510
426.73	35.125
427.09	34.834
427.44	35.467
427.79	35.629
428.15	35.657
428.50	35.166
428.85	36.839
429.21	35.959
429.56	35.175
429.92	36.700
430.27	35.838
430.62	35.047
430.98	35.960
431.33	36.002
431.68	35.676
432.04	36.451
432.39	35.797
432.74	36.174
433.10	35.328
433.45	35.089
433.80	35.805
434.16	35.227
434.51	36.467
434.86	37.279
435.22	36.106
435.57	36.671
435.92	36.128
436.28	35.976
436.63	36.894
436.98	35.840
437.34	36.081
437.69	36.068
438.04	35.088
438.39	37.609
438.75	36.412
439.10	37.478
439.45	36.259
439.81	35.653
440.16	37.913
440.51	36.623
440.86	37.226
441.22	36.489
441.57	36.497
441.92	36.858
442.27	36.255
442.63	36.060
442.98	36.400
443.33	36.795
443.68	36.742
444.03	35.519
444.39	37.581
444.74	36.830
445.09	36.068
445.44	37.296
445.79	37.842
446.15	37.216
446.50	36.949
446.85	37.680
447.20	36.958
447.55	37.269
447.91	37.022
448.26	36.592
448.61	38.147
448.96	37.130
449.31	38.150
449.66	37.131
450.02	37.351
450.37	37.074
450.72	37.141
451.07	37.241
451.42	36.619
451.77	38.223
452.12	38.206
452.47	38.541
452.83	37.913
453.18	37.492
453.53	37.327
453.88	38.313
454.23	38.628
454.58	38.235
454.93	37.652
455.28	39.049
455.63	36.868
455.98	37.614
456.34	36.682
456.69	37.827
457.04	37.152
457.39	38.244
457.74	37.642
458.09	37.500
458.44	37.838
458.79	36.738
459.14	37.865
459.49	38.171
459.84	38.162
460.19	37.455
460.54	38.017
460.89	37.950
461.24	38.101
461.59	38.829
461.94	38.685
462.29	37.990
462.64	38.127
462.99	38.699
463.34	37.983
463.69	38.273
464.04	38.595
464.39	37.645
464.74	37.776
465.09	37.632
465.44	38.496
465.79	38.758
466.14	38.369
466.49	39.296
466.84	38.613
467.19	38.471
467.54	37.524
467.89	38.278
468.24	38.599
468.59	38.560
468.94	38.633
469.29	38.599
469.64	39.191
469.99	39.172
470.34	39.717
470.68	39.554
471.03	39.704
471.38	39.013
471.73	38.889
472.08	40.893
472.43	39.842
472.78	40.095
473.13	37.269
473.48	37.769
473.83	39.422
474.17	39.258
474.52	39.353
474.87	40.048
475.22	39.070
475.57	39.320
475.92	39.313
476.27	39.394
476.61	39.638
476.96	40.091
477.31	39.968
477.66	39.548
478.01	39.011
478.36	39.346
478.70	40.172
479.05	39.623
479.40	38.742
479.75	39.107
480.10	38.705
480.45	39.333
480.79	39.273
481.14	40.020
481.49	40.109
481.84	37.795
482.19	38.675
482.53	38.571
482.88	39.118
483.23	38.402
483.58	38.327
483.92	38.959
484.27	39.113
484.62	37.861
484.97	38.739
485.31	38.601
485.66	34.833
486.01	35.000
486.36	34.847
486.70	35.381
487.05	36.518
487.40	36.390
487.75	37.209
488.09	38.098
488.44	37.785
488.79	39.137
489.13	39.006
489.48	38.948
489.83	38.455
490.17	38.357
490.52	40.720
490.87	39.917
491.22	40.273
491.56	40.345
491.91	39.894
492.26	39.942
492.60	39.875
492.95	40.136
493.30	40.359
493.64	39.329
493.99	40.193
494.34	39.740
494.68	39.570
495.03	39.970
495.37	39.708
495.72	40.100
496.07	39.893
496.41	40.103
496.76	39.534
497.11	39.765
497.45	40.467
497.80	41.141
498.14	40.806
498.49	40.091
498.84	40.739
499.18	39.970
499.53	39.734
499.87	39.350
500.22	40.418
500.56	40.622
500.91	41.247
501.26	40.690
501.60	39.118
501.95	39.626
502.29	39.612
502.64	40.357
502.98	40.029
503.33	40.341
503.67	40.117
504.02	40.882
504.36	41.407
504.71	40.498
505.06	41.161
505.40	40.464
505.75	41.658
506.09	40.572
506.44	40.927
506.78	40.071
507.13	40.489
507.47	41.198
507.82	40.450
508.16	41.741
508.51	40.289
508.85	41.109
509.19	41.429
509.54	43.056
509.88	40.699
510.23	40.684
510.57	41.949
510.92	41.433
511.26	42.079
511.61	41.658
511.95	41.896
512.30	41.810
512.64	42.679
512.98	41.717
513.33	41.408
513.67	42.306
514.02	42.759
514.36	42.022
514.70	43.129
515.05	42.130
515.39	43.101
515.74	43.221
516.08	43.304
516.42	42.108
516.77	42.414
517.11	42.269
517.46	44.118
517.80	43.705
518.14	42.743
518.49	43.279
518.83	43.556
519.17	42.952
519.52	42.642
519.86	44.505
520.20	42.814
520.55	43.781
520.89	43.707
521.23	44.872
521.58	43.805
521.92	42.803
522.26	44.112
522.61	44.538
522.95	44.754
523.29	43.619
523.64	44.056
523.98	43.266
524.32	42.218
524.66	44.286
525.01	45.413
525.35	44.174
525.69	42.810
526.04	43.322
526.38	44.296
526.72	44.444
527.06	43.714
527.41	42.621
527.75	45.194
528.09	45.405
528.43	44.708
528.78	43.798
529.12	43.790
529.46	43.634
529.80	44.790
530.15	43.179
530.49	44.407
530.83	44.414
531.17	43.836
531.51	44.842
531.86	43.496
532.20	43.143
532.54	43.448
532.88	43.975
533.22	45.320
533.57	43.510
533.91	44.710
534.25	43.294
534.59	42.342
534.93	43.431
535.27	42.611
535.62	43.750
535.96	43.071
536.30	44.082
536.64	43.541
536.98	44.219
537.32	43.986
537.66	44.217
538.01	42.788
538.35	42.680
538.69	42.007
539.03	42.483
539.37	42.790
539.71	42.769
540.05	41.565
540.39	41.363
540.73	43.994
541.07	43.469
541.42	43.434
541.76	42.084
542.10	41.571
542.44	42.827
542.78	42.193
543.12	41.846
543.46	42.087
543.80	42.430
544.14	42.739
544.48	41.208
544.82	41.358
545.16	41.447
545.50	41.526
545.84	41.655
546.18	42.146
546.52	42.272
546.86	42.049
547.20	42.459
547.54	41.101
547.88	41.835
548.22	40.261
548.56	40.961
548.90	41.610
549.24	44.375
549.58	42.705
549.92	43.213
550.26	43.764
550.60	43.994
550.94	41.866
551.28	43.528
551.62	42.857
551.96	42.240
552.30	42.140
552.64	40.395
552.98	42.472
553.32	40.807
553.66	43.067
554.00	40.893
554.34	42.198
554.68	41.462
555.02	41.467
555.36	43.419
555.69	42.316
556.03	42.102
556.37	42.319
556.71	41.626
557.05	42.288
557.39	41.748
557.73	44.024
558.07	42.050
558.41	42.165
558.75	42.417
559.08	42.743
559.42	42.958
559.76	41.972
560.10	43.198
560.44	42.520
560.78	41.151
561.12	41.065
561.45	41.633
561.79	41.059
562.13	41.913
562.47	42.429
562.81	41.126
563.15	40.652
563.48	39.642
563.82	41.176
564.16	40.081
564.50	39.891
564.84	40.135
565.17	41.192
565.51	40.508
565.85	39.773
566.19	40.464
566.52	39.974
566.86	38.432
567.20	39.524
567.54	38.687
567.88	37.570
568.21	37.860
568.55	38.237
568.89	37.886
569.23	36.572
569.56	36.671
569.90	35.429
570.24	33.755
570.57	34.835
570.91	34.121
571.25	33.408
571.59	33.403
571.92	32.737
572.26	33.591
572.60	33.847
572.93	33.958
573.27	33.252
573.61	33.401
573.95	32.311
574.28	31.941
574.62	32.091
574.96	32.333
575.29	32.297
575.63	32.692
575.97	32.880
576.30	32.654
576.64	32.434
576.98	32.770
577.31	31.894
577.65	31.610
577.98	31.264
578.32	31.467
578.66	31.925
578.99	32.183
579.33	31.709
579.67	32.179
580.00	31.553
580.34	32.210
580.67	32.239
581.01	31.600
581.35	31.497
581.68	30.797
582.02	30.973
582.35	31.239
582.69	31.150
583.02	31.892
583.36	31.731
583.70	32.076
584.03	31.922
584.37	31.803
584.70	32.570
585.04	31.824
585.37	31.713
585.71	31.331
586.04	31.754
586.38	31.650
586.72	31.498
587.05	31.895
587.39	31.713
587.72	31.809
588.06	31.628
588.39	32.158
588.73	32.671
589.06	32.266
589.40	32.370
589.73	31.836
590.07	32.629
590.40	33.283
590.73	33.752
591.07	33.640
591.40	32.826
591.74	34.104
592.07	33.409
592.41	33.119
592.74	32.639
593.08	31.145
593.41	31.824
593.75	31.331
594.08	32.159
594.41	32.578
594.75	32.384
595.08	33.719
595.42	32.105
595.75	30.947
596.09	32.910
596.42	32.516
596.75	33.699
597.09	33.940
597.42	34.051
597.75	33.467
598.09	32.787
598.42	33.557
598.76	32.746
599.09	32.373
599.42	32.137
599.76	32.219
600.09	32.869
600.42	32.467
600.76	31.633
601.09	32.316
601.42	32.771
601.76	31.699
602.09	32.185
602.42	32.934
602.76	32.299
603.09	32.895
603.42	32.547
603.76	32.307
604.09	32.372
604.42	32.692
604.76	32.431
605.09	33.122
605.42	34.098
605.75	32.420
606.09	32.202
606.42	31.920
606.75	31.688
607.09	32.270
607.42	33.012
607.75	32.254
608.08	33.048
608.42	33.224
608.75	33.636
609.08	32.876
609.41	32.588
609.75	33.182
610.08	32.347
610.41	33.285
610.74	32.628
611.07	33.367
611.41	33.623
611.74	33.282
612.07	33.455
612.40	33.459
612.73	32.437
613.07	33.426
613.40	33.700
613.73	32.557
614.06	32.836
614.39	33.352
614.72	34.037
615.06	33.333
615.39	32.781
615.72	32.505
616.05	33.108
616.38	33.333
616.71	33.713
617.05	35.688
617.38	33.457
617.71	33.640
618.04	32.724
618.37	33.375
618.70	34.670
619.03	34.639
619.36	35.018
619.69	35.088
620.03	34.700
620.36	34.099
620.69	34.333
621.02	35.385
621.35	35.568
621.68	35.615
622.01	35.680
622.34	36.162
622.67	36.883
623.00	36.322
623.33	36.126
623.66	33.978
623.99	35.259
624.32	35.216
624.65	36.499
624.99	35.929
625.32	35.176
625.65	34.884
625.98	35.229
626.31	36.163
626.64	36.973
626.97	37.716
627.30	36.014
627.63	36.505
627.96	35.584
628.29	36.837
628.62	39.458
628.95	37.976
629.28	37.537
629.61	36.077
629.94	37.137
630.26	37.635
630.59	38.362
630.92	38.253
631.25	38.208
631.58	39.615
631.91	39.449
632.24	37.870
632.57	37.778
