SpectraSuite Data File
++++++++++++++++++++++++++++++++++++
Date: Wed May 13 21:45:29 PDT 2015
User: schluterlab
Dark Spectrum Present: Yes
Reference Spectrum Present: Yes
Number of Sampled Component Spectra: 1
Spectrometers: USB2E3373
Integration Time (usec): 3000 (USB2E3373)
Spectra Averaged: 3 (USB2E3373)
Boxcar Smoothing: 0 (USB2E3373)
Correct for Electrical Dark: No (USB2E3373)
Strobe/Lamp Enabled: No (USB2E3373)
Correct for Detector Non-linearity: No (USB2E3373)
Correct for Stray Light: No (USB2E3373)
Number of Pixels in Processed Spectrum: 2048
>>>>>Begin Processed Spectral Data<<<<<
178.53	0.000
178.91	550.000
179.29	225.000
179.67	-500.000
180.04	-433.333
180.42	80.000
180.80	700.000
181.18	216.667
181.56	-600.000
181.94	-275.000
182.31	0.000
182.69	146.154
183.07	60.000
183.45	233.333
183.83	233.333
184.20	114.286
184.58	0.000
184.96	333.333
185.34	214.286
185.72	0.000
186.09	-900.000
186.47	-40.000
186.85	160.000
187.23	0.000
187.61	700.000
187.98	1400.000
188.36	-12.500
188.74	0.000
189.12	63.636
189.49	40.000
189.87	100.000
190.25	380.000
190.63	900.000
191.00	-120.000
191.38	140.000
191.76	400.000
192.14	158.333
192.51	5.263
192.89	366.667
193.27	375.000
193.65	-40.000
194.02	163.636
194.40	210.000
194.78	200.000
195.15	-20.000
195.53	-120.000
195.91	100.000
196.29	-100.000
196.66	0.000
197.04	150.000
197.42	0.000
197.79	-40.000
198.17	-62.500
198.55	-300.000
198.92	300.000
199.30	-400.000
199.68	-10.000
200.05	-150.000
200.43	133.333
200.81	-700.000
201.18	-240.000
201.56	0.000
201.94	475.000
202.31	0.000
202.69	42.857
203.07	-466.667
203.44	20.000
203.82	-133.333
204.19	20.000
204.57	0.000
204.95	-166.667
205.32	0.000
205.70	-350.000
206.08	-200.000
206.45	33.333
206.83	450.000
207.20	-200.000
207.58	-50.000
207.96	-1900.000
208.33	-71.429
208.71	-200.000
209.08	187.500
209.46	175.000
209.84	0.000
210.21	80.000
210.59	1200.000
210.96	420.000
211.34	700.000
211.71	-550.000
212.09	-233.333
212.46	-80.000
212.84	-233.333
213.22	100.000
213.59	-200.000
213.97	-250.000
214.34	-500.000
214.72	-69.231
215.09	162.500
215.47	77.778
215.84	100.000
216.22	-25.000
216.59	-550.000
216.97	400.000
217.34	144.444
217.72	0.000
218.09	233.333
218.47	1100.000
218.84	-42.857
219.22	-112.500
219.59	-33.333
219.97	-150.000
220.34	-100.000
220.72	-80.000
221.09	0.000
221.47	-233.333
221.84	300.000
222.22	0.000
222.59	1400.000
222.97	-366.667
223.34	75.000
223.72	900.000
224.09	-450.000
224.46	27.273
224.84	-12.500
225.21	-28.571
225.59	-125.000
225.96	-83.333
226.34	-10.000
226.71	0.000
227.08	450.000
227.46	-100.000
227.83	-200.000
228.21	-43.750
228.58	-250.000
228.95	-17.647
229.33	-18.750
229.70	-137.500
230.08	-69.231
230.45	-187.500
230.82	-58.333
231.20	114.286
231.57	-250.000
231.95	200.000
232.32	58.333
232.69	0.000
233.07	300.000
233.44	-4.348
233.81	-200.000
234.19	8.333
234.56	-13.333
234.93	-66.667
235.31	15.789
235.68	-84.615
236.05	53.846
236.43	-11.111
236.80	15.152
237.17	-46.667
237.55	-35.294
237.92	-6.897
238.29	-22.222
238.67	-11.111
239.04	-19.355
239.41	12.766
239.79	21.277
240.16	30.233
240.53	21.429
240.91	44.643
241.28	12.500
241.65	19.355
242.02	10.526
242.40	17.391
242.77	10.145
243.14	14.103
243.51	19.149
243.89	26.923
244.26	29.245
244.63	16.346
245.00	32.292
245.38	25.210
245.75	16.393
246.12	18.045
246.49	8.943
246.87	10.924
247.24	20.270
247.61	23.179
247.98	18.590
248.36	18.343
248.73	19.101
249.10	14.646
249.47	19.892
249.84	21.053
250.22	22.388
250.59	17.757
250.96	17.727
251.33	15.311
251.70	23.849
252.08	22.176
252.45	23.868
252.82	22.814
253.19	19.066
253.56	17.266
253.94	20.996
254.31	18.662
254.68	18.456
255.05	20.132
255.42	18.182
255.79	19.325
256.16	19.558
256.54	17.143
256.91	18.671
257.28	22.956
257.65	18.471
258.02	19.355
258.39	22.222
258.76	19.477
259.14	19.602
259.51	15.730
259.88	18.699
260.25	18.889
260.62	19.101
260.99	23.607
261.36	22.798
261.73	19.259
262.10	17.812
262.47	18.765
262.85	17.910
263.22	22.051
263.59	18.442
263.96	16.302
264.33	20.673
264.70	18.837
265.07	20.602
265.44	20.690
265.81	21.510
266.18	16.629
266.55	18.777
266.92	17.373
267.29	20.165
267.66	21.231
268.03	20.782
268.40	18.856
268.77	19.421
269.14	20.000
269.51	23.409
269.88	18.941
270.25	19.280
270.62	20.287
270.99	20.472
271.36	20.238
271.73	20.884
272.10	19.238
272.47	19.578
272.84	20.472
273.21	20.939
273.58	20.287
273.95	20.189
274.32	20.149
274.69	21.676
275.06	20.495
275.43	20.527
275.80	19.326
276.17	21.363
276.54	18.472
276.91	19.512
277.28	18.953
277.65	20.280
278.02	20.357
278.39	18.295
278.76	19.231
279.13	18.868
279.50	18.621
279.87	17.029
280.23	21.441
280.60	18.512
280.97	19.156
281.34	23.817
281.71	18.699
282.08	20.684
282.45	20.164
282.82	20.128
283.19	21.799
283.56	18.594
283.92	19.266
284.29	20.437
284.66	18.122
285.03	19.381
285.40	20.091
285.77	18.468
286.14	19.909
286.51	21.139
286.87	19.385
287.24	20.059
287.61	19.880
287.98	20.882
288.35	19.225
288.72	19.943
289.08	20.655
289.45	18.796
289.82	20.272
290.19	19.916
290.56	18.324
290.93	18.785
291.29	19.562
291.66	18.306
292.03	19.346
292.40	18.708
292.77	19.009
293.13	19.526
293.50	17.516
293.87	20.133
294.24	18.386
294.60	18.986
294.97	19.841
295.34	18.997
295.71	17.346
296.08	18.455
296.44	18.240
296.81	17.905
297.18	19.625
297.55	19.693
297.91	21.118
298.28	19.976
298.65	20.320
299.02	20.147
299.38	20.613
299.75	19.712
300.12	17.558
300.48	20.936
300.85	21.709
301.22	21.254
301.59	20.423
301.95	20.325
302.32	19.020
302.69	19.774
303.05	21.152
303.42	20.795
303.79	22.503
304.15	21.468
304.52	22.581
304.89	21.705
305.25	20.417
305.62	22.777
305.99	23.395
306.35	21.421
306.72	23.093
307.09	23.670
307.45	23.642
307.82	23.263
308.19	22.257
308.55	23.541
308.92	26.130
309.29	24.024
309.65	25.075
310.02	24.254
310.38	26.423
310.75	24.260
311.12	26.239
311.48	25.915
311.85	26.181
312.22	27.660
312.58	26.280
312.95	28.159
313.31	27.273
313.68	28.340
314.05	28.261
314.41	29.779
314.78	29.222
315.14	29.352
315.51	30.352
315.87	31.047
316.24	30.670
316.61	29.772
316.97	31.296
317.34	31.996
317.70	32.382
318.07	33.363
318.43	33.062
318.80	33.595
319.16	33.687
319.53	33.244
319.89	34.237
320.26	36.691
320.62	36.330
320.99	36.143
321.35	36.483
321.72	36.477
322.08	38.745
322.45	39.223
322.81	40.388
323.18	40.250
323.54	42.058
323.91	41.283
324.27	41.944
324.64	41.551
325.00	43.307
325.37	45.137
325.73	43.939
326.10	46.257
326.46	47.492
326.83	47.977
327.19	48.455
327.56	49.396
327.92	48.592
328.29	51.002
328.65	50.920
329.01	52.243
329.38	53.130
329.74	51.931
330.11	52.840
330.47	53.819
330.84	54.513
331.20	54.056
331.56	55.525
331.93	55.383
332.29	56.299
332.66	54.322
333.02	55.951
333.38	56.140
333.75	56.229
334.11	57.986
334.48	56.844
334.84	56.714
335.20	56.604
335.57	56.484
335.93	56.271
336.29	57.356
336.66	55.385
337.02	56.609
337.38	55.004
337.75	56.158
338.11	57.558
338.47	58.048
338.84	55.412
339.20	58.907
339.56	57.679
339.93	58.686
340.29	57.899
340.65	58.854
341.02	58.153
341.38	58.699
341.74	56.639
342.11	59.125
342.47	57.657
342.83	57.026
343.20	60.321
343.56	57.645
343.92	57.677
344.28	59.334
344.65	59.020
345.01	58.354
345.37	58.306
345.73	60.784
346.10	59.390
346.46	59.350
346.82	59.872
347.19	57.991
347.55	60.582
347.91	59.626
348.27	58.675
348.63	60.096
349.00	59.355
349.36	61.303
349.72	59.087
350.08	60.998
350.45	59.984
350.81	61.268
351.17	60.354
351.53	60.487
351.89	60.127
352.26	60.618
352.62	61.550
352.98	60.863
353.34	62.963
353.70	61.293
354.07	60.863
354.43	61.120
354.79	62.660
355.15	61.335
355.51	61.124
355.87	62.314
356.24	63.242
356.60	63.565
356.96	62.241
357.32	62.461
357.68	62.414
358.04	63.693
358.40	63.256
358.77	63.914
359.13	64.280
359.49	63.815
359.85	63.154
360.21	63.917
360.57	64.259
360.93	63.581
361.29	65.063
361.66	63.933
362.02	64.270
362.38	64.476
362.74	64.612
363.10	65.148
363.46	64.625
363.82	65.706
364.18	63.307
364.54	66.375
364.90	65.296
365.26	65.817
365.62	66.193
365.98	65.907
366.35	66.879
366.71	67.546
367.07	66.052
367.43	66.341
367.79	66.644
368.15	67.722
368.51	65.120
368.87	67.830
369.23	65.552
369.59	66.878
369.95	68.433
370.31	67.643
370.67	67.415
371.03	68.597
371.39	68.843
371.75	68.714
372.11	67.521
372.47	69.214
372.83	68.308
373.19	69.353
373.55	69.725
373.91	68.953
374.27	68.050
374.63	69.559
374.99	70.334
375.35	69.658
375.71	67.663
376.07	70.254
376.42	70.588
376.78	70.938
377.14	71.932
377.50	70.730
377.86	72.377
378.22	70.607
378.58	69.672
378.94	72.500
379.30	71.643
379.66	72.750
380.02	71.752
380.38	70.663
380.74	71.847
381.09	71.291
381.45	71.524
381.81	70.795
382.17	72.590
382.53	70.338
382.89	72.014
383.25	71.728
383.61	72.397
383.97	72.562
384.32	73.220
384.68	72.239
385.04	71.350
385.40	73.724
385.76	73.844
386.12	72.498
386.48	72.915
386.83	73.529
387.19	72.486
387.55	73.391
387.91	74.785
388.27	72.688
388.62	75.031
388.98	74.093
389.34	73.747
389.70	73.443
390.06	73.313
390.42	74.098
390.77	73.479
391.13	73.990
391.49	73.371
391.85	74.249
392.20	74.123
392.56	74.794
392.92	73.142
393.28	73.039
393.64	73.945
393.99	72.827
394.35	74.383
394.71	74.744
395.07	72.013
395.42	73.492
395.78	75.032
396.14	75.587
396.50	74.001
396.85	75.590
397.21	74.469
397.57	72.981
397.92	73.353
398.28	72.927
398.64	71.645
399.00	73.493
399.35	73.610
399.71	72.860
400.07	73.976
400.42	73.856
400.78	72.387
401.14	73.758
401.49	73.457
401.85	74.079
402.21	74.861
402.57	73.023
402.92	74.468
403.28	72.858
403.63	73.714
403.99	74.152
404.35	73.441
404.70	72.749
405.06	74.398
405.42	72.927
405.77	73.560
406.13	72.629
406.49	72.319
406.84	73.687
407.20	71.995
407.55	75.844
407.91	73.197
408.27	72.863
408.62	73.481
408.98	73.551
409.34	72.710
409.69	72.904
410.05	72.512
410.40	72.428
410.76	72.984
411.11	73.694
411.47	74.851
411.83	74.797
412.18	73.363
412.54	72.870
412.89	74.859
413.25	73.156
413.60	72.915
413.96	73.096
414.31	72.626
414.67	72.190
415.03	75.304
415.38	72.787
415.74	73.294
416.09	74.620
416.45	73.958
416.80	75.570
417.16	73.617
417.51	75.218
417.87	74.802
418.22	73.950
418.58	73.259
418.93	76.334
419.29	76.766
419.64	73.855
420.00	74.730
420.35	74.357
420.71	75.015
421.06	74.539
421.42	75.426
421.77	75.491
422.12	75.587
422.48	73.555
422.83	75.133
423.19	75.733
423.54	76.737
423.90	75.238
424.25	76.950
424.61	76.771
424.96	76.878
425.31	74.089
425.67	76.955
426.02	77.385
426.38	78.731
426.73	78.009
427.09	78.236
427.44	77.217
427.79	77.732
428.15	77.370
428.50	76.798
428.85	78.352
429.21	77.490
429.56	77.683
429.92	78.449
430.27	78.067
430.62	78.227
430.98	76.891
431.33	77.754
431.68	78.594
432.04	80.507
432.39	77.252
432.74	77.805
433.10	80.070
433.45	78.225
433.80	77.931
434.16	77.772
434.51	78.152
434.86	78.857
435.22	80.079
435.57	78.378
435.92	80.036
436.28	77.598
436.63	79.677
436.98	79.671
437.34	81.136
437.69	78.335
438.04	79.796
438.39	81.258
438.75	80.751
439.10	81.261
439.45	79.600
439.81	80.542
440.16	80.174
440.51	79.608
440.86	80.498
441.22	81.124
441.57	80.098
441.92	79.990
442.27	79.654
442.63	79.386
442.98	80.324
443.33	81.095
443.68	79.547
444.03	80.527
444.39	79.623
444.74	80.342
445.09	79.626
445.44	80.451
445.79	81.053
446.15	81.087
446.50	79.075
446.85	80.652
447.20	80.031
447.55	79.519
447.91	80.225
448.26	81.704
448.61	80.207
448.96	81.207
449.31	80.640
449.66	80.972
450.02	81.012
450.37	81.140
450.72	80.827
451.07	80.376
451.42	79.850
451.77	81.984
452.12	79.976
452.47	80.181
452.83	79.835
453.18	81.158
453.53	81.904
453.88	81.566
454.23	82.077
454.58	81.924
454.93	79.987
455.28	80.668
455.63	81.223
455.98	83.688
456.34	80.038
456.69	82.109
457.04	79.443
457.39	82.321
457.74	79.773
458.09	80.983
458.44	81.727
458.79	79.901
459.14	77.809
459.49	82.378
459.84	79.651
460.19	79.232
460.54	81.144
460.89	79.392
461.24	79.223
461.59	81.461
461.94	80.973
462.29	82.047
462.64	83.113
462.99	80.148
463.34	82.528
463.69	81.572
464.04	80.312
464.39	81.086
464.74	81.020
465.09	81.029
465.44	79.349
465.79	80.276
466.14	80.331
466.49	81.701
466.84	80.514
467.19	81.592
467.54	81.335
467.89	81.207
468.24	82.729
468.59	81.453
468.94	81.545
469.29	82.155
469.64	83.054
469.99	83.517
470.34	80.917
470.68	82.974
471.03	82.793
471.38	81.641
471.73	82.373
472.08	83.711
472.43	83.509
472.78	81.406
473.13	80.343
473.48	81.539
473.83	82.800
474.17	82.357
474.52	83.560
474.87	80.579
475.22	83.454
475.57	81.149
475.92	82.116
476.27	80.594
476.61	80.351
476.96	80.754
477.31	81.068
477.66	81.751
478.01	80.385
478.36	81.090
478.70	81.740
479.05	82.630
479.40	81.019
479.75	82.094
480.10	81.693
480.45	80.824
480.79	81.185
481.14	81.155
481.49	80.612
481.84	80.066
482.19	79.481
482.53	80.571
482.88	80.777
483.23	81.039
483.58	81.900
483.92	81.518
484.27	79.552
484.62	78.784
484.97	79.013
485.31	78.416
485.66	72.455
486.01	71.560
486.36	70.944
486.70	73.105
487.05	74.598
487.40	76.537
487.75	77.060
488.09	77.260
488.44	78.023
488.79	78.766
489.13	78.449
489.48	79.863
489.83	79.768
490.17	81.071
490.52	81.300
490.87	78.906
491.22	80.782
491.56	80.642
491.91	80.029
492.26	82.302
492.60	79.798
492.95	80.709
493.30	80.475
493.64	80.767
493.99	81.498
494.34	81.310
494.68	81.384
495.03	81.670
495.37	79.708
495.72	81.604
496.07	82.562
496.41	79.270
496.76	80.941
497.11	80.751
497.45	81.420
497.80	81.474
498.14	81.360
498.49	81.493
498.84	81.781
499.18	79.293
499.53	80.355
499.87	79.767
500.22	81.981
500.56	81.595
500.91	81.237
501.26	80.099
501.60	80.539
501.95	80.307
502.29	80.291
502.64	79.364
502.98	80.154
503.33	79.367
503.67	79.211
504.02	80.000
504.36	79.198
504.71	79.522
505.06	80.234
505.40	82.062
505.75	79.959
506.09	80.327
506.44	80.091
506.78	80.091
507.13	81.185
507.47	81.177
507.82	79.383
508.16	80.580
508.51	79.390
508.85	80.715
509.19	81.746
509.54	81.555
509.88	80.645
510.23	80.474
510.57	79.608
510.92	80.603
511.26	82.068
511.61	81.120
511.95	80.485
512.30	79.567
512.64	82.520
512.98	80.332
513.33	82.310
513.67	81.317
514.02	81.585
514.36	82.247
514.70	80.889
515.05	82.095
515.39	82.842
515.74	82.297
516.08	81.888
516.42	81.106
516.77	81.429
517.11	82.128
517.46	84.214
517.80	83.898
518.14	81.874
518.49	83.002
518.83	81.802
519.17	82.410
519.52	82.811
519.86	84.639
520.20	82.050
520.55	84.639
520.89	83.175
521.23	85.449
521.58	84.450
521.92	82.087
522.26	83.279
522.61	83.840
522.95	84.067
523.29	82.540
523.64	82.136
523.98	81.639
524.32	80.655
524.66	83.506
525.01	83.879
525.35	85.056
525.69	83.963
526.04	81.954
526.38	82.792
526.72	83.169
527.06	82.012
527.41	82.462
527.75	81.041
528.09	84.071
528.43	84.464
528.78	81.783
529.12	82.665
529.46	81.958
529.80	81.359
530.15	80.631
530.49	83.491
530.83	83.209
531.17	84.726
531.51	81.861
531.86	83.469
532.20	80.841
532.54	81.448
532.88	81.892
533.22	81.481
533.57	81.854
533.91	81.613
534.25	80.924
534.59	80.373
534.93	80.102
535.27	80.127
535.62	81.711
535.96	78.595
536.30	81.184
536.64	81.271
536.98	80.939
537.32	82.918
537.66	81.735
538.01	81.415
538.35	80.801
538.69	78.528
539.03	77.248
539.37	78.538
539.71	80.150
540.05	78.745
540.39	78.527
540.73	80.098
541.07	80.272
541.42	78.451
541.76	79.838
542.10	79.553
542.44	79.626
542.78	78.834
543.12	79.043
543.46	79.129
543.80	77.257
544.14	80.385
544.48	77.704
544.82	80.229
545.16	78.499
545.50	79.068
545.84	80.224
546.18	77.630
546.52	78.335
546.86	78.516
547.20	79.771
547.54	76.340
547.88	80.094
548.22	76.808
548.56	75.517
548.90	76.793
549.24	80.347
549.58	79.288
549.92	80.778
550.26	81.771
550.60	80.405
550.94	80.746
551.28	80.091
551.62	79.624
551.96	79.283
552.30	78.894
552.64	77.613
552.98	78.835
553.32	78.298
553.66	80.411
554.00	78.186
554.34	79.267
554.68	80.015
555.02	78.743
555.36	80.030
555.69	79.170
556.03	78.699
556.37	76.671
556.71	75.543
557.05	79.779
557.39	80.407
557.73	79.879
558.07	80.030
558.41	80.167
558.75	79.831
559.08	80.593
559.42	81.039
559.76	76.529
560.10	79.477
560.44	78.408
560.78	78.273
561.12	76.454
561.45	76.054
561.79	76.479
562.13	77.356
562.47	77.857
562.81	78.211
563.15	76.062
563.48	76.118
563.82	77.223
564.16	75.897
564.50	76.730
564.84	76.622
565.17	74.967
565.51	75.134
565.85	74.350
566.19	77.086
566.52	74.771
566.86	73.451
567.20	73.060
567.54	72.827
567.88	71.501
568.21	70.125
568.55	70.631
568.89	69.840
569.23	68.423
569.56	67.000
569.90	65.759
570.24	65.307
570.57	64.517
570.91	64.947
571.25	63.185
571.59	63.349
571.92	63.626
572.26	63.380
572.60	64.306
572.93	64.136
573.27	62.618
573.61	63.403
573.95	62.480
574.28	62.181
574.62	61.022
574.96	60.285
575.29	61.058
575.63	61.828
575.97	63.750
576.30	62.004
576.64	62.222
576.98	61.049
577.31	60.486
577.65	59.664
577.98	59.859
578.32	59.624
578.66	60.315
578.99	60.892
579.33	61.519
579.67	61.456
580.00	60.398
580.34	60.616
580.67	60.510
581.01	60.308
581.35	59.570
581.68	59.076
582.02	59.063
582.35	58.857
582.69	59.034
583.02	59.439
583.36	60.683
583.70	61.201
584.03	61.283
584.37	61.011
584.70	60.373
585.04	60.715
585.37	60.632
585.71	60.010
586.04	60.376
586.38	60.353
586.72	60.214
587.05	61.111
587.39	60.739
587.72	60.824
588.06	61.012
588.39	60.453
588.73	60.379
589.06	62.011
589.40	62.367
589.73	61.588
590.07	62.122
590.40	63.044
590.73	64.627
591.07	64.187
591.40	62.870
591.74	64.962
592.07	64.445
592.41	64.007
592.74	62.037
593.08	60.786
593.41	60.051
593.75	60.627
594.08	60.898
594.41	62.121
594.75	61.657
595.08	62.136
595.42	61.346
595.75	61.280
596.09	63.048
596.42	62.949
596.75	63.932
597.09	64.331
597.42	64.872
597.75	64.133
598.09	63.024
598.42	64.161
598.76	62.217
599.09	62.385
599.42	60.574
599.76	61.322
600.09	61.935
600.42	61.168
600.76	60.052
601.09	60.640
601.42	61.113
601.76	60.116
602.09	62.262
602.42	62.485
602.76	61.997
603.09	62.136
603.42	61.815
603.76	60.912
604.09	61.186
604.42	60.904
604.76	62.375
605.09	62.030
605.42	63.473
605.75	60.685
606.09	60.430
606.42	61.139
606.75	62.121
607.09	61.968
607.42	61.909
607.75	61.225
608.08	62.894
608.42	62.699
608.75	62.542
609.08	62.714
609.41	62.494
609.75	63.389
610.08	63.018
610.41	62.391
610.74	62.849
611.07	62.425
611.41	63.357
611.74	63.043
612.07	60.969
612.40	64.919
612.73	63.282
613.07	63.692
613.40	62.885
613.73	63.489
614.06	63.018
614.39	63.035
614.72	63.132
615.06	62.611
615.39	63.024
615.72	62.797
616.05	63.739
616.38	64.204
616.71	63.827
617.05	64.128
617.38	62.230
617.71	63.664
618.04	64.046
618.37	64.732
618.70	64.748
619.03	65.292
619.36	66.762
619.69	66.520
620.03	64.876
620.36	65.344
620.69	64.739
621.02	66.692
621.35	68.847
621.68	66.911
622.01	67.961
622.34	66.376
622.67	67.267
623.00	65.881
623.33	66.866
623.66	66.766
623.99	66.242
624.32	64.857
624.65	66.395
624.99	65.540
625.32	64.899
625.65	66.434
625.98	66.193
626.31	67.837
626.64	69.475
626.97	67.993
627.30	68.007
627.63	68.080
627.96	66.407
628.29	70.326
628.62	70.696
628.95	70.842
629.28	71.429
629.61	70.239
629.94	70.503
630.26	70.837
630.59	71.129
630.92	70.683
631.25	70.237
631.58	71.734
631.91	71.156
632.24	70.143
632.57	74.333
632.90	74.679
633.23	73.141
