SpectraSuite Data File
++++++++++++++++++++++++++++++++++++
Date: Wed May 13 21:47:23 PDT 2015
User: schluterlab
Dark Spectrum Present: Yes
Reference Spectrum Present: Yes
Number of Sampled Component Spectra: 1
Spectrometers: USB2E3373
Integration Time (usec): 3000 (USB2E3373)
Spectra Averaged: 3 (USB2E3373)
Boxcar Smoothing: 0 (USB2E3373)
Correct for Electrical Dark: No (USB2E3373)
Strobe/Lamp Enabled: No (USB2E3373)
Correct for Detector Non-linearity: No (USB2E3373)
Correct for Stray Light: No (USB2E3373)
Number of Pixels in Processed Spectrum: 2048
>>>>>Begin Processed Spectral Data<<<<<
178.53	0.000
178.91	350.000
179.29	141.667
179.67	-850.000
180.04	-333.333
180.42	40.000
180.80	1400.000
181.18	300.000
181.56	-175.000
181.94	-250.000
182.31	-63.636
182.69	53.846
183.07	-160.000
183.45	216.667
183.83	155.556
184.20	200.000
184.58	-66.667
184.96	266.667
185.34	142.857
185.72	0.000
186.09	-500.000
186.47	-200.000
186.85	120.000
187.23	-300.000
187.61	300.000
187.98	1200.000
188.36	-12.500
188.74	0.000
189.12	-36.364
189.49	90.000
189.87	158.333
190.25	200.000
190.63	2200.000
191.00	-80.000
191.38	300.000
191.76	300.000
192.14	200.000
192.51	-36.842
192.89	466.667
193.27	275.000
193.65	-180.000
194.02	245.455
194.40	240.000
194.78	-1200.000
195.15	300.000
195.53	-120.000
195.91	-75.000
196.29	-400.000
196.66	0.000
197.04	350.000
197.42	-180.000
197.79	0.000
198.17	-150.000
198.55	-533.333
198.92	250.000
199.30	-566.667
199.68	-80.000
200.05	500.000
200.43	166.667
200.81	-1300.000
201.18	-180.000
201.56	-133.333
201.94	550.000
202.31	8.696
202.69	-142.857
203.07	-400.000
203.44	-180.000
203.82	-300.000
204.19	-30.000
204.57	0.000
204.95	-66.667
205.32	0.000
205.70	-500.000
206.08	-325.000
206.45	-233.333
206.83	450.000
207.20	-333.333
207.58	-70.000
207.96	-1300.000
208.33	-200.000
208.71	-1200.000
209.08	225.000
209.46	425.000
209.84	0.000
210.21	160.000
210.59	1900.000
210.96	120.000
211.34	2000.000
211.71	-550.000
212.09	-266.667
212.46	-100.000
212.84	-200.000
213.22	150.000
213.59	-1100.000
213.97	-650.000
214.34	-1000.000
214.72	-53.846
215.09	237.500
215.47	155.556
215.84	650.000
216.22	-50.000
216.59	-50.000
216.97	600.000
217.34	133.333
217.72	0.000
218.09	166.667
218.47	-800.000
218.84	-200.000
219.22	-125.000
219.59	0.000
219.97	-125.000
220.34	-62.500
220.72	-220.000
221.09	0.000
221.47	-283.333
221.84	-1000.000
222.22	0.000
222.59	1400.000
222.97	-200.000
223.34	8.333
223.72	-1700.000
224.09	-450.000
224.46	-90.909
224.84	-50.000
225.21	-57.143
225.59	-375.000
225.96	-166.667
226.34	-20.000
226.71	-157.143
227.08	800.000
227.46	0.000
227.83	-100.000
228.21	-50.000
228.58	-475.000
228.95	-52.941
229.33	18.750
229.70	-87.500
230.08	7.692
230.45	-62.500
230.82	0.000
231.20	214.286
231.57	-225.000
231.95	700.000
232.32	8.333
232.69	-23.529
233.07	-1900.000
233.44	-34.783
233.81	-450.000
234.19	25.000
234.56	-40.000
234.93	-66.667
235.31	-10.526
235.68	-38.462
236.05	-130.769
236.43	-61.111
236.80	0.000
237.17	-106.667
237.55	-58.824
237.92	-62.069
238.29	-92.593
238.67	-41.667
239.04	-41.935
239.41	-12.766
239.79	-19.149
240.16	-13.953
240.53	-8.929
240.91	-3.571
241.28	-8.929
241.65	-9.677
242.02	-3.947
242.40	-2.899
242.77	-23.188
243.14	-17.949
243.51	-5.319
243.89	-10.577
244.26	-2.830
244.63	-6.731
245.00	-2.083
245.38	-9.244
245.75	-7.377
246.12	0.752
246.49	-14.634
246.87	-9.244
247.24	-5.405
247.61	-8.609
247.98	-0.641
248.36	-5.917
248.73	-8.989
249.10	-4.545
249.47	-6.452
249.84	2.632
250.22	-2.985
250.59	2.804
250.96	1.364
251.33	-7.177
251.70	-0.837
252.08	-2.092
252.45	0.000
252.82	-0.760
253.19	-3.502
253.56	-3.957
253.94	0.000
254.31	-3.873
254.68	2.349
255.05	-2.640
255.42	-1.049
255.79	-2.454
256.16	0.631
256.54	-0.635
256.91	-1.899
257.28	-1.572
257.65	-3.503
258.02	-2.933
258.39	-1.462
258.76	-4.360
259.14	-2.557
259.51	-2.247
259.88	-0.542
260.25	-4.444
260.62	-5.899
260.99	-1.857
261.36	1.813
261.73	-1.481
262.10	-1.272
262.47	-2.222
262.85	-3.483
263.22	-3.846
263.59	-3.636
263.96	-1.946
264.33	-2.404
264.70	1.163
265.07	0.463
265.44	-0.230
265.81	0.229
266.18	-2.050
266.55	-3.712
266.92	-1.695
267.29	-0.206
267.66	-2.335
268.03	-0.617
268.40	-2.542
268.77	-0.413
269.14	-2.245
269.51	0.821
269.88	-3.259
270.25	-1.271
270.62	-2.049
270.99	-0.787
271.36	-0.198
271.73	-2.610
272.10	-0.190
272.47	-0.960
272.84	-0.787
273.21	-2.740
273.58	-4.098
273.95	-2.642
274.32	-0.746
274.69	0.364
275.06	-0.353
275.43	-0.565
275.80	-0.532
276.17	-1.657
276.54	-1.954
276.91	-0.523
277.28	-3.791
277.65	-1.049
278.02	1.607
278.39	-2.664
278.76	0.167
279.13	-1.887
279.50	-1.897
279.87	-1.087
280.23	-3.243
280.60	-1.557
280.97	-0.487
281.34	0.000
281.71	-1.951
282.08	-1.709
282.45	-1.311
282.82	0.319
283.19	1.829
283.56	-0.469
283.92	-0.459
284.29	-1.092
284.66	-1.977
285.03	-3.094
285.40	-0.906
285.77	-0.450
286.14	-0.152
286.51	0.750
286.87	-1.385
287.24	-1.327
287.61	0.602
287.98	0.147
288.35	-2.683
288.72	1.148
289.08	0.285
289.45	-0.587
289.82	1.362
290.19	1.403
290.56	-2.415
290.93	-0.276
291.29	-0.684
291.66	0.000
292.03	0.000
292.40	-1.077
292.77	-0.535
293.13	-0.697
293.50	-0.654
293.87	0.000
294.24	0.529
294.60	0.390
294.97	0.794
295.34	-0.792
295.71	-0.657
296.08	-2.094
296.44	-1.020
296.81	-0.122
297.18	1.125
297.55	1.297
297.91	1.118
298.28	1.090
298.65	0.739
299.02	1.465
299.38	0.245
299.75	0.601
300.12	-0.930
300.48	0.117
300.85	0.231
301.22	0.232
301.59	1.291
301.95	-0.697
302.32	1.634
302.69	-0.113
303.05	2.104
303.42	0.455
303.79	1.682
304.15	0.876
304.52	1.075
304.89	0.221
305.25	0.549
305.62	1.410
305.99	0.871
306.35	2.821
306.72	2.035
307.09	1.043
307.45	0.852
307.82	0.947
308.19	0.418
308.55	1.842
308.92	3.536
309.29	2.302
309.65	1.698
310.02	1.590
310.38	1.321
310.75	1.578
311.12	2.138
311.48	3.264
311.85	2.559
312.22	2.901
312.58	2.319
312.95	2.090
313.31	3.030
313.68	3.340
314.05	3.025
314.41	2.017
314.78	4.175
315.14	4.074
315.51	3.901
315.87	4.449
316.24	3.489
316.61	4.018
316.97	3.981
317.34	4.100
317.70	3.925
318.07	3.549
318.43	3.433
318.80	4.014
319.16	4.421
319.53	4.032
319.89	3.613
320.26	5.823
320.62	5.097
320.99	3.004
321.35	4.584
321.72	5.967
322.08	4.797
322.45	5.550
322.81	6.100
323.18	6.082
323.54	6.137
323.91	6.685
324.27	6.841
324.64	5.401
325.00	5.249
325.37	6.143
325.73	4.966
326.10	5.719
326.46	6.940
326.83	6.715
327.19	6.911
327.56	7.091
327.92	6.114
328.29	8.264
328.65	6.661
329.01	6.245
329.38	7.652
329.74	8.155
330.11	6.673
330.47	7.639
330.84	8.123
331.20	7.430
331.56	7.518
331.93	7.494
332.29	8.601
332.66	7.881
333.02	9.557
333.38	7.982
333.75	7.765
334.11	8.594
334.48	8.457
334.84	7.067
335.20	8.834
335.57	6.876
335.93	7.216
336.29	8.844
336.66	7.179
337.02	6.957
337.38	8.268
337.75	8.010
338.11	7.857
338.47	7.705
338.84	7.732
339.20	7.760
339.56	7.082
339.93	8.124
340.29	7.259
340.65	7.528
341.02	7.820
341.38	6.503
341.74	5.882
342.11	6.936
342.47	5.941
342.83	7.680
343.20	8.037
343.56	7.522
343.92	6.986
344.28	7.143
344.65	6.531
345.01	6.215
345.37	7.566
345.73	7.516
346.10	7.624
346.46	7.317
346.82	6.902
347.19	5.617
347.55	7.189
347.91	6.781
348.27	6.309
348.63	7.452
349.00	7.075
349.36	7.143
349.72	7.811
350.08	6.552
350.45	6.421
350.81	6.886
351.17	7.929
351.53	6.756
351.89	5.639
352.26	5.637
352.62	6.279
352.98	5.671
353.34	5.395
353.70	7.477
354.07	6.510
354.43	6.454
354.79	5.849
355.15	6.677
355.51	6.910
355.87	6.255
356.24	5.618
356.60	6.255
356.96	6.216
357.32	6.656
357.68	6.646
358.04	6.594
358.40	6.977
358.77	6.575
359.13	6.615
359.49	6.359
359.85	7.657
360.21	7.016
360.57	6.008
360.93	6.146
361.29	7.254
361.66	6.150
362.02	6.746
362.38	6.425
362.74	5.729
363.10	6.652
363.46	6.052
363.82	5.839
364.18	6.599
364.54	6.127
364.90	5.993
365.26	5.945
365.62	6.676
365.98	6.192
366.35	6.312
366.71	6.134
367.07	5.741
367.43	6.411
367.79	6.463
368.15	6.892
368.51	5.696
368.87	5.443
369.23	6.263
369.59	5.497
369.95	4.644
370.31	5.230
370.67	5.793
371.03	5.494
371.39	5.110
371.75	6.429
372.11	5.769
372.47	5.479
372.83	6.033
373.19	5.827
373.55	6.069
373.91	5.728
374.27	4.979
374.63	5.832
374.99	5.223
375.35	6.096
375.71	5.231
376.07	5.894
376.42	6.283
376.78	5.878
377.14	6.169
377.50	6.128
377.86	6.242
378.22	5.499
378.58	5.296
378.94	6.687
379.30	5.684
379.66	5.487
380.02	5.453
380.38	5.602
380.74	5.559
381.09	5.730
381.45	5.502
381.81	4.559
382.17	4.411
382.53	5.538
382.89	6.031
383.25	5.802
383.61	5.630
383.97	5.000
384.32	5.104
384.68	5.552
385.04	4.948
385.40	5.230
385.76	6.022
386.12	5.036
386.48	5.016
386.83	5.194
387.19	5.059
387.55	5.518
387.91	5.843
388.27	4.809
388.62	5.056
388.98	4.506
389.34	4.699
389.70	5.372
390.06	5.813
390.42	5.541
390.77	4.997
391.13	4.861
391.49	4.681
391.85	5.367
392.20	5.388
392.56	4.825
392.92	4.564
393.28	5.462
393.64	4.526
393.99	4.162
394.35	5.000
394.71	4.744
395.07	3.836
395.42	5.241
395.78	3.732
396.14	5.010
396.50	3.868
396.85	5.609
397.21	4.182
397.57	4.658
397.92	4.192
398.28	4.512
398.64	4.493
399.00	4.464
399.35	5.221
399.71	4.718
400.07	3.916
400.42	4.326
400.78	4.471
401.14	3.863
401.49	4.973
401.85	4.853
402.21	5.139
402.57	4.905
402.92	6.008
403.28	4.753
403.63	5.146
403.99	3.903
404.35	4.551
404.70	3.565
405.06	4.639
405.42	3.957
405.77	4.320
406.13	4.286
406.49	3.475
406.84	3.358
407.20	4.618
407.55	4.286
407.91	3.772
408.27	4.304
408.62	5.034
408.98	3.761
409.34	3.960
409.69	5.198
410.05	4.167
410.40	4.078
410.76	3.550
411.11	4.042
411.47	4.910
411.83	4.242
412.18	4.156
412.54	4.261
412.89	4.451
413.25	3.599
413.60	3.824
413.96	4.120
414.31	4.316
414.67	4.063
415.03	3.315
415.38	4.029
415.74	4.094
416.09	3.966
416.45	3.964
416.80	3.557
417.16	4.049
417.51	4.153
417.87	3.108
418.22	3.167
418.58	3.745
418.93	3.515
419.29	3.894
419.64	4.135
420.00	3.810
420.35	3.527
420.71	3.839
421.06	3.629
421.42	4.562
421.77	3.584
422.12	3.152
422.48	3.217
422.83	4.076
423.19	3.508
423.54	4.181
423.90	3.563
424.25	3.871
424.61	3.943
424.96	3.371
425.31	4.038
425.67	3.527
426.02	4.888
426.38	3.545
426.73	2.993
427.09	3.627
427.44	3.817
427.79	3.741
428.15	3.486
428.50	3.746
428.85	4.244
429.21	3.770
429.56	3.826
429.92	4.269
430.27	3.783
430.62	4.092
430.98	4.072
431.33	3.869
431.68	4.366
432.04	3.831
432.39	3.522
432.74	3.188
433.10	4.126
433.45	3.787
433.80	3.391
434.16	3.987
434.51	3.478
434.86	4.181
435.22	4.075
435.57	3.501
435.92	3.438
436.28	3.664
436.63	4.157
436.98	3.584
437.34	4.029
437.69	3.955
438.04	3.622
438.39	3.487
438.75	3.933
439.10	3.991
439.45	4.177
439.81	3.941
440.16	4.638
440.51	4.459
440.86	4.742
441.22	4.877
441.57	4.284
441.92	4.614
442.27	4.004
442.63	4.037
442.98	3.877
443.33	4.402
443.68	3.848
444.03	4.272
444.39	5.156
444.74	3.534
445.09	4.736
445.44	5.352
445.79	4.078
446.15	4.548
446.50	4.405
446.85	4.703
447.20	4.914
447.55	4.701
447.91	4.607
448.26	4.174
448.61	4.776
448.96	4.556
449.31	5.311
449.66	5.263
450.02	4.832
450.37	5.112
450.72	4.650
451.07	4.138
451.42	4.554
451.77	4.687
452.12	5.407
452.47	4.713
452.83	3.950
453.18	4.901
453.53	3.846
453.88	5.843
454.23	5.068
454.58	4.718
454.93	4.362
455.28	5.074
455.63	4.055
455.98	5.173
456.34	4.959
456.69	4.984
457.04	5.759
457.39	5.232
457.74	5.147
458.09	5.095
458.44	4.700
458.79	5.546
459.14	4.888
459.49	4.573
459.84	5.073
460.19	4.922
460.54	5.109
460.89	5.236
461.24	5.364
461.59	4.831
461.94	5.183
462.29	4.963
462.64	5.409
462.99	5.835
463.34	5.249
463.69	5.412
464.04	5.042
464.39	5.491
464.74	5.037
465.09	4.712
465.44	6.341
465.79	5.520
466.14	5.359
466.49	4.809
466.84	5.200
467.19	4.841
467.54	5.314
467.89	5.091
468.24	4.856
468.59	4.971
468.94	5.747
469.29	4.627
469.64	5.021
469.99	6.207
470.34	4.855
470.68	4.610
471.03	5.712
471.38	4.729
471.73	5.213
472.08	4.674
472.43	5.541
472.78	5.882
473.13	4.354
473.48	4.175
473.83	5.022
474.17	4.948
474.52	4.531
474.87	5.006
475.22	5.918
475.57	4.629
475.92	4.526
476.27	4.953
476.61	5.210
476.96	5.026
477.31	5.016
477.66	4.746
478.01	5.000
478.36	4.905
478.70	4.887
479.05	4.883
479.40	5.408
479.75	4.516
480.10	5.150
480.45	5.444
480.79	5.276
481.14	5.218
481.49	5.476
481.84	5.090
482.19	5.327
482.53	5.000
482.88	5.321
483.23	4.620
483.58	5.388
483.92	4.572
484.27	5.261
484.62	5.237
484.97	4.936
485.31	5.316
485.66	5.253
486.01	5.432
486.36	5.347
486.70	5.276
487.05	5.053
487.40	5.202
487.75	5.111
488.09	5.099
488.44	5.117
488.79	5.526
489.13	5.249
489.48	5.301
489.83	4.958
490.17	4.812
490.52	4.956
490.87	5.100
491.22	5.276
491.56	5.031
491.91	5.281
492.26	4.884
492.60	4.570
492.95	5.102
493.30	4.990
493.64	3.981
493.99	5.459
494.34	4.769
494.68	5.107
495.03	4.644
495.37	4.818
495.72	5.313
496.07	4.920
496.41	4.773
496.76	5.393
497.11	5.399
497.45	4.815
497.80	5.654
498.14	4.887
498.49	4.135
498.84	5.061
499.18	5.376
499.53	5.022
499.87	4.173
500.22	5.177
500.56	5.165
500.91	5.433
501.26	5.369
501.60	4.461
501.95	4.935
502.29	4.854
502.64	4.725
502.98	4.865
503.33	5.109
503.67	5.355
504.02	4.559
504.36	4.408
504.71	4.776
505.06	4.992
505.40	4.381
505.75	5.493
506.09	5.314
506.44	5.141
506.78	5.028
507.13	4.730
507.47	5.090
507.82	4.919
508.16	5.066
508.51	5.062
508.85	4.925
509.19	4.868
509.54	5.255
509.88	5.215
510.23	4.737
510.57	5.297
510.92	5.119
511.26	4.620
511.61	4.665
511.95	4.631
512.30	4.164
512.64	4.881
512.98	5.263
513.33	4.958
513.67	4.884
514.02	4.504
514.36	5.000
514.70	4.388
515.05	4.506
515.39	3.950
515.74	4.559
516.08	4.484
516.42	4.551
516.77	4.628
517.11	3.880
517.46	4.862
517.80	4.661
518.14	3.919
518.49	4.099
518.83	4.833
519.17	4.518
519.52	4.644
519.86	4.675
520.20	4.366
520.55	5.162
520.89	4.681
521.23	5.064
521.58	5.183
521.92	4.023
522.26	5.010
522.61	5.301
522.95	4.728
523.29	4.825
523.64	4.577
523.98	4.956
524.32	4.852
524.66	3.247
525.01	4.522
525.35	4.477
525.69	4.109
526.04	4.169
526.38	5.226
526.72	4.339
527.06	4.771
527.41	4.103
527.75	4.072
528.09	4.221
528.43	4.749
528.78	3.876
529.12	5.110
529.46	4.223
529.80	4.078
530.15	4.376
530.49	4.043
530.83	4.130
531.17	4.247
531.51	4.113
531.86	3.523
532.20	3.653
532.54	4.000
532.88	4.425
533.22	4.646
533.57	4.040
533.91	5.419
534.25	4.948
534.59	3.861
534.93	4.464
535.27	4.268
535.62	3.947
535.96	5.010
536.30	5.253
536.64	4.101
536.98	3.574
537.32	4.413
537.66	3.456
538.01	4.230
538.35	3.039
538.69	4.415
539.03	4.564
539.37	3.689
539.71	4.093
540.05	3.644
540.39	3.166
540.73	4.330
541.07	5.034
541.42	3.906
541.76	3.992
542.10	4.130
542.44	3.465
542.78	4.788
543.12	4.650
543.46	2.833
543.80	4.209
544.14	3.923
544.48	3.384
544.82	4.304
545.16	3.516
545.50	4.254
545.84	3.997
546.18	4.137
546.52	4.517
546.86	4.382
547.20	4.503
547.54	3.645
547.88	4.656
548.22	4.300
548.56	3.869
548.90	3.857
549.24	4.097
549.58	3.416
549.92	3.888
550.26	4.649
550.60	3.679
550.94	3.731
551.28	3.558
551.62	4.211
551.96	4.173
552.30	3.712
552.64	4.025
552.98	4.190
553.32	3.677
553.66	3.815
554.00	4.608
554.34	3.297
554.68	3.654
555.02	3.443
555.36	3.480
555.69	3.423
556.03	3.217
556.37	2.774
556.71	4.135
557.05	3.764
557.39	3.542
557.73	4.009
558.07	3.693
558.41	4.088
558.75	3.849
559.08	2.085
559.42	4.013
559.76	4.128
560.10	3.536
560.44	4.643
560.78	2.590
561.12	3.784
561.45	4.150
561.79	4.127
562.13	4.501
562.47	4.000
562.81	2.597
563.15	3.683
563.48	4.129
563.82	3.488
564.16	3.995
564.50	3.324
564.84	3.108
565.17	5.099
565.51	3.409
565.85	3.797
566.19	3.046
566.52	3.604
566.86	3.666
567.20	3.115
567.54	3.742
567.88	3.751
568.21	4.780
568.55	4.173
568.89	3.290
569.23	3.483
569.56	4.088
569.90	4.064
570.24	3.249
570.57	3.992
570.91	3.795
571.25	3.599
571.59	3.758
571.92	3.784
572.26	4.010
572.60	3.973
572.93	3.718
573.27	3.857
573.61	4.405
573.95	3.702
574.28	3.867
574.62	3.777
574.96	3.888
575.29	3.786
575.63	3.662
575.97	3.804
576.30	3.800
576.64	3.537
576.98	4.137
577.31	4.246
577.65	3.601
577.98	3.786
578.32	3.780
578.66	3.902
578.99	4.085
579.33	3.998
579.67	3.870
580.00	3.652
580.34	3.732
580.67	3.675
581.01	3.638
581.35	4.008
581.68	3.918
582.02	4.018
582.35	4.171
582.69	3.826
583.02	4.008
583.36	3.887
583.70	4.208
584.03	4.179
584.37	4.016
584.70	3.968
585.04	4.065
585.37	3.864
585.71	4.149
586.04	3.784
586.38	3.762
586.72	3.344
587.05	4.033
587.39	4.127
587.72	3.777
588.06	4.131
588.39	3.862
588.73	3.339
589.06	3.944
589.40	4.025
589.73	3.450
590.07	3.901
590.40	3.976
590.73	4.052
591.07	3.761
591.40	3.913
591.74	3.646
592.07	3.469
592.41	3.947
592.74	4.360
593.08	3.932
593.41	3.693
593.75	3.682
594.08	4.214
594.41	3.839
594.75	3.748
595.08	3.211
595.42	3.293
595.75	3.760
596.09	3.811
596.42	4.044
596.75	3.291
597.09	3.731
597.42	3.499
597.75	3.867
598.09	3.734
598.42	4.564
598.76	3.694
599.09	3.842
599.42	4.003
599.76	4.056
600.09	3.539
600.42	4.105
600.76	3.843
601.09	4.407
601.42	4.194
601.76	4.131
602.09	4.297
602.42	4.251
602.76	3.607
603.09	3.532
603.42	4.238
603.76	3.546
604.09	3.794
604.42	3.349
604.76	3.972
605.09	3.580
605.42	4.229
605.75	2.869
606.09	3.435
606.42	3.824
606.75	3.377
607.09	3.147
607.42	4.028
607.75	2.713
608.08	3.787
608.42	3.796
608.75	3.727
609.08	3.920
609.41	4.173
609.75	3.530
610.08	4.191
610.41	3.936
610.74	3.898
611.07	3.808
611.41	4.145
611.74	4.710
612.07	3.439
612.40	4.432
612.73	4.116
613.07	3.548
613.40	3.689
613.73	3.846
614.06	3.925
614.39	3.613
614.72	4.109
615.06	3.722
615.39	3.422
615.72	3.726
616.05	3.829
616.38	3.608
616.71	3.359
617.05	4.300
617.38	3.882
617.71	2.757
618.04	3.352
618.37	3.344
618.70	3.558
619.03	3.024
619.36	3.843
619.69	3.216
620.03	2.968
620.36	3.479
620.69	1.927
621.02	2.615
621.35	3.107
621.68	3.504
622.01	3.803
622.34	3.093
622.67	3.524
623.00	3.571
623.33	3.141
623.66	3.494
623.99	3.601
624.32	3.522
624.65	3.042
624.99	3.233
625.32	3.286
625.65	3.721
625.98	3.397
626.31	3.918
626.64	2.666
626.97	3.460
627.30	3.251
627.63	2.422
627.96	2.511
628.29	3.814
628.62	3.772
628.95	3.006
629.28	3.153
629.61	4.019
629.94	2.224
630.26	2.759
630.59	2.697
630.92	2.410
631.25	3.296
631.58	5.675
631.91	3.181
632.24	3.293
632.57	3.444
632.90	2.567
633.23	2.038
633.56	2.998
633.89	3.230
634.22	5.654
634.55	3.776
634.88	3.431
635.20	3.625
635.53	2.455
635.86	3.846
636.19	3.226
636.52	2.927
636.85	1.930
637.18	2.558
637.51	3.121
637.83	3.003
638.16	1.733
638.49	1.602
638.82	1.176
639.15	3.590
639.48	3.075
639.81	4.167
640.13	3.803
640.46	3.249
640.79	1.871
641.12	1.923
641.45	2.911
641.77	2.504
642.10	2.572
642.43	1.887
642.76	2.208
643.09	1.118
643.41	3.349
643.74	2.585
644.07	1.942
644.40	4.312
644.73	2.881
645.05	0.175
645.38	4.485
645.71	2.551
646.04	1.010
646.36	3.993
646.69	2.273
647.02	0.546
647.35	1.828
647.67	1.479
648.00	1.630
648.33	3.220
648.66	0.835
648.98	4.037
649.31	3.834
649.64	2.347
649.96	2.054
650.29	1.307
650.62	2.142
650.94	3.793
651.27	2.827
651.60	4.196
651.92	2.330
652.25	3.518
652.58	3.630
652.90	1.010
653.23	1.528
653.56	0.992
653.88	0.683
654.21	-1.365
654.54	1.827
654.86	1.301
655.19	1.541
