SpectraSuite Data File
++++++++++++++++++++++++++++++++++++
Date: Wed May 13 21:47:19 PDT 2015
User: schluterlab
Dark Spectrum Present: Yes
Reference Spectrum Present: Yes
Number of Sampled Component Spectra: 1
Spectrometers: USB2E3373
Integration Time (usec): 3000 (USB2E3373)
Spectra Averaged: 3 (USB2E3373)
Boxcar Smoothing: 0 (USB2E3373)
Correct for Electrical Dark: No (USB2E3373)
Strobe/Lamp Enabled: No (USB2E3373)
Correct for Detector Non-linearity: No (USB2E3373)
Correct for Stray Light: No (USB2E3373)
Number of Pixels in Processed Spectrum: 2048
>>>>>Begin Processed Spectral Data<<<<<
178.53	0.000
178.91	550.000
179.29	183.333
179.67	-400.000
180.04	-533.333
180.42	260.000
180.80	1800.000
181.18	250.000
181.56	-300.000
181.94	-75.000
182.31	27.273
182.69	100.000
183.07	-280.000
183.45	-0.000
183.83	222.222
184.20	128.571
184.58	-33.333
184.96	366.667
185.34	171.429
185.72	0.000
186.09	-500.000
186.47	-200.000
186.85	240.000
187.23	-100.000
187.61	900.000
187.98	200.000
188.36	12.500
188.74	0.000
189.12	-81.818
189.49	50.000
189.87	133.333
190.25	400.000
190.63	300.000
191.00	-120.000
191.38	320.000
191.76	150.000
192.14	133.333
192.51	0.000
192.89	366.667
193.27	150.000
193.65	-160.000
194.02	154.545
194.40	170.000
194.78	-600.000
195.15	240.000
195.53	-200.000
195.91	-75.000
196.29	-366.667
196.66	0.000
197.04	500.000
197.42	-220.000
197.79	70.000
198.17	-37.500
198.55	-166.667
198.92	450.000
199.30	-133.333
199.68	-10.000
200.05	250.000
200.43	216.667
200.81	-1900.000
201.18	-140.000
201.56	-133.333
201.94	175.000
202.31	43.478
202.69	-28.571
203.07	-333.333
203.44	20.000
203.82	-500.000
204.19	-30.000
204.57	0.000
204.95	83.333
205.32	0.000
205.70	-50.000
206.08	-425.000
206.45	-150.000
206.83	450.000
207.20	-600.000
207.58	-50.000
207.96	-800.000
208.33	-157.143
208.71	-1700.000
209.08	200.000
209.46	325.000
209.84	0.000
210.21	140.000
210.59	1500.000
210.96	340.000
211.34	1100.000
211.71	-650.000
212.09	-133.333
212.46	-120.000
212.84	-100.000
213.22	225.000
213.59	-700.000
213.97	-300.000
214.34	-450.000
214.72	0.000
215.09	187.500
215.47	133.333
215.84	800.000
216.22	-112.500
216.59	-100.000
216.97	300.000
217.34	211.111
217.72	0.000
218.09	133.333
218.47	0.000
218.84	-57.143
219.22	-100.000
219.59	-333.333
219.97	50.000
220.34	-25.000
220.72	-60.000
221.09	0.000
221.47	-150.000
221.84	300.000
222.22	0.000
222.59	1000.000
222.97	-266.667
223.34	0.000
223.72	200.000
224.09	-350.000
224.46	-36.364
224.84	-62.500
225.21	-171.429
225.59	-200.000
225.96	-16.667
226.34	20.000
226.71	-157.143
227.08	650.000
227.46	-175.000
227.83	400.000
228.21	-25.000
228.58	-100.000
228.95	5.882
229.33	-18.750
229.70	-50.000
230.08	-53.846
230.45	-100.000
230.82	-66.667
231.20	242.857
231.57	-25.000
231.95	100.000
232.32	16.667
232.69	-70.588
233.07	-1400.000
233.44	56.522
233.81	-600.000
234.19	25.000
234.56	-46.667
234.93	-20.000
235.31	0.000
235.68	-46.154
236.05	-7.692
236.43	-11.111
236.80	-18.182
237.17	-86.667
237.55	-64.706
237.92	-13.793
238.29	-59.259
238.67	-19.444
239.04	-16.129
239.41	-10.638
239.79	8.511
240.16	-13.953
240.53	-8.929
240.91	21.429
241.28	23.214
241.65	12.903
242.02	9.211
242.40	14.493
242.77	-2.899
243.14	1.282
243.51	14.894
243.89	18.269
244.26	18.868
244.63	2.885
245.00	15.625
245.38	7.563
245.75	14.754
246.12	13.534
246.49	-0.813
246.87	10.084
247.24	18.243
247.61	9.272
247.98	9.615
248.36	9.467
248.73	9.551
249.10	10.606
249.47	15.591
249.84	16.842
250.22	16.915
250.59	19.626
250.96	18.636
251.33	11.483
251.70	13.389
252.08	12.134
252.45	16.872
252.82	14.449
253.19	12.062
253.56	16.187
253.94	15.302
254.31	16.197
254.68	17.450
255.05	15.842
255.42	14.336
255.79	16.258
256.16	17.981
256.54	18.413
256.91	11.392
257.28	16.038
257.65	12.420
258.02	13.783
258.39	12.281
258.76	11.628
259.14	13.068
259.51	11.798
259.88	16.802
260.25	16.944
260.62	13.483
260.99	19.098
261.36	15.026
261.73	15.556
262.10	16.031
262.47	13.580
262.85	14.677
263.22	18.462
263.59	15.584
263.96	15.815
264.33	15.144
264.70	13.721
265.07	16.667
265.44	19.770
265.81	16.476
266.18	15.034
266.55	13.319
266.92	18.432
267.29	15.226
267.66	15.287
268.03	16.049
268.40	13.771
268.77	14.669
269.14	16.122
269.51	16.427
269.88	12.831
270.25	16.737
270.62	13.115
270.99	16.929
271.36	15.079
271.73	16.667
272.10	16.381
272.47	16.699
272.84	16.339
273.21	17.808
273.58	15.984
273.95	14.717
274.32	15.485
274.69	17.486
275.06	17.491
275.43	15.066
275.80	15.248
276.17	13.260
276.54	16.519
276.91	15.854
277.28	14.079
277.65	17.133
278.02	17.143
278.39	13.499
278.76	16.555
279.13	14.580
279.50	14.655
279.87	15.036
280.23	16.216
280.60	16.955
280.97	15.584
281.34	18.297
281.71	14.959
282.08	14.872
282.45	16.393
282.82	15.655
283.19	17.683
283.56	16.875
283.92	17.890
284.29	14.509
284.66	16.474
285.03	14.495
285.40	16.918
285.77	15.916
286.14	14.438
286.51	16.342
286.87	15.846
287.24	15.192
287.61	16.265
287.98	14.412
288.35	16.095
288.72	15.352
289.08	15.812
289.45	17.034
289.82	17.549
290.19	15.007
290.56	13.920
290.93	14.227
291.29	16.826
291.66	13.934
292.03	16.621
292.40	16.689
292.77	17.671
293.13	15.760
293.50	16.471
293.87	16.400
294.24	15.212
294.60	15.215
294.97	16.402
295.34	14.644
295.71	15.243
296.08	15.314
296.44	14.796
296.81	14.495
297.18	16.625
297.55	16.274
297.91	17.019
298.28	17.918
298.65	17.365
299.02	18.437
299.38	17.178
299.75	16.466
300.12	16.977
300.48	15.673
300.85	17.206
301.22	16.376
301.59	17.136
301.95	17.770
302.32	17.386
302.69	18.305
303.05	17.940
303.42	17.386
303.79	18.402
304.15	18.949
304.52	20.108
304.89	18.937
305.25	19.868
305.62	18.113
305.99	20.022
306.35	20.481
306.72	20.753
307.09	20.959
307.45	20.128
307.82	18.737
308.19	19.018
308.55	22.211
308.92	22.692
309.29	21.622
309.65	21.379
310.02	21.173
310.38	22.053
310.75	21.992
311.12	22.741
311.48	21.662
311.85	23.622
312.22	23.985
312.58	23.478
312.95	24.677
313.31	24.426
313.68	25.859
314.05	26.276
314.41	26.225
314.78	26.471
315.14	25.648
315.51	26.356
315.87	27.340
316.24	28.558
316.61	29.315
316.97	28.056
317.34	28.342
317.70	30.419
318.07	30.524
318.43	29.630
318.80	29.581
319.16	30.504
319.53	30.824
319.89	31.256
320.26	32.625
320.62	32.994
320.99	33.818
321.35	33.209
321.72	33.975
322.08	34.963
322.45	35.430
322.81	36.969
323.18	35.420
323.54	36.191
323.91	36.405
324.27	37.534
324.64	37.282
325.00	38.933
325.37	39.761
325.73	38.468
326.10	39.950
326.46	40.719
326.83	40.210
327.19	41.951
327.56	42.627
327.92	41.673
328.29	43.990
328.65	44.172
329.01	44.503
329.38	46.261
329.74	45.236
330.11	46.709
330.47	44.097
330.84	46.570
331.20	46.371
331.56	47.554
331.93	47.028
332.29	47.611
332.66	47.034
333.02	47.698
333.38	47.105
333.75	46.843
334.11	47.830
334.48	48.300
334.84	47.438
335.20	48.285
335.57	47.258
335.93	47.595
336.29	48.599
336.66	47.692
337.02	49.391
337.38	48.216
337.75	50.301
338.11	47.737
338.47	47.260
338.84	47.423
339.20	49.735
339.56	47.782
339.93	47.882
340.29	47.652
340.65	49.530
341.02	48.835
341.38	49.240
341.74	48.908
342.11	48.059
342.47	48.117
342.83	47.794
343.20	49.239
343.56	48.569
343.92	47.360
344.28	47.890
344.65	48.898
345.01	49.072
345.37	49.342
345.73	48.284
346.10	48.395
346.46	49.837
346.82	50.321
347.19	48.180
347.55	50.889
347.91	50.117
348.27	48.896
348.63	49.599
349.00	47.327
349.36	48.901
349.72	48.569
350.08	49.532
350.45	50.587
350.81	49.374
351.17	49.269
351.53	49.411
351.89	48.054
352.26	49.112
352.62	49.070
352.98	49.521
353.34	49.919
353.70	50.234
354.07	48.706
354.43	49.456
354.79	51.282
355.15	49.457
355.51	49.431
355.87	50.899
356.24	50.321
356.60	49.179
356.96	50.345
357.32	50.542
357.68	49.045
358.04	49.651
358.40	49.612
358.77	49.924
359.13	50.661
359.49	50.416
359.85	51.099
360.21	50.039
360.57	50.038
360.93	50.076
361.29	50.259
361.66	50.114
362.02	51.223
362.38	50.443
362.74	50.834
363.10	50.976
363.46	50.865
363.82	52.328
364.18	49.746
364.54	49.891
364.90	50.383
365.26	51.380
365.62	50.994
365.98	51.174
366.35	50.638
366.71	50.571
367.07	51.736
367.43	52.125
367.79	51.564
368.15	52.954
368.51	51.055
368.87	52.338
369.23	51.317
369.59	51.445
369.95	52.467
370.31	52.022
370.67	51.050
371.03	52.561
371.39	52.874
371.75	52.571
372.11	52.279
372.47	51.766
372.83	52.011
373.19	53.022
373.55	51.734
373.91	51.627
374.27	51.936
374.63	53.414
374.99	52.716
375.35	51.918
375.71	51.427
376.07	53.119
376.42	51.805
376.78	53.369
377.14	54.034
377.50	53.716
377.86	52.258
378.22	52.212
378.58	52.459
378.94	53.000
379.30	53.217
379.66	53.144
380.02	52.206
380.38	53.735
380.74	54.632
381.09	52.413
381.45	53.688
381.81	53.666
382.17	51.796
382.53	52.615
382.89	53.860
383.25	53.025
383.61	55.327
383.97	53.938
384.32	53.182
384.68	53.609
385.04	54.734
385.40	55.666
385.76	53.345
386.12	54.745
386.48	53.542
386.83	55.006
387.19	54.287
387.55	53.158
387.91	55.105
388.27	53.946
388.62	53.121
388.98	53.630
389.34	54.887
389.70	53.724
390.06	52.938
390.42	55.477
390.77	54.580
391.13	53.725
391.49	51.550
391.85	54.249
392.20	53.947
392.56	54.730
392.92	54.184
393.28	53.574
393.64	55.107
393.99	52.815
394.35	52.901
394.71	55.449
395.07	53.899
395.42	53.199
395.78	53.346
396.14	53.710
396.50	53.012
396.85	54.366
397.21	54.057
397.57	53.602
397.92	52.515
398.28	53.525
398.64	55.009
399.00	53.013
399.35	54.540
399.71	52.941
400.07	53.916
400.42	53.918
400.78	52.568
401.14	54.874
401.49	53.265
401.85	53.686
402.21	53.622
402.57	54.690
402.92	54.130
403.28	55.222
403.63	53.565
403.99	53.615
404.35	54.489
404.70	53.112
405.06	54.257
405.42	52.952
405.77	53.341
406.13	52.286
406.49	53.325
406.84	54.396
407.20	52.398
407.55	54.805
407.91	52.813
408.27	52.339
408.62	54.205
408.98	53.453
409.34	52.847
409.69	53.801
410.05	52.612
410.40	52.100
410.76	53.730
411.11	53.483
411.47	53.882
411.83	53.462
412.18	53.526
412.54	53.446
412.89	52.038
413.25	53.215
413.60	53.354
413.96	53.558
414.31	53.514
414.67	52.698
415.03	53.857
415.38	52.972
415.74	53.736
416.09	53.933
416.45	54.067
416.80	53.490
417.16	53.441
417.51	52.579
417.87	55.093
418.22	53.975
418.58	53.876
418.93	56.121
419.29	55.248
419.64	53.753
420.00	55.048
420.35	53.736
420.71	54.784
421.06	55.166
421.42	54.988
421.77	53.931
422.12	55.702
422.48	54.198
422.83	55.464
423.19	55.837
423.54	54.770
423.90	54.632
424.25	56.268
424.61	55.699
424.96	54.406
425.31	55.300
425.67	55.556
426.02	56.478
426.38	57.276
426.73	57.300
427.09	56.098
427.44	55.725
427.79	55.879
428.15	56.636
428.50	56.012
428.85	56.581
429.21	54.811
429.56	56.217
429.92	57.626
430.27	55.982
430.62	56.453
430.98	56.690
431.33	56.959
431.68	56.869
432.04	57.690
432.39	55.254
432.74	57.327
433.10	57.060
433.45	56.272
433.80	57.299
434.16	57.346
434.51	58.804
434.86	58.186
435.22	57.385
435.57	56.572
435.92	58.866
436.28	57.898
436.63	58.776
436.98	58.813
437.34	57.692
437.69	56.612
438.04	57.895
438.39	59.278
438.75	58.939
439.10	59.919
439.45	58.172
439.81	58.867
440.16	58.435
440.51	57.907
440.86	58.447
441.22	59.610
441.57	58.351
441.92	58.683
442.27	58.117
442.63	58.611
442.98	57.986
443.33	58.239
443.68	58.250
444.03	58.718
444.39	59.296
444.74	58.918
445.09	58.425
445.44	58.704
445.79	59.783
446.15	58.403
446.50	58.480
446.85	60.289
447.20	59.435
447.55	59.765
447.91	58.933
448.26	60.034
448.61	59.148
448.96	61.333
449.31	59.395
449.66	58.994
450.02	59.579
450.37	60.928
450.72	58.439
451.07	59.624
451.42	59.950
451.77	60.743
452.12	60.665
452.47	60.362
452.83	59.670
453.18	60.407
453.53	60.530
453.88	61.145
454.23	60.569
454.58	58.824
454.93	58.691
455.28	60.886
455.63	59.950
455.98	61.716
456.34	59.886
456.69	61.597
457.04	61.424
457.39	60.734
457.74	60.203
458.09	59.775
458.44	60.928
458.79	59.857
459.14	59.719
459.49	60.976
459.84	59.977
460.19	59.844
460.54	60.766
460.89	60.811
461.24	60.912
461.59	61.353
461.94	60.683
462.29	60.049
462.64	61.544
462.99	59.893
463.34	62.017
463.69	61.276
464.04	59.724
464.39	60.525
464.74	59.828
465.09	60.756
465.44	59.933
465.79	61.702
466.14	59.806
466.49	62.229
466.84	61.506
467.19	62.166
467.54	61.568
467.89	61.659
468.24	61.586
468.59	61.249
468.94	61.686
469.29	62.128
469.64	62.762
469.99	62.966
470.34	62.239
470.68	63.271
471.03	63.822
471.38	61.196
471.73	61.523
472.08	61.512
472.43	63.325
472.78	60.852
473.13	60.686
473.48	60.535
473.83	60.954
474.17	62.826
474.52	62.589
474.87	60.856
475.22	61.413
475.57	60.792
475.92	61.941
476.27	61.131
476.61	60.532
476.96	62.935
477.31	60.895
477.66	61.977
478.01	61.099
478.36	60.926
478.70	60.902
479.05	62.042
479.40	60.374
479.75	61.743
480.10	62.264
480.45	59.539
480.79	61.125
481.14	62.462
481.49	62.605
481.84	60.226
482.19	61.093
482.53	61.429
482.88	60.499
483.23	61.405
483.58	60.019
483.92	61.138
484.27	61.528
484.62	60.675
484.97	61.219
485.31	60.364
485.66	57.577
486.01	58.233
486.36	57.799
486.70	58.218
487.05	59.325
487.40	59.380
487.75	60.264
488.09	59.180
488.44	59.657
488.79	59.803
489.13	60.358
489.48	60.752
489.83	60.339
490.17	61.280
490.52	62.412
490.87	60.964
491.22	61.093
491.56	63.009
491.91	61.162
492.26	62.427
492.60	61.857
492.95	62.828
493.30	60.756
493.64	60.671
493.99	61.739
494.34	61.946
494.68	62.148
495.03	62.055
495.37	60.779
495.72	60.952
496.07	62.250
496.41	59.850
496.76	61.609
497.11	61.925
497.45	62.014
497.80	61.333
498.14	62.620
498.49	61.372
498.84	62.045
499.18	61.523
499.53	61.448
499.87	60.990
500.22	62.320
500.56	62.086
500.91	62.274
501.26	62.118
501.60	60.539
501.95	59.559
502.29	61.505
502.64	61.427
502.98	61.994
503.33	61.800
503.67	61.246
504.02	60.980
504.36	61.070
504.71	61.077
505.06	60.367
505.40	61.237
505.75	61.851
506.09	62.034
506.44	62.147
506.78	61.249
507.13	61.538
507.47	61.506
507.82	60.492
508.16	61.900
508.51	61.519
508.85	61.275
509.19	61.746
509.54	62.681
509.88	62.151
510.23	61.158
510.57	61.600
510.92	62.177
511.26	63.531
511.61	60.812
511.95	61.577
512.30	61.188
512.64	63.394
512.98	60.609
513.33	62.479
513.67	62.805
514.02	62.372
514.36	60.562
514.70	62.240
515.05	61.849
515.39	62.323
515.74	62.285
516.08	61.593
516.42	61.348
516.77	62.156
517.11	62.904
517.46	62.065
517.80	62.591
518.14	62.462
518.49	61.664
518.83	61.516
519.17	60.843
519.52	63.209
519.86	63.206
520.20	63.311
520.55	63.246
520.89	63.314
521.23	63.013
521.58	62.516
521.92	62.351
522.26	61.939
522.61	64.447
522.95	64.249
523.29	62.667
523.64	61.983
523.98	62.516
524.32	62.193
524.66	64.091
525.01	63.434
525.35	63.529
525.69	63.685
526.04	62.476
526.38	62.333
526.72	62.327
527.06	60.928
527.41	61.350
527.75	61.482
528.09	63.989
528.43	62.890
528.78	62.016
529.12	63.066
529.46	61.740
529.80	62.330
530.15	59.717
530.49	64.757
530.83	62.830
531.17	62.603
531.51	61.497
531.86	62.331
532.20	61.475
532.54	62.207
532.88	62.083
533.22	63.030
533.57	61.391
533.91	62.323
534.25	62.891
534.59	61.133
534.93	60.523
535.27	59.554
535.62	62.105
535.96	60.052
536.30	62.168
536.64	60.287
536.98	59.986
537.32	62.135
537.66	61.848
538.01	60.541
538.35	60.359
538.69	60.803
539.03	58.792
539.37	59.557
539.71	60.709
540.05	58.232
540.39	59.807
540.73	60.475
541.07	59.184
541.42	60.404
541.76	61.164
542.10	59.919
542.44	60.014
542.78	60.791
543.12	61.186
543.46	59.157
543.80	59.335
544.14	58.775
544.48	57.399
544.82	59.785
545.16	58.891
545.50	60.432
545.84	58.766
546.18	60.449
546.52	59.351
546.86	57.385
547.20	59.614
547.54	58.828
547.88	59.919
548.22	57.980
548.56	59.440
548.90	57.442
549.24	58.889
549.58	59.146
549.92	59.868
550.26	60.590
550.60	60.661
550.94	59.776
551.28	59.727
551.62	59.925
551.96	59.663
552.30	59.170
552.64	57.345
552.98	59.588
553.32	60.346
553.66	60.895
554.00	59.971
554.34	59.048
554.68	59.881
555.02	58.982
555.36	59.985
555.69	57.902
556.03	57.970
556.37	58.321
556.71	59.145
557.05	59.114
557.39	58.779
557.73	58.396
558.07	59.382
558.41	59.727
558.75	60.508
559.08	60.706
559.42	61.684
559.76	58.639
560.10	58.878
560.44	59.617
560.78	59.065
561.12	58.024
561.45	58.163
561.79	58.322
562.13	57.876
562.47	58.286
562.81	58.297
563.15	57.365
563.48	57.467
563.82	57.661
564.16	58.158
564.50	57.938
564.84	58.108
565.17	56.689
565.51	57.620
565.85	57.229
566.19	57.086
566.52	56.619
566.86	56.764
567.20	56.200
567.54	54.865
567.88	54.759
568.21	54.807
568.55	55.712
568.89	54.487
569.23	54.033
569.56	54.526
569.90	53.144
570.24	52.347
570.57	51.382
570.91	51.798
571.25	51.847
571.59	50.722
571.92	50.689
572.26	51.767
572.60	50.477
572.93	51.515
573.27	50.835
573.61	50.965
573.95	50.714
574.28	50.632
574.62	49.568
574.96	49.803
575.29	50.226
575.63	50.395
575.97	50.299
576.30	49.036
576.64	50.223
576.98	50.303
577.31	49.257
577.65	49.127
577.98	49.721
578.32	48.876
578.66	49.472
578.99	49.437
579.33	49.725
579.67	49.593
580.00	49.615
580.34	49.200
580.67	50.318
581.01	48.811
581.35	49.676
581.68	49.044
582.02	49.081
582.35	48.953
582.69	48.889
583.02	48.872
583.36	48.292
583.70	49.063
584.03	49.016
584.37	48.142
584.70	49.161
585.04	48.932
585.37	48.724
585.71	48.191
586.04	49.248
586.38	48.645
586.72	48.778
587.05	49.718
587.39	49.416
587.72	49.548
588.06	49.111
588.39	49.818
588.73	49.368
589.06	49.952
589.40	48.848
589.73	48.545
590.07	49.143
590.40	49.527
590.73	51.216
591.07	50.940
591.40	50.261
591.74	50.867
592.07	51.848
592.41	50.665
592.74	50.231
593.08	49.026
593.41	49.165
593.75	48.643
594.08	50.052
594.41	49.104
594.75	49.250
595.08	49.291
595.42	49.105
595.75	48.590
596.09	50.115
596.42	49.224
596.75	49.803
597.09	50.546
597.42	50.292
597.75	50.267
598.09	50.273
598.42	49.843
598.76	49.244
599.09	49.300
599.42	48.565
599.76	48.780
600.09	48.494
600.42	48.851
600.76	48.263
601.09	48.889
601.42	48.844
601.76	48.031
602.09	48.642
602.42	49.113
602.76	49.371
603.09	49.405
603.42	48.940
603.76	48.519
604.09	47.628
604.42	48.723
604.76	48.887
605.09	49.298
605.42	49.438
605.75	48.737
606.09	47.930
606.42	48.836
606.75	47.706
607.09	48.183
607.42	49.694
607.75	47.352
608.08	47.610
608.42	48.875
608.75	50.072
609.08	49.388
609.41	48.833
609.75	49.218
610.08	49.063
610.41	49.757
610.74	49.086
611.07	49.399
611.41	50.256
611.74	48.551
612.07	48.202
612.40	49.297
612.73	48.957
613.07	50.831
613.40	49.339
613.73	48.917
614.06	48.148
614.39	49.027
614.72	49.084
615.06	48.667
615.39	49.283
615.72	48.110
616.05	49.718
616.38	49.370
616.71	49.250
617.05	50.123
617.38	48.983
617.71	48.039
618.04	47.532
618.37	49.590
618.70	48.836
619.03	50.515
619.36	50.391
619.69	49.269
620.03	49.187
620.36	47.669
620.69	49.251
621.02	50.538
621.35	50.777
621.68	50.611
622.01	50.566
622.34	48.533
622.67	49.804
623.00	49.924
623.33	49.514
623.66	49.740
623.99	52.063
624.32	50.037
624.65	49.703
624.99	49.375
625.32	48.917
625.65	49.302
625.98	49.526
626.31	51.918
626.64	51.505
626.97	49.740
627.30	50.727
627.63	50.519
627.96	48.312
628.29	52.837
628.62	50.290
628.95	51.703
629.28	52.315
629.61	52.153
629.94	51.547
630.26	52.611
630.59	51.748
630.92	52.309
631.25	52.111
631.58	51.927
631.91	51.326
632.24	52.470
632.57	52.000
632.90	54.376
