SpectraSuite Data File
++++++++++++++++++++++++++++++++++++
Date: Wed May 13 21:50:15 PDT 2015
User: schluterlab
Dark Spectrum Present: Yes
Reference Spectrum Present: Yes
Number of Sampled Component Spectra: 1
Spectrometers: USB2E3373
Integration Time (usec): 3000 (USB2E3373)
Spectra Averaged: 3 (USB2E3373)
Boxcar Smoothing: 0 (USB2E3373)
Correct for Electrical Dark: No (USB2E3373)
Strobe/Lamp Enabled: No (USB2E3373)
Correct for Detector Non-linearity: No (USB2E3373)
Correct for Stray Light: No (USB2E3373)
Number of Pixels in Processed Spectrum: 2048
>>>>>Begin Processed Spectral Data<<<<<
178.53	0.000
178.91	500.000
179.29	133.333
179.67	-1050.000
180.04	-466.667
180.42	260.000
180.80	2200.000
181.18	283.333
181.56	-250.000
181.94	-225.000
182.31	-45.455
182.69	169.231
183.07	-240.000
183.45	466.667
183.83	144.444
184.20	128.571
184.58	100.000
184.96	100.000
185.34	157.143
185.72	0.000
186.09	-100.000
186.47	-280.000
186.85	180.000
187.23	-350.000
187.61	400.000
187.98	1900.000
188.36	-37.500
188.74	0.000
189.12	-90.909
189.49	120.000
189.87	141.667
190.25	360.000
190.63	700.000
191.00	-100.000
191.38	220.000
191.76	450.000
192.14	150.000
192.51	-42.105
192.89	566.667
193.27	350.000
193.65	-280.000
194.02	200.000
194.40	130.000
194.78	-700.000
195.15	300.000
195.53	-240.000
195.91	-37.500
196.29	-166.667
196.66	0.000
197.04	250.000
197.42	-140.000
197.79	60.000
198.17	-125.000
198.55	-333.333
198.92	175.000
199.30	-133.333
199.68	-100.000
200.05	300.000
200.43	233.333
200.81	-1600.000
201.18	-140.000
201.56	-166.667
201.94	625.000
202.31	-21.739
202.69	-214.286
203.07	-400.000
203.44	-140.000
203.82	-366.667
204.19	-30.000
204.57	0.000
204.95	-200.000
205.32	0.000
205.70	-300.000
206.08	-225.000
206.45	-200.000
206.83	575.000
207.20	-266.667
207.58	-140.000
207.96	-1300.000
208.33	-257.143
208.71	-1800.000
209.08	200.000
209.46	275.000
209.84	0.000
210.21	190.000
210.59	1700.000
210.96	460.000
211.34	1600.000
211.71	-700.000
212.09	-233.333
212.46	-270.000
212.84	-466.667
213.22	-375.000
213.59	-300.000
213.97	-550.000
214.34	-1100.000
214.72	-61.538
215.09	187.500
215.47	100.000
215.84	700.000
216.22	-162.500
216.59	-650.000
216.97	566.667
217.34	266.667
217.72	0.000
218.09	533.333
218.47	-200.000
218.84	-142.857
219.22	-187.500
219.59	-233.333
219.97	-350.000
220.34	-87.500
220.72	-320.000
221.09	0.000
221.47	-350.000
221.84	-400.000
222.22	0.000
222.59	1200.000
222.97	-366.667
223.34	-41.667
223.72	-1700.000
224.09	-800.000
224.46	-18.182
224.84	-100.000
225.21	-71.429
225.59	-300.000
225.96	-100.000
226.34	-30.000
226.71	-228.571
227.08	550.000
227.46	-37.500
227.83	200.000
228.21	-25.000
228.58	-325.000
228.95	0.000
229.33	0.000
229.70	-100.000
230.08	-130.769
230.45	-237.500
230.82	-75.000
231.20	228.571
231.57	-500.000
231.95	1600.000
232.32	83.333
232.69	-5.882
233.07	-1000.000
233.44	-60.870
233.81	-850.000
234.19	-16.667
234.56	-80.000
234.93	-40.000
235.31	15.789
235.68	-92.308
236.05	-15.385
236.43	-44.444
236.80	-42.424
237.17	-100.000
237.55	-94.118
237.92	-55.172
238.29	-51.852
238.67	-16.667
239.04	-48.387
239.41	-29.787
239.79	-12.766
240.16	-25.581
240.53	5.357
240.91	-12.500
241.28	-10.714
241.65	-6.452
242.02	-9.211
242.40	-15.942
242.77	-15.942
243.14	-5.128
243.51	-10.638
243.89	-11.538
244.26	1.887
244.63	-4.808
245.00	-2.083
245.38	-6.723
245.75	-0.820
246.12	-3.008
246.49	-12.195
246.87	-21.008
247.24	-4.730
247.61	0.000
247.98	-0.641
248.36	-1.775
248.73	-4.494
249.10	-1.515
249.47	-5.376
249.84	-2.105
250.22	-1.990
250.59	-6.075
250.96	-0.455
251.33	-6.220
251.70	5.021
252.08	1.255
252.45	0.412
252.82	0.380
253.19	-0.389
253.56	-2.158
253.94	5.694
254.31	3.521
254.68	2.685
255.05	1.320
255.42	-0.699
255.79	3.067
256.16	2.208
256.54	-1.587
256.91	-1.899
257.28	-1.258
257.65	-3.503
258.02	0.587
258.39	3.801
258.76	-2.616
259.14	1.136
259.51	-1.404
259.88	-1.626
260.25	0.000
260.62	1.685
260.99	0.265
261.36	3.368
261.73	1.481
262.10	-0.254
262.47	-0.494
262.85	-0.498
263.22	2.051
263.59	-0.779
263.96	0.000
264.33	0.000
264.70	0.233
265.07	2.546
265.44	2.529
265.81	-1.144
266.18	2.961
266.55	-0.437
266.92	0.424
267.29	0.823
267.66	0.212
268.03	4.321
268.40	-1.059
268.77	3.512
269.14	3.061
269.51	2.053
269.88	-0.815
270.25	0.636
270.62	-0.410
270.99	2.362
271.36	1.984
271.73	-0.201
272.10	1.524
272.47	1.344
272.84	2.165
273.21	2.153
273.58	-1.025
273.95	1.698
274.32	2.799
274.69	2.186
275.06	5.124
275.43	1.883
275.80	1.950
276.17	0.184
276.54	0.888
276.91	0.348
277.28	-0.361
277.65	1.399
278.02	2.679
278.39	0.533
278.76	1.171
279.13	2.058
279.50	1.034
279.87	-0.543
280.23	1.441
280.60	0.519
280.97	-0.487
281.34	3.470
281.71	1.626
282.08	-0.513
282.45	1.475
282.82	2.077
283.19	2.591
283.56	1.563
283.92	1.070
284.29	1.248
284.66	0.659
285.03	-0.977
285.40	1.360
285.77	1.502
286.14	2.736
286.51	4.648
286.87	0.769
287.24	1.622
287.61	-0.452
287.98	2.647
288.35	1.043
288.72	2.009
289.08	3.134
289.45	2.349
289.82	1.362
290.19	1.683
290.56	0.426
290.93	0.414
291.29	0.410
291.66	1.093
292.03	2.044
292.40	2.692
292.77	2.410
293.13	1.255
293.50	2.745
293.87	2.667
294.24	0.132
294.60	1.040
294.97	2.513
295.34	0.660
295.71	-0.131
296.08	1.702
296.44	1.148
296.81	2.192
297.18	2.125
297.55	2.594
297.91	2.484
298.28	2.179
298.65	1.478
299.02	2.808
299.38	1.963
299.75	2.644
300.12	2.093
300.48	0.234
300.85	2.194
301.22	1.858
301.59	2.465
301.95	0.465
302.32	1.284
302.69	1.017
303.05	0.886
303.42	1.705
303.79	3.049
304.15	1.752
304.52	2.043
304.89	1.440
305.25	0.549
305.62	2.061
305.99	2.720
306.35	3.239
306.72	3.154
307.09	1.981
307.45	2.343
307.82	1.368
308.19	1.358
308.55	3.173
308.92	4.028
309.29	1.802
309.65	2.797
310.02	3.280
310.38	3.150
310.75	2.268
311.12	3.790
311.48	2.770
311.85	2.559
312.22	3.385
312.58	2.319
312.95	3.682
313.31	3.949
313.68	3.435
314.05	4.726
314.41	5.187
314.78	5.313
315.14	4.352
315.51	4.853
315.87	6.209
316.24	6.428
316.61	4.932
316.97	5.185
317.34	6.061
317.70	6.244
318.07	7.098
318.43	6.685
318.80	5.497
319.16	6.543
319.53	6.631
319.89	7.317
320.26	8.688
320.62	8.897
320.99	7.655
321.35	7.858
321.72	8.855
322.08	10.793
322.45	10.361
322.81	10.259
323.18	11.091
323.54	10.830
323.91	11.472
324.27	11.161
324.64	10.192
325.00	11.111
325.37	13.140
325.73	11.953
326.10	12.952
326.46	12.207
326.83	13.107
327.19	13.496
327.56	13.618
327.92	13.516
328.29	15.192
328.65	14.286
329.01	13.017
329.38	14.609
329.74	14.249
330.11	13.796
330.47	15.278
330.84	14.440
331.20	15.628
331.56	15.580
331.93	15.935
332.29	15.899
332.66	15.085
333.02	17.029
333.38	16.491
333.75	15.614
334.11	16.927
334.48	15.693
334.84	16.254
335.20	15.952
335.57	15.927
335.93	15.636
336.29	15.937
336.66	16.752
337.02	16.000
337.38	16.536
337.75	15.848
338.11	15.713
338.47	15.582
338.84	16.581
339.20	15.785
339.56	15.956
339.93	15.817
340.29	15.884
340.65	16.681
341.02	15.724
341.38	16.385
341.74	14.034
342.11	16.515
342.47	16.402
342.83	16.422
343.20	16.751
343.56	16.271
343.92	16.003
344.28	16.964
344.65	16.082
345.01	15.738
345.37	16.283
345.73	16.912
346.10	16.453
346.46	16.748
346.82	15.891
347.19	15.823
347.55	15.590
347.91	16.134
348.27	15.694
348.63	15.064
349.00	15.723
349.36	16.013
349.72	16.628
350.08	16.927
350.45	16.680
350.81	16.197
351.17	16.859
351.53	16.025
351.89	15.488
352.26	15.290
352.62	16.202
352.98	15.655
353.34	16.184
353.70	16.121
354.07	15.216
354.43	15.319
354.79	16.106
355.15	16.304
355.51	15.566
355.87	14.621
356.24	15.409
356.60	15.872
356.96	16.654
357.32	17.105
357.68	16.654
358.04	16.137
358.40	16.744
358.77	17.278
359.13	16.031
359.49	16.730
359.85	15.390
360.21	16.114
360.57	16.122
360.93	17.147
361.29	15.914
361.66	17.464
362.02	16.086
362.38	16.913
362.74	15.518
363.10	15.835
363.46	15.634
363.82	16.112
364.18	15.881
364.54	16.484
364.90	16.516
365.26	16.561
365.62	15.838
365.98	15.730
366.35	16.170
366.71	16.262
367.07	16.584
367.43	17.143
367.79	16.817
368.15	16.385
368.51	16.104
368.87	16.678
369.23	16.014
369.59	15.786
369.95	15.239
370.31	15.690
370.67	16.003
371.03	16.110
371.39	16.749
371.75	15.929
372.11	16.667
372.47	15.934
372.83	16.713
373.19	15.396
373.55	15.896
373.91	16.478
374.27	15.560
374.63	16.999
374.99	15.669
375.35	16.164
375.71	16.168
376.07	17.135
376.42	16.578
376.78	18.164
377.14	16.949
377.50	16.949
377.86	16.467
378.22	16.372
378.58	16.204
378.94	17.188
379.30	16.927
379.66	17.263
380.02	15.870
380.38	16.566
380.74	16.677
381.09	16.767
381.45	16.022
381.81	16.513
382.17	16.383
382.53	16.000
382.89	15.320
383.25	16.235
383.61	16.586
383.97	16.438
384.32	15.123
384.68	16.101
385.04	16.555
385.40	16.874
385.76	16.788
386.12	16.204
386.48	15.737
386.83	16.208
387.19	15.608
387.55	16.248
387.91	15.744
388.27	14.673
388.62	15.793
388.98	15.832
389.34	15.915
389.70	15.385
390.06	16.312
390.42	15.915
390.77	16.720
391.13	15.404
391.49	15.244
391.85	15.847
392.20	15.351
392.56	15.365
392.92	15.389
393.28	15.572
393.64	15.596
393.99	14.688
394.35	15.556
394.71	15.513
395.07	14.717
395.42	16.514
395.78	14.479
396.14	15.409
396.50	14.648
396.85	14.978
397.21	14.419
397.57	14.720
397.92	15.030
398.28	14.552
398.64	14.754
399.00	15.513
399.35	15.096
399.71	14.968
400.07	14.578
400.42	14.169
400.78	14.924
401.14	13.611
401.49	14.919
401.85	13.943
402.21	14.489
402.57	14.654
402.92	14.706
403.28	14.259
403.63	14.631
403.99	14.203
404.35	13.716
404.70	13.897
405.06	14.621
405.42	13.128
405.77	13.710
406.13	13.600
406.49	13.661
406.84	14.469
407.20	13.795
407.55	13.117
407.91	13.369
408.27	13.849
408.62	13.567
408.98	13.564
409.34	13.676
409.69	13.970
410.05	13.246
410.40	12.416
410.76	14.079
411.11	13.930
411.47	13.603
411.83	13.662
412.18	14.169
412.54	13.784
412.89	12.853
413.25	13.746
413.60	13.480
413.96	13.546
414.31	13.995
414.67	13.714
415.03	13.735
415.38	13.342
415.74	13.580
416.09	13.814
416.45	14.286
416.80	12.752
417.16	14.238
417.51	13.396
417.87	13.823
418.22	12.993
418.58	12.681
418.93	13.497
419.29	14.125
419.64	12.977
420.00	13.206
420.35	13.568
420.71	13.528
421.06	13.223
421.42	13.929
421.77	13.237
422.12	14.269
422.48	13.577
422.83	13.703
423.19	13.226
423.54	14.075
423.90	13.895
424.25	14.038
424.61	13.986
424.96	14.370
425.31	13.909
425.67	14.932
426.02	14.664
426.38	14.241
426.73	14.905
427.09	15.009
427.44	13.917
427.79	14.430
428.15	14.128
428.50	13.293
428.85	15.129
429.21	14.406
429.56	14.825
429.92	14.992
430.27	14.622
430.62	14.848
430.98	14.437
431.33	14.508
431.68	15.655
432.04	14.817
432.39	14.434
432.74	14.470
433.10	15.572
433.45	14.556
433.80	14.195
434.16	14.582
434.51	15.054
434.86	15.253
435.22	16.072
435.57	14.435
435.92	14.596
436.28	15.075
436.63	15.127
436.98	15.276
437.34	15.324
437.69	14.699
438.04	15.507
438.39	15.567
438.75	15.733
439.10	16.194
439.45	15.194
439.81	15.887
440.16	16.696
440.51	15.339
440.86	15.827
441.22	16.007
441.57	15.889
441.92	16.174
442.27	15.963
442.63	16.146
442.98	14.988
443.33	15.801
443.68	16.078
444.03	16.692
444.39	16.510
444.74	15.682
445.09	16.024
445.44	16.789
445.79	16.417
446.15	16.583
446.50	16.685
446.85	17.050
447.20	15.996
447.55	17.012
447.91	16.011
448.26	17.038
448.61	16.226
448.96	16.686
449.31	16.505
449.66	16.888
450.02	16.487
450.37	15.805
450.72	16.590
451.07	16.740
451.42	16.095
451.77	16.677
452.12	16.340
452.47	16.720
452.83	16.745
453.18	16.486
453.53	17.024
453.88	16.566
454.23	16.934
454.58	16.605
454.93	17.447
455.28	16.891
455.63	16.032
455.98	16.494
456.34	16.720
456.69	16.102
457.04	16.656
457.39	16.957
457.74	16.278
458.09	16.114
458.44	16.745
458.79	16.859
459.14	16.292
459.49	16.524
459.84	15.502
460.19	16.627
460.54	16.423
460.89	17.399
461.24	16.584
461.59	17.089
461.94	18.268
462.29	16.483
462.64	16.755
462.99	16.700
463.34	17.058
463.69	16.559
464.04	16.567
464.39	16.290
464.74	16.523
465.09	17.669
465.44	17.340
465.79	16.964
466.14	17.218
466.49	17.537
466.84	17.573
467.19	16.369
467.54	17.693
467.89	17.410
468.24	16.964
468.59	16.507
468.94	17.433
469.29	17.713
469.64	16.597
469.99	17.172
470.34	17.465
470.68	17.398
471.03	16.150
471.38	16.412
471.73	18.038
472.08	16.976
472.43	17.348
472.78	16.836
473.13	16.095
473.48	16.634
473.83	17.012
474.17	16.797
474.52	17.411
474.87	16.707
475.22	16.486
475.57	17.568
475.92	16.685
476.27	16.259
476.61	16.082
476.96	16.676
477.31	17.260
477.66	17.401
478.01	16.978
478.36	16.676
478.70	16.380
479.05	17.536
479.40	17.265
479.75	16.684
480.10	17.440
480.45	16.920
480.79	16.078
481.14	18.237
481.49	17.119
481.84	16.258
482.19	16.350
482.53	16.952
482.88	17.258
483.23	16.121
483.58	16.824
483.92	16.926
484.27	16.057
484.62	16.067
484.97	16.757
485.31	17.053
485.66	17.039
486.01	17.199
486.36	17.226
486.70	17.727
487.05	17.340
487.40	17.551
487.75	16.968
488.09	17.047
488.44	16.894
488.79	17.449
489.13	17.097
489.48	16.717
489.83	16.615
490.17	16.387
490.52	17.017
490.87	16.412
491.22	17.522
491.56	17.920
491.91	17.043
492.26	17.311
492.60	16.450
492.95	17.396
493.30	16.279
493.64	15.683
493.99	17.101
494.34	16.715
494.68	17.041
495.03	16.947
495.37	16.837
495.72	16.642
496.07	16.853
496.41	16.378
496.76	16.910
497.11	16.103
497.45	16.780
497.80	16.658
498.14	16.927
498.49	16.692
498.84	17.105
499.18	16.575
499.53	16.937
499.87	16.303
500.22	16.327
500.56	16.499
500.91	17.555
501.26	16.207
501.60	16.912
501.95	16.579
502.29	16.796
502.64	17.117
502.98	17.341
503.33	16.496
503.67	17.089
504.02	16.863
504.36	17.632
504.71	16.667
505.06	17.677
505.40	16.804
505.75	17.294
506.09	17.067
506.44	16.583
506.78	17.877
507.13	17.308
507.47	16.437
507.82	17.321
508.16	17.625
508.51	16.632
508.85	17.159
509.19	17.672
509.54	17.265
509.88	17.366
510.23	17.684
510.57	17.585
510.92	17.134
511.26	16.722
511.61	16.959
511.95	16.373
512.30	16.935
512.64	17.537
512.98	17.729
513.33	16.789
513.67	16.525
514.02	17.674
514.36	17.135
514.70	17.148
515.05	17.554
515.39	17.807
515.74	17.052
516.08	16.873
516.42	15.841
516.77	16.462
517.11	17.637
517.46	17.767
517.80	17.252
518.14	16.718
518.49	16.998
518.83	16.885
519.17	16.867
519.52	17.732
519.86	17.365
520.20	16.980
520.55	17.662
520.89	17.078
521.23	17.821
521.58	17.130
521.92	16.908
522.26	16.981
522.61	17.841
522.95	17.358
523.29	17.524
523.64	16.720
523.98	16.518
524.32	17.202
524.66	16.364
525.01	16.776
525.35	17.709
525.69	16.832
526.04	16.547
526.38	18.483
526.72	17.554
527.06	17.730
527.41	16.612
527.75	16.021
528.09	17.427
528.43	17.707
528.78	16.408
529.12	17.141
529.46	17.019
529.80	18.188
530.15	15.508
530.49	18.396
530.83	17.400
531.17	17.397
531.51	16.183
531.86	16.057
532.20	17.023
532.54	16.966
532.88	17.427
533.22	16.633
533.57	17.285
533.91	17.419
534.25	17.513
534.59	16.345
534.93	16.773
535.27	16.369
535.62	16.382
535.96	16.851
536.30	17.154
536.64	16.541
536.98	15.347
537.32	16.584
537.66	17.701
538.01	16.297
538.35	16.644
538.69	16.856
539.03	16.443
539.37	16.164
539.71	17.462
540.05	15.789
540.39	16.586
540.73	17.318
541.07	17.007
541.42	18.047
541.76	16.441
542.10	17.197
542.44	16.493
542.78	16.586
543.12	16.712
543.46	15.688
543.80	16.768
544.14	17.343
544.48	15.594
544.82	16.880
545.16	16.498
545.50	17.623
545.84	16.900
546.18	16.550
546.52	17.290
546.86	16.113
547.20	17.012
547.54	16.369
547.88	17.544
548.22	17.655
548.56	16.811
548.90	16.644
549.24	17.778
549.58	17.580
549.92	16.728
550.26	18.007
550.60	16.141
550.94	15.970
551.28	16.427
551.62	16.917
551.96	17.643
552.30	16.958
552.64	15.890
552.98	17.756
553.32	17.664
553.66	17.315
554.00	16.991
554.34	16.190
554.68	17.077
555.02	16.991
555.36	16.112
555.69	16.824
556.03	17.155
556.37	17.141
556.71	16.468
557.05	16.605
557.39	16.503
557.73	17.700
558.07	18.538
558.41	17.638
558.75	18.091
559.08	16.119
559.42	17.624
559.76	17.431
560.10	17.294
560.44	17.170
560.78	17.410
561.12	17.309
561.45	17.415
561.79	17.331
562.13	17.651
562.47	18.000
562.81	16.234
563.15	17.351
563.48	16.930
563.82	16.416
564.16	17.197
564.50	17.436
564.84	17.162
565.17	17.947
565.51	16.845
565.85	17.055
566.19	17.550
566.52	17.562
566.86	16.814
567.20	17.899
567.54	17.386
567.88	16.685
568.21	17.002
568.55	17.527
568.89	17.398
569.23	18.515
569.56	17.355
569.90	17.293
570.24	17.148
570.57	17.503
570.91	17.277
571.25	17.166
571.59	17.949
571.92	18.011
572.26	17.226
572.60	18.047
572.93	17.619
573.27	17.704
573.61	17.766
573.95	17.636
574.28	17.633
574.62	17.107
574.96	17.864
575.29	17.778
575.63	17.861
575.97	17.880
576.30	17.428
576.64	17.448
576.98	17.533
577.31	17.834
577.65	17.561
577.98	17.960
578.32	17.756
578.66	17.978
578.99	18.286
579.33	18.041
579.67	17.770
580.00	17.466
580.34	17.668
580.67	17.834
581.01	17.934
581.35	18.076
581.68	17.604
582.02	17.856
582.35	18.559
582.69	18.203
583.02	17.739
583.36	18.163
583.70	17.783
584.03	18.549
584.37	17.923
584.70	18.296
585.04	18.446
585.37	18.858
585.71	18.090
586.04	18.496
586.38	18.364
586.72	18.264
587.05	19.120
587.39	18.708
587.72	19.016
588.06	18.523
588.39	18.388
588.73	18.803
589.06	18.526
589.40	19.023
589.73	18.326
590.07	19.103
590.40	18.440
590.73	18.760
591.07	18.554
591.40	18.739
591.74	18.586
592.07	18.393
592.41	19.219
592.74	19.252
593.08	18.667
593.41	18.915
593.75	18.249
594.08	18.998
594.41	18.026
594.75	19.040
595.08	18.372
595.42	18.719
595.75	18.944
596.09	18.630
596.42	18.750
596.75	18.736
597.09	19.745
597.42	18.843
597.75	18.622
598.09	18.306
598.42	19.418
598.76	19.144
599.09	19.328
599.42	18.656
599.76	18.964
600.09	18.976
600.42	19.021
600.76	18.995
601.09	18.870
601.42	18.659
601.76	18.764
602.09	18.525
602.42	19.274
602.76	19.044
603.09	19.138
603.42	19.512
603.76	18.433
604.09	19.012
604.42	18.836
604.76	18.595
605.09	18.577
605.42	19.118
605.75	19.315
606.09	18.874
606.42	18.828
606.75	18.009
607.09	19.105
607.42	19.571
607.75	18.249
608.08	19.116
608.42	18.604
608.75	19.637
609.08	18.569
609.41	19.275
609.75	18.860
610.08	19.132
610.41	19.193
610.74	19.682
611.07	19.389
611.41	19.806
611.74	19.151
612.07	18.812
612.40	19.838
612.73	18.771
613.07	18.071
613.40	18.833
613.73	19.556
614.06	18.850
614.39	19.455
614.72	19.378
615.06	19.111
615.39	18.985
615.72	18.521
616.05	18.356
616.38	18.213
616.71	17.337
617.05	19.349
617.38	20.086
617.71	18.321
618.04	18.464
618.37	18.360
618.70	19.405
619.03	17.801
619.36	18.363
619.69	19.444
620.03	18.869
620.36	18.163
620.69	17.844
621.02	17.769
621.35	18.152
621.68	17.685
622.01	18.204
622.34	18.081
622.67	18.637
623.00	19.301
623.33	19.521
623.66	18.736
623.99	18.905
624.32	18.195
624.65	18.472
624.99	19.251
625.32	18.447
625.65	18.217
625.98	18.325
626.31	19.020
626.64	18.057
626.97	17.734
627.30	20.103
627.63	19.118
627.96	16.797
628.29	18.512
628.62	18.085
628.95	17.635
629.28	17.931
629.61	19.139
629.94	18.762
630.26	17.635
630.59	18.881
630.92	18.173
631.25	17.920
631.58	18.844
631.91	16.861
632.24	16.795
632.57	17.778
632.90	19.253
633.23	16.187
633.56	19.065
633.89	18.780
634.22	20.612
634.55	17.783
634.88	17.402
635.20	19.875
