SpectraSuite Data File
++++++++++++++++++++++++++++++++++++
Date: Wed May 13 21:50:00 PDT 2015
User: schluterlab
Dark Spectrum Present: Yes
Reference Spectrum Present: Yes
Number of Sampled Component Spectra: 1
Spectrometers: USB2E3373
Integration Time (usec): 3000 (USB2E3373)
Spectra Averaged: 3 (USB2E3373)
Boxcar Smoothing: 0 (USB2E3373)
Correct for Electrical Dark: No (USB2E3373)
Strobe/Lamp Enabled: No (USB2E3373)
Correct for Detector Non-linearity: No (USB2E3373)
Correct for Stray Light: No (USB2E3373)
Number of Pixels in Processed Spectrum: 2048
>>>>>Begin Processed Spectral Data<<<<<
178.53	0.000
178.91	1150.000
179.29	200.000
179.67	-450.000
180.04	-500.000
180.42	140.000
180.80	1300.000
181.18	283.333
181.56	-150.000
181.94	-175.000
182.31	27.273
182.69	100.000
183.07	-240.000
183.45	150.000
183.83	244.444
184.20	200.000
184.58	-400.000
184.96	233.333
185.34	171.429
185.72	0.000
186.09	-200.000
186.47	-240.000
186.85	340.000
187.23	0.000
187.61	450.000
187.98	400.000
188.36	-100.000
188.74	0.000
189.12	-54.545
189.49	-30.000
189.87	125.000
190.25	180.000
190.63	800.000
191.00	-60.000
191.38	200.000
191.76	200.000
192.14	75.000
192.51	-42.105
192.89	266.667
193.27	200.000
193.65	-300.000
194.02	245.455
194.40	200.000
194.78	-100.000
195.15	300.000
195.53	-280.000
195.91	37.500
196.29	-433.333
196.66	0.000
197.04	150.000
197.42	0.000
197.79	-50.000
198.17	-237.500
198.55	-366.667
198.92	300.000
199.30	-500.000
199.68	-20.000
200.05	600.000
200.43	183.333
200.81	-2100.000
201.18	-300.000
201.56	-83.333
201.94	625.000
202.31	-30.435
202.69	-285.714
203.07	-666.667
203.44	-180.000
203.82	-366.667
204.19	30.000
204.57	0.000
204.95	-50.000
205.32	0.000
205.70	-150.000
206.08	-125.000
206.45	-150.000
206.83	500.000
207.20	-366.667
207.58	-110.000
207.96	-1400.000
208.33	-185.714
208.71	-2300.000
209.08	250.000
209.46	50.000
209.84	0.000
210.21	200.000
210.59	1500.000
210.96	140.000
211.34	900.000
211.71	-850.000
212.09	-200.000
212.46	-130.000
212.84	0.000
213.22	25.000
213.59	0.000
213.97	-450.000
214.34	-650.000
214.72	-7.692
215.09	225.000
215.47	77.778
215.84	450.000
216.22	-100.000
216.59	-50.000
216.97	400.000
217.34	177.778
217.72	0.000
218.09	300.000
218.47	-100.000
218.84	-100.000
219.22	-162.500
219.59	-433.333
219.97	-175.000
220.34	-87.500
220.72	80.000
221.09	0.000
221.47	-316.667
221.84	-100.000
222.22	0.000
222.59	500.000
222.97	-366.667
223.34	-125.000
223.72	-1400.000
224.09	-700.000
224.46	-36.364
224.84	-75.000
225.21	-42.857
225.59	-175.000
225.96	-133.333
226.34	-70.000
226.71	-171.429
227.08	1050.000
227.46	-75.000
227.83	-1300.000
228.21	-43.750
228.58	-150.000
228.95	-35.294
229.33	-50.000
229.70	-87.500
230.08	-15.385
230.45	-187.500
230.82	-41.667
231.20	100.000
231.57	-150.000
231.95	1300.000
232.32	41.667
232.69	29.412
233.07	-400.000
233.44	0.000
233.81	-550.000
234.19	16.667
234.56	-33.333
234.93	26.667
235.31	-21.053
235.68	-23.077
236.05	38.462
236.43	27.778
236.80	-9.091
237.17	-93.333
237.55	-47.059
237.92	-6.897
238.29	-18.519
238.67	27.778
239.04	-16.129
239.41	29.787
239.79	-4.255
240.16	11.628
240.53	26.786
240.91	19.643
241.28	12.500
241.65	37.097
242.02	28.947
242.40	24.638
242.77	28.986
243.14	16.667
243.51	18.085
243.89	19.231
244.26	33.962
244.63	27.885
245.00	35.417
245.38	26.050
245.75	25.410
246.12	33.083
246.49	25.203
246.87	21.008
247.24	34.459
247.61	26.490
247.98	28.846
248.36	29.586
248.73	25.281
249.10	31.313
249.47	30.645
249.84	29.474
250.22	27.861
250.59	31.308
250.96	33.182
251.33	27.751
251.70	36.820
252.08	30.544
252.45	33.333
252.82	32.319
253.19	33.852
253.56	30.216
253.94	34.164
254.31	34.155
254.68	35.570
255.05	34.653
255.42	33.217
255.79	30.982
256.16	34.069
256.54	30.159
256.91	31.329
257.28	33.962
257.65	30.892
258.02	31.672
258.39	33.041
258.76	31.395
259.14	32.670
259.51	29.494
259.88	31.436
260.25	34.167
260.62	33.427
260.99	34.218
261.36	33.938
261.73	32.099
262.10	31.807
262.47	32.840
262.85	33.333
263.22	31.795
263.59	31.429
263.96	33.333
264.33	35.577
264.70	30.930
265.07	34.259
265.44	36.092
265.81	31.808
266.18	33.941
266.55	34.934
266.92	32.839
267.29	31.070
267.66	35.244
268.03	34.979
268.40	29.873
268.77	34.298
269.14	32.857
269.51	33.676
269.88	32.179
270.25	33.898
270.62	32.377
270.99	33.465
271.36	33.929
271.73	33.133
272.10	33.333
272.47	35.125
272.84	33.071
273.21	31.898
273.58	36.270
273.95	32.830
274.32	33.396
274.69	31.330
275.06	32.686
275.43	32.768
275.80	31.560
276.17	33.333
276.54	31.972
276.91	33.275
277.28	34.296
277.65	33.916
278.02	34.464
278.39	31.794
278.76	32.943
279.13	33.276
279.50	32.069
279.87	32.971
280.23	30.090
280.60	32.180
280.97	32.630
281.34	33.281
281.71	30.244
282.08	31.282
282.45	31.311
282.82	32.588
283.19	33.841
283.56	31.563
283.92	31.957
284.29	29.485
284.66	32.949
285.03	29.316
285.40	30.363
285.77	32.432
286.14	30.699
286.51	31.634
286.87	31.538
287.24	30.973
287.61	31.627
287.98	31.029
288.35	31.148
288.72	30.990
289.08	30.769
289.45	29.809
289.82	30.408
290.19	29.734
290.56	27.415
290.93	27.348
291.29	29.822
291.66	27.869
292.03	28.202
292.40	26.783
292.77	28.380
293.13	27.615
293.50	27.320
293.87	27.733
294.24	27.381
294.60	27.438
294.97	27.513
295.34	25.726
295.71	25.230
296.08	26.178
296.44	26.148
296.81	26.918
297.18	25.375
297.55	24.882
297.91	26.460
298.28	24.818
298.65	25.493
299.02	27.717
299.38	23.436
299.75	23.678
300.12	25.116
300.48	24.094
300.85	24.711
301.22	24.855
301.59	25.822
301.95	23.113
302.32	24.154
302.69	23.503
303.05	24.474
303.42	23.068
303.79	25.026
304.15	24.644
304.52	24.086
304.89	24.252
305.25	22.722
305.62	23.861
305.99	24.266
306.35	24.033
306.72	23.093
307.09	22.523
307.45	23.855
307.82	23.368
308.19	23.302
308.55	22.006
308.92	24.165
309.29	24.625
309.65	23.377
310.02	23.956
310.38	23.577
310.75	23.471
311.12	23.032
311.48	22.750
311.85	22.933
312.22	24.565
312.58	22.609
312.95	24.179
313.31	22.681
313.68	23.760
314.05	23.724
314.41	25.456
314.78	24.004
315.14	24.259
315.51	23.216
315.87	23.911
316.24	23.416
316.61	24.110
316.97	23.519
317.34	23.619
317.70	25.513
318.07	25.022
318.43	23.668
318.80	23.037
319.16	22.723
319.53	23.925
319.89	23.939
320.26	24.769
320.62	23.448
320.99	23.450
321.35	22.732
321.72	24.062
322.08	24.446
322.45	23.959
322.81	22.828
323.18	23.971
323.54	23.736
323.91	23.758
324.27	24.212
324.64	23.171
325.00	24.497
325.37	24.744
325.73	22.980
326.10	23.129
326.46	25.920
326.83	25.162
327.19	23.415
327.56	24.013
327.92	23.974
328.29	25.209
328.65	25.241
329.01	23.131
329.38	24.957
329.74	23.348
330.11	23.264
330.47	22.743
330.84	24.278
331.20	22.886
331.56	24.094
331.93	23.170
332.29	25.630
332.66	23.475
333.02	25.109
333.38	24.211
333.75	23.379
334.11	24.045
334.48	23.801
334.84	22.968
335.20	24.271
335.57	23.151
335.93	23.883
336.29	23.030
336.66	22.735
337.02	23.130
337.38	24.369
337.75	22.567
338.11	23.057
338.47	22.346
338.84	22.509
339.20	24.162
339.56	22.611
339.93	23.682
340.29	22.374
340.65	23.695
341.02	22.296
341.38	24.240
341.74	22.521
342.11	22.213
342.47	21.841
342.83	22.631
343.20	22.335
343.56	22.976
343.92	23.396
344.28	23.052
344.65	22.122
345.01	22.276
345.37	21.957
345.73	23.448
346.10	22.392
346.46	22.195
346.82	21.990
347.19	22.943
347.55	22.456
347.91	21.746
348.27	22.950
348.63	21.635
349.00	22.013
349.36	22.998
349.72	22.119
350.08	21.529
350.45	22.240
350.81	21.753
351.17	22.864
351.53	21.917
351.89	21.922
352.26	21.390
352.62	21.705
352.98	21.885
353.34	22.947
353.70	22.897
354.07	22.275
354.43	22.006
354.79	21.715
355.15	21.584
355.51	21.792
355.87	21.267
356.24	21.188
356.60	21.892
356.96	22.640
357.32	21.594
357.68	21.772
358.04	22.808
358.40	22.481
358.77	22.248
359.13	20.934
359.49	22.029
359.85	22.441
360.21	21.280
360.57	22.053
360.93	21.548
361.29	21.762
361.66	20.653
362.02	20.904
362.38	22.304
362.74	21.030
363.10	21.041
363.46	20.389
363.82	20.030
364.18	21.102
364.54	20.934
364.90	21.254
365.26	21.302
365.62	21.165
365.98	20.854
366.35	22.057
366.71	20.756
367.07	21.262
367.43	21.254
367.79	21.056
368.15	21.097
368.51	20.745
368.87	22.749
369.23	20.925
369.59	21.001
369.95	20.682
370.31	20.293
370.67	20.420
371.03	21.604
371.39	20.724
371.75	22.000
372.11	21.510
372.47	20.692
372.83	19.903
373.19	19.496
373.55	20.231
373.91	20.934
374.27	21.093
374.63	20.768
374.99	20.613
375.35	20.959
375.71	20.380
376.07	20.973
376.42	21.190
376.78	20.938
377.14	20.814
377.50	20.795
377.86	21.248
378.22	20.038
378.58	20.870
378.94	21.312
379.30	19.925
379.66	21.023
380.02	21.078
380.38	20.482
380.74	20.801
381.09	21.291
381.45	20.798
381.81	21.195
382.17	20.227
382.53	20.492
382.89	20.024
383.25	20.741
383.61	21.186
383.97	21.437
384.32	20.227
384.68	20.049
385.04	18.937
385.40	20.050
385.76	21.350
386.12	20.788
386.48	19.812
386.83	20.526
387.19	19.803
387.55	20.478
387.91	19.803
388.27	20.654
388.62	20.287
388.98	20.964
389.34	20.426
389.70	20.330
390.06	20.812
390.42	20.296
390.77	20.564
391.13	19.886
391.49	20.936
391.85	20.511
392.20	20.614
392.56	20.508
392.92	20.480
393.28	20.395
393.64	20.061
393.99	19.278
394.35	20.309
394.71	20.385
395.07	19.308
395.42	21.450
395.78	19.949
396.14	20.228
396.50	19.721
396.85	21.160
397.21	19.788
397.57	19.876
397.92	19.461
398.28	20.248
398.64	19.611
399.00	20.033
399.35	20.602
399.71	19.685
400.07	20.723
400.42	19.498
400.78	19.819
401.14	19.988
401.49	20.491
401.85	20.270
402.21	20.557
402.57	20.723
402.92	20.713
403.28	19.700
403.63	20.397
403.99	19.834
404.35	19.888
404.70	19.517
405.06	20.435
405.42	18.593
405.77	19.758
406.13	20.057
406.49	19.772
406.84	20.269
407.20	20.249
407.55	19.870
407.91	19.854
408.27	18.902
408.62	20.381
408.98	20.037
409.34	20.050
409.69	20.533
410.05	19.838
410.40	19.842
410.76	19.856
411.11	20.460
411.47	20.504
411.83	20.150
412.18	20.403
412.54	20.050
412.89	19.122
413.25	19.764
413.60	19.624
413.96	19.913
414.31	19.174
414.67	18.921
415.03	19.621
415.38	19.947
415.74	19.558
416.09	19.828
416.45	19.754
416.80	19.732
417.16	20.445
417.51	20.228
417.87	20.370
418.22	19.845
418.58	19.580
418.93	19.648
419.29	19.604
419.64	20.293
420.00	20.127
420.35	19.964
420.71	19.074
421.06	19.680
421.42	21.046
421.77	20.058
422.12	20.057
422.48	19.684
422.83	20.673
423.19	19.436
423.54	19.494
423.90	19.002
424.25	20.104
424.61	19.470
424.96	19.870
425.31	19.910
425.67	19.753
426.02	20.200
426.38	19.590
426.73	19.914
427.09	19.074
427.44	19.436
427.79	19.299
428.15	19.878
428.50	19.819
428.85	19.742
429.21	19.584
429.56	19.979
429.92	21.135
430.27	19.836
430.62	19.675
430.98	19.831
431.33	18.700
431.68	20.075
432.04	18.930
432.39	19.111
432.74	19.497
433.10	19.059
433.45	20.178
433.80	19.828
434.16	19.716
434.51	19.565
434.86	19.847
435.22	19.751
435.57	19.963
435.92	19.481
436.28	19.820
436.63	19.111
436.98	19.683
437.34	20.208
437.69	19.185
438.04	19.468
438.39	20.361
438.75	19.070
439.10	19.028
439.45	19.976
439.81	19.951
440.16	20.174
440.51	18.728
440.86	19.976
441.22	19.564
441.57	19.089
441.92	19.596
442.27	19.751
442.63	20.075
442.98	19.271
443.33	19.865
443.68	18.925
444.03	19.523
444.39	20.327
444.74	18.829
445.09	19.383
445.44	20.282
445.79	19.463
446.15	19.800
446.50	19.824
446.85	20.470
447.20	19.603
447.55	19.866
447.91	20.169
448.26	19.211
448.61	19.793
448.96	19.134
449.31	19.989
449.66	19.838
450.02	19.955
450.37	19.330
450.72	19.346
451.07	19.749
451.42	19.089
451.77	19.903
452.12	19.846
452.47	20.271
452.83	19.399
453.18	19.160
453.53	19.042
453.88	19.277
454.23	20.148
454.58	19.608
454.93	19.436
455.28	19.396
455.63	18.528
455.98	18.990
456.34	19.835
456.69	19.489
457.04	20.000
457.39	19.182
457.74	19.449
458.09	19.135
458.44	19.154
458.79	19.989
459.14	18.820
459.49	19.085
459.84	19.673
460.19	18.187
460.54	19.465
460.89	19.144
461.24	18.742
461.59	19.143
461.94	19.216
462.29	19.301
462.64	19.657
462.99	19.852
463.34	20.166
463.69	19.910
464.04	19.628
464.39	19.829
464.74	18.796
465.09	19.715
465.44	19.585
465.79	20.299
466.14	18.700
466.49	19.648
466.84	19.665
467.19	18.981
467.54	19.443
467.89	18.479
468.24	19.422
468.59	19.120
468.94	19.349
469.29	18.837
469.64	18.410
469.99	20.069
470.34	19.622
470.68	18.662
471.03	19.182
471.38	19.124
471.73	19.067
472.08	18.419
472.43	19.921
472.78	19.405
473.13	18.997
473.48	17.808
473.83	19.209
474.17	19.010
474.52	19.159
474.87	19.783
475.22	18.418
475.57	19.130
475.92	19.084
476.27	19.347
476.61	19.196
476.96	18.732
477.31	18.824
477.66	18.983
478.01	18.571
478.36	19.237
478.70	19.495
479.05	20.089
479.40	18.825
479.75	18.969
480.10	19.888
480.45	19.814
480.79	19.164
481.14	20.162
481.49	19.240
481.84	18.756
482.19	19.407
482.53	19.333
482.88	19.175
483.23	18.239
483.58	19.187
483.92	18.142
484.27	18.435
484.62	19.086
484.97	19.204
485.31	19.265
485.66	19.678
486.01	20.150
486.36	20.385
486.70	20.107
487.05	20.028
487.40	19.101
487.75	19.007
488.09	18.736
488.44	18.542
488.79	18.622
489.13	18.728
489.48	18.769
489.83	18.624
490.17	18.202
490.52	19.495
490.87	18.498
491.22	18.512
491.56	19.358
491.91	18.339
492.26	18.569
492.60	18.951
492.95	18.562
493.30	18.411
493.64	18.225
493.99	19.420
494.34	18.738
494.68	18.854
495.03	18.923
495.37	18.491
495.72	18.246
496.07	18.753
496.41	17.735
496.76	18.647
497.11	19.202
497.45	18.726
497.80	18.829
498.14	18.992
498.49	19.264
498.84	18.775
499.18	18.716
499.53	18.267
499.87	18.147
500.22	18.815
500.56	19.157
500.91	18.913
501.26	18.966
501.60	18.775
501.95	19.118
502.29	18.447
502.64	19.142
502.98	18.834
503.33	19.075
503.67	18.452
504.02	18.725
504.36	18.227
504.71	18.089
505.06	19.052
505.40	18.763
505.75	19.329
506.09	18.651
506.44	18.548
506.78	19.096
507.13	18.451
507.47	18.664
507.82	17.949
508.16	17.995
508.51	18.337
508.85	17.833
509.19	19.312
509.54	18.713
509.88	18.495
510.23	18.789
510.57	18.379
510.92	18.319
511.26	18.922
511.61	18.441
511.95	17.916
512.30	18.434
512.64	18.615
512.98	18.670
513.33	18.197
513.67	18.966
514.02	18.586
514.36	18.202
514.70	18.533
515.05	17.788
515.39	18.455
515.74	18.650
516.08	17.699
516.42	18.318
516.77	17.633
517.11	17.989
517.46	17.947
517.80	19.189
518.14	17.514
518.49	18.083
518.83	18.079
519.17	18.373
519.52	18.878
519.86	18.701
520.20	17.829
520.55	17.848
520.89	17.457
521.23	18.333
521.58	18.710
521.92	17.033
522.26	16.981
522.61	17.712
522.95	18.329
523.29	17.968
523.64	18.309
523.98	17.980
524.32	17.643
524.66	18.506
525.01	18.349
525.35	18.631
525.69	17.959
526.04	17.524
526.38	18.483
526.72	17.949
527.06	18.246
527.41	17.604
527.75	17.824
528.09	18.652
528.43	17.978
528.78	18.475
529.12	19.211
529.46	18.682
529.80	18.188
530.15	17.825
530.49	19.205
530.83	17.806
531.17	18.151
531.51	18.274
531.86	17.751
532.20	17.988
532.54	17.310
532.88	18.039
533.22	18.721
533.57	18.874
533.91	18.387
534.25	18.815
534.59	18.340
534.93	18.304
535.27	18.726
535.62	17.961
535.96	19.128
536.30	18.085
536.64	17.498
536.98	16.608
537.32	17.651
537.66	17.278
538.01	17.892
538.35	18.163
538.69	18.060
539.03	19.262
539.37	18.243
539.71	18.008
540.05	17.476
540.39	17.412
540.73	19.064
541.07	17.415
541.42	18.855
541.76	18.133
542.10	17.468
542.44	17.810
542.78	17.765
543.12	17.790
543.46	18.245
543.80	17.651
544.14	18.995
544.48	17.717
544.82	19.166
545.16	17.039
545.50	17.961
545.84	17.602
546.18	16.620
546.52	18.207
546.86	16.749
547.20	17.727
547.54	17.298
547.88	18.489
548.22	18.697
548.56	17.678
548.90	18.065
549.24	19.097
549.58	16.584
549.92	18.489
550.26	17.638
550.60	18.994
550.94	17.388
551.28	17.562
551.62	18.120
551.96	18.009
552.30	17.103
552.64	18.008
552.98	19.176
553.32	17.736
553.66	18.489
554.00	18.071
554.34	16.703
554.68	18.568
555.02	17.216
555.36	17.247
555.69	17.334
556.03	17.298
556.37	17.070
556.71	17.730
557.05	17.565
557.39	17.332
557.73	17.549
558.07	17.408
558.41	17.638
558.75	17.860
559.08	16.359
559.42	17.703
559.76	17.737
560.10	18.217
560.44	17.907
560.78	17.050
561.12	17.730
561.45	16.531
561.79	18.294
562.13	18.284
562.47	18.071
562.81	17.316
563.15	17.422
563.48	17.825
563.82	17.510
564.16	18.483
564.50	17.571
564.84	18.041
565.17	18.874
565.51	17.447
565.85	17.189
566.19	17.483
566.52	17.890
566.86	17.636
567.20	17.715
567.54	17.674
567.88	17.749
568.21	18.034
568.55	18.884
568.89	18.594
569.23	18.378
569.56	18.857
569.90	18.980
570.24	18.484
570.57	18.731
570.91	18.808
571.25	19.204
571.59	18.942
571.92	19.507
572.26	19.335
572.60	18.725
572.93	18.900
573.27	18.615
573.61	19.061
573.95	18.667
574.28	19.386
574.62	19.279
574.96	19.267
575.29	18.907
575.63	18.809
575.97	18.967
576.30	18.998
576.64	18.915
576.98	18.971
577.31	19.509
577.65	19.373
577.98	19.739
578.32	19.023
578.66	19.422
578.99	19.014
579.33	18.691
579.67	18.457
580.00	18.509
580.34	18.444
580.67	19.255
581.01	19.030
581.35	19.432
581.68	19.648
582.02	19.748
582.35	19.423
582.69	19.401
583.02	18.751
583.36	18.893
583.70	18.732
584.03	18.603
584.37	18.251
584.70	18.748
585.04	19.038
585.37	19.344
585.71	19.151
586.04	19.148
586.38	18.732
586.72	19.191
587.05	19.233
587.39	19.033
587.72	18.564
588.06	18.687
588.39	18.556
588.73	18.712
589.06	18.267
589.40	18.645
589.73	17.535
590.07	18.520
590.40	18.099
590.73	19.449
591.07	18.345
591.40	18.000
591.74	18.453
592.07	18.211
592.41	19.005
592.74	19.252
593.08	18.598
593.41	18.979
593.75	18.669
594.08	18.895
594.41	19.122
594.75	18.291
595.08	18.633
595.42	18.432
595.75	18.619
596.09	18.514
596.42	18.096
596.75	18.078
597.09	18.426
597.42	18.259
597.75	19.022
598.09	18.215
598.42	19.642
598.76	18.724
599.09	19.208
599.42	18.882
599.76	19.076
600.09	18.863
600.42	18.795
600.76	18.958
601.09	18.230
601.42	18.542
601.76	18.726
602.09	18.565
602.42	18.613
602.76	17.366
603.09	18.768
603.42	18.593
603.76	18.589
604.09	18.221
604.42	18.418
604.76	18.507
605.09	18.623
605.42	18.848
605.75	18.587
606.09	18.336
606.42	18.994
606.75	18.139
607.09	18.395
607.42	18.651
607.75	17.637
608.08	18.170
608.42	17.994
608.75	18.777
609.08	17.785
609.41	18.331
609.75	17.398
610.08	18.343
610.41	18.513
610.74	17.661
611.07	17.635
611.41	18.321
611.74	18.168
612.07	17.665
612.40	18.000
612.73	18.057
613.07	17.239
613.40	18.062
613.73	17.714
614.06	17.855
614.39	18.399
614.72	18.434
615.06	18.333
615.39	17.881
615.72	17.495
616.05	17.905
616.38	17.984
616.71	17.876
617.05	18.428
617.38	17.807
617.71	17.279
618.04	17.611
618.37	17.918
618.70	18.241
619.03	16.357
619.36	17.580
619.69	16.959
620.03	17.173
620.36	17.815
620.69	16.702
621.02	17.462
621.35	16.680
621.68	15.811
622.01	17.233
622.34	16.733
622.67	17.384
623.00	17.781
623.33	17.128
623.66	16.134
623.99	17.779
624.32	17.388
624.65	17.507
624.99	17.855
625.32	17.849
625.65	16.822
625.98	17.694
626.31	16.735
626.64	16.165
626.97	15.571
627.30	17.536
627.63	16.263
627.96	14.892
628.29	17.023
628.62	16.441
628.95	15.832
629.28	16.453
629.61	18.086
629.94	16.344
630.26	16.453
630.59	16.284
630.92	15.261
631.25	16.066
631.58	16.060
631.91	16.331
632.24	16.246
632.57	15.222
