SpectraSuite Data File
++++++++++++++++++++++++++++++++++++
Date: Wed May 13 21:42:44 PDT 2015
User: schluterlab
Dark Spectrum Present: Yes
Reference Spectrum Present: Yes
Number of Sampled Component Spectra: 1
Spectrometers: USB2E3373
Integration Time (usec): 3000 (USB2E3373)
Spectra Averaged: 3 (USB2E3373)
Boxcar Smoothing: 0 (USB2E3373)
Correct for Electrical Dark: No (USB2E3373)
Strobe/Lamp Enabled: No (USB2E3373)
Correct for Detector Non-linearity: No (USB2E3373)
Correct for Stray Light: No (USB2E3373)
Number of Pixels in Processed Spectrum: 2048
>>>>>Begin Processed Spectral Data<<<<<
178.53	0.000
178.91	200.000
179.29	208.333
179.67	-550.000
180.04	-433.333
180.42	120.000
180.80	1600.000
181.18	266.667
181.56	-150.000
181.94	-200.000
182.31	-72.727
182.69	176.923
183.07	-80.000
183.45	283.333
183.83	166.667
184.20	128.571
184.58	-100.000
184.96	366.667
185.34	257.143
185.72	0.000
186.09	-1300.000
186.47	-240.000
186.85	100.000
187.23	-550.000
187.61	850.000
187.98	1700.000
188.36	-37.500
188.74	0.000
189.12	9.091
189.49	30.000
189.87	200.000
190.25	400.000
190.63	900.000
191.00	160.000
191.38	60.000
191.76	300.000
192.14	166.667
192.51	26.316
192.89	333.333
193.27	275.000
193.65	-180.000
194.02	200.000
194.40	140.000
194.78	-800.000
195.15	320.000
195.53	-120.000
195.91	-125.000
196.29	-233.333
196.66	0.000
197.04	250.000
197.42	0.000
197.79	20.000
198.17	-212.500
198.55	-166.667
198.92	125.000
199.30	-466.667
199.68	-40.000
200.05	550.000
200.43	100.000
200.81	-1100.000
201.18	-220.000
201.56	-116.667
201.94	525.000
202.31	30.435
202.69	-171.429
203.07	-266.667
203.44	-120.000
203.82	-200.000
204.19	-60.000
204.57	0.000
204.95	50.000
205.32	0.000
205.70	-750.000
206.08	-375.000
206.45	-216.667
206.83	625.000
207.20	-266.667
207.58	-110.000
207.96	-1300.000
208.33	-85.714
208.71	-1200.000
209.08	162.500
209.46	525.000
209.84	0.000
210.21	200.000
210.59	1100.000
210.96	140.000
211.34	1900.000
211.71	-800.000
212.09	-250.000
212.46	-10.000
212.84	-266.667
213.22	-100.000
213.59	-600.000
213.97	-550.000
214.34	-950.000
214.72	-53.846
215.09	175.000
215.47	122.222
215.84	850.000
216.22	-75.000
216.59	-500.000
216.97	600.000
217.34	155.556
217.72	0.000
218.09	166.667
218.47	-1000.000
218.84	-200.000
219.22	-187.500
219.59	-233.333
219.97	-150.000
220.34	50.000
220.72	-160.000
221.09	0.000
221.47	-83.333
221.84	-400.000
222.22	0.000
222.59	1000.000
222.97	-300.000
223.34	-16.667
223.72	-900.000
224.09	-450.000
224.46	-45.455
224.84	12.500
225.21	-185.714
225.59	-350.000
225.96	66.667
226.34	-70.000
226.71	14.286
227.08	500.000
227.46	-62.500
227.83	-200.000
228.21	-93.750
228.58	-350.000
228.95	-76.471
229.33	-37.500
229.70	-137.500
230.08	30.769
230.45	-162.500
230.82	-91.667
231.20	185.714
231.57	-500.000
231.95	700.000
232.32	-16.667
232.69	-58.824
233.07	-800.000
233.44	26.087
233.81	-900.000
234.19	29.167
234.56	-46.667
234.93	-6.667
235.31	52.632
235.68	-46.154
236.05	-7.692
236.43	-16.667
236.80	6.061
237.17	-40.000
237.55	-47.059
237.92	3.448
238.29	-7.407
238.67	-8.333
239.04	3.226
239.41	-12.766
239.79	10.638
240.16	-18.605
240.53	23.214
240.91	19.643
241.28	21.429
241.65	6.452
242.02	3.947
242.40	17.391
242.77	2.899
243.14	3.846
243.51	21.277
243.89	6.731
244.26	22.642
244.63	2.885
245.00	15.625
245.38	12.605
245.75	13.115
246.12	18.045
246.49	9.756
246.87	2.521
247.24	13.514
247.61	14.570
247.98	16.667
248.36	13.609
248.73	15.169
249.10	8.586
249.47	11.290
249.84	10.526
250.22	21.393
250.59	14.486
250.96	18.182
251.33	11.005
251.70	17.155
252.08	13.389
252.45	15.638
252.82	22.433
253.19	16.342
253.56	14.388
253.94	23.488
254.31	14.437
254.68	19.799
255.05	17.492
255.42	16.783
255.79	17.791
256.16	15.773
256.54	17.143
256.91	13.924
257.28	18.868
257.65	14.331
258.02	12.610
258.39	19.298
258.76	15.988
259.14	14.773
259.51	15.169
259.88	17.344
260.25	15.000
260.62	17.416
260.99	18.833
261.36	19.430
261.73	14.815
262.10	16.794
262.47	15.309
262.85	14.428
263.22	18.462
263.59	16.364
263.96	18.978
264.33	18.269
264.70	17.209
265.07	18.981
265.44	18.621
265.81	17.620
266.18	18.223
266.55	16.594
266.92	14.619
267.29	16.461
267.66	17.622
268.03	18.107
268.40	17.373
268.77	19.835
269.14	20.000
269.51	18.891
269.88	16.701
270.25	18.008
270.62	16.393
270.99	17.323
271.36	18.452
271.73	16.265
272.10	16.571
272.47	19.002
272.84	17.323
273.21	19.961
273.58	15.574
273.95	17.358
274.32	18.657
274.69	17.851
275.06	21.201
275.43	18.079
275.80	17.908
276.17	16.759
276.54	16.163
276.91	17.073
277.28	15.704
277.65	19.406
278.02	18.750
278.39	15.631
278.76	17.057
279.13	16.981
279.50	17.069
279.87	13.949
280.23	18.018
280.60	17.647
280.97	16.396
281.34	19.401
281.71	16.748
282.08	16.581
282.45	21.148
282.82	16.294
283.19	18.598
283.56	16.250
283.92	17.278
284.29	16.849
284.66	16.474
285.03	15.635
285.40	18.278
285.77	15.916
286.14	17.629
286.51	19.040
286.87	14.923
287.24	17.552
287.61	18.072
287.98	17.206
288.35	16.990
288.72	18.077
289.08	18.234
289.45	15.565
289.82	18.003
290.19	15.989
290.56	14.489
290.93	15.884
291.29	15.458
291.66	17.350
292.03	17.166
292.40	17.900
292.77	16.867
293.13	16.318
293.50	16.340
293.87	19.333
294.24	16.270
294.60	18.466
294.97	18.651
295.34	16.623
295.71	14.192
296.08	15.314
296.44	16.071
296.81	15.347
297.18	16.375
297.55	14.976
297.91	16.646
298.28	17.433
298.65	17.241
299.02	17.338
299.38	17.423
299.75	17.308
300.12	15.349
300.48	16.959
300.85	18.245
301.22	15.796
301.59	18.427
301.95	16.376
302.32	16.453
302.69	15.367
303.05	17.497
303.42	17.386
303.79	18.612
304.15	17.744
304.52	19.355
304.89	18.715
305.25	17.673
305.62	19.306
305.99	18.172
306.35	19.854
306.72	19.634
307.09	19.187
307.45	18.317
307.82	18.842
308.19	16.092
308.55	16.274
308.92	20.530
309.29	20.220
309.65	20.380
310.02	19.583
310.38	20.528
310.75	19.724
311.12	19.825
311.48	21.958
311.85	20.571
312.22	21.180
312.58	21.159
312.95	23.383
313.31	21.579
313.68	20.992
314.05	23.346
314.41	23.631
314.78	22.106
315.14	22.685
315.51	23.501
315.87	24.652
316.24	24.242
316.61	25.388
316.97	25.370
317.34	25.134
317.70	26.048
318.07	26.797
318.43	26.287
318.80	25.829
319.16	27.763
319.53	26.613
319.89	26.829
320.26	27.449
320.62	27.062
320.99	27.810
321.35	27.222
321.72	28.970
322.08	29.059
322.45	30.342
322.81	30.129
323.18	29.964
323.54	31.047
323.91	30.081
324.27	30.693
324.64	30.139
325.00	30.359
325.37	31.826
325.73	31.229
326.10	32.044
326.46	32.860
326.83	31.715
327.19	33.740
327.56	33.521
327.92	33.628
328.29	34.391
328.65	35.057
329.01	34.037
329.38	35.130
329.74	34.506
330.11	36.339
330.47	34.201
330.84	36.101
331.20	35.184
331.56	36.141
331.93	37.984
332.29	37.098
332.66	35.847
333.02	37.098
333.38	36.579
333.75	36.860
334.11	38.194
334.48	37.663
334.84	36.661
335.20	38.593
335.57	36.815
335.93	37.285
336.29	37.653
336.66	37.863
337.02	37.826
337.38	37.163
337.75	37.726
338.11	37.489
338.47	37.757
338.84	37.457
339.20	37.478
339.56	38.225
339.93	36.733
340.29	38.087
340.65	37.040
341.02	37.521
341.38	38.007
341.74	36.387
342.11	36.664
342.47	35.816
342.83	37.173
343.20	37.817
343.56	36.958
343.92	36.312
344.28	36.932
344.65	37.143
345.01	37.450
345.37	37.829
345.73	37.990
346.10	38.122
346.46	37.154
346.82	36.035
347.19	35.759
347.55	36.511
347.91	37.412
348.27	36.830
348.63	35.657
349.00	36.478
349.36	36.264
349.72	36.040
350.08	36.349
350.45	36.335
350.81	36.072
351.17	36.490
351.53	36.685
351.89	34.948
352.26	35.290
352.62	35.504
352.98	36.901
353.34	35.507
353.70	35.047
354.07	36.078
354.43	34.837
354.79	36.058
355.15	35.016
355.51	34.700
355.87	36.513
356.24	35.795
356.60	35.496
356.96	35.764
357.32	34.907
357.68	35.600
358.04	35.454
358.40	35.581
358.77	35.703
359.13	35.486
359.49	34.595
359.85	34.420
360.21	35.852
360.57	34.449
360.93	34.294
361.29	34.419
361.66	36.219
362.02	33.951
362.38	35.303
362.74	33.358
363.10	33.189
363.46	33.573
363.82	35.329
364.18	33.865
364.54	33.625
364.90	34.286
365.26	32.838
365.62	33.594
365.98	34.306
366.35	33.759
366.71	33.524
367.07	34.160
367.43	33.589
367.79	34.468
368.15	33.896
368.51	34.529
368.87	33.845
369.23	33.523
369.59	33.827
369.95	33.527
370.31	32.985
370.67	33.382
371.03	34.744
371.39	32.789
371.75	34.071
372.11	33.333
372.47	33.670
372.83	33.842
373.19	32.878
373.55	33.165
373.91	33.168
374.27	32.780
374.63	32.859
374.99	32.451
375.35	33.562
375.71	32.880
376.07	34.544
376.42	34.291
376.78	33.884
377.14	34.034
377.50	34.094
377.86	33.068
378.22	33.692
378.58	32.535
378.94	33.938
379.30	32.979
379.66	32.614
380.02	32.843
380.38	32.590
380.74	33.234
381.09	32.449
381.45	32.830
381.81	33.333
382.17	31.821
382.53	32.985
382.89	33.233
383.25	31.914
383.61	32.809
383.97	31.687
384.32	31.884
384.68	33.066
385.04	31.888
385.40	33.126
385.76	33.942
386.12	33.441
386.48	31.912
386.83	32.353
387.19	31.585
387.55	31.944
387.91	33.518
388.27	31.443
388.62	31.773
388.98	31.852
389.34	32.832
389.70	31.563
390.06	31.500
390.42	31.572
390.77	32.031
391.13	31.881
391.49	31.120
391.85	31.182
392.20	31.015
392.56	31.492
392.92	31.890
393.28	31.610
393.64	31.498
393.99	29.804
394.35	30.864
394.71	31.859
395.07	30.881
395.42	30.896
395.78	30.631
396.14	30.945
396.50	30.057
396.85	30.529
397.21	30.462
397.57	30.311
397.92	31.497
398.28	31.585
398.64	30.298
399.00	30.859
399.35	31.669
399.71	30.868
400.07	31.386
400.42	29.906
400.78	30.997
401.14	30.227
401.49	29.599
401.85	30.283
402.21	30.279
402.57	29.736
402.92	29.912
403.28	30.582
403.63	29.076
403.99	30.518
404.35	30.486
404.70	30.453
405.06	30.182
405.42	29.837
405.77	29.781
406.13	29.314
406.49	29.658
406.84	30.342
407.20	29.426
407.55	29.221
407.91	28.921
408.27	29.133
408.62	29.343
408.98	29.593
409.34	29.455
409.69	30.084
410.05	30.348
410.40	28.363
410.76	29.242
411.11	29.353
411.47	29.263
411.83	28.759
412.18	29.030
412.54	29.010
412.89	28.966
413.25	29.263
413.60	29.091
413.96	28.277
414.31	29.100
414.67	28.825
415.03	28.687
415.38	28.005
415.74	29.630
416.09	28.883
416.45	28.845
416.80	28.725
417.16	29.150
417.51	29.270
417.87	29.365
418.22	28.765
418.58	29.961
418.93	29.253
419.29	29.835
419.64	28.817
420.00	29.016
420.35	28.751
420.71	29.250
421.06	28.659
421.42	29.015
421.77	29.249
422.12	29.685
422.48	28.626
422.83	30.656
423.19	28.982
423.54	29.446
423.90	29.157
424.25	29.463
424.61	28.835
424.96	28.267
425.31	28.435
425.67	29.571
426.02	30.094
426.38	29.353
426.73	29.200
427.09	29.268
427.44	29.477
427.79	28.979
428.15	29.969
428.50	29.728
428.85	29.643
429.21	29.150
429.56	29.809
429.92	30.453
430.27	29.857
430.62	29.801
430.98	29.773
431.33	29.823
431.68	30.192
432.04	30.254
432.39	29.850
432.74	29.430
433.10	30.099
433.45	30.118
433.80	30.345
434.16	30.147
434.51	30.652
434.86	29.976
435.22	31.070
435.57	30.037
435.92	30.881
436.28	30.450
436.63	30.312
436.98	30.611
437.34	31.258
437.69	30.342
438.04	30.560
438.39	32.067
438.75	30.989
439.10	31.637
439.45	30.024
439.81	31.897
440.16	32.348
440.51	31.391
440.86	31.061
441.22	31.670
441.57	31.508
441.92	31.882
442.27	31.710
442.63	31.701
442.98	32.407
443.33	31.433
443.68	31.049
444.03	31.992
444.39	32.474
444.74	31.750
445.09	32.159
445.44	33.014
445.79	32.731
446.15	32.945
446.50	32.985
446.85	33.672
447.20	33.664
447.55	33.352
447.91	32.360
448.26	33.905
448.61	32.969
448.96	34.055
449.31	33.752
449.66	34.529
450.02	33.769
450.37	34.078
450.72	33.697
451.07	33.292
451.42	34.435
451.77	34.632
452.12	34.106
452.47	34.474
452.83	33.726
453.18	34.882
453.53	34.552
453.88	34.759
454.23	34.425
454.58	34.436
454.93	35.471
455.28	35.132
455.63	34.623
455.98	35.180
456.34	35.092
456.69	35.655
457.04	35.542
457.39	34.576
457.74	35.009
458.09	35.545
458.44	35.899
458.79	34.816
459.14	34.888
459.49	35.854
459.84	34.667
460.19	36.014
460.54	35.888
460.89	36.430
461.24	36.313
461.59	36.534
461.94	36.157
462.29	35.968
462.64	35.752
462.99	36.016
463.34	36.464
463.69	36.662
464.04	35.354
464.39	37.401
464.74	36.486
465.09	37.260
465.44	35.971
465.79	36.918
466.14	36.545
466.49	36.481
466.84	37.418
467.19	36.943
467.54	37.330
467.89	37.398
468.24	37.492
468.59	37.922
468.94	37.676
469.29	38.004
469.64	37.099
469.99	37.586
470.34	36.952
470.68	37.844
471.03	37.165
471.38	37.274
471.73	37.586
472.08	37.526
472.43	38.456
472.78	38.201
473.13	36.544
473.48	36.725
473.83	37.100
474.17	38.346
474.52	37.735
474.87	38.118
475.22	37.500
475.57	38.595
475.92	37.732
476.27	38.578
476.61	38.901
476.96	38.549
477.31	37.163
477.66	38.418
478.01	38.242
478.36	39.128
478.70	37.433
479.05	37.569
479.40	38.066
479.75	38.682
480.10	38.042
480.45	38.401
480.79	37.880
481.14	39.463
481.49	39.615
481.84	37.936
482.19	38.907
482.53	38.476
482.88	38.207
483.23	38.787
483.58	39.272
483.92	38.230
484.27	39.250
484.62	38.438
484.97	39.154
485.31	38.994
485.66	37.522
486.01	37.782
486.36	37.940
486.70	38.462
487.05	38.792
487.40	38.912
487.75	39.363
488.09	39.412
488.44	39.713
488.79	40.348
489.13	39.483
489.48	40.060
489.83	39.571
490.17	40.626
490.52	41.094
490.87	39.407
491.22	40.415
491.56	40.632
491.91	39.894
492.26	40.474
492.60	40.452
492.95	40.622
493.30	40.988
493.64	40.576
493.99	40.628
494.34	40.173
494.68	40.811
495.03	41.107
495.37	39.319
495.72	40.501
496.07	41.890
496.41	39.729
496.76	39.945
497.11	40.376
497.45	41.391
497.80	41.898
498.14	41.108
498.49	41.200
498.84	41.296
499.18	40.567
499.53	40.670
499.87	41.000
500.22	41.762
500.56	40.722
500.91	41.449
501.26	40.887
501.60	41.029
501.95	41.687
502.29	41.650
502.64	41.369
502.98	41.474
503.33	41.509
503.67	41.431
504.02	41.324
504.36	41.902
504.71	41.413
505.06	41.060
505.40	41.598
505.75	42.269
506.09	42.667
506.44	41.482
506.78	41.392
507.13	42.620
507.47	42.153
507.82	41.549
508.16	42.322
508.51	41.581
508.85	41.472
509.19	41.587
509.54	42.681
509.88	41.935
510.23	42.368
510.57	41.843
510.92	42.942
511.26	42.904
511.61	42.975
511.95	42.889
512.30	43.309
512.64	44.211
512.98	42.493
513.33	43.268
513.67	41.965
514.02	43.101
514.36	43.652
514.70	42.841
515.05	42.539
515.39	41.745
515.74	42.688
516.08	42.773
516.42	42.108
516.77	42.531
517.11	43.034
517.46	44.358
517.80	44.431
518.14	43.111
518.49	42.074
518.83	44.570
519.17	42.952
519.52	43.185
519.86	45.234
520.20	43.481
520.55	44.030
520.89	45.225
521.23	44.295
521.58	44.311
521.92	43.432
522.26	43.722
522.61	44.279
522.95	42.940
523.29	44.635
523.64	45.073
523.98	45.235
524.32	43.856
524.66	43.571
525.01	44.889
525.35	44.766
525.69	44.467
526.04	43.192
526.38	45.252
526.72	44.050
527.06	45.197
527.41	42.422
527.75	43.458
528.09	44.452
528.43	45.522
528.78	43.088
529.12	44.761
529.46	44.082
529.80	43.754
530.15	43.436
530.49	45.283
530.83	45.362
531.17	45.479
531.51	43.965
531.86	44.173
532.20	46.106
532.54	44.483
532.88	44.997
533.22	44.040
533.57	44.967
533.91	45.548
534.25	45.247
534.59	43.436
534.93	43.686
535.27	44.713
535.62	44.605
535.96	44.502
536.30	45.346
536.64	44.498
536.98	45.410
537.32	45.694
537.66	45.063
538.01	44.660
538.35	43.923
538.69	44.482
539.03	43.826
539.37	43.662
539.71	45.157
540.05	42.780
540.39	45.217
540.73	44.902
541.07	44.286
541.42	44.377
541.76	44.926
542.10	44.821
542.44	44.491
542.78	44.275
543.12	45.148
543.46	45.266
543.80	44.942
544.14	45.767
544.48	44.194
544.82	45.595
545.16	44.354
545.50	45.375
545.84	45.161
546.18	45.091
546.52	45.236
546.86	45.230
547.20	46.819
547.54	46.319
547.88	46.154
548.22	45.928
548.56	45.163
548.90	45.535
549.24	45.556
549.58	44.698
549.92	47.249
550.26	47.011
550.60	47.598
550.94	45.821
551.28	46.253
551.62	46.015
551.96	44.729
552.30	46.143
552.64	45.480
552.98	46.946
553.32	46.575
553.66	46.442
554.00	46.724
554.34	46.374
554.68	47.054
555.02	47.605
555.36	47.806
555.69	47.414
556.03	46.247
556.37	45.875
556.71	45.690
557.05	45.978
557.39	46.496
557.73	46.747
558.07	46.797
558.41	45.874
558.75	46.189
559.08	46.913
559.42	47.207
559.76	45.183
560.10	47.041
560.44	47.531
560.78	48.058
561.12	47.442
561.45	46.939
561.79	46.492
562.13	47.117
562.47	47.929
562.81	47.475
563.15	45.326
563.48	46.043
563.82	46.717
564.16	46.378
564.50	48.236
564.84	47.162
565.17	47.550
565.51	47.928
565.85	47.702
566.19	48.013
566.52	47.182
566.86	46.650
567.20	46.304
567.54	45.596
567.88	46.753
568.21	46.822
568.55	46.844
568.89	46.311
569.23	45.784
569.56	46.266
569.90	45.475
570.24	45.884
570.57	45.172
570.91	45.107
571.25	45.000
571.59	45.370
571.92	46.231
572.26	46.985
572.60	46.720
572.93	46.829
573.27	46.796
573.61	46.127
573.95	46.298
574.28	46.894
574.62	46.384
574.96	47.392
575.29	47.668
575.63	48.077
575.97	47.310
576.30	47.302
576.64	47.315
576.98	47.881
577.31	46.638
577.65	46.455
577.98	47.941
578.32	47.507
578.66	47.769
578.99	47.934
579.33	48.026
579.67	47.429
580.00	48.323
580.34	48.303
580.67	48.310
581.01	47.994
581.35	48.236
581.68	48.192
582.02	48.793
582.35	48.622
582.69	48.309
583.02	47.353
583.36	47.986
583.70	48.473
584.03	48.504
584.37	48.005
584.70	49.028
585.04	49.730
585.37	49.623
585.71	48.553
586.04	49.148
586.38	48.724
586.72	49.902
587.05	49.351
587.39	49.525
587.72	50.186
588.06	50.424
588.39	49.538
588.73	49.368
589.06	49.661
589.40	49.192
589.73	48.904
590.07	49.654
590.40	49.337
590.73	51.580
591.07	50.146
591.40	50.130
591.74	50.289
592.07	51.575
592.41	50.879
592.74	51.235
593.08	50.701
593.41	50.803
593.75	50.807
594.08	50.950
594.41	51.298
594.75	51.837
595.08	52.054
595.42	50.465
595.75	51.229
596.09	50.654
596.42	51.266
596.75	51.470
597.09	52.275
597.42	52.580
597.75	51.733
598.09	52.231
598.42	52.975
598.76	52.225
599.09	53.301
599.42	51.850
599.76	53.023
600.09	51.807
600.42	51.940
600.76	52.882
601.09	52.090
601.42	52.881
601.76	51.506
602.09	52.574
602.42	52.662
602.76	51.594
603.09	52.813
603.42	52.819
603.76	52.455
604.09	51.265
604.42	52.156
604.76	53.208
605.09	53.647
605.42	55.286
605.75	53.533
606.09	52.649
606.42	52.826
606.75	53.290
607.09	54.743
607.42	53.503
607.75	52.648
608.08	54.058
608.42	54.030
608.75	55.280
609.08	55.267
609.41	53.602
609.75	54.362
610.08	54.536
610.41	54.422
610.74	53.898
611.07	54.760
611.41	55.015
611.74	54.969
612.07	53.517
612.40	54.919
612.73	55.104
613.07	54.712
613.40	56.553
613.73	55.959
614.06	54.892
614.39	54.864
614.72	55.580
615.06	55.722
615.39	56.567
615.72	56.048
616.05	55.631
616.38	55.785
616.71	55.489
617.05	57.248
617.38	55.638
617.71	55.821
618.04	54.174
618.37	56.909
618.70	56.274
619.03	56.220
619.36	56.370
619.69	56.579
620.03	54.982
620.36	55.045
620.69	55.746
621.02	56.538
621.35	55.274
621.68	55.094
622.01	56.715
622.34	56.146
622.67	57.713
623.00	57.903
623.33	57.367
623.66	56.134
623.99	57.014
624.32	56.273
624.65	58.605
624.99	57.164
625.32	56.236
625.65	57.209
625.98	57.030
626.31	57.061
626.64	57.954
626.97	57.872
627.30	57.656
627.63	57.526
627.96	55.498
628.29	59.163
628.62	58.704
628.95	58.317
629.28	59.803
629.61	58.278
629.94	57.737
630.26	58.916
630.59	57.542
630.92	57.430
631.25	56.643
631.58	59.315
631.91	55.992
632.24	56.641
632.57	57.111
