SpectraSuite Data File
++++++++++++++++++++++++++++++++++++
Date: Wed May 13 21:52:13 PDT 2015
User: schluterlab
Dark Spectrum Present: Yes
Reference Spectrum Present: Yes
Number of Sampled Component Spectra: 1
Spectrometers: USB2E3373
Integration Time (usec): 3000 (USB2E3373)
Spectra Averaged: 3 (USB2E3373)
Boxcar Smoothing: 0 (USB2E3373)
Correct for Electrical Dark: No (USB2E3373)
Strobe/Lamp Enabled: No (USB2E3373)
Correct for Detector Non-linearity: No (USB2E3373)
Correct for Stray Light: No (USB2E3373)
Number of Pixels in Processed Spectrum: 2048
>>>>>Begin Processed Spectral Data<<<<<
178.53	0.000
178.91	750.000
179.29	191.667
179.67	-1100.000
180.04	-700.000
180.42	140.000
180.80	1000.000
181.18	283.333
181.56	-550.000
181.94	-200.000
182.31	-45.455
182.69	215.385
183.07	-300.000
183.45	216.667
183.83	300.000
184.20	200.000
184.58	-133.333
184.96	266.667
185.34	328.571
185.72	0.000
186.09	-1000.000
186.47	-240.000
186.85	140.000
187.23	-300.000
187.61	600.000
187.98	2300.000
188.36	50.000
188.74	0.000
189.12	-27.273
189.49	10.000
189.87	100.000
190.25	380.000
190.63	1000.000
191.00	-300.000
191.38	380.000
191.76	450.000
192.14	158.333
192.51	-68.421
192.89	433.333
193.27	350.000
193.65	-220.000
194.02	281.818
194.40	270.000
194.78	-200.000
195.15	280.000
195.53	-340.000
195.91	0.000
196.29	-133.333
196.66	0.000
197.04	250.000
197.42	0.000
197.79	-10.000
198.17	-175.000
198.55	-400.000
198.92	200.000
199.30	-266.667
199.68	10.000
200.05	650.000
200.43	216.667
200.81	-1600.000
201.18	-180.000
201.56	-183.333
201.94	625.000
202.31	-8.696
202.69	-214.286
203.07	-433.333
203.44	-180.000
203.82	-533.333
204.19	-20.000
204.57	0.000
204.95	-116.667
205.32	0.000
205.70	-50.000
206.08	-225.000
206.45	-233.333
206.83	525.000
207.20	-400.000
207.58	-90.000
207.96	-1400.000
208.33	-300.000
208.71	-1400.000
209.08	275.000
209.46	700.000
209.84	0.000
210.21	170.000
210.59	2500.000
210.96	340.000
211.34	1200.000
211.71	-700.000
212.09	-216.667
212.46	-140.000
212.84	-166.667
213.22	-75.000
213.59	-1000.000
213.97	-1100.000
214.34	-550.000
214.72	-84.615
215.09	212.500
215.47	177.778
215.84	400.000
216.22	-225.000
216.59	-100.000
216.97	433.333
217.34	222.222
217.72	0.000
218.09	466.667
218.47	0.000
218.84	-142.857
219.22	-200.000
219.59	-266.667
219.97	-325.000
220.34	-50.000
220.72	-220.000
221.09	0.000
221.47	33.333
221.84	-1000.000
222.22	0.000
222.59	1000.000
222.97	-566.667
223.34	-41.667
223.72	-400.000
224.09	-850.000
224.46	-181.818
224.84	-137.500
225.21	-14.286
225.59	-325.000
225.96	-250.000
226.34	-150.000
226.71	-342.857
227.08	550.000
227.46	-225.000
227.83	-1100.000
228.21	-56.250
228.58	-375.000
228.95	-47.059
229.33	-6.250
229.70	-187.500
230.08	-69.231
230.45	-262.500
230.82	-91.667
231.20	257.143
231.57	-275.000
231.95	600.000
232.32	-66.667
232.69	-47.059
233.07	-1200.000
233.44	-39.130
233.81	-1300.000
234.19	-8.333
234.56	-66.667
234.93	-60.000
235.31	47.368
235.68	-123.077
236.05	-53.846
236.43	-61.111
236.80	-12.121
237.17	-66.667
237.55	-94.118
237.92	-17.241
238.29	-44.444
238.67	5.556
239.04	-16.129
239.41	-4.255
239.79	10.638
240.16	0.000
240.53	8.929
240.91	23.214
241.28	10.714
241.65	20.968
242.02	22.368
242.40	26.087
242.77	21.739
243.14	20.513
243.51	21.277
243.89	24.038
244.26	24.528
244.63	12.500
245.00	25.000
245.38	23.529
245.75	17.213
246.12	19.549
246.49	23.577
246.87	15.966
247.24	37.838
247.61	23.841
247.98	25.641
248.36	28.402
248.73	25.843
249.10	21.717
249.47	27.419
249.84	25.263
250.22	29.851
250.59	27.570
250.96	31.364
251.33	29.665
251.70	32.218
252.08	28.870
252.45	27.984
252.82	31.939
253.19	32.685
253.56	26.978
253.94	24.555
254.31	27.817
254.68	31.879
255.05	29.043
255.42	30.420
255.79	25.153
256.16	30.599
256.54	24.444
256.91	28.481
257.28	30.503
257.65	24.204
258.02	29.619
258.39	32.456
258.76	27.326
259.14	28.977
259.51	28.933
259.88	31.707
260.25	29.722
260.62	27.809
260.99	28.912
261.36	30.311
261.73	28.395
262.10	26.463
262.47	29.383
262.85	28.607
263.22	29.744
263.59	30.649
263.96	26.764
264.33	28.125
264.70	30.930
265.07	30.556
265.44	31.954
265.81	31.350
266.18	30.979
266.55	29.476
266.92	29.025
267.29	29.218
267.66	32.484
268.03	28.601
268.40	29.661
268.77	30.579
269.14	29.388
269.51	33.265
269.88	29.939
270.25	33.051
270.62	29.098
270.99	31.102
271.36	28.968
271.73	31.727
272.10	29.714
272.47	28.599
272.84	33.465
273.21	27.984
273.58	30.533
273.95	29.811
274.32	29.851
274.69	30.055
275.06	31.095
275.43	30.885
275.80	29.078
276.17	28.913
276.54	29.663
276.91	28.397
277.28	30.325
277.65	29.196
278.02	30.357
278.39	27.886
278.76	30.769
279.13	29.674
279.50	31.379
279.87	29.710
280.23	29.550
280.60	30.104
280.97	30.357
281.34	31.861
281.71	26.667
282.08	30.940
282.45	29.508
282.82	28.914
283.19	29.268
283.56	29.219
283.92	27.829
284.29	27.925
284.66	29.160
285.03	28.176
285.40	29.758
285.77	29.279
286.14	29.027
286.51	30.885
286.87	28.154
287.24	29.646
287.61	31.024
287.98	29.559
288.35	27.422
288.72	29.125
289.08	29.202
289.45	27.900
289.82	29.652
290.19	26.508
290.56	25.284
290.93	26.934
291.29	24.487
291.66	26.639
292.03	28.747
292.40	28.264
292.77	26.104
293.13	27.476
293.50	26.013
293.87	26.133
294.24	25.397
294.60	26.918
294.97	26.984
295.34	26.253
295.71	26.281
296.08	25.524
296.44	25.638
296.81	24.117
297.18	23.625
297.55	24.764
297.91	25.342
298.28	23.971
298.65	24.754
299.02	26.984
299.38	24.663
299.75	26.442
300.12	23.023
300.48	25.614
300.85	24.596
301.22	24.042
301.59	24.178
301.95	23.810
302.32	23.454
302.69	24.407
303.05	22.481
303.42	24.205
303.79	26.393
304.15	24.425
304.52	25.054
304.89	23.699
305.25	24.040
305.62	24.078
305.99	23.721
306.35	25.392
306.72	24.720
307.09	24.922
307.45	25.453
307.82	24.421
308.19	23.824
308.55	24.667
308.92	24.951
309.29	24.424
309.65	24.076
310.02	24.155
310.38	24.289
310.75	25.740
311.12	24.879
311.48	24.233
311.85	25.295
312.22	26.209
312.58	24.734
312.95	25.373
313.31	25.344
313.68	24.905
314.05	26.087
314.41	27.378
314.78	26.091
315.14	25.463
315.51	26.070
315.87	25.116
316.24	26.722
316.61	28.767
316.97	28.056
317.34	26.738
317.70	27.565
318.07	26.886
318.43	28.184
318.80	26.876
319.16	27.675
319.53	26.344
319.89	27.552
320.26	28.743
320.62	28.823
320.99	28.198
321.35	28.531
321.72	28.585
322.08	29.705
322.45	30.065
322.81	31.423
323.18	29.696
323.54	30.776
323.91	31.346
324.27	31.953
324.64	29.791
325.00	31.059
325.37	30.973
325.73	31.145
326.10	30.362
326.46	32.274
326.83	31.634
327.19	31.138
327.56	32.635
327.92	32.341
328.29	33.306
328.65	33.567
329.01	32.278
329.38	34.609
329.74	33.047
330.11	33.454
330.47	32.031
330.84	32.491
331.20	31.853
331.56	33.424
331.93	33.247
332.29	35.100
332.66	32.712
333.02	32.320
333.38	32.632
333.75	33.191
334.11	32.899
334.48	34.438
334.84	34.894
335.20	33.619
335.57	33.072
335.93	32.045
336.29	32.312
336.66	34.359
337.02	33.826
337.38	32.550
337.75	33.506
338.11	33.049
338.47	33.134
338.84	33.419
339.20	33.510
339.56	34.300
339.93	32.584
340.29	32.451
340.65	33.447
341.02	33.694
341.38	32.601
341.74	32.101
342.11	32.865
342.47	31.883
342.83	32.435
343.20	33.249
343.56	33.524
343.92	32.738
344.28	33.523
344.65	33.143
345.01	31.961
345.37	35.115
345.73	33.333
346.10	32.745
346.46	32.358
346.82	32.183
347.19	31.092
347.55	32.553
347.91	33.359
348.27	32.177
348.63	32.853
349.00	32.547
349.36	32.261
349.72	32.096
350.08	32.137
350.45	32.420
350.81	32.394
351.17	31.948
351.53	31.736
351.89	32.566
352.26	32.355
352.62	32.171
352.98	32.907
353.34	33.172
353.70	32.710
354.07	32.235
354.43	33.281
354.79	33.093
355.15	32.686
355.51	33.333
355.87	33.698
356.24	32.986
356.60	32.447
356.96	33.615
357.32	33.359
357.68	32.009
358.04	33.902
358.40	34.419
358.77	33.257
359.13	34.086
359.49	32.930
359.85	33.965
360.21	33.616
360.57	32.852
360.93	33.687
361.29	33.753
361.66	33.106
362.02	33.432
362.38	33.752
362.74	33.140
363.10	32.899
363.46	32.925
363.82	33.851
364.18	32.415
364.54	34.573
364.90	33.728
365.26	33.475
365.62	33.736
365.98	34.235
366.35	33.404
366.71	34.023
367.07	32.814
367.43	33.659
367.79	34.816
368.15	33.826
368.51	33.826
368.87	34.403
369.23	33.452
369.59	34.320
369.95	33.019
370.31	34.031
370.67	33.599
371.03	35.189
371.39	35.060
371.75	33.786
372.11	33.476
372.47	34.319
372.83	33.287
373.19	34.604
373.55	34.032
373.91	32.744
374.27	34.371
374.63	33.642
374.99	32.312
375.35	33.904
375.71	33.560
376.07	34.339
376.42	35.094
376.78	34.280
377.14	34.576
377.50	34.876
377.86	34.595
378.22	33.502
378.58	33.922
378.94	33.938
379.30	33.229
379.66	33.416
380.02	33.456
380.38	33.253
380.74	33.114
381.09	33.233
381.45	33.978
381.81	32.902
382.17	32.514
382.53	32.923
382.89	32.449
383.25	33.086
383.61	32.990
383.97	32.750
384.32	31.884
384.68	32.943
385.04	32.071
385.40	32.441
385.76	33.577
386.12	32.150
386.48	31.223
386.83	31.977
387.19	32.079
387.55	32.802
387.91	32.226
388.27	31.381
388.62	31.211
388.98	32.541
389.34	30.952
389.70	31.380
390.06	31.563
390.42	31.701
390.77	30.942
391.13	30.745
391.49	30.487
391.85	30.351
392.20	30.075
392.56	30.730
392.92	30.076
393.28	30.215
393.64	30.887
393.99	30.049
394.35	29.136
394.71	29.872
395.07	28.428
395.42	29.616
395.78	28.764
396.14	30.120
396.50	30.184
396.85	30.274
397.21	28.839
397.57	28.261
397.92	28.024
398.28	29.216
398.64	28.597
399.00	28.739
399.35	29.171
399.71	27.897
400.07	28.855
400.42	27.962
400.78	27.130
401.14	28.081
401.49	28.161
401.85	27.887
402.21	28.421
402.57	28.142
402.92	28.473
403.28	27.205
403.63	27.774
403.99	26.679
404.35	27.431
404.70	25.619
405.06	27.422
405.42	26.884
405.77	27.016
406.13	26.000
406.49	26.423
406.84	26.923
407.20	26.525
407.55	26.494
407.91	25.811
408.27	25.390
408.62	26.888
408.98	26.079
409.34	26.361
409.69	26.446
410.05	26.119
410.40	25.441
410.76	25.572
411.11	27.052
411.47	27.472
411.83	25.515
412.18	25.000
412.54	26.190
412.89	25.580
413.25	25.664
413.60	25.893
413.96	25.968
414.31	25.401
414.67	25.714
415.03	25.981
415.38	25.627
415.74	26.316
416.09	25.512
416.45	26.316
416.80	25.638
417.16	26.046
417.51	26.993
417.87	26.257
418.22	25.145
418.58	24.901
418.93	26.240
419.29	27.129
419.64	25.827
420.00	27.175
420.35	26.659
420.71	25.777
421.06	26.630
421.42	26.946
421.77	25.838
422.12	27.679
422.48	26.227
422.83	26.875
423.19	27.142
423.54	27.562
423.90	27.613
424.25	27.325
424.61	27.788
424.96	26.907
425.31	27.426
425.67	28.395
426.02	28.327
426.38	28.483
426.73	28.467
427.09	28.705
427.44	29.125
427.79	27.850
428.15	29.235
428.50	28.459
428.85	28.905
429.21	28.306
429.56	29.862
429.92	29.724
430.27	28.425
430.62	29.014
430.98	30.672
431.33	30.038
431.68	30.458
432.04	30.986
432.39	29.446
432.74	29.859
433.10	31.551
433.45	31.302
433.80	30.460
434.16	31.950
434.51	31.467
434.86	32.214
435.22	31.862
435.57	31.818
435.92	32.027
436.28	31.832
436.63	32.217
436.98	32.785
437.34	33.700
437.69	33.884
438.04	32.711
438.39	33.562
438.75	32.539
439.10	33.950
439.45	33.232
439.81	34.729
440.16	33.971
440.51	34.304
440.86	34.558
441.22	33.907
441.57	34.761
441.92	34.992
442.27	34.199
442.63	35.253
442.98	34.491
443.33	34.876
443.68	35.266
444.03	35.519
444.39	36.341
444.74	35.450
445.09	35.518
445.44	36.901
445.79	36.293
446.15	37.715
446.50	35.903
446.85	37.092
447.20	37.010
447.55	36.710
447.91	37.135
448.26	37.278
448.61	37.169
448.96	37.415
449.31	37.579
449.66	37.594
450.02	38.658
450.37	38.425
450.72	38.232
451.07	38.245
451.42	38.303
451.77	38.710
452.12	37.493
452.47	38.412
452.83	38.208
453.18	38.320
453.53	38.525
453.88	38.795
454.23	38.504
454.58	39.400
454.93	38.486
455.28	39.371
455.63	39.177
455.98	39.257
456.34	38.334
456.69	39.361
457.04	40.062
457.39	39.327
457.74	38.839
458.09	38.981
458.44	39.072
458.79	38.880
459.14	38.146
459.49	39.573
459.84	39.402
460.19	39.196
460.54	40.146
460.89	39.245
461.24	39.457
461.59	41.123
461.94	40.076
462.29	39.706
462.64	40.435
462.99	39.772
463.34	40.401
463.69	40.271
464.04	39.916
464.39	41.123
464.74	39.865
465.09	39.244
465.44	40.236
465.79	39.965
466.14	40.878
466.49	41.584
466.84	40.167
467.19	41.401
467.54	42.255
467.89	40.226
468.24	42.286
468.59	40.599
468.94	41.252
469.29	41.309
469.64	41.632
469.99	41.241
470.34	40.796
470.68	41.933
471.03	41.678
471.38	41.029
471.73	41.907
472.08	42.131
472.43	41.095
472.78	42.664
473.13	41.557
473.48	41.813
473.83	41.180
474.17	41.862
474.52	41.748
474.87	41.375
475.22	40.700
475.57	41.829
475.92	42.039
476.27	41.841
476.61	41.846
476.96	42.718
477.31	41.478
477.66	42.147
478.01	42.527
478.36	41.471
478.70	43.448
479.05	42.841
479.40	41.810
479.75	41.870
480.10	42.274
480.45	42.276
480.79	41.961
481.14	43.414
481.49	43.217
481.84	42.083
482.19	41.362
482.53	42.857
482.88	42.713
483.23	41.675
483.58	42.958
483.92	42.315
484.27	41.720
484.62	41.012
484.97	42.928
485.31	41.705
485.66	38.753
486.01	39.756
486.36	40.112
486.70	41.597
487.05	42.765
487.40	42.564
487.75	43.066
488.09	42.821
488.44	43.463
488.79	43.301
489.13	42.425
489.48	41.428
489.83	42.787
490.17	43.123
490.52	43.759
490.87	42.791
491.22	43.382
491.56	43.891
491.91	43.063
492.26	43.327
492.60	42.184
492.95	42.274
493.30	42.297
493.64	42.638
493.99	44.879
494.34	43.545
494.68	42.912
495.03	43.429
495.37	43.358
495.72	43.008
496.07	42.913
496.41	42.302
496.76	43.144
497.11	43.333
497.45	44.018
497.80	44.422
498.14	43.728
498.49	43.570
498.84	43.877
499.18	43.106
499.53	42.885
499.87	42.746
500.22	43.753
500.56	43.882
500.91	43.913
501.26	42.906
501.60	43.382
501.95	43.220
502.29	43.883
502.64	43.491
502.98	43.064
503.33	43.990
503.67	43.817
504.02	43.137
504.36	43.834
504.71	43.394
505.06	44.982
505.40	45.000
505.75	44.354
506.09	44.303
506.44	43.952
506.78	43.474
507.13	44.699
507.47	44.539
507.82	44.061
508.16	44.802
508.51	44.525
508.85	45.153
509.19	44.180
509.54	44.879
509.88	44.086
510.23	44.316
510.57	44.650
510.92	44.828
511.26	45.875
511.61	46.597
511.95	44.322
512.30	45.031
512.64	46.254
512.98	44.820
513.33	45.183
513.67	46.281
514.02	45.439
514.36	44.775
514.70	45.612
515.05	45.641
515.39	45.932
515.74	45.175
516.08	44.484
516.42	45.104
516.77	44.288
517.11	45.385
517.46	46.879
517.80	46.550
518.14	45.009
518.49	45.931
518.83	44.988
519.17	45.120
519.52	45.416
519.86	46.934
520.20	45.664
520.55	45.647
520.89	46.047
521.23	45.833
521.58	46.397
521.92	46.072
522.26	46.519
522.61	45.507
522.95	45.596
523.29	44.825
523.64	44.819
523.98	45.743
524.32	44.802
524.66	45.390
525.01	46.527
525.35	45.688
525.69	45.659
526.04	44.625
526.38	45.379
526.72	45.431
527.06	44.165
527.41	44.341
527.75	43.792
528.09	45.405
528.43	45.658
528.78	44.186
529.12	45.278
529.46	44.018
529.80	45.437
530.15	42.664
530.49	45.755
530.83	44.685
531.17	44.932
531.51	43.695
531.86	43.835
532.20	44.039
532.54	44.276
532.88	43.431
533.22	45.051
533.57	43.907
533.91	43.806
534.25	42.839
534.59	43.179
534.93	43.495
535.27	42.739
535.62	43.947
535.96	43.526
536.30	43.085
536.64	43.267
536.98	42.747
537.32	43.915
537.66	42.807
538.01	42.025
538.35	42.334
538.69	42.542
539.03	41.678
539.37	42.790
539.71	43.793
540.05	41.835
540.39	41.638
540.73	42.388
541.07	41.837
541.42	43.030
541.76	42.625
542.10	41.571
542.44	42.897
542.78	42.540
543.12	43.329
543.46	41.672
543.80	42.295
544.14	42.464
544.48	41.208
544.82	41.829
545.16	42.529
545.50	41.661
545.84	41.935
546.18	42.286
546.52	41.708
546.86	41.696
547.20	42.602
547.54	42.173
547.88	42.713
548.22	41.498
548.56	43.362
548.90	42.219
549.24	42.847
549.58	42.206
549.92	43.580
550.26	44.871
550.60	43.318
550.94	43.507
551.28	41.787
551.62	44.436
551.96	43.631
552.30	43.304
552.64	43.291
552.98	44.531
553.32	43.619
553.66	43.434
554.00	43.557
554.34	43.223
554.68	43.400
555.02	44.386
555.36	43.873
555.69	43.991
556.03	43.531
556.37	43.172
556.71	42.186
557.05	44.649
557.39	43.783
557.73	45.083
558.07	45.516
558.41	44.890
558.75	45.266
559.08	44.427
559.42	43.352
559.76	43.578
560.10	42.967
560.44	43.331
560.78	44.101
561.12	43.308
561.45	42.789
561.79	44.223
562.13	43.952
562.47	44.286
562.81	43.867
563.15	43.909
563.48	43.014
563.82	43.023
564.16	43.940
564.50	43.623
564.84	43.108
565.17	43.709
565.51	43.516
565.85	41.905
566.19	43.377
566.52	41.219
566.86	41.846
567.20	41.784
567.54	40.299
567.88	39.362
568.21	41.228
568.55	40.063
568.89	40.229
569.23	39.734
569.56	39.675
569.90	39.110
570.24	38.773
570.57	38.588
570.91	38.881
571.25	39.108
571.59	38.214
571.92	37.694
572.26	38.580
572.60	38.959
572.93	38.113
573.27	37.595
573.61	37.921
573.95	37.573
574.28	37.355
574.62	37.127
574.96	37.156
575.29	37.688
575.63	36.986
575.97	37.853
576.30	36.619
576.64	37.464
576.98	37.513
577.31	37.556
577.65	36.338
577.98	37.327
578.32	37.454
578.66	37.314
578.99	37.183
579.33	38.056
579.67	38.035
580.00	37.714
580.34	37.470
580.67	38.021
581.01	37.640
581.35	37.320
581.68	37.327
582.02	37.928
582.35	38.221
582.69	37.874
583.02	37.967
583.36	38.704
583.70	39.672
584.03	39.391
584.37	38.579
584.70	39.121
585.04	39.748
585.37	39.222
585.71	38.953
586.04	40.050
586.38	39.700
586.72	40.601
587.05	40.271
587.39	40.592
587.72	40.293
588.06	41.067
588.39	41.394
588.73	40.794
589.06	41.448
589.40	41.864
589.73	41.466
590.07	41.743
590.40	41.575
590.73	42.464
591.07	42.624
591.40	41.696
591.74	42.686
592.07	42.812
592.41	43.286
592.74	41.744
593.08	40.513
593.41	41.169
593.75	41.667
594.08	42.176
594.41	42.888
594.75	42.841
595.08	42.830
595.42	41.983
595.75	42.769
596.09	42.263
596.42	42.484
596.75	43.923
597.09	43.085
597.42	44.415
597.75	43.156
598.09	43.169
598.42	42.864
598.76	42.569
599.09	43.537
599.42	41.918
599.76	43.222
600.09	42.997
600.42	41.092
600.76	42.018
601.09	42.900
601.42	42.768
601.76	42.896
602.09	43.129
602.42	42.592
602.76	42.995
603.09	42.916
603.42	42.783
603.76	42.206
604.09	42.925
604.42	42.863
604.76	42.427
605.09	43.045
605.42	43.410
605.75	42.698
606.09	42.260
606.42	42.976
606.75	42.814
607.09	42.996
607.42	43.345
607.75	41.751
608.08	42.831
608.42	43.346
608.75	43.717
609.08	43.018
609.41	42.921
609.75	43.167
610.08	42.949
610.41	44.023
610.74	43.600
611.07	41.984
611.41	43.654
611.74	43.168
612.07	42.262
612.40	43.405
612.73	43.194
613.07	43.847
613.40	44.493
613.73	43.337
614.06	42.897
614.39	43.191
614.72	44.253
615.06	43.444
615.39	43.157
615.72	42.387
616.05	43.694
616.38	43.414
616.71	41.752
617.05	44.226
617.38	43.315
617.71	42.218
618.04	42.962
618.37	43.533
618.70	44.373
619.03	43.711
619.36	43.630
619.69	44.444
620.03	42.827
620.36	42.937
620.69	43.255
621.02	44.385
621.35	45.789
621.68	43.684
622.01	44.984
622.34	43.220
622.67	44.714
623.00	43.237
623.33	44.577
623.66	42.900
623.99	43.136
624.32	43.727
624.65	42.359
624.99	43.057
625.32	43.316
625.65	44.186
625.98	43.681
626.31	44.163
626.64	44.712
626.97	44.118
627.30	43.370
627.63	43.858
627.96	42.511
628.29	45.860
628.62	46.422
628.95	45.090
629.28	46.404
629.61	44.211
629.94	44.197
630.26	43.547
630.59	45.754
630.92	44.779
631.25	43.254
631.58	45.289
631.91	45.069
