SpectraSuite Data File
++++++++++++++++++++++++++++++++++++
Date: Wed May 13 21:42:04 PDT 2015
User: schluterlab
Dark Spectrum Present: Yes
Reference Spectrum Present: Yes
Number of Sampled Component Spectra: 1
Spectrometers: USB2E3373
Integration Time (usec): 3000 (USB2E3373)
Spectra Averaged: 3 (USB2E3373)
Boxcar Smoothing: 0 (USB2E3373)
Correct for Electrical Dark: No (USB2E3373)
Strobe/Lamp Enabled: No (USB2E3373)
Correct for Detector Non-linearity: No (USB2E3373)
Correct for Stray Light: No (USB2E3373)
Number of Pixels in Processed Spectrum: 2048
>>>>>Begin Processed Spectral Data<<<<<
178.53	0.000
178.91	700.000
179.29	191.667
179.67	-650.000
180.04	-533.333
180.42	260.000
180.80	900.000
181.18	233.333
181.56	-450.000
181.94	-325.000
182.31	-36.364
182.69	92.308
183.07	-200.000
183.45	83.333
183.83	144.444
184.20	85.714
184.58	-200.000
184.96	433.333
185.34	314.286
185.72	0.000
186.09	-800.000
186.47	-180.000
186.85	120.000
187.23	150.000
187.61	700.000
187.98	900.000
188.36	-25.000
188.74	0.000
189.12	-72.727
189.49	30.000
189.87	200.000
190.25	60.000
190.63	1200.000
191.00	-60.000
191.38	280.000
191.76	250.000
192.14	150.000
192.51	-31.579
192.89	566.667
193.27	350.000
193.65	-260.000
194.02	200.000
194.40	220.000
194.78	-300.000
195.15	520.000
195.53	-200.000
195.91	37.500
196.29	-233.333
196.66	0.000
197.04	400.000
197.42	-80.000
197.79	-10.000
198.17	-137.500
198.55	-300.000
198.92	300.000
199.30	-400.000
199.68	-90.000
200.05	-250.000
200.43	66.667
200.81	-1400.000
201.18	-300.000
201.56	-183.333
201.94	575.000
202.31	4.348
202.69	-157.143
203.07	-866.667
203.44	100.000
203.82	-166.667
204.19	20.000
204.57	0.000
204.95	-100.000
205.32	0.000
205.70	-300.000
206.08	-375.000
206.45	-250.000
206.83	225.000
207.20	-433.333
207.58	-100.000
207.96	-2100.000
208.33	-114.286
208.71	-2100.000
209.08	225.000
209.46	625.000
209.84	0.000
210.21	80.000
210.59	1600.000
210.96	380.000
211.34	1100.000
211.71	-750.000
212.09	-200.000
212.46	-210.000
212.84	-166.667
213.22	-175.000
213.59	-600.000
213.97	-200.000
214.34	-650.000
214.72	-100.000
215.09	312.500
215.47	155.556
215.84	600.000
216.22	-112.500
216.59	-550.000
216.97	400.000
217.34	44.444
217.72	0.000
218.09	366.667
218.47	-300.000
218.84	-142.857
219.22	-87.500
219.59	-333.333
219.97	-75.000
220.34	12.500
220.72	-240.000
221.09	0.000
221.47	-116.667
221.84	-900.000
222.22	0.000
222.59	1500.000
222.97	-600.000
223.34	-66.667
223.72	-800.000
224.09	-700.000
224.46	-45.455
224.84	-87.500
225.21	-142.857
225.59	-375.000
225.96	-33.333
226.34	-10.000
226.71	-157.143
227.08	350.000
227.46	-75.000
227.83	-200.000
228.21	-62.500
228.58	-275.000
228.95	-52.941
229.33	-12.500
229.70	0.000
230.08	-15.385
230.45	-200.000
230.82	-66.667
231.20	171.429
231.57	-250.000
231.95	2100.000
232.32	25.000
232.69	-58.824
233.07	-400.000
233.44	-39.130
233.81	-600.000
234.19	16.667
234.56	-80.000
234.93	-33.333
235.31	5.263
235.68	-46.154
236.05	-7.692
236.43	-22.222
236.80	-3.030
237.17	-40.000
237.55	0.000
237.92	-27.586
238.29	7.407
238.67	-5.556
239.04	-32.258
239.41	2.128
239.79	36.170
240.16	6.977
240.53	12.500
240.91	33.929
241.28	17.857
241.65	25.806
242.02	18.421
242.40	36.232
242.77	0.000
243.14	12.821
243.51	20.213
243.89	23.077
244.26	44.340
244.63	15.385
245.00	29.167
245.38	25.210
245.75	27.049
246.12	27.068
246.49	21.951
246.87	26.050
247.24	27.027
247.61	16.556
247.98	28.205
248.36	24.852
248.73	21.910
249.10	23.737
249.47	24.731
249.84	27.895
250.22	21.891
250.59	24.766
250.96	28.182
251.33	22.010
251.70	24.268
252.08	22.594
252.45	28.395
252.82	25.475
253.19	24.125
253.56	25.540
253.94	27.046
254.31	27.817
254.68	29.866
255.05	27.063
255.42	27.273
255.79	25.460
256.16	28.707
256.54	28.254
256.91	23.101
257.28	28.616
257.65	25.159
258.02	27.273
258.39	28.070
258.76	25.581
259.14	26.420
259.51	25.843
259.88	29.539
260.25	30.556
260.62	26.404
260.99	28.382
261.36	28.238
261.73	23.210
262.10	30.025
262.47	26.667
262.85	26.119
263.22	27.692
263.59	26.234
263.96	26.764
264.33	27.644
264.70	28.372
265.07	25.000
265.44	27.126
265.81	28.375
266.18	28.702
266.55	26.201
266.92	27.966
267.29	27.160
267.66	27.389
268.03	27.984
268.40	25.847
268.77	28.512
269.14	27.755
269.51	31.211
269.88	26.477
270.25	27.119
270.62	24.385
270.99	24.803
271.36	27.381
271.73	28.916
272.10	25.905
272.47	26.871
272.84	27.756
273.21	24.853
273.58	27.664
273.95	27.170
274.32	27.612
274.69	28.597
275.06	27.562
275.43	27.495
275.80	26.418
276.17	28.177
276.54	26.821
276.91	26.481
277.28	25.271
277.65	26.573
278.02	27.500
278.39	25.755
278.76	24.916
279.13	25.901
279.50	25.862
279.87	26.087
280.23	28.468
280.60	25.779
280.97	26.623
281.34	27.918
281.71	25.203
282.08	26.325
282.45	26.393
282.82	26.677
283.19	28.201
283.56	25.000
283.92	27.523
284.29	26.677
284.66	25.371
285.03	25.407
285.40	25.076
285.77	27.778
286.14	26.748
286.51	26.537
286.87	24.462
287.24	24.631
287.61	25.301
287.98	25.735
288.35	25.186
288.72	24.247
289.08	24.074
289.45	25.257
289.82	25.113
290.19	25.105
290.56	21.733
290.93	22.099
291.29	23.666
291.66	23.087
292.03	25.068
292.40	22.476
292.77	23.561
293.13	23.152
293.50	22.222
293.87	23.467
294.24	23.016
294.60	23.407
294.97	24.735
295.34	20.844
295.71	20.631
296.08	19.634
296.44	22.321
296.81	21.559
297.18	21.875
297.55	20.873
297.91	23.106
298.28	20.944
298.65	21.305
299.02	22.222
299.38	21.350
299.75	20.793
300.12	19.070
300.48	20.468
300.85	20.901
301.22	20.557
301.59	20.305
301.95	20.674
302.32	20.303
302.69	18.644
303.05	19.823
303.42	20.682
303.79	20.505
304.15	19.715
304.52	21.075
304.89	19.934
305.25	19.978
305.62	20.824
305.99	20.675
306.35	20.481
306.72	20.346
307.09	19.812
307.45	18.637
307.82	19.368
308.19	19.749
308.55	20.061
308.92	20.727
309.29	19.319
309.65	19.281
310.02	19.682
310.38	18.902
310.75	18.935
311.12	20.117
311.48	19.980
311.85	19.685
312.22	20.793
312.58	20.097
312.95	20.000
313.31	20.753
313.68	20.802
314.05	20.888
314.41	21.230
314.78	20.588
315.14	20.093
315.51	20.932
315.87	21.038
316.24	21.488
316.61	19.635
316.97	20.463
317.34	20.766
317.70	21.766
318.07	21.207
318.43	20.054
318.80	21.204
319.16	19.717
319.53	20.609
319.89	20.416
320.26	20.980
320.62	20.945
320.99	21.415
321.35	21.141
321.72	19.731
322.08	21.494
322.45	21.739
322.81	21.534
323.18	21.020
323.54	21.390
323.91	22.855
324.27	21.962
324.64	21.254
325.00	21.347
325.37	22.611
325.73	22.054
326.10	21.531
326.46	22.408
326.83	21.683
327.19	22.114
327.56	22.401
327.92	22.285
328.29	23.289
328.65	23.926
329.01	22.867
329.38	23.739
329.74	23.519
330.11	21.461
330.47	22.483
330.84	21.570
331.20	22.032
331.56	22.645
331.93	22.653
332.29	23.458
332.66	22.458
333.02	22.068
333.38	21.930
333.75	22.270
334.11	23.351
334.48	22.406
334.84	22.261
335.20	22.298
335.57	21.758
335.93	21.478
336.29	21.366
336.66	19.915
337.02	22.261
337.38	21.932
337.75	19.811
338.11	21.008
338.47	20.377
338.84	20.790
339.20	22.487
339.56	22.355
339.93	20.657
340.29	21.605
340.65	20.873
341.02	20.383
341.38	21.284
341.74	20.168
342.11	21.470
342.47	21.004
342.83	22.386
343.20	21.912
343.56	20.687
343.92	21.284
344.28	21.347
344.65	21.061
345.01	20.420
345.37	21.135
345.73	21.078
346.10	20.546
346.46	18.537
346.82	19.583
347.19	20.016
347.55	20.921
347.91	20.343
348.27	20.110
348.63	20.433
349.00	19.890
349.36	20.487
349.72	21.578
350.08	20.749
350.45	20.752
350.81	20.892
351.17	20.631
351.53	21.053
351.89	20.572
352.26	18.533
352.62	20.233
352.98	20.527
353.34	19.324
353.70	20.171
354.07	20.549
354.43	19.673
354.79	20.833
355.15	19.565
355.51	19.818
355.87	20.016
356.24	20.465
356.60	19.547
356.96	19.493
357.32	20.511
357.68	20.626
358.04	19.162
358.40	19.380
358.77	20.336
359.13	19.611
359.49	19.909
359.85	19.560
360.21	19.352
360.57	19.696
360.93	20.713
361.29	20.355
361.66	19.590
362.02	20.015
362.38	20.089
362.74	20.160
363.10	20.463
363.46	19.597
363.82	20.473
364.18	19.724
364.54	19.183
364.90	19.373
365.26	19.533
365.62	19.531
365.98	19.359
366.35	19.362
366.71	19.472
367.07	19.773
367.43	20.348
367.79	19.736
368.15	20.113
368.51	18.847
368.87	19.400
369.23	20.071
369.59	19.591
369.95	18.650
370.31	19.596
370.67	18.972
371.03	18.708
371.39	18.808
371.75	20.143
372.11	19.302
372.47	19.322
372.83	20.250
373.19	19.856
373.55	19.364
373.91	19.943
374.27	19.018
374.63	18.777
374.99	19.220
375.35	19.452
375.71	18.886
376.07	19.808
376.42	18.984
376.78	20.079
377.14	19.186
377.50	19.817
377.86	19.256
378.22	19.279
378.58	19.672
378.94	19.687
379.30	18.863
379.66	19.975
380.02	19.485
380.38	18.916
380.74	20.084
381.09	19.361
381.45	18.984
381.81	18.669
382.17	18.463
382.53	19.385
382.89	19.783
383.25	18.827
383.61	19.310
383.97	19.125
384.32	18.778
384.68	19.062
385.04	19.120
385.40	20.361
385.76	18.856
386.12	19.174
386.48	18.683
386.83	19.212
387.19	18.630
387.55	19.436
387.91	18.389
388.27	19.420
388.62	19.351
388.98	19.650
389.34	18.734
389.70	18.864
390.06	18.937
390.42	19.652
390.77	19.347
391.13	20.139
391.49	18.090
391.85	18.914
392.20	18.672
392.56	19.175
392.92	18.958
393.28	18.826
393.64	19.450
393.99	18.421
394.35	19.321
394.71	18.333
395.07	17.925
395.42	19.135
395.78	18.275
396.14	19.594
396.50	18.897
396.85	20.076
397.21	19.600
397.57	18.820
397.92	18.144
398.28	19.402
398.64	19.004
399.00	19.141
399.35	19.069
399.71	18.579
400.07	19.398
400.42	18.558
400.78	19.275
401.14	18.578
401.49	18.694
401.85	19.042
402.21	18.762
402.57	19.865
402.92	19.399
403.28	18.449
403.63	18.847
403.99	18.426
404.35	18.828
404.70	18.248
405.06	19.671
405.42	18.530
405.77	18.606
406.13	19.314
406.49	19.113
406.84	18.437
407.20	18.532
407.55	19.026
407.91	19.060
408.27	18.528
408.62	18.846
408.98	18.866
409.34	18.688
409.69	19.038
410.05	18.968
410.40	18.320
410.76	18.051
411.11	18.657
411.47	19.708
411.83	18.777
412.18	18.136
412.54	19.549
412.89	18.433
413.25	18.348
413.60	18.056
413.96	18.976
414.31	19.236
414.67	18.413
415.03	19.147
415.38	17.503
415.74	19.103
416.09	19.564
416.45	19.275
416.80	18.926
417.16	19.838
417.51	19.156
417.87	19.246
418.22	17.970
418.58	18.791
418.93	19.146
419.29	18.350
419.64	17.875
420.00	17.778
420.35	18.171
420.71	18.891
421.06	19.127
421.42	18.674
421.77	19.364
422.12	19.198
422.48	19.029
422.83	19.138
423.19	18.746
423.54	18.787
423.90	18.349
424.25	18.660
424.61	18.669
424.96	18.805
425.31	19.181
425.67	18.930
426.02	19.494
426.38	19.900
426.73	18.143
427.09	18.324
427.44	18.321
427.79	18.705
428.15	18.165
428.50	18.248
428.85	18.819
429.21	18.571
429.56	19.129
429.92	19.105
430.27	18.507
430.62	18.416
430.98	18.086
431.33	19.344
431.68	19.382
432.04	18.704
432.39	18.995
432.74	19.068
433.10	19.117
433.45	18.698
433.80	19.080
434.16	18.569
434.51	18.750
434.86	18.669
435.22	18.846
435.57	18.428
435.92	18.758
436.28	18.318
436.63	19.226
436.98	18.684
437.34	18.681
437.69	18.654
438.04	19.751
438.39	19.614
438.75	18.534
439.10	19.086
439.45	19.673
439.81	19.273
440.16	19.768
440.51	18.668
440.86	19.087
441.22	18.703
441.57	19.252
441.92	19.181
442.27	18.994
442.63	18.353
442.98	18.403
443.33	18.454
443.68	19.135
444.03	18.629
444.39	18.939
444.74	18.056
445.09	18.502
445.44	18.817
445.79	18.637
446.15	19.523
446.50	19.438
446.85	19.134
447.20	19.550
447.55	18.579
447.91	18.483
448.26	18.639
448.61	18.527
448.96	18.736
449.31	19.475
449.66	18.681
450.02	18.818
450.37	17.920
450.72	18.886
451.07	18.119
451.42	17.654
451.77	18.868
452.12	18.479
452.47	18.657
452.83	18.278
453.18	18.332
453.53	18.537
453.88	19.880
454.23	18.727
454.58	18.566
454.93	18.987
455.28	19.268
455.63	18.091
455.98	18.746
456.34	18.118
456.69	18.466
457.04	17.895
457.39	18.160
457.74	18.612
458.09	18.128
458.44	17.803
458.79	18.122
459.14	17.416
459.49	17.683
459.84	18.038
460.19	18.427
460.54	18.978
460.89	18.581
461.24	19.051
461.59	18.961
461.94	18.774
462.29	18.689
462.64	17.678
462.99	18.779
463.34	18.785
463.69	18.428
464.04	18.307
464.39	18.304
464.74	18.489
465.09	18.351
465.44	18.855
465.79	18.171
466.14	18.757
466.49	18.651
466.84	18.410
467.19	18.662
467.54	19.119
467.89	18.668
468.24	18.439
468.59	18.356
468.94	18.774
469.29	18.638
469.64	18.340
469.99	18.690
470.34	18.543
470.68	18.141
471.03	18.970
471.38	18.289
471.73	18.313
472.08	18.763
472.43	18.602
472.78	19.135
473.13	18.602
473.48	18.200
473.83	18.267
474.17	18.424
474.52	19.029
474.87	17.310
475.22	18.539
475.57	18.740
475.92	18.321
476.27	18.531
476.61	18.460
476.96	19.246
477.31	18.123
477.66	19.774
478.01	17.857
478.36	18.038
478.70	18.206
479.05	18.757
479.40	17.889
479.75	18.119
480.10	19.021
480.45	17.263
480.79	18.417
481.14	18.592
481.49	18.599
481.84	17.766
482.19	18.296
482.53	18.333
482.88	18.025
483.23	17.469
483.58	18.856
483.92	18.191
484.27	17.429
484.62	18.597
484.97	17.959
485.31	17.909
485.66	18.397
486.01	18.966
486.36	18.493
486.70	18.410
487.05	18.902
487.40	18.655
487.75	18.806
488.09	18.048
488.44	18.016
488.79	19.039
489.13	18.250
489.48	17.999
489.83	18.312
490.17	18.112
490.52	18.467
490.87	18.081
491.22	18.606
491.56	18.975
491.91	17.763
492.26	18.375
492.60	17.701
492.95	17.930
493.30	18.556
493.64	17.746
493.99	17.778
494.34	17.437
494.68	18.282
495.03	17.737
495.37	18.297
495.72	17.544
496.07	18.753
496.41	17.595
496.76	18.464
497.11	18.075
497.45	18.093
497.80	18.375
498.14	18.035
498.49	17.196
498.84	17.966
499.18	18.517
499.53	17.134
499.87	17.370
500.22	18.318
500.56	17.653
500.91	18.008
501.26	17.734
501.60	18.186
501.95	18.016
502.29	17.864
502.64	17.406
502.98	17.534
503.33	18.054
503.67	18.257
504.02	17.451
504.36	17.286
504.71	17.226
505.06	17.881
505.40	17.835
505.75	18.108
506.09	17.169
506.44	17.490
506.78	17.522
507.13	18.087
507.47	17.762
507.82	17.321
508.16	18.206
508.51	17.562
508.85	16.900
509.19	17.672
509.54	17.802
509.88	17.903
510.23	17.053
510.57	17.108
510.92	17.565
511.26	18.097
511.61	17.344
511.95	17.420
512.30	17.046
512.64	18.275
512.98	18.449
513.33	17.690
513.67	17.263
514.02	17.731
514.36	17.416
514.70	16.513
515.05	18.432
515.39	17.512
515.74	17.525
516.08	17.109
516.42	17.281
516.77	16.989
517.11	17.460
517.46	18.307
517.80	18.099
518.14	17.820
518.49	17.119
518.83	17.959
519.17	17.651
519.52	16.767
519.86	17.001
520.20	16.434
520.55	17.786
520.89	16.951
521.23	18.462
521.58	17.699
521.92	17.725
522.26	16.786
522.61	17.001
522.95	17.487
523.29	16.698
523.64	18.055
523.98	17.408
524.32	16.761
524.66	17.208
525.01	16.579
525.35	17.380
525.69	16.965
526.04	17.068
526.38	16.890
526.72	16.634
527.06	16.828
527.41	16.678
527.75	16.756
528.09	17.291
528.43	16.893
528.78	17.119
529.12	17.141
529.46	18.042
529.80	17.023
530.15	16.602
530.49	17.183
530.83	16.858
531.17	17.260
531.51	16.318
531.86	16.531
532.20	18.057
532.54	16.069
532.88	17.155
533.22	17.037
533.57	17.483
533.91	17.419
534.25	17.773
534.59	15.830
534.93	17.857
535.27	16.051
535.62	16.711
535.96	17.502
536.30	16.157
536.64	16.951
536.98	16.398
537.32	17.153
537.66	17.348
538.01	16.505
538.35	16.229
538.69	16.187
539.03	16.711
539.37	16.097
539.71	18.076
540.05	16.464
540.39	16.724
540.73	16.620
541.07	16.599
541.42	16.835
541.76	17.659
542.10	17.265
542.44	17.325
542.78	16.516
543.12	17.857
543.46	17.484
543.80	16.429
544.14	16.380
544.48	15.859
544.82	16.207
545.16	16.227
545.50	17.691
545.84	16.129
546.18	16.269
546.52	17.219
546.86	15.972
547.20	17.084
547.54	17.012
547.88	17.206
548.22	16.352
548.56	16.411
548.90	17.050
549.24	17.292
549.58	16.157
549.92	17.168
550.26	18.155
550.60	16.366
550.94	16.045
551.28	16.124
551.62	16.541
551.96	17.130
552.30	15.721
552.64	16.667
552.98	16.761
553.32	17.448
553.66	17.315
554.00	16.271
554.34	16.630
554.68	16.928
555.02	16.467
555.36	16.263
555.69	16.533
556.03	16.512
556.37	15.932
556.71	16.608
557.05	15.646
557.39	16.880
557.73	16.717
558.07	15.599
558.41	15.443
558.75	16.166
559.08	15.638
559.42	16.680
559.76	16.055
560.10	15.603
560.44	16.139
560.78	15.827
561.12	17.099
561.45	15.578
561.79	15.750
562.13	16.807
562.47	16.429
562.81	15.584
563.15	15.652
563.48	15.760
563.82	16.279
564.16	15.978
564.50	14.993
564.84	16.486
565.17	16.755
565.51	15.709
565.85	15.456
566.19	15.430
566.52	15.596
566.86	16.308
567.20	15.577
567.54	16.120
567.88	15.062
568.21	15.861
568.55	16.223
568.89	15.653
569.23	16.499
569.56	16.688
569.90	16.603
570.24	15.848
570.57	16.718
570.91	16.678
571.25	16.242
571.59	16.206
571.92	16.779
572.26	16.870
572.60	17.185
572.93	16.682
573.27	16.915
573.61	16.988
573.95	16.182
574.28	17.015
574.62	16.811
574.96	16.978
575.29	17.402
575.63	16.992
575.97	16.875
576.30	16.768
576.64	17.081
576.98	17.104
577.31	16.867
577.65	16.854
577.98	16.739
578.32	16.653
578.66	17.202
578.99	17.512
579.33	17.216
579.67	17.057
580.00	16.845
580.34	17.208
580.67	16.928
581.01	17.024
581.35	17.387
581.68	17.244
582.02	17.297
582.35	17.438
582.69	17.024
583.02	16.621
583.36	16.466
583.70	16.987
584.03	16.635
584.37	16.120
584.70	16.272
585.04	16.928
585.37	16.938
585.71	16.836
586.04	16.942
586.38	16.811
586.72	16.493
587.05	16.413
587.39	16.916
587.72	16.543
588.06	16.717
588.39	16.681
588.73	16.637
589.06	16.424
589.40	16.718
589.73	16.349
590.07	16.004
590.40	15.865
590.73	15.721
591.07	16.256
591.40	16.391
591.74	16.896
592.07	16.568
592.41	16.045
592.74	16.821
593.08	16.513
593.41	17.148
593.75	16.634
594.08	16.857
594.41	16.600
594.75	16.829
595.08	16.468
595.42	16.356
595.75	16.486
596.09	16.320
596.42	16.462
596.75	16.542
597.09	17.152
597.42	17.317
597.75	16.800
598.09	16.849
598.42	16.555
598.76	16.457
599.09	17.527
599.42	16.541
599.76	16.786
600.09	17.244
600.42	16.911
600.76	16.888
601.09	16.949
601.42	16.974
601.76	16.757
602.09	16.700
602.42	16.756
602.76	16.737
603.09	16.099
603.42	17.033
603.76	16.563
604.09	16.719
604.42	16.743
604.76	16.805
605.09	16.674
605.42	17.229
605.75	16.188
606.09	16.308
606.42	17.498
606.75	15.931
607.09	16.445
607.42	17.644
607.75	16.543
608.08	16.952
608.42	16.682
608.75	16.866
609.08	16.756
609.41	16.692
609.75	15.532
610.08	16.864
610.41	16.521
610.74	16.554
611.07	16.433
611.41	16.581
611.74	17.184
612.07	16.258
612.40	16.486
612.73	17.069
613.07	17.018
613.40	16.795
613.73	16.901
614.06	17.247
614.39	15.842
614.72	17.157
615.06	16.333
615.39	17.329
615.72	16.415
616.05	16.104
616.38	17.068
616.71	16.317
617.05	16.155
617.38	16.636
617.71	15.257
618.04	15.844
618.37	16.025
618.70	16.688
619.03	14.845
619.36	16.014
619.69	15.132
620.03	15.477
620.36	16.562
620.69	14.989
621.02	14.769
621.35	14.963
621.68	14.833
622.01	16.100
622.34	15.226
622.67	16.601
623.00	16.337
623.33	17.128
623.66	14.721
623.99	16.129
624.32	15.847
624.65	15.801
624.99	15.724
625.32	16.057
625.65	15.426
625.98	15.245
626.31	16.163
626.64	14.875
626.97	15.138
627.30	16.168
627.63	14.446
627.96	14.113
628.29	16.465
628.62	15.957
628.95	15.431
629.28	14.877
629.61	15.885
629.94	14.410
630.26	14.483
630.59	14.585
630.92	14.357
631.25	15.345
631.58	15.846
631.91	13.998
632.24	13.831
632.57	13.778
