SpectraSuite Data File
++++++++++++++++++++++++++++++++++++
Date: Wed May 13 21:44:24 PDT 2015
User: schluterlab
Dark Spectrum Present: Yes
Reference Spectrum Present: Yes
Number of Sampled Component Spectra: 1
Spectrometers: USB2E3373
Integration Time (usec): 3000 (USB2E3373)
Spectra Averaged: 3 (USB2E3373)
Boxcar Smoothing: 0 (USB2E3373)
Correct for Electrical Dark: No (USB2E3373)
Strobe/Lamp Enabled: No (USB2E3373)
Correct for Detector Non-linearity: No (USB2E3373)
Correct for Stray Light: No (USB2E3373)
Number of Pixels in Processed Spectrum: 2048
>>>>>Begin Processed Spectral Data<<<<<
178.53	0.000
178.91	650.000
179.29	191.667
179.67	-850.000
180.04	-300.000
180.42	40.000
180.80	1200.000
181.18	283.333
181.56	-325.000
181.94	-50.000
182.31	-109.091
182.69	146.154
183.07	-60.000
183.45	133.333
183.83	111.111
184.20	-0.000
184.58	133.333
184.96	600.000
185.34	157.143
185.72	0.000
186.09	300.000
186.47	-300.000
186.85	60.000
187.23	-100.000
187.61	300.000
187.98	800.000
188.36	-50.000
188.74	0.000
189.12	-45.455
189.49	-30.000
189.87	158.333
190.25	320.000
190.63	1700.000
191.00	-160.000
191.38	240.000
191.76	175.000
192.14	208.333
192.51	-21.053
192.89	533.333
193.27	425.000
193.65	-200.000
194.02	145.455
194.40	170.000
194.78	400.000
195.15	200.000
195.53	-160.000
195.91	-87.500
196.29	-66.667
196.66	0.000
197.04	800.000
197.42	80.000
197.79	-40.000
198.17	-25.000
198.55	-166.667
198.92	275.000
199.30	-100.000
199.68	-90.000
200.05	50.000
200.43	-0.000
200.81	-1300.000
201.18	-200.000
201.56	-50.000
201.94	725.000
202.31	4.348
202.69	42.857
203.07	-200.000
203.44	-180.000
203.82	-300.000
204.19	-30.000
204.57	0.000
204.95	-100.000
205.32	0.000
205.70	-150.000
206.08	-350.000
206.45	-216.667
206.83	175.000
207.20	-66.667
207.58	-40.000
207.96	-1100.000
208.33	-142.857
208.71	-1600.000
209.08	275.000
209.46	475.000
209.84	0.000
210.21	200.000
210.59	1200.000
210.96	200.000
211.34	600.000
211.71	-950.000
212.09	-100.000
212.46	-110.000
212.84	-100.000
213.22	-100.000
213.59	-1500.000
213.97	-700.000
214.34	-950.000
214.72	-61.538
215.09	137.500
215.47	111.111
215.84	750.000
216.22	-50.000
216.59	-50.000
216.97	666.667
217.34	111.111
217.72	0.000
218.09	500.000
218.47	-1000.000
218.84	-185.714
219.22	-125.000
219.59	-200.000
219.97	-175.000
220.34	-37.500
220.72	-80.000
221.09	0.000
221.47	-200.000
221.84	-400.000
222.22	0.000
222.59	500.000
222.97	-366.667
223.34	-50.000
223.72	-1000.000
224.09	-850.000
224.46	-81.818
224.84	12.500
225.21	-28.571
225.59	-200.000
225.96	-133.333
226.34	-90.000
226.71	-100.000
227.08	1050.000
227.46	-75.000
227.83	-100.000
228.21	-75.000
228.58	-350.000
228.95	-52.941
229.33	-50.000
229.70	-125.000
230.08	-69.231
230.45	-150.000
230.82	-75.000
231.20	200.000
231.57	-150.000
231.95	-400.000
232.32	50.000
232.69	0.000
233.07	-900.000
233.44	-4.348
233.81	-500.000
234.19	66.667
234.56	-120.000
234.93	20.000
235.31	26.316
235.68	-84.615
236.05	-7.692
236.43	-33.333
236.80	-6.061
237.17	-113.333
237.55	-111.765
237.92	-58.621
238.29	-25.926
238.67	2.778
239.04	-16.129
239.41	2.128
239.79	-23.404
240.16	11.628
240.53	21.429
240.91	21.429
241.28	14.286
241.65	16.129
242.02	2.632
242.40	13.043
242.77	4.348
243.14	10.256
243.51	13.830
243.89	13.462
244.26	20.755
244.63	4.808
245.00	3.125
245.38	19.328
245.75	13.934
246.12	11.278
246.49	12.195
246.87	11.765
247.24	18.919
247.61	15.232
247.98	9.615
248.36	14.201
248.73	13.483
249.10	19.697
249.47	14.516
249.84	14.737
250.22	15.920
250.59	11.682
250.96	16.364
251.33	9.091
251.70	17.992
252.08	12.552
252.45	22.222
252.82	18.631
253.19	17.510
253.56	14.388
253.94	15.302
254.31	16.901
254.68	15.101
255.05	17.162
255.42	13.986
255.79	15.951
256.16	13.880
256.54	17.778
256.91	12.342
257.28	15.723
257.65	17.197
258.02	11.144
258.39	16.667
258.76	14.244
259.14	14.489
259.51	16.854
259.88	14.905
260.25	15.278
260.62	14.045
260.99	17.772
261.36	17.617
261.73	15.556
262.10	16.794
262.47	11.605
262.85	17.413
263.22	17.436
263.59	15.584
263.96	17.032
264.33	16.346
264.70	15.581
265.07	17.593
265.44	19.080
265.81	15.103
266.18	15.945
266.55	15.284
266.92	18.644
267.29	14.609
267.66	18.684
268.03	19.753
268.40	15.678
268.77	18.802
269.14	18.571
269.51	17.864
269.88	16.293
270.25	16.949
270.62	14.959
270.99	18.898
271.36	18.651
271.73	15.261
272.10	14.857
272.47	18.618
272.84	19.094
273.21	13.894
273.58	18.238
273.95	17.358
274.32	17.351
274.69	18.944
275.06	18.905
275.43	17.137
275.80	16.667
276.17	16.206
276.54	16.874
276.91	16.899
277.28	14.440
277.65	16.958
278.02	17.679
278.39	14.210
278.76	17.057
279.13	16.123
279.50	15.517
279.87	17.572
280.23	17.658
280.60	14.533
280.97	17.208
281.34	17.666
281.71	15.935
282.08	15.726
282.45	16.557
282.82	16.773
283.19	18.445
283.56	16.406
283.92	16.055
284.29	16.537
284.66	17.298
285.03	15.472
285.40	15.861
285.77	16.967
286.14	15.198
286.51	17.391
286.87	14.615
287.24	17.257
287.61	17.470
287.98	15.441
288.35	14.158
288.72	15.925
289.08	17.664
289.45	14.831
289.82	16.793
290.19	14.025
290.56	12.642
290.93	14.088
291.29	14.364
291.66	15.847
292.03	14.986
292.40	15.478
292.77	14.324
293.13	14.505
293.50	15.686
293.87	14.933
294.24	15.212
294.60	15.865
294.97	14.021
295.34	12.269
295.71	13.535
296.08	13.351
296.44	13.138
296.81	13.276
297.18	13.875
297.55	14.741
297.91	13.789
298.28	14.891
298.65	14.901
299.02	13.919
299.38	13.374
299.75	14.303
300.12	12.674
300.48	12.865
300.85	14.088
301.22	13.937
301.59	13.967
301.95	13.124
302.32	12.485
302.69	12.768
303.05	13.068
303.42	13.750
303.79	14.826
304.15	13.143
304.52	14.409
304.89	12.514
305.25	11.416
305.62	13.991
305.99	14.037
306.35	15.361
306.72	15.259
307.09	14.599
307.45	14.909
307.82	14.526
308.19	12.853
308.55	14.534
308.92	15.619
309.29	14.414
309.65	14.985
310.02	14.911
310.38	14.939
310.75	14.497
311.12	14.674
311.48	14.045
311.85	15.157
312.22	15.764
312.58	15.072
312.95	14.527
313.31	16.804
313.68	17.462
314.05	17.297
314.41	17.291
314.78	17.552
315.14	18.333
315.51	18.268
315.87	17.702
316.24	19.376
316.61	19.087
316.97	18.889
317.34	19.519
317.70	19.090
318.07	20.674
318.43	19.512
318.80	20.157
319.16	20.955
319.53	22.043
319.89	21.319
320.26	20.887
320.62	21.501
320.99	23.256
321.35	22.544
321.72	22.233
322.08	22.786
322.45	23.219
322.81	23.105
323.18	23.345
323.54	24.910
323.91	25.474
324.27	25.383
324.64	26.394
325.00	24.672
325.37	27.389
325.73	26.263
326.10	26.241
326.46	26.087
326.83	26.618
327.19	26.911
327.56	28.203
327.92	28.158
328.29	29.633
328.65	28.922
329.01	27.529
329.38	29.043
329.74	28.670
330.11	29.035
330.47	29.861
330.84	28.791
331.20	28.950
331.56	29.167
331.93	29.802
332.29	29.366
332.66	29.576
333.02	28.671
333.38	30.877
333.75	29.522
334.11	30.382
334.48	29.381
334.84	28.180
335.20	30.189
335.57	29.504
335.93	29.296
336.29	29.685
336.66	30.342
337.02	29.217
337.38	30.200
337.75	30.319
338.11	28.181
338.47	28.596
338.84	30.326
339.20	31.834
339.56	30.034
339.93	29.300
340.29	28.950
340.65	30.967
341.02	30.033
341.38	30.490
341.74	29.580
342.11	29.975
342.47	30.126
342.83	30.229
343.20	30.795
343.56	30.908
343.92	29.651
344.28	30.114
344.65	29.306
345.01	30.186
345.37	30.181
345.73	30.556
346.10	30.417
346.46	29.431
346.82	29.294
347.19	29.351
347.55	30.695
347.91	30.242
348.27	30.284
348.63	31.170
349.00	28.931
349.36	30.377
349.72	30.936
350.08	29.563
350.45	30.227
350.81	30.595
351.17	30.408
351.53	31.658
351.89	29.786
352.26	29.575
352.62	31.085
352.98	30.192
353.34	29.871
353.70	30.452
354.07	30.745
354.43	29.549
354.79	30.449
355.15	30.202
355.51	30.448
355.87	30.493
356.24	30.738
356.60	30.884
356.96	30.084
357.32	30.650
357.68	32.238
358.04	30.644
358.40	30.775
358.77	30.657
359.13	29.961
359.49	30.204
359.85	30.933
360.21	32.074
360.57	30.038
360.93	30.956
361.29	31.606
361.66	30.979
362.02	30.689
362.38	31.388
362.74	30.602
363.10	31.526
363.46	31.196
363.82	31.338
364.18	31.690
364.54	32.312
364.90	30.871
365.26	32.059
365.62	31.889
365.98	31.174
366.35	31.702
366.71	30.956
367.07	31.680
367.43	32.265
367.79	32.175
368.15	32.700
368.51	31.716
368.87	33.357
369.23	31.601
369.59	32.135
369.95	30.769
370.31	31.241
370.67	31.282
371.03	33.333
371.39	32.576
371.75	31.857
372.11	32.835
372.47	32.444
372.83	31.692
373.19	31.799
373.55	32.442
373.91	31.683
374.27	30.982
374.63	31.721
374.99	32.451
375.35	32.877
375.71	32.337
376.07	32.145
376.42	31.885
376.78	33.752
377.14	32.814
377.50	32.399
377.86	32.072
378.22	32.048
378.58	32.598
378.94	33.500
379.30	33.229
379.66	33.292
380.02	32.782
380.38	32.590
380.74	32.756
381.09	32.630
381.45	32.104
381.81	32.779
382.17	32.199
382.53	31.815
382.89	32.328
383.25	32.407
383.61	32.446
383.97	32.500
384.32	32.892
384.68	32.819
385.04	30.971
385.40	32.379
385.76	32.056
386.12	31.569
386.48	32.351
386.83	32.103
387.19	32.387
387.55	32.434
387.91	32.349
388.27	31.134
388.62	31.710
388.98	32.666
389.34	32.707
389.70	32.112
390.06	32.062
390.42	32.925
390.77	32.864
391.13	33.018
391.49	32.638
391.85	31.565
392.20	31.704
392.56	32.000
392.92	31.831
393.28	31.319
393.64	31.621
393.99	31.273
394.35	31.852
394.71	32.372
395.07	30.000
395.42	31.627
395.78	31.596
396.14	32.086
396.50	31.833
396.85	32.377
397.21	31.461
397.57	31.056
397.92	31.796
398.28	31.077
398.64	30.662
399.00	31.306
399.35	31.555
399.71	31.275
400.07	30.783
400.42	30.784
400.78	30.816
401.14	30.901
401.49	30.857
401.85	30.344
402.21	30.774
402.57	30.595
402.92	32.040
403.28	29.894
403.63	31.432
403.99	30.838
404.35	30.237
404.70	30.151
405.06	30.828
405.42	29.962
405.77	30.645
406.13	30.000
406.49	31.156
406.84	30.342
407.20	29.070
407.55	29.870
407.91	30.113
408.27	28.571
408.62	29.650
408.98	30.271
409.34	30.569
409.69	29.825
410.05	30.348
410.40	28.789
410.76	29.362
411.11	29.789
411.47	31.254
411.83	29.507
412.18	29.912
412.54	30.201
412.89	29.592
413.25	29.499
413.60	30.721
413.96	28.901
414.31	29.408
414.67	28.444
415.03	29.905
415.38	28.600
415.74	28.005
416.09	28.619
416.45	29.802
416.80	29.597
417.16	30.364
417.51	28.667
417.87	29.034
418.22	28.895
418.58	28.515
418.93	28.876
419.29	29.769
419.64	29.071
420.00	29.651
420.35	28.811
420.71	28.154
421.06	29.705
421.42	29.927
421.77	29.133
422.12	29.456
422.48	28.953
422.83	29.061
423.19	29.672
423.54	30.271
423.90	29.632
424.25	29.001
424.61	29.513
424.96	29.627
425.31	28.772
425.67	29.512
426.02	29.270
426.38	29.042
426.73	28.467
427.09	29.393
427.44	29.654
427.79	29.751
428.15	29.235
428.50	28.822
428.85	29.889
429.21	28.644
429.56	30.128
429.92	30.141
430.27	29.243
430.62	29.171
430.98	29.773
431.33	29.930
431.68	29.659
432.04	29.577
432.39	28.753
432.74	29.491
433.10	30.041
433.45	29.231
433.80	29.368
434.16	29.492
434.51	29.728
434.86	30.094
435.22	29.428
435.57	29.054
435.92	28.951
436.28	27.928
436.63	30.081
436.98	29.730
437.34	30.586
437.69	29.457
438.04	28.580
438.39	29.639
438.75	28.427
439.10	30.191
439.45	29.722
439.81	30.296
440.16	29.855
440.51	29.489
440.86	30.646
441.22	29.948
441.57	29.881
441.92	29.601
442.27	30.032
442.63	29.333
442.98	29.398
443.33	30.135
443.68	29.520
444.03	29.856
444.39	29.995
444.74	29.763
445.09	29.846
445.44	30.817
445.79	30.305
446.15	29.229
446.50	30.617
446.85	30.037
447.20	31.103
447.55	30.610
447.91	30.225
448.26	29.617
448.61	28.999
448.96	30.866
449.31	29.983
449.66	29.728
450.02	30.870
450.37	30.259
450.72	29.277
451.07	30.784
451.42	28.509
451.77	29.519
452.12	28.699
452.47	30.471
452.83	29.304
453.18	29.217
453.53	29.319
453.88	29.398
454.23	29.975
454.58	29.289
454.93	29.185
455.28	29.801
455.63	29.382
455.98	30.128
456.34	28.926
456.69	29.776
457.04	29.412
457.39	29.585
457.74	29.743
458.09	29.739
458.44	28.790
458.79	29.105
459.14	28.202
459.49	29.756
459.84	29.481
460.19	28.511
460.54	29.075
460.89	29.054
461.24	28.915
461.59	28.684
461.94	29.014
462.29	29.412
462.64	28.562
462.99	28.974
463.34	28.936
463.69	29.768
464.04	27.611
464.39	28.981
464.74	28.686
465.09	29.386
465.44	28.339
465.79	28.695
466.14	28.278
466.49	28.387
466.84	28.631
467.19	28.408
467.54	28.257
467.89	29.164
468.24	27.843
468.59	28.107
468.94	27.586
469.29	28.222
469.64	28.801
469.99	28.414
470.34	27.579
470.68	27.584
471.03	27.151
471.38	27.677
471.73	28.532
472.08	27.973
472.43	27.836
472.78	28.533
473.13	26.649
473.48	26.810
473.83	27.370
474.17	27.083
474.52	27.379
474.87	27.201
475.22	27.899
475.57	27.552
475.92	27.699
476.27	27.739
476.61	27.293
476.96	28.212
477.31	27.346
477.66	27.345
478.01	26.484
478.36	26.594
478.70	26.531
479.05	27.081
479.40	26.053
479.75	26.302
480.10	26.058
480.45	26.287
480.79	26.481
481.14	27.812
481.49	26.887
481.84	26.296
482.19	26.308
482.53	26.571
482.88	26.894
483.23	25.457
483.58	26.654
483.92	25.243
484.27	26.167
484.62	26.099
484.97	26.296
485.31	26.472
485.66	26.489
486.01	26.936
486.36	27.460
486.70	26.932
487.05	27.010
487.40	26.484
487.75	26.960
488.09	25.993
488.44	25.657
488.79	26.609
489.13	25.328
489.48	24.925
489.83	25.770
490.17	24.921
490.52	26.695
490.87	24.525
491.22	25.106
491.56	25.108
491.91	24.868
492.26	25.774
492.60	25.637
492.95	26.045
493.30	24.273
493.64	24.556
493.99	24.589
494.34	25.000
494.68	24.582
495.03	25.494
495.37	24.623
495.72	24.962
496.07	24.939
496.41	24.052
496.76	25.274
497.11	24.648
497.45	23.881
497.80	24.382
498.14	24.534
498.49	24.206
498.84	24.241
499.18	24.340
499.53	23.043
499.87	23.241
500.22	24.241
500.56	24.072
500.91	24.296
501.26	24.286
501.60	23.578
501.95	23.766
502.29	24.175
502.64	24.204
502.98	24.229
503.33	23.650
503.67	23.710
504.02	23.480
504.36	23.427
504.71	23.984
505.06	24.045
505.40	23.814
505.75	23.754
506.09	23.352
506.44	23.185
506.78	23.718
507.13	23.493
507.47	22.906
507.82	22.763
508.16	23.272
508.51	22.314
508.85	23.069
509.19	22.751
509.54	23.110
509.88	23.118
510.23	22.737
510.57	22.934
510.92	23.653
511.26	22.497
511.61	22.722
511.95	22.216
512.30	22.265
512.64	23.099
512.98	22.659
513.33	22.535
513.67	22.147
514.02	22.919
514.36	22.472
514.70	23.095
515.05	22.060
515.39	21.875
515.74	21.847
516.08	21.121
516.42	21.141
516.77	20.972
517.11	21.399
517.46	21.609
517.80	21.913
518.14	20.576
518.49	21.640
518.83	21.838
519.17	21.446
519.52	21.773
519.86	20.947
520.20	21.104
520.55	22.015
520.89	21.189
521.23	22.436
521.58	21.618
521.92	20.930
522.26	20.690
522.61	20.556
522.95	20.531
523.29	20.254
523.64	21.742
523.98	21.537
524.32	20.731
524.66	20.260
525.01	21.035
525.35	20.013
525.69	20.610
526.04	19.805
526.38	21.160
526.72	19.855
527.06	20.890
527.41	20.384
527.75	20.561
528.09	21.035
528.43	20.624
528.78	20.866
529.12	20.116
529.46	20.026
529.80	20.906
530.15	19.949
530.49	20.418
530.83	19.838
531.17	20.205
531.51	19.083
531.86	18.902
532.20	20.124
532.54	19.655
532.88	19.946
533.22	19.731
533.57	19.669
533.91	20.710
534.25	21.615
534.59	19.498
534.93	20.217
535.27	20.318
535.62	19.408
535.96	19.388
536.30	20.146
536.64	19.275
536.98	19.411
537.32	20.142
537.66	20.028
538.01	19.071
538.35	19.337
538.69	18.328
539.03	19.732
539.37	19.517
539.71	19.850
540.05	18.826
540.39	18.789
540.73	18.645
541.07	19.184
541.42	19.192
541.76	19.689
542.10	18.483
542.44	18.365
542.78	19.639
543.12	19.340
543.46	18.314
543.80	18.737
544.14	18.513
544.48	17.518
544.82	18.157
545.16	18.661
545.50	19.716
545.84	18.654
546.18	18.233
546.52	19.195
546.86	18.092
547.20	17.798
547.54	17.655
547.88	18.691
548.22	18.827
548.56	19.546
548.90	18.471
549.24	18.333
549.58	18.292
549.92	18.782
550.26	18.893
550.60	17.868
550.94	17.612
551.28	17.335
551.62	17.970
551.96	18.375
552.30	17.322
552.64	18.785
552.98	18.892
553.32	18.097
553.66	18.855
554.00	17.855
554.34	17.216
554.68	18.195
555.02	17.440
555.36	17.625
555.69	17.990
556.03	17.513
556.37	16.643
556.71	17.099
557.05	18.007
557.39	17.558
557.73	17.700
558.07	16.654
558.41	17.487
558.75	17.090
559.08	17.642
559.42	17.860
559.76	17.966
560.10	16.833
560.44	18.055
560.78	17.626
561.12	18.010
561.45	17.415
561.79	17.813
562.13	17.300
562.47	17.214
562.81	17.244
563.15	17.422
563.48	17.206
563.82	17.373
564.16	17.265
564.50	18.114
564.84	18.108
565.17	17.550
565.51	16.511
565.85	17.122
566.19	17.285
566.52	17.169
566.86	16.308
567.20	17.654
567.54	16.811
567.88	17.021
568.21	17.708
568.55	17.475
568.89	17.248
569.23	17.736
569.56	18.023
569.90	17.791
570.24	16.931
570.57	17.673
570.91	18.309
571.25	17.516
571.59	17.529
571.92	17.512
572.26	18.147
572.60	18.017
572.93	17.151
573.27	17.097
573.61	17.650
573.95	17.901
574.28	17.943
574.62	17.724
574.96	17.963
575.29	17.402
575.63	17.808
575.97	17.826
576.30	17.098
576.64	17.841
576.98	17.760
577.31	17.905
577.65	17.583
577.98	18.084
578.32	17.756
578.66	17.892
578.99	18.099
579.33	17.791
579.67	17.744
580.00	17.540
580.34	17.475
580.67	17.932
581.01	17.514
581.35	17.742
581.68	17.982
582.02	17.874
582.35	18.376
582.69	17.604
583.02	17.401
583.36	17.220
583.70	17.141
584.03	17.525
584.37	17.295
584.70	17.683
585.04	17.829
585.37	17.424
585.71	17.704
586.04	17.594
586.38	16.996
586.72	17.280
587.05	18.020
587.39	17.459
587.72	17.527
588.06	17.319
588.39	17.296
588.73	16.998
589.06	16.715
589.40	16.718
589.73	16.888
590.07	16.806
590.40	17.380
590.73	16.977
591.07	16.883
591.40	16.957
591.74	17.030
592.07	16.979
592.41	16.602
592.74	17.130
593.08	16.308
593.41	17.052
593.75	16.376
594.08	16.822
594.41	17.038
594.75	17.279
595.08	16.654
595.42	16.571
595.75	16.811
596.09	16.821
596.42	16.422
596.75	17.201
597.09	16.697
597.42	17.048
597.75	16.222
598.09	16.940
598.42	17.226
598.76	16.331
599.09	17.087
599.42	16.767
599.76	17.499
600.09	16.867
600.42	16.949
600.76	15.965
601.09	16.874
601.42	16.935
601.76	16.757
602.09	16.092
602.42	16.550
602.76	16.023
603.09	16.509
603.42	16.713
603.76	16.524
604.09	16.166
604.42	16.032
604.76	16.107
605.09	16.357
605.42	16.374
605.75	15.889
606.09	15.977
606.42	16.251
606.75	16.147
607.09	16.312
607.42	16.550
607.75	15.492
608.08	16.727
608.42	15.886
608.75	16.627
609.08	15.973
609.41	16.294
609.75	15.784
610.08	16.223
610.41	17.055
610.74	15.881
611.07	16.082
611.41	16.581
611.74	16.356
612.07	16.050
612.40	15.351
612.73	15.203
613.07	16.242
613.40	15.419
613.73	15.764
614.06	15.478
614.39	15.231
614.72	16.158
615.06	15.833
615.39	15.232
615.72	16.091
616.05	15.822
616.38	16.724
616.71	14.937
617.05	15.111
617.38	15.219
617.71	15.809
618.04	15.600
618.37	15.394
618.70	15.718
619.03	15.120
619.36	15.018
619.69	14.327
620.03	14.912
620.36	15.101
620.69	14.347
621.02	14.385
621.35	15.290
621.68	15.240
622.01	14.968
622.34	14.354
622.67	14.957
623.00	15.502
623.33	15.034
623.66	14.796
623.99	15.754
624.32	14.967
624.65	13.947
624.99	14.842
625.32	15.534
625.65	15.581
625.98	14.376
626.31	15.429
626.64	14.187
626.97	14.792
627.30	15.825
627.63	14.446
627.96	13.247
628.29	16.465
628.62	13.540
628.95	14.830
629.28	13.005
629.61	15.407
629.94	14.410
630.26	14.877
630.59	14.585
630.92	14.056
631.25	13.182
631.58	15.632
631.91	14.210
632.24	12.843
632.57	13.444
