SpectraSuite Data File
++++++++++++++++++++++++++++++++++++
Date: Wed May 13 21:51:56 PDT 2015
User: schluterlab
Dark Spectrum Present: Yes
Reference Spectrum Present: Yes
Number of Sampled Component Spectra: 1
Spectrometers: USB2E3373
Integration Time (usec): 3000 (USB2E3373)
Spectra Averaged: 3 (USB2E3373)
Boxcar Smoothing: 0 (USB2E3373)
Correct for Electrical Dark: No (USB2E3373)
Strobe/Lamp Enabled: No (USB2E3373)
Correct for Detector Non-linearity: No (USB2E3373)
Correct for Stray Light: No (USB2E3373)
Number of Pixels in Processed Spectrum: 2048
>>>>>Begin Processed Spectral Data<<<<<
178.53	0.000
178.91	900.000
179.29	275.000
179.67	-1050.000
180.04	-500.000
180.42	360.000
180.80	1400.000
181.18	383.333
181.56	-500.000
181.94	-175.000
182.31	-63.636
182.69	123.077
183.07	-240.000
183.45	266.667
183.83	188.889
184.20	71.429
184.58	-100.000
184.96	500.000
185.34	185.714
185.72	0.000
186.09	-1100.000
186.47	-200.000
186.85	180.000
187.23	-200.000
187.61	850.000
187.98	2200.000
188.36	-25.000
188.74	0.000
189.12	9.091
189.49	40.000
189.87	166.667
190.25	380.000
190.63	2500.000
191.00	-180.000
191.38	260.000
191.76	250.000
192.14	133.333
192.51	-63.158
192.89	633.333
193.27	425.000
193.65	-440.000
194.02	227.273
194.40	190.000
194.78	-200.000
195.15	280.000
195.53	-200.000
195.91	37.500
196.29	166.667
196.66	0.000
197.04	850.000
197.42	140.000
197.79	-140.000
198.17	-137.500
198.55	33.333
198.92	400.000
199.30	-400.000
199.68	-70.000
200.05	650.000
200.43	400.000
200.81	-1500.000
201.18	-280.000
201.56	-150.000
201.94	625.000
202.31	-17.391
202.69	-200.000
203.07	-400.000
203.44	-240.000
203.82	-200.000
204.19	-80.000
204.57	0.000
204.95	-100.000
205.32	0.000
205.70	-300.000
206.08	-475.000
206.45	-266.667
206.83	275.000
207.20	-300.000
207.58	-180.000
207.96	-2300.000
208.33	-271.429
208.71	-1000.000
209.08	175.000
209.46	625.000
209.84	0.000
210.21	180.000
210.59	2100.000
210.96	260.000
211.34	1500.000
211.71	-450.000
212.09	-116.667
212.46	-150.000
212.84	-66.667
213.22	-250.000
213.59	-1400.000
213.97	-500.000
214.34	-650.000
214.72	-76.923
215.09	300.000
215.47	200.000
215.84	550.000
216.22	-12.500
216.59	-650.000
216.97	500.000
217.34	133.333
217.72	0.000
218.09	200.000
218.47	-500.000
218.84	-228.571
219.22	-187.500
219.59	-400.000
219.97	-400.000
220.34	-112.500
220.72	-240.000
221.09	0.000
221.47	-216.667
221.84	-1100.000
222.22	0.000
222.59	300.000
222.97	-266.667
223.34	-100.000
223.72	-1500.000
224.09	-650.000
224.46	-100.000
224.84	-75.000
225.21	-100.000
225.59	-300.000
225.96	-250.000
226.34	-50.000
226.71	-285.714
227.08	900.000
227.46	-150.000
227.83	-500.000
228.21	-6.250
228.58	-225.000
228.95	-23.529
229.33	0.000
229.70	-25.000
230.08	23.077
230.45	-175.000
230.82	-91.667
231.20	128.571
231.57	-350.000
231.95	1000.000
232.32	83.333
232.69	-11.765
233.07	-1500.000
233.44	-34.783
233.81	-550.000
234.19	12.500
234.56	-60.000
234.93	-20.000
235.31	47.368
235.68	-61.538
236.05	76.923
236.43	38.889
236.80	21.212
237.17	-46.667
237.55	-58.824
237.92	-6.897
238.29	-11.111
238.67	-2.778
239.04	-9.677
239.41	21.277
239.79	27.660
240.16	9.302
240.53	35.714
240.91	19.643
241.28	25.000
241.65	38.710
242.02	14.474
242.40	50.725
242.77	27.536
243.14	41.026
243.51	35.106
243.89	31.731
244.26	44.340
244.63	32.692
245.00	38.542
245.38	37.815
245.75	36.885
246.12	32.331
246.49	28.455
246.87	34.454
247.24	44.595
247.61	37.086
247.98	34.615
248.36	34.320
248.73	42.697
249.10	35.354
249.47	43.011
249.84	42.105
250.22	39.801
250.59	42.056
250.96	38.636
251.33	37.321
251.70	43.515
252.08	37.238
252.45	44.444
252.82	37.643
253.19	40.078
253.56	37.050
253.94	35.231
254.31	41.901
254.68	42.282
255.05	38.944
255.42	40.909
255.79	43.252
256.16	40.063
256.54	44.444
256.91	41.772
257.28	44.025
257.65	41.720
258.02	42.229
258.39	45.322
258.76	42.733
259.14	43.182
259.51	39.607
259.88	42.547
260.25	43.333
260.62	43.258
260.99	41.114
261.36	40.674
261.73	42.716
262.10	40.967
262.47	40.000
262.85	39.801
263.22	43.077
263.59	44.156
263.96	38.200
264.33	40.625
264.70	42.791
265.07	39.815
265.44	42.529
265.81	43.021
266.18	44.191
266.55	41.485
266.92	41.102
267.29	39.712
267.66	40.764
268.03	43.827
268.40	41.102
268.77	39.669
269.14	41.429
269.51	45.791
269.88	38.086
270.25	42.373
270.62	40.369
270.99	40.551
271.36	43.452
271.73	40.161
272.10	43.238
272.47	42.418
272.84	41.535
273.21	42.270
273.58	42.623
273.95	40.189
274.32	42.910
274.69	40.619
275.06	42.933
275.43	42.938
275.80	39.894
276.17	41.989
276.54	40.320
276.91	39.895
277.28	38.989
277.65	42.832
278.02	43.929
278.39	38.899
278.76	42.475
279.13	40.995
279.50	40.000
279.87	39.493
280.23	40.541
280.60	40.311
280.97	39.773
281.34	41.483
281.71	38.862
282.08	41.368
282.45	39.344
282.82	41.374
283.19	40.244
283.56	39.687
283.92	38.685
284.29	39.470
284.66	41.351
285.03	38.925
285.40	34.743
285.77	39.790
286.14	38.754
286.51	41.679
286.87	38.923
287.24	38.348
287.61	39.608
287.98	37.059
288.35	38.152
288.72	37.590
289.08	39.601
289.45	36.711
289.82	39.637
290.19	37.167
290.56	36.080
290.93	36.878
291.29	37.209
291.66	35.109
292.03	35.695
292.40	36.474
292.77	35.877
293.13	37.238
293.50	34.248
293.87	36.400
294.24	34.788
294.60	32.900
294.97	35.053
295.34	33.641
295.71	33.640
296.08	32.199
296.44	32.526
296.81	32.765
297.18	33.750
297.55	32.665
297.91	32.174
298.28	34.383
298.65	32.020
299.02	32.845
299.38	30.798
299.75	31.010
300.12	31.279
300.48	30.058
300.85	32.102
301.22	31.243
301.59	31.338
301.95	31.010
302.32	31.505
302.69	30.169
303.05	29.679
303.42	30.227
303.79	31.125
304.15	31.325
304.52	31.398
304.89	31.340
305.25	30.077
305.62	30.369
305.99	31.338
306.35	31.661
306.72	29.400
307.09	31.178
307.45	32.694
307.82	29.368
308.19	28.109
308.55	29.887
308.92	30.648
309.29	29.730
309.65	30.070
310.02	29.324
310.38	31.199
310.75	29.586
311.12	29.738
311.48	29.278
311.85	30.709
312.22	28.917
312.58	29.372
312.95	29.950
313.31	29.936
313.68	29.962
314.05	30.340
314.41	30.451
314.78	29.981
315.14	29.074
315.51	28.735
315.87	29.935
316.24	28.926
316.61	30.411
316.97	29.722
317.34	29.234
317.70	29.973
318.07	30.435
318.43	29.449
318.80	29.843
319.16	29.001
319.53	29.122
319.89	29.359
320.26	29.760
320.62	30.213
320.99	30.233
321.35	29.186
321.72	29.836
322.08	30.166
322.45	30.250
322.81	30.222
323.18	28.265
323.54	28.610
323.91	31.527
324.27	30.513
324.64	29.617
325.00	30.796
325.37	31.911
325.73	29.798
326.10	30.278
326.46	30.017
326.83	29.288
327.19	30.650
327.56	30.862
327.92	29.525
328.29	31.469
328.65	30.500
329.01	28.408
329.38	31.391
329.74	29.614
330.11	30.117
330.47	29.080
330.84	30.505
331.20	28.779
331.56	29.167
331.93	30.577
332.29	28.584
332.66	28.814
333.02	30.235
333.38	30.000
333.75	30.461
334.11	31.424
334.48	29.643
334.84	29.329
335.20	29.331
335.57	27.589
335.93	28.608
336.29	30.123
336.66	27.949
337.02	27.913
337.38	29.243
337.75	28.338
338.11	28.779
338.47	28.767
338.84	28.694
339.20	29.189
339.56	29.266
339.93	28.090
340.29	28.950
340.65	27.887
341.02	28.203
341.38	28.041
341.74	28.403
342.11	27.002
342.47	28.033
342.83	27.451
343.20	29.865
343.56	29.109
343.92	27.539
344.28	28.490
344.65	27.592
345.01	28.087
345.37	28.618
345.73	29.167
346.10	28.411
346.46	26.748
346.82	27.849
347.19	26.820
347.55	28.998
347.91	26.345
348.27	27.524
348.63	26.683
349.00	27.201
349.36	28.336
349.72	27.610
350.08	27.613
350.45	27.095
350.81	26.995
351.17	28.176
351.53	27.730
351.89	26.291
352.26	26.100
352.62	27.674
352.98	25.719
353.34	26.087
353.70	26.324
354.07	27.608
354.43	26.516
354.79	27.003
355.15	25.776
355.51	26.576
355.87	26.505
356.24	26.164
356.60	26.583
356.96	27.782
357.32	27.632
357.68	27.273
358.04	27.851
358.40	26.589
358.77	26.223
359.13	26.226
359.49	25.587
359.85	26.308
360.21	27.217
360.57	26.312
360.93	26.859
361.29	27.165
361.66	26.500
362.02	26.612
362.38	26.736
362.74	26.178
363.10	27.693
363.46	25.793
363.82	26.164
364.18	26.251
364.54	26.550
364.90	25.854
365.26	24.982
365.62	25.994
365.98	26.619
366.35	26.099
366.71	25.107
367.07	26.435
367.43	26.202
367.79	27.589
368.15	26.020
368.51	25.738
368.87	27.006
369.23	26.477
369.59	25.793
369.95	25.689
370.31	25.593
370.67	25.778
371.03	26.875
371.39	25.976
371.75	25.786
372.11	24.786
372.47	26.027
372.83	25.381
373.19	25.827
373.55	25.072
373.91	25.318
374.27	25.311
374.63	25.605
374.99	26.184
375.35	25.479
375.71	25.340
376.07	25.703
376.42	25.134
376.78	25.892
377.14	25.559
377.50	25.359
377.86	26.029
378.22	24.526
378.58	24.779
378.94	26.188
379.30	25.796
379.66	25.339
380.02	25.490
380.38	24.699
380.74	26.539
381.09	25.935
381.45	25.574
381.81	25.385
382.17	25.457
382.53	25.600
382.89	24.487
383.25	25.802
383.61	25.605
383.97	25.562
384.32	24.827
384.68	25.170
385.04	24.068
385.40	25.841
385.76	25.547
386.12	25.048
386.48	24.953
386.83	25.657
387.19	25.416
387.55	25.383
387.91	24.969
388.27	25.092
388.62	24.657
388.98	25.657
389.34	24.937
389.70	24.725
390.06	24.750
390.42	24.678
390.77	25.561
391.13	25.442
391.49	25.870
391.85	24.665
392.20	24.561
392.56	25.016
392.92	24.868
393.28	24.637
393.64	24.954
393.99	23.990
394.35	23.765
394.71	25.385
395.07	23.459
395.42	24.863
395.78	24.389
396.14	25.618
396.50	24.667
396.85	24.410
397.21	23.783
397.57	23.416
397.92	24.311
398.28	24.647
398.64	24.226
399.00	24.609
399.35	24.007
399.71	25.218
400.07	24.036
400.42	23.950
400.78	23.807
401.14	23.666
401.49	24.925
401.85	24.263
402.21	24.644
402.57	24.954
402.92	24.906
403.28	24.265
403.63	24.489
403.99	24.568
404.35	24.127
404.70	23.927
405.06	24.897
405.42	24.183
405.77	24.021
406.13	24.000
406.49	24.206
406.84	24.359
407.20	24.689
407.55	24.156
407.91	23.362
408.27	23.144
408.62	24.555
408.98	23.921
409.34	24.257
409.69	24.561
410.05	24.129
410.40	23.615
410.76	24.308
411.11	23.445
411.47	23.756
411.83	22.895
412.18	23.929
412.54	22.870
412.89	23.197
413.25	22.950
413.60	23.699
413.96	22.784
414.31	23.674
414.67	24.063
415.03	23.816
415.38	22.721
415.74	22.742
416.09	23.397
416.45	23.855
416.80	23.221
417.16	24.561
417.51	23.510
417.87	23.479
418.22	23.465
418.58	23.390
418.93	23.415
419.29	24.092
419.64	22.646
420.00	24.127
420.35	24.088
420.71	23.400
421.06	23.678
421.42	24.209
421.77	23.873
422.12	23.725
422.48	23.446
422.83	23.568
423.19	23.922
423.54	23.616
423.90	23.575
424.25	23.281
424.61	23.352
424.96	23.241
425.31	22.939
425.67	23.986
426.02	23.793
426.38	24.129
426.73	22.969
427.09	23.265
427.44	23.899
427.79	23.337
428.15	23.119
428.50	22.175
428.85	23.555
429.21	22.904
429.56	24.070
429.92	23.686
430.27	24.080
430.62	23.505
430.98	23.533
431.33	23.428
431.68	23.376
432.04	23.099
432.39	23.037
432.74	22.685
433.10	23.359
433.45	23.314
433.80	23.448
434.16	23.539
434.51	22.989
434.86	23.498
435.22	23.316
435.57	22.482
435.92	22.738
436.28	23.063
436.63	23.152
436.98	23.325
437.34	23.321
437.69	22.609
438.04	22.298
438.39	23.350
438.75	21.990
439.10	22.961
439.45	23.487
439.81	24.261
440.16	23.536
440.51	22.533
440.86	23.237
441.22	23.064
441.57	23.048
441.92	22.758
442.27	23.268
442.63	23.036
442.98	22.685
443.33	23.138
443.68	23.405
444.03	23.398
444.39	22.905
444.74	23.192
445.09	23.238
445.44	23.155
445.79	23.129
446.15	23.461
446.50	23.238
446.85	23.036
447.20	23.262
447.55	22.440
447.91	22.697
448.26	22.584
448.61	23.015
448.96	22.437
449.31	22.730
449.66	23.193
450.02	22.342
450.37	22.855
450.72	22.790
451.07	23.135
451.42	21.335
451.77	22.520
452.12	22.757
452.47	22.983
452.83	22.465
453.18	23.425
453.53	22.005
453.88	22.470
454.23	23.177
454.58	22.733
454.93	22.643
455.28	21.965
455.63	22.583
455.98	21.242
456.34	21.996
456.69	21.278
457.04	22.539
457.39	21.828
457.74	21.903
458.09	22.690
458.44	22.327
458.79	23.284
459.14	21.854
459.49	21.951
459.84	21.251
460.19	22.029
460.54	23.175
460.89	21.959
461.24	22.750
461.59	22.766
461.94	22.756
462.29	22.426
462.64	21.834
462.99	22.066
463.34	21.616
463.69	21.907
464.04	21.128
464.39	21.660
464.74	21.683
465.09	22.691
465.44	23.064
465.79	23.404
466.14	22.349
466.49	21.935
466.84	21.339
467.19	21.338
467.54	22.165
467.89	22.439
468.24	21.573
468.59	22.435
468.94	21.009
469.29	21.877
469.64	22.455
469.99	22.138
470.34	22.117
470.68	21.041
471.03	21.862
471.38	20.862
471.73	21.742
472.08	21.718
472.43	21.042
472.78	21.839
473.13	20.778
473.48	21.265
473.83	22.097
474.17	21.094
474.52	21.553
474.87	20.808
475.22	21.498
475.57	21.695
475.92	21.592
476.27	22.086
476.61	21.291
476.96	21.416
477.31	21.197
477.66	22.373
478.01	20.989
478.36	20.763
478.70	21.751
479.05	22.031
479.40	21.217
479.75	21.520
480.10	21.112
480.45	20.696
480.79	22.250
481.14	21.530
481.49	22.595
481.84	21.065
482.19	21.399
482.53	21.952
482.88	21.429
483.23	20.741
483.58	21.786
483.92	21.644
484.27	20.952
484.62	20.595
484.97	22.148
485.31	22.083
485.66	22.644
486.01	23.947
486.36	24.054
486.70	24.055
487.05	23.978
487.40	22.832
487.75	22.653
488.09	22.459
488.44	21.661
488.79	22.142
489.13	21.034
489.48	20.949
489.83	20.947
490.17	20.744
490.52	21.131
490.87	20.352
491.22	21.196
491.56	21.466
491.91	20.595
492.26	20.793
492.60	20.298
492.95	20.943
493.30	20.107
493.64	20.432
493.99	20.435
494.34	20.376
494.68	21.337
495.03	19.960
495.37	21.265
495.72	21.003
496.07	20.507
496.41	20.870
496.76	20.750
497.11	21.033
497.45	20.720
497.80	21.201
498.14	21.209
498.49	19.970
498.84	20.243
499.18	20.259
499.53	20.384
499.87	20.087
500.22	21.005
500.56	20.461
500.91	20.624
501.26	21.478
501.60	20.196
501.95	20.556
502.29	20.534
502.64	20.781
502.98	20.472
503.33	20.730
503.67	20.399
504.02	19.853
504.36	20.158
504.71	20.783
505.06	20.479
505.40	20.361
505.75	20.346
506.09	20.439
506.44	20.212
506.78	20.112
507.13	19.751
507.47	20.042
507.82	19.990
508.16	20.475
508.51	19.421
508.85	19.285
509.19	19.418
509.54	19.357
509.88	19.301
510.23	19.526
510.57	20.922
510.92	20.744
511.26	20.077
511.61	19.429
511.95	19.129
512.30	20.655
512.64	20.091
512.98	19.335
513.33	19.887
513.67	19.421
514.02	19.099
514.36	19.888
514.70	18.938
515.05	19.661
515.39	19.281
515.74	19.124
516.08	19.233
516.42	19.816
516.77	18.864
517.11	19.165
517.46	19.868
517.80	20.097
518.14	18.861
518.49	18.746
518.83	19.212
519.17	19.337
519.52	18.335
519.86	19.672
520.20	19.224
520.55	18.284
520.89	18.406
521.23	18.590
521.58	17.952
521.92	18.228
522.26	18.543
522.61	19.457
522.95	19.560
523.29	18.984
523.64	18.563
523.98	18.361
524.32	18.399
524.66	17.597
525.01	18.873
525.35	19.552
525.69	18.091
526.04	18.306
526.38	19.758
526.72	19.198
527.06	17.602
527.41	19.060
527.75	18.692
528.09	19.061
528.43	19.878
528.78	18.282
529.12	19.664
529.46	18.426
529.80	19.547
530.15	18.468
530.49	19.340
530.83	19.634
531.17	18.836
531.51	18.274
531.86	18.360
532.20	17.574
532.54	18.276
532.88	18.448
533.22	19.125
533.57	19.139
533.91	20.129
534.25	18.880
534.59	18.468
534.93	19.707
535.27	18.662
535.62	18.684
535.96	20.039
536.30	19.282
536.64	18.387
536.98	18.711
537.32	18.007
537.66	17.913
538.01	19.209
538.35	17.956
538.69	18.662
539.03	19.463
539.37	18.444
539.71	18.895
540.05	19.231
540.39	18.858
540.73	18.575
541.07	18.980
541.42	19.731
541.76	19.215
542.10	18.687
542.44	18.850
542.78	19.431
543.12	17.925
543.46	18.728
543.80	18.805
544.14	19.133
544.48	19.111
544.82	19.032
545.16	19.202
545.50	19.311
545.84	19.495
546.18	18.093
546.52	18.419
546.86	18.304
547.20	17.941
547.54	18.442
547.88	20.985
548.22	18.697
548.56	18.679
548.90	18.268
549.24	18.958
549.58	17.794
549.92	19.369
550.26	20.000
550.60	18.093
550.94	18.507
551.28	18.395
551.62	18.045
551.96	19.400
552.30	18.122
552.64	18.997
552.98	20.099
553.32	19.394
553.66	19.222
554.00	20.014
554.34	17.949
554.68	19.389
555.02	18.263
555.36	18.986
555.69	17.771
556.03	18.227
556.37	18.990
556.71	17.519
557.05	18.450
557.39	17.634
557.73	18.533
558.07	18.463
558.41	17.941
558.75	18.322
559.08	16.038
559.42	18.411
559.76	18.272
560.10	18.294
560.44	18.865
560.78	17.986
561.12	19.481
561.45	18.571
561.79	19.464
562.13	19.058
562.47	19.429
562.81	18.326
563.15	18.768
563.48	19.064
563.82	18.605
564.16	19.228
564.50	19.267
564.84	19.189
565.17	20.000
565.51	18.650
565.85	18.787
566.19	18.675
566.52	18.938
566.86	19.406
567.20	20.586
567.54	18.595
567.88	19.989
568.21	19.663
568.55	20.136
568.89	20.688
569.23	20.898
569.56	21.235
569.90	21.856
570.24	21.625
570.57	22.108
570.91	21.971
571.25	21.083
571.59	22.189
571.92	22.734
572.26	22.245
572.60	22.174
572.93	22.462
573.27	21.804
573.61	23.035
573.95	22.739
574.28	22.841
574.62	22.291
574.96	23.179
575.29	22.192
575.63	22.734
575.97	23.098
576.30	22.026
576.64	22.898
576.98	22.603
577.31	22.812
577.65	23.040
577.98	23.071
578.32	23.089
578.66	22.720
578.99	23.122
579.33	22.739
579.67	22.429
580.00	22.186
580.34	22.201
580.67	22.832
581.01	22.761
581.35	23.669
581.68	23.718
582.02	23.063
582.35	23.484
582.69	23.768
583.02	23.012
583.36	22.662
583.70	22.633
584.03	21.920
584.37	21.995
584.70	22.823
585.04	23.077
585.37	22.746
585.71	23.107
586.04	23.083
586.38	22.363
586.72	22.478
587.05	22.758
587.39	22.943
587.72	22.606
588.06	22.271
588.39	23.034
588.73	21.631
589.06	21.823
589.40	21.706
589.73	21.128
590.07	21.400
590.40	21.583
590.73	20.908
591.07	21.730
591.40	21.130
591.74	21.699
592.07	21.360
592.41	22.222
592.74	21.759
593.08	21.915
593.41	22.961
593.75	22.061
594.08	22.556
594.41	21.426
594.75	21.702
595.08	22.255
595.42	21.940
595.75	21.403
596.09	22.017
596.42	21.242
596.75	21.281
597.09	21.975
597.42	21.624
597.75	21.822
598.09	21.539
598.42	21.477
598.76	21.159
599.09	22.689
599.42	22.168
599.76	22.418
600.09	21.800
600.42	21.996
600.76	21.914
601.09	22.034
601.42	21.717
601.76	21.583
602.09	22.092
602.42	21.667
602.76	21.309
603.09	21.930
603.42	22.271
603.76	21.239
604.09	22.332
604.42	21.515
604.76	21.388
605.09	21.658
605.42	22.087
605.75	21.585
606.09	21.109
606.42	20.989
606.75	20.996
607.09	21.676
607.42	21.235
607.75	20.875
608.08	21.821
608.42	21.556
608.75	21.452
609.08	20.725
609.41	20.318
609.75	20.071
610.08	20.759
610.41	21.429
610.74	20.885
611.07	20.591
611.41	21.597
611.74	20.911
612.07	19.750
612.40	20.757
612.73	20.417
613.07	20.344
613.40	21.421
613.73	20.477
614.06	20.840
614.39	19.733
614.72	20.933
615.06	20.833
615.39	20.364
615.72	20.788
616.05	19.876
616.38	20.103
616.71	19.496
617.05	19.226
617.38	20.579
617.71	19.608
618.04	19.683
618.37	20.442
618.70	19.470
619.03	19.313
619.36	19.858
619.69	19.225
620.03	18.799
620.36	19.903
620.69	18.558
621.02	18.538
621.35	17.171
621.68	18.256
622.01	17.961
622.34	18.002
622.67	17.776
623.00	20.289
623.33	18.848
623.66	17.918
623.99	18.680
624.32	19.516
624.65	18.249
624.99	19.471
625.32	18.671
625.65	19.380
625.98	18.720
626.31	18.122
626.64	18.917
626.97	17.907
627.30	18.905
627.63	18.512
627.96	16.450
628.29	17.674
628.62	17.215
628.95	16.733
629.28	16.059
629.61	19.426
629.94	18.182
630.26	18.719
630.59	16.384
630.92	16.566
631.25	15.448
631.58	19.486
631.91	17.179
