SpectraSuite Data File
++++++++++++++++++++++++++++++++++++
Date: Wed May 13 21:45:58 PDT 2015
User: schluterlab
Dark Spectrum Present: Yes
Reference Spectrum Present: Yes
Number of Sampled Component Spectra: 1
Spectrometers: USB2E3373
Integration Time (usec): 3000 (USB2E3373)
Spectra Averaged: 3 (USB2E3373)
Boxcar Smoothing: 0 (USB2E3373)
Correct for Electrical Dark: No (USB2E3373)
Strobe/Lamp Enabled: No (USB2E3373)
Correct for Detector Non-linearity: No (USB2E3373)
Correct for Stray Light: No (USB2E3373)
Number of Pixels in Processed Spectrum: 2048
>>>>>Begin Processed Spectral Data<<<<<
178.53	0.000
178.91	350.000
179.29	141.667
179.67	-850.000
180.04	-300.000
180.42	60.000
180.80	1900.000
181.18	250.000
181.56	-150.000
181.94	75.000
182.31	18.182
182.69	92.308
183.07	-340.000
183.45	266.667
183.83	222.222
184.20	-28.571
184.58	100.000
184.96	200.000
185.34	342.857
185.72	0.000
186.09	-500.000
186.47	-200.000
186.85	60.000
187.23	150.000
187.61	-50.000
187.98	-0.000
188.36	-100.000
188.74	0.000
189.12	0.000
189.49	60.000
189.87	83.333
190.25	320.000
190.63	-400.000
191.00	60.000
191.38	160.000
191.76	250.000
192.14	91.667
192.51	-10.526
192.89	600.000
193.27	350.000
193.65	-160.000
194.02	245.455
194.40	200.000
194.78	-200.000
195.15	180.000
195.53	-260.000
195.91	-25.000
196.29	-466.667
196.66	0.000
197.04	400.000
197.42	-100.000
197.79	0.000
198.17	-112.500
198.55	-100.000
198.92	275.000
199.30	-466.667
199.68	10.000
200.05	550.000
200.43	333.333
200.81	-1900.000
201.18	-220.000
201.56	-183.333
201.94	525.000
202.31	21.739
202.69	85.714
203.07	-366.667
203.44	-120.000
203.82	-400.000
204.19	-50.000
204.57	0.000
204.95	-66.667
205.32	0.000
205.70	-500.000
206.08	-300.000
206.45	-116.667
206.83	200.000
207.20	-166.667
207.58	-100.000
207.96	-1100.000
208.33	-114.286
208.71	-1300.000
209.08	275.000
209.46	150.000
209.84	0.000
210.21	150.000
210.59	2100.000
210.96	280.000
211.34	600.000
211.71	-500.000
212.09	-100.000
212.46	-130.000
212.84	100.000
213.22	-50.000
213.59	200.000
213.97	-200.000
214.34	-450.000
214.72	-23.077
215.09	100.000
215.47	144.444
215.84	600.000
216.22	-125.000
216.59	-550.000
216.97	566.667
217.34	100.000
217.72	0.000
218.09	33.333
218.47	-300.000
218.84	-200.000
219.22	-137.500
219.59	-133.333
219.97	-100.000
220.34	-125.000
220.72	20.000
221.09	0.000
221.47	-100.000
221.84	-600.000
222.22	0.000
222.59	100.000
222.97	-133.333
223.34	-16.667
223.72	-400.000
224.09	-550.000
224.46	-36.364
224.84	-62.500
225.21	-85.714
225.59	-75.000
225.96	-133.333
226.34	90.000
226.71	-42.857
227.08	250.000
227.46	-100.000
227.83	-400.000
228.21	-68.750
228.58	-325.000
228.95	-41.176
229.33	-37.500
229.70	-125.000
230.08	-23.077
230.45	-212.500
230.82	-41.667
231.20	114.286
231.57	200.000
231.95	100.000
232.32	66.667
232.69	23.529
233.07	-1600.000
233.44	-4.348
233.81	-300.000
234.19	8.333
234.56	0.000
234.93	-66.667
235.31	-21.053
235.68	-69.231
236.05	-84.615
236.43	-11.111
236.80	-12.121
237.17	-40.000
237.55	-88.235
237.92	-44.828
238.29	-25.926
238.67	-16.667
239.04	-35.484
239.41	-17.021
239.79	12.766
240.16	-27.907
240.53	5.357
240.91	1.786
241.28	1.786
241.65	-6.452
242.02	-3.947
242.40	-2.899
242.77	-2.899
243.14	2.564
243.51	8.511
243.89	-2.885
244.26	6.604
244.63	-5.769
245.00	1.042
245.38	-0.840
245.75	-0.820
246.12	1.504
246.49	-3.252
246.87	-5.042
247.24	10.811
247.61	4.636
247.98	1.923
248.36	2.959
248.73	2.809
249.10	4.040
249.47	0.000
249.84	2.632
250.22	2.985
250.59	3.271
250.96	3.636
251.33	-4.306
251.70	10.042
252.08	2.929
252.45	3.704
252.82	2.662
253.19	5.447
253.56	2.518
253.94	8.897
254.31	5.282
254.68	6.376
255.05	5.611
255.42	-1.399
255.79	6.748
256.16	10.095
256.54	3.175
256.91	3.797
257.28	5.660
257.65	2.866
258.02	6.745
258.39	8.480
258.76	1.744
259.14	3.409
259.51	3.371
259.88	5.149
260.25	3.889
260.62	4.494
260.99	5.570
261.36	5.959
261.73	4.938
262.10	4.326
262.47	3.704
262.85	4.975
263.22	4.872
263.59	3.896
263.96	5.353
264.33	6.010
264.70	6.512
265.07	7.407
265.44	6.437
265.81	1.831
266.18	4.328
266.55	5.240
266.92	6.144
267.29	5.967
267.66	5.096
268.03	7.819
268.40	2.966
268.77	6.405
269.14	5.714
269.51	8.624
269.88	4.684
270.25	6.780
270.62	4.098
270.99	5.315
271.36	7.937
271.73	6.827
272.10	7.048
272.47	6.334
272.84	7.480
273.21	6.849
273.58	5.943
273.95	6.792
274.32	5.784
274.69	4.554
275.06	7.244
275.43	5.461
275.80	6.915
276.17	5.709
276.54	5.861
276.91	5.749
277.28	4.874
277.65	6.643
278.02	5.536
278.39	4.973
278.76	7.525
279.13	5.660
279.50	7.931
279.87	5.072
280.23	5.045
280.60	5.709
280.97	5.032
281.34	6.782
281.71	6.829
282.08	4.957
282.45	5.902
282.82	6.550
283.19	6.707
283.56	5.938
283.92	6.881
284.29	4.992
284.66	4.613
285.03	5.863
285.40	7.855
285.77	6.907
286.14	6.991
286.51	8.096
286.87	7.231
287.24	6.195
287.61	6.627
287.98	6.765
288.35	4.024
288.72	6.456
289.08	7.407
289.45	5.580
289.82	6.505
290.19	6.311
290.56	6.392
290.93	6.768
291.29	7.250
291.66	5.874
292.03	6.540
292.40	8.614
292.77	9.371
293.13	7.531
293.50	7.712
293.87	7.067
294.24	8.466
294.60	8.322
294.97	7.540
295.34	5.937
295.71	6.570
296.08	6.806
296.44	7.143
296.81	7.308
297.18	8.125
297.55	9.552
297.91	8.820
298.28	8.232
298.65	9.483
299.02	10.256
299.38	8.589
299.75	8.654
300.12	8.140
300.48	8.421
300.85	9.238
301.22	9.292
301.59	10.329
301.95	8.246
302.32	9.335
302.69	8.588
303.05	10.188
303.42	9.659
303.79	10.515
304.15	10.186
304.52	10.968
304.89	10.742
305.25	10.209
305.62	11.388
305.99	12.622
306.35	12.121
306.72	10.987
307.09	12.200
307.45	11.715
307.82	11.474
308.19	11.076
308.55	12.282
308.92	14.047
309.29	12.012
309.65	13.087
310.02	14.314
310.38	14.024
310.75	12.722
311.12	14.966
311.48	14.540
311.85	15.354
312.22	15.571
312.58	14.203
312.95	16.020
313.31	16.529
313.68	16.126
314.05	15.690
314.41	16.811
314.78	17.742
315.14	17.500
315.51	18.173
315.87	19.926
316.24	18.090
316.61	18.721
316.97	18.889
317.34	19.251
317.70	19.179
318.07	19.965
318.43	21.229
318.80	20.157
319.16	20.955
319.53	20.968
319.89	22.493
320.26	21.349
320.62	22.335
320.99	22.093
321.35	23.480
321.72	23.292
322.08	24.077
322.45	25.347
322.81	26.248
323.18	25.581
323.54	26.805
323.91	26.558
324.27	25.833
324.64	27.003
325.00	27.297
325.37	29.266
325.73	28.788
326.10	28.932
326.46	29.599
326.83	29.854
327.19	29.431
327.56	31.668
327.92	30.330
328.29	32.220
328.65	32.954
329.01	30.343
329.38	33.391
329.74	32.961
330.11	32.642
330.47	33.160
330.84	33.303
331.20	32.878
331.56	34.511
331.93	33.333
332.29	34.666
332.66	33.220
333.02	33.189
333.38	34.737
333.75	33.447
334.11	34.201
334.48	33.915
334.84	33.216
335.20	33.962
335.57	33.943
335.93	33.935
336.29	33.538
336.66	33.248
337.02	34.609
337.38	33.681
337.75	34.022
338.11	34.927
338.47	34.161
338.84	34.536
339.20	34.921
339.56	34.898
339.93	35.523
340.29	35.269
340.65	35.843
341.02	35.691
341.38	34.797
341.74	33.950
342.11	35.425
342.47	36.318
342.83	35.866
343.20	36.717
343.56	36.222
343.92	34.281
344.28	36.607
344.65	35.755
345.01	35.028
345.37	37.336
345.73	36.846
346.10	35.474
346.46	35.366
346.82	35.474
347.19	35.997
347.55	36.914
347.91	35.464
348.27	36.356
348.63	36.298
349.00	35.928
349.36	35.950
349.72	37.664
350.08	36.973
350.45	37.197
350.81	37.715
351.17	35.643
351.53	38.099
351.89	35.028
352.26	34.826
352.62	36.744
352.98	36.022
353.34	36.957
353.70	36.215
354.07	36.706
354.43	36.703
354.79	37.580
355.15	37.655
355.51	37.585
355.87	37.529
356.24	38.283
356.60	37.060
356.96	37.452
357.32	38.700
357.68	37.815
358.04	37.936
358.40	39.147
358.77	37.997
359.13	39.222
359.49	38.607
359.85	39.348
360.21	38.936
360.57	39.468
360.93	39.757
361.29	38.860
361.66	38.952
362.02	38.844
362.38	38.626
362.74	40.319
363.10	39.696
363.46	39.193
363.82	40.650
364.18	39.376
364.54	40.190
364.90	38.746
365.26	39.207
365.62	39.986
365.98	40.427
366.35	39.220
366.71	39.729
367.07	40.539
367.43	39.721
367.79	40.445
368.15	39.733
368.51	40.436
368.87	40.544
369.23	40.498
369.59	40.662
369.95	40.784
370.31	40.795
370.67	40.695
371.03	41.277
371.39	39.603
371.75	40.214
372.11	41.311
372.47	40.663
372.83	41.678
373.19	42.230
373.55	41.185
373.91	40.594
374.27	39.765
374.63	42.674
374.99	40.181
375.35	42.671
375.71	41.168
376.07	42.358
376.42	41.845
376.78	41.347
377.14	42.102
377.50	41.786
377.86	42.032
378.22	42.288
378.58	43.127
378.94	41.938
379.30	42.036
379.66	42.170
380.02	42.402
380.38	41.506
380.74	42.259
381.09	41.737
381.45	41.657
381.81	41.282
382.17	41.273
382.53	41.231
382.89	42.039
383.25	41.914
383.61	42.252
383.97	41.875
384.32	41.273
384.68	41.826
385.04	41.662
385.40	42.528
385.76	41.058
386.12	43.577
386.48	41.881
386.83	42.741
387.19	42.320
387.55	41.937
387.91	42.558
388.27	41.924
388.62	42.572
388.98	42.804
389.34	42.544
389.70	41.026
390.06	42.250
390.42	42.397
390.77	41.256
391.13	42.235
391.49	41.240
391.85	41.597
392.20	42.293
392.56	42.095
392.92	42.539
393.28	42.243
393.64	42.875
393.99	40.330
394.35	42.531
394.71	41.987
395.07	39.560
395.42	40.829
395.78	40.476
396.14	41.027
396.50	39.442
396.85	41.364
397.21	40.886
397.57	41.429
397.92	40.060
398.28	41.342
398.64	41.348
399.00	40.402
399.35	41.203
399.71	40.827
400.07	40.602
400.42	40.815
400.78	40.060
401.14	40.527
401.49	40.324
401.85	41.339
402.21	40.557
402.57	39.608
402.92	40.613
403.28	39.212
403.63	39.120
403.99	39.219
404.35	39.651
404.70	39.456
405.06	39.930
405.42	39.824
405.77	39.977
406.13	38.857
406.49	39.844
406.84	39.805
407.20	38.721
407.55	39.481
407.91	38.915
408.27	37.555
408.62	38.183
408.98	37.608
409.34	37.995
409.69	39.766
410.05	37.624
410.40	37.797
410.76	37.485
411.11	37.624
411.47	39.681
411.83	39.052
412.18	37.846
412.54	37.155
412.89	37.304
413.25	37.050
413.60	37.304
413.96	36.954
414.31	36.806
414.67	37.016
415.03	37.686
415.38	37.450
415.74	36.842
416.09	37.872
416.45	38.004
416.80	36.779
417.16	38.057
417.51	36.906
417.87	36.905
418.22	37.750
418.58	36.334
418.93	36.598
419.29	37.954
419.64	36.514
420.00	37.079
420.35	36.521
420.71	36.929
421.06	36.962
421.42	37.409
421.77	37.514
422.12	37.994
422.48	37.077
422.83	37.803
423.19	36.630
423.54	36.396
423.90	35.748
424.25	36.915
424.61	36.106
424.96	37.788
425.31	35.446
425.67	35.802
426.02	36.278
426.38	35.759
426.73	35.797
427.09	35.835
427.44	36.700
427.79	34.917
428.15	35.596
428.50	35.770
428.85	36.470
429.21	36.072
429.56	36.769
429.92	35.919
430.27	35.685
430.62	36.097
430.98	36.171
431.33	35.948
431.68	35.729
432.04	36.732
432.39	35.277
432.74	35.193
433.10	36.897
433.45	35.917
433.80	35.345
434.16	35.664
434.51	36.196
434.86	36.337
435.22	35.823
435.57	35.258
435.92	35.283
436.28	34.655
436.63	36.085
436.98	35.135
437.34	36.203
437.69	35.478
438.04	34.409
438.39	36.364
438.75	35.042
439.10	36.322
439.45	36.320
439.81	35.776
440.16	36.058
440.51	35.672
440.86	35.151
441.22	36.259
441.57	35.466
441.92	35.044
442.27	35.768
442.63	35.145
442.98	35.185
443.33	35.722
443.68	36.057
444.03	35.569
444.39	37.382
444.74	35.726
445.09	34.912
445.44	36.563
445.79	35.829
446.15	36.106
446.50	36.068
446.85	35.756
447.20	36.487
447.55	36.430
447.91	35.000
448.26	35.792
448.61	36.076
448.96	35.649
449.31	35.408
449.66	35.512
450.02	34.679
450.37	36.016
450.72	35.132
451.07	36.050
451.42	34.311
451.77	36.093
452.12	34.165
452.47	36.281
452.83	34.316
453.18	35.964
453.53	36.948
453.88	36.145
454.23	35.105
454.58	35.355
454.93	35.985
455.28	34.811
455.63	33.687
455.98	34.936
456.34	32.804
456.69	35.847
457.04	34.056
457.39	35.719
457.74	34.411
458.09	34.419
458.44	35.429
458.79	34.377
459.14	33.708
459.49	34.390
459.84	34.780
460.19	33.974
460.54	34.428
460.89	34.403
461.24	33.231
461.59	34.722
461.94	34.071
462.29	33.701
462.64	33.707
462.99	33.266
463.34	35.290
463.69	34.149
464.04	33.313
464.39	34.167
464.74	33.907
465.09	32.920
465.44	33.502
465.79	35.365
466.14	33.865
466.49	34.721
466.84	33.891
467.19	33.312
467.54	34.932
467.89	33.061
468.24	32.883
468.59	32.951
468.94	34.036
469.29	33.047
469.64	33.403
469.99	33.931
470.34	33.513
470.68	32.416
471.03	32.722
471.38	32.337
471.73	33.471
472.08	33.265
472.43	33.509
472.78	32.725
473.13	31.464
473.48	33.333
473.83	32.643
474.17	32.878
474.52	32.621
474.87	32.750
475.22	32.911
475.57	33.129
475.92	32.606
476.27	31.876
476.61	33.069
476.96	33.352
477.31	32.740
477.66	32.655
478.01	32.143
478.36	32.480
478.70	32.546
479.05	32.741
479.40	31.617
479.75	32.200
480.10	31.464
480.45	31.878
480.79	33.250
481.14	32.320
481.49	31.179
481.84	31.338
482.19	31.589
482.53	32.429
482.88	31.352
483.23	31.424
483.58	31.711
483.92	31.955
484.27	31.519
484.62	30.360
484.97	31.024
485.31	31.716
485.66	31.465
486.01	32.387
486.36	31.310
486.70	32.042
487.05	31.902
487.40	31.923
487.75	31.639
488.09	30.873
488.44	30.880
488.79	31.226
489.13	30.696
489.48	30.740
489.83	30.773
490.17	30.731
490.52	31.089
490.87	30.320
491.22	30.711
491.56	30.810
491.91	30.053
492.26	30.029
492.60	29.293
492.95	30.952
493.30	30.378
493.64	29.736
493.99	30.628
494.34	29.624
494.68	30.358
495.03	29.743
495.37	29.781
495.72	30.576
496.07	30.979
496.41	30.323
496.76	30.484
497.11	30.188
497.45	30.156
497.80	30.490
498.14	30.227
498.49	29.148
498.84	29.150
499.18	29.318
499.53	29.591
499.87	29.112
500.22	29.915
500.56	30.542
500.91	29.678
501.26	29.458
501.60	29.314
501.95	29.899
502.29	29.078
502.64	30.135
502.98	28.998
503.33	29.197
503.67	29.455
504.02	29.216
504.36	28.826
504.71	28.862
505.06	29.699
505.40	29.433
505.75	29.095
506.09	29.484
506.44	28.679
506.78	28.593
507.13	29.730
507.47	29.268
507.82	29.356
508.16	29.499
508.51	28.719
508.85	28.771
509.19	29.153
509.54	29.491
509.88	28.710
510.23	28.000
510.57	28.972
510.92	29.256
511.26	28.658
511.61	29.089
511.95	28.611
512.30	27.929
512.64	29.512
512.98	28.476
513.33	28.507
513.67	28.563
514.02	28.677
514.36	28.427
514.70	28.233
515.05	28.321
515.39	28.302
515.74	28.182
516.08	27.906
516.42	27.995
516.77	28.822
517.11	27.984
517.46	28.571
517.80	29.600
518.14	27.985
518.49	27.607
518.83	26.969
519.17	28.012
519.52	28.528
519.86	28.476
520.20	27.532
520.55	27.488
520.89	27.894
521.23	28.269
521.58	28.445
521.92	28.096
522.26	27.521
522.61	27.925
522.95	27.979
523.29	26.984
523.64	27.654
523.98	28.653
524.32	27.473
524.66	28.247
525.01	28.113
525.35	27.518
525.69	27.899
526.04	27.166
526.38	27.597
526.72	27.811
527.06	26.564
527.41	27.267
527.75	26.769
528.09	27.842
528.43	28.426
528.78	27.519
529.12	27.684
529.46	27.575
529.80	27.379
530.15	26.319
530.49	27.224
530.83	27.217
531.17	26.986
531.51	24.815
531.86	25.881
532.20	27.567
532.54	26.069
532.88	27.706
533.22	27.071
533.57	26.093
533.91	27.548
534.25	26.823
534.59	26.834
534.93	27.423
535.27	26.178
535.62	26.974
535.96	27.326
536.30	27.194
536.64	25.701
536.98	26.279
537.32	25.552
537.66	27.010
538.01	25.798
538.35	26.934
538.69	26.087
539.03	25.503
539.37	25.755
539.71	26.671
540.05	24.831
540.39	25.671
540.73	25.628
541.07	27.143
541.42	26.734
541.76	26.116
542.10	24.577
542.44	25.087
542.78	25.399
543.12	26.685
543.46	25.639
543.80	26.069
544.14	26.015
544.48	24.552
544.82	25.488
545.16	25.423
545.50	24.848
545.84	25.806
546.18	25.035
546.52	25.335
546.86	25.018
547.20	25.804
547.54	24.160
547.88	25.236
548.22	25.537
548.56	25.284
548.90	24.560
549.24	25.417
549.58	24.270
549.92	25.752
550.26	25.904
550.60	25.000
550.94	24.701
551.28	24.224
551.62	25.263
551.96	24.744
552.30	24.672
552.64	25.000
552.98	25.781
553.32	24.658
553.66	24.505
554.00	24.190
554.34	23.370
554.68	25.056
555.02	23.353
555.36	25.416
555.69	24.909
556.03	24.518
556.37	23.826
556.71	24.527
557.05	25.166
557.39	24.491
557.73	23.601
558.07	24.868
558.41	24.527
558.75	23.711
559.08	24.699
559.42	25.806
559.76	23.777
560.10	24.443
560.44	24.392
560.78	23.094
561.12	24.947
561.45	24.762
561.79	23.521
562.13	23.699
562.47	24.429
562.81	24.315
563.15	23.442
563.48	24.914
563.82	24.077
564.16	24.238
564.50	24.288
564.84	23.919
565.17	24.570
565.51	24.465
565.85	22.851
566.19	23.377
566.52	23.722
566.86	23.135
567.20	23.091
567.54	22.740
567.88	23.124
568.21	22.868
568.55	23.318
568.89	22.931
569.23	23.327
569.56	23.696
569.90	23.351
570.24	23.141
570.57	23.132
570.91	23.202
571.25	22.739
571.59	23.211
571.92	22.675
572.26	22.869
572.60	22.944
572.93	22.805
573.27	22.563
573.61	23.179
573.95	22.396
574.28	22.789
574.62	22.315
574.96	22.810
575.29	22.593
575.63	22.893
575.97	22.663
576.30	22.439
576.64	22.845
576.98	23.032
577.31	22.883
577.65	22.487
577.98	22.284
578.32	22.620
578.66	22.548
578.99	23.005
579.33	22.839
579.67	22.480
580.00	22.410
580.34	22.734
580.67	22.562
581.01	22.691
581.35	22.229
581.68	22.298
582.02	22.432
582.35	22.492
582.69	21.874
583.02	21.641
583.36	22.591
583.70	22.684
584.03	22.486
584.37	22.049
584.70	22.077
585.04	22.434
585.37	22.236
585.71	22.455
586.04	22.030
586.38	21.679
586.72	21.944
587.05	22.222
587.39	22.264
587.72	21.862
588.06	21.806
588.39	22.278
588.73	21.781
589.06	21.953
589.40	21.775
589.73	21.595
590.07	21.947
590.40	21.999
590.73	22.285
591.07	21.563
591.40	20.652
591.74	21.476
592.07	21.406
592.41	22.179
592.74	21.952
593.08	21.538
593.41	21.901
593.75	21.253
594.08	22.245
594.41	21.353
594.75	22.076
595.08	21.733
595.42	21.296
595.75	21.547
596.09	21.401
596.42	20.833
596.75	21.369
597.09	21.793
597.42	21.803
597.75	21.244
598.09	21.220
598.42	22.595
598.76	21.411
599.09	21.729
599.42	21.110
599.76	21.292
600.09	21.122
600.42	21.205
600.76	20.473
601.09	21.281
601.42	21.599
601.76	22.085
602.09	21.970
602.42	21.915
602.76	20.973
603.09	21.232
603.42	20.992
603.76	20.616
604.09	21.186
604.42	20.762
604.76	20.777
605.09	21.251
605.42	21.817
605.75	20.899
606.09	20.737
606.42	20.989
606.75	20.476
607.09	20.745
607.42	21.235
607.75	19.781
608.08	21.190
608.42	20.759
608.75	21.118
609.08	20.431
609.41	20.020
609.75	20.777
610.08	20.562
610.41	20.603
610.74	20.549
611.07	20.892
611.41	20.983
611.74	21.325
612.07	19.229
612.40	20.703
612.73	20.966
613.07	20.177
613.40	20.760
613.73	20.964
614.06	20.287
614.39	20.233
614.72	20.766
615.06	19.944
615.39	21.192
615.72	20.518
616.05	19.426
616.38	20.447
616.71	19.556
617.05	21.192
617.38	19.717
617.71	19.792
618.04	20.232
618.37	19.621
618.70	19.987
619.03	20.344
619.36	19.858
619.69	20.614
620.03	19.152
620.36	20.042
620.69	20.200
621.02	19.846
621.35	19.542
621.68	18.989
622.01	19.660
622.34	19.191
622.67	20.673
623.00	20.897
623.33	19.222
623.66	20.223
623.99	19.655
624.32	19.369
624.65	18.769
624.99	20.059
625.32	21.060
625.65	19.457
625.98	18.878
626.31	20.816
626.64	19.347
626.97	20.242
627.30	21.215
627.63	18.858
627.96	19.134
628.29	20.279
628.62	19.923
628.95	18.236
629.28	19.015
629.61	19.904
629.94	18.859
630.26	18.916
630.59	19.580
630.92	19.578
631.25	19.567
631.58	20.985
631.91	20.361
632.24	18.551
632.57	18.000
632.90	19.253
633.23	19.424
633.56	19.305
633.89	21.411
634.22	21.908
634.55	20.219
634.88	18.627
635.20	20.000
635.53	19.121
635.86	20.128
