SpectraSuite Data File
++++++++++++++++++++++++++++++++++++
Date: Wed May 13 21:52:26 PDT 2015
User: schluterlab
Dark Spectrum Present: Yes
Reference Spectrum Present: Yes
Number of Sampled Component Spectra: 1
Spectrometers: USB2E3373
Integration Time (usec): 3000 (USB2E3373)
Spectra Averaged: 3 (USB2E3373)
Boxcar Smoothing: 0 (USB2E3373)
Correct for Electrical Dark: No (USB2E3373)
Strobe/Lamp Enabled: No (USB2E3373)
Correct for Detector Non-linearity: No (USB2E3373)
Correct for Stray Light: No (USB2E3373)
Number of Pixels in Processed Spectrum: 2048
>>>>>Begin Processed Spectral Data<<<<<
178.53	0.000
178.91	900.000
179.29	175.000
179.67	-750.000
180.04	-533.333
180.42	300.000
180.80	1500.000
181.18	433.333
181.56	-400.000
181.94	-325.000
182.31	18.182
182.69	161.538
183.07	0.000
183.45	300.000
183.83	177.778
184.20	285.714
184.58	0.000
184.96	433.333
185.34	242.857
185.72	0.000
186.09	-700.000
186.47	-280.000
186.85	260.000
187.23	-350.000
187.61	600.000
187.98	1800.000
188.36	-12.500
188.74	0.000
189.12	-90.909
189.49	-70.000
189.87	150.000
190.25	300.000
190.63	-100.000
191.00	-240.000
191.38	260.000
191.76	275.000
192.14	158.333
192.51	-57.895
192.89	1000.000
193.27	325.000
193.65	-340.000
194.02	245.455
194.40	270.000
194.78	-1400.000
195.15	260.000
195.53	-400.000
195.91	0.000
196.29	-233.333
196.66	0.000
197.04	550.000
197.42	-140.000
197.79	-80.000
198.17	-187.500
198.55	-433.333
198.92	325.000
199.30	-666.667
199.68	20.000
200.05	700.000
200.43	300.000
200.81	-1800.000
201.18	-240.000
201.56	-200.000
201.94	575.000
202.31	-8.696
202.69	-85.714
203.07	-500.000
203.44	-300.000
203.82	-400.000
204.19	-100.000
204.57	0.000
204.95	-166.667
205.32	0.000
205.70	-800.000
206.08	-350.000
206.45	-333.333
206.83	550.000
207.20	-400.000
207.58	-30.000
207.96	-2100.000
208.33	-242.857
208.71	-2100.000
209.08	300.000
209.46	550.000
209.84	0.000
210.21	210.000
210.59	2400.000
210.96	220.000
211.34	2100.000
211.71	-1500.000
212.09	-366.667
212.46	-170.000
212.84	-266.667
213.22	-25.000
213.59	-1000.000
213.97	-800.000
214.34	-50.000
214.72	30.769
215.09	212.500
215.47	144.444
215.84	1000.000
216.22	-250.000
216.59	-250.000
216.97	566.667
217.34	188.889
217.72	0.000
218.09	400.000
218.47	-1200.000
218.84	-200.000
219.22	-137.500
219.59	-633.333
219.97	-425.000
220.34	-200.000
220.72	-140.000
221.09	0.000
221.47	-316.667
221.84	-500.000
222.22	0.000
222.59	700.000
222.97	-433.333
223.34	-108.333
223.72	-2500.000
224.09	-650.000
224.46	-81.818
224.84	-125.000
225.21	-142.857
225.59	-400.000
225.96	-83.333
226.34	-90.000
226.71	-57.143
227.08	1000.000
227.46	-137.500
227.83	-500.000
228.21	-12.500
228.58	-525.000
228.95	-64.706
229.33	-25.000
229.70	-75.000
230.08	-100.000
230.45	-137.500
230.82	-75.000
231.20	242.857
231.57	-350.000
231.95	900.000
232.32	8.333
232.69	-41.176
233.07	-1300.000
233.44	17.391
233.81	-350.000
234.19	-16.667
234.56	-86.667
234.93	-26.667
235.31	-36.842
235.68	-69.231
236.05	-15.385
236.43	-72.222
236.80	9.091
237.17	-60.000
237.55	-100.000
237.92	-27.586
238.29	-59.259
238.67	-13.889
239.04	-29.032
239.41	-23.404
239.79	-8.511
240.16	2.326
240.53	-1.786
240.91	1.786
241.28	-1.786
241.65	8.065
242.02	1.316
242.40	0.000
242.77	-11.594
243.14	-7.692
243.51	6.383
243.89	4.808
244.26	28.302
244.63	-7.692
245.00	2.083
245.38	8.403
245.75	4.918
246.12	10.526
246.49	-8.130
246.87	-8.403
247.24	8.784
247.61	6.623
247.98	10.897
248.36	9.467
248.73	6.180
249.10	3.535
249.47	8.065
249.84	11.053
250.22	9.950
250.59	10.280
250.96	9.545
251.33	2.871
251.70	7.531
252.08	9.623
252.45	9.877
252.82	14.829
253.19	8.560
253.56	10.072
253.94	13.523
254.31	11.620
254.68	13.087
255.05	13.531
255.42	8.741
255.79	11.350
256.16	10.410
256.54	14.286
256.91	8.861
257.28	10.377
257.65	8.280
258.02	9.384
258.39	11.988
258.76	8.430
259.14	11.932
259.51	10.112
259.88	10.569
260.25	9.722
260.62	13.764
260.99	14.324
261.36	13.472
261.73	11.358
262.10	9.415
262.47	11.605
262.85	9.453
263.22	11.538
263.59	13.247
263.96	11.436
264.33	9.856
264.70	12.093
265.07	11.574
265.44	13.563
265.81	11.670
266.18	10.706
266.55	11.572
266.92	12.924
267.29	10.288
267.66	13.588
268.03	13.169
268.40	9.958
268.77	8.471
269.14	11.837
269.51	13.552
269.88	9.776
270.25	11.441
270.62	9.631
270.99	12.992
271.36	13.492
271.73	14.458
272.10	9.524
272.47	13.244
272.84	11.417
273.21	13.112
273.58	12.910
273.95	10.566
274.32	10.448
274.69	12.386
275.06	15.194
275.43	11.864
275.80	11.525
276.17	11.418
276.54	11.545
276.91	11.324
277.28	11.191
277.65	13.112
278.02	13.036
278.39	10.835
278.76	11.706
279.13	12.350
279.50	11.552
279.87	10.688
280.23	11.712
280.60	10.381
280.97	10.877
281.34	11.830
281.71	10.894
282.08	12.479
282.45	12.787
282.82	9.744
283.19	13.262
283.56	11.563
283.92	12.844
284.29	12.637
284.66	10.873
285.03	12.215
285.40	11.782
285.77	11.862
286.14	12.614
286.51	13.343
286.87	10.462
287.24	12.094
287.61	12.651
287.98	11.176
288.35	10.730
288.72	13.056
289.08	12.108
289.45	10.720
289.82	13.162
290.19	10.379
290.56	11.364
290.93	11.050
291.29	11.218
291.66	12.295
292.03	13.215
292.40	11.575
292.77	13.922
293.13	13.808
293.50	12.026
293.87	13.200
294.24	11.508
294.60	13.654
294.97	13.360
295.34	11.082
295.71	11.170
296.08	12.565
296.44	11.862
296.81	10.962
297.18	13.500
297.55	12.028
297.91	13.913
298.28	14.165
298.65	11.207
299.02	14.896
299.38	12.883
299.75	13.582
300.12	12.907
300.48	12.398
300.85	14.319
301.22	12.660
301.59	14.319
301.95	13.357
302.32	13.536
302.69	13.898
303.05	14.396
303.42	15.114
303.79	14.616
304.15	13.363
304.52	15.914
304.89	14.950
305.25	14.709
305.62	15.401
305.99	15.234
306.35	15.987
306.72	15.972
307.09	16.475
307.45	16.826
307.82	14.947
308.19	15.152
308.55	16.070
308.92	17.191
309.29	17.417
309.65	15.185
310.02	16.700
310.38	18.801
310.75	17.258
311.12	17.979
311.48	17.804
311.85	18.898
312.22	18.665
312.58	17.778
312.95	19.502
313.31	20.110
313.68	19.943
314.05	20.132
314.41	21.614
314.78	21.822
315.14	22.222
315.51	21.884
315.87	21.687
316.24	20.661
316.61	22.100
316.97	21.574
317.34	23.886
317.70	23.283
318.07	24.224
318.43	23.216
318.80	23.298
319.16	22.812
319.53	24.821
319.89	24.210
320.26	26.155
320.62	24.096
320.99	25.775
321.35	24.322
321.72	25.409
322.08	26.107
322.45	27.197
322.81	28.281
323.18	27.907
323.54	28.520
323.91	29.088
324.27	28.983
324.64	28.397
325.00	28.871
325.37	29.608
325.73	29.966
326.10	30.530
326.46	31.104
326.83	31.392
327.19	30.488
327.56	31.668
327.92	33.065
328.29	33.389
328.65	33.041
329.01	32.454
329.38	33.565
329.74	31.845
330.11	33.363
330.47	32.552
330.84	34.477
331.20	34.073
331.56	34.330
331.93	33.333
332.29	34.579
332.66	33.051
333.02	34.579
333.38	34.561
333.75	33.191
334.11	34.549
334.48	35.135
334.84	34.011
335.20	33.533
335.57	32.811
335.93	33.419
336.29	32.312
336.66	34.103
337.02	34.435
337.38	33.856
337.75	34.970
338.11	33.561
338.47	33.390
338.84	33.162
339.20	34.480
339.56	33.447
339.93	33.881
340.29	33.817
340.65	34.645
341.02	32.862
341.38	34.966
341.74	32.857
342.11	33.856
342.47	34.059
342.83	33.660
343.20	33.841
343.56	32.625
343.92	32.575
344.28	34.091
344.65	32.735
345.01	33.414
345.37	33.882
345.73	33.578
346.10	33.547
346.46	33.496
346.82	32.825
347.19	32.991
347.55	32.876
347.91	33.281
348.27	33.991
348.63	33.093
349.00	33.019
349.36	33.124
349.72	33.333
350.08	30.967
350.45	32.498
350.81	33.725
351.17	32.333
351.53	31.893
351.89	32.168
352.26	30.579
352.62	32.016
352.98	32.508
353.34	32.609
353.70	33.489
354.07	32.784
354.43	33.204
354.79	31.971
355.15	31.910
355.51	32.270
355.87	33.307
356.24	32.825
356.60	30.962
356.96	31.850
357.32	32.353
357.68	32.009
358.04	33.514
358.40	32.171
358.77	31.804
359.13	32.296
359.49	32.627
359.85	31.312
360.21	32.151
360.57	32.852
360.93	32.701
361.29	32.642
361.66	31.967
362.02	31.727
362.38	31.462
362.74	31.835
363.10	31.887
363.46	30.764
363.82	31.559
364.18	31.690
364.54	31.437
364.90	30.801
365.26	31.281
365.62	31.676
365.98	30.747
366.35	32.270
366.71	31.883
367.07	31.113
367.43	31.498
367.79	30.924
368.15	31.997
368.51	30.872
368.87	32.798
369.23	31.103
369.59	31.360
369.95	31.640
370.31	31.869
370.67	30.702
371.03	31.774
371.39	31.654
371.75	31.214
372.11	31.624
372.47	31.218
372.83	30.999
373.19	32.590
373.55	31.214
373.91	30.693
374.27	31.259
374.63	31.294
374.99	31.198
375.35	31.507
375.71	31.590
376.07	31.734
376.42	30.615
376.78	32.100
377.14	31.254
377.50	31.160
377.86	31.607
378.22	31.100
378.58	30.958
378.94	31.375
379.30	30.856
379.66	30.333
380.02	30.699
380.38	30.542
380.74	30.783
381.09	30.881
381.45	30.713
381.81	30.746
382.17	31.317
382.53	32.062
382.89	30.398
383.25	30.494
383.61	30.327
383.97	31.187
384.32	30.498
384.68	31.030
385.04	30.483
385.40	30.635
385.76	30.474
386.12	30.536
386.48	30.408
386.83	29.662
387.19	30.228
387.55	30.779
387.91	31.119
388.27	30.148
388.62	31.336
388.98	30.914
389.34	30.326
389.70	30.647
390.06	29.500
390.42	31.121
390.77	29.917
391.13	30.934
391.49	29.728
391.85	29.649
392.20	29.135
392.56	30.413
392.92	28.906
393.28	30.273
393.64	29.969
393.99	29.253
394.35	29.691
394.71	30.192
395.07	28.616
395.42	29.677
395.78	28.893
396.14	29.930
396.50	29.994
396.85	30.019
397.21	28.652
397.57	29.193
397.92	28.922
398.28	29.554
398.64	29.933
399.00	28.962
399.35	29.058
399.71	28.655
400.07	29.096
400.42	28.652
400.78	28.882
401.14	28.817
401.49	29.658
401.85	29.914
402.21	27.988
402.57	29.859
402.92	29.099
403.28	29.018
403.63	28.580
403.99	29.047
404.35	28.865
404.70	28.338
405.06	28.890
405.42	27.701
405.77	28.514
406.13	28.800
406.49	27.202
406.84	28.510
407.20	28.182
407.55	29.545
407.91	28.259
408.27	27.636
408.62	28.852
408.98	28.422
409.34	27.166
409.69	28.590
410.05	27.736
410.40	27.511
410.76	28.339
411.11	28.358
411.47	29.662
411.83	28.571
412.18	27.708
412.54	28.697
412.89	26.771
413.25	26.844
413.60	27.774
413.96	27.778
414.31	27.744
414.67	27.365
415.03	28.078
415.38	27.015
415.74	27.550
416.09	28.090
416.45	27.478
416.80	28.523
417.16	28.475
417.51	28.868
417.87	28.373
418.22	27.537
418.58	27.398
418.93	27.872
419.29	30.165
419.64	27.481
420.00	29.206
420.35	27.137
420.71	27.422
421.06	27.983
421.42	27.981
421.77	27.861
422.12	27.622
422.48	27.481
422.83	28.057
423.19	28.062
423.54	27.621
423.90	27.553
424.25	28.538
424.61	28.035
424.96	27.676
425.31	28.155
425.67	28.865
426.02	28.504
426.38	28.172
426.73	27.917
427.09	27.580
427.44	28.244
427.79	28.563
428.15	27.951
428.50	28.218
428.85	28.475
429.21	27.462
429.56	28.640
429.92	28.162
430.27	28.119
430.62	27.859
430.98	27.710
431.33	28.802
431.68	29.127
432.04	28.789
432.39	29.503
432.74	28.142
433.10	29.343
433.45	28.166
433.80	28.506
434.16	27.744
434.51	28.804
434.86	29.152
435.22	28.183
435.57	27.948
435.92	28.709
436.28	28.228
436.63	28.926
436.98	29.377
437.34	28.449
437.69	28.394
438.04	29.372
438.39	29.328
438.75	29.082
439.10	30.075
439.45	28.632
439.81	30.111
440.16	29.507
440.51	29.548
440.86	28.927
441.22	28.744
441.57	29.338
441.92	28.771
442.27	28.247
442.63	27.664
442.98	28.819
443.33	28.725
443.68	29.257
444.03	28.763
444.39	29.351
444.74	28.493
445.09	28.359
445.44	29.352
445.79	28.549
446.15	28.896
446.50	28.800
446.85	29.075
447.20	29.273
447.55	29.043
447.91	28.652
448.26	30.017
448.61	29.344
448.96	29.499
449.31	30.040
449.66	30.017
450.02	29.733
450.37	29.436
450.72	29.047
451.07	29.718
451.42	27.948
451.77	29.093
452.12	29.055
452.47	29.567
452.83	29.127
453.18	29.917
453.53	30.076
453.88	29.277
454.23	30.037
454.58	29.902
454.93	29.634
455.28	30.443
455.63	29.320
455.98	29.702
456.34	29.943
456.69	29.649
457.04	29.350
457.39	30.247
457.74	29.803
458.09	29.917
458.44	30.494
458.79	28.940
459.14	28.427
459.49	29.817
459.84	29.087
460.19	27.911
460.54	29.501
460.89	29.167
461.24	29.408
461.59	30.012
461.94	29.899
462.29	28.615
462.64	29.156
462.99	29.980
463.34	30.110
463.69	30.026
464.04	29.112
464.39	30.018
464.74	29.607
465.09	29.076
465.44	28.620
465.79	29.960
466.14	29.361
466.49	30.440
466.84	29.109
467.19	29.172
467.54	30.201
467.89	28.661
468.24	29.871
468.59	29.446
468.94	29.949
469.29	30.403
469.64	29.637
469.99	30.069
470.34	30.209
470.68	29.368
471.03	30.536
471.38	29.903
471.73	29.355
472.08	30.309
472.43	29.947
472.78	29.953
473.13	28.694
473.48	29.224
473.83	29.630
474.17	29.492
474.52	29.061
474.87	28.166
475.22	29.710
475.57	29.336
475.92	29.662
476.27	30.303
476.61	28.086
476.96	29.412
477.31	29.234
477.66	31.073
478.01	28.132
478.36	29.101
478.70	29.323
479.05	29.689
479.40	29.225
479.75	29.224
480.10	28.914
480.45	29.328
480.79	29.467
481.14	29.382
481.49	28.762
481.84	29.171
482.19	29.551
482.53	29.048
482.88	28.763
483.23	28.681
483.58	29.206
483.92	28.259
484.27	28.683
484.62	28.584
484.97	30.361
485.31	27.827
485.66	26.941
486.01	26.429
486.36	26.999
486.70	27.781
487.05	28.388
487.40	28.586
487.75	28.941
488.09	29.152
488.44	28.847
488.79	29.296
489.13	28.748
489.48	29.158
489.83	28.450
490.17	29.278
490.52	29.593
490.87	28.419
491.22	28.874
491.56	29.133
491.91	28.853
492.26	29.787
492.60	29.726
492.95	29.835
493.30	28.440
493.64	28.297
493.99	28.986
494.34	28.998
494.68	29.499
495.03	29.348
495.37	29.538
495.72	29.724
496.07	28.397
496.41	28.124
496.76	28.565
497.11	28.967
497.45	30.496
497.80	30.439
498.14	29.270
498.49	28.996
498.84	28.239
499.18	29.716
499.53	29.542
499.87	28.287
500.22	28.671
500.56	29.188
500.91	29.225
501.26	28.621
501.60	27.794
501.95	28.222
502.29	28.835
502.64	29.219
502.98	29.143
503.33	28.662
503.67	28.676
504.02	28.725
504.36	28.579
504.71	28.303
505.06	29.088
505.40	28.144
505.75	29.145
506.09	28.973
506.44	27.974
506.78	28.796
507.13	29.314
507.47	28.791
507.82	28.310
508.16	28.654
508.51	29.287
508.85	28.512
509.19	28.466
509.54	28.794
509.88	28.065
510.23	28.316
510.57	29.184
510.92	28.825
511.26	28.988
511.61	28.814
511.95	27.729
512.30	29.206
512.64	29.285
512.98	28.698
513.33	29.352
513.67	28.961
514.02	29.418
514.36	29.326
514.70	28.984
515.05	29.374
515.39	29.304
515.74	29.663
516.08	28.909
516.42	28.341
516.77	29.233
517.11	28.983
517.46	29.292
517.80	29.964
518.14	28.108
518.49	29.355
518.83	29.594
519.17	28.554
519.52	29.614
519.86	29.326
520.20	28.199
520.55	28.483
520.89	28.906
521.23	29.103
521.58	28.887
521.92	28.787
522.26	27.456
522.61	28.313
522.95	28.562
523.29	29.143
523.64	29.434
523.98	30.114
524.32	28.229
524.66	27.597
525.01	29.751
525.35	29.032
525.69	30.417
526.04	28.078
526.38	28.744
526.72	29.323
527.06	28.498
527.41	28.127
527.75	28.104
528.09	31.110
528.43	29.851
528.78	27.778
529.12	29.043
529.46	28.599
529.80	28.997
530.15	28.893
530.49	29.178
530.83	29.452
531.17	28.288
531.51	27.175
531.86	28.320
532.20	27.843
532.54	28.621
532.88	26.889
533.22	28.350
533.57	27.152
533.91	29.161
534.25	27.865
534.59	27.671
534.93	28.189
535.27	28.089
535.62	27.368
535.96	28.367
536.30	27.660
536.64	26.589
536.98	28.031
537.32	27.758
537.66	28.702
538.01	28.017
538.35	27.348
538.69	27.492
539.03	27.785
539.37	26.425
539.71	27.558
540.05	26.316
540.39	27.047
540.73	28.142
541.07	27.347
541.42	27.542
541.76	28.349
542.10	26.811
542.44	26.750
542.78	27.967
543.12	27.493
543.46	27.021
543.80	27.020
544.14	27.116
544.48	26.211
544.82	28.985
545.16	27.248
545.50	27.144
545.84	26.788
546.18	26.718
546.52	27.311
546.86	26.784
547.20	26.233
547.54	27.019
547.88	26.856
548.22	26.971
548.56	26.217
548.90	26.319
549.24	27.500
549.58	27.402
549.92	28.247
550.26	27.675
550.60	27.027
550.94	25.224
551.28	26.646
551.62	26.767
551.96	26.867
552.30	26.783
552.64	26.271
552.98	27.131
553.32	27.830
553.66	28.247
554.00	25.630
554.34	26.740
554.68	27.144
555.02	25.823
555.36	26.248
555.69	26.147
556.03	25.876
556.37	26.316
556.71	25.718
557.05	26.790
557.39	27.054
557.73	26.248
558.07	26.300
558.41	26.874
558.75	27.175
559.08	26.143
559.42	26.829
559.76	25.994
560.10	26.441
560.44	27.266
560.78	26.475
561.12	25.788
561.45	25.442
561.79	26.066
562.13	26.231
562.47	27.429
562.81	25.253
563.15	25.354
563.48	25.671
563.82	25.718
564.16	26.540
564.50	25.916
564.84	25.878
565.17	25.166
565.51	24.131
565.85	24.517
566.19	25.166
566.52	24.246
566.86	24.526
567.20	24.985
567.54	23.949
567.88	23.684
568.21	24.280
568.55	24.204
568.89	24.377
569.23	23.327
569.56	23.696
569.90	22.278
570.24	21.877
570.57	22.211
570.91	22.570
571.25	21.847
571.59	22.129
571.92	21.707
572.26	22.097
572.60	22.359
572.93	21.993
573.27	22.168
573.61	21.998
573.95	21.787
574.28	21.990
574.62	21.254
574.96	21.949
575.29	20.863
575.63	21.233
575.97	21.658
576.30	21.008
576.64	21.378
576.98	21.443
577.31	20.996
577.65	20.941
577.98	20.857
578.32	20.597
578.66	21.125
578.99	21.103
579.33	21.314
579.67	21.512
580.00	21.342
580.34	21.280
580.67	21.338
581.01	20.989
581.35	20.580
581.68	20.386
582.02	20.721
582.35	20.654
582.69	21.488
583.02	21.008
583.36	20.824
583.70	21.170
584.03	21.327
584.37	21.393
584.70	21.172
585.04	21.482
585.37	21.166
585.71	20.863
586.04	20.677
586.38	20.679
586.72	21.101
587.05	21.574
587.39	20.961
587.72	21.197
588.06	21.040
588.39	21.271
588.73	20.909
589.06	20.692
589.40	21.328
589.73	21.380
590.07	20.780
590.40	21.583
590.73	21.637
591.07	21.897
591.40	21.652
591.74	22.099
592.07	21.634
592.41	21.707
592.74	21.644
593.08	20.684
593.41	21.387
593.75	20.317
594.08	21.174
594.41	21.645
594.75	21.477
595.08	21.359
595.42	20.759
595.75	21.294
596.09	21.440
596.42	21.936
596.75	21.632
597.09	21.292
597.42	21.893
597.75	21.822
598.09	21.403
598.42	21.834
598.76	21.453
599.09	21.248
599.42	20.355
599.76	21.142
600.09	21.047
600.42	20.904
600.76	20.103
601.09	20.678
601.42	21.364
601.76	21.158
602.09	21.321
602.42	21.502
602.76	20.386
603.09	21.232
603.42	20.872
603.76	20.499
604.09	21.383
604.42	21.097
604.76	20.733
605.09	20.979
605.42	21.997
605.75	20.600
606.09	20.157
606.42	20.823
606.75	21.255
607.09	20.700
607.42	21.147
607.75	19.825
608.08	21.461
608.42	21.040
608.75	20.831
609.08	20.725
609.41	20.765
609.75	20.424
610.08	20.907
610.41	21.331
610.74	20.789
611.07	21.393
611.41	21.648
611.74	21.429
612.07	21.470
612.40	21.676
612.73	20.856
613.07	20.233
613.40	21.476
613.73	21.560
614.06	21.393
614.39	21.067
614.72	21.821
615.06	21.000
615.39	21.578
615.72	20.140
616.05	21.340
616.38	21.249
616.71	20.336
617.05	22.482
617.38	20.887
617.71	21.017
618.04	21.328
618.37	21.893
618.70	21.863
619.03	21.649
619.36	21.708
619.69	21.930
620.03	20.283
620.36	22.269
620.69	20.414
621.02	22.462
621.35	21.586
621.68	22.412
622.01	21.197
622.34	21.887
622.67	21.848
623.00	22.720
623.33	22.064
623.66	20.818
623.99	21.680
624.32	21.497
624.65	21.884
624.99	21.381
625.32	21.882
625.65	21.085
625.98	21.564
626.31	21.878
626.64	21.668
626.97	21.799
627.30	22.241
627.63	22.232
627.96	21.126
628.29	23.628
628.62	23.598
628.95	23.246
629.28	22.365
629.61	24.019
629.94	23.114
630.26	24.236
630.59	22.577
630.92	22.892
631.25	23.481
631.58	22.912
631.91	21.845
632.24	22.832
632.57	22.222
