SpectraSuite Data File
++++++++++++++++++++++++++++++++++++
Date: Wed May 13 16:38:21 PDT 2015
User: schluterlab
Dark Spectrum Present: Yes
Reference Spectrum Present: Yes
Number of Sampled Component Spectra: 1
Spectrometers: USB2E3373
Integration Time (usec): 3000 (USB2E3373)
Spectra Averaged: 3 (USB2E3373)
Boxcar Smoothing: 0 (USB2E3373)
Correct for Electrical Dark: No (USB2E3373)
Strobe/Lamp Enabled: No (USB2E3373)
Correct for Detector Non-linearity: No (USB2E3373)
Correct for Stray Light: No (USB2E3373)
Number of Pixels in Processed Spectrum: 2048
>>>>>Begin Processed Spectral Data<<<<<
178.53	0.000
178.91	-1150.000
179.29	-1375.000
179.67	-300.000
180.04	-1475.000
180.42	2650.000
180.80	940.000
181.18	-1350.000
181.56	685.714
181.94	0.000
182.31	-685.714
182.69	1700.000
183.07	-662.500
183.45	-466.667
183.83	463.636
184.20	-410.000
184.58	2150.000
184.96	5200.000
185.34	-820.000
185.72	-500.000
186.09	-2250.000
186.47	2450.000
186.85	2100.000
187.23	5200.000
187.61	-1900.000
187.98	1325.000
188.36	536.364
188.74	563.636
189.12	-820.000
189.49	560.000
189.87	-4800.000
190.25	-1000.000
190.63	450.000
191.00	407.692
191.38	850.000
191.76	-1225.000
192.14	1550.000
192.51	625.000
192.89	900.000
193.27	550.000
193.65	-1200.000
194.02	520.000
194.40	1160.000
194.78	680.000
195.15	541.667
195.53	640.000
195.91	-2450.000
196.29	381.250
196.66	289.474
197.04	-340.000
197.42	0.000
197.79	630.000
198.17	-3700.000
198.55	571.429
198.92	650.000
199.30	920.000
199.68	0.000
200.05	361.111
200.43	857.143
200.81	5100.000
201.18	1466.667
201.56	-1333.333
201.94	622.222
202.31	577.778
202.69	400.000
203.07	690.000
203.44	0.000
203.82	1350.000
204.19	814.286
204.57	450.000
204.95	712.500
205.32	1666.667
205.70	490.909
206.08	407.143
206.45	2750.000
206.83	425.000
207.20	833.333
207.58	920.000
207.96	344.444
208.33	675.000
208.71	-800.000
209.08	742.857
209.46	666.667
209.84	436.364
210.21	-1400.000
210.59	1375.000
210.96	-487.500
211.34	2200.000
211.71	680.000
212.09	800.000
212.46	0.000
212.84	1666.667
213.22	1250.000
213.59	-5500.000
213.97	716.667
214.34	757.143
214.72	545.455
215.09	980.000
215.47	-2550.000
215.84	-2450.000
216.22	1833.333
216.59	378.571
216.97	1325.000
217.34	518.182
217.72	-683.333
218.09	0.000
218.47	-5000.000
218.84	588.889
219.22	842.857
219.59	1833.333
219.97	-685.714
220.34	860.000
220.72	-1500.000
221.09	442.857
221.47	1450.000
221.84	-783.333
222.22	0.000
222.59	1225.000
222.97	-2550.000
223.34	1280.000
223.72	476.923
224.09	800.000
224.46	2350.000
224.84	-5000.000
225.21	-1060.000
225.59	-4700.000
225.96	470.000
226.34	280.000
226.71	2550.000
227.08	737.500
227.46	580.000
227.83	-1225.000
228.21	-2400.000
228.58	622.222
228.95	-2450.000
229.33	-2550.000
229.70	1566.667
230.08	842.857
230.45	-980.000
230.82	433.333
231.20	783.333
231.57	800.000
231.95	533.333
232.32	195.455
232.69	418.182
233.07	585.714
233.44	369.231
233.81	-1700.000
234.19	284.211
234.56	416.667
234.93	425.000
235.31	445.455
235.68	353.846
236.05	321.429
236.43	166.667
236.80	184.211
237.17	4000.000
237.55	152.381
237.92	200.000
238.29	219.048
238.67	170.968
239.04	155.172
239.41	111.111
239.79	91.304
240.16	121.429
240.53	120.455
240.91	80.392
241.28	92.000
241.65	82.000
242.02	76.812
242.40	70.968
242.77	68.333
243.14	62.366
243.51	61.798
243.89	60.000
244.26	56.667
244.63	55.914
245.00	51.064
245.38	48.515
245.75	35.514
246.12	42.202
246.49	49.635
246.87	56.000
247.24	40.769
247.61	37.143
247.98	38.562
248.36	30.405
248.73	29.299
249.10	37.580
249.47	33.333
249.84	31.551
250.22	22.460
250.59	24.852
250.96	31.818
251.33	31.754
251.70	26.238
252.08	21.905
252.45	22.422
252.82	23.043
253.19	23.830
253.56	25.098
253.94	25.311
254.31	22.266
254.68	23.846
255.05	19.188
255.42	21.138
255.79	19.853
256.16	18.051
256.54	14.841
256.91	18.861
257.28	21.583
257.65	15.182
258.02	18.323
258.39	15.457
258.76	14.047
259.14	17.560
259.51	16.717
259.88	13.665
260.25	14.199
260.62	14.451
260.99	13.975
261.36	18.919
261.73	13.181
262.10	14.244
262.47	17.183
262.85	11.978
263.22	12.251
263.59	15.100
263.96	15.110
264.33	14.621
264.70	13.947
265.07	15.601
265.44	11.364
265.81	10.462
266.18	12.563
266.55	12.683
266.92	15.233
267.29	14.815
267.66	13.761
268.03	14.091
268.40	11.916
268.77	10.740
269.14	9.910
269.51	14.221
269.88	14.219
270.25	11.964
270.62	11.685
270.99	13.333
271.36	13.519
271.73	13.785
272.10	10.435
272.47	10.753
272.84	12.987
273.21	12.369
273.58	12.664
273.95	12.579
274.32	10.950
274.69	10.064
275.06	8.858
275.43	11.702
275.80	9.419
276.17	12.627
276.54	11.642
276.91	12.253
277.28	12.305
277.65	11.219
278.02	9.938
278.39	12.695
278.76	10.182
279.13	10.189
279.50	10.987
279.87	9.761
280.23	9.581
280.60	9.091
280.97	9.057
281.34	9.204
281.71	11.091
282.08	9.597
282.45	10.364
282.82	10.124
283.19	7.130
283.56	9.123
283.92	9.475
284.29	8.818
284.66	9.619
285.03	8.137
285.40	8.451
285.77	8.081
286.14	8.981
286.51	10.667
286.87	10.085
287.24	9.121
287.61	8.989
287.98	9.578
288.35	8.399
288.72	9.657
289.08	9.703
289.45	8.896
289.82	9.593
290.19	7.378
290.56	8.270
290.93	7.855
291.29	8.742
291.66	7.817
292.03	10.756
292.40	9.398
292.77	8.728
293.13	10.597
293.50	9.329
293.87	7.704
294.24	7.407
294.60	6.841
294.97	8.140
295.34	8.604
295.71	7.812
296.08	6.695
296.44	7.978
296.81	6.473
297.18	9.621
297.55	6.069
297.91	8.047
298.28	8.032
298.65	7.572
299.02	8.300
299.38	6.640
299.75	6.065
300.12	6.769
300.48	7.375
300.85	7.152
301.22	6.242
301.59	6.187
301.95	7.557
302.32	7.702
302.69	7.407
303.05	6.424
303.42	6.914
303.79	7.814
304.15	7.576
304.52	6.141
304.89	6.969
305.25	7.773
305.62	6.455
305.99	7.792
306.35	7.494
306.72	7.960
307.09	7.214
307.45	7.770
307.82	6.138
308.19	8.168
308.55	8.306
308.92	6.767
309.29	7.920
309.65	6.363
310.02	7.294
310.38	6.022
310.75	6.864
311.12	8.700
311.48	7.210
311.85	7.757
312.22	7.388
312.58	6.861
312.95	7.709
313.31	6.699
313.68	8.628
314.05	9.862
314.41	8.744
314.78	8.359
315.14	7.944
315.51	8.754
315.87	8.911
316.24	8.540
316.61	8.577
316.97	9.589
317.34	7.632
317.70	10.325
318.07	10.010
318.43	9.589
318.80	10.965
319.16	11.582
319.53	10.788
319.89	11.238
320.26	12.100
320.62	11.706
320.99	11.717
321.35	13.333
321.72	12.526
322.08	13.524
322.45	14.826
322.81	14.244
323.18	13.969
323.54	14.286
323.91	15.566
324.27	15.201
324.64	15.284
325.00	15.509
325.37	16.106
325.73	16.697
326.10	17.123
326.46	17.294
326.83	17.515
327.19	18.190
327.56	17.160
327.92	19.073
328.29	18.634
328.65	19.337
329.01	19.134
329.38	19.056
329.74	20.037
330.11	19.698
330.47	21.579
330.84	21.599
331.20	20.947
331.56	21.376
331.93	20.833
332.29	21.828
332.66	22.566
333.02	22.029
333.38	21.409
333.75	22.282
334.11	21.530
334.48	22.449
334.84	21.875
335.20	22.727
335.57	21.940
335.93	21.964
336.29	22.802
336.66	22.453
337.02	20.814
337.38	22.778
337.75	22.727
338.11	22.113
338.47	22.744
338.84	23.831
339.20	22.752
339.56	23.449
339.93	22.727
340.29	22.645
340.65	21.480
341.02	23.037
341.38	23.399
341.74	22.281
342.11	23.231
342.47	24.405
342.83	23.545
343.20	24.156
343.56	22.831
343.92	22.719
344.28	23.214
344.65	24.076
345.01	23.316
345.37	22.470
345.73	23.604
346.10	23.615
346.46	23.051
346.82	23.147
347.19	23.392
347.55	24.056
347.91	23.625
348.27	24.486
348.63	24.415
349.00	24.272
349.36	24.713
349.72	24.699
350.08	23.744
350.45	25.549
350.81	23.639
351.17	23.744
351.53	25.061
351.89	22.525
352.26	24.862
352.62	24.138
352.98	24.959
353.34	24.651
353.70	24.468
354.07	23.629
354.43	25.000
354.79	23.411
355.15	24.661
355.51	25.500
355.87	25.224
356.24	25.814
356.60	25.100
356.96	26.146
357.32	26.247
357.68	26.299
358.04	25.337
358.40	26.128
358.77	25.509
359.13	26.046
359.49	25.098
359.85	25.000
360.21	25.598
360.57	26.070
360.93	26.154
361.29	26.379
361.66	24.845
362.02	27.015
362.38	27.681
362.74	26.042
363.10	26.647
363.46	26.926
363.82	26.757
364.18	26.065
364.54	28.083
364.90	27.691
365.26	26.985
365.62	28.269
365.98	27.319
366.35	27.364
366.71	28.633
367.07	28.332
367.43	28.592
367.79	28.694
368.15	29.526
368.51	27.834
368.87	28.694
369.23	27.579
369.59	28.313
369.95	28.603
370.31	29.416
370.67	29.638
371.03	29.813
371.39	30.466
371.75	29.706
372.11	30.441
372.47	31.012
372.83	31.052
373.19	30.275
373.55	30.968
373.91	32.622
374.27	31.065
374.63	31.345
374.99	32.062
375.35	31.054
375.71	30.843
376.07	32.030
376.42	32.600
376.78	32.472
377.14	32.022
377.50	32.583
377.86	32.580
378.22	33.375
378.58	31.642
378.94	32.935
379.30	33.333
379.66	34.201
380.02	34.644
380.38	33.576
380.74	34.514
381.09	35.024
381.45	35.956
381.81	35.258
382.17	35.605
382.53	35.660
382.89	35.370
383.25	36.148
383.61	36.493
383.97	36.085
384.32	36.369
384.68	36.741
385.04	36.755
385.40	36.037
385.76	36.916
386.12	37.630
386.48	37.319
386.83	39.064
387.19	38.899
387.55	38.219
387.91	37.908
388.27	37.462
388.62	39.152
388.98	37.899
389.34	38.861
389.70	38.443
390.06	39.227
390.42	39.429
390.77	39.504
391.13	40.459
391.49	39.594
391.85	39.083
392.20	38.612
392.56	41.477
392.92	40.789
393.28	40.592
393.64	39.868
393.99	40.990
394.35	40.943
394.71	42.346
395.07	40.810
395.42	42.522
395.78	40.331
396.14	42.272
396.50	42.481
396.85	41.640
397.21	41.615
397.57	42.467
397.92	42.308
398.28	41.031
398.64	42.473
399.00	41.802
399.35	42.301
399.71	43.171
400.07	42.874
400.42	43.190
400.78	43.004
401.14	43.232
401.49	44.358
401.85	42.771
402.21	43.234
402.57	44.170
402.92	44.010
403.28	43.535
403.63	43.626
403.99	44.904
404.35	44.121
404.70	44.005
405.06	43.331
405.42	44.105
405.77	44.457
406.13	42.946
406.49	44.648
406.84	43.060
407.20	43.972
407.55	44.225
407.91	45.733
408.27	44.927
408.62	44.311
408.98	44.056
409.34	44.895
409.69	45.419
410.05	45.477
410.40	45.505
410.76	44.922
411.11	44.994
411.47	45.048
411.83	46.793
412.18	45.331
412.54	46.638
412.89	44.940
413.25	46.163
413.60	46.881
413.96	45.294
414.31	45.565
414.67	45.247
415.03	46.821
415.38	46.263
415.74	46.174
416.09	47.420
416.45	47.390
416.80	46.993
417.16	47.386
417.51	47.644
417.87	46.821
418.22	47.129
418.58	47.256
418.93	46.806
419.29	47.040
419.64	47.859
420.00	48.354
420.35	48.290
420.71	48.715
421.06	48.210
421.42	47.895
421.77	47.814
422.12	47.951
422.48	47.059
422.83	49.097
423.19	47.901
423.54	48.230
423.90	48.406
424.25	48.744
424.61	48.750
424.96	49.796
425.31	48.782
425.67	47.865
426.02	49.200
426.38	51.099
426.73	48.917
427.09	50.334
427.44	49.109
427.79	49.281
428.15	49.881
428.50	49.561
428.85	50.536
429.21	50.525
429.56	48.989
429.92	48.868
430.27	48.858
430.62	48.490
430.98	49.559
431.33	49.330
431.68	50.576
432.04	49.255
432.39	51.571
432.74	51.047
433.10	51.839
433.45	51.720
433.80	50.610
434.16	51.335
434.51	50.316
434.86	51.026
435.22	51.529
435.57	52.340
435.92	51.375
436.28	51.601
436.63	51.932
436.98	50.944
437.34	51.103
437.69	52.567
438.04	53.120
438.39	51.761
438.75	52.469
439.10	51.453
439.45	50.826
439.81	52.689
440.16	52.739
440.51	52.783
440.86	53.561
441.22	52.113
441.57	53.132
441.92	51.740
442.27	52.314
442.63	51.237
442.98	52.563
443.33	51.848
443.68	52.297
444.03	52.172
444.39	50.925
444.74	52.652
445.09	53.261
445.44	53.144
445.79	52.152
446.15	50.979
446.50	52.450
446.85	52.672
447.20	52.014
447.55	53.155
447.91	52.510
448.26	52.810
448.61	53.307
448.96	53.045
449.31	51.350
449.66	52.504
450.02	52.089
450.37	52.154
450.72	52.510
451.07	51.432
451.42	50.881
451.77	52.965
452.12	52.540
452.47	53.731
452.83	53.788
453.18	52.873
453.53	54.298
453.88	53.337
454.23	53.377
454.58	53.362
454.93	54.355
455.28	52.307
455.63	54.066
455.98	53.631
456.34	53.392
456.69	54.289
457.04	54.799
457.39	53.770
457.74	54.266
458.09	52.559
458.44	53.307
458.79	51.573
459.14	52.765
459.49	53.357
459.84	52.244
460.19	52.445
460.54	50.926
460.89	52.496
461.24	54.402
461.59	53.457
461.94	53.391
462.29	54.243
462.64	52.521
462.99	52.635
463.34	53.333
463.69	52.408
464.04	54.029
464.39	51.826
464.74	52.466
465.09	51.870
465.44	52.078
465.79	51.342
466.14	51.724
466.49	52.336
466.84	51.781
467.19	52.263
467.54	52.312
467.89	52.581
468.24	52.589
468.59	52.259
468.94	52.108
469.29	52.699
469.64	53.079
469.99	53.721
470.34	52.906
470.68	53.305
471.03	52.857
471.38	54.135
471.73	52.165
472.08	52.303
472.43	52.198
472.78	53.983
473.13	51.348
473.48	52.996
473.83	52.195
474.17	51.711
474.52	51.551
474.87	52.481
475.22	51.306
475.57	51.370
475.92	51.885
476.27	51.184
476.61	51.462
476.96	51.622
477.31	50.968
477.66	52.024
478.01	50.653
478.36	51.401
478.70	50.415
479.05	50.692
479.40	51.945
479.75	51.042
480.10	50.547
480.45	50.071
480.79	50.311
481.14	50.881
481.49	50.356
481.84	50.617
482.19	49.841
482.53	50.275
482.88	50.349
483.23	50.794
483.58	49.682
483.92	50.562
484.27	48.715
484.62	50.043
484.97	49.034
485.31	50.137
485.66	48.574
486.01	46.315
486.36	44.135
486.70	43.485
487.05	44.723
487.40	46.195
487.75	46.495
488.09	48.286
488.44	47.999
488.79	49.439
489.13	49.580
489.48	50.449
489.83	48.943
490.17	48.531
490.52	48.184
490.87	49.163
491.22	49.523
491.56	48.292
491.91	49.093
492.26	48.507
492.60	48.249
492.95	47.615
493.30	48.505
493.64	48.903
493.99	47.632
494.34	48.011
494.68	48.626
495.03	49.107
495.37	47.324
495.72	48.928
496.07	49.142
496.41	47.699
496.76	47.142
497.11	47.771
497.45	48.347
497.80	48.321
498.14	47.923
498.49	48.488
498.84	47.939
499.18	48.381
499.53	48.196
499.87	47.577
500.22	47.668
500.56	49.515
500.91	47.500
501.26	47.274
501.60	49.217
501.95	47.296
502.29	48.969
502.64	47.719
502.98	47.920
503.33	47.258
503.67	46.032
504.02	47.240
504.36	46.373
504.71	47.435
505.06	48.000
505.40	46.962
505.75	46.866
506.09	48.299
506.44	47.459
506.78	47.881
507.13	48.309
507.47	47.273
507.82	48.075
508.16	47.872
508.51	48.199
508.85	47.319
509.19	47.449
509.54	47.602
509.88	47.604
510.23	47.661
510.57	47.059
510.92	47.903
511.26	46.763
511.61	47.614
511.95	46.503
512.30	46.819
512.64	48.898
512.98	48.124
513.33	48.501
513.67	47.385
514.02	47.024
514.36	47.570
514.70	48.201
515.05	48.132
515.39	47.504
515.74	48.311
516.08	47.680
516.42	47.947
516.77	48.439
517.11	47.891
517.46	48.533
517.80	48.897
518.14	47.423
518.49	48.833
518.83	47.216
519.17	48.037
519.52	47.538
519.86	47.519
520.20	47.630
520.55	47.935
520.89	49.574
521.23	48.733
521.58	48.860
521.92	48.561
522.26	47.285
522.61	49.034
522.95	47.821
523.29	47.657
523.64	48.537
523.98	47.751
524.32	47.889
524.66	47.264
525.01	47.917
525.35	48.203
525.69	47.352
526.04	47.601
526.38	48.444
526.72	47.730
527.06	48.650
527.41	45.978
527.75	48.939
528.09	48.170
528.43	48.184
528.78	47.634
529.12	45.939
529.46	47.091
529.80	47.958
530.15	48.037
530.49	45.969
530.83	47.468
531.17	47.911
531.51	47.925
531.86	48.774
532.20	48.566
532.54	47.982
532.88	47.176
533.22	46.596
533.57	46.852
533.91	46.057
534.25	46.537
534.59	45.455
534.93	46.222
535.27	45.625
535.62	45.971
535.96	46.893
536.30	46.790
536.64	47.135
536.98	46.782
537.32	47.860
537.66	46.467
538.01	46.017
538.35	45.443
538.69	45.692
539.03	46.199
539.37	45.623
539.71	44.977
540.05	45.425
540.39	46.844
540.73	45.990
541.07	45.879
541.42	46.836
541.76	46.645
542.10	45.731
542.44	46.358
542.78	45.982
543.12	45.042
543.46	45.967
543.80	46.324
544.14	44.544
544.48	46.349
544.82	45.863
545.16	46.519
545.50	45.308
545.84	45.699
546.18	45.185
546.52	45.423
546.86	44.880
547.20	45.448
547.54	45.291
547.88	45.408
548.22	44.271
548.56	44.654
548.90	45.519
549.24	45.589
549.58	45.907
549.92	45.261
550.26	46.591
550.60	45.436
550.94	45.423
551.28	44.916
551.62	46.729
551.96	45.614
552.30	46.553
552.64	45.909
552.98	44.881
553.32	43.965
553.66	46.012
554.00	45.642
554.34	44.375
554.68	46.066
555.02	44.499
555.36	43.981
555.69	45.805
556.03	44.549
556.37	43.383
556.71	44.134
557.05	44.328
557.39	44.507
557.73	44.460
558.07	46.193
558.41	45.876
558.75	45.481
559.08	45.488
559.42	47.317
559.76	44.485
560.10	43.826
560.44	44.165
560.78	43.846
561.12	43.865
561.45	44.589
561.79	43.573
562.13	43.058
562.47	44.604
562.81	45.328
563.15	43.746
563.48	43.037
563.82	43.444
564.16	43.754
564.50	42.904
564.84	42.478
565.17	43.951
565.51	44.153
565.85	43.211
566.19	43.770
566.52	45.028
566.86	42.254
567.20	43.573
567.54	41.610
567.88	42.151
568.21	42.063
568.55	41.860
568.89	41.391
569.23	40.731
569.56	39.919
569.90	39.019
570.24	39.828
570.57	38.966
570.91	38.235
571.25	38.110
571.59	38.144
571.92	37.702
572.26	37.811
572.60	38.979
572.93	38.471
573.27	38.628
573.61	38.414
573.95	38.191
574.28	37.060
574.62	38.095
574.96	37.013
575.29	36.421
575.63	37.271
575.97	37.204
576.30	36.856
576.64	36.619
576.98	37.312
577.31	37.038
577.65	37.025
577.98	36.148
578.32	35.902
578.66	36.101
578.99	36.339
579.33	36.722
579.67	36.487
580.00	36.586
580.34	37.423
580.67	36.894
581.01	37.194
581.35	36.470
581.68	36.470
582.02	35.263
582.35	35.805
582.69	36.365
583.02	35.635
583.36	37.145
583.70	37.338
584.03	37.539
584.37	37.892
584.70	38.532
585.04	36.840
585.37	37.022
585.71	36.466
586.04	36.869
586.38	37.069
586.72	37.586
587.05	36.457
587.39	36.491
587.72	36.795
588.06	37.513
588.39	37.037
588.73	37.665
589.06	37.862
589.40	38.384
589.73	38.754
590.07	37.616
590.40	38.034
590.73	39.188
591.07	39.520
591.40	39.435
591.74	39.264
592.07	38.743
592.41	39.438
592.74	37.079
593.08	37.209
593.41	36.761
593.75	35.478
594.08	37.211
594.41	37.469
594.75	37.819
595.08	37.187
595.42	37.723
595.75	37.464
596.09	39.016
596.42	38.507
596.75	39.004
597.09	39.351
597.42	37.901
597.75	39.759
598.09	38.478
598.42	37.672
598.76	38.184
599.09	37.058
599.42	37.045
599.76	37.116
600.09	36.831
600.42	36.925
600.76	36.679
601.09	37.450
601.42	37.595
601.76	37.571
602.09	36.838
602.42	38.376
602.76	37.646
603.09	37.962
603.42	38.110
603.76	37.119
604.09	37.069
604.42	37.872
604.76	37.663
605.09	38.445
605.42	37.580
605.75	37.086
606.09	37.170
606.42	37.924
606.75	37.910
607.09	37.756
607.42	37.570
607.75	37.595
608.08	37.212
608.42	38.324
608.75	38.503
609.08	38.113
609.41	37.934
609.75	38.018
610.08	38.926
610.41	37.663
610.74	38.269
611.07	39.279
611.41	38.027
611.74	39.869
612.07	39.803
612.40	39.507
612.73	39.421
613.07	39.224
613.40	39.652
613.73	37.861
614.06	39.462
614.39	38.595
614.72	38.474
615.06	38.866
615.39	38.270
615.72	38.446
616.05	38.543
616.38	39.244
616.71	40.143
617.05	40.106
617.38	39.327
617.71	39.580
618.04	39.363
618.37	39.681
618.70	40.635
619.03	40.658
619.36	41.073
619.69	40.493
620.03	41.277
620.36	40.709
620.69	40.274
621.02	42.183
621.35	41.738
621.68	40.888
622.01	41.641
622.34	42.284
622.67	41.521
623.00	41.159
623.33	40.172
623.66	40.529
623.99	41.532
624.32	40.942
624.65	40.819
624.99	39.448
625.32	39.899
625.65	41.548
625.98	41.583
626.31	42.379
626.64	42.041
626.97	42.477
627.30	41.646
627.63	42.986
627.96	43.230
628.29	42.520
628.62	43.275
628.95	44.340
629.28	42.883
629.61	43.263
629.94	42.571
630.26	42.993
630.59	43.565
630.92	43.391
631.25	44.719
631.58	44.144
631.91	44.320
632.24	42.405
632.57	45.226
632.90	43.421
633.23	45.302
