SpectraSuite Data File
++++++++++++++++++++++++++++++++++++
Date: Wed May 13 16:09:22 PDT 2015
User: schluterlab
Dark Spectrum Present: Yes
Reference Spectrum Present: Yes
Number of Sampled Component Spectra: 1
Spectrometers: USB2E3373
Integration Time (usec): 3000 (USB2E3373)
Spectra Averaged: 3 (USB2E3373)
Boxcar Smoothing: 0 (USB2E3373)
Correct for Electrical Dark: No (USB2E3373)
Strobe/Lamp Enabled: No (USB2E3373)
Correct for Detector Non-linearity: No (USB2E3373)
Correct for Stray Light: No (USB2E3373)
Number of Pixels in Processed Spectrum: 2048
>>>>>Begin Processed Spectral Data<<<<<
178.53	0.000
178.91	-925.000
179.29	-1075.000
179.67	-127.778
180.04	-850.000
180.42	1800.000
180.80	860.000
181.18	-1000.000
181.56	328.571
181.94	0.000
182.31	-385.714
182.69	1366.667
183.07	-362.500
183.45	-322.222
183.83	363.636
184.20	-250.000
184.58	1900.000
184.96	3700.000
185.34	-620.000
185.72	-437.500
186.09	-1250.000
186.47	2050.000
186.85	1950.000
187.23	3500.000
187.61	-1133.333
187.98	700.000
188.36	418.182
188.74	354.545
189.12	-680.000
189.49	510.000
189.87	-2200.000
190.25	-800.000
190.63	321.429
191.00	353.846
191.38	600.000
191.76	-1075.000
192.14	1225.000
192.51	512.500
192.89	533.333
193.27	550.000
193.65	-625.000
194.02	330.000
194.40	760.000
194.78	380.000
195.15	400.000
195.53	430.000
195.91	-1100.000
196.29	206.250
196.66	231.579
197.04	-230.000
197.42	0.000
197.79	520.000
198.17	-2900.000
198.55	500.000
198.92	437.500
199.30	740.000
199.68	0.000
200.05	250.000
200.43	614.286
200.81	3200.000
201.18	1400.000
201.56	-1433.333
201.94	355.556
202.31	433.333
202.69	283.333
203.07	360.000
203.44	0.000
203.82	925.000
204.19	528.571
204.57	292.857
204.95	325.000
205.32	900.000
205.70	381.818
206.08	264.286
206.45	1950.000
206.83	300.000
207.20	783.333
207.58	600.000
207.96	233.333
208.33	637.500
208.71	-683.333
209.08	485.714
209.46	422.222
209.84	300.000
210.21	-933.333
210.59	1150.000
210.96	-262.500
211.34	2100.000
211.71	420.000
212.09	383.333
212.46	0.000
212.84	1100.000
213.22	950.000
213.59	-2300.000
213.97	583.333
214.34	485.714
214.72	463.636
215.09	700.000
215.47	-1600.000
215.84	-850.000
216.22	1333.333
216.59	321.429
216.97	925.000
217.34	327.273
217.72	-466.667
218.09	0.000
218.47	-2700.000
218.84	400.000
219.22	557.143
219.59	1300.000
219.97	-442.857
220.34	620.000
220.72	-1100.000
221.09	264.286
221.47	1000.000
221.84	-616.667
222.22	0.000
222.59	975.000
222.97	-1400.000
223.34	820.000
223.72	315.385
224.09	740.000
224.46	1600.000
224.84	-3500.000
225.21	-760.000
225.59	-3800.000
225.96	440.000
226.34	215.000
226.71	1900.000
227.08	525.000
227.46	370.000
227.83	-900.000
228.21	-1600.000
228.58	522.222
228.95	-1550.000
229.33	-1250.000
229.70	966.667
230.08	642.857
230.45	-680.000
230.82	266.667
231.20	616.667
231.57	442.857
231.95	350.000
232.32	186.364
232.69	318.182
233.07	528.571
233.44	261.538
233.81	-1400.000
234.19	231.579
234.56	441.667
234.93	266.667
235.31	390.909
235.68	246.154
236.05	285.714
236.43	166.667
236.80	194.737
237.17	2800.000
237.55	161.905
237.92	196.429
238.29	238.095
238.67	158.065
239.04	165.517
239.41	125.000
239.79	104.348
240.16	111.905
240.53	129.545
240.91	107.843
241.28	84.000
241.65	88.000
242.02	86.957
242.40	85.484
242.77	78.333
243.14	81.720
243.51	77.528
243.89	68.235
244.26	62.222
244.63	65.591
245.00	60.638
245.38	66.337
245.75	52.336
246.12	58.716
246.49	56.204
246.87	65.600
247.24	66.154
247.61	64.286
247.98	50.327
248.36	52.703
248.73	56.688
249.10	59.236
249.47	54.237
249.84	54.545
250.22	45.989
250.59	51.479
250.96	53.030
251.33	49.289
251.70	54.950
252.08	52.857
252.45	47.982
252.82	41.304
253.19	45.957
253.56	44.706
253.94	49.793
254.31	45.703
254.68	50.000
255.05	44.280
255.42	49.593
255.79	44.853
256.16	48.014
256.54	42.403
256.91	43.772
257.28	38.849
257.65	40.924
258.02	41.925
258.39	41.009
258.76	43.478
259.14	44.345
259.51	41.641
259.88	38.820
260.25	41.692
260.62	39.017
260.99	39.441
261.36	41.742
261.73	40.974
262.10	41.860
262.47	41.690
262.85	40.390
263.22	39.601
263.59	41.595
263.96	40.659
264.33	39.687
264.70	41.579
265.07	42.711
265.44	41.667
265.81	39.416
266.18	41.206
266.55	40.244
266.92	38.084
267.29	39.583
267.66	36.239
268.03	38.182
268.40	37.617
268.77	35.084
269.14	39.189
269.51	37.698
269.88	40.559
270.25	38.375
270.62	37.528
270.99	41.290
271.36	37.768
271.73	40.187
272.10	37.391
272.47	40.645
272.84	37.013
273.21	41.929
273.58	38.428
273.95	36.059
274.32	34.298
274.69	38.330
275.06	34.843
275.43	36.596
275.80	34.068
276.17	38.493
276.54	37.214
276.91	37.154
277.28	35.156
277.65	37.718
278.02	38.509
278.39	38.477
278.76	35.455
279.13	37.547
279.50	37.430
279.87	36.056
280.23	35.729
280.60	37.911
280.97	37.338
281.34	37.522
281.71	36.545
282.08	37.428
282.45	34.545
282.82	33.925
283.19	32.620
283.56	33.860
283.92	34.179
284.29	33.157
284.66	32.668
285.03	35.081
285.40	32.394
285.77	34.680
286.14	34.197
286.51	33.167
286.87	34.701
287.24	35.179
287.61	32.905
287.98	34.416
288.35	32.013
288.72	31.620
289.08	33.959
289.45	31.960
289.82	34.309
290.19	30.769
290.56	33.231
290.93	29.456
291.29	30.828
291.66	30.973
292.03	31.831
292.40	33.186
292.77	29.290
293.13	28.209
293.50	30.612
293.87	28.889
294.24	29.037
294.60	30.859
294.97	29.797
295.34	30.042
295.71	28.267
296.08	27.493
296.44	28.886
296.81	26.420
297.18	29.675
297.55	26.385
297.91	26.649
298.28	28.782
298.65	28.329
299.02	27.536
299.38	25.232
299.75	25.606
300.12	27.714
300.48	26.250
300.85	25.894
301.22	26.752
301.59	26.136
301.95	24.811
302.32	25.032
302.69	27.240
303.05	24.970
303.42	25.802
303.79	25.595
304.15	25.058
304.52	23.291
304.89	25.203
305.25	24.246
305.62	25.481
305.99	23.731
306.35	25.391
306.72	25.224
307.09	24.861
307.45	26.351
307.82	23.661
308.19	25.166
308.55	24.703
308.92	25.456
309.29	24.076
309.65	23.012
310.02	24.841
310.38	25.484
310.75	24.287
311.12	22.723
311.48	24.347
311.85	24.214
312.22	24.558
312.58	23.805
312.95	24.182
313.31	23.204
313.68	23.597
314.05	25.542
314.41	23.719
314.78	24.068
315.14	22.840
315.51	24.717
315.87	25.149
316.24	23.635
316.61	23.392
316.97	24.070
317.34	23.973
317.70	24.570
318.07	23.292
318.43	23.679
318.80	23.899
319.16	24.388
319.53	23.077
319.89	25.143
320.26	25.000
320.62	23.115
320.99	24.141
321.35	24.747
321.72	24.846
322.08	25.173
322.45	25.672
322.81	25.000
323.18	24.374
323.54	24.583
323.91	23.774
324.27	23.901
324.64	24.138
325.00	23.805
325.37	23.021
325.73	23.878
326.10	23.919
326.46	22.670
326.83	24.676
327.19	22.886
327.56	23.432
327.92	24.934
328.29	24.312
328.65	25.599
329.01	23.556
329.38	23.312
329.74	23.638
330.11	24.222
330.47	23.140
330.84	24.081
331.20	23.042
331.56	23.394
331.93	22.963
332.29	22.094
332.66	23.274
333.02	23.126
333.38	23.668
333.75	23.084
334.11	22.776
334.48	22.715
334.84	22.059
335.20	22.636
335.57	22.847
335.93	21.339
336.29	22.253
336.66	22.904
337.02	21.810
337.38	22.315
337.75	21.569
338.11	21.665
338.47	21.731
338.84	22.456
339.20	20.734
339.56	22.993
339.93	22.364
340.29	22.192
340.65	20.856
341.02	21.291
341.38	22.865
341.74	22.368
342.11	22.271
342.47	21.233
342.83	22.260
343.20	22.771
343.56	21.651
343.92	21.930
344.28	21.939
344.65	22.184
345.01	21.549
345.37	21.184
345.73	21.997
346.10	21.739
346.46	21.695
346.82	22.241
347.19	20.718
347.55	22.250
347.91	22.573
348.27	22.350
348.63	22.324
349.00	20.146
349.36	20.525
349.72	21.812
350.08	21.232
350.45	20.749
350.81	20.796
351.17	21.394
351.53	21.130
351.89	21.205
352.26	21.231
352.62	20.609
352.98	20.502
353.34	20.542
353.70	20.213
354.07	21.452
354.43	20.397
354.79	20.434
355.15	20.271
355.51	21.982
355.87	20.980
356.24	21.987
356.60	20.048
356.96	20.595
357.32	21.014
357.68	21.024
358.04	19.240
358.40	20.269
358.77	21.127
359.13	20.205
359.49	19.843
359.85	20.079
360.21	19.537
360.57	21.012
360.93	21.308
361.29	19.803
361.66	19.737
362.02	20.373
362.38	20.152
362.74	20.536
363.10	20.059
363.46	20.029
363.82	19.652
364.18	20.191
364.54	21.842
364.90	19.830
365.26	20.221
365.62	19.795
365.98	19.503
366.35	19.413
366.71	20.752
367.07	21.049
367.43	19.448
367.79	19.914
368.15	21.193
368.51	19.259
368.87	20.485
369.23	19.312
369.59	20.637
369.95	19.706
370.31	20.798
370.67	18.913
371.03	20.375
371.39	20.262
371.75	19.412
372.11	19.488
372.47	21.114
372.83	20.533
373.19	18.714
373.55	20.177
373.91	20.766
374.27	19.519
374.63	19.491
374.99	19.774
375.35	19.121
375.71	19.602
376.07	20.096
376.42	19.807
376.78	20.080
377.14	19.199
377.50	20.331
377.86	19.548
378.22	20.607
378.58	19.674
378.94	19.736
379.30	18.511
379.66	20.051
380.02	20.762
380.38	19.247
380.74	20.048
381.09	19.315
381.45	20.037
381.81	20.147
382.17	20.064
382.53	19.497
382.89	20.247
383.25	19.450
383.61	20.880
383.97	19.512
384.32	20.212
384.68	19.393
385.04	20.221
385.40	19.381
385.76	19.410
386.12	19.365
386.48	20.327
386.83	20.205
387.19	20.532
387.55	20.099
387.91	19.770
388.27	19.252
388.62	19.975
388.98	19.656
389.34	20.275
389.70	19.559
390.06	20.152
390.42	20.298
390.77	20.929
391.13	21.059
391.49	19.860
391.85	20.242
392.20	19.243
392.56	20.013
392.92	20.541
393.28	19.053
393.64	19.664
393.99	19.487
394.35	20.037
394.71	19.511
395.07	19.813
395.42	20.705
395.78	20.420
396.14	20.732
396.50	21.429
396.85	20.661
397.21	20.099
397.57	20.211
397.92	19.952
398.28	19.114
398.64	19.833
399.00	19.698
399.35	19.628
399.71	19.387
400.07	20.698
400.42	21.043
400.78	20.567
401.14	19.939
401.49	20.358
401.85	19.359
402.21	19.222
402.57	20.296
402.92	19.609
403.28	20.550
403.63	20.111
403.99	20.637
404.35	20.242
404.70	19.664
405.06	18.695
405.42	20.087
405.77	19.429
406.13	18.962
406.49	20.166
406.84	19.965
407.20	19.444
407.55	19.783
407.91	19.933
408.27	20.294
408.62	19.506
408.98	19.792
409.34	20.111
409.69	20.065
410.05	19.393
410.40	20.000
410.76	19.176
411.11	19.361
411.47	20.639
411.83	19.120
412.18	19.233
412.54	19.614
412.89	19.458
413.25	19.126
413.60	20.259
413.96	19.794
414.31	20.109
414.67	19.518
415.03	18.344
415.38	19.588
415.74	20.386
416.09	20.640
416.45	19.344
416.80	19.696
417.16	20.912
417.51	19.841
417.87	19.011
418.22	19.243
418.58	20.142
418.93	19.717
419.29	19.669
419.64	20.781
420.00	19.634
420.35	20.290
420.71	20.263
421.06	19.451
421.42	20.058
421.77	20.572
422.12	18.754
422.48	18.942
422.83	20.093
423.19	19.779
423.54	19.269
423.90	20.116
424.25	20.324
424.61	18.988
424.96	19.708
425.31	19.158
425.67	18.371
426.02	19.429
426.38	19.231
426.73	19.368
427.09	19.757
427.44	19.839
427.79	19.206
428.15	20.238
428.50	20.655
428.85	19.726
429.21	19.713
429.56	19.025
429.92	19.024
430.27	19.315
430.62	19.355
430.98	19.564
431.33	19.691
431.68	19.895
432.04	19.595
432.39	20.331
432.74	20.586
433.10	20.374
433.45	20.000
433.80	18.958
434.16	19.017
434.51	19.316
434.86	19.840
435.22	19.177
435.57	20.122
435.92	18.607
436.28	20.344
436.63	20.033
436.98	20.149
437.34	20.334
437.69	19.778
438.04	19.618
438.39	19.642
438.75	20.279
439.10	19.944
439.45	20.071
439.81	19.879
440.16	19.650
440.51	18.922
440.86	19.629
441.22	19.967
441.57	19.374
441.92	19.601
442.27	20.129
442.63	19.589
442.98	20.169
443.33	19.891
443.68	18.947
444.03	19.815
444.39	19.572
444.74	20.130
445.09	19.946
445.44	19.081
445.79	19.198
446.15	19.269
446.50	19.117
446.85	20.041
447.20	19.378
447.55	20.156
447.91	19.581
448.26	19.588
448.61	19.503
448.96	20.321
449.31	20.866
449.66	19.696
450.02	19.889
450.37	19.048
450.72	20.248
451.07	19.500
451.42	18.723
451.77	20.435
452.12	19.861
452.47	20.522
452.83	19.639
453.18	19.927
453.53	19.666
453.88	19.374
454.23	20.203
454.58	20.654
454.93	21.424
455.28	19.451
455.63	19.842
455.98	20.774
456.34	19.975
456.69	19.662
457.04	20.681
457.39	19.521
457.74	20.546
458.09	19.551
458.44	19.669
458.79	18.709
459.14	20.203
459.49	19.965
459.84	19.612
460.19	19.505
460.54	19.387
460.89	19.967
461.24	20.644
461.59	20.453
461.94	19.975
462.29	20.178
462.64	20.230
462.99	19.388
463.34	21.333
463.69	20.075
464.04	21.043
464.39	20.638
464.74	20.618
465.09	20.024
465.44	19.889
465.79	18.792
466.14	19.650
466.49	18.910
466.84	20.082
467.19	20.278
467.54	21.000
467.89	20.348
468.24	20.477
468.59	20.879
468.94	20.098
469.29	20.051
469.64	20.616
469.99	20.974
470.34	19.155
470.68	19.971
471.03	20.952
471.38	20.987
471.73	20.453
472.08	21.382
472.43	20.101
472.78	20.408
473.13	19.897
473.48	20.162
473.83	19.451
474.17	19.913
474.52	20.471
474.87	20.899
475.22	19.211
475.57	19.774
475.92	19.490
476.27	19.617
476.61	20.518
476.96	20.011
477.31	20.042
477.66	19.803
478.01	19.760
478.36	19.831
478.70	19.730
479.05	20.128
479.40	19.703
479.75	20.132
480.10	19.135
480.45	19.372
480.79	19.016
481.14	19.961
481.49	19.886
481.84	19.936
482.19	19.718
482.53	20.413
482.88	20.475
483.23	19.953
483.58	20.018
483.92	20.431
484.27	18.736
484.62	20.043
484.97	18.999
485.31	19.555
485.66	18.928
486.01	17.704
486.36	16.758
486.70	16.746
487.05	17.456
487.40	17.773
487.75	17.442
488.09	18.532
488.44	18.813
488.79	19.204
489.13	19.557
489.48	19.657
489.83	19.335
490.17	19.728
490.52	19.929
490.87	19.313
491.22	19.600
491.56	18.907
491.91	19.823
492.26	18.787
492.60	19.862
492.95	19.224
493.30	20.327
493.64	19.552
493.99	19.313
494.34	19.426
494.68	19.643
495.03	20.160
495.37	19.125
495.72	19.493
496.07	20.046
496.41	19.558
496.76	19.173
497.11	19.451
497.45	19.888
497.80	20.010
498.14	19.227
498.49	19.756
498.84	19.847
499.18	19.762
499.53	19.896
499.87	19.152
500.22	19.736
500.56	20.146
500.91	19.423
501.26	19.346
501.60	19.364
501.95	19.294
502.29	19.447
502.64	20.112
502.98	19.963
503.33	19.835
503.67	20.371
504.02	19.785
504.36	19.747
504.71	19.980
505.06	19.663
505.40	20.175
505.75	19.624
506.09	20.214
506.44	19.832
506.78	20.166
507.13	20.141
507.47	20.101
507.82	20.415
508.16	20.517
508.51	20.345
508.85	20.060
509.19	20.102
509.54	20.000
509.88	20.196
510.23	20.566
510.57	20.433
510.92	20.663
511.26	20.658
511.61	19.969
511.95	19.520
512.30	19.989
512.64	20.580
512.98	21.115
513.33	20.878
513.67	21.131
514.02	19.859
514.36	20.371
514.70	20.642
515.05	20.245
515.39	21.368
515.74	20.327
516.08	21.185
516.42	21.143
516.77	20.792
517.11	20.477
517.46	21.219
517.80	20.383
518.14	20.440
518.49	21.295
518.83	20.852
519.17	20.901
519.52	20.939
519.86	21.677
520.20	21.329
520.55	20.946
520.89	21.290
521.23	20.929
521.58	20.948
521.92	21.433
522.26	20.561
522.61	20.623
522.95	21.793
523.29	21.546
523.64	21.159
523.98	21.319
524.32	21.532
524.66	20.926
525.01	20.772
525.35	21.375
525.69	21.244
526.04	21.745
526.38	21.721
526.72	20.307
527.06	21.281
527.41	21.040
527.75	22.186
528.09	22.094
528.43	21.734
528.78	21.512
529.12	20.424
529.46	21.494
529.80	20.854
530.15	21.308
530.49	21.600
530.83	22.405
531.17	21.606
531.51	21.855
531.86	21.290
532.20	22.816
532.54	22.357
532.88	21.502
533.22	21.799
533.57	21.111
533.91	20.771
534.25	21.689
534.59	20.439
534.93	21.416
535.27	21.666
535.62	21.368
535.96	21.406
536.30	20.725
536.64	21.185
536.98	21.500
537.32	21.330
537.66	22.067
538.01	21.593
538.35	20.879
538.69	22.080
539.03	20.663
539.37	20.128
539.71	20.285
540.05	21.111
540.39	21.595
540.73	21.669
541.07	22.193
541.42	21.592
541.76	21.419
542.10	21.345
542.44	21.258
542.78	21.871
543.12	21.177
543.46	22.295
543.80	21.731
544.14	20.282
544.48	21.270
544.82	20.975
545.16	20.885
545.50	20.887
545.84	21.237
546.18	21.481
546.52	21.679
546.86	22.062
547.20	22.387
547.54	21.844
547.88	21.747
548.22	21.669
548.56	20.189
548.90	19.782
549.24	20.808
549.58	22.647
549.92	21.154
550.26	21.946
550.60	21.923
550.94	21.690
551.28	21.800
551.62	22.933
551.96	20.772
552.30	22.662
552.64	21.839
552.98	21.559
553.32	20.904
553.66	21.881
554.00	21.620
554.34	21.394
554.68	21.960
555.02	21.721
555.36	21.642
555.69	21.448
556.03	21.198
556.37	21.896
556.71	21.487
557.05	21.218
557.39	22.533
557.73	20.960
558.07	22.190
558.41	21.852
558.75	21.896
559.08	22.297
559.42	22.902
559.76	21.985
560.10	21.342
560.44	21.523
560.78	21.623
561.12	21.438
561.45	21.773
561.79	21.160
562.13	21.730
562.47	21.995
562.81	22.036
563.15	20.870
563.48	21.950
563.82	21.526
564.16	21.714
564.50	21.289
564.84	21.808
565.17	21.236
565.51	21.597
565.85	21.066
566.19	20.225
566.52	20.836
566.86	20.796
567.20	21.698
567.54	21.918
567.88	19.989
568.21	21.058
568.55	20.627
568.89	20.477
569.23	19.697
569.56	20.040
569.90	19.170
570.24	19.340
570.57	18.871
570.91	18.681
571.25	18.808
571.59	18.380
571.92	18.318
572.26	19.035
572.60	18.859
572.93	18.561
573.27	18.900
573.61	19.068
573.95	18.656
574.28	18.090
574.62	18.100
574.96	18.041
575.29	17.919
575.63	18.293
575.97	18.381
576.30	18.561
576.64	18.448
576.98	18.328
577.31	18.276
577.65	18.371
577.98	18.195
578.32	17.871
578.66	17.589
578.99	18.078
579.33	17.913
579.67	17.636
580.00	18.149
580.34	18.320
580.67	18.435
581.01	18.080
581.35	18.347
581.68	17.891
582.02	17.894
582.35	17.505
582.69	17.927
583.02	17.954
583.36	18.054
583.70	18.581
584.03	18.652
584.37	18.814
584.70	18.339
585.04	18.224
585.37	17.987
585.71	18.891
586.04	18.265
586.38	18.574
586.72	18.862
587.05	18.392
587.39	17.916
587.72	18.552
588.06	17.983
588.39	18.381
588.73	18.216
589.06	18.822
589.40	19.226
589.73	19.430
590.07	19.039
590.40	18.414
590.73	19.555
591.07	19.007
591.40	19.570
591.74	20.260
592.07	19.328
592.41	19.347
592.74	19.401
593.08	18.488
593.41	18.222
593.75	17.302
594.08	18.639
594.41	18.664
594.75	18.891
595.08	18.325
595.42	19.440
595.75	19.053
596.09	19.377
596.42	19.450
596.75	19.502
597.09	19.913
597.42	18.676
597.75	19.017
598.09	19.783
598.42	19.115
598.76	18.646
599.09	18.358
599.42	18.559
599.76	18.521
600.09	18.579
600.42	17.677
600.76	18.250
601.09	18.033
601.42	18.379
601.76	18.975
602.09	19.249
602.42	19.068
602.76	19.347
603.09	19.197
603.42	19.680
603.76	18.712
604.09	18.845
604.42	18.875
604.76	19.401
605.09	18.698
605.42	19.153
605.75	18.874
606.09	19.073
606.42	19.085
606.75	19.743
607.09	18.878
607.42	19.127
607.75	18.439
608.08	18.150
608.42	19.139
608.75	19.297
609.08	19.288
609.41	19.419
609.75	19.057
610.08	19.510
610.41	18.203
610.74	18.070
611.07	19.417
611.41	20.167
611.74	20.060
612.07	20.031
612.40	19.990
612.73	19.053
613.07	19.774
613.40	19.273
613.73	19.192
614.06	19.462
614.39	18.878
614.72	19.684
615.06	19.958
615.39	18.577
615.72	19.479
616.05	19.139
616.38	19.122
616.71	20.368
617.05	20.318
617.38	19.423
617.71	20.060
618.04	20.192
618.37	20.166
618.70	19.353
619.03	20.000
619.36	20.299
619.69	21.479
620.03	21.635
620.36	20.455
620.69	19.932
621.02	21.460
621.35	20.987
621.68	20.483
622.01	20.433
622.34	21.407
622.67	20.989
623.00	20.029
623.33	20.229
623.66	21.015
623.99	20.177
624.32	20.114
624.65	21.045
624.99	19.972
625.32	21.144
625.65	20.661
625.98	21.368
626.31	21.229
626.64	22.122
626.97	21.197
627.30	21.696
627.63	21.739
627.96	20.858
628.29	22.310
628.62	22.141
628.95	23.585
629.28	22.354
629.61	22.273
629.94	21.333
630.26	21.830
630.59	21.354
630.92	22.222
631.25	23.100
