SpectraSuite Data File
++++++++++++++++++++++++++++++++++++
Date: Wed May 13 16:13:33 PDT 2015
User: schluterlab
Dark Spectrum Present: Yes
Reference Spectrum Present: Yes
Number of Sampled Component Spectra: 1
Spectrometers: USB2E3373
Integration Time (usec): 3000 (USB2E3373)
Spectra Averaged: 3 (USB2E3373)
Boxcar Smoothing: 0 (USB2E3373)
Correct for Electrical Dark: No (USB2E3373)
Strobe/Lamp Enabled: No (USB2E3373)
Correct for Detector Non-linearity: No (USB2E3373)
Correct for Stray Light: No (USB2E3373)
Number of Pixels in Processed Spectrum: 2048
>>>>>Begin Processed Spectral Data<<<<<
178.53	0.000
178.91	-1125.000
179.29	-925.000
179.67	-172.222
180.04	-1075.000
180.42	2050.000
180.80	820.000
181.18	-675.000
181.56	514.286
181.94	0.000
182.31	-428.571
182.69	1266.667
183.07	-375.000
183.45	-411.111
183.83	481.818
184.20	-350.000
184.58	1700.000
184.96	4400.000
185.34	-680.000
185.72	-487.500
186.09	-2000.000
186.47	1950.000
186.85	1900.000
187.23	4300.000
187.61	-1200.000
187.98	1175.000
188.36	527.273
188.74	390.909
189.12	-780.000
189.49	410.000
189.87	-3200.000
190.25	-925.000
190.63	314.286
191.00	361.538
191.38	700.000
191.76	-875.000
192.14	1125.000
192.51	462.500
192.89	650.000
193.27	487.500
193.65	-875.000
194.02	420.000
194.40	600.000
194.78	430.000
195.15	425.000
195.53	460.000
195.91	-1050.000
196.29	312.500
196.66	247.368
197.04	-260.000
197.42	0.000
197.79	510.000
198.17	-3500.000
198.55	485.714
198.92	475.000
199.30	660.000
199.68	0.000
200.05	216.667
200.43	614.286
200.81	3300.000
201.18	1466.667
201.56	-900.000
201.94	388.889
202.31	466.667
202.69	383.333
203.07	410.000
203.44	0.000
203.82	1100.000
204.19	671.429
204.57	378.571
204.95	550.000
205.32	1700.000
205.70	409.091
206.08	321.429
206.45	1500.000
206.83	281.250
207.20	783.333
207.58	520.000
207.96	305.556
208.33	650.000
208.71	-516.667
209.08	500.000
209.46	488.889
209.84	381.818
210.21	-1100.000
210.59	1275.000
210.96	-487.500
211.34	1600.000
211.71	500.000
212.09	450.000
212.46	0.000
212.84	1300.000
213.22	1300.000
213.59	-2800.000
213.97	683.333
214.34	585.714
214.72	481.818
215.09	740.000
215.47	-1500.000
215.84	-1900.000
216.22	1400.000
216.59	321.429
216.97	925.000
217.34	381.818
217.72	-550.000
218.09	0.000
218.47	-3600.000
218.84	455.556
219.22	571.429
219.59	1433.333
219.97	-514.286
220.34	760.000
220.72	-1500.000
221.09	292.857
221.47	1250.000
221.84	-733.333
222.22	0.000
222.59	875.000
222.97	-1800.000
223.34	840.000
223.72	369.231
224.09	1000.000
224.46	1750.000
224.84	-4400.000
225.21	-660.000
225.59	-4500.000
225.96	450.000
226.34	270.000
226.71	2000.000
227.08	525.000
227.46	490.000
227.83	-700.000
228.21	-2000.000
228.58	544.444
228.95	-1700.000
229.33	-1700.000
229.70	1533.333
230.08	657.143
230.45	-680.000
230.82	341.667
231.20	650.000
231.57	528.571
231.95	383.333
232.32	200.000
232.69	245.455
233.07	628.571
233.44	253.846
233.81	-1366.667
234.19	300.000
234.56	391.667
234.93	241.667
235.31	409.091
235.68	269.231
236.05	271.429
236.43	142.424
236.80	205.263
237.17	4100.000
237.55	214.286
237.92	182.143
238.29	228.571
238.67	167.742
239.04	189.655
239.41	144.444
239.79	108.696
240.16	128.571
240.53	120.455
240.91	84.314
241.28	100.000
241.65	104.000
242.02	89.855
242.40	88.710
242.77	75.000
243.14	79.570
243.51	84.270
243.89	72.941
244.26	60.000
244.63	74.194
245.00	71.277
245.38	70.297
245.75	71.028
246.12	63.303
246.49	64.964
246.87	68.000
247.24	62.308
247.61	58.571
247.98	60.131
248.36	56.757
248.73	56.688
249.10	59.236
249.47	55.367
249.84	52.406
250.22	50.267
250.59	54.438
250.96	51.010
251.33	48.341
251.70	50.495
252.08	48.571
252.45	46.637
252.82	46.522
253.19	48.085
253.56	46.667
253.94	46.888
254.31	42.187
254.68	48.077
255.05	46.125
255.42	46.341
255.79	47.794
256.16	46.209
256.54	40.636
256.91	49.110
257.28	45.324
257.65	42.904
258.02	42.547
258.39	42.902
258.76	44.147
259.14	41.964
259.51	39.818
259.88	41.304
260.25	42.598
260.62	40.751
260.99	39.130
261.36	42.342
261.73	38.395
262.10	38.953
262.47	40.563
262.85	38.997
263.22	40.171
263.59	47.578
263.96	40.385
264.33	38.903
264.70	38.684
265.07	41.688
265.44	41.919
265.81	37.470
266.18	40.452
266.55	38.049
266.92	39.312
267.29	38.426
267.66	39.220
268.03	40.227
268.40	36.916
268.77	38.663
269.14	38.288
269.51	34.537
269.88	39.860
270.25	41.084
270.62	37.079
270.99	39.355
271.36	41.631
271.73	38.785
272.10	39.783
272.47	38.925
272.84	37.013
273.21	37.107
273.58	35.371
273.95	36.268
274.32	38.223
274.69	38.758
275.06	34.646
275.43	37.234
275.80	36.072
276.17	36.456
276.54	38.877
276.91	36.957
277.28	35.352
277.65	36.750
278.02	37.474
278.39	39.258
278.76	36.909
279.13	39.623
279.50	36.127
279.87	35.657
280.23	34.331
280.60	38.104
280.97	34.566
281.34	36.283
281.71	36.364
282.08	36.468
282.45	32.545
282.82	36.945
283.19	34.581
283.56	35.439
283.92	32.826
284.29	35.097
284.66	34.846
285.03	33.996
285.40	34.507
285.77	34.848
286.14	34.024
286.51	34.667
286.87	32.821
287.24	36.808
287.61	33.547
287.98	33.279
288.35	32.964
288.72	31.620
289.08	31.455
289.45	31.466
289.82	31.870
290.19	29.042
290.56	32.159
290.93	31.118
291.29	31.595
291.66	30.826
292.03	32.703
292.40	32.599
292.77	30.917
293.13	31.343
293.50	29.446
293.87	31.111
294.24	30.370
294.60	28.821
294.97	28.198
295.34	29.760
295.71	29.403
296.08	27.493
296.44	29.436
296.81	29.458
297.18	29.675
297.55	29.024
297.91	26.913
298.28	31.727
298.65	28.721
299.02	29.381
299.38	28.154
299.75	25.741
300.12	27.331
300.48	29.500
300.85	29.223
301.22	28.153
301.59	26.641
301.95	26.574
302.32	28.241
302.69	27.240
303.05	26.182
303.42	27.531
303.79	26.274
304.15	27.273
304.52	25.029
304.89	27.758
305.25	25.058
305.62	28.199
305.99	26.328
306.35	27.405
306.72	29.036
307.09	28.191
307.45	28.153
307.82	26.116
308.19	29.470
308.55	29.018
308.92	27.282
309.29	28.300
309.65	27.147
310.02	27.696
310.38	27.957
310.75	28.828
311.12	29.273
311.48	29.363
311.85	29.455
312.22	27.263
312.58	29.106
312.95	29.567
313.31	27.961
313.68	29.730
314.05	29.882
314.41	30.553
314.78	30.514
315.14	29.593
315.51	31.514
315.87	31.881
316.24	31.182
316.61	31.481
316.97	32.779
317.34	30.137
317.70	33.174
318.07	33.782
318.43	33.072
318.80	33.177
319.16	33.145
319.53	32.739
319.89	35.524
320.26	35.500
320.62	36.409
320.99	35.960
321.35	35.152
321.72	36.961
322.08	37.216
322.45	39.502
322.81	38.857
323.18	39.981
323.54	38.961
323.91	39.151
324.27	41.396
324.64	41.473
325.00	41.839
325.37	44.040
325.73	44.973
326.10	43.601
326.46	44.624
326.83	47.023
327.19	46.798
327.56	48.084
327.92	47.769
328.29	50.133
328.65	48.987
329.01	48.375
329.38	49.399
329.74	49.307
330.11	49.482
330.47	52.433
330.84	51.195
331.20	51.093
331.56	51.651
331.93	51.667
332.29	51.464
332.66	52.212
333.02	51.828
333.38	52.575
333.75	53.743
334.11	51.423
334.48	52.706
334.84	53.401
335.20	53.455
335.57	52.584
335.93	49.821
336.29	54.487
336.66	53.922
337.02	52.036
337.38	53.796
337.75	52.585
338.11	52.910
338.47	53.499
338.84	53.437
339.20	52.936
339.56	54.015
339.93	51.727
340.29	53.895
340.65	52.496
341.02	54.276
341.38	54.181
341.74	54.035
342.11	53.013
342.47	54.361
342.83	53.425
343.20	53.939
343.56	52.148
343.92	54.211
344.28	54.167
344.65	53.224
345.01	52.189
345.37	52.058
345.73	53.384
346.10	52.771
346.46	53.305
346.82	53.377
347.19	54.470
347.55	51.149
347.91	52.994
348.27	54.067
348.63	52.425
349.00	53.479
349.36	52.956
349.72	51.403
350.08	51.540
350.45	54.190
350.81	52.640
351.17	53.241
351.53	53.645
351.89	52.558
352.26	53.828
352.62	52.767
352.98	51.297
353.34	53.410
353.70	52.864
354.07	52.823
354.43	53.254
354.79	51.891
355.15	52.434
355.51	53.237
355.87	53.551
356.24	54.479
356.60	51.804
356.96	55.270
357.32	54.047
357.68	54.331
358.04	52.336
358.40	52.969
358.77	54.225
359.13	53.275
359.49	52.471
359.85	52.857
360.21	53.828
360.57	53.463
360.93	53.385
361.29	52.003
361.66	52.477
362.02	54.403
362.38	53.992
362.74	54.241
363.10	52.110
363.46	52.458
363.82	53.515
364.18	53.377
364.54	55.126
364.90	53.612
365.26	53.971
365.62	53.251
365.98	52.593
366.35	52.722
366.71	54.085
367.07	55.499
367.43	53.411
367.79	55.246
368.15	55.532
368.51	53.852
368.87	54.104
369.23	55.596
369.59	55.395
369.95	54.706
370.31	54.843
370.67	54.638
371.03	54.607
371.39	54.446
371.75	55.515
372.11	53.770
372.47	55.425
372.83	56.628
373.19	55.564
373.55	56.319
373.91	56.186
374.27	54.570
374.63	56.218
374.99	56.003
375.35	55.129
375.71	55.449
376.07	56.790
376.42	55.158
376.78	56.461
377.14	55.970
377.50	56.755
377.86	56.782
378.22	55.436
378.58	56.203
378.94	56.442
379.30	55.534
379.66	56.155
380.02	56.818
380.38	56.223
380.74	57.263
381.09	56.785
381.45	57.099
381.81	56.081
382.17	58.025
382.53	56.478
382.89	57.901
383.25	57.724
383.61	58.364
383.97	56.285
384.32	55.770
384.68	57.435
385.04	58.697
385.40	57.771
385.76	57.862
386.12	57.642
386.48	58.527
386.83	59.012
387.19	58.627
387.55	58.071
387.91	57.678
388.27	58.614
388.62	58.451
388.98	57.985
389.34	57.697
389.70	56.836
390.06	57.795
390.42	58.366
390.77	58.524
391.13	58.711
391.49	57.931
391.85	57.097
392.20	57.098
392.56	58.649
392.92	58.858
393.28	57.456
393.64	57.734
393.99	57.239
394.35	57.382
394.71	57.152
395.07	56.262
395.42	58.282
395.78	57.761
396.14	56.921
396.50	58.083
396.85	58.360
397.21	58.076
397.57	57.161
397.92	57.091
398.28	56.951
398.64	57.885
399.00	57.862
399.35	57.473
399.71	57.176
400.07	56.949
400.42	57.117
400.78	56.876
401.14	57.317
401.49	57.493
401.85	56.806
402.21	56.347
402.57	55.953
402.92	57.629
403.28	57.089
403.63	56.869
403.99	57.834
404.35	57.394
404.70	55.995
405.06	56.086
405.42	56.706
405.77	56.114
406.13	55.135
406.49	55.056
406.84	54.519
407.20	54.610
407.55	56.158
407.91	57.067
408.27	56.158
408.62	54.425
408.98	56.250
409.34	55.843
409.69	56.065
410.05	55.700
410.40	55.596
410.76	54.540
411.11	55.609
411.47	55.272
411.83	56.323
412.18	54.731
412.54	55.230
412.89	54.458
413.25	54.545
413.60	54.416
413.96	53.795
414.31	55.225
414.67	55.323
415.03	55.629
415.38	54.768
415.74	54.534
416.09	56.172
416.45	54.953
416.80	55.056
417.16	55.898
417.51	56.669
417.87	55.170
418.22	55.394
418.58	56.101
418.93	55.528
419.29	54.997
419.64	55.856
420.00	55.610
420.35	55.304
420.71	55.290
421.06	53.819
421.42	54.327
421.77	54.316
422.12	54.969
422.48	54.776
422.83	54.164
423.19	54.862
423.54	54.324
423.90	54.899
424.25	54.216
424.61	54.286
424.96	55.743
425.31	55.316
425.67	53.539
426.02	55.543
426.38	55.861
426.73	54.710
427.09	55.015
427.44	55.377
427.79	55.204
428.15	55.119
428.50	54.242
428.85	54.410
429.21	54.832
429.56	54.743
429.92	54.655
430.27	55.362
430.62	55.146
430.98	54.645
431.33	54.536
431.68	55.550
432.04	53.035
432.39	55.854
432.74	53.860
433.10	56.254
433.45	54.985
433.80	55.100
434.16	54.808
434.51	54.368
434.86	54.048
435.22	55.920
435.57	56.231
435.92	55.295
436.28	55.991
436.63	55.298
436.98	54.951
437.34	55.039
437.69	55.309
438.04	55.312
438.39	55.642
438.75	56.014
439.10	55.475
439.45	55.785
439.81	56.193
440.16	55.110
440.51	55.419
440.86	55.472
441.22	54.839
441.57	55.042
441.92	55.220
442.27	55.113
442.63	54.081
442.98	56.845
443.33	55.000
443.68	54.362
444.03	55.930
444.39	54.771
444.74	55.303
445.09	54.555
445.44	53.362
445.79	55.270
446.15	53.785
446.50	54.873
446.85	54.625
447.20	54.207
447.55	55.611
447.91	54.606
448.26	54.758
448.61	56.360
448.96	55.482
449.31	55.456
449.66	54.305
450.02	54.540
450.37	54.252
450.72	55.330
451.07	54.845
451.42	54.286
451.77	55.138
452.12	53.868
452.47	55.100
452.83	55.070
453.18	54.279
453.53	55.535
453.88	53.869
454.23	54.871
454.58	54.876
454.93	56.453
455.28	54.551
455.63	54.551
455.98	55.298
456.34	54.397
456.69	55.354
457.04	54.675
457.39	53.945
457.74	53.802
458.09	54.859
458.44	54.105
458.79	52.332
459.14	54.797
459.49	54.466
459.84	53.573
460.19	53.683
460.54	52.315
460.89	53.703
461.24	53.370
461.59	54.503
461.94	54.007
462.29	55.074
462.64	54.371
462.99	53.025
463.34	54.200
463.69	53.221
464.04	53.217
464.39	53.101
464.74	53.832
465.09	54.041
465.44	52.687
465.79	53.468
466.14	51.943
466.49	52.670
466.84	53.415
467.19	52.505
467.54	53.187
467.89	52.341
468.24	52.240
468.59	53.480
468.94	52.230
469.29	53.985
469.64	53.815
469.99	54.330
470.34	53.897
470.68	54.382
471.03	52.857
471.38	55.177
471.73	53.498
472.08	54.605
472.43	53.266
472.78	53.390
473.13	53.594
473.48	52.934
473.83	52.683
474.17	51.898
474.52	53.846
474.87	52.715
475.22	52.118
475.57	51.316
475.92	51.938
476.27	52.875
476.61	52.454
476.96	52.172
477.31	51.282
477.66	52.188
478.01	51.647
478.36	52.036
478.70	52.025
479.05	51.544
479.40	53.327
479.75	51.296
480.10	51.093
480.45	50.595
480.79	49.594
481.14	51.712
481.49	50.498
481.84	50.663
482.19	51.204
482.53	50.046
482.88	50.954
483.23	51.682
483.58	50.864
483.92	50.797
484.27	48.802
484.62	50.948
484.97	49.704
485.31	50.788
485.66	50.270
486.01	48.526
486.36	46.713
486.70	45.937
487.05	46.820
487.40	48.161
487.75	47.946
488.09	49.318
488.44	49.199
488.79	50.199
489.13	50.038
489.48	49.674
489.83	49.202
490.17	50.592
490.52	48.716
490.87	49.073
491.22	49.250
491.56	48.793
491.91	50.302
492.26	49.012
492.60	49.032
492.95	49.298
493.30	49.065
493.64	48.857
493.99	49.675
494.34	49.167
494.68	50.229
495.03	49.718
495.37	47.371
495.72	49.708
496.07	49.420
496.41	47.832
496.76	48.285
497.11	47.681
497.45	48.253
497.80	48.944
498.14	47.923
498.49	49.268
498.84	48.945
499.18	48.476
499.53	48.101
499.87	49.068
500.22	48.846
500.56	48.883
500.91	48.029
501.26	48.838
501.60	48.600
501.95	47.663
502.29	48.219
502.64	47.998
502.98	47.826
503.33	48.035
503.67	47.981
504.02	47.334
504.36	48.292
504.71	47.924
505.06	47.566
505.40	47.302
505.75	47.445
506.09	47.473
506.44	48.002
506.78	46.274
507.13	47.703
507.47	48.283
507.82	48.278
508.16	47.720
508.51	48.605
508.85	46.723
509.19	47.704
509.54	46.071
509.88	47.089
510.23	47.763
510.57	48.968
510.92	48.317
511.26	47.225
511.61	47.407
511.95	47.077
512.30	46.288
512.64	46.803
512.98	47.481
513.33	47.163
513.67	46.425
514.02	47.132
514.36	48.007
514.70	46.209
515.05	47.239
515.39	47.056
515.74	46.791
516.08	47.177
516.42	47.836
516.77	47.213
517.11	46.337
517.46	47.291
517.80	47.329
518.14	46.323
518.49	48.191
518.83	46.136
519.17	47.517
519.52	46.746
519.86	46.378
520.20	46.474
520.55	47.157
520.89	47.445
521.23	47.407
521.58	45.918
521.92	47.030
522.26	44.051
522.61	47.040
522.95	46.225
523.29	46.318
523.64	46.646
523.98	46.888
524.32	45.657
524.66	45.340
525.01	45.772
525.35	45.725
525.69	45.936
526.04	46.417
526.38	45.516
526.72	45.399
527.06	45.512
527.41	44.740
527.75	46.431
528.09	46.628
528.43	46.590
528.78	46.220
529.12	44.545
529.46	46.846
529.80	45.668
530.15	45.047
530.49	44.000
530.83	45.570
531.17	46.997
531.51	47.276
531.86	46.129
532.20	44.785
532.54	46.509
532.88	45.443
533.22	45.097
533.57	45.123
533.91	44.371
534.25	44.897
534.59	45.027
534.93	44.854
535.27	43.452
535.62	44.872
535.96	45.072
536.30	44.120
536.64	44.752
536.98	44.194
537.32	43.647
537.66	44.867
538.01	44.437
538.35	44.021
538.69	44.671
539.03	42.950
539.37	43.195
539.71	43.422
540.05	44.575
540.39	44.186
540.73	43.726
541.07	43.284
541.42	43.640
541.76	44.516
542.10	43.402
542.44	44.305
542.78	43.083
543.12	41.907
543.46	43.607
543.80	43.396
544.14	42.747
544.48	43.619
544.82	43.682
545.16	42.941
545.50	43.766
545.84	43.548
546.18	42.963
546.52	42.326
546.86	43.780
547.20	43.763
547.54	43.153
547.88	43.622
548.22	42.030
548.56	42.453
548.90	41.357
549.24	42.492
549.58	43.520
549.92	44.505
550.26	43.395
550.60	43.361
550.94	42.676
551.28	42.356
551.62	42.775
551.96	42.667
552.30	42.321
552.64	43.070
552.98	43.390
553.32	41.740
553.66	43.558
554.00	43.583
554.34	42.029
554.68	42.918
555.02	41.396
555.36	42.519
555.69	41.204
556.03	42.463
556.37	41.951
556.71	41.951
557.05	41.947
557.39	41.008
557.73	40.932
558.07	42.059
558.41	40.810
558.75	41.881
559.08	42.058
559.42	43.235
559.76	41.912
560.10	41.042
560.44	42.558
560.78	40.519
561.12	41.359
561.45	42.047
561.79	40.936
562.13	40.644
562.47	42.350
562.81	42.050
563.15	41.605
563.48	40.915
563.82	40.705
564.16	40.680
564.50	39.909
564.84	40.013
565.17	41.184
565.51	41.022
565.85	41.307
566.19	39.637
566.52	42.115
566.86	39.241
567.20	41.274
567.54	39.897
567.88	39.435
568.21	40.106
568.55	39.687
568.89	40.321
569.23	39.037
569.56	38.462
569.90	38.792
570.24	38.249
570.57	37.742
570.91	37.363
571.25	37.153
571.59	37.938
571.92	37.586
572.26	37.377
572.60	37.868
572.93	37.691
573.27	37.918
573.61	37.688
573.95	37.390
574.28	36.884
574.62	36.953
574.96	36.822
575.29	37.027
575.63	36.204
575.97	36.917
576.30	37.307
576.64	37.074
576.98	37.020
577.31	36.229
577.65	36.287
577.98	36.450
578.32	35.465
578.66	36.415
578.99	36.110
579.33	36.383
579.67	36.536
580.00	36.466
580.34	36.284
580.67	36.540
581.01	36.924
581.35	36.367
581.68	36.154
582.02	35.771
582.35	36.076
582.69	35.399
583.02	36.158
583.36	36.431
583.70	36.538
584.03	36.860
584.37	36.522
584.70	36.625
585.04	36.179
585.37	36.160
585.71	36.090
586.04	35.757
586.38	36.703
586.72	37.448
587.05	35.805
587.39	35.303
587.72	36.073
588.06	35.939
588.39	35.967
588.73	36.550
589.06	36.398
589.40	35.421
589.73	36.255
590.07	36.157
590.40	36.317
590.73	37.158
591.07	37.200
591.40	37.537
591.74	37.403
592.07	37.740
592.41	36.709
592.74	36.667
593.08	35.743
593.41	35.463
593.75	35.009
594.08	36.239
594.41	35.878
594.75	35.490
595.08	35.684
595.42	35.902
595.75	36.467
596.09	36.162
596.42	36.306
596.75	35.796
597.09	36.883
597.42	35.034
597.75	35.878
598.09	36.348
598.42	35.653
598.76	35.144
599.09	35.158
599.42	35.408
599.76	35.688
600.09	35.665
600.42	35.099
600.76	35.393
601.09	34.791
601.42	34.893
601.76	35.218
602.09	35.850
602.42	36.226
602.76	36.074
603.09	35.563
603.42	35.689
603.76	35.023
604.09	34.975
604.42	35.181
604.76	36.651
605.09	35.430
605.42	35.058
605.75	35.513
606.09	34.933
606.42	34.696
606.75	35.462
607.09	34.868
607.42	35.516
607.75	34.177
608.08	35.302
608.42	35.814
608.75	34.491
609.08	34.921
609.41	35.507
609.75	35.636
610.08	35.250
610.41	34.590
610.74	34.579
611.07	36.067
611.41	36.016
611.74	36.400
612.07	35.300
612.40	35.939
612.73	35.526
613.07	35.938
613.40	35.176
613.73	34.924
614.06	36.452
614.39	35.186
614.72	34.526
615.06	34.664
615.39	34.766
615.72	34.560
616.05	34.290
616.38	35.575
616.71	36.698
617.05	35.453
617.38	35.538
617.71	34.775
618.04	36.178
618.37	34.831
618.70	34.785
619.03	36.250
619.36	34.963
619.69	35.915
620.03	37.225
620.36	36.163
620.69	37.534
621.02	35.914
621.35	35.395
621.68	35.670
622.01	36.610
622.34	35.174
622.67	36.578
623.00	34.189
623.33	35.668
623.66	34.882
623.99	34.536
624.32	34.807
624.65	36.299
624.99	33.924
625.32	34.685
625.65	35.763
625.98	35.895
626.31	36.003
626.64	35.429
626.97	35.744
627.30	35.578
627.63	36.833
627.96	37.342
628.29	37.008
628.62	35.682
628.95	37.170
629.28	35.949
629.61	36.939
629.94	36.190
630.26	36.797
630.59	36.225
630.92	36.398
631.25	35.637
