SpectraSuite Data File
++++++++++++++++++++++++++++++++++++
Date: Wed May 13 16:19:36 PDT 2015
User: schluterlab
Dark Spectrum Present: Yes
Reference Spectrum Present: Yes
Number of Sampled Component Spectra: 1
Spectrometers: USB2E3373
Integration Time (usec): 3000 (USB2E3373)
Spectra Averaged: 3 (USB2E3373)
Boxcar Smoothing: 0 (USB2E3373)
Correct for Electrical Dark: No (USB2E3373)
Strobe/Lamp Enabled: No (USB2E3373)
Correct for Detector Non-linearity: No (USB2E3373)
Correct for Stray Light: No (USB2E3373)
Number of Pixels in Processed Spectrum: 2048
>>>>>Begin Processed Spectral Data<<<<<
178.53	0.000
178.91	-1100.000
179.29	-1125.000
179.67	-211.111
180.04	-1250.000
180.42	2000.000
180.80	780.000
181.18	-1000.000
181.56	642.857
181.94	0.000
182.31	-542.857
182.69	1533.333
183.07	-462.500
183.45	-500.000
183.83	509.091
184.20	-250.000
184.58	1800.000
184.96	4000.000
185.34	-660.000
185.72	-587.500
186.09	-1800.000
186.47	2000.000
186.85	1700.000
187.23	4300.000
187.61	-1200.000
187.98	1000.000
188.36	545.455
188.74	472.727
189.12	-680.000
189.49	420.000
189.87	-3800.000
190.25	-1025.000
190.63	400.000
191.00	353.846
191.38	700.000
191.76	-925.000
192.14	1225.000
192.51	537.500
192.89	800.000
193.27	525.000
193.65	-1025.000
194.02	400.000
194.40	920.000
194.78	390.000
195.15	416.667
195.53	520.000
195.91	-1850.000
196.29	325.000
196.66	278.947
197.04	-240.000
197.42	0.000
197.79	540.000
198.17	-4600.000
198.55	428.571
198.92	612.500
199.30	780.000
199.68	0.000
200.05	266.667
200.43	657.143
200.81	4200.000
201.18	1333.333
201.56	-1233.333
201.94	555.556
202.31	455.556
202.69	366.667
203.07	460.000
203.44	0.000
203.82	1175.000
204.19	685.714
204.57	371.429
204.95	512.500
205.32	1100.000
205.70	445.455
206.08	292.857
206.45	1750.000
206.83	300.000
207.20	833.333
207.58	580.000
207.96	300.000
208.33	600.000
208.71	-783.333
209.08	685.714
209.46	555.556
209.84	418.182
210.21	-966.667
210.59	1275.000
210.96	-587.500
211.34	2450.000
211.71	490.000
212.09	750.000
212.46	0.000
212.84	1200.000
213.22	1350.000
213.59	-3200.000
213.97	850.000
214.34	685.714
214.72	536.364
215.09	920.000
215.47	-2350.000
215.84	-2200.000
216.22	1466.667
216.59	321.429
216.97	1175.000
217.34	400.000
217.72	-383.333
218.09	0.000
218.47	-4800.000
218.84	600.000
219.22	685.714
219.59	1266.667
219.97	-614.286
220.34	780.000
220.72	-1233.333
221.09	350.000
221.47	1175.000
221.84	-883.333
222.22	0.000
222.59	1275.000
222.97	-2600.000
223.34	1020.000
223.72	415.385
224.09	960.000
224.46	1850.000
224.84	-4400.000
225.21	-820.000
225.59	-5100.000
225.96	480.000
226.34	210.000
226.71	2900.000
227.08	487.500
227.46	540.000
227.83	-825.000
228.21	-1850.000
228.58	544.444
228.95	-1950.000
229.33	-2400.000
229.70	1100.000
230.08	571.429
230.45	-580.000
230.82	383.333
231.20	883.333
231.57	642.857
231.95	475.000
232.32	204.545
232.69	336.364
233.07	457.143
233.44	315.385
233.81	-1366.667
234.19	257.895
234.56	391.667
234.93	325.000
235.31	418.182
235.68	300.000
236.05	271.429
236.43	160.606
236.80	210.526
237.17	4000.000
237.55	161.905
237.92	110.714
238.29	200.000
238.67	138.710
239.04	155.172
239.41	119.444
239.79	100.000
240.16	114.286
240.53	100.000
240.91	98.039
241.28	88.000
241.65	90.000
242.02	75.362
242.40	59.677
242.77	73.333
243.14	64.516
243.51	61.798
243.89	56.471
244.26	45.556
244.63	58.065
245.00	50.000
245.38	56.436
245.75	53.271
246.12	44.954
246.49	38.686
246.87	48.800
247.24	53.077
247.61	37.143
247.98	33.333
248.36	27.703
248.73	38.854
249.10	30.573
249.47	31.638
249.84	36.364
250.22	29.947
250.59	31.953
250.96	30.303
251.33	29.384
251.70	33.663
252.08	25.714
252.45	27.354
252.82	23.913
253.19	29.362
253.56	28.235
253.94	26.971
254.31	25.391
254.68	26.154
255.05	30.627
255.42	24.797
255.79	24.632
256.16	26.354
256.54	24.382
256.91	28.470
257.28	20.144
257.65	22.112
258.02	22.671
258.39	18.927
258.76	22.408
259.14	24.107
259.51	22.188
259.88	18.634
260.25	26.284
260.62	20.809
260.99	22.050
261.36	21.021
261.73	20.630
262.10	19.767
262.47	21.690
262.85	19.777
263.22	19.658
263.59	21.083
263.96	18.956
264.33	18.799
264.70	22.105
265.07	20.460
265.44	20.202
265.81	19.221
266.18	19.347
266.55	20.976
266.92	19.656
267.29	21.065
267.66	16.743
268.03	17.273
268.40	18.224
268.77	20.286
269.14	17.793
269.51	20.542
269.88	17.483
270.25	17.607
270.62	17.528
270.99	20.215
271.36	20.172
271.73	18.458
272.10	17.609
272.47	20.645
272.84	20.130
273.21	18.239
273.58	17.686
273.95	17.610
274.32	16.322
274.69	17.559
275.06	15.945
275.43	14.255
275.80	17.836
276.17	18.126
276.54	16.840
276.91	18.379
277.28	16.992
277.65	18.375
278.02	15.528
278.39	17.969
278.76	16.182
279.13	18.113
279.50	17.505
279.87	16.534
280.23	17.764
280.60	14.700
280.97	15.342
281.34	14.690
281.71	15.818
282.08	16.507
282.45	16.545
282.82	15.098
283.19	14.617
283.56	15.789
283.92	16.074
284.29	15.697
284.66	15.426
285.03	15.190
285.40	15.493
285.77	16.162
286.14	13.472
286.51	16.167
286.87	16.752
287.24	18.404
287.61	14.125
287.98	14.610
288.35	14.105
288.72	15.265
289.08	15.336
289.45	13.839
289.82	13.333
290.19	13.187
290.56	14.242
290.93	13.897
291.29	13.957
291.66	15.192
292.03	15.988
292.40	16.740
292.77	12.426
293.13	13.731
293.50	15.160
293.87	14.815
294.24	13.333
294.60	12.082
294.97	14.390
295.34	14.386
295.71	14.631
296.08	13.248
296.44	14.856
296.81	11.493
297.18	14.499
297.55	12.269
297.91	13.325
298.28	14.190
298.65	13.969
299.02	12.912
299.38	13.147
299.75	11.186
300.12	12.388
300.48	12.125
300.85	11.467
301.22	11.847
301.59	11.237
301.95	12.720
302.32	12.067
302.69	11.947
303.05	12.364
303.42	11.852
303.79	12.458
304.15	11.305
304.52	10.545
304.89	12.079
305.25	11.253
305.62	11.212
305.99	10.862
306.35	12.081
306.72	11.996
307.09	13.651
307.45	12.162
307.82	11.719
308.19	12.693
308.55	12.190
308.92	11.386
309.29	10.876
309.65	11.241
310.02	12.051
310.38	11.613
310.75	11.721
311.12	11.771
311.48	11.703
311.85	11.950
312.22	12.279
312.58	12.162
312.95	12.144
313.31	11.748
313.68	11.954
314.05	13.708
314.41	11.658
314.78	11.480
315.14	12.711
315.51	11.637
315.87	12.574
316.24	10.626
316.61	11.501
316.97	11.742
317.34	11.840
317.70	11.472
318.07	11.550
318.43	13.307
318.80	12.840
319.16	12.335
319.53	12.758
319.89	12.190
320.26	13.400
320.62	12.897
320.99	13.232
321.35	13.939
321.72	12.936
322.08	12.340
322.45	13.632
322.81	13.081
323.18	13.006
323.54	13.265
323.91	12.547
324.27	12.811
324.64	12.209
325.00	12.714
325.37	13.922
325.73	13.555
326.10	13.857
326.46	11.918
326.83	12.770
327.19	12.980
327.56	12.892
327.92	12.948
328.29	13.043
328.65	13.536
329.01	13.267
329.38	12.396
329.74	13.389
330.11	12.347
330.47	12.580
330.84	13.971
331.20	13.297
331.56	12.477
331.93	14.259
332.29	12.777
332.66	12.832
333.02	12.888
333.38	12.647
333.75	12.389
334.11	12.900
334.48	12.245
334.84	12.776
335.20	12.182
335.57	12.874
335.93	11.518
336.29	11.996
336.66	12.173
337.02	12.217
337.38	13.148
337.75	13.191
338.11	10.922
338.47	11.050
338.84	13.107
339.20	12.202
339.56	12.956
339.93	12.545
340.29	12.047
340.65	13.369
341.02	12.129
341.38	13.345
341.74	12.018
342.11	12.402
342.47	12.070
342.83	12.072
343.20	13.074
343.56	11.794
343.92	11.667
344.28	12.245
344.65	12.210
345.01	11.279
345.37	10.806
345.73	12.606
346.10	13.384
346.46	11.864
346.82	11.944
347.19	11.779
347.55	11.741
347.91	13.107
348.27	12.408
348.63	12.960
349.00	11.327
349.36	11.002
349.72	12.350
350.08	11.994
350.45	12.124
350.81	12.348
351.17	13.047
351.53	12.531
351.89	11.386
352.26	12.391
352.62	11.949
352.98	12.561
353.34	12.243
353.70	10.884
354.07	11.613
354.43	10.476
354.79	11.424
355.15	10.375
355.51	11.831
355.87	11.347
356.24	11.889
356.60	11.788
356.96	11.424
357.32	10.711
357.68	12.520
358.04	11.797
358.40	11.639
358.77	12.363
359.13	10.418
359.49	11.608
359.85	10.397
360.21	10.447
360.57	11.751
360.93	11.769
361.29	10.884
361.66	11.146
362.02	11.119
362.38	12.167
362.74	11.458
363.10	11.103
363.46	11.225
363.82	11.791
364.18	11.747
364.54	13.373
364.90	12.181
365.26	12.059
365.62	12.126
365.98	10.957
366.35	10.458
366.71	12.581
367.07	10.706
367.43	12.046
367.79	12.206
368.15	12.284
368.51	11.410
368.87	11.706
369.23	11.924
369.59	11.296
369.95	11.324
370.31	12.037
370.67	11.884
371.03	12.285
371.39	11.880
371.75	11.691
372.11	11.593
372.47	12.243
372.83	12.032
373.19	11.344
373.55	11.899
373.91	12.739
374.27	11.478
374.63	11.345
374.99	12.500
375.35	11.235
375.71	12.132
376.07	11.934
376.42	12.448
376.78	13.254
377.14	12.415
377.50	12.517
377.86	11.503
378.22	12.705
378.58	11.404
378.94	11.565
379.30	12.150
379.66	12.119
380.02	12.162
380.38	11.536
380.74	12.425
381.09	12.408
381.45	12.969
381.81	12.776
382.17	12.611
382.53	12.201
382.89	13.025
383.25	13.133
383.61	12.330
383.97	12.695
384.32	12.913
384.68	11.648
385.04	13.337
385.40	12.508
385.76	12.654
386.12	12.953
386.48	12.649
386.83	14.240
387.19	13.173
387.55	13.420
387.91	12.636
388.27	12.876
388.62	13.829
388.98	12.838
389.34	14.393
389.70	13.611
390.06	14.385
390.42	13.489
390.77	13.232
391.13	12.636
391.49	13.198
391.85	12.667
392.20	12.114
392.56	13.573
392.92	13.420
393.28	12.308
393.64	13.189
393.99	13.500
394.35	13.400
394.71	13.237
395.07	13.583
395.42	14.400
395.78	13.041
396.14	13.160
396.50	13.910
396.85	13.477
397.21	12.700
397.57	12.895
397.92	13.281
398.28	12.444
398.64	13.740
399.00	13.486
399.35	12.465
399.71	12.963
400.07	13.483
400.42	13.497
400.78	13.571
401.14	12.927
401.49	13.910
401.85	12.765
402.21	12.575
402.57	12.400
402.92	13.052
403.28	13.679
403.63	13.304
403.99	13.185
404.35	13.576
404.70	12.950
405.06	12.755
405.42	13.412
405.77	12.800
406.13	12.923
406.49	13.069
406.84	13.585
407.20	12.589
407.55	13.338
407.91	12.600
408.27	12.763
408.62	13.787
408.98	12.806
409.34	11.747
409.69	13.290
410.05	12.639
410.40	13.945
410.76	12.843
411.11	13.028
411.47	12.204
411.83	13.134
412.18	12.801
412.54	12.453
412.89	13.434
413.25	13.164
413.60	13.589
413.96	12.750
414.31	13.001
414.67	13.752
415.03	13.311
415.38	12.822
415.74	13.183
416.09	13.782
416.45	13.253
416.80	12.822
417.16	13.472
417.51	14.200
417.87	11.753
418.22	12.997
418.58	14.074
418.93	13.759
419.29	13.749
419.64	13.728
420.00	13.232
420.35	13.449
420.71	13.568
421.06	13.007
421.42	12.573
421.77	13.677
422.12	11.903
422.48	12.574
422.83	12.464
423.19	13.536
423.54	13.291
423.90	12.754
424.25	13.680
424.61	12.798
424.96	12.420
425.31	12.735
425.67	12.191
426.02	13.543
426.38	13.492
426.73	12.522
427.09	12.948
427.44	12.478
427.79	12.133
428.15	13.690
428.50	13.809
428.85	12.872
429.21	13.031
429.56	12.338
429.92	12.733
430.27	12.612
430.62	12.289
430.98	12.922
431.33	12.990
431.68	12.984
432.04	12.567
432.39	13.078
432.74	12.507
433.10	13.016
433.45	12.828
433.80	12.583
434.16	13.408
434.51	12.421
434.86	13.683
435.22	12.840
435.57	12.584
435.92	12.346
436.28	13.464
436.63	13.355
436.98	13.051
437.34	12.701
437.69	14.002
438.04	12.985
438.39	12.537
438.75	13.655
439.10	12.682
439.45	13.282
439.81	12.870
440.16	12.987
440.51	12.947
440.86	13.607
441.22	13.237
441.57	13.163
441.92	12.948
442.27	12.540
442.63	13.112
442.98	13.183
443.33	13.641
443.68	12.752
444.03	13.324
444.39	12.220
444.74	13.420
445.09	13.208
445.44	12.903
445.79	13.261
446.15	13.658
446.50	12.116
446.85	13.258
447.20	12.647
447.55	13.121
447.91	12.852
448.26	12.910
448.61	13.115
448.96	13.843
449.31	13.386
449.66	13.450
450.02	12.591
450.37	12.812
450.72	12.521
451.07	13.041
451.42	12.523
451.77	13.740
452.12	13.337
452.47	13.806
452.83	12.995
453.18	13.570
453.53	13.667
453.88	12.817
454.23	12.373
454.58	13.628
454.93	13.287
455.28	13.030
455.63	13.167
455.98	13.929
456.34	12.751
456.69	13.338
457.04	13.003
457.39	13.676
457.74	12.943
458.09	13.571
458.44	12.999
458.79	12.148
459.14	13.431
459.49	12.960
459.84	12.465
460.19	12.434
460.54	13.715
460.89	13.385
461.24	13.965
461.59	15.340
461.94	12.700
462.29	14.184
462.64	13.210
462.99	13.077
463.34	14.533
463.69	12.758
464.04	13.913
464.39	13.391
464.74	13.191
465.09	13.631
465.44	13.241
465.79	12.248
466.14	12.261
466.49	13.237
466.84	13.076
467.19	13.458
467.54	13.813
467.89	13.625
468.24	13.787
468.59	13.675
468.94	13.073
469.29	13.882
469.64	14.659
469.99	14.141
470.34	14.135
470.68	14.224
471.03	12.721
471.38	14.385
471.73	13.857
472.08	14.737
472.43	13.819
472.78	13.957
473.13	14.249
473.48	13.233
473.83	14.573
474.17	14.126
474.52	13.524
474.87	14.478
475.22	13.233
475.57	12.735
475.92	12.639
476.27	13.754
476.61	12.576
476.96	12.205
477.31	12.873
477.66	13.184
478.01	13.278
478.36	12.956
478.70	12.617
479.05	12.833
479.40	13.255
479.75	12.811
480.10	13.072
480.45	13.375
480.79	11.849
481.14	13.405
481.49	13.147
481.84	12.163
482.19	12.949
482.53	12.798
482.88	12.517
483.23	12.991
483.58	12.739
483.92	13.121
484.27	12.070
484.62	12.931
484.97	12.692
485.31	12.432
485.66	11.455
486.01	10.999
486.36	10.071
486.70	10.304
487.05	10.645
487.40	11.210
487.75	10.926
488.09	11.708
488.44	11.574
488.79	12.514
489.13	13.102
489.48	12.439
489.83	12.214
490.17	12.758
490.52	12.888
490.87	12.709
491.22	13.188
491.56	12.210
491.91	12.936
492.26	13.229
492.60	12.719
492.95	12.442
493.30	12.430
493.64	13.019
493.99	12.535
494.34	12.488
494.68	13.233
495.03	13.064
495.37	12.797
495.72	12.817
496.07	12.900
496.41	12.301
496.76	12.401
497.11	12.112
497.45	13.367
497.80	12.620
498.14	12.464
498.49	12.390
498.84	13.231
499.18	12.619
499.53	12.631
499.87	12.442
500.22	13.236
500.56	13.447
500.91	12.452
501.26	12.423
501.60	13.431
501.95	12.466
502.29	12.840
502.64	12.896
502.98	12.623
503.33	12.706
503.67	12.622
504.02	12.675
504.36	13.477
504.71	12.408
505.06	12.723
505.40	12.397
505.75	12.922
506.09	13.168
506.44	12.531
506.78	12.470
507.13	13.074
507.47	13.586
507.82	12.665
508.16	13.323
508.51	12.836
508.85	13.108
509.19	12.755
509.54	12.959
509.88	13.189
510.23	12.905
510.57	13.932
510.92	12.429
511.26	13.515
511.61	13.122
511.95	12.944
512.30	12.460
512.64	13.756
512.98	14.362
513.33	13.812
513.67	13.607
514.02	12.771
514.36	13.981
514.70	13.005
515.05	13.330
515.39	14.246
515.74	13.682
516.08	14.421
516.42	13.929
516.77	14.381
517.11	13.651
517.46	14.673
517.80	14.228
518.14	13.086
518.49	13.652
518.83	14.318
519.17	13.395
519.52	13.639
519.86	14.318
520.20	14.682
520.55	14.602
520.89	14.781
521.23	15.078
521.58	15.006
521.92	14.881
522.26	13.423
522.61	14.143
522.95	14.794
523.29	14.364
523.64	14.512
523.98	14.664
524.32	14.415
524.66	14.793
525.01	14.338
525.35	14.560
525.69	14.101
526.04	14.268
526.38	14.765
526.72	14.847
527.06	14.815
527.41	13.366
527.75	15.113
528.09	14.387
528.43	14.277
528.78	14.628
529.12	14.061
529.46	14.452
529.80	14.604
530.15	14.330
530.49	14.277
530.83	16.013
531.17	14.948
531.51	15.240
531.86	14.968
532.20	15.124
532.54	15.247
532.88	15.212
533.22	14.179
533.57	14.259
533.91	13.847
534.25	14.216
534.59	14.643
534.93	14.634
535.27	14.001
535.62	14.225
535.96	14.438
536.30	14.495
536.64	14.552
536.98	13.869
537.32	14.747
537.66	14.400
538.01	14.747
538.35	14.027
538.69	15.252
539.03	13.580
539.37	13.291
539.71	13.221
540.05	14.248
540.39	14.817
540.73	14.554
541.07	15.574
541.42	14.677
541.76	14.839
542.10	14.101
542.44	13.775
542.78	14.625
543.12	14.779
543.46	15.541
543.80	15.159
544.14	13.928
544.48	14.476
544.82	13.470
545.16	15.029
545.50	12.725
545.84	14.113
546.18	14.343
546.52	14.522
546.86	14.639
547.20	15.374
547.54	14.629
547.88	15.370
548.22	14.384
548.56	14.906
548.90	13.828
549.24	13.535
549.58	15.075
549.92	14.286
550.26	14.134
550.60	14.385
550.94	14.014
551.28	14.557
551.62	15.169
551.96	13.684
552.30	15.358
552.64	14.875
552.98	14.237
553.32	14.970
553.66	15.337
554.00	14.550
554.34	14.562
554.68	15.093
555.02	14.034
555.36	14.196
555.69	14.005
556.03	14.065
556.37	13.847
556.71	14.461
557.05	13.585
557.39	15.185
557.73	14.467
558.07	14.648
558.41	14.255
558.75	14.916
559.08	15.436
559.42	14.512
559.76	15.588
560.10	14.632
560.44	15.094
560.78	13.772
561.12	15.172
561.45	15.385
561.79	14.041
562.13	14.420
562.47	14.549
562.81	14.226
563.15	14.916
563.48	15.451
563.82	14.286
564.16	14.192
564.50	13.151
564.84	14.096
565.17	13.964
565.51	15.208
565.85	13.832
566.19	13.463
566.52	14.060
566.86	13.562
567.20	13.974
567.54	13.813
567.88	13.417
568.21	14.233
568.55	13.195
568.89	12.208
569.23	13.280
569.56	12.551
569.90	12.415
570.24	12.056
570.57	12.071
570.91	11.118
571.25	11.118
571.59	11.753
571.92	11.146
572.26	11.265
572.60	11.291
572.93	11.604
573.27	11.594
573.61	11.334
573.95	11.266
574.28	11.281
574.62	10.933
574.96	10.609
575.29	10.742
575.63	11.179
575.97	11.065
576.30	11.498
576.64	11.296
576.98	10.987
577.31	10.652
577.65	10.489
577.98	10.374
578.32	10.584
578.66	10.608
578.99	10.774
579.33	10.700
579.67	10.460
580.00	10.981
580.34	10.963
580.67	11.014
581.01	10.996
581.35	10.493
581.68	10.303
582.02	10.145
582.35	10.090
582.69	10.517
583.02	10.462
583.36	10.791
583.70	11.439
584.03	11.285
584.37	11.357
584.70	11.102
585.04	10.983
585.37	10.904
585.71	11.231
586.04	11.090
586.38	11.233
586.72	11.295
587.05	11.220
587.39	10.501
587.72	11.234
588.06	10.672
588.39	11.221
588.73	11.088
589.06	11.561
589.40	11.717
589.73	11.827
590.07	11.673
590.40	11.655
590.73	12.178
591.07	12.454
591.40	12.105
591.74	12.857
592.07	12.522
592.41	12.733
592.74	11.910
593.08	11.626
593.41	11.768
593.75	11.243
594.08	11.431
594.41	11.594
594.75	11.386
595.08	11.739
595.42	11.944
595.75	11.503
596.09	12.279
596.42	12.102
596.75	12.241
597.09	12.771
597.42	11.720
597.75	12.160
598.09	12.043
598.42	12.199
598.76	11.309
599.09	11.288
599.42	11.426
599.76	11.567
600.09	11.803
600.42	11.359
600.76	11.500
601.09	11.075
601.42	11.910
601.76	11.803
602.09	11.265
602.42	12.301
602.76	12.173
603.09	11.959
603.42	12.261
603.76	12.157
604.09	11.012
604.42	11.088
604.76	12.864
605.09	12.451
605.42	11.714
605.75	12.624
606.09	11.549
606.42	11.606
606.75	11.489
607.09	11.762
607.42	12.580
607.75	11.224
608.08	11.376
608.42	12.506
608.75	12.399
609.08	12.211
609.41	12.137
609.75	12.482
610.08	12.158
610.41	11.918
610.74	11.779
611.07	11.907
611.41	12.709
611.74	12.217
612.07	11.957
612.40	13.064
612.73	12.421
613.07	12.446
613.40	13.060
613.73	11.536
614.06	12.419
614.39	12.585
614.72	12.947
615.06	12.868
615.39	12.580
615.72	11.912
616.05	12.121
616.38	12.229
616.71	13.124
617.05	13.486
617.38	12.628
617.71	12.072
618.04	12.981
618.37	13.069
618.70	13.317
619.03	14.211
619.36	13.646
619.69	13.944
620.03	14.698
620.36	13.436
620.69	14.041
621.02	14.086
621.35	13.547
621.68	12.773
622.01	13.932
622.34	14.523
622.67	13.916
623.00	12.399
623.33	13.581
623.66	13.367
623.99	14.212
624.32	13.481
624.65	13.842
624.99	13.244
625.32	12.455
625.65	13.974
625.98	14.220
626.31	14.930
626.64	14.939
626.97	14.879
627.30	15.295
627.63	14.684
627.96	15.307
628.29	15.048
628.62	15.554
628.95	16.226
629.28	13.686
629.61	15.490
629.94	14.476
630.26	16.206
630.59	15.062
630.92	14.368
631.25	14.018
