SpectraSuite Data File
++++++++++++++++++++++++++++++++++++
Date: Wed May 13 16:51:21 PDT 2015
User: schluterlab
Dark Spectrum Present: Yes
Reference Spectrum Present: Yes
Number of Sampled Component Spectra: 1
Spectrometers: USB2E3373
Integration Time (usec): 3000 (USB2E3373)
Spectra Averaged: 3 (USB2E3373)
Boxcar Smoothing: 0 (USB2E3373)
Correct for Electrical Dark: No (USB2E3373)
Strobe/Lamp Enabled: No (USB2E3373)
Correct for Detector Non-linearity: No (USB2E3373)
Correct for Stray Light: No (USB2E3373)
Number of Pixels in Processed Spectrum: 2048
>>>>>Begin Processed Spectral Data<<<<<
178.53	0.000
178.91	-1100.000
179.29	-975.000
179.67	-244.444
180.04	-1300.000
180.42	2550.000
180.80	1180.000
181.18	-975.000
181.56	742.857
181.94	0.000
182.31	-571.429
182.69	1533.333
183.07	-512.500
183.45	-511.111
183.83	563.636
184.20	-480.000
184.58	2250.000
184.96	5800.000
185.34	-780.000
185.72	-562.500
186.09	-2000.000
186.47	2700.000
186.85	2550.000
187.23	5500.000
187.61	-1566.667
187.98	1300.000
188.36	527.273
188.74	472.727
189.12	-860.000
189.49	550.000
189.87	-4900.000
190.25	-1150.000
190.63	478.571
191.00	415.385
191.38	750.000
191.76	-900.000
192.14	1250.000
192.51	475.000
192.89	1016.667
193.27	500.000
193.65	-1200.000
194.02	510.000
194.40	800.000
194.78	500.000
195.15	550.000
195.53	640.000
195.91	-1950.000
196.29	343.750
196.66	310.526
197.04	-290.000
197.42	0.000
197.79	520.000
198.17	-4600.000
198.55	642.857
198.92	650.000
199.30	1020.000
199.68	0.000
200.05	344.444
200.43	742.857
200.81	3200.000
201.18	1533.333
201.56	-1500.000
201.94	555.556
202.31	477.778
202.69	350.000
203.07	640.000
203.44	0.000
203.82	1200.000
204.19	785.714
204.57	471.429
204.95	700.000
205.32	2100.000
205.70	472.727
206.08	342.857
206.45	2450.000
206.83	368.750
207.20	900.000
207.58	740.000
207.96	311.111
208.33	787.500
208.71	-816.667
209.08	757.143
209.46	600.000
209.84	509.091
210.21	-1333.333
210.59	1425.000
210.96	-450.000
211.34	2800.000
211.71	630.000
212.09	850.000
212.46	0.000
212.84	1833.333
213.22	1350.000
213.59	-4600.000
213.97	783.333
214.34	800.000
214.72	518.182
215.09	1100.000
215.47	-2500.000
215.84	-2400.000
216.22	1700.000
216.59	407.143
216.97	1175.000
217.34	400.000
217.72	-583.333
218.09	0.000
218.47	-4300.000
218.84	622.222
219.22	671.429
219.59	2000.000
219.97	-600.000
220.34	1080.000
220.72	-1633.333
221.09	371.429
221.47	1375.000
221.84	-983.333
222.22	0.000
222.59	1475.000
222.97	-2300.000
223.34	1020.000
223.72	446.154
224.09	1180.000
224.46	2300.000
224.84	-3900.000
225.21	-920.000
225.59	-4300.000
225.96	570.000
226.34	325.000
226.71	2000.000
227.08	600.000
227.46	590.000
227.83	-1150.000
228.21	-2000.000
228.58	544.444
228.95	-2400.000
229.33	-2250.000
229.70	1766.667
230.08	728.571
230.45	-840.000
230.82	400.000
231.20	716.667
231.57	600.000
231.95	391.667
232.32	263.636
232.69	372.727
233.07	528.571
233.44	369.231
233.81	-1833.333
234.19	305.263
234.56	366.667
234.93	291.667
235.31	518.182
235.68	315.385
236.05	328.571
236.43	148.485
236.80	263.158
237.17	3300.000
237.55	200.000
237.92	225.000
238.29	223.810
238.67	170.968
239.04	144.828
239.41	152.778
239.79	100.000
240.16	123.810
240.53	125.000
240.91	100.000
241.28	82.000
241.65	96.000
242.02	85.507
242.40	77.419
242.77	81.667
243.14	67.742
243.51	64.045
243.89	61.176
244.26	48.889
244.63	58.065
245.00	50.000
245.38	51.485
245.75	47.664
246.12	37.615
246.49	48.175
246.87	50.400
247.24	49.231
247.61	36.429
247.98	39.869
248.36	36.486
248.73	39.490
249.10	42.675
249.47	37.288
249.84	35.294
250.22	34.225
250.59	30.769
250.96	33.333
251.33	36.019
251.70	31.188
252.08	30.000
252.45	24.664
252.82	32.174
253.19	27.660
253.56	31.373
253.94	25.726
254.31	26.953
254.68	26.923
255.05	28.782
255.42	25.610
255.79	21.691
256.16	24.910
256.54	18.375
256.91	23.843
257.28	18.705
257.65	24.422
258.02	23.602
258.39	22.082
258.76	22.742
259.14	22.321
259.51	19.757
259.88	18.634
260.25	18.429
260.62	18.786
260.99	20.807
261.36	20.721
261.73	18.052
262.10	18.605
262.47	24.225
262.85	18.106
263.22	15.954
263.59	20.513
263.96	21.429
264.33	19.843
264.70	20.000
265.07	19.949
265.44	19.444
265.81	14.599
266.18	17.337
266.55	15.610
266.92	18.919
267.29	19.444
267.66	16.514
268.03	16.136
268.40	18.692
268.77	14.320
269.14	15.766
269.51	18.284
269.88	18.182
270.25	14.673
270.62	14.382
270.99	17.849
271.36	15.665
271.73	14.720
272.10	14.348
272.47	17.634
272.84	16.450
273.21	17.191
273.58	15.066
273.95	15.723
274.32	15.909
274.69	17.131
275.06	15.354
275.43	17.447
275.80	15.431
276.17	15.071
276.54	16.424
276.91	15.415
277.28	14.844
277.65	16.828
278.02	12.008
278.39	14.453
278.76	14.727
279.13	16.415
279.50	16.015
279.87	15.538
280.23	13.373
280.60	14.507
280.97	13.309
281.34	12.743
281.71	15.455
282.08	15.355
282.45	14.727
282.82	15.453
283.19	10.873
283.56	14.561
283.92	16.582
284.29	14.462
284.66	12.704
285.03	15.009
285.40	13.732
285.77	12.963
286.14	13.472
286.51	15.167
286.87	15.214
287.24	14.984
287.61	13.002
287.98	13.474
288.35	12.837
288.72	14.019
289.08	13.459
289.45	14.168
289.82	12.683
290.19	12.559
290.56	12.098
290.93	11.480
291.29	11.503
291.66	12.684
292.03	13.081
292.40	13.216
292.77	11.982
293.13	12.836
293.50	10.204
293.87	12.148
294.24	13.630
294.60	9.170
294.97	13.081
295.34	12.412
295.71	11.932
296.08	10.826
296.44	9.904
296.81	10.304
297.18	12.737
297.55	10.422
297.91	10.818
298.28	11.245
298.65	11.488
299.02	12.385
299.38	11.819
299.75	8.356
300.12	9.451
300.48	9.500
300.85	10.358
301.22	10.701
301.59	10.859
301.95	9.950
302.32	10.526
302.69	10.872
303.05	9.697
303.42	10.370
303.79	10.532
304.15	9.324
304.52	9.502
304.89	11.034
305.25	10.093
305.62	9.966
305.99	10.390
306.35	9.396
306.72	9.753
307.09	11.543
307.45	11.149
307.82	8.817
308.19	10.155
308.55	10.140
308.92	9.237
309.29	9.187
309.65	9.332
310.02	9.619
310.38	10.215
310.75	8.237
311.12	10.440
311.48	10.763
311.85	10.797
312.22	9.261
312.58	8.732
312.95	11.193
313.31	9.126
313.68	10.291
314.05	11.144
314.41	9.749
314.78	9.668
315.14	9.732
315.51	10.505
315.87	11.683
316.24	10.626
316.61	10.331
316.97	9.980
317.34	9.100
317.70	11.281
318.07	10.395
318.43	10.568
318.80	11.153
319.16	10.640
319.53	10.976
319.89	12.571
320.26	11.700
320.62	10.813
320.99	12.222
321.35	10.202
321.72	13.244
322.08	12.636
322.45	13.831
322.81	13.469
323.18	12.813
323.54	13.080
323.91	14.340
324.27	11.759
324.64	12.116
325.00	12.534
325.37	13.649
325.73	14.632
326.10	12.621
326.46	14.068
326.83	14.236
327.19	13.834
327.56	13.937
327.92	15.573
328.29	16.948
328.65	15.930
329.01	16.426
329.38	15.449
329.74	15.235
330.11	16.871
330.47	16.529
330.84	17.923
331.20	17.213
331.56	16.422
331.93	16.944
332.29	17.835
332.66	19.204
333.02	16.453
333.38	17.525
333.75	17.112
334.11	17.705
334.48	17.924
334.84	18.566
335.20	18.091
335.57	18.042
335.93	17.143
336.29	16.484
336.66	18.756
337.02	16.833
337.38	17.037
337.75	17.112
338.11	18.800
338.47	18.785
338.84	18.515
339.20	17.706
339.56	19.799
339.93	18.364
340.29	17.391
340.65	18.449
341.02	19.197
341.38	18.060
341.74	18.158
342.11	18.428
342.47	19.031
342.83	18.322
343.20	18.788
343.56	18.787
343.92	18.158
344.28	17.177
344.65	18.573
345.01	18.266
345.37	17.496
345.73	18.105
346.10	17.903
346.46	18.814
346.82	17.957
347.19	18.296
347.55	18.227
347.91	18.528
348.27	19.803
348.63	18.562
349.00	18.042
349.36	17.323
349.72	18.204
350.08	18.314
350.45	18.959
350.81	17.790
351.17	18.558
351.53	17.854
351.89	17.657
352.26	19.495
352.62	18.765
352.98	18.476
353.34	19.145
353.70	17.103
354.07	18.468
354.43	18.333
354.79	18.423
355.15	18.276
355.51	18.945
355.87	19.429
356.24	18.322
356.60	18.444
356.96	18.665
357.32	17.989
357.68	19.843
358.04	19.557
358.40	19.161
358.77	18.545
359.13	17.995
359.49	19.529
359.85	17.778
360.21	17.863
360.57	18.599
360.93	19.308
361.29	19.728
361.66	17.415
362.02	18.731
362.38	19.240
362.74	18.527
363.10	18.431
363.46	18.562
363.82	18.821
364.18	19.163
364.54	18.871
364.90	19.759
365.26	19.118
365.62	20.307
365.98	18.335
366.35	18.911
366.71	19.595
367.07	19.374
367.43	19.811
367.79	20.414
368.15	20.402
368.51	18.314
368.87	19.629
369.23	19.020
369.59	19.479
369.95	18.824
370.31	20.014
370.67	18.913
371.03	20.375
371.39	19.461
371.75	19.853
372.11	18.634
372.47	20.674
372.83	20.821
373.19	19.509
373.55	20.030
373.91	21.576
374.27	20.069
374.63	20.000
374.99	21.257
375.35	20.865
375.71	19.877
376.07	20.645
376.42	20.839
376.78	20.013
377.14	20.963
377.50	20.993
377.86	19.814
378.22	20.417
378.58	19.862
378.94	20.679
379.30	19.656
379.66	21.891
380.02	20.946
380.38	20.461
380.74	21.309
381.09	21.027
381.45	21.819
381.81	22.359
382.17	21.274
382.53	21.069
382.89	20.926
383.25	21.263
383.61	21.747
383.97	21.388
384.32	21.959
384.68	21.871
385.04	21.573
385.40	21.176
385.76	21.744
386.12	22.021
386.48	22.278
386.83	22.065
387.19	23.500
387.55	21.212
387.91	21.463
388.27	20.662
388.62	21.942
388.98	21.499
389.34	22.090
389.70	21.521
390.06	22.497
390.42	22.957
390.77	22.646
391.13	22.527
391.49	22.525
391.85	22.533
392.20	22.334
392.56	21.970
392.92	21.778
393.28	21.006
393.64	21.882
393.99	22.175
394.35	22.146
394.71	22.271
395.07	21.184
395.42	22.250
395.78	22.074
396.14	22.595
396.50	23.559
396.85	22.632
397.21	22.195
397.57	21.885
397.92	22.416
398.28	21.469
398.64	22.640
399.00	21.489
399.35	20.756
399.71	21.181
400.07	22.058
400.42	21.718
400.78	22.497
401.14	21.220
401.49	21.672
401.85	20.871
402.21	21.796
402.57	22.702
402.92	22.383
403.28	23.173
403.63	21.225
403.99	22.548
404.35	21.333
404.70	20.863
405.06	21.491
405.42	22.208
405.77	20.914
406.13	21.275
406.49	22.413
406.84	21.264
407.20	21.395
407.55	22.017
407.91	22.000
408.27	21.825
408.62	22.216
408.98	21.385
409.34	22.079
409.69	21.226
410.05	21.747
410.40	21.040
410.76	21.744
411.11	21.532
411.47	22.045
411.83	21.747
412.18	20.779
412.54	21.171
412.89	20.964
413.25	21.192
413.60	21.433
413.96	20.219
414.31	20.899
414.67	21.673
415.03	21.656
415.38	22.165
415.74	21.415
416.09	22.273
416.45	21.754
416.80	21.414
417.16	22.520
417.51	22.429
417.87	21.580
418.22	21.830
418.58	21.562
418.93	21.744
419.29	21.706
419.64	21.914
420.00	21.463
420.35	21.333
420.71	22.594
421.06	21.360
421.42	21.579
421.77	22.197
422.12	21.224
422.48	20.615
422.83	21.724
423.19	22.320
423.54	22.113
423.90	21.971
424.25	21.999
424.61	22.857
424.96	22.624
425.31	22.204
425.67	21.404
426.02	21.086
426.38	23.321
426.73	22.996
427.09	22.918
427.44	21.794
427.79	21.967
428.15	23.333
428.50	22.177
428.85	23.302
429.21	21.645
429.56	22.291
429.92	22.496
430.27	21.946
430.62	21.557
430.98	22.211
431.33	22.938
431.68	22.147
432.04	22.524
432.39	23.073
432.74	22.801
433.10	23.826
433.45	22.741
433.80	22.450
434.16	22.970
434.51	22.474
434.86	22.577
435.22	22.735
435.57	22.553
435.92	23.464
436.28	24.259
436.63	23.234
436.98	22.896
437.34	23.673
437.69	24.096
438.04	23.215
438.39	23.582
438.75	24.463
439.10	23.240
439.45	24.498
439.81	24.169
440.16	22.925
440.51	23.726
440.86	24.551
441.22	23.526
441.57	24.682
441.92	23.797
442.27	24.220
442.63	23.802
442.98	24.507
443.33	23.859
443.68	24.006
444.03	23.231
444.39	23.369
444.74	24.080
445.09	24.259
445.44	24.658
445.79	24.196
446.15	24.881
446.50	24.017
446.85	24.101
447.20	23.202
447.55	24.846
447.91	24.269
448.26	23.873
448.61	24.025
448.96	24.806
449.31	24.691
449.66	24.986
450.02	24.457
450.37	24.546
450.72	25.663
451.07	24.193
451.42	24.377
451.77	25.191
452.12	24.249
452.47	24.067
452.83	23.834
453.18	24.817
453.53	24.799
453.88	23.922
454.23	24.806
454.58	25.621
454.93	26.383
455.28	24.564
455.63	25.728
455.98	25.655
456.34	25.503
456.69	25.485
457.04	25.759
457.39	24.781
457.74	24.376
458.09	25.129
458.44	24.458
458.79	24.783
459.14	26.129
459.49	25.569
459.84	25.097
460.19	25.103
460.54	24.363
460.89	24.410
461.24	24.894
461.59	26.148
461.94	24.723
462.29	25.579
462.64	24.888
462.99	25.374
463.34	26.400
463.69	25.391
464.04	25.391
464.39	24.174
464.74	24.124
465.09	24.849
465.44	24.654
465.79	25.336
466.14	24.357
466.49	24.638
466.84	25.044
467.19	25.528
467.54	24.750
467.89	24.550
468.24	25.364
468.59	25.763
468.94	24.496
469.29	25.000
469.64	26.037
469.99	25.304
470.34	25.363
470.68	26.006
471.03	25.442
471.38	25.504
471.73	24.450
472.08	25.855
472.43	25.314
472.78	26.070
473.13	26.252
473.48	25.468
473.83	25.671
474.17	24.456
474.52	25.931
474.87	25.686
475.22	25.769
475.57	24.557
475.92	24.748
476.27	24.577
476.61	24.545
476.96	24.189
477.31	24.542
477.66	25.055
478.01	24.778
478.36	24.802
478.70	23.780
479.05	24.920
479.40	25.077
479.75	24.759
480.10	25.547
480.45	24.274
480.79	23.220
481.14	25.098
481.49	24.300
481.84	24.234
482.19	24.307
482.53	24.358
482.88	24.244
483.23	24.626
483.58	24.704
483.92	24.649
484.27	23.573
484.62	24.353
484.97	23.768
485.31	24.966
485.66	23.206
486.01	22.679
486.36	21.656
486.70	21.138
487.05	22.012
487.40	22.191
487.75	23.193
488.09	23.688
488.44	22.915
488.79	24.448
489.13	23.950
489.48	23.899
489.83	23.953
490.17	24.331
490.52	23.206
490.87	24.876
491.22	24.102
491.56	23.645
491.91	23.732
492.26	23.519
492.60	23.456
492.95	22.217
493.30	24.720
493.64	23.565
493.99	23.630
494.34	23.959
494.68	24.405
495.03	24.389
495.37	23.825
495.72	24.464
496.07	24.640
496.41	23.097
496.76	24.494
497.11	23.683
497.45	24.220
497.80	24.472
498.14	24.010
498.49	24.293
498.84	23.490
499.18	23.905
499.53	23.884
499.87	24.418
500.22	23.599
500.56	25.485
500.91	24.038
501.26	24.229
501.60	24.680
501.95	24.244
502.29	24.414
502.64	24.022
502.98	24.217
503.33	23.812
503.67	24.176
504.02	23.854
504.36	23.678
504.71	24.084
505.06	24.627
505.40	23.870
505.75	23.915
506.09	24.636
506.44	24.174
506.78	24.744
507.13	23.675
507.47	25.051
507.82	24.924
508.16	23.404
508.51	24.860
508.85	23.883
509.19	24.490
509.54	23.724
509.88	24.317
510.23	24.422
510.57	25.439
510.92	24.236
511.26	24.512
511.61	24.326
511.95	23.486
512.30	23.542
512.64	25.148
512.98	24.598
513.33	24.518
513.67	24.280
514.02	24.026
514.36	25.014
514.70	24.460
515.05	24.261
515.39	25.014
515.74	24.775
516.08	25.321
516.42	24.750
516.77	25.530
517.11	24.750
517.46	24.661
517.80	24.448
518.14	24.088
518.49	24.737
518.83	24.886
519.17	24.249
519.52	23.430
519.86	24.586
520.20	24.451
520.55	25.194
520.89	24.757
521.23	25.211
521.58	24.730
521.92	25.291
522.26	25.198
522.61	24.486
522.95	25.967
523.29	24.163
523.64	25.305
523.98	24.646
524.32	24.910
524.66	24.654
525.01	24.081
525.35	24.907
525.69	23.768
526.04	24.486
526.38	24.649
526.72	23.865
527.06	25.173
527.41	23.824
527.75	24.952
528.09	25.562
528.43	25.048
528.78	24.401
529.12	24.848
529.46	25.413
529.80	25.681
530.15	24.984
530.49	23.508
530.83	25.253
531.17	25.653
531.51	25.486
531.86	24.452
532.20	25.098
532.54	24.407
532.88	24.840
533.22	23.985
533.57	25.123
533.91	24.684
534.25	25.213
534.59	24.100
534.93	23.617
535.27	24.683
535.62	24.664
535.96	24.482
536.30	24.031
536.64	25.241
536.98	25.216
537.32	24.951
537.66	24.467
538.01	25.543
538.35	25.663
538.69	25.399
539.03	24.366
539.37	24.153
539.71	23.202
540.05	25.294
540.39	24.718
540.73	23.933
541.07	24.854
541.42	25.571
541.76	25.097
542.10	25.938
542.44	24.503
542.78	25.823
543.12	24.184
543.46	24.525
543.80	24.984
544.14	23.427
544.48	25.206
544.82	24.759
545.16	24.528
545.50	23.715
545.84	24.328
546.18	24.444
546.52	25.052
546.86	25.636
547.20	25.287
547.54	25.585
547.88	24.745
548.22	24.969
548.56	24.465
548.90	23.496
549.24	24.377
549.58	25.443
549.92	24.657
550.26	25.284
550.60	25.380
550.94	24.366
551.28	23.702
551.62	24.587
551.96	24.140
552.30	25.256
552.64	24.408
552.98	25.153
553.32	25.152
553.66	25.085
554.00	25.120
554.34	24.224
554.68	25.751
555.02	25.388
555.36	25.261
555.69	25.101
556.03	25.168
556.37	24.898
556.71	25.102
557.05	24.370
557.39	25.542
557.73	24.982
558.07	24.583
558.41	25.036
558.75	25.569
559.08	25.205
559.42	25.926
559.76	24.559
560.10	24.982
560.44	24.878
560.78	24.750
561.12	24.077
561.45	24.576
561.79	24.390
562.13	24.748
562.47	24.180
562.81	25.174
563.15	25.017
563.48	25.199
563.82	24.331
564.16	24.330
564.50	22.917
564.84	23.451
565.17	24.517
565.51	24.409
565.85	24.302
566.19	23.544
566.52	24.953
566.86	24.653
567.20	24.646
567.54	24.658
567.88	23.520
568.21	23.386
568.55	23.862
568.89	23.930
569.23	22.549
569.56	22.348
569.90	22.604
570.24	22.533
570.57	22.339
570.91	22.010
571.25	22.359
571.59	21.620
571.92	22.062
572.26	22.270
572.60	22.432
572.93	21.829
573.27	22.508
573.61	21.971
573.95	22.145
574.28	21.834
574.62	21.429
574.96	21.434
575.29	21.339
575.63	21.494
575.97	22.052
576.30	21.800
576.64	21.961
576.98	21.877
577.31	21.788
577.65	21.368
577.98	21.552
578.32	20.691
578.66	21.468
578.99	21.616
579.33	21.206
579.67	21.576
580.00	21.889
580.34	21.974
580.67	21.744
581.01	21.767
581.35	21.313
581.68	21.369
582.02	21.025
582.35	20.976
582.69	21.376
583.02	21.615
583.36	21.928
583.70	22.228
584.03	21.865
584.37	22.609
584.70	21.970
585.04	21.795
585.37	22.134
585.71	21.969
586.04	21.744
586.38	22.074
586.72	22.646
587.05	22.032
587.39	21.979
587.72	21.979
588.06	22.065
588.39	22.003
588.73	22.177
589.06	22.375
589.40	22.727
589.73	22.598
590.07	22.598
590.40	22.068
590.73	23.029
591.07	22.955
591.40	23.323
591.74	23.853
592.07	23.386
592.41	22.489
592.74	22.285
593.08	21.785
593.41	22.050
593.75	22.299
594.08	21.690
594.41	21.810
594.75	22.218
595.08	22.405
595.42	22.627
595.75	22.187
596.09	23.132
596.42	23.340
596.75	23.385
597.09	23.463
597.42	22.302
597.75	22.768
598.09	23.043
598.42	22.552
598.76	22.700
599.09	22.539
599.42	22.162
599.76	22.182
600.09	22.514
600.42	21.987
600.76	21.786
601.09	21.785
601.42	22.070
601.76	22.543
602.09	23.043
602.42	23.368
602.76	23.136
603.09	22.974
603.42	22.999
603.76	22.218
604.09	22.683
604.42	22.381
604.76	22.986
605.09	22.848
605.42	22.274
605.75	22.434
606.09	22.245
606.42	22.517
606.75	23.144
607.09	22.394
607.42	22.893
607.75	22.321
608.08	22.406
608.42	22.770
608.75	22.723
609.08	22.849
609.41	23.417
609.75	23.249
610.08	22.856
610.41	22.905
610.74	23.084
611.07	23.221
611.41	23.111
611.74	23.731
612.07	23.188
612.40	24.344
612.73	22.947
613.07	24.084
613.40	23.381
613.73	23.178
614.06	23.065
614.39	23.020
614.72	23.316
615.06	23.372
615.39	23.142
615.72	23.722
616.05	23.392
616.38	23.958
616.71	23.575
617.05	24.323
617.38	23.572
617.71	24.625
618.04	23.558
618.37	23.536
618.70	23.709
619.03	24.211
619.36	25.119
619.69	25.211
620.03	24.931
620.36	23.930
620.69	25.205
621.02	25.295
621.35	25.215
621.68	23.910
622.01	24.149
622.34	23.828
622.67	24.335
623.00	23.844
623.33	24.017
623.66	24.518
623.99	24.669
624.32	24.394
624.65	24.082
624.99	24.079
625.32	23.896
625.65	25.094
625.98	24.366
626.31	25.194
626.64	25.551
626.97	25.603
627.30	24.522
627.63	25.103
627.96	25.231
628.29	26.072
628.62	26.807
628.95	28.208
629.28	25.639
629.61	25.481
629.94	26.381
630.26	25.167
630.59	26.311
630.92	26.437
631.25	24.975
631.58	26.827
