SpectraSuite Data File
++++++++++++++++++++++++++++++++++++
Date: Wed May 13 16:51:49 PDT 2015
User: schluterlab
Dark Spectrum Present: Yes
Reference Spectrum Present: Yes
Number of Sampled Component Spectra: 1
Spectrometers: USB2E3373
Integration Time (usec): 3000 (USB2E3373)
Spectra Averaged: 3 (USB2E3373)
Boxcar Smoothing: 0 (USB2E3373)
Correct for Electrical Dark: No (USB2E3373)
Strobe/Lamp Enabled: No (USB2E3373)
Correct for Detector Non-linearity: No (USB2E3373)
Correct for Stray Light: No (USB2E3373)
Number of Pixels in Processed Spectrum: 2048
>>>>>Begin Processed Spectral Data<<<<<
178.53	0.000
178.91	-1450.000
179.29	-1375.000
179.67	-238.889
180.04	-1375.000
180.42	2850.000
180.80	1000.000
181.18	-875.000
181.56	842.857
181.94	0.000
182.31	-714.286
182.69	1466.667
183.07	-587.500
183.45	-533.333
183.83	500.000
184.20	-510.000
184.58	2600.000
184.96	4800.000
185.34	-880.000
185.72	-537.500
186.09	-2500.000
186.47	3000.000
186.85	2800.000
187.23	5500.000
187.61	-1700.000
187.98	1350.000
188.36	509.091
188.74	545.455
189.12	-700.000
189.49	590.000
189.87	-5000.000
190.25	-1250.000
190.63	442.857
191.00	461.538
191.38	883.333
191.76	-1175.000
192.14	1300.000
192.51	587.500
192.89	883.333
193.27	625.000
193.65	-950.000
194.02	480.000
194.40	1020.000
194.78	550.000
195.15	550.000
195.53	530.000
195.91	-2100.000
196.29	343.750
196.66	321.053
197.04	-390.000
197.42	0.000
197.79	700.000
198.17	-4400.000
198.55	671.429
198.92	675.000
199.30	920.000
199.68	0.000
200.05	300.000
200.43	900.000
200.81	3400.000
201.18	1466.667
201.56	-1466.667
201.94	577.778
202.31	633.333
202.69	466.667
203.07	550.000
203.44	0.000
203.82	1200.000
204.19	757.143
204.57	457.143
204.95	662.500
205.32	1666.667
205.70	554.545
206.08	271.429
206.45	2600.000
206.83	362.500
207.20	816.667
207.58	780.000
207.96	277.778
208.33	575.000
208.71	-1016.667
209.08	728.571
209.46	544.444
209.84	481.818
210.21	-1600.000
210.59	1425.000
210.96	-562.500
211.34	2200.000
211.71	620.000
212.09	616.667
212.46	0.000
212.84	1566.667
213.22	1475.000
213.59	-4800.000
213.97	833.333
214.34	800.000
214.72	600.000
215.09	1140.000
215.47	-2400.000
215.84	-2600.000
216.22	1500.000
216.59	450.000
216.97	1275.000
217.34	500.000
217.72	-633.333
218.09	0.000
218.47	-4300.000
218.84	600.000
219.22	757.143
219.59	1733.333
219.97	-571.429
220.34	840.000
220.72	-1566.667
221.09	414.286
221.47	1400.000
221.84	-916.667
222.22	0.000
222.59	1400.000
222.97	-2400.000
223.34	1020.000
223.72	446.154
224.09	980.000
224.46	2000.000
224.84	-4900.000
225.21	-960.000
225.59	-5000.000
225.96	520.000
226.34	330.000
226.71	2650.000
227.08	687.500
227.46	600.000
227.83	-1050.000
228.21	-2600.000
228.58	655.556
228.95	-2200.000
229.33	-2300.000
229.70	1900.000
230.08	714.286
230.45	-940.000
230.82	450.000
231.20	716.667
231.57	600.000
231.95	383.333
232.32	209.091
232.69	354.545
233.07	671.429
233.44	392.308
233.81	-1666.667
234.19	321.053
234.56	466.667
234.93	400.000
235.31	390.909
235.68	369.231
236.05	342.857
236.43	172.727
236.80	315.789
237.17	4200.000
237.55	228.571
237.92	221.429
238.29	280.952
238.67	177.419
239.04	186.207
239.41	144.444
239.79	130.435
240.16	133.333
240.53	143.182
240.91	96.078
241.28	136.000
241.65	138.000
242.02	95.652
242.40	112.903
242.77	108.333
243.14	90.323
243.51	88.764
243.89	90.588
244.26	80.000
244.63	89.247
245.00	64.894
245.38	78.218
245.75	74.766
246.12	79.817
246.49	70.073
246.87	76.000
247.24	66.154
247.61	62.857
247.98	61.438
248.36	58.108
248.73	65.605
249.10	56.688
249.47	57.627
249.84	56.150
250.22	53.476
250.59	57.396
250.96	55.556
251.33	53.081
251.70	55.941
252.08	51.429
252.45	52.915
252.82	52.609
253.19	48.085
253.56	50.588
253.94	49.378
254.31	46.094
254.68	53.846
255.05	46.863
255.42	49.593
255.79	45.956
256.16	53.069
256.54	43.110
256.91	48.754
257.28	44.245
257.65	45.545
258.02	46.584
258.39	41.325
258.76	45.819
259.14	44.643
259.51	43.465
259.88	40.994
260.25	44.109
260.62	41.618
260.99	43.478
261.36	45.646
261.73	38.109
262.10	39.826
262.47	48.169
262.85	41.226
263.22	42.450
263.59	44.160
263.96	40.934
264.33	40.209
264.70	42.105
265.07	42.711
265.44	40.909
265.81	38.686
266.18	39.950
266.55	39.268
266.92	39.803
267.29	39.583
267.66	38.073
268.03	39.091
268.40	39.953
268.77	40.811
269.14	37.613
269.51	37.923
269.88	39.627
270.25	39.278
270.62	39.551
270.99	38.710
271.36	38.627
271.73	37.383
272.10	38.261
272.47	41.290
272.84	39.394
273.21	37.736
273.58	36.245
273.95	36.268
274.32	37.190
274.69	40.685
275.06	34.843
275.43	39.787
275.80	35.070
276.17	37.882
276.54	38.046
276.91	38.735
277.28	35.938
277.65	36.750
278.02	35.197
278.39	37.305
278.76	34.727
279.13	35.094
279.50	35.382
279.87	37.450
280.23	37.325
280.60	35.977
280.97	36.044
281.34	35.044
281.71	34.909
282.08	35.509
282.45	35.273
282.82	34.458
283.19	33.155
283.56	33.684
283.92	34.518
284.29	35.626
284.66	33.575
285.03	35.624
285.40	35.563
285.77	33.333
286.14	32.988
286.51	33.167
286.87	34.017
287.24	32.248
287.61	33.387
287.98	33.604
288.35	32.013
288.72	31.153
289.08	32.707
289.45	31.796
289.82	32.683
290.19	29.042
290.56	29.862
290.93	29.909
291.29	29.141
291.66	29.646
292.03	32.413
292.40	32.305
292.77	30.769
293.13	29.851
293.50	31.050
293.87	32.000
294.24	28.444
294.60	26.638
294.97	28.052
295.34	29.337
295.71	29.972
296.08	27.778
296.44	28.198
296.81	27.345
297.18	29.539
297.55	25.726
297.91	27.968
298.28	28.916
298.65	27.023
299.02	26.877
299.38	24.834
299.75	26.146
300.12	26.437
300.48	26.125
300.85	25.524
301.22	26.115
301.59	24.116
301.95	25.819
302.32	26.444
302.69	25.926
303.05	24.848
303.42	22.840
303.79	25.821
304.15	24.126
304.52	24.913
304.89	24.739
305.25	24.710
305.62	24.689
305.99	24.793
306.35	24.832
306.72	26.233
307.09	24.639
307.45	25.901
307.82	24.442
308.19	24.834
308.55	25.566
308.92	24.812
309.29	24.287
309.65	25.133
310.02	26.216
310.38	26.559
310.75	25.343
311.12	25.486
311.48	24.765
311.85	26.310
312.22	24.974
312.58	25.364
312.95	26.082
313.31	24.466
313.68	25.884
314.05	28.501
314.41	24.925
314.78	26.888
315.14	25.323
315.51	25.953
315.87	26.436
316.24	25.819
316.61	27.096
316.97	26.517
317.34	27.006
317.70	27.725
318.07	27.334
318.43	27.984
318.80	28.304
319.16	28.531
319.53	28.893
319.89	29.810
320.26	31.000
320.62	28.968
320.99	30.404
321.35	31.919
321.72	30.390
322.08	30.898
322.45	32.239
322.81	32.267
323.18	31.407
323.54	30.519
323.91	31.698
324.27	30.975
324.64	32.526
325.00	32.642
325.37	33.121
325.73	33.303
326.10	34.598
326.46	34.857
326.83	35.548
327.19	34.500
327.56	34.582
327.92	35.958
328.29	36.291
328.65	37.017
329.01	36.643
329.38	37.465
329.74	36.842
330.11	37.889
330.47	38.017
330.84	37.868
331.20	37.887
331.56	36.514
331.93	38.056
332.29	37.445
332.66	36.726
333.02	37.386
333.38	38.753
333.75	38.592
334.11	37.900
334.48	37.267
334.84	39.062
335.20	38.455
335.57	37.625
335.93	36.339
336.29	36.722
336.66	38.052
337.02	36.833
337.38	38.426
337.75	38.146
338.11	38.675
338.47	38.214
338.84	38.680
339.20	37.431
339.56	39.325
339.93	38.636
340.29	38.768
340.65	39.305
341.02	39.616
341.38	39.057
341.74	37.368
342.11	37.729
342.47	37.974
342.83	38.613
343.20	38.788
343.56	37.995
343.92	37.368
344.28	37.075
344.65	38.263
345.01	37.037
345.37	37.136
345.73	39.425
346.10	38.875
346.46	39.153
346.82	39.786
347.19	38.680
347.55	38.095
347.91	37.298
348.27	39.113
348.63	37.458
349.00	38.350
349.36	39.327
349.72	37.851
350.08	39.384
350.45	38.161
350.81	38.911
351.17	37.844
351.53	38.984
351.89	38.119
352.26	39.779
352.62	39.294
352.98	38.736
353.34	38.620
353.70	38.052
354.07	37.984
354.43	37.460
354.79	38.375
355.15	38.069
355.51	39.648
355.87	39.592
356.24	39.984
356.60	38.573
356.96	39.501
357.32	39.984
357.68	39.134
358.04	38.797
358.40	39.509
358.77	39.045
359.13	40.174
359.49	38.667
359.85	38.730
360.21	39.633
360.57	40.311
360.93	40.154
361.29	40.816
361.66	38.854
362.02	40.075
362.38	40.152
362.74	39.732
363.10	39.452
363.46	40.205
363.82	40.892
364.18	39.354
364.54	41.753
364.90	41.218
365.26	41.103
365.62	41.198
365.98	39.883
366.35	40.330
366.71	41.504
367.07	42.098
367.43	41.437
367.79	40.542
368.15	41.739
368.51	40.916
368.87	42.398
369.23	41.917
369.59	41.709
369.95	41.765
370.31	41.738
370.67	42.681
371.03	42.547
371.39	42.347
371.75	42.647
372.11	41.536
372.47	43.475
372.83	43.588
373.19	42.919
373.55	42.942
373.91	43.004
374.27	43.299
374.63	42.836
374.99	43.079
375.35	42.359
375.71	42.152
376.07	44.513
376.42	43.535
376.78	45.063
377.14	44.573
377.50	44.305
377.86	44.947
378.22	44.437
378.58	43.170
378.94	43.935
379.30	44.975
379.66	46.320
380.02	45.946
380.38	44.930
380.74	45.498
381.09	45.293
381.45	46.343
381.81	45.516
382.17	45.669
382.53	45.912
382.89	47.099
383.25	46.091
383.61	47.212
383.97	46.779
384.32	48.222
384.68	47.274
385.04	47.941
385.40	46.440
385.76	46.929
386.12	48.769
386.48	47.262
386.83	48.685
387.19	49.165
387.55	47.186
387.91	48.065
388.27	47.333
388.62	47.081
388.98	47.666
389.34	48.874
389.70	47.639
390.06	49.430
390.42	49.351
390.77	47.774
391.13	48.756
391.49	49.937
391.85	47.868
392.20	48.202
392.56	48.990
392.92	48.381
393.28	47.692
393.64	48.801
393.99	48.687
394.35	48.511
394.71	48.808
395.07	48.287
395.42	48.826
395.78	48.601
396.14	48.914
396.50	49.749
396.85	50.032
397.21	49.383
397.57	49.721
397.92	49.279
398.28	47.926
398.64	48.088
399.00	49.245
399.35	49.295
399.71	48.611
400.07	48.551
400.42	50.859
400.78	48.311
401.14	49.634
401.49	49.373
401.85	49.123
402.21	49.222
402.57	49.167
402.92	49.054
403.28	49.407
403.63	49.691
403.99	49.045
404.35	48.606
404.70	48.861
405.06	47.874
405.42	48.472
405.77	48.114
406.13	48.194
406.49	49.379
406.84	47.903
407.20	47.695
407.55	49.521
407.91	49.333
408.27	48.756
408.62	48.766
408.98	47.672
409.34	48.585
409.69	49.226
410.05	48.637
410.40	48.746
410.76	47.073
411.11	48.432
411.47	48.115
411.83	48.626
412.18	47.495
412.54	48.194
412.89	49.217
413.25	48.406
413.60	48.919
413.96	46.873
414.31	47.205
414.67	48.859
415.03	48.212
415.38	48.905
415.74	48.746
416.09	48.269
416.45	48.260
416.80	48.315
417.16	48.928
417.51	49.171
417.87	46.564
418.22	47.571
418.58	48.547
418.93	47.789
419.29	48.186
419.64	48.363
420.00	46.890
420.35	47.536
420.71	48.834
421.06	47.733
421.42	48.070
421.77	47.253
422.12	47.670
422.48	46.465
422.83	47.525
423.19	47.514
423.54	48.404
423.90	47.594
424.25	46.566
424.61	46.548
424.96	46.764
425.31	47.674
425.67	46.573
426.02	47.029
426.38	49.328
426.73	47.221
427.09	48.328
427.44	47.786
427.79	47.556
428.15	47.619
428.50	47.221
428.85	48.093
429.21	48.537
429.56	47.330
429.92	47.408
430.27	47.666
430.62	46.800
430.98	47.846
431.33	46.186
431.68	46.859
432.04	46.539
432.39	47.287
432.74	47.038
433.10	48.048
433.45	49.679
433.80	48.559
434.16	46.314
434.51	46.632
434.86	47.491
435.22	48.360
435.57	48.146
435.92	47.923
436.28	48.754
436.63	47.737
436.98	47.453
437.34	48.479
437.69	47.316
438.04	46.880
438.39	47.104
438.75	47.589
439.10	47.765
439.45	47.166
439.81	47.372
440.16	47.544
440.51	48.565
440.86	48.929
441.22	48.387
441.57	47.187
441.92	48.158
442.27	47.793
442.63	47.130
442.98	48.282
443.33	47.826
443.68	47.961
444.03	48.219
444.39	46.933
444.74	47.944
445.09	47.601
445.44	47.622
445.79	47.056
446.15	47.750
446.50	47.065
446.85	48.407
447.20	46.609
447.55	47.404
447.91	47.601
448.26	48.358
448.61	48.163
448.96	47.730
449.31	49.100
449.66	47.327
450.02	47.632
450.37	46.429
450.72	47.434
451.07	46.862
451.42	46.626
451.77	47.798
452.12	47.229
452.47	47.450
452.83	48.543
453.18	48.166
453.53	48.918
453.88	47.667
454.23	47.280
454.58	47.789
454.93	49.650
455.28	48.815
455.63	48.119
455.98	49.464
456.34	46.922
456.69	47.652
457.04	47.740
457.39	47.633
457.74	46.489
458.09	47.729
458.44	47.891
458.79	46.258
459.14	47.122
459.49	47.461
459.84	47.036
460.19	47.672
460.54	46.644
460.89	47.669
461.24	47.359
461.59	47.821
461.94	47.596
462.29	47.181
462.64	45.948
462.99	46.975
463.34	47.467
463.69	47.217
464.04	47.130
464.39	45.739
464.74	46.286
465.09	46.803
465.44	46.150
465.79	46.756
466.14	44.609
466.49	45.217
466.84	45.651
467.19	46.349
467.54	46.375
467.89	45.738
468.24	45.084
468.59	46.825
468.94	45.021
469.29	46.080
469.64	46.787
469.99	48.241
470.34	46.697
470.68	46.480
471.03	46.939
471.38	46.699
471.73	46.236
472.08	48.092
472.43	46.043
472.78	45.359
473.13	45.956
473.48	46.317
473.83	45.610
474.17	45.426
474.52	46.898
474.87	45.884
475.22	45.328
475.57	45.030
475.92	44.291
476.27	44.758
476.61	45.339
476.96	44.475
477.31	45.160
477.66	45.460
478.01	44.328
478.36	44.527
478.70	45.639
479.05	44.089
479.40	44.933
479.75	45.552
480.10	44.682
480.45	42.694
480.79	43.669
481.14	44.716
481.49	44.708
481.84	43.759
482.19	43.935
482.53	43.486
482.88	43.834
483.23	44.533
483.58	43.813
483.92	44.096
484.27	41.830
484.62	43.276
484.97	42.058
485.31	44.555
485.66	43.387
486.01	41.912
486.36	39.704
486.70	39.092
487.05	39.783
487.40	40.756
487.75	40.279
488.09	41.341
488.44	40.927
488.79	42.532
489.13	42.743
489.48	42.129
489.83	42.555
490.17	43.095
490.52	42.648
490.87	41.610
491.22	41.837
491.56	41.002
491.91	42.020
492.26	42.490
492.60	42.304
492.95	41.815
493.30	41.542
493.64	42.324
493.99	41.086
494.34	41.674
494.68	41.529
495.03	41.071
495.37	41.647
495.72	41.862
496.07	41.995
496.41	40.841
496.76	40.941
497.11	41.243
497.45	40.801
497.80	41.747
498.14	41.159
498.49	41.463
498.84	40.988
499.18	41.381
499.53	41.406
499.87	40.680
500.22	41.545
500.56	41.990
500.91	40.000
501.26	41.110
501.60	42.098
501.95	40.651
502.29	41.143
502.64	40.782
502.98	41.608
503.33	40.082
503.67	39.954
504.02	40.365
504.36	39.869
504.71	40.938
505.06	40.723
505.40	39.718
505.75	40.164
506.09	39.747
506.44	40.553
506.78	39.990
507.13	40.182
507.47	40.657
507.82	40.932
508.16	39.210
508.51	40.538
508.85	39.672
509.19	39.694
509.54	39.235
509.88	39.825
510.23	39.743
510.57	40.867
510.92	40.186
511.26	40.185
511.61	40.041
511.95	39.301
512.30	40.350
512.64	39.871
512.98	40.247
513.33	40.364
513.67	39.755
514.02	39.177
514.36	39.487
514.70	40.454
515.05	40.379
515.39	39.596
515.74	40.541
516.08	40.022
516.42	39.900
516.77	40.524
517.11	40.067
517.46	39.955
517.80	41.057
518.14	39.375
518.49	40.490
518.83	39.261
519.17	39.838
519.52	39.502
519.86	40.103
520.20	39.249
520.55	39.378
520.89	40.572
521.23	40.169
521.58	39.076
521.92	39.743
522.26	39.780
522.61	39.252
522.95	38.920
523.29	38.953
523.64	39.329
523.98	40.049
524.32	39.083
524.66	38.785
525.01	38.787
525.35	38.724
525.69	38.485
526.04	38.505
526.38	38.438
526.72	37.975
527.06	39.611
527.41	37.500
527.75	38.971
528.09	39.306
528.43	38.942
528.78	37.984
529.12	37.576
529.46	38.518
529.80	38.490
530.15	38.069
530.49	38.031
530.83	38.861
531.17	38.838
531.51	38.197
531.86	38.000
532.20	38.657
532.54	38.949
532.88	37.933
533.22	37.976
533.57	37.963
533.91	36.665
534.25	36.817
534.59	38.011
534.93	37.835
535.27	37.658
535.62	37.912
535.96	38.795
536.30	38.271
536.64	38.120
536.98	36.629
537.32	36.866
537.66	37.733
538.01	39.039
538.35	37.427
538.69	37.715
539.03	36.972
539.37	37.061
539.71	34.802
540.05	36.732
540.39	37.143
540.73	35.640
541.07	37.897
541.42	37.704
541.76	36.774
542.10	35.964
542.44	36.026
542.78	36.430
543.12	35.765
543.46	36.262
543.80	37.476
544.14	36.650
544.48	37.079
544.82	35.728
545.16	36.825
545.50	36.311
545.84	36.290
546.18	36.633
546.52	36.476
546.86	37.045
547.20	36.750
547.54	37.742
547.88	36.862
548.22	36.426
548.56	35.849
548.90	35.275
549.24	35.758
549.58	35.130
549.92	36.058
550.26	36.648
550.60	35.408
550.94	36.268
551.28	35.918
551.62	35.802
551.96	35.298
552.30	35.631
552.64	35.565
552.98	36.068
553.32	35.738
553.66	36.469
554.00	36.582
554.34	35.335
554.68	35.408
555.02	36.460
555.36	35.351
555.69	35.589
556.03	35.397
556.37	35.471
556.71	34.652
557.05	35.644
557.39	34.850
557.73	35.780
558.07	35.751
558.41	35.384
558.75	35.342
559.08	35.272
559.42	35.147
559.76	35.221
560.10	35.332
560.44	35.290
560.78	33.932
561.12	34.565
561.45	34.485
561.79	35.267
562.13	35.614
562.47	35.792
562.81	35.635
563.15	34.114
563.48	34.549
563.82	34.181
564.16	34.663
564.50	35.026
564.84	34.576
565.17	34.556
565.51	34.696
565.85	34.391
566.19	33.876
566.52	35.022
566.86	32.911
567.20	34.080
567.54	34.932
567.88	34.166
568.21	34.762
568.55	34.125
568.89	33.512
569.23	33.021
569.56	32.510
569.90	33.283
570.24	32.221
570.57	31.554
570.91	31.674
571.25	31.995
571.59	32.194
571.92	32.143
572.26	31.860
572.60	31.502
572.93	31.274
573.27	31.677
573.61	31.798
573.95	31.731
574.28	31.030
574.62	31.438
574.96	31.302
575.29	30.723
575.63	31.301
575.97	30.487
576.30	31.147
576.64	30.781
576.98	30.967
577.31	30.730
577.65	31.596
577.98	31.082
578.32	30.739
578.66	30.671
578.99	30.997
579.33	30.404
579.67	30.479
580.00	31.168
580.34	30.731
580.67	30.844
581.01	31.392
581.35	30.865
581.68	30.984
582.02	30.173
582.35	30.669
582.69	30.377
583.02	30.718
583.36	30.551
583.70	30.744
584.03	31.531
584.37	31.673
584.70	31.270
585.04	30.920
585.37	30.522
585.71	31.320
586.04	30.370
586.38	30.956
586.72	30.931
587.05	31.187
587.39	30.106
587.72	30.920
588.06	30.763
588.39	30.864
588.73	31.006
589.06	31.380
589.40	32.290
589.73	31.538
590.07	31.317
590.40	31.640
590.73	31.460
591.07	32.804
591.40	31.590
591.74	32.424
592.07	32.548
592.41	32.038
592.74	31.760
593.08	31.446
593.41	31.193
593.75	30.012
594.08	31.143
594.41	31.177
594.75	31.238
595.08	31.818
595.42	31.594
595.75	31.019
596.09	31.318
596.42	30.884
596.75	31.743
597.09	32.294
597.42	31.282
597.75	31.220
598.09	31.609
598.42	31.186
598.76	31.171
599.09	30.597
599.42	31.295
599.76	31.040
600.09	31.257
600.42	30.168
600.76	30.500
601.09	30.346
601.42	31.317
601.76	31.006
602.09	31.225
602.42	31.568
602.76	31.600
603.09	31.550
603.42	31.355
603.76	31.174
604.09	30.322
604.42	31.472
604.76	31.337
605.09	31.105
605.42	31.124
605.75	31.540
606.09	30.785
606.42	30.609
606.75	31.107
607.09	30.264
607.42	30.723
607.75	30.633
608.08	30.091
608.42	31.062
608.75	30.839
609.08	30.574
609.41	31.128
609.75	30.967
610.08	31.715
610.41	30.307
610.74	31.268
611.07	31.868
611.41	31.501
611.74	31.875
612.07	31.729
612.40	31.165
612.73	31.000
613.07	32.597
613.40	31.438
613.73	30.257
614.06	31.452
614.39	31.463
614.72	31.737
615.06	31.408
615.39	31.847
615.72	31.697
616.05	30.622
616.38	31.907
616.71	31.057
617.05	31.625
617.38	31.329
617.71	31.351
618.04	32.272
618.37	31.520
618.70	31.238
619.03	32.237
619.36	31.976
619.69	31.408
620.03	32.349
620.36	32.687
620.69	32.534
621.02	33.186
621.35	32.498
621.68	32.632
622.01	32.585
622.34	32.678
622.67	32.243
623.00	31.034
623.33	32.094
623.66	32.380
623.99	32.032
624.32	31.669
624.65	31.638
624.99	31.516
625.32	31.571
625.65	31.856
625.98	32.052
626.31	32.737
626.64	32.490
626.97	32.751
627.30	32.253
627.63	33.142
627.96	32.632
628.29	32.108
628.62	32.662
628.95	34.151
629.28	32.664
629.61	32.906
629.94	33.619
630.26	33.651
630.59	33.079
630.92	32.759
