SpectraSuite Data File
++++++++++++++++++++++++++++++++++++
Date: Wed May 13 16:21:16 PDT 2015
User: schluterlab
Dark Spectrum Present: Yes
Reference Spectrum Present: Yes
Number of Sampled Component Spectra: 1
Spectrometers: USB2E3373
Integration Time (usec): 3000 (USB2E3373)
Spectra Averaged: 3 (USB2E3373)
Boxcar Smoothing: 0 (USB2E3373)
Correct for Electrical Dark: No (USB2E3373)
Strobe/Lamp Enabled: No (USB2E3373)
Correct for Detector Non-linearity: No (USB2E3373)
Correct for Stray Light: No (USB2E3373)
Number of Pixels in Processed Spectrum: 2048
>>>>>Begin Processed Spectral Data<<<<<
178.53	0.000
178.91	-1150.000
179.29	-1250.000
179.67	-133.333
180.04	-1175.000
180.42	2350.000
180.80	1020.000
181.18	-1000.000
181.56	514.286
181.94	0.000
182.31	-500.000
182.69	1466.667
183.07	-462.500
183.45	-433.333
183.83	509.091
184.20	-360.000
184.58	2100.000
184.96	4700.000
185.34	-920.000
185.72	-450.000
186.09	-2100.000
186.47	2450.000
186.85	1700.000
187.23	4200.000
187.61	-1366.667
187.98	1200.000
188.36	427.273
188.74	463.636
189.12	-820.000
189.49	560.000
189.87	-3900.000
190.25	-825.000
190.63	364.286
191.00	446.154
191.38	850.000
191.76	-925.000
192.14	1300.000
192.51	700.000
192.89	916.667
193.27	637.500
193.65	-1125.000
194.02	470.000
194.40	740.000
194.78	550.000
195.15	466.667
195.53	610.000
195.91	-2000.000
196.29	350.000
196.66	300.000
197.04	-370.000
197.42	0.000
197.79	520.000
198.17	-4200.000
198.55	571.429
198.92	575.000
199.30	820.000
199.68	0.000
200.05	288.889
200.43	728.571
200.81	4100.000
201.18	1500.000
201.56	-1500.000
201.94	388.889
202.31	511.111
202.69	350.000
203.07	420.000
203.44	0.000
203.82	1150.000
204.19	628.571
204.57	378.571
204.95	600.000
205.32	1633.333
205.70	472.727
206.08	350.000
206.45	2200.000
206.83	300.000
207.20	700.000
207.58	600.000
207.96	266.667
208.33	725.000
208.71	-783.333
209.08	742.857
209.46	555.556
209.84	472.727
210.21	-1266.667
210.59	1450.000
210.96	-387.500
211.34	2550.000
211.71	600.000
212.09	700.000
212.46	0.000
212.84	1633.333
213.22	1350.000
213.59	-4100.000
213.97	716.667
214.34	914.286
214.72	563.636
215.09	820.000
215.47	-1900.000
215.84	-2200.000
216.22	1500.000
216.59	328.571
216.97	1025.000
217.34	418.182
217.72	-683.333
218.09	0.000
218.47	-4300.000
218.84	555.556
219.22	628.571
219.59	1366.667
219.97	-557.143
220.34	1020.000
220.72	-1566.667
221.09	350.000
221.47	1200.000
221.84	-783.333
222.22	0.000
222.59	1125.000
222.97	-2100.000
223.34	1180.000
223.72	369.231
224.09	1060.000
224.46	2350.000
224.84	-4100.000
225.21	-860.000
225.59	-3900.000
225.96	570.000
226.34	260.000
226.71	2450.000
227.08	525.000
227.46	530.000
227.83	-875.000
228.21	-1900.000
228.58	622.222
228.95	-2150.000
229.33	-2300.000
229.70	1733.333
230.08	742.857
230.45	-620.000
230.82	350.000
231.20	733.333
231.57	528.571
231.95	466.667
232.32	213.636
232.69	390.909
233.07	571.429
233.44	330.769
233.81	-1200.000
234.19	289.474
234.56	366.667
234.93	400.000
235.31	454.545
235.68	338.462
236.05	350.000
236.43	154.545
236.80	142.105
237.17	3400.000
237.55	133.333
237.92	182.143
238.29	219.048
238.67	145.161
239.04	172.414
239.41	125.000
239.79	93.478
240.16	116.667
240.53	111.364
240.91	82.353
241.28	92.000
241.65	82.000
242.02	82.609
242.40	41.935
242.77	80.000
243.14	51.613
243.51	71.910
243.89	62.353
244.26	48.889
244.63	37.634
245.00	41.489
245.38	38.614
245.75	38.318
246.12	27.523
246.49	37.226
246.87	40.800
247.24	36.154
247.61	27.143
247.98	31.373
248.36	24.324
248.73	28.025
249.10	30.573
249.47	24.294
249.84	28.342
250.22	20.856
250.59	23.077
250.96	24.242
251.33	23.223
251.70	25.248
252.08	21.429
252.45	15.247
252.82	19.130
253.19	22.128
253.56	18.824
253.94	20.332
254.31	16.406
254.68	21.154
255.05	21.033
255.42	17.886
255.79	17.279
256.16	19.856
256.54	13.428
256.91	17.794
257.28	12.590
257.65	14.851
258.02	17.081
258.39	15.457
258.76	16.054
259.14	13.393
259.51	13.982
259.88	10.870
260.25	13.897
260.62	11.850
260.99	13.354
261.36	15.015
261.73	12.894
262.10	10.174
262.47	13.803
262.85	13.649
263.22	7.692
263.59	15.385
263.96	11.813
264.33	12.010
264.70	11.579
265.07	12.020
265.44	14.394
265.81	9.976
266.18	12.312
266.55	10.488
266.92	12.776
267.29	12.269
267.66	11.697
268.03	12.500
268.40	10.748
268.77	10.263
269.14	11.036
269.51	10.609
269.88	9.790
270.25	11.738
270.62	10.562
270.99	12.258
271.36	10.086
271.73	9.112
272.10	10.000
272.47	12.043
272.84	8.442
273.21	9.853
273.58	9.170
273.95	10.273
274.32	9.091
274.69	8.779
275.06	11.024
275.43	9.149
275.80	9.218
276.17	9.369
276.54	8.940
276.91	10.672
277.28	8.984
277.65	11.412
278.02	8.903
278.39	9.375
278.76	10.727
279.13	10.377
279.50	11.546
279.87	7.769
280.23	8.383
280.60	6.190
280.97	7.579
281.34	8.673
281.71	9.273
282.08	9.213
282.45	8.545
282.82	8.703
283.19	6.417
283.56	8.070
283.92	9.645
284.29	6.878
284.66	7.441
285.03	7.414
285.40	6.338
285.77	7.576
286.14	6.908
286.51	7.500
286.87	8.205
287.24	8.469
287.61	6.902
287.98	7.468
288.35	7.290
288.72	9.190
289.08	6.573
289.45	6.590
289.82	7.480
290.19	7.064
290.56	7.810
290.93	6.647
291.29	6.442
291.66	8.112
292.03	7.558
292.40	9.985
292.77	7.692
293.13	6.567
293.50	6.706
293.87	6.222
294.24	5.037
294.60	4.949
294.97	7.267
295.34	7.616
295.71	7.386
296.08	6.268
296.44	6.740
296.81	6.077
297.18	7.453
297.55	4.881
297.91	5.673
298.28	7.497
298.65	6.919
299.02	8.037
299.38	4.648
299.75	3.504
300.12	4.981
300.48	6.500
300.85	4.932
301.22	4.076
301.59	4.419
301.95	6.675
302.32	4.878
302.69	5.854
303.05	3.758
303.42	5.185
303.79	6.229
304.15	4.779
304.52	5.330
304.89	5.575
305.25	4.640
305.62	6.455
305.99	6.612
306.35	4.810
306.72	4.709
307.09	5.438
307.45	6.194
307.82	4.353
308.19	6.512
308.55	6.365
308.92	4.511
309.29	5.280
309.65	5.090
310.02	4.545
310.38	4.731
310.75	5.069
311.12	5.118
311.48	5.016
311.85	6.289
312.22	5.827
312.58	4.782
312.95	5.280
313.31	4.369
313.68	4.990
314.05	6.509
314.41	5.025
314.78	4.532
315.14	5.462
315.51	5.870
315.87	4.752
316.24	4.965
316.61	4.678
316.97	4.403
317.34	3.327
317.70	4.971
318.07	4.524
318.43	5.577
318.80	4.686
319.16	5.367
319.53	4.878
319.89	5.714
320.26	5.700
320.62	5.159
320.99	5.253
321.35	5.051
321.72	5.852
322.08	5.331
322.45	5.174
322.81	6.105
323.18	5.780
323.54	5.937
323.91	5.094
324.27	5.449
324.64	5.033
325.00	5.050
325.37	6.005
325.73	6.014
326.10	5.914
326.46	6.004
326.83	5.781
327.19	5.551
327.56	5.052
327.92	5.949
328.29	6.211
328.65	5.157
329.01	6.769
329.38	5.180
329.74	5.263
330.11	6.126
330.47	5.693
330.84	7.445
331.20	5.464
331.56	5.229
331.93	5.000
332.29	6.566
332.66	6.283
333.02	6.490
333.38	6.414
333.75	6.595
334.11	7.384
334.48	6.477
334.84	6.342
335.20	6.000
335.57	5.802
335.93	4.375
336.29	6.044
336.66	6.041
337.02	5.430
337.38	5.648
337.75	5.615
338.11	6.267
338.47	6.077
338.84	5.775
339.20	4.312
339.56	6.204
339.93	4.727
340.29	6.431
340.65	6.239
341.02	6.370
341.38	6.495
341.74	5.965
342.11	6.201
342.47	6.608
342.83	5.651
343.20	6.407
343.56	5.392
343.92	5.614
344.28	5.697
344.65	5.675
345.01	4.882
345.37	5.575
345.73	5.076
346.10	6.138
346.46	5.085
346.82	6.013
347.19	4.845
347.55	5.583
347.91	5.744
348.27	6.081
348.63	5.769
349.00	4.693
349.36	6.158
349.72	5.934
350.08	4.943
350.45	5.289
350.81	6.499
351.17	6.321
351.53	5.651
351.89	4.620
352.26	6.867
352.62	6.014
352.98	5.835
353.34	5.998
353.70	4.173
354.07	4.919
354.43	5.714
354.79	4.747
355.15	4.789
355.51	5.755
355.87	5.551
356.24	4.967
356.60	4.571
356.96	5.873
357.32	4.742
357.68	5.433
358.04	5.226
358.40	5.542
358.77	5.869
359.13	5.288
359.49	5.098
359.85	4.444
360.21	4.466
360.57	5.914
360.93	5.077
361.29	4.989
361.66	4.334
362.02	5.896
362.38	5.171
362.74	5.580
363.10	4.367
363.46	4.916
363.82	4.535
364.18	5.433
364.54	5.646
364.90	6.161
365.26	5.074
365.62	5.478
365.98	4.164
366.35	5.014
366.71	4.772
367.07	5.608
367.43	6.023
367.79	4.782
368.15	5.532
368.51	4.797
368.87	4.996
369.23	5.194
369.59	5.286
369.95	4.485
370.31	4.772
370.67	5.217
371.03	6.142
371.39	5.831
371.75	5.147
372.11	5.050
372.47	6.232
372.83	5.548
373.19	4.335
373.55	5.322
373.91	5.007
374.27	5.292
374.63	4.582
374.99	5.791
375.35	4.815
375.71	5.209
376.07	6.036
376.42	5.777
376.78	5.765
377.14	4.817
377.50	5.166
377.86	4.920
378.22	4.867
378.58	4.323
378.94	5.154
379.30	5.025
379.66	5.076
380.02	5.405
380.38	4.614
380.74	5.402
381.09	5.257
381.45	4.733
381.81	5.528
382.17	5.287
382.53	4.780
382.89	5.247
383.25	5.191
383.61	5.948
383.97	5.253
384.32	5.053
384.68	4.523
385.04	5.347
385.40	4.706
385.76	5.098
386.12	5.440
386.48	5.664
386.83	5.516
387.19	5.504
387.55	5.442
387.91	5.441
388.27	5.089
388.62	6.269
388.98	5.405
389.34	6.320
389.70	5.518
390.06	6.210
390.42	6.031
390.77	6.743
391.13	5.169
391.49	6.472
391.85	6.174
392.20	4.795
392.56	4.924
392.92	5.592
393.28	4.675
393.64	6.115
393.99	6.170
394.35	5.211
394.71	5.583
395.07	5.483
395.42	5.501
395.78	5.598
396.14	5.649
396.50	6.579
396.85	6.039
397.21	5.857
397.57	5.828
397.92	5.288
398.28	5.045
398.64	6.093
399.00	5.092
399.35	5.245
399.71	5.035
400.07	6.505
400.42	6.380
400.78	5.911
401.14	5.488
401.49	6.090
401.85	5.505
402.21	5.928
402.57	5.984
402.92	5.738
403.28	5.809
403.63	6.250
403.99	5.032
404.35	5.333
404.70	5.875
405.06	5.242
405.42	6.238
405.77	5.314
406.13	5.700
406.49	6.387
406.84	5.789
407.20	5.024
407.55	6.254
407.91	6.533
408.27	5.297
408.62	6.382
408.98	5.821
409.34	6.089
409.69	5.871
410.05	5.576
410.40	5.566
410.76	5.436
411.11	6.454
411.47	5.751
411.83	5.620
412.18	5.257
412.54	6.725
412.89	6.325
413.25	6.021
413.60	6.053
413.96	5.586
414.31	5.954
414.67	6.020
415.03	6.225
415.38	6.959
415.74	5.852
416.09	6.140
416.45	5.957
416.80	6.411
417.16	6.501
417.51	6.238
417.87	5.716
418.22	6.688
418.58	6.520
418.93	6.388
419.29	6.556
419.64	6.612
420.00	5.610
420.35	6.319
420.71	6.097
421.06	5.191
421.42	6.550
421.77	6.334
422.12	5.053
422.48	5.451
422.83	5.882
423.19	6.077
423.54	5.920
423.90	6.319
424.25	6.309
424.61	5.714
424.96	5.598
425.31	5.925
425.67	5.674
426.02	5.714
426.38	6.288
426.73	5.968
427.09	5.653
427.44	5.750
427.79	5.520
428.15	6.250
428.50	6.319
428.85	6.555
429.21	5.025
429.56	5.340
429.92	5.687
430.27	5.611
430.62	5.120
430.98	5.345
431.33	5.825
431.68	6.283
432.04	6.177
432.39	5.825
432.74	6.463
433.10	5.829
433.45	6.064
433.80	5.765
434.16	5.716
434.51	5.842
434.86	5.986
435.22	5.503
435.57	5.836
435.92	5.676
436.28	5.635
436.63	6.678
436.98	5.094
437.34	6.023
437.69	5.893
438.04	5.958
438.39	5.910
438.75	5.752
439.10	6.145
439.45	6.198
439.81	6.042
440.16	5.872
440.51	5.975
440.86	5.906
441.22	6.007
441.57	6.210
441.92	5.988
442.27	5.974
442.63	5.740
442.98	6.817
443.33	6.413
443.68	5.472
444.03	5.857
444.39	4.966
444.74	5.844
445.09	6.092
445.44	5.960
445.79	6.086
446.15	6.564
446.50	5.924
446.85	6.321
447.20	6.323
447.55	5.416
447.91	5.461
448.26	6.455
448.61	6.162
448.96	6.146
449.31	5.737
449.66	6.021
450.02	6.017
450.37	5.329
450.72	6.261
451.07	5.180
451.42	6.444
451.77	6.342
452.12	6.005
452.47	6.281
452.83	6.469
453.18	6.112
453.53	6.617
453.88	6.084
454.23	6.336
454.58	6.541
454.93	6.993
455.28	5.798
455.63	6.311
455.98	6.667
456.34	6.093
456.69	5.823
457.04	6.440
457.39	6.078
457.74	6.152
458.09	6.555
458.44	5.815
458.79	4.935
459.14	5.756
459.49	5.779
459.84	5.263
460.19	6.070
460.54	5.440
460.89	6.089
461.24	5.525
461.59	6.856
461.94	6.597
462.29	6.528
462.64	5.999
462.99	5.986
463.34	6.800
463.69	6.504
464.04	6.783
464.39	5.913
464.74	6.477
465.09	5.790
465.44	6.537
465.79	6.208
466.14	5.692
466.49	6.285
466.84	6.305
467.19	6.035
467.54	6.250
467.89	6.182
468.24	6.574
468.59	7.143
468.94	5.437
469.29	5.848
469.64	6.827
469.99	6.495
470.34	5.878
470.68	6.394
471.03	5.918
471.38	7.019
471.73	6.462
472.08	6.447
472.43	6.156
472.78	5.859
473.13	6.547
473.48	6.242
473.83	5.122
474.17	5.787
474.52	6.079
474.87	6.246
475.22	5.978
475.57	5.911
475.92	5.470
476.27	5.524
476.61	6.453
476.96	5.498
477.31	5.808
477.66	5.908
478.01	5.541
478.36	6.293
478.70	5.607
479.05	5.591
479.40	5.834
479.75	5.948
480.10	5.070
480.45	5.712
480.79	5.495
481.14	5.431
481.49	5.933
481.84	5.716
482.19	5.316
482.53	6.055
482.88	5.258
483.23	5.794
483.58	6.051
483.92	5.670
484.27	4.619
484.62	5.517
484.97	5.045
485.31	5.274
485.66	4.376
486.01	3.869
486.36	3.851
486.70	3.807
487.05	4.127
487.40	4.188
487.75	4.299
488.09	4.853
488.44	4.536
488.79	5.027
489.13	5.157
489.48	4.772
489.83	5.050
490.17	5.173
490.52	5.536
490.87	5.111
491.22	5.230
491.56	5.330
491.91	5.212
492.26	5.053
492.60	5.576
492.95	4.630
493.30	5.748
493.64	5.320
493.99	4.828
494.34	5.180
494.68	5.907
495.03	5.357
495.37	5.584
495.72	5.214
496.07	5.615
496.41	5.310
496.76	5.365
497.11	5.358
497.45	5.310
497.80	5.566
498.14	5.169
498.49	4.439
498.84	5.513
499.18	4.810
499.53	5.461
499.87	5.079
500.22	5.794
500.56	6.214
500.91	5.000
501.26	5.453
501.60	5.695
501.95	5.041
502.29	5.530
502.64	5.400
502.98	5.096
503.33	5.804
503.67	5.151
504.02	5.519
504.36	5.849
504.71	5.520
505.06	5.687
505.40	5.105
505.75	5.159
506.09	5.491
506.44	5.131
506.78	5.845
507.13	5.553
507.47	5.354
507.82	5.775
508.16	5.572
508.51	5.074
508.85	5.015
509.19	5.612
509.54	5.510
509.88	5.255
510.23	5.450
510.57	5.779
510.92	5.800
511.26	5.498
511.61	5.498
511.95	5.480
512.30	5.037
512.64	6.072
512.98	5.895
513.33	5.889
513.67	5.816
514.02	5.249
514.36	5.844
514.70	5.755
515.05	5.689
515.39	5.833
515.74	6.813
516.08	6.260
516.42	5.882
516.77	7.079
517.11	5.549
517.46	6.433
517.80	5.633
518.14	5.964
518.49	5.659
518.83	6.193
519.17	5.716
519.52	6.565
519.86	6.275
520.20	6.069
520.55	6.762
520.89	6.995
521.23	6.393
521.58	5.942
521.92	5.940
522.26	6.345
522.61	5.981
522.95	5.955
523.29	6.086
523.64	5.854
523.98	5.977
524.32	6.393
524.66	7.035
525.01	5.944
525.35	6.134
525.69	6.342
526.04	5.981
526.38	6.650
526.72	6.196
527.06	6.466
527.41	6.126
527.75	6.688
528.09	7.001
528.43	5.991
528.78	6.945
529.12	5.939
529.46	5.695
529.80	6.312
530.15	6.854
530.49	6.400
530.83	6.329
531.17	6.854
531.51	7.263
531.86	6.129
532.20	6.845
532.54	6.214
532.88	7.189
533.22	6.371
533.57	6.728
533.91	6.020
534.25	6.318
534.59	6.345
534.93	6.484
535.27	6.156
535.62	6.716
535.96	6.152
536.30	5.976
536.64	6.632
536.98	6.702
537.32	6.715
537.66	5.733
538.01	6.583
538.35	6.852
538.69	6.382
539.03	6.173
539.37	6.006
539.71	5.574
540.05	6.536
540.39	6.645
540.73	6.080
541.07	6.295
541.42	6.327
541.76	7.419
542.10	7.568
542.44	6.556
542.78	6.851
543.12	6.462
543.46	7.016
543.80	6.311
544.14	6.226
544.48	6.730
544.82	5.581
545.16	6.181
545.50	6.620
545.84	6.183
546.18	6.869
546.52	6.538
546.86	6.529
547.20	7.620
547.54	6.747
547.88	7.589
548.22	7.285
548.56	5.975
548.90	6.146
549.24	5.724
549.58	6.753
549.92	7.486
550.26	5.966
550.60	6.501
550.94	7.042
551.28	6.218
551.62	6.758
551.96	6.175
552.30	6.962
552.64	6.694
552.98	6.034
553.32	7.080
553.66	6.953
554.00	7.069
554.34	6.418
554.68	7.010
555.02	6.700
555.36	6.820
555.69	6.360
556.03	6.797
556.37	6.889
556.71	6.548
557.05	6.232
557.39	6.018
557.73	7.128
558.07	6.019
558.41	6.368
558.75	7.568
559.08	7.606
559.42	7.105
559.76	6.397
560.10	7.209
560.44	6.569
560.78	5.589
561.12	6.794
561.45	7.366
561.79	6.526
562.13	6.036
562.47	6.899
562.81	6.276
563.15	6.154
563.48	6.233
563.82	6.849
564.16	6.148
564.50	5.859
564.84	6.448
565.17	6.692
565.51	5.942
565.85	6.536
566.19	6.137
566.52	5.826
566.86	5.606
567.20	6.132
567.54	6.279
567.88	5.921
568.21	6.296
568.55	5.662
568.89	5.593
569.23	5.437
569.56	5.182
569.90	4.491
570.24	4.629
570.57	4.828
570.91	4.460
571.25	4.725
571.59	4.389
571.92	4.407
572.26	4.362
572.60	4.745
572.93	4.618
573.27	5.265
573.61	4.774
573.95	4.574
574.28	4.422
574.62	4.543
574.96	4.158
575.29	4.656
575.63	4.370
575.97	4.192
576.30	4.567
576.64	4.498
576.98	4.278
577.31	4.090
577.65	4.061
577.98	3.679
578.32	3.852
578.66	3.962
578.99	4.086
579.33	4.018
579.67	4.062
580.00	3.812
580.34	4.010
580.67	4.183
581.01	4.587
581.35	3.989
581.68	3.831
582.02	3.831
582.35	3.653
582.69	4.017
583.02	3.913
583.36	4.058
583.70	4.096
584.03	4.206
584.37	4.638
584.70	3.971
585.04	4.477
585.37	4.450
585.71	4.464
586.04	4.397
586.38	4.154
586.72	4.971
587.05	4.455
587.39	4.116
587.72	4.329
588.06	4.242
588.39	4.198
588.73	4.048
589.06	4.799
589.40	4.781
589.73	4.541
590.07	4.875
590.40	4.713
590.73	4.606
591.07	5.372
591.40	5.272
591.74	5.368
592.07	4.668
592.41	5.209
592.74	4.757
593.08	4.664
593.41	4.492
593.75	4.341
594.08	4.794
594.41	4.878
594.75	4.362
595.08	5.011
595.42	4.518
595.75	4.558
596.09	5.145
596.42	5.108
596.75	5.192
597.09	5.801
597.42	5.101
597.75	5.132
598.09	5.174
598.42	4.983
598.76	4.824
599.09	4.333
599.42	4.585
599.76	4.539
600.09	4.590
600.42	4.492
600.76	4.464
601.09	4.699
601.42	4.490
601.76	4.706
602.09	4.822
602.42	5.215
602.76	5.119
603.09	4.957
603.42	4.920
603.76	4.611
604.09	4.459
604.42	4.892
604.76	5.314
605.09	5.068
605.42	4.959
605.75	5.381
606.09	4.717
606.42	4.414
606.75	5.060
607.09	5.818
607.42	4.407
607.75	5.105
608.08	4.820
608.42	5.424
608.75	5.050
609.08	5.134
609.41	5.093
609.75	4.907
610.08	5.702
610.41	4.795
610.74	5.251
611.07	5.682
611.41	5.201
611.74	5.581
612.07	6.004
612.40	5.352
612.73	5.000
613.07	6.142
613.40	5.793
613.73	4.667
614.06	5.699
614.39	5.558
614.72	5.789
615.06	6.145
615.39	5.520
615.72	6.033
616.05	5.688
616.38	6.059
616.71	5.819
617.05	5.830
617.38	5.352
617.71	5.345
618.04	6.370
618.37	6.328
618.70	6.596
619.03	6.447
619.36	5.974
619.69	6.831
620.03	6.387
620.36	7.152
620.69	7.123
621.02	6.711
621.35	5.403
621.68	5.919
622.01	5.418
622.34	6.808
622.67	6.616
623.00	6.530
623.33	5.147
623.66	6.648
623.99	6.186
624.32	5.991
624.65	6.709
624.99	6.303
625.32	6.372
625.65	5.785
625.98	6.457
626.31	7.465
626.64	6.449
626.97	6.650
627.30	6.733
627.63	6.399
627.96	6.728
628.29	7.349
628.62	7.502
628.95	8.113
629.28	8.485
629.61	8.433
629.94	7.048
630.26	6.768
630.59	8.866
630.92	8.716
631.25	6.910
631.58	8.609
631.91	7.606
632.24	6.962
632.57	8.080
632.90	8.114
633.23	8.277
633.56	7.797
633.89	8.947
634.22	8.627
634.55	7.929
634.88	7.904
635.20	7.766
635.53	8.434
635.86	8.787
636.19	8.118
636.52	8.304
636.85	9.393
637.18	8.525
637.51	8.511
637.83	6.782
638.16	9.719
638.49	9.320
638.82	9.861
639.15	8.750
639.48	9.102
639.81	9.115
640.13	8.984
640.46	10.336
640.79	9.908
641.12	8.666
641.45	8.380
641.77	7.806
642.10	9.942
642.43	8.258
642.76	8.050
643.09	10.583
643.41	10.015
643.74	10.802
644.07	9.909
644.40	11.656
644.73	11.024
645.05	11.252
645.38	9.953
645.71	11.916
646.04	11.462
646.36	10.017
646.69	10.702
647.02	11.054
647.35	9.622
647.67	9.381
648.00	10.407
648.33	11.221
648.66	10.455
648.98	10.495
649.31	9.417
649.64	9.118
649.96	10.283
650.29	10.111
650.62	10.841
650.94	11.994
651.27	12.669
651.60	11.148
651.92	10.703
652.25	10.423
652.58	9.502
652.90	11.216
653.23	9.091
653.56	11.181
653.88	11.569
654.21	11.216
