SpectraSuite Data File
++++++++++++++++++++++++++++++++++++
Date: Wed May 13 16:31:59 PDT 2015
User: schluterlab
Dark Spectrum Present: Yes
Reference Spectrum Present: Yes
Number of Sampled Component Spectra: 1
Spectrometers: USB2E3373
Integration Time (usec): 3000 (USB2E3373)
Spectra Averaged: 3 (USB2E3373)
Boxcar Smoothing: 0 (USB2E3373)
Correct for Electrical Dark: No (USB2E3373)
Strobe/Lamp Enabled: No (USB2E3373)
Correct for Detector Non-linearity: No (USB2E3373)
Correct for Stray Light: No (USB2E3373)
Number of Pixels in Processed Spectrum: 2048
>>>>>Begin Processed Spectral Data<<<<<
178.53	0.000
178.91	-1275.000
179.29	-1200.000
179.67	-238.889
180.04	-1175.000
180.42	2400.000
180.80	1020.000
181.18	-1000.000
181.56	657.143
181.94	0.000
182.31	-657.143
182.69	1933.333
183.07	-550.000
183.45	-433.333
183.83	400.000
184.20	-480.000
184.58	2000.000
184.96	4500.000
185.34	-680.000
185.72	-612.500
186.09	-2400.000
186.47	2050.000
186.85	2100.000
187.23	4200.000
187.61	-1300.000
187.98	1175.000
188.36	481.818
188.74	490.909
189.12	-820.000
189.49	520.000
189.87	-4700.000
190.25	-1175.000
190.63	350.000
191.00	376.923
191.38	850.000
191.76	-1075.000
192.14	1350.000
192.51	550.000
192.89	983.333
193.27	537.500
193.65	-1275.000
194.02	480.000
194.40	820.000
194.78	510.000
195.15	525.000
195.53	650.000
195.91	-1500.000
196.29	318.750
196.66	300.000
197.04	-310.000
197.42	0.000
197.79	640.000
198.17	-4800.000
198.55	600.000
198.92	712.500
199.30	940.000
199.68	0.000
200.05	322.222
200.43	714.286
200.81	3300.000
201.18	1900.000
201.56	-1233.333
201.94	466.667
202.31	611.111
202.69	366.667
203.07	550.000
203.44	0.000
203.82	1250.000
204.19	657.143
204.57	414.286
204.95	562.500
205.32	1500.000
205.70	436.364
206.08	357.143
206.45	1800.000
206.83	318.750
207.20	750.000
207.58	780.000
207.96	294.444
208.33	675.000
208.71	-700.000
209.08	814.286
209.46	400.000
209.84	445.455
210.21	-1300.000
210.59	1100.000
210.96	-400.000
211.34	2050.000
211.71	570.000
212.09	750.000
212.46	0.000
212.84	1866.667
213.22	1000.000
213.59	-4700.000
213.97	666.667
214.34	800.000
214.72	563.636
215.09	740.000
215.47	-2100.000
215.84	-2300.000
216.22	1433.333
216.59	400.000
216.97	1200.000
217.34	454.545
217.72	-733.333
218.09	0.000
218.47	-4600.000
218.84	611.111
219.22	685.714
219.59	1733.333
219.97	-614.286
220.34	820.000
220.72	-1566.667
221.09	342.857
221.47	1400.000
221.84	-800.000
222.22	0.000
222.59	1250.000
222.97	-1800.000
223.34	1000.000
223.72	361.538
224.09	900.000
224.46	1800.000
224.84	-4200.000
225.21	-800.000
225.59	-4400.000
225.96	560.000
226.34	315.000
226.71	2250.000
227.08	662.500
227.46	540.000
227.83	-850.000
228.21	-1750.000
228.58	611.111
228.95	-2400.000
229.33	-2000.000
229.70	1666.667
230.08	671.429
230.45	-660.000
230.82	391.667
231.20	816.667
231.57	528.571
231.95	391.667
232.32	222.727
232.69	336.364
233.07	642.857
233.44	346.154
233.81	-1333.333
234.19	257.895
234.56	408.333
234.93	341.667
235.31	418.182
235.68	292.308
236.05	285.714
236.43	163.636
236.80	221.053
237.17	3900.000
237.55	204.762
237.92	160.714
238.29	200.000
238.67	109.677
239.04	151.724
239.41	116.667
239.79	100.000
240.16	102.381
240.53	86.364
240.91	86.275
241.28	80.000
241.65	76.000
242.02	72.464
242.40	87.097
242.77	60.000
243.14	53.763
243.51	52.809
243.89	54.118
244.26	38.889
244.63	47.312
245.00	47.872
245.38	37.624
245.75	41.121
246.12	39.450
246.49	42.336
246.87	44.000
247.24	40.000
247.61	33.571
247.98	31.373
248.36	20.270
248.73	30.573
249.10	29.936
249.47	25.989
249.84	26.738
250.22	22.460
250.59	24.260
250.96	22.222
251.33	25.118
251.70	28.218
252.08	20.952
252.45	21.076
252.82	18.261
253.19	22.553
253.56	20.000
253.94	23.651
254.31	17.969
254.68	18.462
255.05	19.188
255.42	13.415
255.79	17.279
256.16	23.105
256.54	17.314
256.91	17.794
257.28	14.748
257.65	18.152
258.02	17.391
258.39	13.249
258.76	15.719
259.14	12.798
259.51	15.198
259.88	11.801
260.25	15.408
260.62	16.185
260.99	12.422
261.36	12.913
261.73	12.894
262.10	10.465
262.47	12.394
262.85	13.092
263.22	7.977
263.59	15.670
263.96	11.813
264.33	10.444
264.70	10.526
265.07	13.555
265.44	11.111
265.81	9.246
266.18	12.312
266.55	10.976
266.92	12.285
267.29	9.954
267.66	11.697
268.03	10.227
268.40	10.514
268.77	10.024
269.14	10.360
269.51	12.641
269.88	10.023
270.25	10.835
270.62	11.910
270.99	13.333
271.36	11.588
271.73	8.645
272.10	10.435
272.47	12.043
272.84	11.688
273.21	10.901
273.58	7.424
273.95	8.176
274.32	8.884
274.69	11.135
275.06	10.236
275.43	9.149
275.80	10.020
276.17	9.572
276.54	10.187
276.91	7.905
277.28	7.617
277.65	9.865
278.02	9.110
278.39	10.742
278.76	10.364
279.13	9.434
279.50	10.615
279.87	9.960
280.23	8.982
280.60	6.770
280.97	8.318
281.34	7.611
281.71	9.091
282.08	9.405
282.45	9.091
282.82	7.993
283.19	6.417
283.56	8.947
283.92	8.629
284.29	8.642
284.66	8.893
285.03	7.776
285.40	6.866
285.77	8.081
286.14	7.945
286.51	9.333
286.87	9.402
287.24	8.632
287.61	9.631
287.98	8.442
288.35	6.973
288.72	7.321
289.08	7.981
289.45	7.578
289.82	7.967
290.19	5.808
290.56	9.035
290.93	7.251
291.29	7.055
291.66	7.817
292.03	9.157
292.40	7.489
292.77	7.692
293.13	7.015
293.50	6.414
293.87	5.630
294.24	7.407
294.60	6.114
294.97	6.541
295.34	8.886
295.71	7.812
296.08	6.410
296.44	7.428
296.81	7.133
297.18	8.537
297.55	4.222
297.91	6.464
298.28	8.835
298.65	7.833
299.02	7.905
299.38	5.976
299.75	4.852
300.12	5.364
300.48	5.375
300.85	5.549
301.22	5.732
301.59	7.197
301.95	6.297
302.32	6.932
302.69	7.407
303.05	5.212
303.42	5.679
303.79	5.210
304.15	5.594
304.52	5.330
304.89	3.949
305.25	5.800
305.62	6.002
305.99	6.494
306.35	5.034
306.72	5.605
307.09	5.438
307.45	6.532
307.82	4.688
308.19	6.623
308.55	5.825
308.92	5.263
309.29	5.597
309.65	5.302
310.02	5.285
310.38	4.839
310.75	5.280
311.12	6.346
311.48	5.225
311.85	4.822
312.22	5.099
312.58	4.366
312.95	5.597
313.31	4.854
313.68	5.613
314.05	6.706
314.41	5.226
314.78	5.639
315.14	4.866
315.51	6.282
315.87	6.238
316.24	5.362
316.61	4.776
316.97	5.088
317.34	4.207
317.70	5.545
318.07	5.679
318.43	4.403
318.80	5.717
319.16	5.744
319.53	4.690
319.89	5.714
320.26	6.000
320.62	5.853
320.99	5.152
321.35	6.162
321.72	5.339
322.08	5.923
322.45	6.468
322.81	6.105
323.18	5.202
323.54	5.844
323.91	5.849
324.27	5.258
324.64	3.914
325.00	5.050
325.37	5.460
325.73	6.822
326.10	4.854
326.46	4.839
326.83	5.522
327.19	5.551
327.56	5.226
327.92	5.162
328.29	6.034
328.65	4.604
329.01	5.596
329.38	4.625
329.74	6.002
330.11	4.336
330.47	6.061
330.84	7.261
331.20	5.556
331.56	6.422
331.93	6.019
332.29	5.945
332.66	6.195
333.02	5.759
333.38	6.956
333.75	6.774
334.11	6.050
334.48	5.945
334.84	5.607
335.20	5.091
335.57	5.530
335.93	4.375
336.29	6.044
336.66	5.140
337.02	4.615
337.38	5.463
337.75	5.437
338.11	5.282
338.47	5.433
338.84	5.591
339.20	4.404
339.56	5.931
339.93	5.182
340.29	4.167
340.65	4.367
341.02	5.934
341.38	5.427
341.74	4.737
342.11	5.328
342.47	4.581
342.83	4.966
343.20	6.320
343.56	5.560
343.92	5.000
344.28	5.357
344.65	5.761
345.01	5.135
345.37	4.460
345.73	5.584
346.10	6.138
346.46	5.254
346.82	6.013
347.19	4.762
347.55	5.665
347.91	5.744
348.27	5.834
348.63	5.602
349.00	5.016
349.36	4.926
349.72	5.373
350.08	4.781
350.45	5.370
350.81	4.955
351.17	5.186
351.53	4.996
351.89	4.125
352.26	6.393
352.62	5.774
352.98	4.376
353.34	5.259
353.70	3.928
354.07	5.242
354.43	4.683
354.79	4.586
355.15	5.507
355.51	5.436
355.87	5.143
356.24	4.397
356.60	4.892
356.96	4.505
357.32	4.824
357.68	4.882
358.04	5.384
358.40	5.622
358.77	5.399
359.13	4.736
359.49	5.176
359.85	2.937
360.21	3.509
360.57	4.591
360.93	4.692
361.29	4.989
361.66	4.102
362.02	5.149
362.38	5.247
362.74	5.283
363.10	3.701
363.46	4.696
363.82	4.006
364.18	5.580
364.54	5.126
364.90	4.745
365.26	4.044
365.62	4.456
365.98	4.383
366.35	4.083
366.71	4.700
367.07	4.516
367.43	4.282
367.79	4.996
368.15	5.819
368.51	4.070
368.87	4.782
369.23	4.389
369.59	5.358
369.95	4.118
370.31	4.701
370.67	4.638
371.03	5.543
371.39	4.519
371.75	4.118
372.11	4.908
372.47	4.765
372.83	5.548
373.19	4.480
373.55	5.322
373.91	5.817
374.27	4.742
374.63	3.709
374.99	4.590
375.35	3.978
375.71	4.661
376.07	5.624
376.42	5.089
376.78	6.030
377.14	4.545
377.50	5.232
377.86	4.854
378.22	4.994
378.58	4.010
378.94	4.023
379.30	4.326
379.66	4.886
380.02	4.791
380.38	4.857
380.74	4.442
381.09	5.318
381.45	5.163
381.81	4.914
382.17	5.350
382.53	4.969
382.89	5.000
383.25	4.190
383.61	5.700
383.97	5.378
384.32	5.427
384.68	4.771
385.04	5.040
385.40	4.954
385.76	5.344
386.12	5.052
386.48	5.538
386.83	5.003
387.19	6.741
387.55	5.442
387.91	5.562
388.27	4.782
388.62	6.454
388.98	5.221
389.34	5.945
389.70	5.150
390.06	6.844
390.42	5.707
390.77	5.916
391.13	5.297
391.49	5.584
391.85	5.411
392.20	5.047
392.56	5.682
392.92	6.121
393.28	4.083
393.64	6.115
393.99	6.781
394.35	5.955
394.71	5.709
395.07	6.044
395.42	6.119
395.78	6.552
396.14	5.773
396.50	6.579
396.85	5.912
397.21	5.980
397.57	6.572
397.92	5.409
398.28	5.325
398.64	6.332
399.00	6.323
399.35	5.809
399.71	6.019
400.07	6.150
400.42	6.503
400.78	6.454
401.14	5.671
401.49	6.746
401.85	5.989
402.21	6.168
402.57	6.231
402.92	6.620
403.28	6.558
403.63	6.064
403.99	5.669
404.35	6.545
404.70	5.695
405.06	5.708
405.42	6.051
405.77	5.714
406.13	6.264
406.49	6.209
406.84	6.143
407.20	5.733
407.55	6.190
407.91	6.467
408.27	5.297
408.62	6.382
408.98	6.250
409.34	6.273
409.69	6.000
410.05	6.134
410.40	6.055
410.76	6.093
411.11	7.117
411.47	5.559
411.83	6.170
412.18	6.122
412.54	6.725
412.89	6.807
413.25	5.903
413.60	5.930
413.96	5.343
414.31	6.683
414.67	6.084
415.03	5.298
415.38	6.121
415.74	6.238
416.09	6.401
416.45	5.756
416.80	5.155
417.16	6.971
417.51	7.432
417.87	5.909
418.22	6.877
418.58	6.585
418.93	6.204
419.29	6.365
419.64	6.675
420.00	6.768
420.35	6.667
420.71	6.754
421.06	6.265
421.42	6.316
421.77	6.222
422.12	5.727
422.48	5.289
422.83	6.115
423.19	6.243
423.54	6.616
423.90	6.725
424.25	6.477
424.61	6.429
424.96	6.122
425.31	6.368
425.67	6.236
426.02	5.771
426.38	6.654
426.73	6.027
427.09	6.018
427.44	5.980
427.79	6.153
428.15	6.369
428.50	6.495
428.85	6.973
429.21	5.687
429.56	5.806
429.92	5.989
430.27	5.561
430.62	5.837
430.98	6.124
431.33	6.289
431.68	6.073
432.04	6.070
432.39	6.739
432.74	6.403
433.10	5.603
433.45	6.531
433.80	5.765
434.16	5.983
434.51	6.000
434.86	6.214
435.22	6.281
435.57	5.775
435.92	6.495
436.28	6.702
436.63	7.450
436.98	6.468
437.34	6.023
437.69	7.351
438.04	6.521
438.39	6.806
438.75	6.508
439.10	6.872
439.45	7.202
439.81	6.284
440.16	6.211
440.51	6.854
440.86	6.775
441.22	6.118
441.57	6.210
441.92	6.448
442.27	6.082
442.63	6.319
442.98	7.380
443.33	6.359
443.68	6.247
444.03	6.149
444.39	5.550
444.74	6.169
445.09	6.469
445.44	6.725
445.79	6.185
446.15	6.829
446.50	6.139
446.85	5.653
447.20	6.272
447.55	6.309
447.91	6.343
448.26	6.455
448.61	5.936
448.96	6.921
449.31	6.637
449.66	6.303
450.02	5.961
450.37	6.179
450.72	6.091
451.07	6.459
451.42	6.018
451.77	7.164
452.12	6.697
452.47	7.090
452.83	6.469
453.18	6.846
453.53	6.803
453.88	6.143
454.23	6.336
454.58	7.026
454.93	6.993
455.28	6.234
455.63	6.857
455.98	7.024
456.34	6.344
456.69	6.512
457.04	6.316
457.39	6.721
457.74	6.152
458.09	6.383
458.44	6.613
458.79	6.074
459.14	7.111
459.49	7.180
459.84	6.150
460.19	5.834
460.54	6.539
460.89	6.418
461.24	6.922
461.59	7.786
461.94	6.905
462.29	6.825
462.64	6.765
462.99	6.311
463.34	7.600
463.69	6.629
464.04	6.899
464.39	6.899
464.74	6.714
465.09	5.730
465.44	6.482
465.79	6.208
466.14	6.568
466.49	6.285
466.84	6.888
467.19	7.001
467.54	7.688
467.89	6.543
468.24	7.213
468.59	7.326
468.94	6.414
469.29	5.720
469.64	7.162
469.99	7.240
470.34	6.407
470.68	6.753
471.03	7.279
471.38	6.949
471.73	7.328
472.08	7.368
472.43	7.286
472.78	7.110
473.13	6.996
473.48	7.303
473.83	6.829
474.17	6.223
474.52	6.824
474.87	7.998
475.22	6.965
475.57	6.502
475.92	6.851
476.27	6.539
476.61	6.398
476.96	6.652
477.31	6.279
477.66	6.127
478.01	7.057
478.36	6.504
478.70	6.386
479.05	6.656
479.40	6.755
479.75	6.660
480.10	6.113
480.45	5.854
480.79	5.829
481.14	5.675
481.49	6.360
481.84	5.761
482.19	5.906
482.53	6.376
482.88	6.468
483.23	6.215
483.58	6.688
483.92	6.888
484.27	5.534
484.62	6.034
484.97	5.518
485.31	5.890
485.66	4.966
486.01	4.606
486.36	4.399
486.70	4.319
487.05	4.623
487.40	4.699
487.75	4.901
488.09	5.429
488.44	5.370
488.79	5.497
489.13	5.615
489.48	5.873
489.83	5.913
490.17	5.831
490.52	6.599
490.87	5.970
491.22	5.866
491.56	5.649
491.91	5.724
492.26	5.972
492.60	6.359
492.95	5.940
493.30	5.607
493.64	6.206
493.99	5.989
494.34	6.105
494.68	6.502
495.03	6.297
495.37	5.817
495.72	6.043
496.07	6.311
496.41	5.796
496.76	5.805
497.11	5.853
497.45	5.962
497.80	6.430
498.14	6.039
498.49	5.854
498.84	6.520
499.18	6.333
499.53	5.935
499.87	6.104
500.22	6.029
500.56	6.553
500.91	5.817
501.26	6.449
501.60	6.739
501.95	6.691
502.29	6.888
502.64	6.238
502.98	5.984
503.33	6.079
503.67	6.265
504.02	6.361
504.36	5.943
504.71	5.765
505.06	7.277
505.40	6.612
505.75	6.220
506.09	6.511
506.44	6.364
506.78	6.478
507.13	6.058
507.47	6.768
507.82	7.244
508.16	6.940
508.51	6.596
508.85	6.504
509.19	6.276
509.54	6.327
509.88	7.161
510.23	6.787
510.57	7.585
510.92	6.991
511.26	6.835
511.61	7.106
511.95	6.315
512.30	6.416
512.64	6.717
512.98	7.074
513.33	7.120
513.67	6.830
514.02	6.385
514.36	7.209
514.70	6.807
515.05	6.748
515.39	7.459
515.74	7.207
516.08	7.937
516.42	7.103
516.77	8.194
517.11	6.659
517.46	7.506
517.80	7.607
518.14	6.717
518.49	7.351
518.83	6.648
519.17	7.333
519.52	7.187
519.86	7.188
520.20	8.555
520.55	7.421
520.89	8.333
521.23	7.841
521.58	7.443
521.92	7.655
522.26	7.444
522.61	7.352
522.95	7.305
523.29	7.791
523.64	7.561
523.98	7.763
524.32	8.203
524.66	7.396
525.01	7.230
525.35	7.001
525.69	8.067
526.04	7.352
526.38	7.932
526.72	8.344
527.06	7.470
527.41	6.374
527.75	8.039
528.09	8.285
528.43	8.158
528.78	8.543
529.12	7.273
529.46	7.593
529.80	8.354
530.15	8.474
530.49	7.815
530.83	7.848
531.17	7.898
531.51	9.468
531.86	8.194
532.20	8.801
532.54	8.264
532.88	8.665
533.22	7.933
533.57	8.333
533.91	7.827
534.25	8.202
534.59	7.566
534.93	8.626
535.27	8.147
535.62	8.364
535.96	7.784
536.30	7.438
536.64	8.886
536.98	8.096
537.32	8.163
537.66	8.000
538.01	8.624
538.35	8.985
538.69	8.360
539.03	7.797
539.37	8.115
539.71	7.712
540.05	7.778
540.39	7.309
540.73	7.633
541.07	9.150
541.42	7.763
541.76	8.194
542.10	8.538
542.44	8.278
542.78	8.893
543.12	7.422
543.46	8.852
543.80	8.523
544.14	7.574
544.48	7.556
544.82	8.659
545.16	8.328
545.50	7.005
545.84	8.401
546.18	8.148
546.52	7.915
546.86	8.591
547.20	8.429
547.54	8.083
547.88	9.311
548.22	8.468
548.56	7.925
548.90	7.554
549.24	8.215
549.58	8.731
549.92	8.860
550.26	7.884
550.60	8.368
550.94	8.521
551.28	7.169
551.62	8.339
551.96	8.842
552.30	8.942
552.64	9.398
552.98	9.017
553.32	8.901
553.66	8.725
554.00	8.854
554.34	8.489
554.68	9.013
555.02	9.027
555.36	8.977
555.69	8.187
556.03	7.470
556.37	8.322
556.71	8.595
557.05	8.824
557.39	8.887
557.73	8.610
558.07	8.992
558.41	7.742
558.75	9.184
559.08	8.949
559.42	8.995
559.76	8.676
560.10	7.709
560.44	8.735
560.78	8.317
561.12	9.103
561.45	10.039
561.79	8.635
562.13	9.457
562.47	9.085
562.81	8.298
563.15	9.030
563.48	8.355
563.82	8.023
564.16	8.241
564.50	7.878
564.84	8.028
565.17	7.529
565.51	8.243
565.85	8.058
566.19	6.700
566.52	8.486
566.86	7.474
567.20	7.842
567.54	7.934
567.88	7.822
568.21	7.989
568.55	7.128
568.89	7.004
569.23	7.041
569.56	6.964
569.90	6.604
570.24	6.530
570.57	6.698
570.91	6.335
571.25	6.455
571.59	6.274
571.92	5.847
572.26	6.153
572.60	6.306
572.93	6.417
573.27	6.477
573.61	6.309
573.95	5.969
574.28	5.452
574.62	6.001
574.96	5.687
575.29	5.553
575.63	6.098
575.97	6.196
576.30	6.160
576.64	5.560
576.98	5.737
577.31	5.568
577.65	5.907
577.98	5.649
578.32	5.342
578.66	5.849
578.99	5.775
579.33	5.737
579.67	5.862
580.00	5.754
580.34	5.743
580.67	5.814
581.01	5.914
581.35	5.748
581.68	5.598
582.02	5.457
582.35	5.552
582.69	5.780
583.02	5.545
583.36	5.903
583.70	5.994
584.03	5.956
584.37	6.482
584.70	5.695
585.04	6.164
585.37	5.778
585.71	6.485
586.04	5.968
586.38	5.982
586.72	6.462
587.05	5.786
587.39	5.752
587.72	5.978
588.06	5.870
588.39	6.091
588.73	6.131
589.06	6.606
589.40	6.465
589.73	6.019
590.07	6.726
590.40	6.503
590.73	6.635
591.07	7.163
591.40	7.043
591.74	7.056
592.07	7.286
592.41	7.606
592.74	7.079
593.08	6.462
593.41	6.612
593.75	6.465
594.08	6.571
594.41	6.893
594.75	6.876
595.08	6.729
595.42	6.690
595.75	6.446
596.09	7.398
596.42	7.426
596.75	7.303
597.09	7.922
597.42	6.745
597.75	6.727
598.09	7.478
598.42	7.045
598.76	6.769
599.09	6.765
599.42	6.769
599.76	6.442
600.09	6.776
600.42	6.720
600.76	6.357
601.09	6.740
601.42	6.659
601.76	6.565
602.09	6.364
602.42	6.927
602.76	7.336
603.09	6.884
603.42	7.029
603.76	7.317
604.09	6.437
604.42	7.379
604.76	7.465
605.09	7.077
605.42	7.097
605.75	7.243
606.09	6.995
606.42	6.784
606.75	7.092
607.09	7.367
607.42	6.461
607.75	6.624
608.08	6.904
608.42	7.351
608.75	7.169
609.08	7.077
609.41	7.092
609.75	7.575
610.08	7.776
610.41	6.844
610.74	7.143
611.07	7.708
611.41	7.360
611.74	7.793
612.07	7.609
612.40	7.398
612.73	7.947
613.07	7.812
613.40	8.162
613.73	6.817
614.06	7.903
614.39	7.656
614.72	8.105
615.06	7.773
615.39	7.325
615.72	7.975
616.05	7.283
616.38	7.560
616.71	8.254
617.05	8.481
617.38	8.298
617.71	7.207
618.04	9.135
618.37	7.865
618.70	7.965
619.03	9.079
619.36	8.282
619.69	7.958
620.03	8.791
620.36	8.021
620.69	9.384
621.02	9.292
621.35	7.831
621.68	9.034
622.01	8.746
622.34	8.926
622.67	8.973
623.00	8.144
623.33	8.578
623.66	8.721
623.99	8.763
624.32	8.916
624.65	8.828
624.99	8.357
625.32	8.182
625.65	9.166
625.98	8.916
626.31	8.631
626.64	9.633
626.97	9.726
627.30	8.978
627.63	9.926
627.96	9.840
628.29	9.974
628.62	10.613
628.95	10.377
629.28	10.584
629.61	10.632
629.94	10.762
630.26	10.867
630.59	10.582
630.92	11.015
631.25	8.786
631.58	10.911
631.91	10.041
632.24	10.232
632.57	11.123
632.90	10.088
633.23	11.633
633.56	12.429
633.89	11.891
634.22	12.145
634.55	10.651
634.88	11.377
635.20	11.231
635.53	12.169
635.86	10.149
636.19	11.176
636.52	11.880
636.85	10.424
637.18	12.327
637.51	12.057
637.83	9.618
638.16	11.637
638.49	11.965
638.82	13.148
639.15	12.250
639.48	13.965
639.81	12.198
640.13	12.500
640.46	12.752
640.79	12.417
641.12	10.041
641.45	11.872
641.77	12.224
642.10	13.158
642.43	12.162
642.76	13.158
643.09	13.190
643.41	13.961
643.74	15.432
644.07	11.890
644.40	15.951
644.73	15.276
645.05	14.422
645.38	13.586
645.71	13.849
646.04	12.791
646.36	16.694
646.69	15.719
647.02	13.946
647.35	14.261
647.67	14.867
648.00	14.309
648.33	13.036
648.66	12.879
648.98	13.193
649.31	11.510
649.64	12.556
649.96	12.370
650.29	14.376
650.62	13.592
650.94	15.235
651.27	13.851
651.60	14.309
651.92	14.856
652.25	12.378
652.58	13.084
652.90	14.060
653.23	11.864
