SpectraSuite Data File
++++++++++++++++++++++++++++++++++++
Date: Wed May 13 16:02:55 PDT 2015
User: schluterlab
Dark Spectrum Present: Yes
Reference Spectrum Present: Yes
Number of Sampled Component Spectra: 1
Spectrometers: USB2E3373
Integration Time (usec): 3000 (USB2E3373)
Spectra Averaged: 3 (USB2E3373)
Boxcar Smoothing: 0 (USB2E3373)
Correct for Electrical Dark: No (USB2E3373)
Strobe/Lamp Enabled: No (USB2E3373)
Correct for Detector Non-linearity: No (USB2E3373)
Correct for Stray Light: No (USB2E3373)
Number of Pixels in Processed Spectrum: 2048
>>>>>Begin Processed Spectral Data<<<<<
178.53	0.000
178.91	-600.000
179.29	-725.000
179.67	-61.111
180.04	-525.000
180.42	750.000
180.80	520.000
181.18	-300.000
181.56	214.286
181.94	0.000
182.31	-271.429
182.69	800.000
183.07	-100.000
183.45	-277.778
183.83	272.727
184.20	-90.000
184.58	800.000
184.96	2700.000
185.34	-240.000
185.72	-250.000
186.09	-1050.000
186.47	1350.000
186.85	1000.000
187.23	2200.000
187.61	-566.667
187.98	700.000
188.36	363.636
188.74	254.545
189.12	-340.000
189.49	230.000
189.87	-2400.000
190.25	-475.000
190.63	164.286
191.00	146.154
191.38	300.000
191.76	-400.000
192.14	700.000
192.51	225.000
192.89	433.333
193.27	175.000
193.65	-425.000
194.02	260.000
194.40	260.000
194.78	320.000
195.15	258.333
195.53	240.000
195.91	-700.000
196.29	143.750
196.66	136.842
197.04	-50.000
197.42	0.000
197.79	290.000
198.17	-1800.000
198.55	285.714
198.92	275.000
199.30	420.000
199.68	0.000
200.05	166.667
200.43	242.857
200.81	1800.000
201.18	766.667
201.56	-766.667
201.94	155.556
202.31	233.333
202.69	275.000
203.07	280.000
203.44	0.000
203.82	575.000
204.19	314.286
204.57	171.429
204.95	162.500
205.32	700.000
205.70	200.000
206.08	164.286
206.45	1100.000
206.83	193.750
207.20	450.000
207.58	300.000
207.96	155.556
208.33	275.000
208.71	-316.667
209.08	442.857
209.46	244.444
209.84	172.727
210.21	-200.000
210.59	650.000
210.96	-125.000
211.34	950.000
211.71	350.000
212.09	283.333
212.46	0.000
212.84	800.000
213.22	725.000
213.59	-1100.000
213.97	416.667
214.34	414.286
214.72	281.818
215.09	520.000
215.47	-800.000
215.84	-1300.000
216.22	600.000
216.59	157.143
216.97	675.000
217.34	100.000
217.72	-216.667
218.09	0.000
218.47	-1700.000
218.84	311.111
219.22	242.857
219.59	533.333
219.97	-185.714
220.34	280.000
220.72	-566.667
221.09	171.429
221.47	775.000
221.84	-466.667
222.22	0.000
222.59	425.000
222.97	-1000.000
223.34	560.000
223.72	200.000
224.09	360.000
224.46	300.000
224.84	-2000.000
225.21	-320.000
225.59	-1600.000
225.96	270.000
226.34	190.000
226.71	1600.000
227.08	387.500
227.46	360.000
227.83	-250.000
228.21	-1000.000
228.58	244.444
228.95	-1000.000
229.33	-1050.000
229.70	1100.000
230.08	457.143
230.45	-280.000
230.82	208.333
231.20	333.333
231.57	185.714
231.95	166.667
232.32	100.000
232.69	136.364
233.07	85.714
233.44	138.462
233.81	-666.667
234.19	136.842
234.56	283.333
234.93	141.667
235.31	136.364
235.68	115.385
236.05	135.714
236.43	90.909
236.80	142.105
237.17	1700.000
237.55	47.619
237.92	85.714
238.29	128.571
238.67	87.097
239.04	110.345
239.41	50.000
239.79	54.348
240.16	69.048
240.53	56.818
240.91	52.941
241.28	50.000
241.65	36.000
242.02	49.275
242.40	22.581
242.77	46.667
243.14	48.387
243.51	37.079
243.89	38.824
244.26	31.111
244.63	30.108
245.00	20.213
245.38	36.634
245.75	22.430
246.12	27.523
246.49	38.686
246.87	36.000
247.24	31.538
247.61	20.714
247.98	26.144
248.36	20.946
248.73	26.115
249.10	27.389
249.47	29.379
249.84	25.134
250.22	25.134
250.59	15.976
250.96	21.212
251.33	25.592
251.70	23.267
252.08	16.667
252.45	18.386
252.82	22.174
253.19	25.957
253.56	24.706
253.94	21.577
254.31	21.484
254.68	20.000
255.05	16.974
255.42	15.854
255.79	19.118
256.16	22.383
256.54	18.021
256.91	20.996
257.28	14.388
257.65	15.842
258.02	18.634
258.39	15.773
258.76	19.398
259.14	19.643
259.51	19.149
259.88	16.770
260.25	22.054
260.62	19.364
260.99	17.081
261.36	15.916
261.73	15.759
262.10	15.988
262.47	18.873
262.85	18.384
263.22	15.670
263.59	18.234
263.96	16.209
264.33	19.582
264.70	16.579
265.07	17.903
265.44	15.404
265.81	14.355
266.18	15.578
266.55	16.585
266.92	14.005
267.29	16.667
267.66	15.138
268.03	16.364
268.40	16.822
268.77	13.842
269.14	14.189
269.51	16.930
269.88	16.084
270.25	15.801
270.62	14.607
270.99	17.204
271.36	16.309
271.73	12.617
272.10	15.435
272.47	16.344
272.84	14.286
273.21	16.352
273.58	11.354
273.95	14.675
274.32	11.777
274.69	14.561
275.06	14.370
275.43	14.468
275.80	15.230
276.17	15.682
276.54	13.514
276.91	16.008
277.28	13.086
277.65	13.540
278.02	13.043
278.39	14.648
278.76	14.727
279.13	15.094
279.50	13.966
279.87	11.952
280.23	14.571
280.60	12.766
280.97	13.309
281.34	13.805
281.71	12.909
282.08	14.779
282.45	12.545
282.82	14.742
283.19	12.299
283.56	14.912
283.92	14.044
284.29	14.286
284.66	14.519
285.03	13.020
285.40	11.268
285.77	12.626
286.14	13.126
286.51	14.833
286.87	14.188
287.24	14.658
287.61	13.804
287.98	13.799
288.35	14.105
288.72	13.084
289.08	14.710
289.45	10.544
289.82	14.146
290.19	12.245
290.56	11.792
290.93	11.934
291.29	13.037
291.66	11.357
292.03	14.099
292.40	13.803
292.77	12.426
293.13	12.537
293.50	12.682
293.87	13.481
294.24	12.444
294.60	12.082
294.97	11.192
295.34	12.412
295.71	12.926
296.08	11.396
296.44	12.655
296.81	12.285
297.18	14.092
297.55	10.422
297.91	9.763
298.28	13.387
298.65	13.316
299.02	12.516
299.38	11.819
299.75	10.512
300.12	10.728
300.48	11.375
300.85	12.947
301.22	11.210
301.59	10.606
301.95	12.469
302.32	11.168
302.69	10.394
303.05	11.636
303.42	10.864
303.79	11.665
304.15	11.305
304.52	10.776
304.89	12.311
305.25	12.297
305.62	13.024
305.99	12.279
306.35	11.409
306.72	11.659
307.09	11.654
307.45	12.950
307.82	11.049
308.19	12.362
308.55	12.945
308.92	11.063
309.29	11.510
309.65	11.241
310.02	11.416
310.38	11.398
310.75	11.299
311.12	11.566
311.48	12.539
311.85	11.530
312.22	11.863
312.58	11.538
312.95	12.460
313.31	12.039
313.68	12.266
314.05	13.314
314.41	12.161
314.78	12.790
315.14	12.810
315.51	12.667
315.87	12.772
316.24	12.512
316.61	13.548
316.97	12.133
317.34	11.155
317.70	11.855
318.07	13.474
318.43	13.405
318.80	13.590
319.16	13.465
319.53	13.321
319.89	13.143
320.26	13.900
320.62	14.583
320.99	13.636
321.35	14.141
321.72	14.066
322.08	14.314
322.45	15.323
322.81	13.275
323.18	14.933
323.54	13.544
323.91	15.094
324.27	14.818
324.64	13.327
325.00	13.886
325.37	14.923
325.73	15.260
326.10	15.269
326.46	13.351
326.83	14.840
327.19	14.688
327.56	15.244
327.92	15.661
328.29	15.883
328.65	14.365
329.01	15.162
329.38	15.541
329.74	14.774
330.11	14.892
330.47	14.417
330.84	16.544
331.20	15.392
331.56	14.312
331.93	14.352
332.29	15.617
332.66	15.310
333.02	14.808
333.38	15.447
333.75	14.795
334.11	15.836
334.48	14.818
334.84	15.165
335.20	15.636
335.57	14.687
335.93	14.286
336.29	14.652
336.66	15.059
337.02	14.299
337.38	14.537
337.75	13.815
338.11	14.414
338.47	15.746
338.84	14.299
339.20	14.495
339.56	15.146
339.93	13.727
340.29	14.040
340.65	14.706
341.02	14.834
341.38	13.434
341.74	14.912
342.11	14.410
342.47	14.097
342.83	14.726
343.20	14.545
343.56	13.985
343.92	13.509
344.28	14.966
344.65	14.703
345.01	13.468
345.37	12.607
345.73	13.621
346.10	14.578
346.46	14.915
346.82	14.086
347.19	13.116
347.55	12.397
347.91	14.078
348.27	14.051
348.63	14.381
349.00	12.783
349.36	14.122
349.72	14.114
350.08	13.533
350.45	13.751
350.81	13.323
351.17	14.587
351.53	13.432
351.89	13.119
352.26	14.365
352.62	13.793
352.98	14.182
353.34	13.887
353.70	12.766
354.07	13.387
354.43	13.968
354.79	13.113
355.15	13.248
355.51	13.989
355.87	13.551
356.24	13.599
356.60	13.713
356.96	12.953
357.32	13.328
357.68	13.465
358.04	13.618
358.40	13.935
358.77	12.441
359.13	12.707
359.49	12.706
359.85	11.032
360.21	13.796
360.57	13.619
360.93	13.769
361.29	12.698
361.66	13.158
362.02	13.881
362.38	13.688
362.74	13.467
363.10	12.879
363.46	13.720
363.82	13.076
364.18	13.436
364.54	12.927
364.90	14.093
365.26	11.985
365.62	13.660
365.98	12.783
366.35	13.682
366.71	13.449
367.07	13.110
367.43	13.788
367.79	15.132
368.15	13.362
368.51	13.081
368.87	14.133
369.23	12.802
369.59	12.962
369.95	13.382
370.31	13.604
370.67	13.768
371.03	14.981
371.39	14.067
371.75	13.382
372.11	13.371
372.47	14.296
372.83	13.761
373.19	13.295
373.55	14.043
373.91	13.844
374.27	15.120
374.63	13.600
374.99	14.689
375.35	13.538
375.71	14.531
376.07	14.335
376.42	14.512
376.78	14.182
377.14	14.654
377.50	14.967
377.86	13.763
378.22	15.171
378.58	13.659
378.94	14.771
379.30	14.313
379.66	14.911
380.02	15.602
380.38	14.754
380.74	15.126
381.09	15.159
381.45	15.120
381.81	15.233
382.17	15.159
382.53	14.025
382.89	15.926
383.25	14.884
383.61	15.799
383.97	15.447
384.32	15.970
384.68	15.366
385.04	15.120
385.40	15.604
385.76	15.295
386.12	15.544
386.48	16.174
386.83	15.394
387.19	16.512
387.55	15.832
387.91	16.445
388.27	16.002
388.62	16.288
388.98	15.111
389.34	17.146
389.70	16.493
390.06	16.286
390.42	16.148
390.77	16.667
391.13	16.528
391.49	17.449
391.85	16.104
392.20	15.773
392.56	16.919
392.92	16.245
393.28	15.562
393.64	16.667
393.99	16.921
394.35	16.749
394.71	16.939
395.07	16.386
395.42	16.749
395.78	16.730
396.14	16.325
396.50	16.855
396.85	17.101
397.21	16.523
397.57	16.553
397.92	16.647
398.28	16.087
398.64	16.547
399.00	16.340
399.35	16.526
399.71	17.014
400.07	16.499
400.42	16.442
400.78	17.612
401.14	15.793
401.49	16.418
401.85	15.850
402.21	16.228
402.57	16.101
402.92	16.204
403.28	16.552
403.63	16.151
403.99	16.688
404.35	16.061
404.70	15.348
405.06	15.725
405.42	16.344
405.77	15.600
406.13	16.253
406.49	16.381
406.84	16.421
407.20	16.017
407.55	16.082
407.91	15.533
408.27	15.571
408.62	15.713
408.98	15.625
409.34	16.421
409.69	16.129
410.05	15.985
410.40	16.086
410.76	15.352
411.11	16.285
411.47	15.527
411.83	15.211
412.18	15.275
412.54	15.753
412.89	16.265
413.25	15.289
413.60	16.492
413.96	16.090
414.31	15.431
414.67	15.399
415.03	15.960
415.38	16.044
415.74	15.113
416.09	15.741
416.45	15.462
416.80	16.656
417.16	16.287
417.51	15.461
417.87	15.093
418.22	15.836
418.58	16.010
418.93	15.848
419.29	15.786
419.64	15.176
420.00	15.244
420.35	16.174
420.71	15.780
421.06	15.573
421.42	14.971
421.77	15.695
422.12	15.216
422.48	14.733
422.83	14.386
423.19	15.193
423.54	15.264
423.90	14.841
424.25	15.299
424.61	15.179
424.96	16.210
425.31	15.393
425.67	14.663
426.02	15.486
426.38	16.239
426.73	14.628
427.09	16.353
427.44	15.239
427.79	14.549
428.15	15.417
428.50	16.325
428.85	15.673
429.21	14.633
429.56	16.019
429.92	14.595
430.27	14.548
430.62	14.542
430.98	14.894
431.33	15.309
431.68	15.236
432.04	15.389
432.39	14.963
432.74	14.961
433.10	15.507
433.45	15.160
433.80	14.523
434.16	15.865
434.51	14.842
434.86	15.450
435.22	15.453
435.57	15.258
435.92	14.394
436.28	15.540
436.63	15.894
436.98	14.654
437.34	15.027
437.69	15.169
438.04	14.165
438.39	15.463
438.75	15.805
439.10	14.972
439.45	15.466
439.81	14.864
440.16	15.302
440.51	15.524
440.86	15.692
441.22	14.850
441.57	15.870
441.92	15.353
442.27	15.393
442.63	15.271
442.98	15.099
443.33	14.891
443.68	15.230
444.03	15.520
444.39	14.557
444.74	15.584
445.09	15.472
445.44	14.926
445.79	15.438
446.15	15.511
446.50	15.240
446.85	14.902
447.20	15.706
447.55	15.522
447.91	15.720
448.26	15.637
448.61	15.602
448.96	15.172
449.31	14.848
449.66	14.800
450.02	15.265
450.37	15.363
450.72	15.116
451.07	14.260
451.42	14.529
451.77	15.150
452.12	15.069
452.47	15.672
452.83	15.385
453.18	15.037
453.53	15.894
453.88	15.653
454.23	15.541
454.58	16.233
454.93	16.338
455.28	14.713
455.63	15.049
455.98	15.357
456.34	15.075
456.69	15.717
457.04	15.542
457.39	15.196
457.74	16.077
458.09	15.871
458.44	15.051
458.79	14.642
459.14	15.293
459.49	15.528
459.84	14.958
460.19	14.555
460.54	15.220
460.89	15.524
461.24	15.118
461.59	16.037
461.94	14.858
462.29	15.371
462.64	15.826
462.99	15.485
463.34	15.867
463.69	14.759
464.04	15.710
464.39	15.710
464.74	15.567
465.09	14.596
465.44	14.571
465.79	14.933
466.14	15.654
466.49	14.405
466.84	15.061
467.19	15.329
467.54	15.375
467.89	15.846
468.24	15.067
468.59	16.178
468.94	15.394
469.29	15.296
469.64	15.797
469.99	15.562
470.34	15.258
470.68	15.733
471.03	15.102
471.38	16.122
471.73	15.256
472.08	15.658
472.43	15.264
472.78	15.207
473.13	15.340
473.48	15.481
473.83	15.366
474.17	16.241
474.52	14.826
474.87	15.178
475.22	15.438
475.57	14.508
475.92	14.657
476.27	15.163
476.61	14.727
476.96	15.393
477.31	14.600
477.66	14.934
478.01	15.787
478.36	14.913
478.70	14.278
479.05	15.122
479.40	15.558
479.75	15.099
480.10	14.513
480.45	14.279
480.79	14.286
481.14	15.460
481.49	15.093
481.84	15.501
482.19	14.993
482.53	14.725
482.88	14.518
483.23	14.439
483.58	15.150
483.92	14.995
484.27	13.682
484.62	14.871
484.97	14.072
485.31	14.658
485.66	13.668
486.01	13.430
486.36	12.987
486.70	12.958
487.05	13.419
487.40	13.994
487.75	13.609
488.09	14.164
488.44	13.909
488.79	14.358
489.13	14.553
489.48	14.600
489.83	14.631
490.17	14.423
490.52	14.260
490.87	14.337
491.22	14.643
491.56	14.032
491.91	13.774
492.26	13.734
492.60	14.700
492.95	13.798
493.30	14.673
493.64	14.232
493.99	14.531
494.34	14.755
494.68	15.476
495.03	14.427
495.37	14.518
495.72	14.766
496.07	14.988
496.41	13.540
496.76	15.040
497.11	14.003
497.45	15.091
497.80	14.683
498.14	13.865
498.49	14.878
498.84	14.094
499.18	14.238
499.53	14.340
499.87	14.678
500.22	14.790
500.56	14.515
500.91	14.087
501.26	14.557
501.60	15.093
501.95	14.024
502.29	14.948
502.64	13.966
502.98	14.680
503.33	14.808
503.67	14.803
504.02	14.874
504.36	14.413
504.71	14.949
505.06	15.181
505.40	14.973
505.75	14.561
506.09	14.480
506.44	14.356
506.78	14.564
507.13	14.488
507.47	14.697
507.82	14.184
508.16	14.792
508.51	14.612
508.85	14.548
509.19	14.490
509.54	14.745
509.88	14.529
510.23	15.064
510.57	15.377
510.92	15.691
511.26	15.211
511.61	15.716
511.95	14.509
512.30	15.217
512.64	15.583
512.98	14.684
513.33	14.561
513.67	14.781
514.02	14.340
514.36	15.128
514.70	14.776
515.05	14.835
515.39	15.143
515.74	15.428
516.08	16.098
516.42	15.649
516.77	15.719
517.11	14.650
517.46	15.971
517.80	15.796
518.14	15.229
518.49	15.403
518.83	15.227
519.17	15.647
519.52	15.167
519.86	16.030
520.20	15.896
520.55	15.799
520.89	15.754
521.23	15.983
521.58	15.546
521.92	16.044
522.26	15.009
522.61	16.012
522.95	16.083
523.29	15.642
523.64	16.159
523.98	16.143
524.32	15.802
524.66	16.236
525.01	16.912
525.35	15.551
525.69	15.209
526.04	16.012
526.38	15.375
526.72	16.012
527.06	16.447
527.41	14.666
527.75	15.498
528.09	16.057
528.43	15.806
528.78	16.288
529.12	14.909
529.46	16.167
529.80	15.842
530.15	15.826
530.49	16.000
530.83	16.139
531.17	15.405
531.51	16.732
531.86	16.129
532.20	17.145
532.54	16.079
532.88	15.982
533.22	15.116
533.57	15.741
533.91	15.473
534.25	15.067
534.59	15.802
534.93	15.824
535.27	15.389
535.62	15.995
535.96	14.940
536.30	15.639
536.64	15.518
536.98	15.859
537.32	15.734
537.66	15.600
538.01	15.668
538.35	16.354
538.69	16.273
539.03	15.140
539.37	15.080
539.71	15.036
540.05	15.490
540.39	15.548
540.73	15.524
541.07	15.120
541.42	16.895
541.76	15.097
542.10	15.330
542.44	15.099
542.78	15.876
543.12	14.843
543.46	16.393
543.80	15.485
544.14	15.083
544.48	16.063
544.82	15.394
545.16	14.639
545.50	14.717
545.84	15.323
546.18	16.498
546.52	16.105
546.86	16.220
547.20	16.116
547.54	15.564
547.88	15.242
548.22	15.006
548.56	15.157
548.90	15.109
549.24	15.690
549.58	16.235
549.92	15.041
550.26	15.838
550.60	14.938
550.94	15.915
551.28	14.411
551.62	16.319
551.96	15.158
552.30	15.631
552.64	16.024
552.98	15.119
553.32	15.105
553.66	15.883
554.00	15.580
554.34	16.218
554.68	15.951
555.02	15.021
555.36	15.727
555.69	15.359
556.03	15.410
556.37	14.120
556.71	14.529
557.05	13.936
557.39	16.165
557.73	15.596
558.07	15.809
558.41	14.906
558.75	16.018
559.08	16.480
559.42	15.646
559.76	16.250
560.10	14.775
560.44	15.094
560.78	14.105
561.12	14.908
561.45	14.602
561.79	14.964
562.13	15.023
562.47	14.959
562.81	15.900
563.15	15.853
563.48	14.854
563.82	15.199
564.16	15.631
564.50	14.779
564.84	15.487
565.17	14.543
565.51	15.591
565.85	14.657
566.19	14.652
566.52	15.326
566.86	14.587
567.20	15.448
567.54	15.068
567.88	13.905
568.21	14.709
568.55	14.307
568.89	13.959
569.23	13.948
569.56	14.008
569.90	13.509
570.24	13.455
570.57	13.091
570.91	13.090
571.25	13.403
571.59	13.314
571.92	12.759
572.26	13.489
572.60	12.763
572.93	13.583
573.27	13.576
573.61	13.428
573.95	13.514
574.28	12.663
574.62	12.609
574.96	12.784
575.29	12.900
575.63	12.983
575.97	13.148
576.30	13.303
576.64	12.712
576.98	13.077
577.31	12.847
577.65	12.790
577.98	12.525
578.32	12.470
578.66	12.872
578.99	12.554
579.33	12.757
579.67	12.454
580.00	12.875
580.34	12.743
580.67	12.857
581.01	13.132
581.35	12.579
581.68	12.646
582.02	12.314
582.35	12.785
582.69	13.000
583.02	12.722
583.36	13.027
583.70	13.262
584.03	13.140
584.37	13.202
584.70	13.009
585.04	13.014
585.37	12.651
585.71	13.322
586.04	13.312
586.38	13.349
586.72	13.201
587.05	12.795
587.39	12.744
587.72	13.321
588.06	13.127
588.39	12.730
588.73	13.288
589.06	13.275
589.40	13.535
589.73	13.798
590.07	13.132
590.40	13.592
590.73	13.583
591.07	13.960
591.40	14.129
591.74	14.199
592.07	13.482
592.41	14.014
592.74	13.408
593.08	13.524
593.41	13.382
593.75	13.086
594.08	13.476
594.41	13.291
594.75	14.233
595.08	13.958
595.42	13.485
595.75	13.141
596.09	13.744
596.42	13.988
596.75	13.381
597.09	14.459
597.42	13.828
597.75	13.670
598.09	14.261
598.42	13.316
598.76	14.430
599.09	13.113
599.42	12.991
599.76	13.726
600.09	13.188
600.42	13.477
600.76	13.036
601.09	13.625
601.42	12.823
601.76	13.169
602.09	13.439
602.42	13.376
602.76	14.268
603.09	13.375
603.42	14.096
603.76	12.995
604.09	12.990
604.42	13.698
604.76	14.298
605.09	13.893
605.42	13.809
605.75	13.162
606.09	13.095
606.42	13.159
606.75	13.729
607.09	13.813
607.42	13.222
607.75	13.122
608.08	13.504
608.42	13.895
608.75	13.481
609.08	13.784
609.41	12.803
609.75	13.673
610.08	13.996
610.41	13.687
610.74	13.813
611.07	13.389
611.41	13.739
611.74	14.178
612.07	13.872
612.40	14.481
612.73	13.474
613.07	13.847
613.40	14.745
613.73	13.477
614.06	14.194
614.39	13.896
614.72	14.632
615.06	13.655
615.39	14.331
615.72	12.986
616.05	14.141
616.38	13.785
616.71	13.599
617.05	14.370
617.38	13.590
617.71	13.574
618.04	13.822
618.37	13.720
618.70	13.939
619.03	15.066
619.36	15.003
619.69	15.000
620.03	15.110
620.36	15.241
620.69	15.274
621.02	15.044
621.35	15.192
621.68	14.252
622.01	14.628
622.34	14.675
622.67	15.133
623.00	13.353
623.33	13.939
623.66	15.154
623.99	15.022
624.32	15.264
624.65	14.760
624.99	13.669
625.32	13.903
625.65	14.876
625.98	15.065
626.31	15.630
626.64	16.327
626.97	14.963
627.30	14.879
627.63	15.258
627.96	15.223
628.29	15.223
628.62	16.285
628.95	16.132
629.28	14.599
629.61	15.857
629.94	15.048
630.26	15.729
630.59	15.729
630.92	15.421
631.25	15.104
631.58	15.616
631.91	15.314
