SpectraSuite Data File
++++++++++++++++++++++++++++++++++++
Date: Wed May 13 16:53:40 PDT 2015
User: schluterlab
Dark Spectrum Present: Yes
Reference Spectrum Present: Yes
Number of Sampled Component Spectra: 1
Spectrometers: USB2E3373
Integration Time (usec): 3000 (USB2E3373)
Spectra Averaged: 3 (USB2E3373)
Boxcar Smoothing: 0 (USB2E3373)
Correct for Electrical Dark: No (USB2E3373)
Strobe/Lamp Enabled: No (USB2E3373)
Correct for Detector Non-linearity: No (USB2E3373)
Correct for Stray Light: No (USB2E3373)
Number of Pixels in Processed Spectrum: 2048
>>>>>Begin Processed Spectral Data<<<<<
178.53	0.000
178.91	-1350.000
179.29	-1650.000
179.67	-216.667
180.04	-1325.000
180.42	2700.000
180.80	960.000
181.18	-1100.000
181.56	771.429
181.94	0.000
182.31	-685.714
182.69	1766.667
183.07	-637.500
183.45	-522.222
183.83	454.545
184.20	-380.000
184.58	2250.000
184.96	4900.000
185.34	-900.000
185.72	-687.500
186.09	-1950.000
186.47	2650.000
186.85	1950.000
187.23	4500.000
187.61	-1566.667
187.98	1475.000
188.36	572.727
188.74	500.000
189.12	-820.000
189.49	610.000
189.87	-5000.000
190.25	-1175.000
190.63	414.286
191.00	392.308
191.38	700.000
191.76	-1400.000
192.14	1525.000
192.51	750.000
192.89	1066.667
193.27	550.000
193.65	-1075.000
194.02	480.000
194.40	1080.000
194.78	600.000
195.15	591.667
195.53	650.000
195.91	-1950.000
196.29	400.000
196.66	321.053
197.04	-380.000
197.42	0.000
197.79	640.000
198.17	-4900.000
198.55	685.714
198.92	725.000
199.30	1020.000
199.68	0.000
200.05	372.222
200.43	757.143
200.81	5300.000
201.18	1766.667
201.56	-2000.000
201.94	577.778
202.31	577.778
202.69	391.667
203.07	550.000
203.44	0.000
203.82	1150.000
204.19	757.143
204.57	442.857
204.95	662.500
205.32	1566.667
205.70	418.182
206.08	335.714
206.45	2850.000
206.83	325.000
207.20	883.333
207.58	840.000
207.96	338.889
208.33	700.000
208.71	-750.000
209.08	857.143
209.46	522.222
209.84	481.818
210.21	-1533.333
210.59	1450.000
210.96	-575.000
211.34	2750.000
211.71	600.000
212.09	650.000
212.46	0.000
212.84	1600.000
213.22	1325.000
213.59	-3900.000
213.97	750.000
214.34	700.000
214.72	590.909
215.09	1100.000
215.47	-2600.000
215.84	-2450.000
216.22	2033.333
216.59	471.429
216.97	1325.000
217.34	500.000
217.72	-666.667
218.09	0.000
218.47	-5600.000
218.84	622.222
219.22	728.571
219.59	1633.333
219.97	-571.429
220.34	1040.000
220.72	-1566.667
221.09	371.429
221.47	1350.000
221.84	-900.000
222.22	0.000
222.59	1575.000
222.97	-2550.000
223.34	940.000
223.72	438.462
224.09	1120.000
224.46	2400.000
224.84	-4500.000
225.21	-860.000
225.59	-5600.000
225.96	580.000
226.34	295.000
226.71	2750.000
227.08	625.000
227.46	550.000
227.83	-700.000
228.21	-2400.000
228.58	688.889
228.95	-2200.000
229.33	-2200.000
229.70	1766.667
230.08	671.429
230.45	-840.000
230.82	383.333
231.20	883.333
231.57	571.429
231.95	450.000
232.32	245.455
232.69	400.000
233.07	785.714
233.44	330.769
233.81	-1466.667
234.19	278.947
234.56	433.333
234.93	341.667
235.31	445.455
235.68	361.538
236.05	314.286
236.43	184.848
236.80	273.684
237.17	3500.000
237.55	271.429
237.92	175.000
238.29	295.238
238.67	183.871
239.04	165.517
239.41	119.444
239.79	100.000
240.16	104.762
240.53	102.273
240.91	100.000
241.28	86.000
241.65	88.000
242.02	75.362
242.40	77.419
242.77	78.333
243.14	62.366
243.51	65.169
243.89	58.824
244.26	47.778
244.63	44.086
245.00	48.936
245.38	52.475
245.75	43.925
246.12	34.862
246.49	43.796
246.87	48.000
247.24	43.846
247.61	32.857
247.98	39.869
248.36	31.081
248.73	30.573
249.10	30.573
249.47	25.424
249.84	33.690
250.22	29.412
250.59	24.852
250.96	25.253
251.33	28.910
251.70	27.228
252.08	24.762
252.45	21.973
252.82	22.609
253.19	20.000
253.56	22.745
253.94	23.651
254.31	25.000
254.68	25.000
255.05	25.092
255.42	17.886
255.79	19.853
256.16	20.578
256.54	20.848
256.91	20.996
257.28	12.590
257.65	19.142
258.02	18.012
258.39	17.981
258.76	17.391
259.14	20.238
259.51	18.541
259.88	12.112
260.25	17.221
260.62	14.162
260.99	12.422
261.36	17.117
261.73	12.034
262.10	15.407
262.47	13.803
262.85	15.877
263.22	11.681
263.59	14.815
263.96	11.813
264.33	15.666
264.70	14.474
265.07	16.624
265.44	12.374
265.81	13.139
266.18	15.829
266.55	11.220
266.92	11.794
267.29	16.204
267.66	13.991
268.03	11.364
268.40	11.916
268.77	10.263
269.14	11.937
269.51	12.641
269.88	11.655
270.25	13.995
270.62	10.112
270.99	14.194
271.36	12.661
271.73	10.981
272.10	12.826
272.47	13.548
272.84	11.905
273.21	12.579
273.58	10.044
273.95	11.530
274.32	10.744
274.69	10.064
275.06	9.646
275.43	12.766
275.80	11.623
276.17	8.147
276.54	10.603
276.91	10.870
277.28	10.547
277.65	10.445
278.02	8.903
278.39	11.133
278.76	11.091
279.13	10.755
279.50	11.546
279.87	10.558
280.23	10.778
280.60	9.091
280.97	9.427
281.34	9.027
281.71	11.455
282.08	9.597
282.45	9.091
282.82	9.947
283.19	9.269
283.56	9.649
283.92	9.983
284.29	8.642
284.66	8.530
285.03	9.765
285.40	7.923
285.77	9.596
286.14	8.463
286.51	9.167
286.87	9.231
287.24	10.423
287.61	6.902
287.98	9.578
288.35	8.399
288.72	8.723
289.08	9.546
289.45	9.885
289.82	7.317
290.19	6.436
290.56	8.882
290.93	8.006
291.29	8.282
291.66	8.112
292.03	9.302
292.40	11.160
292.77	8.432
293.13	8.955
293.50	6.997
293.87	7.259
294.24	7.704
294.60	6.841
294.97	7.558
295.34	8.039
295.71	8.097
296.08	7.550
296.44	7.840
296.81	7.266
297.18	9.621
297.55	5.937
297.91	8.443
298.28	7.631
298.65	9.008
299.02	7.905
299.38	6.773
299.75	4.987
300.12	5.619
300.48	7.375
300.85	7.645
301.22	7.516
301.59	6.187
301.95	7.053
302.32	7.317
302.69	7.527
303.05	6.545
303.42	6.296
303.79	7.248
304.15	5.944
304.52	7.648
304.89	5.575
305.25	6.961
305.62	7.248
305.99	7.084
306.35	6.711
306.72	7.175
307.09	6.881
307.45	8.671
307.82	5.246
308.19	7.395
308.55	7.551
308.92	6.337
309.29	6.864
309.65	6.257
310.02	6.660
310.38	6.452
310.75	6.758
311.12	7.369
311.48	7.628
311.85	7.757
312.22	7.804
312.58	6.549
312.95	7.709
313.31	6.990
313.68	6.653
314.05	9.270
314.41	8.945
314.78	7.654
315.14	8.242
315.51	8.857
315.87	8.020
316.24	9.037
316.61	8.674
316.97	8.317
317.34	7.828
317.70	9.560
318.07	9.143
318.43	9.100
318.80	9.653
319.16	9.887
319.53	10.507
319.89	11.143
320.26	11.200
320.62	10.913
320.99	10.909
321.35	11.717
321.72	12.936
322.08	12.241
322.45	13.035
322.81	13.857
323.18	13.584
323.54	12.430
323.91	14.717
324.27	13.002
324.64	13.234
325.00	13.796
325.37	14.832
325.73	15.260
326.10	15.446
326.46	16.219
326.83	16.480
327.19	16.482
327.56	18.380
327.92	17.673
328.29	17.036
328.65	18.048
329.01	18.682
329.38	18.686
329.74	17.544
330.11	18.756
330.47	19.467
330.84	19.761
331.20	18.852
331.56	20.550
331.93	17.685
332.29	20.586
332.66	20.177
333.02	20.750
333.38	20.867
333.75	21.480
334.11	20.641
334.48	20.852
334.84	20.588
335.20	20.545
335.57	20.490
335.93	19.464
336.29	20.421
336.66	21.551
337.02	19.910
337.38	20.833
337.75	20.410
338.11	20.770
338.47	20.350
338.84	20.073
339.20	19.817
339.56	21.898
339.93	20.091
340.29	22.011
340.65	19.697
341.02	21.815
341.38	20.819
341.74	21.754
342.11	21.397
342.47	21.145
342.83	20.034
343.20	21.818
343.56	21.314
343.92	19.825
344.28	21.854
344.65	21.668
345.01	20.286
345.37	20.326
345.73	20.897
346.10	19.949
346.46	20.593
346.82	20.593
347.19	19.799
347.55	20.279
347.91	20.146
348.27	21.200
348.63	21.321
349.00	21.117
349.36	21.100
349.72	21.812
350.08	20.502
350.45	21.074
350.81	20.552
351.17	20.583
351.53	21.212
351.89	19.389
352.26	22.099
352.62	21.091
352.98	21.070
353.34	20.953
353.70	20.704
354.07	20.806
354.43	19.841
354.79	20.917
355.15	20.351
355.51	21.023
355.87	22.041
356.24	20.358
356.60	19.968
356.96	20.837
357.32	20.605
357.68	20.630
358.04	20.744
358.40	21.615
358.77	20.188
359.13	20.205
359.49	21.804
359.85	19.524
360.21	19.777
360.57	20.778
360.93	21.462
361.29	20.786
361.66	21.130
362.02	20.821
362.38	21.065
362.74	20.982
363.10	20.947
363.46	20.616
363.82	21.315
364.18	20.705
364.54	21.025
364.90	21.955
365.26	20.956
365.62	21.841
365.98	21.402
366.35	20.559
366.71	22.343
367.07	21.413
367.43	21.988
367.79	22.555
368.15	22.270
368.51	21.802
368.87	21.699
369.23	21.653
369.59	21.579
369.95	21.176
370.31	22.009
370.67	21.667
371.03	23.446
371.39	21.939
371.75	22.353
372.11	21.764
372.47	23.754
372.83	22.983
373.19	22.616
373.55	21.877
373.91	23.564
374.27	21.718
374.63	22.836
374.99	23.588
375.35	22.470
375.71	22.824
376.07	23.388
376.42	23.659
376.78	22.929
377.14	22.252
377.50	22.715
377.86	22.872
378.22	23.578
378.58	22.306
378.94	23.507
379.30	23.601
379.66	24.175
380.02	23.894
380.38	23.740
380.74	23.289
381.09	24.694
381.45	24.524
381.81	24.201
382.17	24.140
382.53	24.025
382.89	25.062
383.25	24.891
383.61	25.279
383.97	24.453
384.32	24.392
384.68	24.102
385.04	25.630
385.40	24.706
385.76	24.386
386.12	24.547
386.48	25.991
386.83	24.759
387.19	25.850
387.55	24.923
387.91	24.970
388.27	24.280
388.62	25.077
388.98	24.509
389.34	25.845
389.70	25.628
390.06	26.869
390.42	24.838
390.77	25.763
391.13	25.973
391.49	25.571
391.85	25.398
392.20	25.678
392.56	25.316
392.92	25.486
393.28	24.497
393.64	26.799
393.99	25.718
394.35	25.372
394.71	25.784
395.07	25.109
395.42	25.896
395.78	26.145
396.14	25.574
396.50	25.689
396.85	25.366
397.21	24.476
397.57	24.613
397.92	25.962
398.28	25.168
398.64	25.747
399.00	25.518
399.35	25.268
399.71	24.537
400.07	25.370
400.42	24.540
400.78	25.090
401.14	25.244
401.49	24.955
401.85	24.501
402.21	24.611
402.57	24.800
402.92	25.536
403.28	24.922
403.63	25.619
403.99	24.586
404.35	24.545
404.70	24.760
405.06	25.218
405.42	25.452
405.77	24.629
406.13	23.758
406.49	24.778
406.84	24.454
407.20	24.113
407.55	25.973
407.91	25.467
408.27	25.782
408.62	25.166
408.98	24.449
409.34	24.539
409.69	25.161
410.05	24.659
410.40	24.893
410.76	24.970
411.11	23.945
411.47	24.217
411.83	24.435
412.18	23.686
412.54	24.907
412.89	24.940
413.25	24.734
413.60	25.015
413.96	23.983
414.31	24.605
414.67	24.715
415.03	23.377
415.38	25.258
415.74	24.051
416.09	24.494
416.45	24.833
416.80	24.983
417.16	24.732
417.51	24.818
417.87	23.892
418.22	24.858
418.58	24.597
418.93	24.877
419.29	24.507
419.64	25.126
420.00	23.902
420.35	24.116
420.71	24.626
421.06	24.642
421.42	23.860
421.77	24.608
422.12	23.751
422.48	23.206
422.83	24.520
423.19	23.867
423.54	24.724
423.90	24.116
424.25	24.567
424.61	23.452
424.96	24.023
425.31	24.474
425.67	23.820
426.02	23.486
426.38	25.214
426.73	23.581
427.09	24.498
427.44	23.577
427.79	23.577
428.15	24.940
428.50	24.166
428.85	24.255
429.21	23.136
429.56	23.484
429.92	24.157
430.27	23.436
430.62	23.246
430.98	23.352
431.33	23.814
431.68	23.927
432.04	23.429
432.39	23.187
432.74	24.057
433.10	23.656
433.45	23.965
433.80	23.559
434.16	24.199
434.51	23.526
434.86	23.432
435.22	23.735
435.57	23.587
435.92	23.581
436.28	24.437
436.63	24.448
436.98	24.385
437.34	24.448
437.69	24.096
438.04	23.496
438.39	24.060
438.75	24.869
439.10	23.575
439.45	24.026
439.81	24.048
440.16	23.151
440.51	24.312
440.86	24.204
441.22	22.859
441.57	24.151
441.92	23.490
442.27	23.197
442.63	23.539
442.98	24.169
443.33	24.511
443.68	23.129
444.03	23.280
444.39	23.272
444.74	23.701
445.09	23.450
445.44	23.783
445.79	23.652
446.15	23.663
446.50	23.748
446.85	23.279
447.20	24.222
447.55	24.176
447.91	23.662
448.26	23.817
448.61	23.233
448.96	23.865
449.31	24.128
449.66	24.198
450.02	22.953
450.37	24.093
450.72	23.801
451.07	23.522
451.42	23.465
451.77	24.193
452.12	23.326
452.47	23.756
452.83	23.893
453.18	23.350
453.53	23.377
453.88	22.918
454.23	23.371
454.58	23.622
454.93	24.412
455.28	23.005
455.63	22.998
455.98	24.226
456.34	22.739
456.69	23.482
457.04	23.715
457.39	23.261
457.74	22.751
458.09	22.714
458.44	23.375
458.79	23.319
459.14	24.041
459.49	23.584
459.84	23.047
460.19	22.687
460.54	22.627
460.89	23.094
461.24	24.408
461.59	24.114
461.94	23.428
462.29	23.145
462.64	23.229
462.99	22.251
463.34	23.933
463.69	23.827
464.04	23.014
464.39	23.014
464.74	22.757
465.09	23.221
465.44	23.047
465.79	22.539
466.14	22.770
466.49	22.636
466.84	22.650
467.19	22.873
467.54	23.562
467.89	22.569
468.24	23.153
468.59	22.955
468.94	22.663
469.29	23.201
469.64	23.226
469.99	23.613
470.34	22.787
470.68	23.348
471.03	21.973
471.38	23.141
471.73	22.652
472.08	23.421
472.43	21.985
472.78	22.383
473.13	22.657
473.48	22.909
473.83	22.744
474.17	21.344
474.52	22.643
474.87	23.117
475.22	22.577
475.57	22.192
475.92	21.455
476.27	20.970
476.61	22.063
476.96	21.660
477.31	21.455
477.66	21.663
478.01	21.432
478.36	21.629
478.70	21.599
479.05	22.045
479.40	21.341
479.75	22.318
480.10	21.620
480.45	21.609
480.79	20.736
481.14	21.673
481.49	21.642
481.84	21.399
482.19	21.399
482.53	20.872
482.88	21.359
483.23	21.215
483.58	21.429
483.92	21.228
484.27	20.610
484.62	20.733
484.97	20.891
485.31	21.404
485.66	21.534
486.01	20.339
486.36	19.336
486.70	18.869
487.05	19.441
487.40	19.612
487.75	19.962
488.09	20.049
488.44	19.880
488.79	20.217
489.13	20.894
489.48	20.106
489.83	19.940
490.17	20.517
490.52	19.708
490.87	21.031
491.22	20.600
491.56	19.863
491.91	19.730
492.26	20.625
492.60	20.829
492.95	19.972
493.30	20.374
493.64	20.112
493.99	19.591
494.34	20.305
494.68	20.421
495.03	20.066
495.37	20.568
495.72	20.614
496.07	20.093
496.41	19.735
496.76	19.745
497.11	20.351
497.45	19.842
497.80	20.010
498.14	19.227
498.49	20.341
498.84	21.237
499.18	20.429
499.53	20.608
499.87	20.503
500.22	20.396
500.56	20.874
500.91	19.375
501.26	20.057
501.60	20.313
501.95	20.119
502.29	20.056
502.64	20.158
502.98	20.243
503.33	19.287
503.67	20.232
504.02	19.645
504.36	20.309
504.71	20.029
505.06	19.518
505.40	20.078
505.75	18.852
506.09	20.117
506.44	19.290
506.78	19.825
507.13	19.334
507.47	19.949
507.82	19.757
508.16	20.263
508.51	20.649
508.85	20.010
509.19	19.388
509.54	20.153
509.88	19.578
510.23	19.692
510.57	20.485
510.92	19.213
511.26	18.911
511.61	20.332
511.95	19.572
512.30	19.565
512.64	19.130
512.98	19.989
513.33	20.075
513.67	19.264
514.02	18.885
514.36	19.498
514.70	20.421
515.05	20.413
515.39	19.518
515.74	19.707
516.08	19.788
516.42	19.645
516.77	20.178
517.11	19.090
517.46	19.470
517.80	19.861
518.14	18.240
518.49	20.012
518.83	19.148
519.17	18.938
519.52	18.902
519.86	18.597
520.20	20.000
520.55	20.168
520.89	19.586
521.23	19.542
521.58	20.348
521.92	20.147
522.26	18.853
522.61	19.875
522.95	19.398
523.29	19.294
523.64	20.000
523.98	19.532
524.32	19.602
524.66	19.904
525.01	20.098
525.35	19.579
525.69	18.658
526.04	20.062
526.38	19.402
526.72	19.264
527.06	19.335
527.41	18.502
527.75	18.971
528.09	19.461
528.43	19.630
528.78	19.422
529.12	19.030
529.46	19.412
529.80	20.297
530.15	19.688
530.49	18.400
530.83	19.557
531.17	19.125
531.51	19.844
531.86	19.935
532.20	19.948
532.54	19.923
532.88	19.255
533.22	18.613
533.57	19.074
533.91	19.747
534.25	19.441
534.59	19.768
534.93	19.155
535.27	18.890
535.62	18.559
535.96	19.021
536.30	19.517
536.64	20.476
536.98	19.177
537.32	19.487
537.66	19.400
538.01	19.289
538.35	20.168
538.69	19.145
539.03	18.843
539.37	18.850
539.71	17.952
540.05	19.804
540.39	19.468
540.73	18.693
541.07	19.533
541.42	20.222
541.76	19.032
542.10	20.375
542.44	19.073
542.78	20.092
543.12	19.066
543.46	18.820
543.80	19.779
544.14	18.806
544.48	19.111
544.82	19.115
545.16	19.649
545.50	18.573
545.84	19.758
546.18	18.990
546.52	18.789
546.86	19.313
547.20	19.488
547.54	19.305
547.88	20.217
548.22	18.804
548.56	20.000
548.90	18.630
549.24	18.586
549.58	19.441
549.92	19.025
550.26	18.608
550.60	19.156
550.94	18.451
551.28	18.288
551.62	18.907
551.96	18.105
552.30	20.137
552.64	19.270
552.98	19.254
553.32	19.150
553.66	19.973
554.00	19.698
554.34	18.496
554.68	19.385
555.02	18.759
555.36	18.511
555.69	18.539
556.03	18.843
556.37	19.031
556.71	17.667
557.05	18.768
557.39	18.195
557.73	19.407
558.07	18.202
558.41	18.452
558.75	18.295
559.08	18.717
559.42	18.896
559.76	18.897
560.10	19.129
560.44	18.588
560.78	18.496
561.12	18.206
561.45	18.579
561.79	18.919
562.13	18.779
562.47	19.126
562.81	18.480
563.15	18.863
563.48	18.037
563.82	18.134
564.16	17.789
564.50	17.969
564.84	18.458
565.17	18.275
565.51	18.594
565.85	18.464
566.19	17.971
566.52	18.113
566.86	18.324
567.20	18.632
567.54	18.493
567.88	18.197
568.21	18.519
568.55	17.391
568.89	17.802
569.23	18.316
569.56	18.502
569.90	17.585
570.24	17.653
570.57	17.171
570.91	17.001
571.25	17.233
571.59	17.202
571.92	16.878
572.26	17.071
572.60	17.237
572.93	16.972
573.27	17.184
573.61	17.225
573.95	17.235
574.28	16.583
574.62	17.031
574.96	16.798
575.29	16.537
575.63	16.946
575.97	16.610
576.30	17.047
576.64	16.629
576.98	16.966
577.31	16.774
577.65	16.982
577.98	16.828
578.32	16.739
578.66	16.709
578.99	16.480
579.33	16.727
579.67	16.614
580.00	16.351
580.34	17.299
580.67	16.734
581.01	17.248
581.35	16.711
581.68	16.980
582.02	16.320
582.35	16.510
582.69	16.487
583.02	16.698
583.36	17.016
583.70	16.633
584.03	17.268
584.37	17.365
584.70	16.588
585.04	16.830
585.37	16.775
585.71	16.494
586.04	16.695
586.38	16.484
586.72	16.929
587.05	16.680
587.39	16.280
587.72	16.619
588.06	17.049
588.39	16.872
588.73	16.808
589.06	16.952
589.40	17.273
589.73	17.212
590.07	17.367
590.40	16.843
590.73	17.447
591.07	17.216
591.40	17.714
591.74	18.355
592.07	17.059
592.41	17.156
592.74	17.341
593.08	17.222
593.41	16.862
593.75	16.771
594.08	16.661
594.41	16.826
594.75	17.227
595.08	17.072
595.42	17.198
595.75	17.023
596.09	17.537
596.42	17.485
596.75	17.434
597.09	17.619
597.42	16.737
597.75	17.594
598.09	16.957
598.42	17.268
598.76	16.903
599.09	16.990
599.42	16.739
599.76	16.545
600.09	16.903
600.42	16.399
600.76	16.750
601.09	16.612
601.42	17.047
601.76	17.116
602.09	16.957
602.42	16.600
602.76	17.251
603.09	17.034
603.42	17.181
603.76	16.578
604.09	16.247
604.42	16.673
604.76	17.377
605.09	16.645
605.42	16.930
605.75	16.887
606.09	16.958
606.42	16.551
606.75	17.047
607.09	17.706
607.42	16.774
607.75	16.329
608.08	16.240
608.42	17.078
608.75	16.546
609.08	16.744
609.41	16.659
609.75	17.199
610.08	17.436
610.41	16.201
610.74	16.935
611.07	17.441
611.41	16.830
611.74	17.496
612.07	17.598
612.40	18.101
612.73	17.526
613.07	17.403
613.40	17.746
613.73	16.256
614.06	17.634
614.39	17.200
614.72	17.737
615.06	17.437
615.39	16.561
615.72	16.922
616.05	16.002
616.38	17.287
616.71	17.696
617.05	17.786
617.38	16.476
617.71	17.718
618.04	17.608
618.37	17.445
618.70	17.175
619.03	18.421
619.36	17.108
619.69	17.887
620.03	19.162
620.36	18.115
620.69	17.808
621.02	18.510
621.35	16.836
621.68	17.445
622.01	18.189
622.34	17.247
622.67	17.643
623.00	17.975
623.33	17.441
623.66	17.727
623.99	17.452
624.32	17.261
624.65	17.655
624.99	17.068
625.32	17.379
625.65	17.280
625.98	18.832
626.31	17.185
626.64	19.102
626.97	17.955
627.30	16.791
627.63	18.130
627.96	17.746
628.29	18.198
628.62	19.122
628.95	18.302
629.28	19.434
629.61	18.332
629.94	18.476
630.26	16.778
630.59	18.780
630.92	18.199
631.25	18.756
631.58	17.818
631.91	18.256
632.24	18.038
632.57	19.203
632.90	19.408
633.23	19.911
