SpectraSuite Data File
++++++++++++++++++++++++++++++++++++
Date: Wed May 13 16:32:14 PDT 2015
User: schluterlab
Dark Spectrum Present: Yes
Reference Spectrum Present: Yes
Number of Sampled Component Spectra: 1
Spectrometers: USB2E3373
Integration Time (usec): 3000 (USB2E3373)
Spectra Averaged: 3 (USB2E3373)
Boxcar Smoothing: 0 (USB2E3373)
Correct for Electrical Dark: No (USB2E3373)
Strobe/Lamp Enabled: No (USB2E3373)
Correct for Detector Non-linearity: No (USB2E3373)
Correct for Stray Light: No (USB2E3373)
Number of Pixels in Processed Spectrum: 2048
>>>>>Begin Processed Spectral Data<<<<<
178.53	0.000
178.91	-1150.000
179.29	-1225.000
179.67	-250.000
180.04	-1125.000
180.42	2400.000
180.80	1080.000
181.18	-1125.000
181.56	485.714
181.94	0.000
182.31	-614.286
182.69	1533.333
183.07	-512.500
183.45	-633.333
183.83	536.364
184.20	-340.000
184.58	2200.000
184.96	4900.000
185.34	-740.000
185.72	-450.000
186.09	-2600.000
186.47	2500.000
186.85	1800.000
187.23	3600.000
187.61	-1266.667
187.98	1350.000
188.36	481.818
188.74	427.273
189.12	-1040.000
189.49	440.000
189.87	-4200.000
190.25	-1125.000
190.63	285.714
191.00	307.692
191.38	933.333
191.76	-1150.000
192.14	1000.000
192.51	550.000
192.89	916.667
193.27	550.000
193.65	-1200.000
194.02	520.000
194.40	980.000
194.78	430.000
195.15	508.333
195.53	620.000
195.91	-1400.000
196.29	268.750
196.66	284.211
197.04	-350.000
197.42	0.000
197.79	580.000
198.17	-3500.000
198.55	642.857
198.92	550.000
199.30	620.000
199.68	0.000
200.05	288.889
200.43	728.571
200.81	3400.000
201.18	1566.667
201.56	-1366.667
201.94	577.778
202.31	511.111
202.69	433.333
203.07	520.000
203.44	0.000
203.82	1300.000
204.19	657.143
204.57	400.000
204.95	637.500
205.32	1433.333
205.70	454.545
206.08	385.714
206.45	2500.000
206.83	312.500
207.20	883.333
207.58	760.000
207.96	300.000
208.33	587.500
208.71	-750.000
209.08	585.714
209.46	600.000
209.84	472.727
210.21	-1266.667
210.59	1150.000
210.96	-412.500
211.34	1800.000
211.71	550.000
212.09	850.000
212.46	0.000
212.84	1533.333
213.22	1025.000
213.59	-4100.000
213.97	950.000
214.34	785.714
214.72	500.000
215.09	1000.000
215.47	-2500.000
215.84	-2200.000
216.22	1433.333
216.59	335.714
216.97	1150.000
217.34	454.545
217.72	-700.000
218.09	0.000
218.47	-4000.000
218.84	500.000
219.22	700.000
219.59	1433.333
219.97	-657.143
220.34	1040.000
220.72	-1766.667
221.09	371.429
221.47	1350.000
221.84	-816.667
222.22	0.000
222.59	1025.000
222.97	-2250.000
223.34	880.000
223.72	346.154
224.09	900.000
224.46	1850.000
224.84	-4000.000
225.21	-920.000
225.59	-3900.000
225.96	590.000
226.34	275.000
226.71	2300.000
227.08	612.500
227.46	460.000
227.83	-750.000
228.21	-2300.000
228.58	544.444
228.95	-1700.000
229.33	-2000.000
229.70	1533.333
230.08	571.429
230.45	-640.000
230.82	391.667
231.20	783.333
231.57	528.571
231.95	408.333
232.32	236.364
232.69	281.818
233.07	571.429
233.44	284.615
233.81	-1300.000
234.19	226.316
234.56	391.667
234.93	316.667
235.31	381.818
235.68	300.000
236.05	235.714
236.43	145.455
236.80	189.474
237.17	3900.000
237.55	195.238
237.92	167.857
238.29	228.571
238.67	129.032
239.04	134.483
239.41	113.889
239.79	91.304
240.16	111.905
240.53	102.273
240.91	64.706
241.28	72.000
241.65	68.000
242.02	66.667
242.40	74.194
242.77	68.333
243.14	46.237
243.51	64.045
243.89	43.529
244.26	40.000
244.63	40.860
245.00	47.872
245.38	39.604
245.75	37.383
246.12	40.367
246.49	37.956
246.87	48.000
247.24	38.462
247.61	36.429
247.98	29.412
248.36	24.324
248.73	25.478
249.10	33.121
249.47	31.638
249.84	25.668
250.22	20.321
250.59	26.627
250.96	29.798
251.33	21.327
251.70	30.693
252.08	24.286
252.45	21.525
252.82	20.435
253.19	22.979
253.56	22.353
253.94	27.801
254.31	21.094
254.68	22.692
255.05	20.664
255.42	17.073
255.79	18.382
256.16	19.495
256.54	17.668
256.91	18.505
257.28	13.669
257.65	16.172
258.02	15.528
258.39	16.088
258.76	14.381
259.14	15.774
259.51	15.805
259.88	13.043
260.25	12.991
260.62	14.162
260.99	14.286
261.36	15.015
261.73	13.181
262.10	12.500
262.47	12.958
262.85	13.370
263.22	11.111
263.59	14.530
263.96	13.187
264.33	10.705
264.70	13.158
265.07	13.043
265.44	13.889
265.81	11.679
266.18	12.814
266.55	12.439
266.92	12.531
267.29	14.583
267.66	11.239
268.03	14.091
268.40	10.981
268.77	10.263
269.14	10.586
269.51	11.738
269.88	11.422
270.25	11.287
270.62	9.438
270.99	14.194
271.36	12.876
271.73	9.346
272.10	9.565
272.47	11.183
272.84	10.606
273.21	10.692
273.58	8.734
273.95	9.644
274.32	8.884
274.69	11.777
275.06	8.858
275.43	12.340
275.80	9.619
276.17	10.183
276.54	10.811
276.91	10.277
277.28	8.789
277.65	11.412
278.02	11.180
278.39	9.375
278.76	10.364
279.13	11.698
279.50	10.987
279.87	8.566
280.23	11.577
280.60	9.478
280.97	9.057
281.34	10.265
281.71	10.545
282.08	8.637
282.45	10.727
282.82	9.059
283.19	8.021
283.56	8.772
283.92	10.152
284.29	7.407
284.66	9.800
285.03	8.318
285.40	9.507
285.77	8.418
286.14	7.599
286.51	9.000
286.87	8.205
287.24	10.098
287.61	9.149
287.98	8.279
288.35	8.082
288.72	7.321
289.08	9.546
289.45	8.237
289.82	9.919
290.19	7.535
290.56	9.188
290.93	6.949
291.29	7.669
291.66	8.850
292.03	10.756
292.40	10.132
292.77	9.024
293.13	9.552
293.50	7.726
293.87	6.815
294.24	5.630
294.60	6.405
294.97	7.994
295.34	7.757
295.71	5.966
296.08	7.123
296.44	8.116
296.81	5.945
297.18	8.130
297.55	5.145
297.91	7.388
298.28	7.363
298.65	7.572
299.02	6.324
299.38	5.976
299.75	4.987
300.12	7.535
300.48	7.375
300.85	7.275
301.22	5.987
301.59	5.556
301.95	6.927
302.32	6.804
302.69	6.093
303.05	5.697
303.42	7.531
303.79	7.248
304.15	5.711
304.52	5.794
304.89	5.923
305.25	6.845
305.62	7.361
305.99	6.612
306.35	7.159
306.72	6.502
307.09	6.437
307.45	6.644
307.82	5.246
308.19	6.733
308.55	7.120
308.92	6.230
309.29	5.069
309.65	6.045
310.02	6.765
310.38	6.237
310.75	6.019
311.12	6.653
311.48	6.374
311.85	6.813
312.22	6.660
312.58	5.613
312.95	6.758
313.31	5.340
313.68	6.341
314.05	9.270
314.41	6.834
314.78	6.445
315.14	6.256
315.51	6.385
315.87	7.327
316.24	7.249
316.61	6.043
316.97	5.969
317.34	4.795
317.70	6.883
318.07	7.218
318.43	6.751
318.80	8.060
319.16	8.192
319.53	7.505
319.89	7.905
320.26	7.900
320.62	8.433
320.99	8.384
321.35	8.283
321.72	9.343
322.08	9.477
322.45	9.353
322.81	9.109
323.18	8.863
323.54	8.720
323.91	9.245
324.27	8.509
324.64	8.854
325.00	7.665
325.37	8.826
325.73	10.144
326.10	9.003
326.46	9.050
326.83	10.009
327.19	9.308
327.56	9.756
327.92	9.011
328.29	9.494
328.65	10.129
329.01	9.838
329.38	9.621
329.74	10.342
330.11	9.614
330.47	10.560
330.84	10.662
331.20	9.290
331.56	11.101
331.93	9.907
332.29	10.382
332.66	11.239
333.02	11.243
333.38	9.846
333.75	9.626
334.11	9.875
334.48	9.139
334.84	10.202
335.20	11.636
335.57	9.429
335.93	8.839
336.29	9.707
336.66	9.919
337.02	10.498
337.38	10.926
337.75	11.052
338.11	10.474
338.47	10.313
338.84	9.899
339.20	8.807
339.56	10.036
339.93	9.273
340.29	9.783
340.65	10.784
341.02	11.257
341.38	11.032
341.74	9.649
342.11	9.782
342.47	10.396
342.83	10.188
343.20	10.823
343.56	8.930
343.92	9.825
344.28	10.544
344.65	10.404
345.01	10.269
345.37	9.777
345.73	10.914
346.10	9.548
346.46	10.763
346.82	10.132
347.19	9.607
347.55	9.278
347.91	10.841
348.27	11.257
348.63	9.197
349.00	10.113
349.36	9.195
349.72	10.585
350.08	10.130
350.45	10.334
350.81	10.642
351.17	9.643
351.53	9.910
351.89	9.653
352.26	11.602
352.62	10.184
352.98	10.130
353.34	9.942
353.70	9.574
354.07	10.161
354.43	11.032
354.79	9.252
355.15	10.056
355.51	10.152
355.87	10.286
356.24	9.365
356.60	10.184
356.96	9.654
357.32	10.548
357.68	10.315
358.04	9.501
358.40	10.214
358.77	10.172
359.13	9.155
359.49	9.098
359.85	8.889
360.21	9.171
360.57	10.272
360.93	9.615
361.29	10.128
361.66	9.598
362.02	10.672
362.38	10.038
362.74	10.193
363.10	9.326
363.46	9.758
363.82	9.599
364.18	10.206
364.54	10.550
364.90	10.340
365.26	9.118
365.62	9.423
365.98	8.985
366.35	9.312
366.71	9.978
367.07	9.177
367.43	9.434
367.79	10.278
368.15	11.135
368.51	9.666
368.87	9.921
369.23	9.949
369.59	10.210
369.95	9.412
370.31	10.470
370.67	8.841
371.03	11.311
371.39	10.058
371.75	10.735
372.11	10.953
372.47	11.364
372.83	10.519
373.19	10.983
373.55	9.608
373.91	11.340
374.27	10.378
374.63	9.018
374.99	11.229
375.35	9.839
375.71	10.418
376.07	10.425
376.42	10.798
376.78	11.266
377.14	10.448
377.50	11.589
377.86	9.574
378.22	11.125
378.58	10.213
378.94	10.622
379.30	9.924
379.66	10.723
380.02	10.627
380.38	10.443
380.74	11.405
381.09	11.369
381.45	10.756
381.81	11.241
382.17	11.401
382.53	10.818
382.89	12.654
383.25	11.194
383.61	10.471
383.97	11.132
384.32	12.102
384.68	10.533
385.04	11.186
385.40	11.084
385.76	11.548
386.12	10.233
386.48	12.272
386.83	12.572
387.19	12.554
387.55	11.688
387.91	11.548
388.27	11.159
388.62	12.784
388.98	11.364
389.34	12.140
389.70	12.262
390.06	12.611
390.42	12.192
390.77	12.150
391.13	11.615
391.49	12.500
391.85	12.031
392.20	11.356
392.56	12.879
392.92	12.419
393.28	10.414
393.64	12.290
393.99	12.401
394.35	11.973
394.71	11.857
395.07	11.651
395.42	12.299
395.78	12.532
396.14	12.663
396.50	12.406
396.85	12.270
397.21	11.406
397.57	13.267
397.92	12.680
398.28	11.883
398.64	12.007
399.00	12.311
399.35	10.886
399.71	11.748
400.07	12.655
400.42	11.963
400.78	13.148
401.14	12.683
401.49	12.299
401.85	11.676
402.21	10.958
402.57	12.276
402.92	12.232
403.28	13.242
403.63	11.572
403.99	11.529
404.35	11.939
404.70	12.050
405.06	11.881
405.42	12.165
405.77	11.371
406.13	11.682
406.49	12.064
406.84	12.345
407.20	11.584
407.55	11.934
407.91	12.400
408.27	11.423
408.62	13.064
408.98	11.642
409.34	12.116
409.69	12.323
410.05	11.648
410.40	11.927
410.76	11.350
411.11	12.425
411.47	12.141
411.83	11.729
412.18	11.936
412.54	12.329
412.89	12.289
413.25	11.806
413.60	12.847
413.96	10.929
414.31	12.333
414.67	12.611
415.03	11.656
415.38	12.307
415.74	12.797
416.09	12.084
416.45	12.316
416.80	10.972
417.16	12.668
417.51	11.679
417.87	12.331
418.22	12.303
418.58	12.653
418.93	12.101
419.29	11.330
419.64	12.280
420.00	12.622
420.35	13.101
420.71	12.672
421.06	12.470
421.42	11.813
421.77	12.388
422.12	12.184
422.48	10.955
422.83	12.114
423.19	12.431
423.54	11.782
423.90	11.478
424.25	11.837
424.61	12.321
424.96	12.012
425.31	12.071
425.67	11.517
426.02	10.971
426.38	12.698
426.73	11.644
427.09	12.219
427.44	12.478
427.79	12.421
428.15	11.845
428.50	12.405
428.85	12.753
429.21	11.706
429.56	11.768
429.92	11.676
430.27	10.775
430.62	11.162
430.98	11.053
431.33	12.165
431.68	12.304
432.04	12.673
432.39	11.593
432.74	12.507
433.10	11.885
433.45	12.536
433.80	11.752
434.16	11.645
434.51	12.053
434.86	12.486
435.22	11.340
435.57	12.948
435.92	12.522
436.28	12.633
436.63	12.638
436.98	12.421
437.34	12.284
437.69	11.785
438.04	12.366
438.39	12.537
438.75	12.725
439.10	12.291
439.45	12.279
439.81	11.903
440.16	12.140
440.51	12.361
440.86	12.623
441.22	11.958
441.57	11.943
441.92	12.078
442.27	12.648
442.63	12.533
442.98	13.014
443.33	12.554
443.68	12.287
444.03	12.201
444.39	11.441
444.74	12.121
445.09	12.722
445.44	12.083
445.79	12.222
446.15	13.658
446.50	12.332
446.85	11.819
447.20	11.933
447.55	12.395
447.91	12.135
448.26	12.354
448.61	12.210
448.96	13.234
449.31	13.386
449.66	11.874
450.02	11.198
450.37	11.735
450.72	12.408
451.07	12.249
451.42	12.462
451.77	13.036
452.12	12.240
452.47	12.624
452.83	12.471
453.18	11.980
453.53	12.492
453.88	12.995
454.23	12.552
454.58	13.568
454.93	13.668
455.28	12.781
455.63	12.621
455.98	13.393
456.34	13.065
456.69	12.962
457.04	12.879
457.39	12.098
457.74	12.594
458.09	13.341
458.44	12.258
458.79	11.117
459.14	12.472
459.49	12.901
459.84	11.801
460.19	11.668
460.54	12.616
460.89	12.287
461.24	12.811
461.59	13.713
461.94	12.454
462.29	12.819
462.64	12.955
462.99	12.687
463.34	13.533
463.69	13.258
464.04	13.623
464.39	13.043
464.74	12.537
465.09	11.821
465.44	12.909
465.79	12.864
466.14	12.315
466.49	11.902
466.84	12.434
467.19	12.794
467.54	13.688
467.89	12.245
468.24	13.031
468.59	13.004
468.94	13.012
469.29	13.432
469.64	13.788
469.99	13.194
470.34	12.417
470.68	13.362
471.03	13.469
471.38	13.204
471.73	13.458
472.08	13.816
472.43	12.814
472.78	13.167
473.13	13.415
473.48	14.232
473.83	13.049
474.17	12.383
474.52	13.089
474.87	13.135
475.22	12.594
475.57	12.628
475.92	12.108
476.27	13.134
476.61	12.852
476.96	12.809
477.31	12.768
477.66	12.637
478.01	12.650
478.36	12.956
478.70	12.201
479.05	12.194
479.40	12.487
479.75	12.710
480.10	12.773
480.45	12.470
480.79	12.136
481.14	12.378
481.49	12.292
481.84	11.934
482.19	12.449
482.53	12.294
482.88	12.471
483.23	11.729
483.58	12.693
483.92	11.856
484.27	11.503
484.62	12.026
484.97	11.943
485.31	11.644
485.66	11.037
486.01	10.409
486.36	10.055
486.70	9.865
487.05	10.352
487.40	10.700
487.75	11.090
488.09	11.313
488.44	10.974
488.79	11.646
489.13	12.223
489.48	11.786
489.83	12.085
490.17	12.275
490.52	11.825
490.87	12.257
491.22	12.187
491.56	11.708
491.91	12.238
492.26	11.713
492.60	12.166
492.95	11.272
493.30	12.009
493.64	12.739
493.99	12.442
494.34	12.257
494.68	12.729
495.03	12.218
495.37	11.819
495.72	12.183
496.07	12.390
496.41	12.345
496.76	11.961
497.11	11.932
497.45	12.250
497.80	11.756
498.14	12.609
498.49	11.902
498.84	12.608
499.18	12.381
499.53	12.393
499.87	12.535
500.22	11.682
500.56	13.010
500.91	12.019
501.26	12.660
501.60	12.435
501.95	12.328
502.29	12.746
502.64	12.244
502.98	12.155
503.33	12.797
503.67	11.926
504.02	12.769
504.36	12.120
504.71	12.311
505.06	12.723
505.40	12.494
505.75	12.006
506.09	12.634
506.44	13.271
506.78	12.616
507.13	12.771
507.47	13.081
507.82	12.361
508.16	12.766
508.51	12.329
508.85	12.761
509.19	13.163
509.54	12.857
509.88	12.725
510.23	12.956
510.57	13.777
510.92	12.532
511.26	12.333
511.61	13.330
511.95	12.839
512.30	12.619
512.64	13.326
512.98	13.183
513.33	12.794
513.67	13.394
514.02	12.933
514.36	13.053
514.70	12.839
515.05	12.939
515.39	13.629
515.74	12.725
516.08	13.415
516.42	13.984
516.77	13.991
517.11	12.542
517.46	13.883
517.80	13.647
518.14	13.086
518.49	13.477
518.83	13.580
519.17	13.279
519.52	13.752
519.86	14.204
520.20	14.104
520.55	14.722
520.89	13.504
521.23	13.752
521.58	14.286
521.92	14.513
522.26	13.728
522.61	13.645
522.95	13.567
523.29	13.451
523.64	14.085
523.98	14.233
524.32	14.113
524.66	13.770
525.01	13.909
525.35	13.693
525.69	13.732
526.04	13.832
526.38	13.911
526.72	14.417
527.06	13.873
527.41	13.800
527.75	13.762
528.09	13.809
528.43	14.468
528.78	14.198
529.12	13.879
529.46	15.003
529.80	13.923
530.15	14.829
530.49	13.477
530.83	14.114
531.17	15.013
531.51	15.305
531.86	13.161
532.20	14.993
532.54	14.862
532.88	14.506
533.22	15.116
533.57	14.444
533.91	14.269
534.25	13.913
534.59	13.301
534.93	13.563
535.27	14.062
535.62	14.286
535.96	14.626
536.30	13.541
536.64	14.037
536.98	13.470
537.32	14.220
537.66	14.600
538.01	14.417
538.35	14.156
538.69	15.316
539.03	13.320
539.37	13.419
539.71	13.027
540.05	13.529
540.39	14.485
540.73	14.036
541.07	14.341
541.42	14.025
541.76	14.000
542.10	14.101
542.44	14.371
542.78	15.481
543.12	13.692
543.46	13.836
543.80	14.249
544.14	14.634
544.48	14.349
544.82	13.919
545.16	14.379
545.50	13.946
545.84	13.105
546.18	14.949
546.52	14.659
546.86	14.708
547.20	14.565
547.54	13.828
547.88	15.115
548.22	13.200
548.56	14.214
548.90	13.124
549.24	13.939
549.58	13.984
549.92	14.423
550.26	14.773
550.60	13.900
550.94	14.577
551.28	14.411
551.62	14.019
551.96	14.526
552.30	15.154
552.64	13.928
552.98	14.508
553.32	14.902
553.66	14.997
554.00	14.756
554.34	13.803
554.68	14.521
555.02	14.034
555.36	13.779
555.69	13.329
556.03	14.132
556.37	14.325
556.71	14.120
557.05	14.216
557.39	14.206
557.73	13.903
558.07	13.778
558.41	15.051
558.75	14.622
559.08	15.138
559.42	15.268
559.76	14.926
560.10	14.989
560.44	13.557
560.78	14.770
561.12	14.644
561.45	14.602
561.79	13.843
562.13	13.749
562.47	14.139
562.81	13.668
563.15	13.846
563.48	14.788
563.82	13.568
564.16	13.734
564.50	13.086
564.84	13.906
565.17	13.514
565.51	13.866
565.85	14.277
566.19	13.525
566.52	13.490
566.86	13.321
567.20	13.915
567.54	13.527
567.88	12.873
568.21	14.021
568.55	13.600
568.89	12.257
569.23	13.057
569.56	11.781
569.90	12.302
570.24	12.343
570.57	11.731
570.91	11.183
571.25	11.242
571.59	11.576
571.92	11.665
572.26	11.670
572.60	11.471
572.93	11.364
573.27	11.713
573.61	11.725
573.95	11.370
574.28	11.307
574.62	11.200
574.96	10.968
575.29	10.839
575.63	11.026
575.97	11.429
576.30	11.418
576.64	10.993
576.98	11.060
577.31	10.883
577.65	10.966
577.98	10.877
578.32	10.564
578.66	10.922
578.99	11.299
579.33	11.014
579.67	10.703
580.00	10.789
580.34	10.845
580.67	10.872
581.01	10.906
581.35	10.902
581.68	11.047
582.02	10.390
582.35	10.579
582.69	10.821
583.02	10.714
583.36	11.137
583.70	11.139
584.03	11.494
584.37	11.937
584.70	11.677
585.04	11.473
585.37	11.067
585.71	11.396
586.04	11.162
586.38	11.285
586.72	11.240
587.05	11.301
587.39	10.765
587.72	11.518
588.06	11.259
588.39	11.632
588.73	11.558
589.06	12.029
589.40	12.121
589.73	12.144
590.07	12.135
590.40	11.765
590.73	12.373
591.07	12.454
591.40	12.653
591.74	12.900
592.07	12.435
592.41	12.609
592.74	11.910
593.08	11.759
593.41	11.642
593.75	11.212
594.08	11.733
594.41	11.912
594.75	11.571
595.08	11.668
595.42	11.944
595.75	11.930
596.09	12.279
596.42	12.692
596.75	12.790
597.09	12.944
597.42	12.057
597.75	12.333
598.09	12.348
598.42	12.457
598.76	11.350
599.09	11.593
599.42	11.790
599.76	11.859
600.09	11.949
600.42	11.651
600.76	11.571
601.09	11.548
601.42	11.834
601.76	11.879
602.09	11.581
602.42	12.779
602.76	12.213
603.09	11.998
603.42	12.222
603.76	11.928
604.09	11.904
604.42	11.985
604.76	12.569
605.09	12.451
605.42	12.014
605.75	12.003
606.09	11.305
606.42	11.688
606.75	12.526
607.09	12.223
607.42	12.323
607.75	11.603
608.08	11.984
608.42	12.819
608.75	12.128
609.08	11.887
609.41	11.947
609.75	12.816
610.08	12.724
610.41	12.197
610.74	11.968
611.07	12.698
611.41	12.659
611.74	13.575
612.07	12.578
612.40	12.907
612.73	13.000
613.07	13.039
613.40	13.323
613.73	12.008
614.06	12.796
614.39	13.319
614.72	12.684
615.06	12.710
615.39	11.783
615.72	12.832
616.05	12.387
616.38	12.451
616.71	13.895
617.05	13.251
617.38	12.688
617.71	12.673
618.04	13.041
618.37	12.774
618.70	13.379
619.03	14.079
619.36	13.781
619.69	14.225
620.03	14.492
620.36	14.439
620.69	14.452
621.02	14.233
621.35	14.174
621.68	14.019
622.01	13.235
622.34	14.297
622.67	14.601
623.00	13.353
623.33	13.796
623.66	13.724
623.99	13.255
624.32	14.408
624.65	13.630
624.99	12.535
625.32	12.310
625.65	13.524
625.98	14.297
626.31	13.453
626.64	14.449
626.97	14.630
627.30	13.466
627.63	15.258
627.96	14.382
628.29	15.486
628.62	16.285
628.95	17.075
629.28	15.420
629.61	16.315
629.94	15.238
630.26	14.109
630.59	14.871
630.92	14.943
631.25	14.709
631.58	15.315
631.91	16.633
632.24	15.190
632.57	16.055
632.90	16.118
633.23	15.436
633.56	17.288
633.89	16.988
634.22	17.026
634.55	16.331
634.88	15.689
635.20	17.085
