SpectraSuite Data File
++++++++++++++++++++++++++++++++++++
Date: Wed May 13 16:36:15 PDT 2015
User: schluterlab
Dark Spectrum Present: Yes
Reference Spectrum Present: Yes
Number of Sampled Component Spectra: 1
Spectrometers: USB2E3373
Integration Time (usec): 3000 (USB2E3373)
Spectra Averaged: 3 (USB2E3373)
Boxcar Smoothing: 0 (USB2E3373)
Correct for Electrical Dark: No (USB2E3373)
Strobe/Lamp Enabled: No (USB2E3373)
Correct for Detector Non-linearity: No (USB2E3373)
Correct for Stray Light: No (USB2E3373)
Number of Pixels in Processed Spectrum: 2048
>>>>>Begin Processed Spectral Data<<<<<
178.53	0.000
178.91	-1150.000
179.29	-1150.000
179.67	-211.111
180.04	-1175.000
180.42	2600.000
180.80	920.000
181.18	-1000.000
181.56	757.143
181.94	0.000
182.31	-700.000
182.69	1933.333
183.07	-637.500
183.45	-511.111
183.83	445.455
184.20	-460.000
184.58	2000.000
184.96	6300.000
185.34	-780.000
185.72	-637.500
186.09	-2550.000
186.47	2700.000
186.85	2300.000
187.23	5100.000
187.61	-1533.333
187.98	1350.000
188.36	572.727
188.74	527.273
189.12	-940.000
189.49	610.000
189.87	-4200.000
190.25	-1025.000
190.63	385.714
191.00	430.769
191.38	816.667
191.76	-1350.000
192.14	1375.000
192.51	600.000
192.89	733.333
193.27	562.500
193.65	-1125.000
194.02	500.000
194.40	1000.000
194.78	520.000
195.15	516.667
195.53	620.000
195.91	-2000.000
196.29	362.500
196.66	357.895
197.04	-440.000
197.42	0.000
197.79	620.000
198.17	-5500.000
198.55	728.571
198.92	637.500
199.30	840.000
199.68	0.000
200.05	333.333
200.43	714.286
200.81	4800.000
201.18	1533.333
201.56	-1833.333
201.94	444.444
202.31	577.778
202.69	450.000
203.07	540.000
203.44	0.000
203.82	1025.000
204.19	671.429
204.57	500.000
204.95	537.500
205.32	1533.333
205.70	490.909
206.08	364.286
206.45	2500.000
206.83	362.500
207.20	950.000
207.58	780.000
207.96	316.667
208.33	725.000
208.71	-566.667
209.08	728.571
209.46	677.778
209.84	472.727
210.21	-1400.000
210.59	1250.000
210.96	-500.000
211.34	2400.000
211.71	560.000
212.09	716.667
212.46	0.000
212.84	1900.000
213.22	1125.000
213.59	-3500.000
213.97	883.333
214.34	771.429
214.72	545.455
215.09	980.000
215.47	-2050.000
215.84	-2200.000
216.22	1700.000
216.59	457.143
216.97	1250.000
217.34	445.455
217.72	-683.333
218.09	0.000
218.47	-4500.000
218.84	633.333
219.22	771.429
219.59	1633.333
219.97	-571.429
220.34	940.000
220.72	-1833.333
221.09	421.429
221.47	1475.000
221.84	-766.667
222.22	0.000
222.59	1375.000
222.97	-2500.000
223.34	1200.000
223.72	400.000
224.09	960.000
224.46	2050.000
224.84	-4200.000
225.21	-960.000
225.59	-4200.000
225.96	560.000
226.34	220.000
226.71	2150.000
227.08	587.500
227.46	560.000
227.83	-825.000
228.21	-2300.000
228.58	444.444
228.95	-2200.000
229.33	-1950.000
229.70	1333.333
230.08	914.286
230.45	-1080.000
230.82	450.000
231.20	666.667
231.57	700.000
231.95	358.333
232.32	222.727
232.69	390.909
233.07	571.429
233.44	261.538
233.81	-1700.000
234.19	326.316
234.56	383.333
234.93	366.667
235.31	427.273
235.68	276.923
236.05	292.857
236.43	157.576
236.80	221.053
237.17	3400.000
237.55	195.238
237.92	228.571
238.29	176.190
238.67	187.097
239.04	165.517
239.41	125.000
239.79	93.478
240.16	123.810
240.53	115.909
240.91	92.157
241.28	92.000
241.65	78.000
242.02	88.406
242.40	54.839
242.77	63.333
243.14	65.591
243.51	58.427
243.89	55.294
244.26	54.444
244.63	49.462
245.00	53.191
245.38	40.594
245.75	51.402
246.12	37.615
246.49	50.365
246.87	42.400
247.24	35.385
247.61	32.857
247.98	34.641
248.36	29.730
248.73	29.299
249.10	31.847
249.47	26.554
249.84	30.481
250.22	28.342
250.59	24.852
250.96	20.707
251.33	24.171
251.70	25.743
252.08	25.714
252.45	21.973
252.82	21.304
253.19	20.000
253.56	21.961
253.94	21.577
254.31	21.484
254.68	26.154
255.05	21.033
255.42	17.480
255.79	18.750
256.16	19.134
256.54	15.194
256.91	16.014
257.28	13.669
257.65	15.512
258.02	15.839
258.39	16.404
258.76	16.054
259.14	14.881
259.51	16.413
259.88	15.217
260.25	16.918
260.62	13.873
260.99	16.460
261.36	17.417
261.73	13.754
262.10	13.663
262.47	14.366
262.85	14.206
263.22	14.530
263.59	15.385
263.96	12.363
264.33	15.144
264.70	14.737
265.07	11.509
265.44	11.111
265.81	10.949
266.18	16.834
266.55	10.732
266.92	11.302
267.29	14.120
267.66	12.844
268.03	13.182
268.40	11.682
268.77	11.695
269.14	12.162
269.51	14.447
269.88	12.354
270.25	11.738
270.62	11.910
270.99	13.118
271.36	10.086
271.73	10.514
272.10	9.783
272.47	14.409
272.84	10.606
273.21	13.417
273.58	9.607
273.95	11.321
274.32	10.537
274.69	11.349
275.06	11.417
275.43	10.638
275.80	12.224
276.17	11.813
276.54	11.019
276.91	11.462
277.28	10.156
277.65	10.251
278.02	8.075
278.39	11.328
278.76	9.818
279.13	10.000
279.50	9.870
279.87	9.363
280.23	9.980
280.60	8.704
280.97	8.318
281.34	10.442
281.71	11.091
282.08	9.981
282.45	8.364
282.82	9.414
283.19	8.378
283.56	9.123
283.92	9.137
284.29	9.347
284.66	9.256
285.03	8.137
285.40	9.331
285.77	9.091
286.14	10.363
286.51	8.833
286.87	8.547
287.24	10.098
287.61	8.507
287.98	10.227
288.35	8.716
288.72	9.346
289.08	8.607
289.45	7.578
289.82	8.455
290.19	6.593
290.56	8.729
290.93	6.949
291.29	7.209
291.66	8.407
292.03	10.320
292.40	9.692
292.77	7.840
293.13	9.851
293.50	8.892
293.87	7.852
294.24	7.407
294.60	8.151
294.97	7.413
295.34	8.886
295.71	8.665
296.08	8.405
296.44	7.428
296.81	6.737
297.18	8.401
297.55	5.937
297.91	7.916
298.28	7.229
298.65	7.963
299.02	8.696
299.38	5.976
299.75	5.795
300.12	7.152
300.48	6.500
300.85	6.165
301.22	6.369
301.59	7.197
301.95	7.179
302.32	6.162
302.69	7.527
303.05	6.061
303.42	6.049
303.79	6.908
304.15	5.711
304.52	5.446
304.89	6.388
305.25	6.961
305.62	7.135
305.99	7.438
306.35	5.817
306.72	5.830
307.09	7.325
307.45	6.982
307.82	5.580
308.19	5.408
308.55	7.228
308.92	6.122
309.29	6.547
309.65	6.575
310.02	6.342
310.38	5.484
310.75	5.597
311.12	6.960
311.48	6.061
311.85	6.918
312.22	6.452
312.58	6.445
312.95	7.814
313.31	5.437
313.68	5.198
314.05	7.988
314.41	6.533
314.78	7.251
315.14	6.356
315.51	5.664
315.87	6.733
316.24	5.362
316.61	6.140
316.97	5.577
317.34	6.654
317.70	6.501
318.07	6.737
318.43	5.773
318.80	6.186
319.16	5.838
319.53	5.816
319.89	7.905
320.26	7.200
320.62	6.448
320.99	6.970
321.35	5.556
321.72	6.263
322.08	6.417
322.45	6.766
322.81	5.911
323.18	6.358
323.54	6.957
323.91	8.019
324.27	6.788
324.64	5.965
325.00	5.771
325.37	7.370
325.73	7.720
326.10	6.620
326.46	5.556
326.83	6.471
327.19	6.319
327.56	5.226
327.92	5.512
328.29	7.276
328.65	6.538
329.01	6.949
329.38	5.920
329.74	6.556
330.11	6.409
330.47	6.612
330.84	8.180
331.20	6.375
331.56	6.514
331.93	5.833
332.29	6.300
332.66	8.230
333.02	6.033
333.38	6.775
333.75	7.130
334.11	6.851
334.48	6.744
334.84	6.342
335.20	6.364
335.57	6.618
335.93	6.161
336.29	5.586
336.66	7.033
337.02	6.244
337.38	7.315
337.75	5.704
338.11	6.804
338.47	6.446
338.84	7.424
339.20	5.872
339.56	7.938
339.93	5.091
340.29	5.978
340.65	7.219
341.02	6.806
341.38	5.783
341.74	5.175
342.11	6.376
342.47	6.608
342.83	6.250
343.20	6.667
343.56	6.655
343.92	5.789
344.28	6.378
344.65	6.277
345.01	5.135
345.37	5.403
345.73	5.668
346.10	5.286
346.46	6.102
346.82	6.425
347.19	5.931
347.55	5.993
347.91	6.149
348.27	6.574
348.63	6.605
349.00	5.502
349.36	6.240
349.72	6.095
350.08	6.240
350.45	5.940
350.81	5.768
351.17	5.754
351.53	5.651
351.89	5.116
352.26	6.393
352.62	6.175
352.98	6.159
353.34	6.163
353.70	4.992
354.07	6.290
354.43	6.429
354.79	5.471
355.15	5.347
355.51	5.276
355.87	5.633
356.24	5.619
356.60	5.533
356.96	4.988
357.32	5.070
357.68	5.984
358.04	6.097
358.40	6.176
358.77	5.947
359.13	5.130
359.49	5.020
359.85	4.127
360.21	5.821
360.57	6.070
360.93	6.462
361.29	5.518
361.66	5.263
362.02	6.045
362.38	5.475
362.74	4.539
363.10	4.885
363.46	5.209
363.82	5.291
364.18	6.021
364.54	6.092
364.90	6.303
365.26	5.074
365.62	5.625
365.98	5.186
366.35	4.943
366.71	5.495
367.07	5.244
367.43	6.241
367.79	6.210
368.15	6.753
368.51	5.305
368.87	6.353
369.23	4.974
369.59	5.938
369.95	4.926
370.31	5.556
370.67	6.449
371.03	6.667
371.39	5.904
371.75	5.074
372.11	5.690
372.47	6.012
372.83	6.052
373.19	5.997
373.55	5.617
373.91	6.406
374.27	5.567
374.63	5.091
374.99	6.780
375.35	4.955
375.71	5.620
376.07	6.516
376.42	5.983
376.78	6.362
377.14	5.834
377.50	5.894
377.86	5.186
378.22	6.384
378.58	5.263
378.94	5.720
379.30	5.471
379.66	6.472
380.02	6.450
380.38	4.918
380.74	6.062
381.09	5.440
381.45	7.068
381.81	6.388
382.17	5.924
382.53	5.346
382.89	6.420
383.25	5.629
383.61	6.691
383.97	6.316
384.32	6.737
384.68	5.824
385.04	5.839
385.40	5.511
385.76	6.204
386.12	6.801
386.48	7.174
386.83	6.479
387.19	7.112
387.55	7.174
387.91	6.106
388.27	5.947
388.62	6.822
388.98	6.450
389.34	7.134
389.70	6.744
390.06	6.844
390.42	6.355
390.77	6.934
391.13	6.828
391.49	6.789
391.85	6.493
392.20	6.309
392.56	6.881
392.92	7.004
393.28	6.036
393.64	7.434
393.99	7.392
394.35	6.886
394.71	7.340
395.07	6.667
395.42	6.860
395.78	7.443
396.14	7.325
396.50	7.957
396.85	8.010
397.21	7.090
397.57	6.820
397.92	6.611
398.28	6.390
398.64	7.467
399.00	6.659
399.35	6.204
399.71	7.002
400.07	7.747
400.42	7.607
400.78	7.298
401.14	6.768
401.49	6.687
401.85	7.139
402.21	6.108
402.57	7.341
402.92	6.873
403.28	7.558
403.63	6.931
403.99	7.070
404.35	7.333
404.70	7.074
405.06	6.523
405.42	6.363
405.77	7.257
406.13	6.772
406.49	7.569
406.84	6.911
407.20	6.560
407.55	6.892
407.91	7.133
408.27	6.573
408.62	7.526
408.98	6.924
409.34	6.765
409.69	7.097
410.05	6.815
410.40	6.850
410.76	6.810
411.11	7.177
411.47	7.093
411.83	7.086
412.18	6.246
412.54	7.036
412.89	7.289
413.25	7.025
413.60	7.288
413.96	6.861
414.31	7.473
414.67	7.351
415.03	7.152
415.38	8.183
415.74	7.203
416.09	7.707
416.45	7.564
416.80	6.675
417.16	7.708
417.51	7.366
417.87	7.258
418.22	6.877
418.58	8.263
418.93	7.432
419.29	7.511
419.64	7.557
420.00	7.317
420.35	7.246
420.71	8.010
421.06	6.802
421.42	7.544
421.77	7.343
422.12	6.401
422.48	6.152
422.83	6.989
423.19	7.624
423.54	6.674
423.90	7.594
424.25	7.091
424.61	7.857
424.96	7.755
425.31	7.863
425.67	6.348
426.02	7.143
426.38	7.631
426.73	6.671
427.09	7.356
427.44	6.555
427.79	7.131
428.15	8.571
428.50	7.782
428.85	7.867
429.21	7.123
429.56	7.102
429.92	6.945
430.27	6.902
430.62	7.322
430.98	7.317
431.33	7.268
431.68	7.330
432.04	7.295
432.39	7.025
432.74	7.660
433.10	8.036
433.45	7.230
433.80	6.763
434.16	7.532
434.51	7.368
434.86	7.754
435.22	6.893
435.57	7.356
435.92	6.729
436.28	7.295
436.63	7.892
436.98	7.212
437.34	7.990
437.69	7.993
438.04	7.195
438.39	7.164
438.75	8.135
439.10	7.989
439.45	8.087
439.81	8.157
440.16	7.736
440.51	7.909
440.86	7.933
441.22	7.230
441.57	7.325
441.92	8.393
442.27	7.212
442.63	7.372
442.98	8.282
443.33	8.370
443.68	8.002
444.03	6.979
444.39	6.962
444.74	7.900
445.09	8.140
445.44	7.818
445.79	8.511
446.15	8.047
446.50	7.754
446.85	7.760
447.20	7.904
447.55	7.984
447.91	7.005
448.26	7.846
448.61	8.366
448.96	8.804
449.31	7.593
449.66	7.822
450.02	7.688
450.37	7.937
450.72	7.840
451.07	7.922
451.42	7.477
451.77	8.632
452.12	8.083
452.47	7.774
452.83	7.284
453.18	7.763
453.53	7.297
453.88	7.383
454.23	8.249
454.58	8.480
454.93	9.282
455.28	8.229
455.63	8.192
455.98	8.512
456.34	8.166
456.69	8.328
457.04	8.111
457.39	7.598
457.74	8.241
458.09	8.223
458.44	8.153
458.79	7.918
459.14	8.070
459.49	8.056
459.84	7.424
460.19	8.486
460.54	8.160
460.89	8.448
461.24	7.893
461.59	9.239
461.94	7.953
462.29	8.190
462.64	7.849
462.99	8.588
463.34	9.200
463.69	8.943
464.04	7.826
464.39	8.290
464.74	8.081
465.09	8.142
465.44	8.532
465.79	8.445
466.14	7.499
466.49	8.343
466.84	8.348
467.19	8.811
467.54	8.938
467.89	8.703
468.24	9.075
468.59	9.035
468.94	8.613
469.29	8.033
469.64	9.304
469.99	9.066
470.34	8.058
470.68	9.052
471.03	8.367
471.38	9.798
471.73	9.194
472.08	9.276
472.43	8.606
472.78	8.229
473.13	8.793
473.48	8.864
473.83	8.171
474.17	8.712
474.52	8.871
474.87	9.048
475.22	7.603
475.57	7.738
475.92	8.338
476.27	8.286
476.61	8.494
476.96	7.971
477.31	7.797
477.66	7.932
478.01	7.737
478.36	8.567
478.70	7.477
479.05	8.307
479.40	8.547
479.75	8.134
480.10	7.256
480.45	7.949
480.79	7.453
481.14	8.415
481.49	8.495
481.84	7.727
482.19	8.087
482.53	7.569
482.88	8.562
483.23	7.570
483.58	8.371
483.92	8.294
484.27	7.407
484.62	7.888
484.97	7.726
485.31	7.397
485.66	7.203
486.01	6.872
486.36	6.784
486.70	6.625
487.05	6.676
487.40	7.074
487.75	6.846
488.09	7.097
488.44	6.905
488.79	7.595
489.13	7.601
489.48	7.382
489.83	7.251
490.17	8.286
490.52	7.795
490.87	7.870
491.22	7.458
491.56	7.289
491.91	7.538
492.26	7.579
492.60	7.558
492.95	6.922
493.30	7.850
493.64	7.746
493.99	7.567
494.34	7.354
494.68	8.013
495.03	8.083
495.37	7.818
495.72	8.090
496.07	8.260
496.41	8.009
496.76	7.476
497.11	7.429
497.45	7.965
497.80	8.205
498.14	7.440
498.49	7.561
498.84	8.006
499.18	7.762
499.53	8.215
499.87	8.108
500.22	7.537
500.56	8.495
500.91	7.837
501.26	7.587
501.60	8.258
501.95	7.333
502.29	9.044
502.64	7.775
502.98	7.948
503.33	7.541
503.67	8.028
504.02	8.372
504.36	7.908
504.71	8.207
505.06	8.386
505.40	7.973
505.75	7.570
506.09	8.017
506.44	8.189
506.78	7.550
507.13	7.723
507.47	8.586
507.82	7.751
508.16	7.700
508.51	7.813
508.85	8.342
509.19	8.418
509.54	7.806
509.88	7.934
510.23	8.278
510.57	8.566
510.92	7.820
511.26	8.016
511.61	8.506
511.95	8.455
512.30	7.423
512.64	8.060
512.98	8.628
513.33	8.779
513.67	7.684
514.02	8.063
514.36	8.192
514.70	7.582
515.05	8.199
515.39	8.469
515.74	8.502
516.08	8.217
516.42	9.156
516.77	9.588
517.11	8.047
517.46	8.126
517.80	8.827
518.14	8.280
518.49	8.168
518.83	8.523
519.17	7.852
519.52	8.489
519.86	8.157
520.20	8.960
520.55	9.575
520.89	9.124
521.23	8.444
521.58	8.703
521.92	8.879
522.26	7.810
522.61	8.474
522.95	8.594
523.29	8.156
523.64	8.110
523.98	8.626
524.32	9.047
524.66	9.260
525.01	9.436
525.35	8.550
525.69	8.990
526.04	8.162
526.38	8.359
526.72	8.650
527.06	9.353
527.41	7.983
527.75	8.553
528.09	8.285
528.43	8.349
528.78	9.527
529.12	8.909
529.46	8.573
529.80	9.406
530.15	8.910
530.49	8.246
530.83	9.114
531.17	9.073
531.51	10.311
531.86	8.839
532.20	9.061
532.54	9.545
532.88	9.178
533.22	9.307
533.57	8.827
533.91	8.549
534.25	9.417
534.59	9.091
534.93	8.804
535.27	9.958
535.62	9.402
535.96	8.977
536.30	8.455
536.64	9.208
536.98	9.555
537.32	9.019
537.66	9.067
538.01	8.953
538.35	9.825
538.69	10.083
539.03	8.512
539.37	8.115
539.71	7.907
540.05	8.824
540.39	9.369
540.73	9.314
541.07	9.150
541.42	10.111
541.76	9.871
542.10	9.961
542.44	9.404
542.78	10.079
543.12	8.445
543.46	10.164
543.80	9.434
544.14	9.243
544.48	10.286
544.82	9.173
545.16	9.044
545.50	9.447
545.84	8.737
546.18	9.495
546.52	8.878
546.86	8.591
547.20	9.980
547.54	9.619
547.88	10.268
548.22	9.465
548.56	9.119
548.90	9.411
549.24	8.754
549.58	9.072
549.92	9.409
550.26	9.943
550.60	10.443
550.94	8.732
551.28	8.851
551.62	9.418
551.96	9.123
552.30	10.444
552.64	10.412
552.98	9.831
553.32	9.575
553.66	9.748
554.00	10.707
554.34	8.903
554.68	9.728
555.02	9.803
555.36	9.812
555.69	9.675
556.03	10.027
556.37	10.027
556.71	9.072
557.05	9.524
557.39	10.497
557.73	10.374
558.07	10.152
558.41	9.334
558.75	9.331
559.08	9.993
559.42	10.431
559.76	9.559
560.10	9.707
560.44	9.504
560.78	8.982
561.12	9.565
561.45	9.909
561.79	9.229
562.13	9.188
562.47	9.631
562.81	9.275
563.15	10.167
563.48	9.748
563.82	8.937
564.16	9.353
564.50	9.049
564.84	8.660
565.17	9.331
565.51	8.818
565.85	9.074
566.19	8.829
566.52	8.740
566.86	8.921
567.20	9.316
567.54	9.247
567.88	8.908
568.21	10.212
568.55	9.403
568.89	9.193
569.23	8.824
569.56	9.231
569.90	9.019
570.24	8.755
570.57	8.603
570.91	8.436
571.25	8.493
571.59	8.895
571.92	8.583
572.26	8.579
572.60	8.559
572.93	8.426
573.27	8.577
573.61	8.738
573.95	8.708
574.28	8.342
574.62	8.115
574.96	8.053
575.29	8.147
575.63	8.308
575.97	8.279
576.30	8.364
576.64	8.213
576.98	8.240
577.31	8.295
577.65	8.143
577.98	8.102
578.32	7.903
578.66	8.155
578.99	8.149
579.33	7.843
579.67	8.003
580.00	8.152
580.34	8.163
580.67	8.343
581.01	8.478
581.35	8.182
581.68	8.183
582.02	8.099
582.35	8.065
582.69	8.073
583.02	7.868
583.36	8.139
583.70	8.242
584.03	7.941
584.37	8.353
584.70	8.150
585.04	8.659
585.37	8.248
585.71	8.365
586.04	8.698
586.38	8.072
586.72	8.754
587.05	8.367
587.39	8.153
587.72	8.658
588.06	7.951
588.39	8.642
588.73	8.390
589.06	8.725
589.40	9.091
589.73	8.377
590.07	8.754
590.40	9.061
590.73	8.899
591.07	9.035
591.40	9.152
591.74	9.524
592.07	8.857
592.41	9.715
592.74	9.064
593.08	8.994
593.41	8.826
593.75	8.526
594.08	8.582
594.41	8.625
594.75	8.577
595.08	9.127
595.42	8.932
595.75	8.832
596.09	8.862
596.42	9.705
596.75	9.202
597.09	9.221
597.42	8.642
597.75	9.185
598.09	8.957
598.42	8.591
598.76	8.634
599.09	8.400
599.42	8.843
599.76	8.931
600.09	8.488
600.42	8.912
600.76	8.393
601.09	8.780
601.42	8.447
601.76	8.463
602.09	8.775
602.42	9.196
602.76	9.190
603.09	9.245
603.42	8.668
603.76	8.918
604.09	8.530
604.42	8.724
604.76	9.363
605.09	9.393
605.42	8.551
605.75	8.692
606.09	8.499
606.42	8.950
606.75	8.917
607.09	9.125
607.42	8.858
607.75	8.312
608.08	8.771
608.42	9.458
608.75	8.656
609.08	8.927
609.41	8.710
609.75	9.195
610.08	9.472
610.41	8.426
610.74	8.231
611.07	9.239
611.41	9.568
611.74	8.849
612.07	9.783
612.40	9.286
612.73	8.526
613.07	9.968
613.40	9.742
613.73	8.495
614.06	9.731
614.39	9.596
614.72	9.421
615.06	9.716
615.39	8.758
615.72	9.509
616.05	8.772
616.38	9.394
616.71	8.967
617.05	9.658
617.38	8.539
617.71	9.009
618.04	9.736
618.37	9.344
618.70	9.396
619.03	9.737
619.36	9.437
619.69	9.225
620.03	9.753
620.36	9.492
620.69	10.137
621.02	10.398
621.35	9.945
621.68	9.346
622.01	10.604
622.34	9.909
622.67	9.506
623.00	9.024
623.33	9.364
623.66	9.650
623.99	9.426
624.32	9.415
624.65	9.958
624.99	9.703
625.32	9.486
625.65	9.617
625.98	9.992
626.31	10.420
626.64	9.388
626.97	9.643
627.30	9.144
627.63	10.008
627.96	10.765
628.29	9.711
628.62	11.345
628.95	11.038
629.28	10.401
629.61	10.816
629.94	10.762
630.26	11.153
630.59	10.010
630.92	9.962
631.25	9.872
631.58	10.911
631.91	9.533
632.24	9.177
632.57	10.493
632.90	9.759
633.23	9.955
633.56	10.734
633.89	11.438
634.22	11.124
634.55	11.124
634.88	10.180
635.20	11.231
635.53	11.446
635.86	11.015
636.19	11.529
636.52	10.035
636.85	11.340
637.18	10.369
637.51	11.348
637.83	10.358
638.16	12.276
638.49	12.469
638.82	11.884
639.15	11.750
639.48	12.095
639.81	10.858
640.13	11.328
640.46	13.289
640.79	11.361
641.12	9.629
641.45	11.592
641.77	10.457
642.10	11.696
642.43	12.312
642.76	10.991
643.09	11.963
643.41	11.988
643.74	12.654
644.07	12.652
644.40	14.264
644.73	13.071
645.05	14.263
645.38	10.742
645.71	12.882
646.04	11.462
646.36	14.357
646.69	13.712
647.02	12.245
647.35	12.887
647.67	12.743
648.00	14.634
648.33	10.891
648.66	12.727
648.98	12.594
649.31	9.865
649.64	12.556
649.96	12.668
650.29	12.006
650.62	9.871
650.94	12.318
651.27	13.007
651.60	12.479
651.92	13.898
652.25	10.912
652.58	14.330
