SpectraSuite Data File
++++++++++++++++++++++++++++++++++++
Date: Wed May 13 16:46:13 PDT 2015
User: schluterlab
Dark Spectrum Present: Yes
Reference Spectrum Present: Yes
Number of Sampled Component Spectra: 1
Spectrometers: USB2E3373
Integration Time (usec): 3000 (USB2E3373)
Spectra Averaged: 3 (USB2E3373)
Boxcar Smoothing: 0 (USB2E3373)
Correct for Electrical Dark: No (USB2E3373)
Strobe/Lamp Enabled: No (USB2E3373)
Correct for Detector Non-linearity: No (USB2E3373)
Correct for Stray Light: No (USB2E3373)
Number of Pixels in Processed Spectrum: 2048
>>>>>Begin Processed Spectral Data<<<<<
178.53	0.000
178.91	-1200.000
179.29	-1250.000
179.67	-222.222
180.04	-1375.000
180.42	2450.000
180.80	880.000
181.18	-1100.000
181.56	657.143
181.94	0.000
182.31	-542.857
182.69	1766.667
183.07	-425.000
183.45	-533.333
183.83	509.091
184.20	-390.000
184.58	2900.000
184.96	5800.000
185.34	-820.000
185.72	-600.000
186.09	-2100.000
186.47	2800.000
186.85	2300.000
187.23	4000.000
187.61	-1433.333
187.98	1175.000
188.36	572.727
188.74	472.727
189.12	-640.000
189.49	550.000
189.87	-4900.000
190.25	-1150.000
190.63	435.714
191.00	430.769
191.38	583.333
191.76	-1300.000
192.14	1325.000
192.51	537.500
192.89	933.333
193.27	487.500
193.65	-1050.000
194.02	490.000
194.40	1180.000
194.78	610.000
195.15	475.000
195.53	640.000
195.91	-1700.000
196.29	375.000
196.66	331.579
197.04	-380.000
197.42	0.000
197.79	560.000
198.17	-4900.000
198.55	685.714
198.92	637.500
199.30	980.000
199.68	0.000
200.05	366.667
200.43	742.857
200.81	4400.000
201.18	1466.667
201.56	-1333.333
201.94	533.333
202.31	600.000
202.69	408.333
203.07	440.000
203.44	0.000
203.82	1075.000
204.19	871.429
204.57	435.714
204.95	775.000
205.32	1300.000
205.70	581.818
206.08	414.286
206.45	2350.000
206.83	356.250
207.20	816.667
207.58	760.000
207.96	294.444
208.33	837.500
208.71	-816.667
209.08	728.571
209.46	588.889
209.84	463.636
210.21	-1666.667
210.59	1425.000
210.96	-550.000
211.34	2800.000
211.71	640.000
212.09	700.000
212.46	0.000
212.84	1900.000
213.22	1400.000
213.59	-5300.000
213.97	733.333
214.34	714.286
214.72	618.182
215.09	840.000
215.47	-2150.000
215.84	-2450.000
216.22	1533.333
216.59	335.714
216.97	1300.000
217.34	445.455
217.72	-733.333
218.09	0.000
218.47	-4900.000
218.84	522.222
219.22	785.714
219.59	1466.667
219.97	-542.857
220.34	1040.000
220.72	-1633.333
221.09	364.286
221.47	1400.000
221.84	-866.667
222.22	0.000
222.59	1300.000
222.97	-2700.000
223.34	1140.000
223.72	392.308
224.09	880.000
224.46	2250.000
224.84	-4600.000
225.21	-900.000
225.59	-4900.000
225.96	560.000
226.34	315.000
226.71	2450.000
227.08	650.000
227.46	570.000
227.83	-900.000
228.21	-2500.000
228.58	555.556
228.95	-1700.000
229.33	-1850.000
229.70	1800.000
230.08	828.571
230.45	-1060.000
230.82	450.000
231.20	966.667
231.57	642.857
231.95	483.333
232.32	240.909
232.69	372.727
233.07	714.286
233.44	353.846
233.81	-1633.333
234.19	300.000
234.56	483.333
234.93	283.333
235.31	390.909
235.68	346.154
236.05	285.714
236.43	154.545
236.80	263.158
237.17	4900.000
237.55	209.524
237.92	167.857
238.29	228.571
238.67	151.613
239.04	186.207
239.41	136.111
239.79	95.652
240.16	123.810
240.53	113.636
240.91	94.118
241.28	80.000
241.65	82.000
242.02	57.971
242.40	74.194
242.77	60.000
243.14	61.290
243.51	62.921
243.89	52.941
244.26	47.778
244.63	51.613
245.00	41.489
245.38	47.525
245.75	34.579
246.12	35.780
246.49	43.796
246.87	48.800
247.24	41.538
247.61	30.000
247.98	33.333
248.36	30.405
248.73	28.025
249.10	33.758
249.47	25.424
249.84	30.481
250.22	30.481
250.59	26.627
250.96	25.758
251.33	31.280
251.70	26.733
252.08	21.429
252.45	18.834
252.82	23.043
253.19	22.979
253.56	21.961
253.94	28.216
254.31	24.219
254.68	23.846
255.05	22.140
255.42	20.732
255.79	16.912
256.16	19.856
256.54	18.728
256.91	19.217
257.28	15.468
257.65	19.142
258.02	16.770
258.39	17.666
258.76	14.716
259.14	16.667
259.51	17.325
259.88	14.596
260.25	17.221
260.62	17.630
260.99	14.596
261.36	19.520
261.73	12.607
262.10	12.791
262.47	15.211
262.85	15.042
263.22	12.251
263.59	16.809
263.96	13.187
264.33	14.099
264.70	13.947
265.07	17.647
265.44	15.152
265.81	14.112
266.18	13.819
266.55	13.415
266.92	11.794
267.29	15.278
267.66	12.385
268.03	12.045
268.40	12.617
268.77	11.217
269.14	12.613
269.51	12.415
269.88	11.655
270.25	11.964
270.62	11.910
270.99	14.624
271.36	12.661
271.73	10.981
272.10	10.870
272.47	12.043
272.84	11.688
273.21	10.482
273.58	10.262
273.95	9.015
274.32	11.364
274.69	10.707
275.06	9.843
275.43	9.574
275.80	10.822
276.17	10.591
276.54	12.474
276.91	9.881
277.28	10.352
277.65	12.573
278.02	9.317
278.39	10.937
278.76	9.455
279.13	11.132
279.50	10.987
279.87	11.554
280.23	10.180
280.60	8.317
280.97	7.579
281.34	11.327
281.71	11.636
282.08	11.708
282.45	11.636
282.82	9.591
283.19	8.556
283.56	9.825
283.92	10.321
284.29	8.995
284.66	7.985
285.03	8.499
285.40	9.507
285.77	8.923
286.14	8.290
286.51	10.667
286.87	9.744
287.24	10.912
287.61	7.705
287.98	9.253
288.35	7.765
288.72	8.411
289.08	9.859
289.45	10.049
289.82	8.130
290.19	8.634
290.56	10.720
290.93	7.704
291.29	8.896
291.66	8.407
292.03	10.756
292.40	9.251
292.77	9.172
293.13	8.507
293.50	8.601
293.87	8.741
294.24	6.667
294.60	8.443
294.97	9.593
295.34	11.425
295.71	8.807
296.08	7.265
296.44	7.290
296.81	7.662
297.18	9.350
297.55	6.069
297.91	7.520
298.28	8.835
298.65	8.355
299.02	8.037
299.38	6.640
299.75	5.391
300.12	7.918
300.48	6.000
300.85	7.028
301.22	5.987
301.59	6.692
301.95	7.809
302.32	6.162
302.69	7.288
303.05	6.061
303.42	7.284
303.79	6.569
304.15	4.895
304.52	6.025
304.89	7.433
305.25	6.497
305.62	7.588
305.99	8.028
306.35	6.823
306.72	6.951
307.09	7.880
307.45	6.982
307.82	5.357
308.19	6.733
308.55	7.659
308.92	7.411
309.29	7.075
309.65	5.726
310.02	7.294
310.38	7.204
310.75	6.336
311.12	6.551
311.48	7.628
311.85	7.652
312.22	6.139
312.58	6.341
312.95	6.230
313.31	5.825
313.68	6.237
314.05	8.185
314.41	7.035
314.78	6.848
315.14	7.448
315.51	6.591
315.87	5.644
316.24	6.653
316.61	6.140
316.97	6.164
317.34	5.577
317.70	7.361
318.07	7.603
318.43	7.241
318.80	6.560
319.16	6.497
319.53	6.191
319.89	7.238
320.26	7.000
320.62	7.440
320.99	6.566
321.35	6.566
321.72	6.879
322.08	6.811
322.45	7.761
322.81	7.267
323.18	6.551
323.54	7.792
323.91	7.830
324.27	6.501
324.64	5.312
325.00	6.402
325.37	7.006
325.73	7.540
326.10	6.973
326.46	5.466
326.83	7.161
327.19	6.576
327.56	6.185
327.92	7.087
328.29	7.276
328.65	6.906
329.01	6.859
329.38	6.013
329.74	6.741
330.11	5.278
330.47	6.520
330.84	7.077
331.20	6.648
331.56	7.248
331.93	6.481
332.29	6.389
332.66	7.788
333.02	6.673
333.38	7.317
333.75	6.595
334.11	6.673
334.48	6.566
334.84	6.985
335.20	7.545
335.57	6.256
335.93	4.911
336.29	6.777
336.66	7.124
337.02	6.154
337.38	6.111
337.75	5.971
338.11	6.177
338.47	5.801
338.84	6.874
339.20	5.963
339.56	6.661
339.93	5.455
340.29	6.522
340.65	6.684
341.02	6.719
341.38	6.940
341.74	6.404
342.11	5.939
342.47	6.167
342.83	6.164
343.20	6.840
343.56	5.897
343.92	7.719
344.28	6.378
344.65	6.105
345.01	6.313
345.37	5.317
345.73	6.176
346.10	5.882
346.46	5.763
346.82	6.096
347.19	6.182
347.55	5.911
347.91	6.958
348.27	6.574
348.63	6.355
349.00	5.663
349.36	6.404
349.72	5.694
350.08	5.511
350.45	7.242
350.81	6.093
351.17	5.754
351.53	5.733
351.89	4.950
352.26	6.630
352.62	6.897
352.98	5.916
353.34	5.588
353.70	5.483
354.07	7.177
354.43	5.635
354.79	5.310
355.15	5.427
355.51	5.915
355.87	5.714
356.24	5.212
356.60	5.052
356.96	5.953
357.32	6.214
357.68	5.748
358.04	5.305
358.40	6.255
358.77	5.477
359.13	5.209
359.49	5.569
359.85	3.810
360.21	5.423
360.57	6.381
360.93	5.615
361.29	5.367
361.66	4.799
362.02	5.672
362.38	5.932
362.74	6.027
363.10	5.033
363.46	5.136
363.82	4.913
364.18	5.507
364.54	5.869
364.90	5.666
365.26	4.706
365.62	5.405
365.98	5.332
366.35	5.158
366.71	5.929
367.07	5.462
367.43	5.806
367.79	6.067
368.15	5.603
368.51	4.578
368.87	5.996
369.23	5.121
369.59	5.069
369.95	5.368
370.31	5.698
370.67	5.580
371.03	6.816
371.39	5.904
371.75	5.368
372.11	5.761
372.47	5.645
372.83	5.548
373.19	5.925
373.55	5.617
373.91	5.744
374.27	5.842
374.63	4.509
374.99	6.356
375.35	4.955
375.71	5.689
376.07	6.447
376.42	6.396
376.78	5.368
377.14	5.902
377.50	6.424
377.86	6.316
378.22	5.689
378.58	5.764
378.94	5.531
379.30	5.344
379.66	5.266
380.02	5.897
380.38	5.100
380.74	5.882
381.09	5.807
381.45	5.900
381.81	6.143
382.17	5.860
382.53	6.038
382.89	6.358
383.25	5.754
383.61	5.762
383.97	6.191
384.32	6.051
384.68	5.886
385.04	5.839
385.40	6.254
385.76	5.283
386.12	5.635
386.48	6.167
386.83	5.837
387.19	5.875
387.55	5.937
387.91	6.106
388.27	6.009
388.62	7.191
388.98	5.221
389.34	6.633
389.70	6.131
390.06	6.781
390.42	5.966
390.77	7.125
391.13	6.254
391.49	6.726
391.85	5.729
392.20	5.237
392.56	6.187
392.92	5.768
393.28	4.852
393.64	5.995
393.99	5.620
394.35	5.521
394.71	6.462
395.07	5.234
395.42	6.119
395.78	6.234
396.14	6.456
396.50	6.767
396.85	6.484
397.21	5.734
397.57	6.386
397.92	7.031
398.28	5.774
398.64	6.033
399.00	5.988
399.35	5.866
399.71	5.903
400.07	5.914
400.42	5.828
400.78	6.092
401.14	5.732
401.49	6.687
401.85	5.626
402.21	5.868
402.57	5.244
402.92	6.305
403.28	6.496
403.63	6.250
403.99	5.796
404.35	6.242
404.70	5.935
405.06	5.183
405.42	5.864
405.77	5.657
406.13	5.700
406.49	5.736
406.84	6.202
407.20	5.319
407.55	5.680
407.91	5.600
408.27	5.935
408.62	5.479
408.98	6.618
409.34	5.720
409.69	6.194
410.05	6.444
410.40	5.810
410.76	6.511
411.11	6.092
411.47	6.070
411.83	6.536
412.18	5.937
412.54	5.355
412.89	6.386
413.25	5.903
413.60	5.806
413.96	5.647
414.31	5.711
414.67	6.337
415.03	5.563
415.38	6.508
415.74	5.981
416.09	6.140
416.45	5.288
416.80	5.420
417.16	5.965
417.51	5.441
417.87	5.845
418.22	6.751
418.58	6.391
418.93	6.204
419.29	6.111
419.64	6.171
420.00	5.854
420.35	6.261
420.71	6.695
421.06	5.191
421.42	6.082
421.77	6.390
422.12	4.997
422.48	5.289
422.83	6.115
423.19	6.519
423.54	6.036
423.90	6.029
424.25	5.918
424.61	5.893
424.96	5.306
425.31	6.146
425.67	5.337
426.02	5.886
426.38	6.044
426.73	5.208
427.09	6.383
427.44	5.578
427.79	5.233
428.15	6.429
428.50	6.085
428.85	6.138
429.21	5.467
429.56	5.288
429.92	5.234
430.27	5.313
430.62	4.967
430.98	5.501
431.33	5.361
431.68	5.602
432.04	6.017
432.39	5.026
432.74	5.984
433.10	5.829
433.45	5.831
433.80	5.654
434.16	5.769
434.51	5.421
434.86	5.986
435.22	4.725
435.57	5.228
435.92	5.383
436.28	5.753
436.63	6.126
436.98	5.896
437.34	5.486
437.69	5.718
438.04	5.340
438.39	5.552
438.75	5.927
439.10	5.810
439.45	5.549
439.81	5.317
440.16	5.929
440.51	5.917
440.86	5.443
441.22	4.727
441.57	5.786
441.92	5.681
442.27	5.328
442.63	5.687
442.98	6.028
443.33	6.141
443.68	6.144
444.03	5.564
444.39	4.576
444.74	5.141
445.09	5.229
445.44	5.030
445.79	5.789
446.15	5.770
446.50	5.331
446.85	5.807
447.20	5.201
447.55	5.081
447.91	5.295
448.26	5.787
448.61	5.766
448.96	6.202
449.31	6.243
449.66	6.021
450.02	5.348
450.37	5.102
450.72	5.358
451.07	5.363
451.42	5.350
451.77	6.518
452.12	5.543
452.47	6.405
452.83	5.012
453.18	5.501
453.53	5.690
453.88	5.493
454.23	5.320
454.58	6.178
454.93	5.912
455.28	5.923
455.63	5.825
455.98	6.190
456.34	5.967
456.69	5.573
457.04	5.635
457.39	5.377
457.74	5.630
458.09	6.555
458.44	6.271
458.79	5.152
459.14	6.038
459.49	5.429
459.84	5.208
460.19	4.891
460.54	6.076
460.89	5.321
461.24	5.647
461.59	6.740
461.94	5.857
462.29	5.875
462.64	6.382
462.99	6.051
463.34	6.333
463.69	5.879
464.04	5.971
464.39	5.971
464.74	5.645
465.09	5.790
465.44	5.208
465.79	5.481
466.14	5.255
466.49	5.562
466.84	5.663
467.19	5.975
467.54	6.063
467.89	5.882
468.24	5.294
468.59	6.532
468.94	5.559
469.29	6.684
469.64	6.225
469.99	6.563
470.34	5.878
470.68	6.178
471.03	5.918
471.38	6.185
471.73	6.596
472.08	6.316
472.43	5.779
472.78	5.464
473.13	5.841
473.48	5.556
473.83	6.220
474.17	5.787
474.52	6.017
474.87	6.597
475.22	6.384
475.57	5.696
475.92	5.470
476.27	5.862
476.61	5.516
476.96	5.058
477.31	5.024
477.66	5.580
478.01	5.855
478.36	6.240
478.70	5.504
479.05	5.325
479.40	5.015
479.75	5.084
480.10	4.225
480.45	5.140
480.79	4.730
481.14	5.039
481.49	5.458
481.84	5.121
482.19	5.407
482.53	5.138
482.88	5.165
483.23	5.000
483.58	5.687
483.92	5.155
484.27	4.444
484.62	5.216
484.97	4.730
485.31	5.205
485.66	3.933
486.01	4.035
486.36	3.642
486.70	3.551
487.05	3.947
487.40	4.035
487.75	4.025
488.09	3.943
488.44	4.270
488.79	4.774
489.13	4.698
489.48	4.649
489.83	4.834
490.17	4.910
490.52	4.872
490.87	4.749
491.22	5.230
491.56	5.011
491.91	4.886
492.26	5.237
492.60	5.530
492.95	4.677
493.30	4.860
493.64	4.806
493.99	4.643
494.34	4.903
494.68	5.037
495.03	5.122
495.37	5.631
495.72	5.166
496.07	5.290
496.41	4.867
496.76	5.321
497.11	5.043
497.45	5.030
497.80	5.518
498.14	4.831
498.49	4.732
498.84	5.609
499.18	5.286
499.53	5.176
499.87	5.312
500.22	5.181
500.56	5.728
500.91	4.808
501.26	5.121
501.60	5.790
501.95	5.408
502.29	5.436
502.64	5.633
502.98	5.236
503.33	5.073
503.67	5.615
504.02	5.098
504.36	5.194
504.71	5.569
505.06	6.072
505.40	5.639
505.75	4.822
506.09	5.637
506.44	5.427
506.78	5.845
507.13	5.149
507.47	5.505
507.82	6.028
508.16	5.572
508.51	5.885
508.85	5.859
509.19	5.663
509.54	5.510
509.88	5.513
510.23	5.501
510.57	6.140
510.92	5.438
511.26	5.242
511.61	5.809
511.95	5.532
512.30	5.514
512.64	5.857
512.98	5.573
513.33	6.478
513.67	5.977
514.02	5.303
514.36	5.735
514.70	5.811
515.05	6.247
515.39	5.384
515.74	5.180
516.08	6.093
516.42	6.382
516.77	6.466
517.11	5.882
517.46	6.659
517.80	6.504
518.14	5.153
518.49	5.893
518.83	6.932
519.17	6.062
519.52	6.395
519.86	6.104
520.20	6.532
520.55	6.703
520.89	6.326
521.23	6.273
521.58	5.942
521.92	6.552
522.26	6.528
522.61	5.794
522.95	6.200
523.29	6.512
523.64	7.622
523.98	6.161
524.32	6.936
524.66	6.915
525.01	6.801
525.35	5.886
525.69	6.589
526.04	6.542
526.38	6.223
526.72	6.748
527.06	5.838
527.41	6.064
527.75	6.817
528.09	6.615
528.43	6.756
528.78	6.392
529.12	6.000
529.46	6.246
529.80	7.302
530.15	7.103
530.49	6.154
530.83	6.835
531.17	7.115
531.51	7.977
531.86	6.452
532.20	6.910
532.54	7.431
532.88	6.611
533.22	6.683
533.57	6.543
533.91	6.562
534.25	6.440
534.59	6.284
534.93	6.544
535.27	6.639
535.62	6.227
535.96	7.094
536.30	6.421
536.64	6.697
536.98	6.901
537.32	7.373
537.66	6.667
538.01	6.978
538.35	7.111
538.69	6.956
539.03	6.238
539.37	5.623
539.71	5.185
540.05	7.582
540.39	7.176
540.73	6.727
541.07	6.879
541.42	7.045
541.76	7.290
542.10	6.468
542.44	6.424
542.78	7.378
543.12	7.166
543.46	6.885
543.80	6.636
544.14	6.354
544.48	7.238
544.82	6.222
545.16	6.506
545.50	6.041
545.84	6.855
546.18	6.667
546.52	6.401
546.86	6.460
547.20	6.676
547.54	6.680
547.88	7.717
548.22	6.476
548.56	6.792
548.90	6.594
549.24	5.455
549.58	6.617
549.92	7.555
550.26	6.463
550.60	7.054
550.94	6.761
551.28	6.072
551.62	6.902
551.96	7.018
552.30	6.962
552.64	6.558
552.98	7.186
553.32	7.822
553.66	7.430
554.00	6.177
554.34	7.108
554.68	7.582
555.02	7.687
555.36	7.307
555.69	6.766
556.03	6.729
556.37	6.207
556.71	6.617
557.05	7.213
557.39	7.348
557.73	6.845
558.07	6.817
558.41	6.585
558.75	6.907
559.08	7.681
559.42	6.500
559.76	7.059
560.10	6.067
560.44	6.639
560.78	6.188
561.12	6.794
561.45	7.366
561.79	6.262
562.13	6.170
562.47	6.489
562.81	6.904
563.15	6.890
563.48	6.432
563.82	6.588
564.16	6.017
564.50	5.404
564.84	7.080
565.17	6.178
565.51	6.518
565.85	6.282
566.19	6.700
566.52	6.713
566.86	6.028
567.20	6.132
567.54	5.993
567.88	5.486
568.21	6.772
568.55	5.713
568.89	6.031
569.23	5.526
569.56	5.628
569.90	5.245
570.24	4.916
570.57	4.930
570.91	4.751
571.25	4.632
571.59	5.125
571.92	4.868
572.26	4.593
572.60	5.045
572.93	4.798
573.27	5.176
573.61	5.109
573.95	5.090
574.28	4.447
574.62	4.713
574.96	4.468
575.29	4.171
575.63	4.446
575.97	4.244
576.30	5.072
576.64	4.625
576.98	4.424
577.31	4.575
577.65	4.365
577.98	4.383
578.32	4.170
578.66	4.382
578.99	4.383
579.33	4.139
579.67	4.184
580.00	4.843
580.34	4.509
580.67	4.207
581.01	4.880
581.35	4.193
581.68	4.482
582.02	4.128
582.35	4.033
582.69	4.150
583.02	4.541
583.36	4.358
583.70	4.496
584.03	4.545
584.37	4.822
584.70	4.728
585.04	4.550
585.37	4.520
585.71	4.582
586.04	4.494
586.38	4.598
586.72	4.778
587.05	4.455
587.39	4.274
587.72	4.741
588.06	4.296
588.39	4.883
588.73	4.605
589.06	4.768
589.40	5.253
589.73	4.717
590.07	5.053
590.40	4.823
590.73	4.762
591.07	5.250
591.40	5.652
591.74	5.714
592.07	5.628
592.41	5.333
592.74	5.056
593.08	4.963
593.41	4.904
593.75	4.841
594.08	5.196
594.41	5.125
594.75	4.473
595.08	5.369
595.42	5.324
595.75	4.915
596.09	5.445
596.42	5.737
596.75	5.276
597.09	5.844
597.42	5.270
597.75	5.347
598.09	5.565
598.42	5.455
598.76	5.310
599.09	5.131
599.42	5.022
599.76	5.527
600.09	4.845
600.42	5.113
600.76	4.821
601.09	5.501
601.42	4.985
601.76	5.427
602.09	4.941
602.42	5.971
602.76	5.562
603.09	4.878
603.42	5.389
603.76	4.916
604.09	4.731
604.42	5.137
604.76	5.863
605.09	5.286
605.42	5.259
605.75	5.215
606.09	5.002
606.42	5.353
606.75	5.268
607.09	5.986
607.42	5.135
607.75	5.148
608.08	5.428
608.42	5.827
608.75	5.861
609.08	5.689
609.41	5.759
609.75	5.717
610.08	5.938
610.41	4.842
610.74	5.156
611.07	5.484
611.41	5.741
611.74	6.285
612.07	5.694
612.40	5.509
612.73	5.895
613.07	5.603
613.40	6.056
613.73	5.191
614.06	5.753
614.39	6.135
614.72	6.421
615.06	6.250
615.39	5.414
615.72	6.288
616.05	6.007
616.38	6.115
616.71	6.235
617.05	6.537
617.38	5.893
617.71	5.526
618.04	6.190
618.37	5.677
618.70	6.534
619.03	6.842
619.36	6.246
619.69	6.761
620.03	7.074
620.36	6.684
620.69	7.877
621.02	6.637
621.35	6.343
621.68	6.698
622.01	6.734
622.34	7.110
622.67	6.768
623.00	6.603
623.33	6.934
623.66	6.576
623.99	6.554
624.32	5.920
624.65	6.427
624.99	6.303
625.32	6.155
625.65	6.461
625.98	6.841
626.31	7.232
626.64	7.429
626.97	6.899
627.30	6.816
627.63	7.629
627.96	6.981
628.29	8.136
628.62	8.326
628.95	8.679
629.28	7.391
629.61	8.983
629.94	6.952
630.26	7.626
630.59	8.198
630.92	7.375
631.25	7.502
631.58	6.607
631.91	7.404
632.24	6.751
632.57	8.604
632.90	8.443
633.23	7.942
633.56	9.718
633.89	9.060
634.22	7.719
634.55	9.822
634.88	8.024
635.20	10.036
635.53	8.072
635.86	8.911
636.19	8.824
636.52	9.458
636.85	8.362
637.18	7.949
637.51	9.220
637.83	6.905
638.16	8.696
638.49	7.935
638.82	10.367
639.15	10.500
639.48	10.474
639.81	10.054
640.13	10.417
640.46	9.530
640.79	9.247
641.12	7.978
641.45	8.799
641.77	10.751
642.10	8.626
642.43	8.709
642.76	8.978
643.09	10.276
643.41	10.319
643.74	9.568
644.07	8.384
644.40	12.270
644.73	11.654
645.05	12.837
645.38	10.427
645.71	10.145
646.04	11.296
646.36	10.184
646.69	12.709
647.02	10.204
647.35	12.543
647.67	13.274
648.00	11.382
648.33	9.571
648.66	10.606
648.98	11.244
649.31	10.015
649.64	9.716
649.96	10.581
650.29	10.900
650.62	10.518
650.94	11.669
651.27	11.993
651.60	12.313
651.92	12.141
652.25	9.283
652.58	10.748
652.90	12.638
653.23	9.399
653.56	8.504
