SpectraSuite Data File
++++++++++++++++++++++++++++++++++++
Date: Wed May 13 16:02:51 PDT 2015
User: schluterlab
Dark Spectrum Present: Yes
Reference Spectrum Present: Yes
Number of Sampled Component Spectra: 1
Spectrometers: USB2E3373
Integration Time (usec): 3000 (USB2E3373)
Spectra Averaged: 3 (USB2E3373)
Boxcar Smoothing: 0 (USB2E3373)
Correct for Electrical Dark: No (USB2E3373)
Strobe/Lamp Enabled: No (USB2E3373)
Correct for Detector Non-linearity: No (USB2E3373)
Correct for Stray Light: No (USB2E3373)
Number of Pixels in Processed Spectrum: 2048
>>>>>Begin Processed Spectral Data<<<<<
178.53	0.000
178.91	-500.000
179.29	-550.000
179.67	-22.222
180.04	-425.000
180.42	1050.000
180.80	700.000
181.18	-400.000
181.56	371.429
181.94	0.000
182.31	-300.000
182.69	733.333
183.07	-250.000
183.45	-244.444
183.83	290.909
184.20	-120.000
184.58	650.000
184.96	2200.000
185.34	-220.000
185.72	-325.000
186.09	-750.000
186.47	950.000
186.85	1150.000
187.23	1300.000
187.61	-733.333
187.98	550.000
188.36	236.364
188.74	290.909
189.12	-220.000
189.49	310.000
189.87	-1100.000
190.25	-425.000
190.63	200.000
191.00	246.154
191.38	433.333
191.76	-400.000
192.14	650.000
192.51	300.000
192.89	533.333
193.27	262.500
193.65	-425.000
194.02	270.000
194.40	400.000
194.78	170.000
195.15	316.667
195.53	330.000
195.91	-850.000
196.29	162.500
196.66	168.421
197.04	-30.000
197.42	0.000
197.79	320.000
198.17	-2200.000
198.55	157.143
198.92	287.500
199.30	400.000
199.68	0.000
200.05	188.889
200.43	314.286
200.81	1500.000
201.18	666.667
201.56	-733.333
201.94	177.778
202.31	244.444
202.69	133.333
203.07	180.000
203.44	0.000
203.82	425.000
204.19	342.857
204.57	185.714
204.95	237.500
205.32	533.333
205.70	254.545
206.08	142.857
206.45	950.000
206.83	175.000
207.20	550.000
207.58	140.000
207.96	155.556
208.33	487.500
208.71	-333.333
209.08	414.286
209.46	300.000
209.84	200.000
210.21	-500.000
210.59	475.000
210.96	-162.500
211.34	700.000
211.71	150.000
212.09	283.333
212.46	0.000
212.84	733.333
213.22	575.000
213.59	-1300.000
213.97	366.667
214.34	342.857
214.72	400.000
215.09	420.000
215.47	-750.000
215.84	-900.000
216.22	666.667
216.59	150.000
216.97	325.000
217.34	209.091
217.72	-150.000
218.09	0.000
218.47	-2100.000
218.84	355.556
219.22	400.000
219.59	866.667
219.97	-42.857
220.34	560.000
220.72	-666.667
221.09	214.286
221.47	725.000
221.84	-450.000
222.22	0.000
222.59	650.000
222.97	-650.000
223.34	580.000
223.72	169.231
224.09	380.000
224.46	600.000
224.84	-1500.000
225.21	-400.000
225.59	-1900.000
225.96	190.000
226.34	195.000
226.71	1200.000
227.08	100.000
227.46	190.000
227.83	-350.000
228.21	-300.000
228.58	300.000
228.95	-1050.000
229.33	-1150.000
229.70	1000.000
230.08	228.571
230.45	-280.000
230.82	216.667
231.20	300.000
231.57	300.000
231.95	233.333
232.32	140.909
232.69	90.909
233.07	257.143
233.44	115.385
233.81	-633.333
234.19	173.684
234.56	150.000
234.93	133.333
235.31	154.545
235.68	92.308
236.05	71.429
236.43	69.697
236.80	105.263
237.17	600.000
237.55	109.524
237.92	71.429
238.29	142.857
238.67	45.161
239.04	89.655
239.41	52.778
239.79	65.217
240.16	59.524
240.53	38.636
240.91	41.176
241.28	48.000
241.65	38.000
242.02	43.478
242.40	51.613
242.77	25.000
243.14	35.484
243.51	39.326
243.89	25.882
244.26	22.222
244.63	30.108
245.00	34.043
245.38	22.772
245.75	24.299
246.12	18.349
246.49	32.117
246.87	38.400
247.24	25.385
247.61	28.571
247.98	22.222
248.36	24.324
248.73	24.841
249.10	28.662
249.47	24.294
249.84	29.412
250.22	17.647
250.59	22.485
250.96	18.687
251.33	20.853
251.70	22.772
252.08	19.524
252.45	25.112
252.82	20.000
253.19	22.979
253.56	21.176
253.94	17.842
254.31	18.359
254.68	18.462
255.05	20.664
255.42	19.512
255.79	17.647
256.16	18.412
256.54	12.721
256.91	20.996
257.28	17.266
257.65	20.462
258.02	20.186
258.39	17.350
258.76	15.050
259.14	18.155
259.51	15.805
259.88	14.286
260.25	17.825
260.62	17.630
260.99	15.217
261.36	16.517
261.73	16.332
262.10	15.116
262.47	15.493
262.85	16.713
263.22	13.675
263.59	16.809
263.96	14.835
264.33	15.405
264.70	15.000
265.07	16.368
265.44	16.919
265.81	13.869
266.18	14.824
266.55	16.341
266.92	17.199
267.29	15.972
267.66	15.596
268.03	14.773
268.40	15.187
268.77	13.126
269.14	13.739
269.51	15.124
269.88	13.986
270.25	15.576
270.62	15.056
270.99	15.914
271.36	15.021
271.73	14.486
272.10	15.435
272.47	16.989
272.84	17.965
273.21	15.304
273.58	13.755
273.95	12.159
274.32	13.223
274.69	13.919
275.06	12.008
275.43	13.830
275.80	13.427
276.17	13.238
276.54	15.177
276.91	15.613
277.28	14.062
277.65	14.120
278.02	13.043
278.39	14.258
278.76	14.182
279.13	14.340
279.50	16.201
279.87	15.139
280.23	14.172
280.60	13.153
280.97	12.384
281.34	13.628
281.71	13.636
282.08	13.628
282.45	13.091
282.82	12.611
283.19	11.052
283.56	13.684
283.92	14.890
284.29	13.580
284.66	12.886
285.03	12.297
285.40	12.852
285.77	14.646
286.14	13.299
286.51	13.167
286.87	12.650
287.24	13.355
287.61	12.841
287.98	13.149
288.35	12.995
288.72	12.617
289.08	11.424
289.45	12.685
289.82	12.358
290.19	11.146
290.56	12.711
290.93	8.459
291.29	12.270
291.66	12.832
292.03	15.843
292.40	12.628
292.77	11.391
293.13	13.582
293.50	11.808
293.87	12.296
294.24	12.593
294.60	11.790
294.97	11.919
295.34	12.553
295.71	11.080
296.08	11.823
296.44	9.904
296.81	11.625
297.18	13.279
297.55	11.082
297.91	12.137
298.28	12.985
298.65	13.838
299.02	10.277
299.38	10.624
299.75	10.377
300.12	10.728
300.48	12.375
300.85	11.467
301.22	10.828
301.59	10.732
301.95	11.839
302.32	11.938
302.69	12.067
303.05	10.667
303.42	11.111
303.79	10.532
304.15	10.839
304.52	10.313
304.89	10.918
305.25	11.137
305.62	12.231
305.99	12.397
306.35	11.521
306.72	11.883
307.09	12.542
307.45	12.387
307.82	11.161
308.19	11.921
308.55	11.650
308.92	11.063
309.29	10.771
309.65	11.559
310.02	12.156
310.38	11.720
310.75	13.094
311.12	13.306
311.48	11.912
311.85	13.312
312.22	11.550
312.58	13.098
312.95	13.411
313.31	13.010
313.68	11.850
314.05	15.286
314.41	14.774
314.78	12.890
315.14	13.108
315.51	13.182
315.87	14.158
316.24	14.399
316.61	14.425
316.97	13.796
317.34	13.405
317.70	15.870
318.07	14.533
318.43	15.362
318.80	15.370
319.16	15.725
319.53	15.478
319.89	16.286
320.26	17.200
320.62	16.369
320.99	16.465
321.35	16.667
321.72	17.659
322.08	18.855
322.45	18.806
322.81	17.926
323.18	17.823
323.54	19.017
323.91	18.019
324.27	19.598
324.64	19.105
325.00	19.657
325.37	21.474
325.73	21.095
326.10	20.124
326.46	20.609
326.83	22.088
327.19	20.837
327.56	21.603
327.92	22.310
328.29	22.449
328.65	22.284
329.01	22.383
329.38	23.127
329.74	22.345
330.11	23.280
330.47	23.967
330.84	22.794
331.20	24.135
331.56	23.945
331.93	22.130
332.29	23.602
332.66	23.097
333.02	23.218
333.38	24.932
333.75	23.351
334.11	23.754
334.48	23.957
334.84	24.265
335.20	24.636
335.57	24.207
335.93	23.125
336.29	23.443
336.66	24.707
337.02	22.534
337.38	24.444
337.75	23.262
338.11	22.829
338.47	22.928
338.84	22.640
339.20	23.761
339.56	23.540
339.93	22.455
340.29	23.641
340.65	23.886
341.02	23.822
341.38	24.110
341.74	22.719
342.11	23.231
342.47	23.789
342.83	23.459
343.20	24.675
343.56	22.915
343.92	22.632
344.28	24.065
344.65	23.302
345.01	22.727
345.37	22.642
345.73	23.773
346.10	23.444
346.46	22.966
346.82	23.311
347.19	22.723
347.55	23.399
347.91	24.272
348.27	22.597
348.63	23.829
349.00	22.411
349.36	22.742
349.72	22.133
350.08	21.637
350.45	22.539
350.81	23.071
351.17	23.906
351.53	23.096
351.89	22.525
352.26	23.125
352.62	23.657
352.98	21.880
353.34	23.007
353.70	22.259
354.07	22.661
354.43	21.746
354.79	21.641
355.15	22.426
355.51	23.181
355.87	22.939
356.24	23.046
356.60	21.973
356.96	23.331
357.32	23.794
357.68	23.858
358.04	23.278
358.40	23.278
358.77	23.005
359.13	22.415
359.49	23.843
359.85	22.302
360.21	22.727
360.57	24.047
360.93	23.462
361.29	22.676
361.66	24.071
362.02	23.433
362.38	22.510
362.74	23.661
363.10	23.390
363.46	22.524
363.82	23.054
364.18	22.467
364.54	23.774
364.90	23.796
365.26	22.868
365.62	23.813
365.98	22.717
366.35	23.138
366.71	22.849
367.07	23.161
367.43	23.730
367.79	23.983
368.15	24.138
368.51	23.038
368.87	23.840
369.23	23.043
369.59	24.475
369.95	22.794
370.31	24.288
370.67	23.406
371.03	24.270
371.39	24.052
371.75	23.897
372.11	23.471
372.47	24.560
372.83	25.072
373.19	23.916
373.55	24.464
373.91	25.920
374.27	24.261
374.63	23.636
374.99	24.506
375.35	24.564
375.71	25.291
376.07	24.829
376.42	25.722
376.78	24.321
377.14	25.034
377.50	25.497
377.86	24.003
378.22	24.779
378.58	24.248
378.94	24.953
379.30	24.300
379.66	25.381
380.02	25.676
380.38	24.590
380.74	26.170
381.09	26.039
381.45	25.937
381.81	26.720
382.17	25.796
382.53	26.164
382.89	27.099
383.25	25.766
383.61	26.084
383.97	26.016
384.32	26.388
384.68	25.031
385.04	26.122
385.40	25.511
385.76	25.799
386.12	26.036
386.48	26.809
386.83	27.069
387.19	27.829
387.55	26.469
387.91	25.877
388.27	26.609
388.62	27.105
388.98	26.720
389.34	27.472
389.70	27.039
390.06	26.996
390.42	27.237
390.77	26.908
391.13	26.611
391.49	26.904
391.85	26.671
392.20	25.804
392.56	27.083
392.92	26.604
393.28	26.746
393.64	27.458
393.99	26.756
394.35	27.047
394.71	26.223
395.07	25.919
395.42	26.638
395.78	26.654
396.14	26.443
396.50	27.632
396.85	26.764
397.21	26.449
397.57	26.596
397.92	26.923
398.28	26.457
398.64	26.464
399.00	26.245
399.35	25.719
399.71	26.852
400.07	26.493
400.42	27.055
400.78	26.779
401.14	26.524
401.49	26.388
401.85	26.074
402.21	26.048
402.57	26.095
402.92	26.293
403.28	26.109
403.63	26.795
403.99	26.051
404.35	25.879
404.70	25.600
405.06	25.568
405.42	26.450
405.77	25.543
406.13	26.919
406.49	25.488
406.84	25.281
407.20	25.236
407.55	25.973
407.91	26.267
408.27	26.356
408.62	25.828
408.98	25.858
409.34	24.908
409.69	26.194
410.05	25.589
410.40	25.994
410.76	26.822
411.11	25.513
411.47	25.367
411.83	26.268
412.18	24.923
412.54	26.152
412.89	25.723
413.25	25.266
413.60	26.189
413.96	25.076
414.31	25.759
414.67	25.982
415.03	25.430
415.38	26.482
415.74	26.367
416.09	26.453
416.45	26.104
416.80	25.116
417.16	26.609
417.51	26.012
417.87	25.434
418.22	25.994
418.58	26.727
418.93	26.290
419.29	26.225
419.64	26.700
420.00	25.549
420.35	26.377
420.71	26.479
421.06	25.179
421.42	25.614
421.77	26.009
422.12	25.211
422.48	24.501
422.83	25.626
423.19	26.077
423.54	26.233
423.90	26.725
424.25	26.521
424.61	25.893
424.96	26.647
425.31	26.633
425.67	25.506
426.02	26.114
426.38	26.984
426.73	25.688
427.09	25.593
427.44	26.567
427.79	27.027
428.15	26.905
428.50	26.390
428.85	28.010
429.21	25.676
429.56	26.905
429.92	26.422
430.27	26.216
430.62	25.755
430.98	26.518
431.33	26.340
431.68	26.754
432.04	25.825
432.39	28.041
432.74	27.289
433.10	27.051
433.45	27.522
433.80	26.330
434.16	26.709
434.51	26.684
434.86	27.993
435.22	26.793
435.57	28.024
435.92	27.677
436.28	28.410
436.63	27.649
436.98	26.846
437.34	26.834
437.69	28.413
438.04	28.218
438.39	27.463
438.75	27.542
439.10	27.709
439.45	27.804
439.81	27.734
440.16	26.143
440.51	28.588
440.86	28.720
441.22	27.697
441.57	27.601
441.92	28.506
442.27	28.095
442.63	27.857
442.98	27.944
443.33	28.152
443.68	27.723
444.03	28.551
444.39	26.972
444.74	27.868
445.09	28.787
445.44	27.829
445.79	27.857
446.15	28.534
446.50	27.518
446.85	28.828
447.20	27.690
447.55	28.141
447.91	27.854
448.26	27.379
448.61	27.869
448.96	28.018
449.31	28.684
449.66	28.700
450.02	27.688
450.37	27.778
450.72	28.201
451.07	27.666
451.42	28.450
451.77	29.066
452.12	28.811
452.47	28.731
452.83	28.613
453.18	28.729
453.53	28.881
453.88	28.647
454.23	28.571
454.58	29.013
454.93	29.879
455.28	28.554
455.63	28.398
455.98	29.583
456.34	28.957
456.69	28.679
457.04	29.040
457.39	28.580
457.74	28.845
458.09	29.270
458.44	29.475
458.79	28.254
459.14	28.837
459.49	28.722
459.84	28.643
460.19	29.346
460.54	28.299
460.89	28.799
461.24	29.205
461.59	29.518
461.94	28.422
462.29	28.665
462.64	27.888
462.99	28.757
463.34	29.600
463.69	28.080
464.04	28.928
464.39	29.101
464.74	28.996
465.09	29.192
465.44	27.590
465.79	28.132
466.14	28.079
466.49	28.643
466.84	29.480
467.19	28.727
467.54	29.688
467.89	29.052
468.24	29.145
468.59	28.816
468.94	27.673
469.29	28.920
469.64	28.715
469.99	28.484
470.34	29.458
470.68	29.957
471.03	28.639
471.38	30.090
471.73	29.380
472.08	30.000
472.43	28.392
472.78	27.913
473.13	28.306
473.48	29.401
473.83	29.085
474.17	27.878
474.52	29.156
474.87	29.013
475.22	29.251
475.57	28.211
475.92	27.987
476.27	28.410
476.61	28.516
476.96	27.872
477.31	28.362
477.66	30.033
478.01	28.489
478.36	29.297
478.70	28.401
479.05	28.435
479.40	28.915
479.75	28.063
480.10	28.181
480.45	28.177
480.79	27.186
481.14	28.327
481.49	28.477
481.84	29.035
482.19	28.351
482.53	27.982
482.88	28.199
483.23	28.411
483.58	28.389
483.92	28.725
484.27	27.146
484.62	28.103
484.97	27.000
485.31	27.568
485.66	26.303
486.01	24.963
486.36	24.492
486.70	24.963
487.05	25.259
487.40	25.843
487.75	26.287
488.09	27.419
488.44	26.217
488.79	27.884
489.13	27.960
489.48	27.529
489.83	27.363
490.17	27.707
490.52	27.812
490.87	27.906
491.22	27.831
491.56	26.241
491.91	27.873
492.26	27.836
492.60	27.281
492.95	26.754
493.30	27.290
493.64	27.858
493.99	27.252
494.34	27.058
494.68	28.114
495.03	28.430
495.37	27.548
495.72	28.216
496.07	28.770
496.41	27.655
496.76	26.913
497.11	27.780
497.45	27.294
497.80	28.311
498.14	27.053
498.49	27.317
498.84	28.284
499.18	27.952
499.53	27.778
499.87	28.099
500.22	26.896
500.56	27.913
500.91	27.548
501.26	27.549
501.60	28.192
501.95	27.314
502.29	27.976
502.64	27.886
502.98	27.489
503.33	27.057
503.67	27.378
504.02	27.175
504.36	27.422
504.71	27.601
505.06	27.711
505.40	27.807
505.75	26.953
506.09	27.259
506.44	27.380
506.78	26.936
507.13	28.117
507.47	28.586
507.82	27.406
508.16	27.660
508.51	27.803
508.85	27.259
509.19	27.857
509.54	27.755
509.88	28.233
510.23	28.175
510.57	28.122
510.92	28.017
511.26	27.390
511.61	28.423
511.95	27.662
512.30	27.625
512.64	27.405
512.98	27.867
513.33	27.730
513.67	26.841
514.02	27.273
514.36	28.181
514.70	28.722
515.05	27.998
515.39	28.435
515.74	28.491
516.08	27.893
516.42	28.191
516.77	29.041
517.11	27.414
517.46	27.427
517.80	28.920
518.14	26.925
518.49	28.355
518.83	27.670
519.17	28.580
519.52	28.976
519.86	27.838
520.20	28.324
520.55	28.905
520.89	28.163
521.23	29.131
521.58	28.691
521.92	28.291
522.26	27.273
522.61	28.224
522.95	27.379
523.29	28.241
523.64	28.780
523.98	29.205
524.32	27.925
524.66	28.803
525.01	27.819
525.35	28.315
525.69	27.586
526.04	28.224
526.38	27.822
526.72	28.405
527.06	28.625
527.41	27.042
527.75	28.682
528.09	28.516
528.43	27.852
528.78	27.904
529.12	27.152
529.46	27.863
529.80	27.228
530.15	27.726
530.49	27.446
530.83	28.354
531.17	28.721
531.51	28.534
531.86	28.065
532.20	28.618
532.54	28.059
532.88	28.177
533.22	27.795
533.57	27.037
533.91	27.393
534.25	26.549
534.59	27.517
534.93	27.008
535.27	27.218
535.62	27.350
535.96	27.809
536.30	27.209
536.64	27.817
536.98	27.804
537.32	27.979
537.66	27.333
538.01	27.781
538.35	27.020
538.69	27.441
539.03	27.680
539.37	26.326
539.71	27.025
540.05	27.190
540.39	26.711
540.73	26.326
541.07	27.060
541.42	27.397
541.76	27.032
542.10	27.361
542.44	26.556
542.78	27.404
543.12	25.976
543.46	27.410
543.80	27.066
544.14	26.573
544.48	27.492
544.82	25.978
545.16	26.610
545.50	26.478
545.84	26.344
546.18	27.744
546.52	27.460
546.86	27.285
547.20	28.051
547.54	26.921
547.88	27.105
548.22	26.650
548.56	26.352
548.90	26.761
549.24	27.003
549.58	26.876
549.92	27.473
550.26	27.273
550.60	26.902
550.94	27.958
551.28	26.920
551.62	27.894
551.96	26.456
552.30	26.621
552.64	26.369
552.98	27.254
553.32	26.500
553.66	27.607
554.00	26.836
554.34	26.846
554.68	27.325
555.02	26.587
555.36	27.209
555.69	26.319
556.03	27.254
556.37	27.217
556.71	25.375
557.05	26.751
557.39	26.382
557.73	26.817
558.07	27.556
558.41	27.641
558.75	26.672
559.08	27.666
559.42	27.362
559.76	26.103
560.10	27.623
560.44	26.136
560.78	26.347
561.12	25.528
561.45	25.815
561.79	26.763
562.13	25.553
562.47	26.844
562.81	27.057
563.15	25.753
563.48	25.928
563.82	25.636
564.16	25.834
564.50	26.628
564.84	25.474
565.17	26.255
565.51	25.240
565.85	26.396
566.19	25.485
566.52	26.219
566.86	24.714
567.20	25.825
567.54	25.799
567.88	24.715
568.21	25.185
568.55	24.065
568.89	23.930
569.23	23.262
569.56	23.360
569.90	22.604
570.24	23.430
570.57	22.033
570.91	21.946
571.25	21.989
571.59	22.062
571.92	21.256
572.26	21.953
572.60	21.802
572.93	22.039
573.27	22.242
573.61	22.083
573.95	21.757
574.28	21.281
574.62	20.845
574.96	20.860
575.29	20.635
575.63	21.037
575.97	21.218
576.30	21.243
576.64	21.026
576.98	20.977
577.31	20.933
577.65	20.630
577.98	20.647
578.32	20.492
578.66	20.210
578.99	20.657
579.33	21.157
579.67	21.041
580.00	21.050
580.34	21.286
580.67	20.586
581.01	21.138
581.35	20.147
581.68	20.253
582.02	19.923
582.35	20.072
582.69	20.011
583.02	20.339
583.36	20.867
583.70	20.904
584.03	20.977
584.37	21.001
584.70	21.264
585.04	21.429
585.37	21.249
585.71	21.006
586.04	20.802
586.38	20.585
586.72	21.513
587.05	21.081
587.39	20.923
587.72	20.897
588.06	21.105
588.39	21.591
588.73	21.091
589.06	21.315
589.40	22.155
589.73	21.859
590.07	21.957
590.40	21.410
590.73	22.092
591.07	22.548
591.40	22.733
591.74	23.203
592.07	22.251
592.41	22.489
592.74	22.285
593.08	21.319
593.41	22.018
593.75	21.487
594.08	21.153
594.41	21.774
594.75	21.294
595.08	21.403
595.42	21.716
595.75	21.225
596.09	22.493
596.42	22.397
596.75	22.626
597.09	23.333
597.42	22.007
597.75	22.941
598.09	21.826
598.42	21.864
598.76	21.646
599.09	21.551
599.42	21.507
599.76	22.072
600.09	21.275
600.42	21.329
600.76	21.357
601.09	21.311
601.42	21.842
601.76	21.708
602.09	22.055
602.42	22.054
602.76	22.289
603.09	21.991
603.42	22.062
603.76	21.265
604.09	22.102
604.42	21.321
604.76	22.438
605.09	21.800
605.42	22.274
605.75	21.813
606.09	21.309
606.42	22.150
606.75	21.858
607.09	22.897
607.42	21.737
607.75	21.013
608.08	21.494
608.42	22.277
608.75	22.047
609.08	21.739
609.41	21.990
609.75	22.010
610.08	22.620
610.41	21.881
610.74	21.996
611.07	23.073
611.41	21.884
611.74	23.379
612.07	23.085
612.40	23.190
612.73	23.053
613.07	23.491
613.40	22.749
613.73	22.758
614.06	22.903
614.39	23.702
614.72	22.000
615.06	22.164
615.39	22.824
615.72	22.290
616.05	22.913
616.38	22.290
616.71	23.634
617.05	24.028
617.38	23.692
617.71	23.123
618.04	23.498
618.37	23.773
618.70	24.082
619.03	24.342
619.36	24.100
619.69	24.437
620.03	23.901
620.36	23.797
620.69	24.863
621.02	24.779
621.35	25.294
621.68	24.766
622.01	24.690
622.34	25.794
622.67	24.259
623.00	23.624
623.33	23.946
623.66	24.160
623.99	23.638
624.32	23.823
624.65	23.023
624.99	24.150
625.32	23.823
625.65	24.718
625.98	24.058
626.31	25.428
626.64	26.286
626.97	25.270
627.30	25.769
627.63	26.661
627.96	26.156
628.29	25.459
628.62	26.441
628.95	27.453
629.28	25.000
629.61	27.131
629.94	26.762
630.26	25.739
630.59	25.834
630.92	25.670
631.25	23.692
631.58	27.427
631.91	26.876
632.24	26.055
