SpectraSuite Data File
++++++++++++++++++++++++++++++++++++
Date: Wed May 13 16:02:47 PDT 2015
User: schluterlab
Dark Spectrum Present: Yes
Reference Spectrum Present: Yes
Number of Sampled Component Spectra: 1
Spectrometers: USB2E3373
Integration Time (usec): 3000 (USB2E3373)
Spectra Averaged: 3 (USB2E3373)
Boxcar Smoothing: 0 (USB2E3373)
Correct for Electrical Dark: No (USB2E3373)
Strobe/Lamp Enabled: No (USB2E3373)
Correct for Detector Non-linearity: No (USB2E3373)
Correct for Stray Light: No (USB2E3373)
Number of Pixels in Processed Spectrum: 2048
>>>>>Begin Processed Spectral Data<<<<<
178.53	0.000
178.91	-375.000
179.29	-425.000
179.67	-38.889
180.04	-625.000
180.42	1200.000
180.80	400.000
181.18	-25.000
181.56	157.143
181.94	0.000
182.31	-271.429
182.69	366.667
183.07	-250.000
183.45	-55.556
183.83	272.727
184.20	-80.000
184.58	1150.000
184.96	2500.000
185.34	-260.000
185.72	-162.500
186.09	-750.000
186.47	1600.000
186.85	1050.000
187.23	2200.000
187.61	-966.667
187.98	525.000
188.36	254.545
188.74	227.273
189.12	-320.000
189.49	320.000
189.87	-2100.000
190.25	-300.000
190.63	257.143
191.00	169.231
191.38	450.000
191.76	-600.000
192.14	525.000
192.51	325.000
192.89	416.667
193.27	175.000
193.65	-500.000
194.02	70.000
194.40	420.000
194.78	270.000
195.15	191.667
195.53	430.000
195.91	-600.000
196.29	187.500
196.66	121.053
197.04	-60.000
197.42	0.000
197.79	280.000
198.17	-1600.000
198.55	214.286
198.92	312.500
199.30	240.000
199.68	0.000
200.05	116.667
200.43	314.286
200.81	900.000
201.18	633.333
201.56	-666.667
201.94	244.444
202.31	244.444
202.69	150.000
203.07	150.000
203.44	0.000
203.82	425.000
204.19	342.857
204.57	242.857
204.95	287.500
205.32	500.000
205.70	209.091
206.08	114.286
206.45	1350.000
206.83	231.250
207.20	450.000
207.58	40.000
207.96	127.778
208.33	325.000
208.71	-250.000
209.08	371.429
209.46	277.778
209.84	118.182
210.21	-700.000
210.59	675.000
210.96	-87.500
211.34	750.000
211.71	320.000
212.09	250.000
212.46	0.000
212.84	900.000
213.22	550.000
213.59	-1400.000
213.97	116.667
214.34	357.143
214.72	345.455
215.09	440.000
215.47	-950.000
215.84	-950.000
216.22	666.667
216.59	214.286
216.97	575.000
217.34	218.182
217.72	-216.667
218.09	0.000
218.47	-1800.000
218.84	377.778
219.22	285.714
219.59	733.333
219.97	-257.143
220.34	260.000
220.72	-566.667
221.09	185.714
221.47	550.000
221.84	-183.333
222.22	0.000
222.59	650.000
222.97	-1300.000
223.34	480.000
223.72	238.462
224.09	540.000
224.46	1150.000
224.84	-1300.000
225.21	-460.000
225.59	-1800.000
225.96	340.000
226.34	105.000
226.71	850.000
227.08	287.500
227.46	150.000
227.83	-200.000
228.21	-600.000
228.58	266.667
228.95	-1050.000
229.33	-700.000
229.70	733.333
230.08	242.857
230.45	-220.000
230.82	241.667
231.20	133.333
231.57	114.286
231.95	158.333
232.32	100.000
232.69	72.727
233.07	385.714
233.44	100.000
233.81	-633.333
234.19	157.895
234.56	166.667
234.93	108.333
235.31	227.273
235.68	123.077
236.05	200.000
236.43	57.576
236.80	63.158
237.17	2100.000
237.55	52.381
237.92	75.000
238.29	85.714
238.67	54.839
239.04	79.310
239.41	58.333
239.79	32.609
240.16	52.381
240.53	59.091
240.91	50.980
241.28	40.000
241.65	34.000
242.02	55.072
242.40	35.484
242.77	28.333
243.14	33.333
243.51	47.191
243.89	31.765
244.26	36.667
244.63	26.882
245.00	26.596
245.38	28.713
245.75	22.430
246.12	14.679
246.49	35.766
246.87	32.000
247.24	30.769
247.61	27.143
247.98	21.569
248.36	25.000
248.73	23.567
249.10	26.115
249.47	23.164
249.84	26.738
250.22	23.529
250.59	23.077
250.96	26.263
251.33	22.275
251.70	24.257
252.08	22.857
252.45	21.076
252.82	19.565
253.19	24.681
253.56	24.314
253.94	24.481
254.31	21.875
254.68	20.385
255.05	20.664
255.42	23.577
255.79	19.853
256.16	24.188
256.54	15.901
256.91	19.217
257.28	16.547
257.65	20.132
258.02	20.186
258.39	16.404
258.76	19.732
259.14	19.345
259.51	16.717
259.88	18.012
260.25	17.523
260.62	15.896
260.99	18.634
261.36	21.622
261.73	19.198
262.10	15.407
262.47	20.282
262.85	17.549
263.22	18.803
263.59	18.234
263.96	16.209
264.33	16.188
264.70	17.632
265.07	16.624
265.44	15.909
265.81	18.248
266.18	16.332
266.55	16.341
266.92	14.251
267.29	17.361
267.66	16.284
268.03	16.364
268.40	16.121
268.77	13.604
269.14	14.414
269.51	17.381
269.88	18.182
270.25	15.576
270.62	16.629
270.99	18.710
271.36	15.880
271.73	13.551
272.10	16.522
272.47	18.065
272.84	16.234
273.21	15.933
273.58	14.410
273.95	15.304
274.32	15.496
274.69	16.488
275.06	15.157
275.43	15.106
275.80	17.034
276.17	14.053
276.54	16.424
276.91	13.636
277.28	16.797
277.65	14.700
278.02	15.528
278.39	15.820
278.76	15.273
279.13	14.340
279.50	16.946
279.87	15.737
280.23	15.768
280.60	15.474
280.97	15.342
281.34	18.053
281.71	15.818
282.08	15.547
282.45	14.364
282.82	14.387
283.19	14.260
283.56	16.140
283.92	15.567
284.29	15.873
284.66	15.064
285.03	12.658
285.40	14.261
285.77	13.636
286.14	13.126
286.51	15.333
286.87	17.607
287.24	15.961
287.61	15.088
287.98	15.584
288.35	16.482
288.72	13.863
289.08	14.241
289.45	12.850
289.82	12.846
290.19	13.501
290.56	13.017
290.93	13.444
291.29	13.957
291.66	13.864
292.03	16.424
292.40	14.391
292.77	13.166
293.13	13.731
293.50	14.286
293.87	12.593
294.24	12.593
294.60	11.208
294.97	13.808
295.34	14.669
295.71	13.494
296.08	13.675
296.44	12.242
296.81	13.474
297.18	13.686
297.55	11.873
297.91	11.214
298.28	12.718
298.65	13.708
299.02	12.253
299.38	11.421
299.75	11.725
300.12	11.494
300.48	12.625
300.85	12.947
301.22	11.720
301.59	11.995
301.95	12.343
302.32	13.350
302.69	11.589
303.05	12.364
303.42	13.951
303.79	12.684
304.15	12.821
304.52	12.167
304.89	12.776
305.25	12.065
305.62	11.438
305.99	13.813
306.35	13.199
306.72	12.780
307.09	13.097
307.45	14.640
307.82	12.946
308.19	12.693
308.55	13.592
308.92	12.997
309.29	12.038
309.65	11.241
310.02	11.628
310.38	13.226
310.75	12.988
311.12	13.511
311.48	12.226
311.85	13.417
312.22	13.424
312.58	12.994
312.95	14.044
313.31	12.816
313.68	12.682
314.05	15.385
314.41	14.070
314.78	13.394
315.14	13.307
315.51	14.521
315.87	15.050
316.24	14.697
316.61	13.548
316.97	13.601
317.34	14.775
317.70	16.252
318.07	15.207
318.43	14.090
318.80	15.839
319.16	15.631
319.53	14.353
319.89	16.095
320.26	16.600
320.62	15.575
320.99	16.364
321.35	16.667
321.72	17.146
322.08	17.868
322.45	18.010
322.81	17.636
323.18	18.979
323.54	17.532
323.91	17.736
324.27	17.878
324.64	17.521
325.00	17.674
325.37	19.199
325.73	20.018
326.10	20.124
326.46	19.444
326.83	20.190
327.19	19.214
327.56	20.296
327.92	19.073
328.29	20.319
328.65	21.363
329.01	20.307
329.38	20.352
329.74	20.960
330.11	20.452
330.47	21.855
330.84	20.588
331.20	20.947
331.56	22.018
331.93	20.463
332.29	21.207
332.66	22.035
333.02	21.572
333.38	22.584
333.75	22.371
334.11	22.865
334.48	21.917
334.84	22.151
335.20	21.636
335.57	21.759
335.93	21.607
336.29	21.245
336.66	22.272
337.02	21.176
337.38	21.389
337.75	21.390
338.11	21.128
338.47	20.810
338.84	20.990
339.20	21.835
339.56	21.350
339.93	19.909
340.29	21.830
340.65	20.588
341.02	22.251
341.38	21.174
341.74	21.053
342.11	20.786
342.47	22.026
342.83	20.976
343.20	22.165
343.56	21.061
343.92	21.228
344.28	21.429
344.65	22.184
345.01	20.370
345.37	20.669
345.73	20.474
346.10	21.057
346.46	21.271
346.82	21.087
347.19	20.468
347.55	20.115
347.91	21.197
348.27	21.446
348.63	20.819
349.00	19.822
349.36	20.936
349.72	21.492
350.08	21.151
350.45	21.237
350.81	20.309
351.17	20.746
351.53	20.557
351.89	20.957
352.26	20.600
352.62	20.289
352.98	21.232
353.34	22.186
353.70	20.049
354.07	20.081
354.43	20.000
354.79	20.917
355.15	20.511
355.51	21.263
355.87	20.816
356.24	20.684
356.60	19.487
356.96	20.434
357.32	20.278
357.68	21.102
358.04	19.952
358.40	20.348
358.77	20.110
359.13	20.758
359.49	20.863
359.85	19.841
360.21	20.813
360.57	21.012
360.93	20.692
361.29	20.106
361.66	19.659
362.02	21.866
362.38	21.217
362.74	21.429
363.10	20.577
363.46	21.277
363.82	20.333
364.18	21.806
364.54	21.917
364.90	21.884
365.26	20.588
365.62	21.256
365.98	20.380
366.35	21.275
366.71	21.186
367.07	20.612
367.43	20.319
367.79	20.485
368.15	22.126
368.51	20.858
368.87	21.556
369.23	21.287
369.59	21.361
369.95	20.147
370.31	21.652
370.67	20.217
371.03	22.022
371.39	20.918
371.75	20.809
372.11	20.555
372.47	21.628
372.83	22.118
373.19	20.737
373.55	22.321
373.91	22.386
374.27	20.962
374.63	21.236
374.99	21.328
375.35	21.005
375.71	21.727
376.07	22.428
376.42	22.352
376.78	22.995
377.14	22.524
377.50	22.318
377.86	22.340
378.22	22.946
378.58	22.055
378.94	21.182
379.30	22.328
379.66	22.018
380.02	22.850
380.38	22.040
380.74	22.449
381.09	23.533
381.45	23.479
381.81	22.973
382.17	22.229
382.53	23.145
382.89	22.778
383.25	22.952
383.61	23.854
383.97	23.827
384.32	22.645
384.68	22.800
385.04	23.909
385.40	23.406
385.76	23.157
386.12	22.409
386.48	23.914
386.83	24.118
387.19	25.108
387.55	23.438
387.91	23.035
388.27	24.034
388.62	23.479
388.98	23.771
389.34	24.030
389.70	23.544
390.06	24.144
390.42	23.735
390.77	23.664
391.13	23.357
391.49	23.985
391.85	23.234
392.20	22.650
392.56	23.548
392.92	23.367
393.28	22.544
393.64	23.082
393.99	23.885
394.35	23.635
394.71	22.898
395.07	23.364
395.42	23.609
395.78	23.537
396.14	23.091
396.50	23.747
396.85	23.649
397.21	23.058
397.57	24.055
397.92	23.558
398.28	23.094
398.64	23.357
399.00	23.279
399.35	23.012
399.71	23.785
400.07	24.009
400.42	23.313
400.78	23.522
401.14	22.744
401.49	23.463
401.85	22.868
402.21	22.216
402.57	22.825
402.92	23.707
403.28	23.173
403.63	23.762
403.99	22.038
404.35	23.152
404.70	22.182
405.06	22.714
405.42	22.707
405.77	22.914
406.13	22.460
406.49	22.235
406.84	22.445
407.20	21.809
407.55	22.527
407.91	23.467
408.27	22.719
408.62	23.119
408.98	22.917
409.34	23.186
409.69	23.355
410.05	22.181
410.40	22.569
410.76	22.581
411.11	22.376
411.47	22.364
411.83	22.663
412.18	21.892
412.54	22.354
412.89	22.831
413.25	22.727
413.60	22.792
413.96	21.433
414.31	22.783
414.67	23.004
415.03	21.722
415.38	23.196
415.74	22.186
416.09	22.730
416.45	22.021
416.80	22.802
417.16	22.855
417.51	22.362
417.87	21.066
418.22	22.587
418.58	22.983
418.93	22.727
419.29	22.915
419.64	23.426
420.00	22.439
420.35	23.304
420.71	24.387
421.06	22.494
421.42	22.807
421.77	22.478
422.12	22.235
422.48	22.072
422.83	23.646
423.19	23.039
423.54	23.099
423.90	23.130
424.25	23.283
424.61	22.857
424.96	23.732
425.31	22.481
425.67	22.191
426.02	22.857
426.38	23.932
426.73	23.113
427.09	22.675
427.44	24.094
427.79	22.887
428.15	23.869
428.50	23.406
428.85	23.957
429.21	23.633
429.56	23.639
429.92	23.150
430.27	23.585
430.62	22.478
430.98	24.338
431.33	23.763
431.68	23.717
432.04	24.388
432.39	23.701
432.74	23.399
433.10	23.203
433.45	23.207
433.80	23.780
434.16	23.718
434.51	23.684
434.86	23.888
435.22	24.125
435.57	24.377
435.92	24.400
436.28	24.614
436.63	24.393
436.98	24.098
437.34	24.866
437.69	24.562
438.04	24.677
438.39	24.716
438.75	25.160
439.10	24.804
439.45	25.089
439.81	24.653
440.16	24.167
440.51	24.897
440.86	24.609
441.22	24.583
441.57	24.522
441.92	24.309
442.27	24.543
442.63	24.855
442.98	25.465
443.33	25.217
443.68	24.935
444.03	25.183
444.39	24.343
444.74	24.459
445.09	24.906
445.44	25.150
445.79	24.542
446.15	25.146
446.50	25.202
446.85	24.974
447.20	25.293
447.55	25.349
447.91	25.152
448.26	25.431
448.61	25.099
448.96	25.415
449.31	26.434
449.66	26.111
450.02	25.181
450.37	25.170
450.72	25.042
451.07	24.314
451.42	25.046
451.77	26.130
452.12	25.751
452.47	25.498
452.83	25.583
453.18	25.306
453.53	26.160
453.88	25.162
454.23	25.702
454.58	26.105
454.93	27.463
455.28	26.309
455.63	25.789
455.98	26.607
456.34	26.633
456.69	26.237
457.04	26.130
457.39	25.541
457.74	26.640
458.09	25.934
458.44	26.853
458.79	24.729
459.14	26.524
459.49	26.095
459.84	25.651
460.19	25.457
460.54	25.810
460.89	26.385
461.24	26.472
461.59	27.658
461.94	26.326
462.29	26.944
462.64	25.782
462.99	26.220
463.34	26.933
463.69	25.704
464.04	26.029
464.39	25.217
464.74	26.144
465.09	25.513
465.44	25.928
465.79	25.951
466.14	25.342
466.49	26.363
466.84	26.386
467.19	26.373
467.54	26.687
467.89	26.951
468.24	26.353
468.59	26.007
468.94	25.351
469.29	25.900
469.64	27.711
469.99	27.267
470.34	26.420
470.68	27.371
471.03	25.510
471.38	26.616
471.73	26.382
472.08	26.711
472.43	26.256
472.78	26.465
473.13	26.573
473.48	25.843
473.83	26.280
474.17	25.638
474.52	26.427
474.87	25.744
475.22	26.001
475.57	26.330
475.92	25.491
476.27	25.930
476.61	26.089
476.96	25.289
477.31	25.327
477.66	26.641
478.01	25.823
478.36	26.388
478.70	25.182
479.05	26.624
479.40	26.459
479.75	25.114
480.10	25.895
480.45	25.750
480.79	25.514
481.14	25.147
481.49	26.388
481.84	25.834
482.19	26.397
482.53	25.963
482.88	25.966
483.23	25.981
483.58	24.886
483.92	25.773
484.27	25.185
484.62	26.595
484.97	25.424
485.31	26.473
485.66	24.410
486.01	23.416
486.36	23.348
486.70	23.152
487.05	23.590
487.40	23.519
487.75	23.987
488.09	25.296
488.44	25.417
488.79	25.461
489.13	25.745
489.48	25.489
489.83	25.809
490.17	25.734
490.52	25.775
490.87	25.192
491.22	25.784
491.56	25.467
491.91	25.640
492.26	26.183
492.60	26.221
492.95	25.491
493.30	25.748
493.64	25.525
493.99	25.952
494.34	25.624
494.68	25.870
495.03	26.175
495.37	25.454
495.72	26.803
496.07	26.543
496.41	25.177
496.76	25.901
497.11	25.394
497.45	26.409
497.80	26.296
498.14	25.700
498.49	25.366
498.84	25.791
499.18	25.286
499.53	25.641
499.87	25.256
500.22	25.954
500.56	25.971
500.91	24.952
501.26	25.510
501.60	25.771
501.95	25.481
502.29	26.898
502.64	26.117
502.98	25.806
503.33	25.046
503.67	25.522
504.02	25.304
504.36	25.222
504.71	26.185
505.06	25.928
505.40	25.814
505.75	24.638
506.09	25.753
506.44	25.407
506.78	25.280
507.13	26.401
507.47	25.505
507.82	26.494
508.16	25.380
508.51	26.383
508.85	25.124
509.19	25.867
509.54	26.173
509.88	24.936
510.23	25.707
510.57	26.419
510.92	25.531
511.26	25.899
511.61	25.519
511.95	25.209
512.30	26.405
512.64	26.169
512.98	25.670
513.33	25.642
513.67	24.546
514.02	25.000
514.36	26.106
514.70	26.176
515.05	25.544
515.39	25.743
515.74	25.394
516.08	25.880
516.42	25.472
516.77	25.920
517.11	25.028
517.46	26.072
517.80	26.074
518.14	25.941
518.49	26.604
518.83	25.909
519.17	25.924
519.52	26.203
519.86	25.898
520.20	25.838
520.55	26.511
520.89	26.156
521.23	26.779
521.58	26.230
521.92	25.475
522.26	25.259
522.61	26.604
522.95	26.212
523.29	25.928
523.64	26.646
523.98	26.124
524.32	26.417
524.66	26.278
525.01	26.042
525.35	25.836
525.69	26.478
526.04	26.044
526.38	27.029
526.72	25.399
527.06	26.805
527.41	25.371
527.75	26.752
528.09	26.268
528.43	25.876
528.78	26.060
529.12	24.848
529.46	25.291
529.80	25.248
530.15	26.044
530.49	24.738
530.83	26.456
531.17	26.110
531.51	27.432
531.86	26.258
532.20	26.858
532.54	26.009
532.88	26.059
533.22	24.922
533.57	25.000
533.91	25.166
534.25	25.030
534.59	25.686
534.93	25.342
535.27	24.925
535.62	25.580
535.96	26.240
536.30	25.175
536.64	25.757
536.98	26.078
537.32	25.411
537.66	25.800
538.01	25.543
538.35	25.663
538.69	25.654
539.03	25.341
539.37	24.409
539.71	24.498
540.05	24.771
540.39	24.186
540.73	25.162
541.07	25.308
541.42	25.114
541.76	25.484
542.10	25.420
542.44	24.834
542.78	25.560
543.12	24.824
543.46	25.639
543.80	24.984
544.14	23.941
544.48	25.079
544.82	25.208
545.16	25.049
545.50	25.193
545.84	24.933
546.18	25.387
546.52	25.740
546.86	24.880
547.20	25.556
547.54	25.117
547.88	25.319
548.22	25.218
548.56	25.094
548.90	24.456
549.24	24.377
549.58	25.171
549.92	25.137
550.26	25.142
550.60	26.210
550.94	25.775
551.28	25.018
551.62	26.024
551.96	24.982
552.30	25.870
552.64	25.828
552.98	25.017
553.32	24.747
553.66	25.562
554.00	24.846
554.34	24.914
554.68	25.608
555.02	25.106
555.36	24.983
555.69	24.087
556.03	25.639
556.37	24.966
556.71	24.352
557.05	25.840
557.39	25.192
557.73	25.265
558.07	25.888
558.41	24.747
558.75	26.231
559.08	25.205
559.42	25.397
559.76	25.294
560.10	24.483
560.44	25.507
560.78	23.553
561.12	24.670
561.45	24.772
561.79	24.456
562.13	25.084
562.47	25.000
562.81	26.011
563.15	24.281
563.48	24.204
563.82	24.853
564.16	24.984
564.50	24.023
564.84	24.020
565.17	24.260
565.51	24.601
565.85	24.239
566.19	24.170
566.52	24.573
566.86	24.292
567.20	24.410
567.54	24.030
567.88	23.628
568.21	24.286
568.55	23.660
568.89	22.082
569.23	22.549
569.56	22.672
569.90	22.377
570.24	22.641
570.57	21.659
570.91	21.073
571.25	21.279
571.59	21.738
571.92	21.832
572.26	21.231
572.60	21.832
572.93	21.079
573.27	21.059
573.61	21.329
573.95	21.008
574.28	20.930
574.62	20.894
574.96	20.908
575.29	20.781
575.63	20.732
575.97	20.281
576.30	21.482
576.64	21.127
576.98	21.001
577.31	20.795
577.65	20.717
577.98	20.627
578.32	20.413
578.66	20.839
578.99	20.635
579.33	20.988
579.67	20.652
580.00	21.002
580.34	20.930
580.67	20.964
581.01	21.025
581.35	21.334
581.68	20.625
582.02	20.063
582.35	20.181
582.69	20.485
583.02	20.297
583.36	21.190
583.70	20.879
584.03	21.186
584.37	21.212
584.70	21.944
585.04	21.624
585.37	20.410
585.71	21.053
586.04	21.309
586.38	21.160
586.72	21.403
587.05	20.755
587.39	20.792
587.72	21.180
588.06	21.131
588.39	21.536
588.73	21.355
589.06	21.564
589.40	21.650
589.73	22.386
590.07	21.566
590.40	22.141
590.73	22.092
591.07	23.199
591.40	22.143
591.74	23.074
592.07	22.644
592.41	22.695
592.74	21.498
593.08	21.552
593.41	21.702
593.75	21.268
594.08	21.120
594.41	22.446
594.75	21.885
595.08	21.582
595.42	22.942
595.75	21.154
596.09	22.306
596.42	22.397
596.75	21.824
597.09	22.597
597.42	22.007
597.75	22.078
598.09	22.783
598.42	21.864
598.76	21.686
599.09	20.829
599.42	21.325
599.76	21.559
600.09	21.239
600.42	21.841
600.76	21.071
601.09	21.348
601.42	21.347
601.76	21.632
602.09	21.225
602.42	22.532
602.76	22.330
603.09	21.755
603.42	22.101
603.76	21.303
604.09	21.520
604.42	22.177
604.76	22.733
605.09	21.887
605.42	21.462
605.75	22.268
606.09	21.187
606.42	21.618
606.75	21.775
607.09	21.934
607.42	21.823
607.75	21.097
608.08	22.015
608.42	22.232
608.75	21.867
609.08	21.924
609.41	21.990
609.75	22.153
610.08	21.866
610.41	21.648
610.74	21.665
611.07	22.381
611.41	22.375
611.74	22.373
612.07	22.205
612.40	22.403
612.73	22.737
613.07	22.953
613.40	23.170
613.73	21.762
614.06	22.957
614.39	21.814
614.72	22.579
615.06	22.584
615.39	21.709
615.72	22.137
616.05	22.063
616.38	23.013
616.71	22.090
617.05	23.734
617.38	22.610
617.71	22.763
618.04	23.317
618.37	22.531
618.70	22.464
619.03	23.289
619.36	23.014
619.69	24.085
620.03	23.283
620.36	24.465
620.69	23.493
621.02	24.336
621.35	23.884
621.68	23.598
622.01	23.684
622.34	24.811
622.67	23.498
623.00	23.698
623.33	22.373
623.66	23.803
623.99	24.080
624.32	23.039
624.65	23.588
624.99	22.734
625.32	23.099
625.65	23.591
625.98	24.673
626.31	24.883
626.64	24.571
626.97	24.688
627.30	23.275
627.63	23.216
627.96	25.231
628.29	24.934
628.62	24.611
628.95	26.132
629.28	25.365
629.61	25.115
629.94	24.952
630.26	24.881
630.59	25.357
630.92	23.276
631.25	24.087
631.58	25.325
631.91	26.268
632.24	25.422
