SpectraSuite Data File
++++++++++++++++++++++++++++++++++++
Date: Wed May 13 16:53:16 PDT 2015
User: schluterlab
Dark Spectrum Present: Yes
Reference Spectrum Present: Yes
Number of Sampled Component Spectra: 1
Spectrometers: USB2E3373
Integration Time (usec): 3000 (USB2E3373)
Spectra Averaged: 3 (USB2E3373)
Boxcar Smoothing: 0 (USB2E3373)
Correct for Electrical Dark: No (USB2E3373)
Strobe/Lamp Enabled: No (USB2E3373)
Correct for Detector Non-linearity: No (USB2E3373)
Correct for Stray Light: No (USB2E3373)
Number of Pixels in Processed Spectrum: 2048
>>>>>Begin Processed Spectral Data<<<<<
178.53	0.000
178.91	-1175.000
179.29	-1300.000
179.67	-272.222
180.04	-1375.000
180.42	2450.000
180.80	1040.000
181.18	-1125.000
181.56	700.000
181.94	0.000
182.31	-600.000
182.69	1366.667
183.07	-550.000
183.45	-444.444
183.83	509.091
184.20	-420.000
184.58	2200.000
184.96	5700.000
185.34	-920.000
185.72	-600.000
186.09	-2500.000
186.47	2750.000
186.85	2650.000
187.23	5200.000
187.61	-1400.000
187.98	1225.000
188.36	590.909
188.74	545.455
189.12	-1060.000
189.49	500.000
189.87	-5700.000
190.25	-1325.000
190.63	407.143
191.00	430.769
191.38	800.000
191.76	-1325.000
192.14	1300.000
192.51	687.500
192.89	800.000
193.27	700.000
193.65	-1225.000
194.02	460.000
194.40	840.000
194.78	530.000
195.15	541.667
195.53	630.000
195.91	-2300.000
196.29	318.750
196.66	289.474
197.04	-360.000
197.42	0.000
197.79	610.000
198.17	-4600.000
198.55	685.714
198.92	675.000
199.30	1020.000
199.68	0.000
200.05	383.333
200.43	757.143
200.81	4200.000
201.18	1666.667
201.56	-1533.333
201.94	577.778
202.31	633.333
202.69	508.333
203.07	490.000
203.44	0.000
203.82	1250.000
204.19	842.857
204.57	457.143
204.95	625.000
205.32	1666.667
205.70	536.364
206.08	392.857
206.45	2300.000
206.83	400.000
207.20	1083.333
207.58	720.000
207.96	316.667
208.33	575.000
208.71	-950.000
209.08	871.429
209.46	600.000
209.84	409.091
210.21	-1466.667
210.59	1750.000
210.96	-525.000
211.34	2900.000
211.71	570.000
212.09	716.667
212.46	0.000
212.84	1600.000
213.22	1250.000
213.59	-5100.000
213.97	816.667
214.34	800.000
214.72	572.727
215.09	1160.000
215.47	-2200.000
215.84	-2400.000
216.22	1933.333
216.59	385.714
216.97	1100.000
217.34	472.727
217.72	-800.000
218.09	0.000
218.47	-5300.000
218.84	566.667
219.22	700.000
219.59	1400.000
219.97	-557.143
220.34	940.000
220.72	-1400.000
221.09	385.714
221.47	1375.000
221.84	-933.333
222.22	0.000
222.59	1300.000
222.97	-2400.000
223.34	1180.000
223.72	461.538
224.09	1100.000
224.46	2200.000
224.84	-5000.000
225.21	-960.000
225.59	-5400.000
225.96	550.000
226.34	240.000
226.71	2500.000
227.08	625.000
227.46	470.000
227.83	-850.000
228.21	-2100.000
228.58	666.667
228.95	-2600.000
229.33	-2400.000
229.70	1433.333
230.08	771.429
230.45	-760.000
230.82	483.333
231.20	800.000
231.57	700.000
231.95	491.667
232.32	254.545
232.69	445.455
233.07	614.286
233.44	407.692
233.81	-1533.333
234.19	289.474
234.56	425.000
234.93	375.000
235.31	490.909
235.68	353.846
236.05	300.000
236.43	163.636
236.80	284.211
237.17	4000.000
237.55	180.952
237.92	185.714
238.29	195.238
238.67	164.516
239.04	172.414
239.41	152.778
239.79	126.087
240.16	145.238
240.53	115.909
240.91	72.549
241.28	98.000
241.65	76.000
242.02	84.058
242.40	77.419
242.77	75.000
243.14	55.914
243.51	61.798
243.89	57.647
244.26	48.889
244.63	52.688
245.00	38.298
245.38	50.495
245.75	42.991
246.12	37.615
246.49	41.606
246.87	47.200
247.24	40.000
247.61	31.429
247.98	34.641
248.36	30.405
248.73	33.121
249.10	32.484
249.47	26.554
249.84	31.016
250.22	29.412
250.59	32.544
250.96	25.758
251.33	21.801
251.70	30.198
252.08	26.190
252.45	19.283
252.82	18.696
253.19	23.830
253.56	19.608
253.94	21.992
254.31	21.875
254.68	21.538
255.05	22.509
255.42	19.919
255.79	16.912
256.16	19.134
256.54	19.435
256.91	17.082
257.28	13.309
257.65	16.832
258.02	17.391
258.39	15.457
258.76	16.388
259.14	17.857
259.51	12.766
259.88	15.217
260.25	17.825
260.62	14.451
260.99	11.491
261.36	15.916
261.73	16.619
262.10	13.953
262.47	13.803
262.85	13.370
263.22	11.681
263.59	13.675
263.96	14.560
264.33	15.405
264.70	15.526
265.07	16.624
265.44	11.869
265.81	10.949
266.18	10.804
266.55	13.902
266.92	11.548
267.29	14.120
267.66	13.532
268.03	11.364
268.40	11.682
268.77	10.263
269.14	13.063
269.51	13.544
269.88	11.888
270.25	12.190
270.62	13.258
270.99	13.118
271.36	13.734
271.73	11.916
272.10	11.087
272.47	11.183
272.84	11.905
273.21	11.740
273.58	11.572
273.95	9.434
274.32	9.711
274.69	9.208
275.06	9.646
275.43	10.213
275.80	11.824
276.17	9.572
276.54	11.850
276.91	9.684
277.28	8.984
277.65	9.284
278.02	8.282
278.39	11.719
278.76	10.727
279.13	12.642
279.50	9.683
279.87	11.355
280.23	11.178
280.60	8.897
280.97	7.948
281.34	10.265
281.71	10.364
282.08	9.597
282.45	6.545
282.82	8.348
283.19	7.843
283.56	9.649
283.92	10.998
284.29	7.937
284.66	7.260
285.03	8.680
285.40	7.570
285.77	8.754
286.14	6.736
286.51	9.833
286.87	8.205
287.24	9.609
287.61	10.754
287.98	9.578
288.35	8.082
288.72	10.125
289.08	10.955
289.45	8.237
289.82	7.317
290.19	7.378
290.56	6.279
290.93	8.157
291.29	7.209
291.66	8.702
292.03	10.465
292.40	7.930
292.77	7.249
293.13	8.209
293.50	7.872
293.87	8.296
294.24	6.815
294.60	7.278
294.97	7.558
295.34	8.322
295.71	8.665
296.08	7.550
296.44	5.915
296.81	7.001
297.18	7.182
297.55	5.409
297.91	6.332
298.28	8.032
298.65	7.311
299.02	7.510
299.38	6.640
299.75	4.178
300.12	6.130
300.48	6.875
300.85	6.782
301.22	5.987
301.59	6.061
301.95	6.801
302.32	5.392
302.69	8.124
303.05	5.818
303.42	6.914
303.79	6.455
304.15	6.061
304.52	5.678
304.89	6.504
305.25	4.988
305.62	6.455
305.99	7.202
306.35	6.711
306.72	6.166
307.09	6.548
307.45	7.658
307.82	5.357
308.19	5.850
308.55	6.688
308.92	6.874
309.29	6.336
309.65	5.196
310.02	5.391
310.38	6.237
310.75	6.336
311.12	6.244
311.48	6.061
311.85	6.604
312.22	5.619
312.58	5.405
312.95	5.597
313.31	5.340
313.68	6.549
314.05	7.002
314.41	5.930
314.78	5.438
315.14	6.256
315.51	5.355
315.87	5.842
316.24	5.362
316.61	6.433
316.97	5.969
317.34	4.990
317.70	6.214
318.07	6.064
318.43	5.088
318.80	6.279
319.16	5.932
319.53	6.942
319.89	6.000
320.26	6.100
320.62	6.746
320.99	6.667
321.35	6.364
321.72	6.879
322.08	6.811
322.45	7.363
322.81	6.880
323.18	7.322
323.54	6.401
323.91	7.736
324.27	6.788
324.64	5.965
325.00	6.402
325.37	6.733
325.73	7.899
326.10	6.796
326.46	7.079
326.83	7.075
327.19	7.088
327.56	7.404
327.92	7.262
328.29	7.631
328.65	7.551
329.01	8.032
329.38	7.493
329.74	6.648
330.11	6.315
330.47	8.356
330.84	8.824
331.20	7.286
331.56	8.991
331.93	6.667
332.29	7.010
332.66	7.876
333.02	7.587
333.38	8.401
333.75	8.021
334.11	7.562
334.48	7.276
334.84	7.904
335.20	9.091
335.57	7.162
335.93	7.411
336.29	7.692
336.66	8.115
337.02	7.783
337.38	7.963
337.75	6.595
338.11	7.789
338.47	7.274
338.84	7.424
339.20	6.422
339.56	8.394
339.93	6.364
340.29	6.884
340.65	7.308
341.02	7.592
341.38	7.295
341.74	7.807
342.11	8.035
342.47	7.225
342.83	7.021
343.20	7.532
343.56	6.824
343.92	7.281
344.28	7.398
344.65	6.363
345.01	6.229
345.37	6.089
345.73	6.684
346.10	6.138
346.46	7.034
346.82	7.578
347.19	5.681
347.55	6.897
347.91	7.201
348.27	7.067
348.63	7.609
349.00	6.715
349.36	6.240
349.72	7.217
350.08	6.969
350.45	7.730
350.81	7.230
351.17	6.807
351.53	7.289
351.89	6.601
352.26	7.735
352.62	7.217
352.98	6.645
353.34	7.477
353.70	6.710
354.07	6.532
354.43	6.508
354.79	6.999
355.15	6.464
355.51	7.754
355.87	7.510
356.24	6.352
356.60	6.656
356.96	6.758
357.32	6.541
357.68	6.535
358.04	7.363
358.40	7.680
358.77	7.277
359.13	5.919
359.49	7.451
359.85	4.762
360.21	6.459
360.57	6.770
360.93	6.769
361.29	6.349
361.66	5.882
362.02	7.090
362.38	7.224
362.74	6.622
363.10	6.662
363.46	6.090
363.82	6.198
364.18	7.122
364.54	7.281
364.90	6.941
365.26	6.176
365.62	6.793
365.98	6.355
366.35	6.232
366.71	6.869
367.07	7.138
367.43	7.112
367.79	6.995
368.15	7.256
368.51	6.032
368.87	6.781
369.23	6.291
369.59	6.445
369.95	6.618
370.31	6.909
370.67	7.246
371.03	7.491
371.39	6.924
371.75	6.324
372.11	6.686
372.47	6.818
372.83	7.997
373.19	6.936
373.55	6.874
373.91	7.585
374.27	7.491
374.63	6.691
374.99	7.698
375.35	6.769
375.71	7.814
376.07	7.545
376.42	7.084
376.78	7.488
377.14	7.327
377.50	7.152
377.86	6.782
378.22	7.016
378.58	6.955
378.94	6.474
379.30	6.807
379.66	6.916
380.02	7.310
380.38	6.618
380.74	7.083
381.09	8.007
381.45	7.560
381.81	7.555
382.17	7.707
382.53	6.667
382.89	7.407
383.25	7.129
383.61	7.869
383.97	7.692
384.32	7.548
384.68	7.807
385.04	7.253
385.40	7.059
385.76	7.064
386.12	8.290
386.48	7.867
386.83	8.724
387.19	8.225
387.55	8.163
387.91	7.739
388.27	7.419
388.62	8.974
388.98	7.924
389.34	9.136
389.70	8.461
390.06	8.682
390.42	7.782
390.77	8.397
391.13	7.786
391.49	8.756
391.85	8.275
392.20	7.319
392.56	8.965
392.92	8.181
393.28	7.396
393.64	8.034
393.99	8.613
394.35	8.189
394.71	8.218
395.07	8.287
395.42	8.467
395.78	8.206
396.14	8.939
396.50	9.211
396.85	8.900
397.21	8.816
397.57	8.246
397.92	8.774
398.28	8.408
398.64	8.961
399.00	9.010
399.35	7.840
399.71	8.912
400.07	8.693
400.42	8.405
400.78	9.831
401.14	8.780
401.49	8.896
401.85	8.893
402.21	7.904
402.57	8.822
402.92	9.142
403.28	8.994
403.63	8.911
403.99	8.917
404.35	9.455
404.70	8.693
405.06	8.270
405.42	8.422
405.77	8.971
406.13	8.691
406.49	8.634
406.84	9.273
407.20	8.806
407.55	9.126
407.91	9.267
408.27	8.743
408.62	8.910
408.98	8.640
409.34	9.287
409.69	9.548
410.05	8.860
410.40	9.174
410.76	9.140
411.11	9.168
411.47	9.201
411.83	8.735
412.18	8.101
412.54	9.776
412.89	9.578
413.25	9.150
413.60	9.141
413.96	8.865
414.31	8.748
414.67	9.886
415.03	9.404
415.38	10.567
415.74	9.132
416.09	9.863
416.45	9.639
416.80	8.526
417.16	10.523
417.51	9.954
417.87	9.249
418.22	9.464
418.58	10.652
418.93	10.258
419.29	9.548
419.64	9.824
420.00	9.451
420.35	9.913
420.71	9.384
421.06	8.532
421.42	9.415
421.77	9.249
422.12	8.815
422.48	8.095
422.83	8.736
423.19	9.448
423.54	9.402
423.90	9.913
424.25	9.157
424.61	9.345
424.96	9.446
425.31	8.970
425.67	8.876
426.02	9.257
426.38	10.195
426.73	8.602
427.09	9.422
427.44	9.086
427.79	9.201
428.15	10.119
428.50	9.304
428.85	10.072
429.21	9.056
429.56	9.383
429.92	9.512
430.27	9.384
430.62	9.268
430.98	9.808
431.33	9.175
431.68	9.372
432.04	9.744
432.39	9.081
432.74	9.934
433.10	9.281
433.45	10.204
433.80	9.424
434.16	9.936
434.51	8.947
434.86	9.920
435.22	9.894
435.57	9.726
435.92	9.596
436.28	9.846
436.63	10.651
436.98	9.159
437.34	9.958
437.69	10.385
438.04	9.725
438.39	9.851
438.75	9.994
439.10	9.665
439.45	9.622
439.81	9.607
440.16	9.430
440.51	9.666
440.86	10.481
441.22	9.344
441.57	10.085
441.92	10.184
442.27	9.580
442.63	9.426
442.98	10.085
443.33	9.293
443.68	9.912
444.03	10.102
444.39	9.348
444.74	9.361
445.09	10.135
445.44	10.224
445.79	9.896
446.15	10.641
446.50	9.155
446.85	9.455
447.20	9.842
447.55	10.274
447.91	10.370
448.26	10.128
448.61	9.610
448.96	10.078
449.31	10.461
449.66	10.523
450.02	10.139
450.37	9.807
450.72	9.701
451.07	9.750
451.42	9.544
451.77	11.333
452.12	10.566
452.47	10.572
452.83	10.140
453.18	10.697
453.53	11.070
453.88	10.278
454.23	10.520
454.58	10.176
454.93	10.871
455.28	9.726
455.63	10.983
455.98	11.667
456.34	9.862
456.69	11.396
457.04	11.022
457.39	10.520
457.74	10.737
458.09	10.523
458.44	10.775
458.79	10.249
459.14	10.327
459.49	10.333
459.84	10.028
460.19	10.371
460.54	10.532
460.89	10.532
461.24	10.565
461.59	11.970
461.94	10.604
462.29	10.504
462.64	10.083
462.99	11.386
463.34	12.000
463.69	10.632
464.04	10.783
464.39	10.957
464.74	10.814
465.09	11.037
465.44	9.861
465.79	10.459
466.14	10.071
466.49	11.123
466.84	10.625
467.19	11.104
467.54	11.250
467.89	10.624
468.24	10.937
468.59	11.294
468.94	10.690
469.29	10.797
469.64	11.647
469.99	11.096
470.34	10.832
470.68	11.279
471.03	10.952
471.38	11.814
471.73	11.659
472.08	11.842
472.43	11.181
472.78	10.928
473.13	10.719
473.48	11.423
473.83	11.402
474.17	10.765
474.52	11.290
474.87	11.851
475.22	10.969
475.57	11.016
475.92	9.984
476.27	10.598
476.61	10.535
476.96	11.215
477.31	10.884
477.66	11.105
478.01	10.612
478.36	10.841
478.70	10.177
479.05	10.543
479.40	11.259
479.75	9.964
480.10	9.891
480.45	10.662
480.79	10.559
481.14	10.176
481.49	10.584
481.84	10.242
482.19	10.223
482.53	10.229
482.88	10.377
483.23	10.047
483.58	10.965
483.92	10.403
484.27	10.065
484.62	10.172
484.97	10.051
485.31	9.795
485.66	9.145
486.01	8.327
486.36	8.105
486.70	7.870
487.05	8.615
487.40	8.427
487.75	8.762
488.09	9.190
488.44	9.273
488.79	9.693
489.13	9.511
489.48	9.829
489.83	9.840
490.17	9.952
490.52	10.407
490.87	10.086
491.22	10.095
491.56	10.114
491.91	10.330
492.26	9.692
492.60	10.323
492.95	9.355
493.30	9.486
493.64	10.219
493.99	9.749
494.34	11.193
494.68	10.943
495.03	10.808
495.37	10.749
495.72	10.088
496.07	10.255
496.41	9.425
496.76	10.290
497.11	9.680
497.45	10.759
497.80	9.789
498.14	9.758
498.49	9.561
498.84	10.211
499.18	10.238
499.53	10.446
499.87	9.739
500.22	10.504
500.56	10.777
500.91	10.288
501.26	9.957
501.60	11.106
501.95	9.945
502.29	10.872
502.64	10.335
502.98	10.472
503.33	10.329
503.67	10.348
504.02	10.337
504.36	10.716
504.71	11.041
505.06	10.120
505.40	10.112
505.75	9.884
506.09	10.544
506.44	10.113
506.78	10.765
507.13	10.651
507.47	10.455
507.82	10.638
508.16	10.740
508.51	10.299
508.85	10.725
509.19	10.612
509.54	10.510
509.88	11.231
510.23	10.540
510.57	11.352
510.92	10.927
511.26	10.997
511.61	11.670
511.95	10.595
512.30	10.074
512.64	10.478
512.98	11.790
513.33	11.670
513.67	10.993
514.02	10.444
514.36	11.415
514.70	11.345
515.05	10.708
515.39	10.937
515.74	11.430
516.08	12.130
516.42	11.210
516.77	12.207
517.11	11.099
517.46	11.512
517.80	12.021
518.14	10.944
518.49	10.618
518.83	11.761
519.17	11.663
519.52	11.545
519.86	11.466
520.20	11.965
520.55	12.448
520.89	11.740
521.23	12.425
521.58	11.825
521.92	12.247
522.26	11.592
522.61	12.025
522.95	11.602
523.29	11.990
523.64	12.439
523.98	11.460
524.32	11.761
524.66	12.808
525.01	11.703
525.35	11.896
525.69	11.330
526.04	12.212
526.38	11.775
526.72	11.963
527.06	13.120
527.41	11.572
527.75	12.154
528.09	11.946
528.43	12.046
528.78	12.293
529.12	11.515
529.46	12.492
529.80	12.438
530.15	12.274
530.49	11.262
530.83	12.089
531.17	12.728
531.51	13.165
531.86	11.742
532.20	13.429
532.54	13.133
532.88	12.580
533.22	11.743
533.57	12.407
533.91	12.041
534.25	11.725
534.59	13.118
534.93	12.374
535.27	12.010
535.62	12.149
535.96	12.367
536.30	12.142
536.64	12.106
536.98	13.271
537.32	12.969
537.66	13.133
538.01	13.101
538.35	13.058
538.69	12.827
539.03	12.995
539.37	11.949
539.71	11.277
540.05	12.222
540.39	12.292
540.73	11.966
541.07	12.589
541.42	13.307
541.76	13.161
542.10	12.354
542.44	12.384
542.78	12.846
543.12	11.196
543.46	12.984
543.80	12.167
544.14	12.580
544.48	12.571
544.82	12.059
545.16	12.687
545.50	12.211
545.84	12.970
546.18	12.593
546.52	13.283
546.86	12.921
547.20	13.351
547.54	12.692
547.88	13.776
548.22	12.267
548.56	12.327
548.90	11.780
549.24	11.515
549.58	13.302
549.92	12.569
550.26	13.352
550.60	13.347
550.94	12.465
551.28	12.070
551.62	13.947
551.96	12.912
552.30	13.038
552.64	13.928
552.98	13.153
553.32	13.688
553.66	13.633
554.00	12.766
554.34	13.527
554.68	13.162
555.02	12.906
555.36	12.387
555.69	12.517
556.03	12.921
556.37	12.824
556.71	12.415
557.05	13.165
557.39	13.926
557.73	13.197
558.07	13.706
558.41	12.880
558.75	14.842
559.08	14.243
559.42	13.076
559.76	13.088
560.10	12.848
560.44	13.277
560.78	12.641
561.12	13.193
561.45	13.820
561.79	12.986
562.13	13.213
562.47	12.568
562.81	12.622
563.15	13.244
563.48	12.666
563.82	12.916
564.16	12.361
564.50	11.393
564.84	12.389
565.17	12.484
565.51	12.077
565.85	13.071
566.19	12.336
566.52	12.540
566.86	11.634
567.20	12.205
567.54	12.272
567.88	11.841
568.21	11.799
568.55	11.375
568.89	11.187
569.23	10.873
569.56	10.810
569.90	10.830
570.24	10.405
570.57	10.337
570.91	9.664
571.25	9.852
571.59	9.985
571.92	9.389
572.26	9.474
572.60	10.300
572.93	9.895
573.27	9.642
573.61	9.966
573.95	9.793
574.28	9.171
574.62	9.135
574.96	9.247
575.29	9.045
575.63	9.400
575.97	9.477
576.30	9.506
576.64	9.325
576.98	9.042
577.31	8.988
577.65	9.229
577.98	8.826
578.32	8.797
578.66	9.057
578.99	8.765
579.33	9.150
579.67	9.171
580.00	9.158
580.34	8.946
580.67	9.170
581.01	9.512
581.35	9.000
581.68	8.778
582.02	8.309
582.35	8.571
582.69	8.622
583.02	8.558
583.36	8.969
583.70	9.216
584.03	9.535
584.37	9.513
584.70	9.352
585.04	9.026
585.37	9.133
585.71	9.211
586.04	8.915
586.38	9.378
586.72	9.859
587.05	9.209
587.39	9.103
587.72	9.199
588.06	9.178
588.39	9.767
588.73	9.240
589.06	10.315
589.40	9.865
589.73	9.680
590.07	10.142
590.40	9.938
590.73	10.422
591.07	10.094
591.40	10.755
591.74	10.606
592.07	10.733
592.41	10.748
592.74	9.813
593.08	9.793
593.41	9.997
593.75	9.525
594.08	9.454
594.41	10.569
594.75	9.575
595.08	9.914
595.42	10.053
595.75	9.900
596.09	10.702
596.42	10.688
596.75	10.511
597.09	11.039
597.42	9.992
597.75	10.436
598.09	10.565
598.42	10.567
598.76	9.891
599.09	9.464
599.42	9.862
599.76	10.029
600.09	9.763
600.42	9.094
600.76	9.607
601.09	9.909
601.42	10.122
601.76	10.323
602.09	9.881
602.42	9.753
602.76	10.480
603.09	10.031
603.42	10.269
603.76	9.985
604.09	9.461
604.42	10.069
604.76	10.164
605.09	10.310
605.42	9.662
605.75	10.182
606.09	10.085
606.42	9.685
606.75	10.120
607.09	10.423
607.42	9.457
607.75	10.084
608.08	10.421
608.42	10.175
608.75	10.144
609.08	10.407
609.41	10.471
609.75	10.910
610.08	10.650
610.41	9.544
610.74	9.697
611.07	10.079
611.41	10.795
611.74	9.854
612.07	10.973
612.40	10.965
612.73	10.263
613.07	10.614
613.40	11.164
613.73	9.858
614.06	10.645
614.39	10.645
614.72	11.474
615.06	10.662
615.39	10.191
615.72	10.532
616.05	9.888
616.38	10.395
616.71	10.808
617.05	10.718
617.38	11.064
617.71	10.511
618.04	10.938
618.37	10.822
618.70	10.890
619.03	11.842
619.36	12.016
619.69	11.901
620.03	12.019
620.36	11.497
620.69	11.986
621.02	11.873
621.35	12.060
621.68	10.903
622.01	11.378
622.34	12.557
622.67	12.776
623.00	11.225
623.33	11.222
623.66	11.866
623.99	12.371
624.32	11.626
624.65	11.370
624.99	10.694
625.32	11.441
625.65	11.871
625.98	11.376
626.31	12.208
626.64	12.490
626.97	12.386
627.30	12.303
627.63	12.387
627.96	13.120
628.29	13.211
628.62	13.449
628.95	13.585
629.28	13.047
629.61	13.382
629.94	13.429
630.26	13.060
630.59	12.869
630.92	13.027
631.25	12.636
631.58	13.113
631.91	13.387
632.24	12.447
632.57	13.536
632.90	14.035
633.23	13.758
633.56	14.915
633.89	14.156
634.22	14.302
634.55	15.385
634.88	14.731
635.20	15.293
635.53	15.060
635.86	13.985
636.19	14.824
636.52	15.456
636.85	13.288
637.18	13.825
637.51	14.657
637.83	12.577
638.16	14.450
638.49	15.491
638.82	14.539
639.15	15.375
639.48	14.963
639.81	15.684
640.13	16.146
640.46	16.779
640.79	16.248
641.12	14.580
641.45	15.642
641.77	14.580
642.10	15.643
642.43	14.715
642.76	15.480
643.09	17.025
643.41	15.478
