SpectraSuite Data File
++++++++++++++++++++++++++++++++++++
Date: Wed May 13 16:46:54 PDT 2015
User: schluterlab
Dark Spectrum Present: Yes
Reference Spectrum Present: Yes
Number of Sampled Component Spectra: 1
Spectrometers: USB2E3373
Integration Time (usec): 3000 (USB2E3373)
Spectra Averaged: 3 (USB2E3373)
Boxcar Smoothing: 0 (USB2E3373)
Correct for Electrical Dark: No (USB2E3373)
Strobe/Lamp Enabled: No (USB2E3373)
Correct for Detector Non-linearity: No (USB2E3373)
Correct for Stray Light: No (USB2E3373)
Number of Pixels in Processed Spectrum: 2048
>>>>>Begin Processed Spectral Data<<<<<
178.53	0.000
178.91	-1125.000
179.29	-1000.000
179.67	-205.556
180.04	-1450.000
180.42	2850.000
180.80	1040.000
181.18	-950.000
181.56	700.000
181.94	0.000
182.31	-614.286
182.69	1900.000
183.07	-537.500
183.45	-433.333
183.83	472.727
184.20	-340.000
184.58	2000.000
184.96	5700.000
185.34	-720.000
185.72	-587.500
186.09	-2300.000
186.47	2400.000
186.85	1950.000
187.23	3900.000
187.61	-1700.000
187.98	1325.000
188.36	500.000
188.74	518.182
189.12	-920.000
189.49	470.000
189.87	-4700.000
190.25	-1275.000
190.63	321.429
191.00	423.077
191.38	750.000
191.76	-1175.000
192.14	1275.000
192.51	675.000
192.89	933.333
193.27	525.000
193.65	-1200.000
194.02	550.000
194.40	920.000
194.78	670.000
195.15	466.667
195.53	570.000
195.91	-1750.000
196.29	325.000
196.66	326.316
197.04	-420.000
197.42	0.000
197.79	570.000
198.17	-5000.000
198.55	728.571
198.92	662.500
199.30	900.000
199.68	0.000
200.05	294.444
200.43	771.429
200.81	3900.000
201.18	1833.333
201.56	-1366.667
201.94	533.333
202.31	566.667
202.69	408.333
203.07	580.000
203.44	0.000
203.82	1175.000
204.19	757.143
204.57	407.143
204.95	612.500
205.32	1700.000
205.70	518.182
206.08	364.286
206.45	2550.000
206.83	381.250
207.20	783.333
207.58	840.000
207.96	305.556
208.33	625.000
208.71	-850.000
209.08	671.429
209.46	644.444
209.84	427.273
210.21	-1133.333
210.59	1525.000
210.96	-450.000
211.34	2400.000
211.71	440.000
212.09	783.333
212.46	0.000
212.84	1466.667
213.22	1150.000
213.59	-4800.000
213.97	816.667
214.34	757.143
214.72	536.364
215.09	920.000
215.47	-2250.000
215.84	-2700.000
216.22	1600.000
216.59	378.571
216.97	1150.000
217.34	409.091
217.72	-766.667
218.09	0.000
218.47	-4900.000
218.84	611.111
219.22	728.571
219.59	1400.000
219.97	-471.429
220.34	1240.000
220.72	-1833.333
221.09	414.286
221.47	1525.000
221.84	-750.000
222.22	0.000
222.59	1325.000
222.97	-2300.000
223.34	980.000
223.72	376.923
224.09	1040.000
224.46	2350.000
224.84	-4800.000
225.21	-980.000
225.59	-4600.000
225.96	570.000
226.34	275.000
226.71	2950.000
227.08	662.500
227.46	420.000
227.83	-1000.000
228.21	-1800.000
228.58	544.444
228.95	-2000.000
229.33	-1550.000
229.70	1166.667
230.08	728.571
230.45	-880.000
230.82	400.000
231.20	750.000
231.57	585.714
231.95	441.667
232.32	204.545
232.69	427.273
233.07	700.000
233.44	261.538
233.81	-1233.333
234.19	310.526
234.56	383.333
234.93	275.000
235.31	445.455
235.68	353.846
236.05	328.571
236.43	154.545
236.80	257.895
237.17	4200.000
237.55	219.048
237.92	153.571
238.29	204.762
238.67	141.935
239.04	182.759
239.41	122.222
239.79	97.826
240.16	114.286
240.53	111.364
240.91	80.392
241.28	90.000
241.65	96.000
242.02	84.058
242.40	70.968
242.77	73.333
243.14	60.215
243.51	67.416
243.89	56.471
244.26	50.000
244.63	52.688
245.00	41.489
245.38	45.545
245.75	43.925
246.12	45.872
246.49	51.095
246.87	53.600
247.24	43.846
247.61	41.429
247.98	35.294
248.36	35.135
248.73	36.943
249.10	38.217
249.47	33.333
249.84	27.807
250.22	32.620
250.59	32.544
250.96	29.293
251.33	30.806
251.70	33.663
252.08	30.000
252.45	26.906
252.82	26.957
253.19	27.234
253.56	24.706
253.94	29.461
254.31	23.437
254.68	22.692
255.05	25.461
255.42	18.293
255.79	22.059
256.16	22.744
256.54	20.141
256.91	23.843
257.28	16.906
257.65	20.792
258.02	21.429
258.39	18.927
258.76	19.732
259.14	22.024
259.51	20.365
259.88	18.944
260.25	19.637
260.62	19.653
260.99	16.770
261.36	20.120
261.73	18.625
262.10	15.116
262.47	17.183
262.85	16.713
263.22	17.379
263.59	19.088
263.96	18.132
264.33	17.232
264.70	21.842
265.07	19.182
265.44	17.677
265.81	13.625
266.18	16.834
266.55	16.098
266.92	15.971
267.29	18.981
267.66	15.596
268.03	15.227
268.40	16.121
268.77	17.900
269.14	15.766
269.51	18.962
269.88	17.016
270.25	14.447
270.62	16.629
270.99	18.710
271.36	15.665
271.73	14.019
272.10	15.870
272.47	16.559
272.84	15.368
273.21	14.675
273.58	14.410
273.95	13.208
274.32	16.736
274.69	14.561
275.06	14.567
275.43	15.319
275.80	14.429
276.17	15.886
276.54	15.385
276.91	13.439
277.28	16.211
277.65	14.507
278.02	13.665
278.39	15.039
278.76	14.727
279.13	15.094
279.50	14.711
279.87	14.940
280.23	13.174
280.60	14.700
280.97	12.939
281.34	14.336
281.71	16.000
282.08	15.355
282.45	14.545
282.82	13.854
283.19	12.656
283.56	14.035
283.92	13.198
284.29	13.404
284.66	14.519
285.03	13.201
285.40	11.444
285.77	13.636
286.14	12.953
286.51	14.833
286.87	14.530
287.24	16.124
287.61	11.236
287.98	13.312
288.35	11.886
288.72	12.928
289.08	14.397
289.45	12.521
289.82	13.496
290.19	12.088
290.56	11.945
290.93	12.236
291.29	11.503
291.66	13.274
292.03	15.552
292.40	16.006
292.77	11.834
293.13	12.985
293.50	12.828
293.87	12.296
294.24	12.444
294.60	10.917
294.97	11.919
295.34	13.822
295.71	13.210
296.08	11.823
296.44	12.242
296.81	12.417
297.18	11.789
297.55	10.950
297.91	12.533
298.28	13.119
298.65	12.402
299.02	11.594
299.38	12.882
299.75	9.704
300.12	10.983
300.48	12.500
300.85	11.344
301.22	11.338
301.59	11.995
301.95	13.098
302.32	11.425
302.69	12.784
303.05	12.000
303.42	11.358
303.79	12.797
304.15	11.888
304.52	12.862
304.89	10.453
305.25	12.529
305.62	13.137
305.99	13.105
306.35	10.179
306.72	12.444
307.09	12.653
307.45	13.401
307.82	11.496
308.19	13.355
308.55	13.376
308.92	12.675
309.29	11.404
309.65	12.407
310.02	11.099
310.38	12.043
310.75	12.988
311.12	13.204
311.48	12.853
311.85	12.159
312.22	12.903
312.58	11.642
312.95	13.622
313.31	12.330
313.68	13.202
314.05	14.596
314.41	13.568
314.78	13.696
315.14	13.307
315.51	13.079
315.87	13.762
316.24	13.505
316.61	13.548
316.97	12.720
317.34	12.427
317.70	13.480
318.07	13.763
318.43	13.992
318.80	14.339
319.16	14.878
319.53	14.540
319.89	14.476
320.26	15.400
320.62	14.881
320.99	14.747
321.35	14.646
321.72	15.914
322.08	14.610
322.45	15.522
322.81	16.667
323.18	16.859
323.54	17.161
323.91	14.811
324.27	15.583
324.64	15.657
325.00	15.329
325.37	17.197
325.73	17.594
326.10	15.975
326.46	15.591
326.83	16.652
327.19	17.165
327.56	16.463
327.92	18.198
328.29	17.569
328.65	16.943
329.01	16.426
329.38	17.021
329.74	17.082
330.11	17.908
330.47	17.172
330.84	18.934
331.20	16.576
331.56	16.514
331.93	16.019
332.29	16.593
332.66	19.292
333.02	16.179
333.38	17.525
333.75	18.182
334.11	17.972
334.48	16.593
334.84	17.739
335.20	17.818
335.57	17.498
335.93	15.446
336.29	16.300
336.66	16.411
337.02	16.109
337.38	17.315
337.75	15.954
338.11	17.547
338.47	16.114
338.84	17.049
339.20	15.872
339.56	16.697
339.93	14.909
340.29	16.033
340.65	14.973
341.02	16.754
341.38	16.993
341.74	15.263
342.11	17.031
342.47	15.947
342.83	16.524
343.20	16.797
343.56	15.754
343.92	15.614
344.28	17.092
344.65	16.251
345.01	14.899
345.37	14.237
345.73	17.851
346.10	16.795
346.46	16.610
346.82	15.157
347.19	14.286
347.55	15.107
347.91	16.424
348.27	16.598
348.63	17.140
349.00	15.696
349.36	15.764
349.72	16.119
350.08	15.964
350.45	16.680
350.81	15.028
351.17	16.532
351.53	16.052
351.89	14.686
352.26	16.417
352.62	17.402
352.98	15.964
353.34	17.502
353.70	14.894
354.07	15.887
354.43	15.079
354.79	15.205
355.15	15.563
355.51	15.348
355.87	16.163
356.24	15.065
356.60	15.237
356.96	17.297
357.32	16.190
357.68	16.142
358.04	15.756
358.40	16.231
358.77	16.354
359.13	15.864
359.49	15.451
359.85	13.810
360.21	16.029
360.57	16.265
360.93	15.923
361.29	16.402
361.66	15.867
362.02	15.299
362.38	16.122
362.74	15.923
363.10	16.136
363.46	14.453
363.82	15.722
364.18	16.300
364.54	17.013
364.90	16.856
365.26	15.956
365.62	15.851
365.98	14.536
366.35	15.043
366.71	16.341
367.07	16.897
367.43	15.385
367.79	17.345
368.15	17.098
368.51	14.753
368.87	15.703
369.23	16.020
369.59	17.089
369.95	15.588
370.31	15.385
370.67	16.087
371.03	16.704
371.39	16.910
371.75	15.882
372.11	15.718
372.47	16.496
372.83	17.003
373.19	16.185
373.55	15.521
373.91	17.378
374.27	16.082
374.63	16.509
374.99	17.020
375.35	17.027
375.71	16.724
376.07	17.215
376.42	16.781
376.78	17.760
377.14	17.096
377.50	17.152
377.86	16.822
378.22	16.688
378.58	16.729
378.94	16.719
379.30	16.412
379.66	17.513
380.02	17.506
380.38	16.879
380.74	17.767
381.09	16.809
381.45	17.517
381.81	18.182
382.17	18.025
382.53	17.673
382.89	17.716
383.25	18.074
383.61	18.463
383.97	17.386
384.32	18.278
384.68	17.224
385.04	17.578
385.40	17.461
385.76	18.366
386.12	18.264
386.48	18.188
386.83	18.089
387.19	19.852
387.55	18.058
387.91	18.017
388.27	18.578
388.62	20.037
388.98	18.980
389.34	19.149
389.70	18.945
390.06	19.455
390.42	19.390
390.77	19.720
391.13	19.336
391.49	19.353
391.85	18.778
392.20	18.170
392.56	18.561
392.92	19.247
393.28	18.047
393.64	18.765
393.99	19.670
394.35	17.866
394.71	18.507
395.07	18.318
395.42	18.912
395.78	18.639
396.14	19.491
396.50	18.985
396.85	19.517
397.21	18.496
397.57	18.847
397.92	19.591
398.28	18.666
398.64	19.176
399.00	19.082
399.35	18.725
399.71	18.692
400.07	19.160
400.42	18.650
400.78	19.421
401.14	18.598
401.49	18.627
401.85	18.754
402.21	18.623
402.57	18.692
402.92	19.357
403.28	18.863
403.63	18.998
403.99	18.981
404.35	18.121
404.70	18.765
405.06	17.764
405.42	17.155
405.77	17.886
406.13	18.341
406.49	18.805
406.84	18.193
407.20	18.144
407.55	18.826
407.91	18.533
408.27	18.060
408.62	18.302
408.98	18.995
409.34	19.065
409.69	19.355
410.05	17.596
410.40	18.226
410.76	18.817
411.11	18.275
411.47	18.019
411.83	18.571
412.18	17.502
412.54	18.431
412.89	18.494
413.25	18.005
413.60	18.592
413.96	18.033
414.31	18.287
414.67	17.617
415.03	18.146
415.38	18.041
415.74	18.328
416.09	19.334
416.45	18.005
416.80	17.978
417.16	19.303
417.51	18.182
417.87	17.277
418.22	18.360
418.58	18.012
418.93	18.120
419.29	18.396
419.64	18.514
420.00	18.476
420.35	18.261
420.71	19.008
421.06	17.661
421.42	17.953
421.77	18.554
422.12	18.248
422.48	16.999
422.83	18.113
423.19	18.508
423.54	17.992
423.90	18.261
424.25	18.090
424.61	18.274
424.96	18.367
425.31	17.940
425.67	17.921
426.02	17.771
426.38	17.521
426.73	17.379
427.09	18.541
427.44	18.344
427.79	17.654
428.15	18.155
428.50	18.022
428.85	18.594
429.21	17.559
429.56	17.263
429.92	16.860
430.27	17.378
430.62	16.487
430.98	17.748
431.33	17.835
431.68	18.115
432.04	17.945
432.39	17.019
432.74	17.295
433.10	18.110
433.45	18.192
433.80	17.239
434.16	17.308
434.51	18.316
434.86	17.902
435.22	17.954
435.57	17.933
435.92	17.905
436.28	18.446
436.63	18.377
436.98	16.829
437.34	17.889
437.69	18.320
438.04	17.650
438.39	17.970
438.75	18.129
439.10	17.207
439.45	17.651
439.81	16.858
440.16	17.222
440.51	19.156
440.86	18.240
441.22	16.741
441.57	17.463
441.92	17.298
442.27	18.084
442.63	17.588
442.98	18.028
443.33	17.772
443.68	17.501
444.03	16.789
444.39	16.699
444.74	17.100
445.09	17.898
445.44	17.660
445.79	18.011
446.15	18.528
446.50	17.447
446.85	17.420
447.20	17.746
447.55	17.644
447.91	17.154
448.26	17.752
448.61	17.750
448.96	18.494
449.31	17.885
449.66	17.895
450.02	17.270
450.37	18.027
450.72	17.992
451.07	17.977
451.42	17.933
451.77	18.967
452.12	18.707
452.47	18.781
452.83	17.890
453.18	18.032
453.53	17.996
453.88	17.484
454.23	17.693
454.58	18.292
454.93	18.818
455.28	17.145
455.63	17.840
455.98	19.048
456.34	18.028
456.69	17.846
457.04	19.009
457.39	18.761
457.74	19.153
458.09	18.344
458.44	18.586
458.79	18.167
459.14	17.664
459.49	18.097
459.84	17.562
460.19	17.796
460.54	17.650
460.89	17.499
461.24	18.276
461.59	18.942
461.94	18.126
462.29	18.398
462.64	18.953
462.99	18.022
463.34	19.333
463.69	18.449
464.04	18.493
464.39	17.971
464.74	17.647
465.09	18.335
465.44	17.175
465.79	18.177
466.14	17.789
466.49	18.187
466.84	17.572
467.19	17.260
467.54	18.438
467.89	18.307
468.24	17.568
468.59	18.803
468.94	18.509
469.29	17.802
469.64	19.143
469.99	18.133
470.34	18.626
470.68	18.319
471.03	18.571
471.38	18.902
471.73	18.055
472.08	19.671
472.43	18.530
472.78	18.367
473.13	18.228
473.48	18.414
473.83	17.500
474.17	18.295
474.52	18.548
474.87	17.805
475.22	17.295
475.57	17.894
475.92	17.419
476.27	17.813
476.61	17.871
476.96	17.317
477.31	16.850
477.66	17.560
478.01	17.041
478.36	17.557
478.70	16.978
479.05	17.252
479.40	18.014
479.75	16.828
480.10	16.600
480.45	16.944
480.79	16.054
481.14	17.466
481.49	16.896
481.84	16.872
482.19	17.401
482.53	17.431
482.88	17.264
483.23	17.150
483.58	17.243
483.92	16.870
484.27	16.209
484.62	16.767
484.97	16.082
485.31	16.438
485.66	15.290
486.01	14.702
486.36	14.228
486.70	14.001
487.05	14.569
487.40	14.556
487.75	15.170
488.09	15.620
488.44	15.977
488.79	16.564
489.13	16.921
489.48	16.803
489.83	16.098
490.17	17.273
490.52	15.988
490.87	16.056
491.22	16.598
491.56	15.718
491.91	16.240
492.26	16.582
492.60	15.991
492.95	15.856
493.30	15.981
493.64	16.239
493.99	16.760
494.34	16.698
494.68	15.934
495.03	16.353
495.37	17.078
495.72	16.131
496.07	16.566
496.41	16.062
496.76	15.743
497.11	16.659
497.45	15.743
497.80	16.603
498.14	16.087
498.49	15.951
498.84	16.299
499.18	15.857
499.53	15.954
499.87	16.216
500.22	16.439
500.56	16.359
500.91	15.673
501.26	16.216
501.60	16.991
501.95	16.269
502.29	16.589
502.64	16.434
502.98	15.989
503.33	16.088
503.67	16.241
504.02	15.856
504.36	16.144
504.71	16.023
505.06	16.048
505.40	16.189
505.75	15.381
506.09	14.820
506.44	16.182
506.78	16.025
507.13	16.103
507.47	16.465
507.82	16.160
508.16	16.717
508.51	16.540
508.85	16.038
509.19	16.480
509.54	15.357
509.88	15.353
510.23	15.990
510.57	16.718
510.92	16.002
511.26	15.725
511.61	16.338
511.95	15.710
512.30	15.854
512.64	16.497
512.98	15.863
513.33	16.221
513.67	15.528
514.02	15.476
514.36	15.948
514.70	15.993
515.05	15.616
515.39	16.489
515.74	15.991
516.08	16.378
516.42	16.371
516.77	16.499
517.11	15.594
517.46	16.648
517.80	16.318
518.14	15.402
518.49	16.103
518.83	16.420
519.17	16.166
519.52	16.016
519.86	15.973
520.20	16.532
520.55	16.577
520.89	17.457
521.23	16.707
521.58	16.867
521.92	15.677
522.26	15.497
522.61	15.327
522.95	15.285
523.29	16.312
523.64	15.793
523.98	15.835
524.32	16.345
524.66	16.296
525.01	15.502
525.35	15.985
525.69	16.318
526.04	15.888
526.38	16.229
526.72	16.258
527.06	16.196
527.41	15.347
527.75	16.785
528.09	15.864
528.43	16.507
528.78	17.210
529.12	15.818
529.46	16.105
529.80	16.275
530.15	16.573
530.49	15.877
530.83	15.823
531.17	16.449
531.51	17.121
531.86	16.516
532.20	17.014
532.54	16.720
532.88	15.854
533.22	15.303
533.57	15.617
533.91	15.111
534.25	16.403
534.59	16.046
534.93	15.051
535.27	15.450
535.62	15.690
535.96	15.631
536.30	15.639
536.64	16.420
536.98	15.660
537.32	15.932
537.66	15.200
538.01	15.734
538.35	16.742
538.69	16.082
539.03	15.660
539.37	14.888
539.71	15.036
540.05	15.425
540.39	15.947
540.73	14.424
541.07	16.288
541.42	15.851
541.76	15.613
542.10	15.589
542.44	15.894
542.78	16.535
543.12	14.459
543.46	16.000
543.80	15.745
544.14	14.827
544.48	15.746
544.82	14.689
545.16	14.769
545.50	15.231
545.84	15.659
546.18	15.152
546.52	15.348
546.86	15.120
547.20	15.644
547.54	14.896
547.88	14.923
548.22	15.442
548.56	15.597
548.90	14.341
549.24	14.815
549.58	16.098
549.92	14.904
550.26	15.199
550.60	15.214
550.94	15.211
551.28	14.484
551.62	15.960
551.96	15.158
552.30	15.973
552.64	15.213
552.98	15.119
553.32	15.307
553.66	14.724
554.00	14.962
554.34	14.217
554.68	15.451
555.02	15.021
555.36	14.544
555.69	16.035
556.03	15.545
556.37	15.075
556.71	14.529
557.05	15.266
557.39	14.766
557.73	14.679
558.07	15.228
558.41	14.327
558.75	15.062
559.08	15.585
559.42	16.024
559.76	15.000
560.10	15.560
560.44	14.955
560.78	14.571
561.12	13.852
561.45	14.602
561.79	14.370
562.13	14.219
562.47	15.642
562.81	15.202
563.15	14.114
563.48	14.655
563.82	15.264
564.16	14.781
564.50	14.128
564.84	14.412
565.17	14.221
565.51	13.674
565.85	14.086
566.19	13.463
566.52	13.490
566.86	14.467
567.20	14.033
567.54	13.870
567.88	13.145
568.21	13.810
568.55	13.347
568.89	13.716
569.23	12.834
569.56	12.874
569.90	12.981
570.24	12.415
570.57	12.751
570.91	11.991
571.25	12.384
571.59	11.487
571.92	11.722
572.26	11.756
572.60	12.312
572.93	11.814
573.27	12.067
573.61	12.060
573.95	11.964
574.28	11.834
574.62	11.322
574.96	11.398
575.29	11.372
575.63	11.636
575.97	10.961
576.30	11.737
576.64	11.423
576.98	11.303
577.31	11.460
577.65	11.444
577.98	11.098
578.32	11.358
578.66	11.258
578.99	11.481
579.33	11.184
579.67	10.873
580.00	11.196
580.34	11.438
580.67	11.676
581.01	11.761
581.35	11.372
581.68	11.177
582.02	10.478
582.35	11.013
582.69	11.086
583.02	11.006
583.36	11.460
583.70	11.813
584.03	11.494
584.37	12.200
584.70	11.651
585.04	11.619
585.37	11.580
585.71	11.725
586.04	11.573
586.38	11.625
586.72	12.234
587.05	11.410
587.39	11.372
587.72	11.621
588.06	11.526
588.39	11.797
588.73	11.822
589.06	12.683
589.40	11.953
589.73	12.496
590.07	12.313
590.40	12.057
590.73	12.139
591.07	12.943
591.40	12.737
591.74	13.247
592.07	13.133
592.41	12.526
592.74	12.397
593.08	12.092
593.41	12.053
593.75	12.149
594.08	11.733
594.41	12.584
594.75	12.126
595.08	12.241
595.42	12.434
595.75	12.393
596.09	12.843
596.42	12.574
596.75	12.790
597.09	13.030
597.42	12.310
597.75	12.850
598.09	13.348
598.42	12.543
598.76	11.998
599.09	11.935
599.42	11.972
599.76	12.225
600.09	11.985
600.42	12.308
600.76	12.000
601.09	12.204
601.42	12.253
601.76	12.144
602.09	12.569
602.42	12.858
602.76	13.180
603.09	12.667
603.42	12.417
603.76	12.271
604.09	12.292
604.42	12.393
604.76	13.117
605.09	12.538
605.42	12.569
605.75	12.666
606.09	12.688
606.42	12.301
606.75	12.277
607.09	13.144
607.42	12.923
607.75	12.321
608.08	12.288
608.42	12.909
608.75	12.353
609.08	12.673
609.41	12.518
609.75	12.434
610.08	13.007
610.41	12.244
610.74	12.583
611.07	12.549
611.41	12.905
611.74	13.273
612.07	13.613
612.40	13.694
612.73	12.421
613.07	13.470
613.40	12.796
613.73	12.323
614.06	12.688
614.39	13.424
614.72	12.842
615.06	13.288
615.39	13.588
615.72	13.701
616.05	12.706
616.38	13.230
616.71	13.420
617.05	13.133
617.38	12.989
617.71	12.853
618.04	14.183
618.37	13.010
618.70	14.001
619.03	14.539
619.36	14.732
619.69	14.507
620.03	13.874
620.36	13.971
620.69	14.521
621.02	14.528
621.35	15.192
621.68	14.252
622.01	14.861
622.34	14.826
622.67	13.840
623.00	13.940
623.33	13.939
623.66	13.295
623.99	14.433
624.32	14.622
624.65	14.477
624.99	13.385
625.32	14.048
625.65	14.125
625.98	13.759
626.31	14.386
626.64	14.776
626.97	14.713
627.30	14.713
627.63	15.176
627.96	16.400
628.29	14.786
628.62	16.651
628.95	17.075
629.28	15.420
629.61	16.865
629.94	15.333
630.26	15.348
630.59	15.729
630.92	15.517
