SpectraSuite Data File
++++++++++++++++++++++++++++++++++++
Date: Wed May 13 16:31:50 PDT 2015
User: schluterlab
Dark Spectrum Present: Yes
Reference Spectrum Present: Yes
Number of Sampled Component Spectra: 1
Spectrometers: USB2E3373
Integration Time (usec): 3000 (USB2E3373)
Spectra Averaged: 3 (USB2E3373)
Boxcar Smoothing: 0 (USB2E3373)
Correct for Electrical Dark: No (USB2E3373)
Strobe/Lamp Enabled: No (USB2E3373)
Correct for Detector Non-linearity: No (USB2E3373)
Correct for Stray Light: No (USB2E3373)
Number of Pixels in Processed Spectrum: 2048
>>>>>Begin Processed Spectral Data<<<<<
178.53	0.000
178.91	-1400.000
179.29	-1175.000
179.67	-144.444
180.04	-1175.000
180.42	2050.000
180.80	1000.000
181.18	-900.000
181.56	571.429
181.94	0.000
182.31	-742.857
182.69	1500.000
183.07	-512.500
183.45	-466.667
183.83	463.636
184.20	-380.000
184.58	2350.000
184.96	4800.000
185.34	-800.000
185.72	-550.000
186.09	-2400.000
186.47	2450.000
186.85	2550.000
187.23	3600.000
187.61	-1500.000
187.98	1275.000
188.36	500.000
188.74	490.909
189.12	-940.000
189.49	430.000
189.87	-4400.000
190.25	-800.000
190.63	378.571
191.00	353.846
191.38	950.000
191.76	-925.000
192.14	1350.000
192.51	450.000
192.89	916.667
193.27	562.500
193.65	-925.000
194.02	520.000
194.40	920.000
194.78	530.000
195.15	516.667
195.53	550.000
195.91	-1600.000
196.29	312.500
196.66	247.368
197.04	-340.000
197.42	0.000
197.79	590.000
198.17	-4100.000
198.55	714.286
198.92	625.000
199.30	920.000
199.68	0.000
200.05	344.444
200.43	814.286
200.81	3800.000
201.18	1900.000
201.56	-1066.667
201.94	533.333
202.31	600.000
202.69	400.000
203.07	530.000
203.44	0.000
203.82	1075.000
204.19	557.143
204.57	421.429
204.95	525.000
205.32	1333.333
205.70	481.818
206.08	328.571
206.45	2300.000
206.83	362.500
207.20	816.667
207.58	700.000
207.96	272.222
208.33	537.500
208.71	-700.000
209.08	671.429
209.46	611.111
209.84	463.636
210.21	-1333.333
210.59	1200.000
210.96	-437.500
211.34	2300.000
211.71	590.000
212.09	750.000
212.46	0.000
212.84	1333.333
213.22	1225.000
213.59	-4400.000
213.97	666.667
214.34	614.286
214.72	590.909
215.09	940.000
215.47	-1850.000
215.84	-2150.000
216.22	1666.667
216.59	342.857
216.97	1250.000
217.34	463.636
217.72	-533.333
218.09	0.000
218.47	-4800.000
218.84	600.000
219.22	742.857
219.59	1733.333
219.97	-571.429
220.34	640.000
220.72	-1700.000
221.09	442.857
221.47	1325.000
221.84	-633.333
222.22	0.000
222.59	1525.000
222.97	-2250.000
223.34	1000.000
223.72	300.000
224.09	1040.000
224.46	2250.000
224.84	-5100.000
225.21	-680.000
225.59	-4200.000
225.96	570.000
226.34	305.000
226.71	2250.000
227.08	650.000
227.46	560.000
227.83	-1025.000
228.21	-2400.000
228.58	577.778
228.95	-2050.000
229.33	-2100.000
229.70	1566.667
230.08	800.000
230.45	-880.000
230.82	458.333
231.20	716.667
231.57	428.571
231.95	491.667
232.32	231.818
232.69	318.182
233.07	614.286
233.44	315.385
233.81	-1566.667
234.19	268.421
234.56	375.000
234.93	308.333
235.31	400.000
235.68	315.385
236.05	264.286
236.43	142.424
236.80	210.526
237.17	3600.000
237.55	200.000
237.92	153.571
238.29	204.762
238.67	151.613
239.04	165.517
239.41	119.444
239.79	84.783
240.16	119.048
240.53	93.182
240.91	82.353
241.28	90.000
241.65	72.000
242.02	76.812
242.40	61.290
242.77	75.000
243.14	61.290
243.51	57.303
243.89	55.294
244.26	53.333
244.63	60.215
245.00	50.000
245.38	46.535
245.75	34.579
246.12	33.945
246.49	37.226
246.87	46.400
247.24	43.077
247.61	33.571
247.98	33.987
248.36	27.703
248.73	35.669
249.10	32.484
249.47	32.203
249.84	31.551
250.22	26.203
250.59	31.953
250.96	27.778
251.33	30.332
251.70	27.228
252.08	26.667
252.45	21.973
252.82	21.304
253.19	24.255
253.56	25.098
253.94	26.556
254.31	23.047
254.68	24.231
255.05	22.878
255.42	19.106
255.79	20.221
256.16	22.744
256.54	18.021
256.91	23.843
257.28	17.266
257.65	19.472
258.02	19.565
258.39	18.927
258.76	18.060
259.14	19.048
259.51	14.894
259.88	12.112
260.25	18.429
260.62	17.919
260.99	20.186
261.36	18.919
261.73	16.332
262.10	14.535
262.47	17.746
262.85	13.928
263.22	11.966
263.59	16.809
263.96	14.286
264.33	18.016
264.70	14.737
265.07	15.857
265.44	13.889
265.81	11.679
266.18	15.578
266.55	16.341
266.92	12.776
267.29	15.046
267.66	14.220
268.03	14.318
268.40	15.421
268.77	11.695
269.14	14.414
269.51	15.124
269.88	14.918
270.25	15.576
270.62	13.258
270.99	15.914
271.36	13.519
271.73	11.916
272.10	13.043
272.47	12.688
272.84	15.152
273.21	14.465
273.58	12.664
273.95	11.321
274.32	12.810
274.69	13.919
275.06	12.205
275.43	12.128
275.80	11.824
276.17	12.627
276.54	13.098
276.91	11.462
277.28	13.867
277.65	11.412
278.02	10.973
278.39	13.281
278.76	12.545
279.13	14.906
279.50	13.780
279.87	13.944
280.23	11.577
280.60	10.638
280.97	9.982
281.34	12.743
281.71	12.545
282.08	13.628
282.45	10.182
282.82	11.723
283.19	9.269
283.56	10.877
283.92	11.168
284.29	11.287
284.66	10.345
285.03	9.765
285.40	11.444
285.77	10.774
286.14	9.672
286.51	10.000
286.87	10.598
287.24	11.401
287.61	11.878
287.98	10.065
288.35	8.558
288.72	11.994
289.08	12.207
289.45	10.708
289.82	9.106
290.19	9.419
290.56	11.026
290.93	9.517
291.29	10.583
291.66	10.177
292.03	11.773
292.40	10.132
292.77	7.840
293.13	9.403
293.50	8.601
293.87	10.222
294.24	9.037
294.60	9.607
294.97	9.157
295.34	10.155
295.71	9.943
296.08	7.692
296.44	9.216
296.81	8.454
297.18	10.163
297.55	5.673
297.91	8.443
298.28	10.040
298.65	9.791
299.02	8.827
299.38	7.835
299.75	5.660
300.12	7.535
300.48	9.000
300.85	9.371
301.22	8.790
301.59	7.828
301.95	8.564
302.32	8.216
302.69	8.483
303.05	8.242
303.42	7.407
303.79	8.720
304.15	7.459
304.52	6.721
304.89	8.130
305.25	8.353
305.62	8.041
305.99	8.973
306.35	8.054
306.72	8.184
307.09	7.991
307.45	8.333
307.82	7.031
308.19	8.057
308.55	8.306
308.92	7.519
309.29	6.441
309.65	7.529
310.02	7.188
310.38	6.129
310.75	6.547
311.12	7.267
311.48	7.837
311.85	8.595
312.22	7.076
312.58	6.965
312.95	8.659
313.31	6.699
313.68	6.341
314.05	9.566
314.41	8.342
314.78	6.445
315.14	7.349
315.51	7.930
315.87	7.624
316.24	7.746
316.61	7.115
316.97	6.458
317.34	6.947
317.70	7.361
318.07	7.988
318.43	6.849
318.80	8.341
319.16	7.533
319.53	6.942
319.89	8.000
320.26	7.200
320.62	7.143
320.99	6.768
321.35	7.374
321.72	7.495
322.08	7.206
322.45	9.154
322.81	9.205
323.18	8.478
323.54	8.163
323.91	8.962
324.27	6.310
324.64	5.871
325.00	7.304
325.37	7.734
325.73	8.169
326.10	7.149
326.46	6.272
326.83	8.110
327.19	7.259
327.56	7.056
327.92	7.087
328.29	7.187
328.65	7.459
329.01	6.769
329.38	6.383
329.74	6.741
330.11	8.200
330.47	7.163
330.84	8.364
331.20	7.195
331.56	7.431
331.93	6.389
332.29	6.832
332.66	8.496
333.02	7.038
333.38	7.859
333.75	7.932
334.11	7.384
334.48	7.808
334.84	7.629
335.20	8.000
335.57	6.981
335.93	6.696
336.29	7.234
336.66	7.484
337.02	7.783
337.38	7.685
337.75	6.952
338.11	7.252
338.47	6.906
338.84	6.874
339.20	5.688
339.56	7.664
339.93	6.455
340.29	6.975
340.65	6.952
341.02	7.853
341.38	8.541
341.74	5.965
342.11	7.162
342.47	6.696
342.83	7.962
343.20	7.100
343.56	6.908
343.92	6.140
344.28	7.738
344.65	7.395
345.01	6.481
345.37	5.575
345.73	6.684
346.10	8.440
346.46	7.203
346.82	6.343
347.19	6.516
347.55	7.307
347.91	7.201
348.27	7.724
348.63	6.856
349.00	6.230
349.36	6.650
349.72	6.977
350.08	6.240
350.45	7.567
350.81	7.067
351.17	7.618
351.53	6.880
351.89	6.271
352.26	7.893
352.62	7.698
352.98	7.455
353.34	7.231
353.70	5.401
354.07	6.532
354.43	6.190
354.79	6.114
355.15	7.342
355.51	7.114
355.87	6.286
356.24	7.410
356.60	6.736
356.96	6.758
357.32	5.560
357.68	7.323
358.04	6.730
358.40	7.284
358.77	7.433
359.13	5.998
359.49	6.431
359.85	5.714
360.21	6.140
360.57	7.938
360.93	7.615
361.29	6.727
361.66	5.805
362.02	6.567
362.38	7.148
362.74	6.622
363.10	6.440
363.46	6.676
363.82	5.820
364.18	7.048
364.54	6.835
364.90	7.365
365.26	5.221
365.62	6.355
365.98	6.209
366.35	5.014
366.71	6.508
367.07	6.846
367.43	6.531
367.79	6.852
368.15	7.902
368.51	6.032
368.87	6.709
369.23	6.291
369.59	6.372
369.95	6.618
370.31	7.336
370.67	6.667
371.03	7.416
371.39	7.507
371.75	7.059
372.11	7.183
372.47	7.038
372.83	7.061
373.19	6.503
373.55	6.652
373.91	6.996
374.27	6.667
374.63	5.818
374.99	7.768
375.35	6.420
375.71	6.717
376.07	7.270
376.42	6.534
376.78	7.555
377.14	6.852
377.50	7.417
377.86	6.915
378.22	7.332
378.58	7.206
378.94	6.160
379.30	6.234
379.66	6.599
380.02	7.494
380.38	6.922
380.74	7.503
381.09	7.335
381.45	6.638
381.81	7.371
382.17	7.452
382.53	7.107
382.89	8.025
383.25	6.504
383.61	7.125
383.97	7.630
384.32	7.236
384.68	6.939
385.04	7.376
385.40	6.749
385.76	7.187
386.12	8.031
386.48	8.244
386.83	7.954
387.19	8.163
387.55	7.792
387.91	7.981
388.27	7.603
388.62	8.297
388.98	7.432
389.34	8.824
389.70	8.338
390.06	8.745
390.42	8.106
390.77	8.588
391.13	8.232
391.49	8.503
391.85	8.593
392.20	7.256
392.56	7.702
392.92	8.299
393.28	6.686
393.64	8.273
393.99	8.552
394.35	8.251
394.71	9.034
395.07	8.287
395.42	8.282
395.78	8.651
396.14	8.939
396.50	8.835
396.85	8.582
397.21	9.186
397.57	8.308
397.92	8.173
398.28	8.296
398.64	8.961
399.00	9.065
399.35	8.629
399.71	9.433
400.07	8.870
400.42	9.202
400.78	9.228
401.14	8.232
401.49	8.955
401.85	8.348
402.21	8.144
402.57	8.760
402.92	9.016
403.28	8.807
403.63	8.601
403.99	8.153
404.35	8.970
404.70	8.573
405.06	8.561
405.42	8.983
405.77	8.857
406.13	8.578
406.49	9.462
406.84	9.510
407.20	7.801
407.55	9.317
407.91	9.200
408.27	9.062
408.62	9.332
408.98	9.314
409.34	9.533
409.69	9.355
410.05	8.922
410.40	9.113
410.76	8.961
411.11	9.530
411.47	9.521
411.83	8.613
412.18	8.720
412.54	9.776
412.89	9.639
413.25	9.504
413.60	9.574
413.96	8.318
414.31	9.174
414.67	9.632
415.03	9.272
415.38	10.438
415.74	8.810
416.09	9.536
416.45	9.639
416.80	9.253
417.16	10.791
417.51	10.816
417.87	9.249
418.22	10.473
418.58	9.942
418.93	9.582
419.29	10.057
419.64	9.761
420.00	9.146
420.35	9.623
420.71	9.623
421.06	9.248
421.42	9.415
421.77	9.529
422.12	9.601
422.48	8.365
422.83	8.969
423.19	10.055
423.54	9.460
423.90	9.855
424.25	9.939
424.61	9.107
424.96	9.563
425.31	8.859
425.67	9.551
426.02	9.486
426.38	10.012
426.73	9.245
427.09	9.422
427.44	9.431
427.79	9.086
428.15	9.821
428.50	9.713
428.85	10.250
429.21	9.332
429.56	8.813
429.92	9.059
430.27	8.937
430.62	9.114
430.98	9.704
431.33	9.021
431.68	9.215
432.04	9.904
432.39	10.051
432.74	9.455
433.10	9.621
433.45	9.913
433.80	8.925
434.16	9.615
434.51	9.263
434.86	9.806
435.22	9.839
435.57	9.544
435.92	8.543
436.28	9.786
436.63	10.486
436.98	9.044
437.34	9.064
437.69	9.977
438.04	9.162
438.39	10.209
438.75	9.878
439.10	9.441
439.45	9.622
439.81	9.789
440.16	9.768
440.51	9.549
440.86	10.017
441.22	9.956
441.57	9.554
441.92	9.263
442.27	9.903
442.63	9.426
442.98	10.310
443.33	9.891
443.68	9.396
444.03	9.322
444.39	9.250
444.74	9.470
445.09	9.811
445.44	9.732
445.79	9.500
446.15	10.005
446.50	9.370
446.85	10.123
447.20	9.791
447.55	9.380
447.91	9.487
448.26	9.238
448.61	9.836
448.96	10.188
449.31	10.180
449.66	10.467
450.02	9.081
450.37	9.524
450.72	9.137
451.07	9.445
451.42	9.909
451.77	9.806
452.12	10.508
452.47	9.701
452.83	9.615
453.18	9.658
453.53	10.451
453.88	9.746
454.23	10.460
454.58	10.418
454.93	10.807
455.28	10.037
455.63	9.830
455.98	9.702
456.34	10.364
456.69	9.831
457.04	10.402
457.39	10.053
457.74	9.750
458.09	9.718
458.44	10.262
458.79	9.273
459.14	10.214
459.49	10.099
459.84	9.418
460.19	9.900
460.54	9.722
460.89	9.929
461.24	10.018
461.59	10.808
461.94	9.864
462.29	10.089
462.64	10.019
462.99	10.345
463.34	11.533
463.69	10.944
464.04	9.971
464.39	10.261
464.74	10.339
465.09	9.710
465.44	9.695
465.79	9.564
466.14	9.633
466.49	9.677
466.84	10.508
467.19	10.380
467.54	10.312
467.89	9.964
468.24	10.762
468.59	10.317
468.94	9.896
469.29	9.961
469.64	10.509
469.99	9.878
470.34	9.115
470.68	11.135
471.03	10.204
471.38	11.049
471.73	11.059
472.08	10.263
472.43	10.050
472.78	10.533
473.13	10.655
473.48	10.362
473.83	10.671
474.17	9.023
474.52	10.050
474.87	10.158
475.22	10.041
475.57	9.672
475.92	9.878
476.27	10.147
476.61	9.377
476.96	9.731
477.31	9.838
477.66	10.011
478.01	9.618
478.36	9.625
478.70	9.190
479.05	10.224
479.40	9.672
479.75	9.812
480.10	9.195
480.45	9.519
480.79	9.365
481.14	10.078
481.49	10.204
481.84	9.282
482.19	9.859
482.53	9.771
482.88	9.772
483.23	9.720
483.58	9.873
483.92	9.185
484.27	9.107
484.62	9.353
484.97	9.184
485.31	8.938
485.66	8.407
486.01	7.590
486.36	7.283
486.70	7.376
487.05	7.758
487.40	8.248
487.75	8.406
488.09	8.675
488.44	8.472
488.79	9.078
489.13	9.358
489.48	9.217
489.83	8.934
490.17	9.689
490.52	9.610
490.87	9.588
491.22	9.368
491.56	8.383
491.91	9.446
492.26	9.325
492.60	10.000
492.95	9.121
493.30	9.393
493.64	9.146
493.99	9.192
494.34	9.574
494.68	9.753
495.03	9.258
495.37	9.353
495.72	8.772
496.07	10.116
496.41	8.850
496.76	9.543
497.11	9.725
497.45	9.548
497.80	9.405
498.14	9.758
498.49	9.707
498.84	9.684
499.18	9.333
499.53	9.734
499.87	9.553
500.22	8.761
500.56	9.660
500.91	8.702
501.26	9.720
501.60	10.299
501.95	9.578
502.29	9.606
502.64	9.637
502.98	9.210
503.33	9.461
503.67	9.838
504.02	9.355
504.36	9.499
504.71	9.135
505.06	9.976
505.40	9.480
505.75	8.775
506.09	9.475
506.44	10.064
506.78	10.326
507.13	10.146
507.47	10.152
507.82	10.638
508.16	10.436
508.51	10.198
508.85	9.583
509.19	9.898
509.54	10.204
509.88	9.892
510.23	9.717
510.57	10.836
510.92	10.513
511.26	10.740
511.61	10.633
511.95	10.282
512.30	9.756
512.64	10.210
512.98	10.611
513.33	11.242
513.67	9.872
514.02	10.227
514.36	10.814
514.70	10.736
515.05	10.318
515.39	10.768
515.74	10.755
516.08	11.235
516.42	11.043
516.77	10.814
517.11	11.265
517.46	11.343
517.80	10.918
518.14	10.712
518.49	11.377
518.83	10.909
519.17	10.566
519.52	11.205
519.86	10.782
520.20	11.503
520.55	11.909
520.89	11.253
521.23	11.399
521.58	10.744
521.92	11.513
522.26	11.653
522.61	11.215
522.95	10.129
523.29	11.138
523.64	11.585
523.98	11.399
524.32	10.977
524.66	11.124
525.01	11.458
525.35	11.648
525.69	11.207
526.04	12.212
526.38	11.714
526.72	10.798
527.06	11.425
527.41	10.396
527.75	11.383
528.09	11.946
528.43	11.472
528.78	11.616
529.12	10.909
529.46	12.186
529.80	11.819
530.15	12.274
530.49	11.877
530.83	11.646
531.17	12.467
531.51	13.035
531.86	11.613
532.20	13.233
532.54	12.172
532.88	12.195
533.22	10.931
533.57	11.790
533.91	11.439
534.25	12.029
534.59	11.653
534.93	11.541
535.27	11.406
535.62	11.783
535.96	12.053
536.30	12.142
536.64	12.106
536.98	12.541
537.32	11.850
537.66	11.600
538.01	13.101
538.35	12.346
538.69	12.636
539.03	11.306
539.37	12.843
539.71	11.017
540.05	12.157
540.39	12.159
540.73	11.966
541.07	12.654
541.42	12.394
541.76	13.097
542.10	12.160
542.44	11.656
542.78	12.846
543.12	11.068
543.46	12.393
543.80	11.906
544.14	12.003
544.48	12.635
544.82	11.995
545.16	12.232
545.50	11.440
545.84	12.030
546.18	12.593
546.52	12.595
546.86	11.821
547.20	13.014
547.54	12.558
547.88	12.054
548.22	12.391
548.56	13.019
548.90	12.036
549.24	12.121
549.58	12.483
549.92	13.118
550.26	13.494
550.60	12.586
550.94	12.465
551.28	12.509
551.62	13.228
551.96	12.491
552.30	13.174
552.64	12.847
552.98	13.017
553.32	13.014
553.66	13.156
554.00	13.040
554.34	14.010
554.68	13.734
555.02	13.188
555.36	13.779
555.69	12.720
556.03	12.719
556.37	12.142
556.71	12.688
557.05	12.815
557.39	12.596
557.73	12.985
558.07	12.835
558.41	13.242
558.75	12.932
559.08	13.647
559.42	12.547
559.76	13.603
560.10	12.777
560.44	13.138
560.78	12.442
561.12	12.665
561.45	13.364
561.79	12.722
562.13	13.347
562.47	13.046
562.81	13.459
563.15	13.846
563.48	13.594
563.82	13.112
564.16	13.604
564.50	12.109
564.84	12.516
565.17	12.420
565.51	13.291
565.85	13.135
566.19	12.461
566.52	12.666
566.86	11.995
567.20	12.087
567.54	12.329
567.88	12.004
568.21	11.799
568.55	12.235
568.89	11.284
569.23	11.096
569.56	11.012
569.90	10.528
570.24	10.585
570.57	10.643
570.91	10.310
571.25	9.914
571.59	10.221
571.92	10.023
572.26	10.196
572.60	10.270
572.93	10.495
573.27	10.559
573.61	10.162
573.95	10.439
574.28	9.573
574.62	9.694
574.96	10.012
575.29	10.039
575.63	9.832
575.97	10.154
576.30	10.409
576.64	9.932
576.98	10.039
577.31	9.727
577.65	9.663
577.98	9.731
578.32	9.392
578.66	9.958
578.99	9.678
579.33	9.804
579.67	9.779
580.00	9.710
580.34	9.967
580.67	9.738
581.01	10.119
581.35	9.716
581.68	9.522
582.02	9.533
582.35	9.331
582.69	9.361
583.02	9.856
583.36	10.030
583.70	10.240
584.03	10.110
584.37	10.514
584.70	10.005
585.04	10.054
585.37	10.089
585.71	10.268
586.04	10.123
586.38	10.110
586.72	10.577
587.05	10.486
587.39	10.185
587.72	10.461
588.06	10.352
588.39	10.370
588.73	10.414
589.06	11.000
589.40	10.842
589.73	11.088
590.07	11.210
590.40	10.924
590.73	10.773
591.07	11.803
591.40	11.767
591.74	12.035
592.07	11.126
592.41	11.699
592.74	11.086
593.08	10.726
593.41	10.693
593.75	10.369
594.08	10.929
594.41	10.887
594.75	10.980
595.08	11.346
595.42	11.208
595.75	11.182
596.09	11.491
596.42	12.220
596.75	11.946
597.09	12.121
597.42	10.961
597.75	11.729
598.09	11.565
598.42	11.512
598.76	11.309
599.09	10.528
599.42	11.026
599.76	11.310
600.09	10.601
600.42	10.738
600.76	10.786
601.09	10.747
601.42	11.111
601.76	11.271
602.09	11.186
602.42	11.146
602.76	11.608
603.09	11.172
603.42	11.870
603.76	11.280
604.09	10.314
604.42	11.007
604.76	11.936
605.09	11.315
605.42	11.629
605.75	11.921
606.09	11.061
606.42	11.483
606.75	11.779
607.09	11.260
607.42	11.510
607.75	10.844
608.08	11.376
608.42	11.833
608.75	11.452
609.08	11.563
609.41	12.327
609.75	11.625
610.08	12.394
610.41	11.499
610.74	11.873
611.07	11.957
611.41	11.531
611.74	12.770
612.07	12.060
612.40	12.120
612.73	12.000
613.07	12.823
613.40	12.480
613.73	11.432
614.06	11.989
614.39	12.847
614.72	11.947
615.06	12.342
615.39	12.527
615.72	12.117
616.05	12.174
616.38	12.729
616.71	13.302
617.05	13.604
617.38	12.748
617.71	12.793
618.04	13.041
618.37	12.596
618.70	13.752
619.03	14.145
619.36	12.695
619.69	13.310
620.03	13.736
620.36	13.904
620.69	13.973
621.02	13.717
621.35	13.078
621.68	13.318
622.01	13.932
622.34	14.145
622.67	14.601
623.00	13.500
623.33	12.938
623.66	13.510
623.99	13.181
624.32	13.267
624.65	14.407
624.99	13.739
625.32	13.686
625.65	13.599
625.98	14.912
626.31	15.397
626.64	15.592
626.97	14.547
627.30	14.963
627.63	15.505
627.96	15.223
628.29	15.836
628.62	15.096
628.95	15.849
629.28	15.967
629.61	15.949
629.94	16.000
630.26	14.204
630.59	14.967
630.92	16.667
631.25	15.499
631.58	16.416
631.91	15.314
632.24	15.717
632.57	16.159
632.90	15.899
633.23	16.219
633.56	17.401
633.89	18.233
634.22	16.459
634.55	15.740
634.88	17.126
635.20	17.443
635.53	17.470
635.86	19.183
636.19	15.882
636.52	16.494
636.85	17.297
637.18	16.014
637.51	17.730
637.83	16.276
638.16	17.391
638.49	17.884
638.82	18.584
639.15	17.500
639.48	17.207
639.81	19.169
640.13	18.359
640.46	19.732
640.79	19.022
641.12	16.369
641.45	17.179
641.77	18.999
642.10	18.421
642.43	17.267
642.76	18.885
643.09	19.325
643.41	17.602
