SpectraSuite Data File
++++++++++++++++++++++++++++++++++++
Date: Wed May 13 16:07:54 PDT 2015
User: schluterlab
Dark Spectrum Present: Yes
Reference Spectrum Present: Yes
Number of Sampled Component Spectra: 1
Spectrometers: USB2E3373
Integration Time (usec): 3000 (USB2E3373)
Spectra Averaged: 3 (USB2E3373)
Boxcar Smoothing: 0 (USB2E3373)
Correct for Electrical Dark: No (USB2E3373)
Strobe/Lamp Enabled: No (USB2E3373)
Correct for Detector Non-linearity: No (USB2E3373)
Correct for Stray Light: No (USB2E3373)
Number of Pixels in Processed Spectrum: 2048
>>>>>Begin Processed Spectral Data<<<<<
178.53	0.000
178.91	-575.000
179.29	-1075.000
179.67	-111.111
180.04	-900.000
180.42	1650.000
180.80	680.000
181.18	-800.000
181.56	485.714
181.94	0.000
182.31	-314.286
182.69	1266.667
183.07	-387.500
183.45	-355.556
183.83	318.182
184.20	-220.000
184.58	1500.000
184.96	3800.000
185.34	-680.000
185.72	-425.000
186.09	-1700.000
186.47	1600.000
186.85	1200.000
187.23	3900.000
187.61	-1200.000
187.98	725.000
188.36	372.727
188.74	409.091
189.12	-420.000
189.49	380.000
189.87	-2300.000
190.25	-825.000
190.63	357.143
191.00	261.538
191.38	566.667
191.76	-675.000
192.14	1075.000
192.51	487.500
192.89	583.333
193.27	362.500
193.65	-825.000
194.02	280.000
194.40	680.000
194.78	290.000
195.15	383.333
195.53	490.000
195.91	-1500.000
196.29	287.500
196.66	242.105
197.04	-250.000
197.42	0.000
197.79	410.000
198.17	-3500.000
198.55	414.286
198.92	487.500
199.30	680.000
199.68	0.000
200.05	244.444
200.43	528.571
200.81	2300.000
201.18	1066.667
201.56	-900.000
201.94	377.778
202.31	522.222
202.69	283.333
203.07	310.000
203.44	0.000
203.82	850.000
204.19	400.000
204.57	342.857
204.95	375.000
205.32	1300.000
205.70	336.364
206.08	235.714
206.45	1450.000
206.83	262.500
207.20	516.667
207.58	720.000
207.96	261.111
208.33	437.500
208.71	-533.333
209.08	471.429
209.46	322.222
209.84	272.727
210.21	-1066.667
210.59	775.000
210.96	-325.000
211.34	1350.000
211.71	410.000
212.09	500.000
212.46	0.000
212.84	1100.000
213.22	825.000
213.59	-2600.000
213.97	533.333
214.34	500.000
214.72	381.818
215.09	700.000
215.47	-1600.000
215.84	-1700.000
216.22	1300.000
216.59	342.857
216.97	975.000
217.34	336.364
217.72	-466.667
218.09	0.000
218.47	-3200.000
218.84	455.556
219.22	571.429
219.59	1000.000
219.97	-285.714
220.34	600.000
220.72	-1033.333
221.09	264.286
221.47	875.000
221.84	-500.000
222.22	0.000
222.59	925.000
222.97	-1650.000
223.34	980.000
223.72	353.846
224.09	660.000
224.46	1600.000
224.84	-2900.000
225.21	-680.000
225.59	-3900.000
225.96	470.000
226.34	255.000
226.71	2000.000
227.08	500.000
227.46	330.000
227.83	-450.000
228.21	-1850.000
228.58	377.778
228.95	-1350.000
229.33	-1200.000
229.70	1166.667
230.08	514.286
230.45	-680.000
230.82	283.333
231.20	433.333
231.57	471.429
231.95	350.000
232.32	186.364
232.69	309.091
233.07	385.714
233.44	307.692
233.81	-866.667
234.19	178.947
234.56	358.333
234.93	300.000
235.31	345.455
235.68	153.846
236.05	292.857
236.43	148.485
236.80	173.684
237.17	3300.000
237.55	166.667
237.92	139.286
238.29	185.714
238.67	138.710
239.04	151.724
239.41	105.556
239.79	100.000
240.16	97.619
240.53	109.091
240.91	78.431
241.28	96.000
241.65	86.000
242.02	104.348
242.40	79.032
242.77	76.667
243.14	61.290
243.51	65.169
243.89	61.176
244.26	54.444
244.63	59.140
245.00	65.957
245.38	64.356
245.75	63.551
246.12	59.633
246.49	58.394
246.87	61.600
247.24	53.077
247.61	54.286
247.98	47.712
248.36	52.027
248.73	42.675
249.10	49.682
249.47	50.282
249.84	42.781
250.22	44.385
250.59	41.420
250.96	45.455
251.33	37.915
251.70	42.574
252.08	38.095
252.45	42.601
252.82	40.435
253.19	42.128
253.56	38.824
253.94	42.739
254.31	42.187
254.68	42.692
255.05	42.066
255.42	41.463
255.79	39.706
256.16	40.072
256.54	37.102
256.91	38.078
257.28	38.849
257.65	42.244
258.02	38.199
258.39	35.962
258.76	34.114
259.14	37.500
259.51	37.690
259.88	32.919
260.25	40.785
260.62	35.260
260.99	36.646
261.36	34.234
261.73	32.092
262.10	33.140
262.47	40.282
262.85	33.705
263.22	33.618
263.59	39.601
263.96	36.538
264.33	36.292
264.70	36.842
265.07	38.619
265.44	35.101
265.81	34.307
266.18	34.422
266.55	33.902
266.92	36.855
267.29	36.111
267.66	34.633
268.03	35.455
268.40	34.579
268.77	31.742
269.14	34.009
269.51	31.828
269.88	33.800
270.25	33.634
270.62	33.708
270.99	36.559
271.36	36.052
271.73	34.579
272.10	31.957
272.47	35.054
272.84	34.632
273.21	36.059
273.58	32.969
273.95	31.447
274.32	33.471
274.69	35.332
275.06	31.890
275.43	33.404
275.80	33.267
276.17	32.790
276.54	30.977
276.91	34.190
277.28	30.859
277.65	34.816
278.02	32.298
278.39	34.766
278.76	32.000
279.13	33.962
279.50	30.726
279.87	32.470
280.23	32.535
280.60	33.656
280.97	29.760
281.34	29.912
281.71	31.636
282.08	33.205
282.45	28.727
282.82	30.728
283.19	30.838
283.56	32.456
283.92	31.641
284.29	30.159
284.66	30.853
285.03	30.199
285.40	30.634
285.77	32.155
286.14	30.397
286.51	30.833
286.87	29.744
287.24	30.130
287.61	30.979
287.98	30.844
288.35	29.319
288.72	28.660
289.08	26.448
289.45	28.995
289.82	29.431
290.19	26.688
290.56	27.871
290.93	27.946
291.29	30.368
291.66	27.286
292.03	30.378
292.40	28.047
292.77	25.740
293.13	24.776
293.50	28.571
293.87	25.926
294.24	25.481
294.60	24.600
294.97	26.308
295.34	25.952
295.71	25.426
296.08	23.504
296.44	25.722
296.81	24.042
297.18	26.558
297.55	23.879
297.91	25.066
298.28	26.238
298.65	24.935
299.02	24.638
299.38	25.232
299.75	22.102
300.12	23.244
300.48	23.375
300.85	23.305
301.22	24.841
301.59	21.591
301.95	23.174
302.32	23.492
302.69	23.536
303.05	24.242
303.42	22.840
303.79	24.009
304.15	21.212
304.52	23.175
304.89	22.416
305.25	22.854
305.62	22.990
305.99	23.967
306.35	22.148
306.72	25.112
307.09	23.418
307.45	23.423
307.82	21.540
308.19	23.179
308.55	23.948
308.92	21.697
309.29	21.331
309.65	20.891
310.02	22.833
310.38	22.366
310.75	23.126
311.12	23.234
311.48	23.197
311.85	24.843
312.22	22.268
312.58	21.933
312.95	24.287
313.31	22.039
313.68	21.206
314.05	23.077
314.41	24.121
314.78	23.565
315.14	22.344
315.51	23.996
315.87	24.158
316.24	23.039
316.61	23.099
316.97	23.092
317.34	22.016
317.70	24.283
318.07	22.907
318.43	23.875
318.80	24.742
319.16	23.635
319.53	23.921
319.89	24.667
320.26	25.200
320.62	24.802
320.99	25.152
321.35	26.364
321.72	25.462
322.08	25.666
322.45	26.169
322.81	25.678
323.18	26.782
323.54	25.603
323.91	25.472
324.27	25.621
324.64	25.070
325.00	26.420
325.37	26.843
325.73	27.020
326.10	27.096
326.46	26.792
326.83	28.041
327.19	27.754
327.56	27.875
327.92	28.784
328.29	28.571
328.65	29.466
329.01	28.971
329.38	29.972
329.74	27.793
330.11	28.841
330.47	28.191
330.84	30.239
331.20	29.781
331.56	28.532
331.93	28.981
332.29	29.370
332.66	28.938
333.02	28.885
333.38	30.172
333.75	28.699
334.11	29.270
334.48	29.015
334.84	29.320
335.20	30.091
335.57	28.921
335.93	28.214
336.29	28.938
336.66	29.666
337.02	27.783
337.38	29.537
337.75	28.342
338.11	29.275
338.47	29.650
338.84	29.881
339.20	28.440
339.56	28.741
339.93	29.273
340.29	28.804
340.65	28.431
341.02	28.970
341.38	30.338
341.74	29.123
342.11	28.559
342.47	27.753
342.83	29.366
343.20	28.658
343.56	27.801
343.92	27.895
344.28	29.507
344.65	29.407
345.01	27.441
345.37	27.873
345.73	28.596
346.10	27.280
346.46	28.983
346.82	29.242
347.19	27.820
347.55	29.228
347.91	28.317
348.27	28.595
348.63	28.177
349.00	27.913
349.36	27.997
349.72	27.827
350.08	27.147
350.45	28.234
350.81	28.676
351.17	28.282
351.53	27.928
351.89	27.228
352.26	28.571
352.62	29.431
352.98	28.606
353.34	29.417
353.70	28.396
354.07	28.145
354.43	27.222
354.79	28.158
355.15	27.853
355.51	29.496
355.87	29.469
356.24	29.235
356.60	27.907
356.96	29.364
357.32	27.473
357.68	29.528
358.04	26.999
358.40	29.929
358.77	27.543
359.13	27.388
359.49	28.235
359.85	27.778
360.21	27.432
360.57	29.183
360.93	29.154
361.29	28.571
361.66	27.786
362.02	28.731
362.38	28.213
362.74	28.943
363.10	27.535
363.46	27.806
363.82	28.874
364.18	28.708
364.54	29.792
364.90	28.329
365.26	29.632
365.62	29.803
365.98	28.415
366.35	27.579
366.71	29.646
367.07	28.551
367.43	29.536
367.79	29.336
368.15	30.747
368.51	28.924
368.87	29.693
369.23	28.969
369.59	30.051
369.95	28.162
370.31	29.131
370.67	28.913
371.03	29.363
371.39	28.863
371.75	29.559
372.11	27.383
372.47	30.499
372.83	30.476
373.19	29.841
373.55	29.194
373.91	31.222
374.27	29.278
374.63	29.164
374.99	30.085
375.35	29.449
375.71	30.021
376.07	29.904
376.42	29.917
376.78	30.152
377.14	30.190
377.50	30.662
377.86	29.455
378.22	29.962
378.58	29.386
378.94	30.233
379.30	30.662
379.66	30.520
380.02	30.098
380.38	29.812
380.74	30.612
381.09	31.174
381.45	30.977
381.81	30.713
382.17	31.210
382.53	30.314
382.89	31.173
383.25	31.270
383.61	32.714
383.97	31.457
384.32	30.755
384.68	30.793
385.04	31.530
385.40	30.774
385.76	31.265
386.12	32.642
386.48	32.410
386.83	32.457
387.19	33.148
387.55	32.282
387.91	32.225
388.27	32.618
388.62	33.128
388.98	31.634
389.34	32.603
389.70	32.925
390.06	32.383
390.42	32.555
390.77	31.743
391.13	32.738
391.49	32.234
391.85	32.081
392.20	32.177
392.56	32.197
392.92	32.549
393.28	31.775
393.64	32.734
393.99	31.949
394.35	32.878
394.71	32.999
395.07	33.396
395.42	33.807
395.78	33.206
396.14	33.768
396.50	33.772
396.85	33.757
397.21	33.785
397.57	32.858
397.92	33.894
398.28	32.399
398.64	32.676
399.00	32.457
399.35	32.939
399.71	33.738
400.07	33.885
400.42	33.681
400.78	33.776
401.14	32.866
401.49	33.493
401.85	32.668
402.21	32.455
402.57	32.758
402.92	33.670
403.28	33.604
403.63	34.406
403.99	32.994
404.35	33.273
404.70	33.933
405.06	32.499
405.42	32.751
405.77	33.657
406.13	32.957
406.49	32.762
406.84	33.550
407.20	32.861
407.55	33.121
407.91	34.200
408.27	33.759
408.62	32.932
408.98	33.395
409.34	33.395
409.69	33.419
410.05	33.457
410.40	33.700
410.76	33.513
411.11	33.957
411.47	33.035
411.83	34.026
412.18	33.766
412.54	34.682
412.89	33.193
413.25	34.416
413.60	33.786
413.96	32.908
414.31	33.597
414.67	34.284
415.03	33.311
415.38	33.763
415.74	33.891
416.09	34.161
416.45	33.266
416.80	33.245
417.16	34.316
417.51	33.709
417.87	33.076
418.22	34.322
418.58	34.409
418.93	34.398
419.29	33.609
419.64	34.635
420.00	34.634
420.35	33.971
420.71	34.429
421.06	33.950
421.42	34.269
421.77	33.688
422.12	33.071
422.48	32.650
422.83	33.838
423.19	33.536
423.54	34.939
423.90	33.507
424.25	34.338
424.61	33.393
424.96	34.869
425.31	33.666
425.67	33.539
426.02	33.829
426.38	34.005
426.73	34.231
427.09	34.711
427.44	32.950
427.79	34.445
428.15	34.821
428.50	34.757
428.85	34.803
429.21	33.186
429.56	35.303
429.92	33.920
430.27	33.962
430.62	32.975
430.98	34.094
431.33	33.660
431.68	34.660
432.04	33.546
432.39	34.666
432.74	35.787
433.10	35.710
433.45	34.985
433.80	33.703
434.16	34.722
434.51	34.105
434.86	34.094
435.22	35.186
435.57	35.319
435.92	35.108
436.28	35.765
436.63	35.486
436.98	35.318
437.34	34.764
437.69	35.298
438.04	35.188
438.39	35.045
438.75	34.980
439.10	35.196
439.45	34.829
439.81	36.073
440.16	35.460
440.51	35.325
440.86	36.132
441.22	35.095
441.57	35.456
441.92	35.670
442.27	34.661
442.63	34.281
442.98	36.507
443.33	35.109
443.68	35.829
444.03	35.530
444.39	34.761
444.74	35.877
445.09	35.472
445.44	35.101
445.79	35.675
446.15	35.257
446.50	36.026
446.85	35.920
447.20	36.257
447.55	36.460
447.91	35.962
448.26	35.893
448.61	36.687
448.96	35.437
449.31	36.895
449.66	35.678
450.02	35.543
450.37	35.261
450.72	35.195
451.07	35.466
451.42	35.745
451.77	36.230
452.12	36.316
452.47	35.883
452.83	36.480
453.18	36.125
453.53	36.797
453.88	35.794
454.23	36.461
454.58	36.584
454.93	36.491
455.28	35.037
455.63	36.468
455.98	37.976
456.34	36.935
456.69	36.819
457.04	36.718
457.39	35.476
457.74	36.622
458.09	35.940
458.44	35.975
458.79	35.466
459.14	35.779
459.49	36.311
459.84	35.734
460.19	36.358
460.54	36.169
460.89	36.588
461.24	36.855
461.59	37.304
461.94	36.128
462.29	37.151
462.64	36.694
462.99	35.979
463.34	37.267
463.69	37.461
464.04	36.580
464.39	36.870
464.74	36.661
465.09	36.550
465.44	36.343
465.79	35.347
466.14	36.563
466.49	36.040
466.84	36.953
467.19	36.270
467.54	37.938
467.89	36.315
468.24	36.533
468.59	37.851
468.94	36.652
469.29	37.404
469.64	38.153
469.99	37.889
470.34	37.186
470.68	38.290
471.03	37.415
471.38	39.194
471.73	38.308
472.08	37.763
472.43	37.374
472.78	37.656
473.13	38.768
473.48	36.767
473.83	37.927
474.17	37.150
474.52	38.089
474.87	37.128
475.22	37.551
475.57	37.668
475.92	37.228
476.27	37.317
476.61	36.680
476.96	36.559
477.31	36.682
477.66	37.363
478.01	37.794
478.36	38.974
478.70	36.085
479.05	37.327
479.40	38.434
479.75	38.841
480.10	37.276
480.45	37.078
480.79	36.550
481.14	37.476
481.49	37.162
481.84	38.500
482.19	37.665
482.53	37.706
482.88	37.506
483.23	38.271
483.58	36.897
483.92	38.144
484.27	36.950
484.62	37.672
484.97	37.130
485.31	37.979
485.66	36.037
486.01	34.580
486.36	33.210
486.70	32.504
487.05	33.920
487.40	35.061
487.75	35.405
488.09	36.215
488.44	36.524
488.79	38.192
489.13	37.815
489.48	37.765
489.83	37.635
490.17	37.089
490.52	37.157
490.87	36.318
491.22	37.472
491.56	37.677
491.91	38.064
492.26	37.896
492.60	37.650
492.95	37.699
493.30	37.009
493.64	37.517
493.99	37.187
494.34	38.298
494.68	38.233
495.03	37.265
495.37	37.552
495.72	38.402
496.07	38.561
496.41	36.637
496.76	37.247
497.11	37.956
497.45	37.913
497.80	38.052
498.14	37.971
498.49	38.293
498.84	38.639
499.18	37.381
499.53	38.462
499.87	38.211
500.22	37.164
500.56	38.447
500.91	37.356
501.26	37.553
501.60	37.874
501.95	37.168
502.29	38.285
502.64	38.082
502.98	38.616
503.33	38.574
503.67	38.237
504.02	36.763
504.36	37.623
504.71	38.056
505.06	38.506
505.40	38.503
505.75	37.416
506.09	38.338
506.44	39.369
506.78	38.578
507.13	39.778
507.47	39.596
507.82	39.615
508.16	39.159
508.51	39.523
508.85	39.275
509.19	40.204
509.54	39.082
509.88	40.185
510.23	39.640
510.57	40.248
510.92	40.342
511.26	39.157
511.61	40.197
511.95	40.240
512.30	39.555
512.64	39.441
512.98	40.461
513.33	40.739
513.67	40.342
514.02	39.610
514.36	41.289
514.70	41.339
515.05	41.550
515.39	40.942
515.74	41.554
516.08	41.252
516.42	41.398
516.77	41.750
517.11	41.010
517.46	42.664
517.80	42.741
518.14	41.112
518.49	42.474
518.83	41.818
519.17	42.610
519.52	42.784
519.86	42.898
520.20	42.428
520.55	42.011
520.89	42.092
521.23	43.607
521.58	42.137
521.92	42.743
522.26	41.367
522.61	43.676
522.95	43.401
523.29	42.362
523.64	43.537
523.98	43.808
524.32	42.702
524.66	43.416
525.01	43.137
525.35	42.627
525.69	42.488
526.04	43.863
526.38	43.319
526.72	43.742
527.06	44.696
527.41	43.255
527.75	43.730
528.09	44.830
528.43	45.061
528.78	44.561
529.12	43.455
529.46	44.397
529.80	44.678
530.15	45.234
530.49	43.385
530.83	43.734
531.17	46.671
531.51	46.109
531.86	44.194
532.20	45.111
532.54	45.227
532.88	45.058
533.22	43.161
533.57	43.765
533.91	44.371
534.25	44.957
534.59	44.478
534.93	43.724
535.27	43.271
535.62	44.933
535.96	44.193
536.30	44.501
536.64	44.430
536.98	45.056
537.32	45.754
537.66	45.600
538.01	44.964
538.35	44.926
538.69	44.863
539.03	44.379
539.37	44.281
539.71	43.552
540.05	45.621
540.39	44.585
540.73	42.885
541.07	46.074
541.42	45.662
541.76	45.742
542.10	45.602
542.44	45.960
542.78	44.796
543.12	43.570
543.46	44.525
543.80	44.893
544.14	44.416
544.48	44.571
544.82	44.516
545.16	44.437
545.50	43.573
545.84	44.086
546.18	45.051
546.52	45.286
546.86	44.880
547.20	45.920
547.54	45.090
547.88	45.663
548.22	44.645
548.56	43.019
548.90	43.278
549.24	43.906
549.58	44.748
549.92	43.613
550.26	45.170
550.60	45.228
550.94	45.493
551.28	45.135
551.62	45.579
551.96	46.175
552.30	44.915
552.64	45.707
552.98	45.763
553.32	45.179
553.66	44.308
554.00	45.504
554.34	44.099
554.68	46.853
555.02	45.416
555.36	44.885
555.69	44.046
556.03	44.347
556.37	45.157
556.71	45.430
557.05	45.728
557.39	46.116
557.73	44.248
558.07	46.918
558.41	46.093
558.75	44.012
559.08	46.756
559.42	46.183
559.76	45.882
560.10	45.610
560.44	45.073
560.78	44.977
561.12	44.261
561.45	46.023
561.79	44.759
562.13	46.345
562.47	44.945
562.81	46.583
563.15	44.950
563.48	45.225
563.82	45.662
564.16	45.062
564.50	44.466
564.84	44.943
565.17	44.402
565.51	44.345
565.85	44.543
566.19	43.456
566.52	44.839
566.86	43.701
567.20	44.222
567.54	43.664
567.88	43.781
568.21	43.810
568.55	42.821
568.89	43.385
569.23	41.399
569.56	40.810
569.90	40.604
570.24	40.761
570.57	40.224
570.91	38.623
571.25	39.345
571.59	38.940
571.92	38.767
572.26	39.053
572.60	39.159
572.93	39.220
573.27	39.160
573.61	39.922
573.95	39.302
574.28	38.317
574.62	37.366
574.96	38.017
575.29	38.215
575.63	38.821
575.97	38.037
576.30	39.697
576.64	38.716
576.98	39.037
577.31	38.147
577.65	38.436
577.98	37.535
578.32	37.669
578.66	37.589
578.99	38.051
579.33	38.368
579.67	37.947
580.00	39.103
580.34	38.420
580.67	38.029
581.01	39.105
581.35	38.699
581.68	37.642
582.02	37.765
582.35	37.432
582.69	37.275
583.02	37.393
583.36	38.644
583.70	37.937
584.03	38.662
584.37	39.657
584.70	39.159
585.04	38.478
585.37	38.281
585.71	38.816
586.04	38.246
586.38	38.532
586.72	39.133
587.05	38.142
587.39	37.916
587.72	38.882
588.06	38.447
588.39	38.903
588.73	39.161
589.06	39.545
589.40	40.135
589.73	40.549
590.07	39.395
590.40	39.861
590.73	40.749
591.07	40.944
591.40	40.784
591.74	41.645
592.07	41.143
592.41	40.843
592.74	40.225
593.08	39.507
593.41	39.323
593.75	38.351
594.08	38.552
594.41	39.272
594.75	39.593
595.08	39.764
595.42	39.475
595.75	39.209
596.09	39.805
596.42	40.079
596.75	40.988
597.09	41.255
597.42	40.304
597.75	40.103
598.09	40.609
598.42	39.905
598.76	40.049
599.09	39.301
599.42	38.755
599.76	39.092
600.09	38.543
600.42	39.627
600.76	39.500
601.09	38.506
601.42	39.688
601.76	39.203
602.09	40.237
602.42	40.008
602.76	40.185
603.09	40.126
603.42	40.141
603.76	39.405
604.09	39.395
604.42	39.217
604.76	39.772
605.09	40.280
605.42	39.504
605.75	40.522
606.09	39.366
606.42	39.477
606.75	39.320
607.09	39.389
607.42	40.137
607.75	39.156
608.08	39.470
608.42	40.789
608.75	40.307
609.08	39.917
609.41	40.362
609.75	39.828
610.08	40.057
610.41	40.037
610.74	40.208
611.07	40.711
611.41	40.236
611.74	40.372
612.07	40.890
612.40	42.183
612.73	40.421
613.07	41.864
613.40	40.021
613.73	39.906
614.06	40.215
614.39	40.535
614.72	41.211
615.06	40.861
615.39	40.340
615.72	39.775
616.05	39.660
616.38	40.245
616.71	41.211
617.05	41.461
617.38	41.251
617.71	41.622
618.04	41.346
618.37	40.923
618.70	41.755
619.03	41.842
619.36	42.702
619.69	42.958
620.03	42.582
620.36	42.380
620.69	42.397
621.02	42.478
621.35	42.208
621.68	43.458
622.01	42.879
622.34	43.041
622.67	43.878
623.00	41.526
623.33	42.030
623.66	42.244
623.99	42.268
624.32	42.368
624.65	41.455
624.99	42.351
625.32	41.999
625.65	43.125
625.98	43.582
626.31	43.624
626.64	43.429
626.97	43.558
627.30	43.641
627.63	44.135
627.96	44.743
628.29	43.657
628.62	45.380
628.95	44.906
629.28	43.613
629.61	44.730
629.94	45.524
630.26	46.139
630.59	45.186
630.92	44.636
631.25	44.817
