SpectraSuite Data File
++++++++++++++++++++++++++++++++++++
Date: Wed May 13 16:30:49 PDT 2015
User: schluterlab
Dark Spectrum Present: Yes
Reference Spectrum Present: Yes
Number of Sampled Component Spectra: 1
Spectrometers: USB2E3373
Integration Time (usec): 3000 (USB2E3373)
Spectra Averaged: 3 (USB2E3373)
Boxcar Smoothing: 0 (USB2E3373)
Correct for Electrical Dark: No (USB2E3373)
Strobe/Lamp Enabled: No (USB2E3373)
Correct for Detector Non-linearity: No (USB2E3373)
Correct for Stray Light: No (USB2E3373)
Number of Pixels in Processed Spectrum: 2048
>>>>>Begin Processed Spectral Data<<<<<
178.53	0.000
178.91	-1225.000
179.29	-1200.000
179.67	-200.000
180.04	-1100.000
180.42	1900.000
180.80	800.000
181.18	-850.000
181.56	728.571
181.94	0.000
182.31	-642.857
182.69	1566.667
183.07	-525.000
183.45	-544.444
183.83	618.182
184.20	-420.000
184.58	1850.000
184.96	4700.000
185.34	-660.000
185.72	-675.000
186.09	-2050.000
186.47	2850.000
186.85	2350.000
187.23	4600.000
187.61	-1266.667
187.98	1175.000
188.36	481.818
188.74	509.091
189.12	-840.000
189.49	530.000
189.87	-4500.000
190.25	-1000.000
190.63	385.714
191.00	400.000
191.38	850.000
191.76	-775.000
192.14	1350.000
192.51	612.500
192.89	783.333
193.27	512.500
193.65	-1125.000
194.02	490.000
194.40	800.000
194.78	450.000
195.15	458.333
195.53	490.000
195.91	-1900.000
196.29	331.250
196.66	294.737
197.04	-250.000
197.42	0.000
197.79	500.000
198.17	-5200.000
198.55	771.429
198.92	675.000
199.30	960.000
199.68	0.000
200.05	333.333
200.43	671.429
200.81	3800.000
201.18	1533.333
201.56	-1766.667
201.94	522.222
202.31	488.889
202.69	458.333
203.07	520.000
203.44	0.000
203.82	1075.000
204.19	757.143
204.57	350.000
204.95	675.000
205.32	1333.333
205.70	481.818
206.08	407.143
206.45	2300.000
206.83	325.000
207.20	800.000
207.58	740.000
207.96	294.444
208.33	700.000
208.71	-783.333
209.08	714.286
209.46	600.000
209.84	427.273
210.21	-1333.333
210.59	1175.000
210.96	-550.000
211.34	2900.000
211.71	520.000
212.09	633.333
212.46	0.000
212.84	1433.333
213.22	1300.000
213.59	-4700.000
213.97	600.000
214.34	728.571
214.72	545.455
215.09	920.000
215.47	-1800.000
215.84	-2400.000
216.22	1800.000
216.59	378.571
216.97	1175.000
217.34	427.273
217.72	-666.667
218.09	0.000
218.47	-3700.000
218.84	555.556
219.22	742.857
219.59	1433.333
219.97	-400.000
220.34	800.000
220.72	-1566.667
221.09	364.286
221.47	1475.000
221.84	-816.667
222.22	0.000
222.59	1300.000
222.97	-2800.000
223.34	900.000
223.72	346.154
224.09	1080.000
224.46	2050.000
224.84	-3300.000
225.21	-800.000
225.59	-4400.000
225.96	530.000
226.34	220.000
226.71	2650.000
227.08	587.500
227.46	550.000
227.83	-1050.000
228.21	-2100.000
228.58	522.222
228.95	-2450.000
229.33	-2550.000
229.70	1500.000
230.08	742.857
230.45	-640.000
230.82	433.333
231.20	600.000
231.57	714.286
231.95	333.333
232.32	263.636
232.69	336.364
233.07	428.571
233.44	300.000
233.81	-1233.333
234.19	252.632
234.56	400.000
234.93	366.667
235.31	400.000
235.68	300.000
236.05	314.286
236.43	145.455
236.80	273.684
237.17	3800.000
237.55	204.762
237.92	189.286
238.29	200.000
238.67	135.484
239.04	193.103
239.41	136.111
239.79	76.087
240.16	114.286
240.53	106.818
240.91	86.275
241.28	80.000
241.65	94.000
242.02	71.014
242.40	62.903
242.77	90.000
243.14	70.968
243.51	74.157
243.89	57.647
244.26	56.667
244.63	41.935
245.00	45.745
245.38	45.545
245.75	34.579
246.12	44.037
246.49	48.905
246.87	49.600
247.24	40.000
247.61	37.143
247.98	44.444
248.36	29.730
248.73	31.847
249.10	29.299
249.47	27.119
249.84	33.690
250.22	32.086
250.59	33.728
250.96	29.798
251.33	33.649
251.70	35.644
252.08	27.619
252.45	22.870
252.82	25.217
253.19	27.660
253.56	23.922
253.94	24.481
254.31	25.781
254.68	26.538
255.05	23.616
255.42	22.764
255.79	22.426
256.16	26.715
256.54	20.848
256.91	22.776
257.28	16.187
257.65	21.782
258.02	24.224
258.39	19.874
258.76	21.070
259.14	19.048
259.51	19.757
259.88	18.012
260.25	19.033
260.62	19.364
260.99	18.323
261.36	22.823
261.73	20.630
262.10	18.314
262.47	16.620
262.85	17.549
263.22	17.094
263.59	23.932
263.96	18.956
264.33	18.016
264.70	18.158
265.07	18.159
265.44	19.949
265.81	17.032
266.18	17.337
266.55	15.122
266.92	18.673
267.29	18.750
267.66	16.972
268.03	18.182
268.40	16.589
268.77	15.513
269.14	16.441
269.51	17.833
269.88	16.084
270.25	16.930
270.62	16.854
270.99	18.065
271.36	17.597
271.73	17.290
272.10	14.348
272.47	16.344
272.84	17.965
273.21	17.191
273.58	12.882
273.95	15.514
274.32	16.322
274.69	15.632
275.06	12.598
275.43	15.106
275.80	15.431
276.17	15.886
276.54	15.800
276.91	15.810
277.28	15.039
277.65	16.634
278.02	15.321
278.39	17.187
278.76	16.000
279.13	17.925
279.50	15.084
279.87	13.745
280.23	13.972
280.60	14.120
280.97	14.787
281.34	15.398
281.71	13.818
282.08	15.163
282.45	15.091
282.82	13.854
283.19	11.586
283.56	14.035
283.92	14.382
284.29	13.757
284.66	13.249
285.03	12.297
285.40	13.556
285.77	13.131
286.14	12.781
286.51	14.667
286.87	13.846
287.24	14.332
287.61	13.804
287.98	12.500
288.35	13.946
288.72	13.396
289.08	14.241
289.45	11.697
289.82	13.496
290.19	10.047
290.56	13.323
290.93	10.423
291.29	11.963
291.66	12.389
292.03	13.517
292.40	14.391
292.77	10.799
293.13	13.433
293.50	12.536
293.87	12.889
294.24	11.259
294.60	10.189
294.97	12.355
295.34	11.425
295.71	13.210
296.08	11.538
296.44	11.554
296.81	11.493
297.18	12.195
297.55	10.686
297.91	11.478
298.28	11.379
298.65	12.533
299.02	12.516
299.38	10.226
299.75	11.456
300.12	10.089
300.48	11.875
300.85	11.961
301.22	11.083
301.59	9.722
301.95	13.224
302.32	12.709
302.69	11.828
303.05	11.515
303.42	12.963
303.79	12.231
304.15	12.937
304.52	10.776
304.89	11.382
305.25	11.021
305.62	12.458
305.99	13.105
306.35	12.864
306.72	12.892
307.09	14.428
307.45	14.977
307.82	12.165
308.19	13.797
308.55	13.592
308.92	13.426
309.29	12.566
309.65	12.619
310.02	15.328
310.38	13.548
310.75	12.883
311.12	13.613
311.48	14.838
311.85	14.570
312.22	14.984
312.58	13.825
312.95	14.572
313.31	14.175
313.68	15.385
314.05	18.047
314.41	15.678
314.78	15.911
315.14	16.783
315.51	16.890
315.87	16.535
316.24	16.783
316.61	16.179
316.97	15.851
317.34	16.536
317.70	17.495
318.07	17.132
318.43	17.417
318.80	18.182
319.16	18.173
319.53	17.542
319.89	19.048
320.26	18.500
320.62	19.048
320.99	18.889
321.35	20.202
321.72	20.329
322.08	22.409
322.45	22.985
322.81	22.093
323.18	23.314
323.54	22.913
323.91	24.623
324.27	24.570
324.64	24.324
325.00	23.986
325.37	26.752
325.73	27.828
326.10	25.949
326.46	26.882
326.83	27.955
327.19	29.035
327.56	29.094
327.92	30.534
328.29	30.790
328.65	32.320
329.01	32.401
329.38	31.730
329.74	31.948
330.11	33.553
330.47	34.343
330.84	35.662
331.20	34.791
331.56	35.229
331.93	34.815
332.29	34.605
332.66	36.460
333.02	35.649
333.38	36.043
333.75	36.007
334.11	36.210
334.48	36.469
334.84	36.857
335.20	37.545
335.57	37.625
335.93	36.250
336.29	38.187
336.66	38.503
337.02	37.466
337.38	37.500
337.75	37.166
338.11	39.391
338.47	39.227
338.84	38.497
339.20	37.982
339.56	39.416
339.93	38.818
340.29	38.134
340.65	38.146
341.02	39.267
341.38	39.235
341.74	38.947
342.11	38.603
342.47	38.414
342.83	38.356
343.20	38.268
343.56	37.574
343.92	38.596
344.28	39.116
344.65	39.467
345.01	39.141
345.37	38.079
345.73	38.579
346.10	37.766
346.46	38.983
346.82	38.221
347.19	37.427
347.55	37.356
347.91	38.350
348.27	39.113
348.63	38.211
349.00	36.974
349.36	37.438
349.72	38.011
350.08	37.358
350.45	38.080
350.81	37.206
351.17	38.574
351.53	38.084
351.89	37.871
352.26	37.569
352.62	37.771
352.98	38.006
353.34	38.291
353.70	37.643
354.07	37.339
354.43	36.984
354.79	37.088
355.15	37.271
355.51	38.929
355.87	38.041
356.24	37.541
356.60	38.011
356.96	38.616
357.32	37.694
357.68	37.165
358.04	37.371
358.40	38.876
358.77	37.402
359.13	37.648
359.49	38.196
359.85	37.460
360.21	37.959
360.57	37.510
360.93	38.615
361.29	37.264
361.66	37.616
362.02	38.060
362.38	37.947
362.74	37.574
363.10	37.898
363.46	38.591
363.82	38.549
364.18	37.225
364.54	38.782
364.90	37.748
365.26	38.750
365.62	37.692
365.98	37.327
366.35	36.748
366.71	38.684
367.07	38.165
367.43	39.187
367.79	37.901
368.15	39.583
368.51	36.991
368.87	37.545
369.23	37.966
369.59	39.537
369.95	38.897
370.31	38.319
370.67	38.551
371.03	38.951
371.39	38.265
371.75	39.559
372.11	38.407
372.47	40.029
372.83	40.346
373.19	39.306
373.55	39.024
373.91	41.090
374.27	38.488
374.63	38.545
374.99	39.054
375.35	38.241
375.71	37.491
376.07	39.026
376.42	39.684
376.78	39.430
377.14	39.756
377.50	39.735
377.86	39.229
378.22	39.886
378.58	38.784
378.94	39.346
379.30	39.631
379.66	40.926
380.02	39.189
380.38	39.466
380.74	39.076
381.09	40.281
381.45	40.381
381.81	40.418
382.17	40.000
382.53	40.377
382.89	41.173
383.25	39.587
383.61	41.264
383.97	40.713
384.32	40.861
384.68	39.281
385.04	40.320
385.40	40.495
385.76	39.558
386.12	40.738
386.48	39.962
386.83	40.475
387.19	41.435
387.55	39.394
387.91	40.266
388.27	40.221
388.62	41.795
388.98	40.602
389.34	42.115
389.70	40.589
390.06	40.558
390.42	41.115
390.77	42.176
391.13	40.715
391.49	41.307
391.85	41.502
392.20	40.063
392.56	41.667
392.92	41.436
393.28	40.118
393.64	41.067
393.99	40.623
394.35	41.687
394.71	40.025
395.07	40.436
395.42	41.409
395.78	41.158
396.14	40.844
396.50	42.105
396.85	41.767
397.21	40.567
397.57	41.476
397.92	41.647
398.28	40.022
398.64	40.323
399.00	40.515
399.35	40.384
399.71	40.856
400.07	41.218
400.42	41.043
400.78	41.255
401.14	41.098
401.49	41.075
401.85	40.653
402.21	40.240
402.57	41.518
402.92	42.182
403.28	41.349
403.63	40.965
403.99	41.083
404.35	41.333
404.70	40.588
405.06	39.953
405.42	41.298
405.77	40.571
406.13	40.576
406.49	39.917
406.84	39.575
407.20	40.307
407.55	39.949
407.91	41.533
408.27	40.523
408.62	41.361
408.98	40.074
409.34	40.221
409.69	40.581
410.05	41.016
410.40	40.428
410.76	41.039
411.11	39.747
411.47	40.831
411.83	41.662
412.18	40.631
412.54	40.411
412.89	40.422
413.25	40.437
413.60	40.951
413.96	39.951
414.31	40.401
414.67	41.381
415.03	40.397
415.38	40.142
415.74	40.322
416.09	40.823
416.45	40.027
416.80	40.780
417.16	41.488
417.51	40.743
417.87	40.141
418.22	40.883
418.58	42.221
418.93	42.260
419.29	39.847
419.64	41.688
420.00	41.341
420.35	40.290
420.71	40.526
421.06	40.573
421.42	41.287
421.77	40.415
422.12	41.213
422.48	40.529
422.83	40.885
423.19	40.608
423.54	40.859
423.90	41.333
424.25	41.597
424.61	41.131
424.96	41.633
425.31	41.030
425.67	40.169
426.02	40.171
426.38	41.575
426.73	41.428
427.09	41.763
427.44	41.173
427.79	41.173
428.15	40.893
428.50	41.194
428.85	41.895
429.21	40.475
429.56	40.332
429.92	40.362
430.27	40.765
430.62	40.502
430.98	41.723
431.33	40.052
431.68	41.937
432.04	41.161
432.39	42.090
432.74	41.891
433.10	42.558
433.45	42.507
433.80	42.073
434.16	41.026
434.51	41.000
434.86	42.189
435.22	41.245
435.57	42.796
435.92	42.071
436.28	43.120
436.63	42.108
436.98	42.702
437.34	43.292
437.69	43.116
438.04	42.327
438.39	42.149
438.75	43.056
439.10	43.408
439.45	42.857
439.81	42.175
440.16	41.615
440.51	43.351
440.86	43.775
441.22	41.824
441.57	42.463
441.92	43.552
442.27	42.626
442.63	42.917
442.98	44.789
443.33	43.098
443.68	42.643
444.03	43.045
444.39	42.210
444.74	43.128
445.09	43.504
445.44	43.412
445.79	43.592
446.15	43.515
446.50	43.403
446.85	44.193
447.20	43.753
447.55	44.221
447.91	43.629
448.26	44.741
448.61	43.867
448.96	45.183
449.31	44.094
449.66	43.838
450.02	43.398
450.37	43.764
450.72	42.922
451.07	43.327
451.42	44.134
451.77	44.745
452.12	44.688
452.47	43.532
452.83	44.522
453.18	44.560
453.53	45.083
453.88	45.540
454.23	44.949
454.58	46.699
454.93	46.662
455.28	44.888
455.63	45.692
455.98	47.083
456.34	45.226
456.69	45.085
457.04	46.935
457.39	45.587
457.74	45.966
458.09	46.291
458.44	45.439
458.79	44.469
459.14	45.937
459.49	45.768
459.84	45.208
460.19	46.140
460.54	44.271
460.89	46.023
461.24	45.902
461.59	46.252
461.94	45.623
462.29	47.062
462.64	45.054
462.99	45.283
463.34	46.933
463.69	45.716
464.04	45.739
464.39	46.145
464.74	46.583
465.09	46.321
465.44	45.152
465.79	44.575
466.14	45.758
466.49	45.940
466.84	45.768
467.19	46.470
467.54	47.250
467.89	46.519
468.24	46.364
468.59	45.971
468.94	45.144
469.29	46.658
469.64	47.657
469.99	48.579
470.34	46.631
470.68	47.701
471.03	46.667
471.38	48.923
471.73	47.502
472.08	48.026
472.43	47.613
472.78	48.585
473.13	48.074
473.48	48.315
473.83	47.805
474.17	46.546
474.52	47.705
474.87	47.694
475.22	47.475
475.57	45.943
475.92	47.053
476.27	47.125
476.61	46.994
476.96	47.169
477.31	47.619
477.66	48.687
478.01	46.315
478.36	47.488
478.70	46.262
479.05	48.562
479.40	47.953
479.75	47.789
480.10	47.714
480.45	47.168
480.79	46.679
481.14	48.190
481.49	46.891
481.84	47.234
482.19	47.251
482.53	47.339
482.88	48.255
483.23	47.617
483.58	47.680
483.92	47.423
484.27	46.405
484.62	48.190
484.97	46.748
485.31	47.568
485.66	45.526
486.01	43.441
486.36	41.863
486.70	41.051
487.05	42.625
487.40	44.229
487.75	45.153
488.09	47.194
488.44	47.198
488.79	48.354
489.13	48.663
489.48	48.002
489.83	47.820
490.17	49.233
490.52	48.229
490.87	48.033
491.22	48.022
491.56	47.836
491.91	48.069
492.26	47.405
492.60	47.880
492.95	47.802
493.30	48.084
493.64	48.717
493.99	47.911
494.34	49.537
494.68	48.443
495.03	48.731
495.37	48.162
495.72	49.659
496.07	48.631
496.41	47.168
496.76	49.164
497.11	48.717
497.45	49.231
497.80	49.328
498.14	49.420
498.49	49.366
498.84	49.041
499.18	49.429
499.53	49.810
499.87	49.301
500.22	48.799
500.56	50.146
500.91	49.712
501.26	48.222
501.60	49.834
501.95	50.137
502.29	49.766
502.64	48.976
502.98	49.743
503.33	48.446
503.67	48.863
504.02	48.597
504.36	49.509
504.71	50.660
505.06	49.687
505.40	49.976
505.75	48.843
506.09	51.020
506.44	51.011
506.78	50.219
507.13	50.631
507.47	50.606
507.82	51.317
508.16	50.203
508.51	51.700
508.85	50.695
509.19	51.786
509.54	50.204
509.88	51.108
510.23	51.054
510.57	51.858
510.92	51.476
511.26	50.874
511.61	51.556
511.95	51.148
512.30	51.591
512.64	51.693
512.98	53.323
513.33	52.944
513.67	51.387
514.02	53.139
514.36	52.485
514.70	52.241
515.05	53.542
515.39	53.169
515.74	52.646
516.08	54.164
516.42	53.441
516.77	53.679
517.11	53.441
517.46	53.330
517.80	54.646
518.14	52.982
518.49	55.309
518.83	53.239
519.17	53.291
519.52	53.028
519.86	52.767
520.20	53.757
520.55	55.775
520.89	54.866
521.23	56.031
521.58	53.842
521.92	55.419
522.26	54.606
522.61	55.327
522.95	53.898
523.29	55.021
523.64	55.122
523.98	55.145
524.32	54.403
524.66	55.502
525.01	55.944
525.35	54.709
525.69	54.372
526.04	56.012
526.38	55.095
526.72	55.092
527.06	55.744
527.41	53.837
527.75	57.235
528.09	56.005
528.43	56.342
528.78	54.886
529.12	54.788
529.46	55.726
529.80	56.559
530.15	55.950
530.49	54.400
530.83	56.709
531.17	56.919
531.51	57.977
531.86	55.677
532.20	57.366
532.54	57.079
532.88	56.675
533.22	55.215
533.57	55.864
533.91	55.328
534.25	55.407
534.59	56.254
534.93	54.610
535.27	54.375
535.62	55.067
535.96	57.564
536.30	56.453
536.64	56.536
536.98	57.996
537.32	57.209
537.66	57.000
538.01	57.011
538.35	56.173
538.69	57.307
539.03	55.621
539.37	55.463
539.71	55.023
540.05	56.928
540.39	56.080
540.73	55.498
541.07	56.652
541.42	56.621
541.76	55.935
542.10	56.533
542.44	55.497
542.78	57.378
543.12	54.255
543.46	57.508
543.80	56.018
544.14	55.584
544.48	56.635
544.82	56.960
545.16	57.124
545.50	55.141
545.84	56.452
546.18	58.182
546.52	58.018
546.86	58.900
547.20	56.979
547.54	55.912
547.88	56.186
548.22	56.164
548.56	55.723
548.90	54.802
549.24	57.643
549.58	58.186
549.92	58.310
550.26	59.375
550.60	57.815
550.94	57.817
551.28	56.693
551.62	57.153
551.96	57.474
552.30	58.225
552.64	56.592
552.98	57.559
553.32	57.519
553.66	57.260
554.00	58.614
554.34	57.143
554.68	57.582
555.02	57.757
555.36	57.342
555.69	56.901
556.03	56.595
556.37	57.503
556.71	57.503
557.05	57.423
557.39	58.083
557.73	58.292
558.07	60.261
558.41	56.802
558.75	58.413
559.08	60.999
559.42	60.469
559.76	58.971
560.10	57.316
560.44	58.141
560.78	57.884
561.12	57.190
561.45	56.584
561.79	57.350
562.13	57.881
562.47	58.333
562.81	59.414
563.15	56.789
563.48	57.891
563.82	57.404
564.16	57.489
564.50	57.943
564.84	56.258
565.17	57.529
565.51	57.061
565.85	57.297
566.19	57.044
566.52	58.391
566.86	56.902
567.20	57.075
567.54	56.164
567.88	55.459
568.21	55.556
568.55	55.410
568.89	55.107
569.23	53.610
569.56	53.198
569.90	52.642
570.24	51.561
570.57	51.479
570.91	50.032
571.25	50.618
571.59	50.486
571.92	50.403
572.26	50.607
572.60	50.781
572.93	50.495
573.27	51.582
573.61	50.475
573.95	50.749
574.28	49.749
574.62	49.320
574.96	49.008
575.29	49.539
575.63	49.670
575.97	49.883
576.30	50.372
576.64	49.760
576.98	50.000
577.31	49.677
577.65	49.924
577.98	49.819
578.32	48.471
578.66	49.413
578.99	49.372
579.33	49.359
579.67	50.012
580.00	50.300
580.34	50.878
580.67	50.579
581.01	50.641
581.35	49.192
581.68	49.600
582.02	48.312
582.35	48.843
582.69	49.308
583.02	49.676
583.36	50.634
583.70	50.874
584.03	50.862
584.37	51.831
584.70	52.038
585.04	51.101
585.37	50.256
585.71	50.587
586.04	49.843
586.38	51.411
586.72	51.422
587.05	50.801
587.39	50.633
587.72	51.147
588.06	51.547
588.39	51.660
588.73	51.569
589.06	52.446
589.40	53.367
589.73	53.678
590.07	52.669
590.40	53.635
590.73	54.020
591.07	54.660
591.40	54.407
591.74	55.281
592.07	54.058
592.41	54.113
592.74	53.296
593.08	52.099
593.41	51.914
593.75	50.062
594.08	51.626
594.41	52.563
594.75	53.013
595.08	52.827
595.42	52.995
595.75	52.920
596.09	53.248
596.42	54.381
596.75	54.116
597.09	55.022
597.42	53.078
597.75	54.722
598.09	54.087
598.42	53.995
598.76	53.344
599.09	53.250
599.42	52.147
599.76	52.672
600.09	52.969
600.42	52.630
600.76	52.214
601.09	52.095
601.42	52.854
601.76	52.751
602.09	54.150
602.42	54.618
602.76	55.623
603.09	53.816
603.42	53.846
603.76	53.354
604.09	53.276
604.42	54.138
604.76	54.914
605.09	55.090
605.42	54.126
605.75	53.560
606.09	53.640
606.42	54.924
606.75	53.671
607.09	54.542
607.42	54.643
607.75	55.021
608.08	54.494
608.42	53.967
608.75	54.644
609.08	54.348
609.41	54.926
609.75	54.979
610.08	56.503
610.41	54.330
610.74	56.197
611.07	55.830
611.41	57.262
611.74	57.014
612.07	57.816
612.40	57.555
612.73	56.158
613.07	56.843
613.40	56.451
613.73	56.162
614.06	56.237
614.39	57.053
614.72	56.211
615.06	56.618
615.39	57.006
615.72	55.061
616.05	55.662
616.38	56.865
616.71	58.135
617.05	57.833
617.38	58.208
617.71	59.219
618.04	58.233
618.37	57.599
618.70	58.183
619.03	60.066
619.36	60.149
619.69	60.563
620.03	60.508
620.36	60.294
620.69	61.644
621.02	61.799
621.35	61.002
621.68	61.526
622.01	62.307
622.34	63.238
622.67	62.129
623.00	60.455
623.33	58.899
623.66	61.330
623.99	61.782
624.32	59.629
624.65	59.675
624.99	60.269
625.32	61.188
625.65	61.082
625.98	61.875
626.31	61.431
626.64	63.918
626.97	61.845
627.30	64.256
627.63	62.756
627.96	64.508
628.29	65.267
628.62	63.861
628.95	66.038
629.28	64.599
629.61	65.445
629.94	68.571
630.26	65.205
630.59	65.872
630.92	64.847
631.25	64.956
