SpectraSuite Data File
++++++++++++++++++++++++++++++++++++
Date: Wed May 13 16:19:40 PDT 2015
User: schluterlab
Dark Spectrum Present: Yes
Reference Spectrum Present: Yes
Number of Sampled Component Spectra: 1
Spectrometers: USB2E3373
Integration Time (usec): 3000 (USB2E3373)
Spectra Averaged: 3 (USB2E3373)
Boxcar Smoothing: 0 (USB2E3373)
Correct for Electrical Dark: No (USB2E3373)
Strobe/Lamp Enabled: No (USB2E3373)
Correct for Detector Non-linearity: No (USB2E3373)
Correct for Stray Light: No (USB2E3373)
Number of Pixels in Processed Spectrum: 2048
>>>>>Begin Processed Spectral Data<<<<<
178.53	0.000
178.91	-1125.000
179.29	-1050.000
179.67	-177.778
180.04	-1250.000
180.42	2150.000
180.80	800.000
181.18	-950.000
181.56	600.000
181.94	0.000
182.31	-471.429
182.69	1300.000
183.07	-487.500
183.45	-344.444
183.83	490.909
184.20	-390.000
184.58	2600.000
184.96	5000.000
185.34	-840.000
185.72	-450.000
186.09	-2000.000
186.47	2150.000
186.85	2200.000
187.23	3900.000
187.61	-1233.333
187.98	1050.000
188.36	454.545
188.74	490.909
189.12	-720.000
189.49	460.000
189.87	-4200.000
190.25	-1050.000
190.63	421.429
191.00	423.077
191.38	833.333
191.76	-1050.000
192.14	1225.000
192.51	575.000
192.89	750.000
193.27	500.000
193.65	-950.000
194.02	520.000
194.40	720.000
194.78	520.000
195.15	375.000
195.53	480.000
195.91	-2050.000
196.29	300.000
196.66	289.474
197.04	-340.000
197.42	0.000
197.79	460.000
198.17	-4500.000
198.55	628.571
198.92	675.000
199.30	760.000
199.68	0.000
200.05	288.889
200.43	728.571
200.81	3700.000
201.18	1400.000
201.56	-1133.333
201.94	488.889
202.31	511.111
202.69	366.667
203.07	580.000
203.44	0.000
203.82	1075.000
204.19	628.571
204.57	364.286
204.95	625.000
205.32	1066.667
205.70	518.182
206.08	292.857
206.45	1950.000
206.83	312.500
207.20	783.333
207.58	760.000
207.96	283.333
208.33	625.000
208.71	-683.333
209.08	728.571
209.46	600.000
209.84	390.909
210.21	-1366.667
210.59	1300.000
210.96	-500.000
211.34	2300.000
211.71	550.000
212.09	650.000
212.46	0.000
212.84	1366.667
213.22	975.000
213.59	-4100.000
213.97	700.000
214.34	614.286
214.72	500.000
215.09	900.000
215.47	-1850.000
215.84	-1950.000
216.22	1400.000
216.59	321.429
216.97	1100.000
217.34	463.636
217.72	-583.333
218.09	0.000
218.47	-4900.000
218.84	555.556
219.22	600.000
219.59	1666.667
219.97	-585.714
220.34	880.000
220.72	-1866.667
221.09	314.286
221.47	1375.000
221.84	-866.667
222.22	0.000
222.59	1125.000
222.97	-2000.000
223.34	820.000
223.72	384.615
224.09	1000.000
224.46	2050.000
224.84	-4000.000
225.21	-1020.000
225.59	-4000.000
225.96	550.000
226.34	255.000
226.71	2450.000
227.08	537.500
227.46	430.000
227.83	-700.000
228.21	-1700.000
228.58	466.667
228.95	-2350.000
229.33	-1950.000
229.70	1366.667
230.08	700.000
230.45	-700.000
230.82	400.000
231.20	566.667
231.57	528.571
231.95	458.333
232.32	200.000
232.69	300.000
233.07	642.857
233.44	276.923
233.81	-1800.000
234.19	278.947
234.56	383.333
234.93	358.333
235.31	390.909
235.68	284.615
236.05	257.143
236.43	160.606
236.80	210.526
237.17	3300.000
237.55	166.667
237.92	157.143
238.29	242.857
238.67	145.161
239.04	165.517
239.41	127.778
239.79	80.435
240.16	119.048
240.53	125.000
240.91	94.118
241.28	70.000
241.65	96.000
242.02	86.957
242.40	80.645
242.77	73.333
243.14	58.065
243.51	65.169
243.89	48.235
244.26	42.222
244.63	52.688
245.00	45.745
245.38	51.485
245.75	51.402
246.12	33.945
246.49	51.825
246.87	56.800
247.24	44.615
247.61	49.286
247.98	43.791
248.36	33.784
248.73	39.490
249.10	38.217
249.47	33.333
249.84	37.968
250.22	34.759
250.59	36.095
250.96	30.808
251.33	32.701
251.70	34.653
252.08	31.905
252.45	27.354
252.82	29.565
253.19	29.787
253.56	31.765
253.94	33.610
254.31	27.734
254.68	28.462
255.05	30.627
255.42	27.236
255.79	25.000
256.16	24.188
256.54	22.261
256.91	27.046
257.28	23.022
257.65	24.422
258.02	28.571
258.39	24.290
258.76	25.418
259.14	23.512
259.51	26.140
259.88	23.602
260.25	23.867
260.62	21.965
260.99	20.186
261.36	23.123
261.73	19.771
262.10	21.221
262.47	22.817
262.85	21.727
263.22	19.943
263.59	23.932
263.96	20.055
264.33	21.671
264.70	21.316
265.07	20.716
265.44	20.707
265.81	17.762
266.18	19.095
266.55	21.220
266.92	20.393
267.29	20.602
267.66	21.101
268.03	22.273
268.40	19.159
268.77	15.513
269.14	18.243
269.51	21.445
269.88	20.746
270.25	19.413
270.62	18.876
270.99	20.430
271.36	19.528
271.73	18.925
272.10	19.130
272.47	21.290
272.84	17.100
273.21	20.755
273.58	21.834
273.95	19.078
274.32	16.529
274.69	19.486
275.06	18.504
275.43	19.574
275.80	18.437
276.17	17.719
276.54	18.711
276.91	18.775
277.28	17.383
277.65	18.762
278.02	18.427
278.39	18.555
278.76	17.636
279.13	21.509
279.50	19.367
279.87	18.327
280.23	17.964
280.60	15.280
280.97	17.745
281.34	18.407
281.71	19.636
282.08	18.426
282.45	16.000
282.82	18.295
283.19	15.686
283.56	15.439
283.92	17.766
284.29	15.520
284.66	17.241
285.03	16.456
285.40	15.669
285.77	15.825
286.14	15.026
286.51	17.167
286.87	15.897
287.24	16.287
287.61	15.088
287.98	17.532
288.35	15.372
288.72	16.667
289.08	16.275
289.45	15.980
289.82	16.098
290.19	15.699
290.56	17.152
290.93	12.689
291.29	14.110
291.66	14.897
292.03	18.023
292.40	17.181
292.77	15.385
293.13	14.776
293.50	14.723
293.87	14.667
294.24	12.889
294.60	13.683
294.97	14.535
295.34	15.092
295.71	15.625
296.08	14.103
296.44	13.343
296.81	13.474
297.18	15.989
297.55	11.873
297.91	13.193
298.28	15.127
298.65	14.621
299.02	14.097
299.38	12.882
299.75	11.186
300.12	12.261
300.48	13.750
300.85	12.947
301.22	12.484
301.59	11.742
301.95	13.224
302.32	13.992
302.69	14.337
303.05	11.636
303.42	12.840
303.79	12.911
304.15	12.704
304.52	12.514
304.89	12.544
305.25	12.761
305.62	14.270
305.99	14.404
306.35	12.752
306.72	12.332
307.09	14.539
307.45	13.288
307.82	11.049
308.19	13.024
308.55	13.916
308.92	13.856
309.29	12.249
309.65	11.029
310.02	12.474
310.38	12.043
310.75	13.411
311.12	12.794
311.48	12.435
311.85	12.998
312.22	13.111
312.58	11.850
312.95	13.094
313.31	12.427
313.68	13.929
314.05	15.286
314.41	12.764
314.78	12.487
315.14	13.307
315.51	14.109
315.87	13.762
316.24	13.704
316.61	12.086
316.97	12.622
317.34	11.937
317.70	12.620
318.07	12.993
318.43	13.699
318.80	13.215
319.16	13.842
319.53	12.758
319.89	13.619
320.26	14.400
320.62	13.194
320.99	13.939
321.35	13.333
321.72	13.963
322.08	14.116
322.45	14.527
322.81	15.116
323.18	14.933
323.54	14.842
323.91	14.717
324.27	14.532
324.64	13.234
325.00	12.444
325.37	14.013
325.73	15.260
326.10	14.298
326.46	13.978
326.83	14.409
327.19	14.091
327.56	12.979
327.92	14.873
328.29	15.439
328.65	14.825
329.01	14.711
329.38	14.339
329.74	14.866
330.11	13.949
330.47	14.509
330.84	14.154
331.20	14.572
331.56	13.945
331.93	13.148
332.29	14.907
332.66	14.248
333.02	14.351
333.38	14.815
333.75	15.152
334.11	13.701
334.48	13.753
334.84	14.338
335.20	14.182
335.57	14.053
335.93	13.661
336.29	12.912
336.66	14.067
337.02	14.842
337.38	14.444
337.75	13.458
338.11	13.608
338.47	12.615
338.84	14.940
339.20	14.037
339.56	14.599
339.93	13.273
340.29	12.772
340.65	13.725
341.02	13.176
341.38	14.057
341.74	12.895
342.11	13.799
342.47	13.921
342.83	13.699
343.20	14.978
343.56	13.142
343.92	13.947
344.28	13.690
344.65	13.844
345.01	13.636
345.37	12.693
345.73	13.198
346.10	13.640
346.46	13.305
346.82	13.756
347.19	12.448
347.55	13.383
347.91	13.026
348.27	13.722
348.63	13.378
349.00	13.592
349.36	13.218
349.72	13.633
350.08	13.047
350.45	14.809
350.81	12.510
351.17	12.480
351.53	12.858
351.89	12.954
352.26	13.575
352.62	13.553
352.98	14.019
353.34	13.311
353.70	12.357
354.07	13.548
354.43	12.857
354.79	11.987
355.15	12.291
355.51	13.429
355.87	13.714
356.24	13.599
356.60	12.350
356.96	13.596
357.32	13.900
357.68	13.386
358.04	13.856
358.40	13.302
358.77	14.085
359.13	12.786
359.49	12.000
359.85	11.349
360.21	13.317
360.57	13.930
360.93	12.846
361.29	12.245
361.66	13.003
362.02	13.358
362.38	13.232
362.74	13.467
363.10	12.509
363.46	12.179
363.82	13.001
364.18	12.628
364.54	13.819
364.90	13.314
365.26	11.985
365.62	13.221
365.98	13.002
366.35	12.536
366.71	12.871
367.07	12.382
367.43	12.409
367.79	12.991
368.15	13.865
368.51	12.645
368.87	13.419
369.23	12.875
369.59	12.527
369.95	12.647
370.31	13.319
370.67	13.478
371.03	14.157
371.39	13.192
371.75	13.382
372.11	12.873
372.47	14.003
372.83	14.337
373.19	12.717
373.55	13.156
373.91	14.433
374.27	13.058
374.63	12.945
374.99	14.336
375.35	13.329
375.71	13.023
376.07	14.540
376.42	13.755
376.78	14.049
377.14	14.247
377.50	13.907
377.86	13.431
378.22	13.906
378.58	13.033
378.94	12.885
379.30	13.422
379.66	13.452
380.02	14.619
380.38	13.175
380.74	14.706
381.09	13.447
381.45	14.935
381.81	14.251
382.17	14.331
382.53	14.277
382.89	15.247
383.25	13.946
383.61	14.808
383.97	15.385
384.32	14.473
384.68	14.250
385.04	14.014
385.40	14.241
385.76	15.479
386.12	14.119
386.48	14.097
386.83	15.330
387.19	15.399
387.55	15.152
387.91	14.994
388.27	14.470
388.62	15.120
388.98	14.251
389.34	16.145
389.70	14.960
390.06	15.463
390.42	15.305
390.77	15.076
391.13	15.571
391.49	15.482
391.85	14.768
392.20	14.448
392.56	15.215
392.92	15.303
393.28	14.852
393.64	15.468
393.99	15.638
394.35	15.509
394.71	16.060
395.07	14.517
395.42	14.710
395.78	14.885
396.14	15.394
396.50	15.602
396.85	16.338
397.21	15.475
397.57	15.437
397.92	15.204
398.28	14.350
398.64	15.890
399.00	15.949
399.35	15.116
399.71	14.815
400.07	15.612
400.42	15.276
400.78	16.707
401.14	15.793
401.49	15.701
401.85	14.701
402.21	14.671
402.57	14.621
402.92	15.448
403.28	15.116
403.63	14.913
403.99	14.713
404.35	14.848
404.70	14.269
405.06	14.910
405.42	15.471
405.77	14.743
406.13	14.616
406.49	15.612
406.84	15.003
407.20	14.953
407.55	15.699
407.91	15.133
408.27	15.507
408.62	15.713
408.98	15.441
409.34	15.560
409.69	16.000
410.05	15.675
410.40	14.373
410.76	14.934
411.11	13.993
411.47	14.121
411.83	15.761
412.18	14.719
412.54	14.944
412.89	15.241
413.25	14.876
413.60	15.565
413.96	15.301
414.31	15.614
414.67	15.019
415.03	15.298
415.38	15.528
415.74	14.469
416.09	15.741
416.45	15.328
416.80	14.673
417.16	15.818
417.51	15.328
417.87	15.350
418.22	15.457
418.58	15.494
418.93	15.356
419.29	16.104
419.64	14.861
420.00	16.037
420.35	15.362
420.71	15.780
421.06	15.334
421.42	14.678
421.77	15.807
422.12	14.262
422.48	14.679
422.83	14.910
423.19	15.138
423.54	15.032
423.90	15.536
424.25	15.522
424.61	15.298
424.96	15.510
425.31	15.338
425.67	14.944
426.02	14.629
426.38	14.835
426.73	15.389
427.09	15.441
427.44	15.124
427.79	14.549
428.15	15.238
428.50	15.155
428.85	15.435
429.21	14.854
429.56	14.308
429.92	14.947
430.27	14.052
430.62	14.849
430.98	14.686
431.33	14.021
431.68	15.131
432.04	14.483
432.39	14.335
432.74	15.260
433.10	15.620
433.45	15.452
433.80	15.133
434.16	15.224
434.51	14.632
434.86	14.994
435.22	15.008
435.57	14.772
435.92	14.804
436.28	15.836
436.63	15.949
436.98	14.482
437.34	15.146
437.69	15.694
438.04	14.896
438.39	15.224
438.75	15.398
439.10	14.693
439.45	15.289
439.81	14.743
440.16	14.794
440.51	15.876
440.86	16.271
441.22	15.517
441.57	15.127
441.92	15.302
442.27	15.178
442.63	14.271
442.98	15.324
443.33	14.783
443.68	14.868
444.03	14.934
444.39	14.265
444.74	14.610
445.09	15.364
445.44	15.309
445.79	14.448
446.15	14.929
446.50	14.486
446.85	15.262
447.20	15.196
447.55	15.020
447.91	15.058
448.26	14.858
448.61	14.698
448.96	15.172
449.31	14.848
449.66	15.644
450.02	15.042
450.37	14.739
450.72	15.059
451.07	15.296
451.42	14.468
451.77	16.383
452.12	14.954
452.47	15.174
452.83	15.152
453.18	15.159
453.53	15.275
453.88	15.475
454.23	15.481
454.58	15.142
454.93	16.592
455.28	15.150
455.63	14.624
455.98	15.714
456.34	15.075
456.69	15.780
457.04	15.418
457.39	14.553
457.74	15.206
458.09	15.641
458.44	14.880
458.79	13.503
459.14	15.463
459.49	15.003
459.84	14.626
460.19	15.203
460.54	14.931
460.89	14.756
461.24	15.847
461.59	15.863
461.94	14.427
462.29	16.142
462.64	15.188
462.99	15.094
463.34	16.533
463.69	15.385
464.04	16.058
464.39	15.536
464.74	15.270
465.09	14.897
465.44	15.014
465.79	14.653
466.14	14.997
466.49	14.794
466.84	16.287
467.19	14.967
467.54	16.188
467.89	14.766
468.24	15.241
468.59	15.568
468.94	14.600
469.29	15.874
469.64	16.265
469.99	15.562
470.34	15.852
470.68	15.876
471.03	15.034
471.38	16.261
471.73	16.056
472.08	15.921
472.43	15.641
472.78	15.405
473.13	15.533
473.48	15.231
473.83	14.939
474.17	14.748
474.52	15.881
474.87	16.229
475.22	15.786
475.57	14.293
475.92	14.923
476.27	14.994
476.61	15.389
476.96	14.623
477.31	14.547
477.66	15.427
478.01	15.473
478.36	15.494
478.70	15.109
479.05	15.016
479.40	14.790
479.75	15.506
480.10	14.612
480.45	14.660
480.79	14.286
481.14	15.264
481.49	15.520
481.84	14.678
482.19	14.221
482.53	15.000
482.88	14.705
483.23	14.720
483.58	15.105
483.92	15.183
484.27	14.031
484.62	14.655
484.97	14.111
485.31	14.315
485.66	13.274
486.01	12.528
486.36	11.859
486.70	11.420
487.05	12.427
487.40	12.998
487.75	13.198
488.09	14.104
488.44	14.343
488.79	14.684
489.13	14.782
489.48	15.049
489.83	14.502
490.17	14.950
490.52	15.013
490.87	14.337
491.22	14.825
491.56	14.351
491.91	14.611
492.26	14.699
492.60	14.747
492.95	14.172
493.30	14.953
493.64	14.652
493.99	14.438
494.34	14.847
494.68	14.881
495.03	15.789
495.37	15.216
495.72	14.815
496.07	15.638
496.41	14.469
496.76	14.512
497.11	14.003
497.45	15.044
497.80	14.731
498.14	14.155
498.49	14.732
498.84	15.340
499.18	15.048
499.53	14.957
499.87	14.678
500.22	14.885
500.56	15.777
500.91	14.856
501.26	14.367
501.60	15.093
501.95	14.528
502.29	14.574
502.64	14.804
502.98	14.633
503.33	14.442
503.67	14.988
504.02	14.733
504.36	15.208
504.71	15.779
505.06	14.843
505.40	14.730
505.75	14.658
506.09	14.577
506.44	14.702
506.78	15.197
507.13	15.346
507.47	15.404
507.82	15.552
508.16	15.400
508.51	15.576
508.85	15.194
509.19	15.102
509.54	15.510
509.88	15.198
510.23	14.961
510.57	15.789
510.92	15.432
511.26	15.057
511.61	14.834
511.95	14.823
512.30	15.111
512.64	15.046
512.98	16.024
513.33	16.006
513.67	15.208
514.02	15.476
514.36	15.456
514.70	16.159
515.05	15.059
515.39	16.882
515.74	16.554
516.08	16.322
516.42	15.982
516.77	16.221
517.11	14.983
517.46	16.253
517.80	15.796
518.14	15.866
518.49	16.161
518.83	16.023
519.17	15.935
519.52	15.110
519.86	16.486
520.20	16.879
520.55	17.475
520.89	16.667
521.23	16.888
521.58	16.867
521.92	16.473
522.26	15.924
522.61	16.822
522.95	16.390
523.29	17.346
523.64	15.915
523.98	16.143
524.32	15.983
524.66	17.078
525.01	17.096
525.35	16.295
525.69	16.195
526.04	16.885
526.38	17.023
526.72	16.442
527.06	16.698
527.41	14.913
527.75	17.042
528.09	16.313
528.43	17.527
528.78	16.964
529.12	16.121
529.46	16.534
529.80	16.337
530.15	16.636
530.49	16.862
530.83	16.835
531.17	17.363
531.51	16.926
531.86	16.968
532.20	17.340
532.54	16.784
532.88	17.715
533.22	16.177
533.57	16.852
533.91	16.737
534.25	16.464
534.59	16.412
534.93	16.181
535.27	15.812
535.62	16.422
535.96	16.259
536.30	16.529
536.64	17.386
536.98	16.656
537.32	16.458
537.66	17.333
538.01	16.919
538.35	17.195
538.69	16.911
539.03	15.660
539.37	16.102
539.71	15.424
540.05	16.405
540.39	16.678
540.73	16.494
541.07	17.197
541.42	16.960
541.76	17.097
542.10	17.917
542.44	17.483
542.78	17.325
543.12	16.379
543.46	16.656
543.80	16.656
544.14	15.725
544.48	16.127
544.82	16.100
545.16	16.656
545.50	16.260
545.84	16.599
546.18	16.633
546.52	17.343
546.86	17.045
547.20	17.532
547.54	17.368
547.88	16.964
548.22	16.563
548.56	15.283
548.90	16.133
549.24	15.825
549.58	16.439
549.92	16.896
550.26	15.767
550.60	16.943
550.94	17.042
551.28	16.240
551.62	18.188
551.96	16.772
552.30	16.246
552.64	17.512
552.98	17.356
553.32	16.318
553.66	17.178
554.00	17.982
554.34	15.528
554.68	17.954
555.02	16.643
555.36	16.771
555.69	16.712
556.03	16.285
556.37	16.303
556.71	17.053
557.05	16.807
557.39	17.075
557.73	16.655
558.07	16.824
558.41	17.149
558.75	17.267
559.08	17.450
559.42	17.914
559.76	18.529
560.10	17.916
560.44	16.841
560.78	16.301
561.12	17.150
561.45	17.145
561.79	16.546
562.13	17.036
562.47	17.077
562.81	16.667
563.15	16.455
563.48	16.910
563.82	16.634
564.16	16.547
564.50	15.365
564.84	16.308
565.17	15.380
565.51	16.997
565.85	15.926
566.19	15.466
566.52	16.276
566.86	15.732
567.20	16.568
567.54	16.096
567.88	15.318
568.21	16.561
568.55	15.420
568.89	14.397
569.23	15.018
569.56	14.453
569.90	13.925
570.24	14.065
570.57	13.465
570.91	13.413
571.25	13.125
571.59	13.814
571.92	13.220
572.26	13.460
572.60	13.724
572.93	13.673
573.27	13.753
573.61	13.707
573.95	13.282
574.28	12.714
574.62	12.804
574.96	12.545
575.29	12.609
575.63	13.161
575.97	12.809
576.30	13.117
576.64	13.065
576.98	13.272
577.31	13.031
577.65	13.116
577.98	12.364
578.32	11.994
578.66	12.621
578.99	12.737
579.33	12.830
579.67	12.990
580.00	12.851
580.34	13.384
580.67	13.259
581.01	13.222
581.35	12.559
581.68	12.535
582.02	12.209
582.35	12.604
582.69	12.412
583.02	12.367
583.36	13.258
583.70	13.636
584.03	13.689
584.37	13.597
584.70	13.349
585.04	13.454
585.37	13.420
585.71	12.899
586.04	13.047
586.38	13.114
586.72	13.422
587.05	13.121
587.39	12.850
587.72	13.347
588.06	12.887
588.39	13.224
588.73	13.288
589.06	13.961
589.40	14.209
589.73	13.340
590.07	13.950
590.40	13.920
590.73	14.793
591.07	15.100
591.40	14.762
591.74	14.675
592.07	14.485
592.41	14.303
592.74	13.708
593.08	13.757
593.41	13.255
593.75	13.023
594.08	13.745
594.41	13.680
594.75	13.678
595.08	13.672
595.42	13.555
595.75	13.853
596.09	14.608
596.42	14.695
596.75	14.268
597.09	15.152
597.42	13.533
597.75	14.834
598.09	14.304
598.42	14.089
598.76	13.863
599.09	13.645
599.42	13.173
599.76	13.982
600.09	13.370
600.42	13.440
600.76	13.714
601.09	13.625
601.42	13.508
601.76	13.852
602.09	14.348
602.42	14.132
602.76	14.349
603.09	14.083
603.42	14.057
603.76	13.796
604.09	13.494
604.42	13.983
604.76	14.888
605.09	14.111
605.42	13.938
605.75	14.487
606.09	14.233
606.42	13.649
606.75	14.268
607.09	14.274
607.42	13.992
607.75	13.291
608.08	13.938
608.42	14.926
608.75	14.202
609.08	14.061
609.41	14.850
609.75	14.626
610.08	14.844
610.41	13.734
610.74	14.096
611.07	14.625
611.41	14.426
611.74	15.184
612.07	14.648
612.40	15.268
612.73	15.421
613.07	15.140
613.40	14.639
613.73	14.683
614.06	14.516
614.39	14.683
614.72	15.053
615.06	14.443
615.39	14.013
615.72	15.082
616.05	13.876
616.38	15.175
616.71	15.439
617.05	15.018
617.38	15.093
617.71	15.495
618.04	15.925
618.37	15.376
618.70	15.059
619.03	15.855
619.36	14.868
619.69	15.423
620.03	17.170
620.36	16.310
620.69	16.096
621.02	16.888
621.35	15.740
621.68	16.044
622.01	16.254
622.34	16.112
622.67	16.578
623.00	16.288
623.33	16.297
623.66	15.440
623.99	17.084
624.32	15.478
624.65	15.325
624.99	15.793
625.32	15.568
625.65	15.928
625.98	16.910
626.31	17.885
626.64	17.224
626.97	17.290
627.30	16.376
627.63	17.637
627.96	17.830
628.29	17.585
628.62	19.122
628.95	18.585
629.28	18.157
629.61	18.332
629.94	17.333
630.26	17.827
630.59	17.350
630.92	17.529
631.25	17.177
