SpectraSuite Data File
++++++++++++++++++++++++++++++++++++
Date: Wed May 13 16:00:22 PDT 2015
User: schluterlab
Dark Spectrum Present: Yes
Reference Spectrum Present: Yes
Number of Sampled Component Spectra: 1
Spectrometers: USB2E3373
Integration Time (usec): 3000 (USB2E3373)
Spectra Averaged: 3 (USB2E3373)
Boxcar Smoothing: 0 (USB2E3373)
Correct for Electrical Dark: No (USB2E3373)
Strobe/Lamp Enabled: No (USB2E3373)
Correct for Detector Non-linearity: No (USB2E3373)
Correct for Stray Light: No (USB2E3373)
Number of Pixels in Processed Spectrum: 2048
>>>>>Begin Processed Spectral Data<<<<<
178.53	0.000
178.91	-375.000
179.29	-375.000
179.67	-22.222
180.04	-525.000
180.42	1050.000
180.80	260.000
181.18	-100.000
181.56	185.714
181.94	0.000
182.31	-228.571
182.69	266.667
183.07	-100.000
183.45	-111.111
183.83	227.273
184.20	-20.000
184.58	550.000
184.96	1800.000
185.34	-380.000
185.72	-87.500
186.09	-450.000
186.47	900.000
186.85	600.000
187.23	2000.000
187.61	-0.000
187.98	400.000
188.36	209.091
188.74	218.182
189.12	-180.000
189.49	210.000
189.87	-900.000
190.25	-450.000
190.63	235.714
191.00	153.846
191.38	366.667
191.76	-50.000
192.14	400.000
192.51	250.000
192.89	516.667
193.27	162.500
193.65	-275.000
194.02	170.000
194.40	100.000
194.78	160.000
195.15	150.000
195.53	200.000
195.91	-0.000
196.29	162.500
196.66	100.000
197.04	-40.000
197.42	0.000
197.79	240.000
198.17	-2000.000
198.55	57.143
198.92	250.000
199.30	200.000
199.68	0.000
200.05	133.333
200.43	242.857
200.81	600.000
201.18	533.333
201.56	-433.333
201.94	155.556
202.31	133.333
202.69	108.333
203.07	210.000
203.44	0.000
203.82	250.000
204.19	257.143
204.57	150.000
204.95	175.000
205.32	266.667
205.70	181.818
206.08	164.286
206.45	1050.000
206.83	100.000
207.20	266.667
207.58	240.000
207.96	94.444
208.33	287.500
208.71	-283.333
209.08	257.143
209.46	155.556
209.84	236.364
210.21	-66.667
210.59	275.000
210.96	-100.000
211.34	800.000
211.71	230.000
212.09	150.000
212.46	0.000
212.84	400.000
213.22	500.000
213.59	-500.000
213.97	50.000
214.34	314.286
214.72	227.273
215.09	420.000
215.47	-550.000
215.84	-900.000
216.22	500.000
216.59	164.286
216.97	450.000
217.34	54.545
217.72	-166.667
218.09	0.000
218.47	-1800.000
218.84	166.667
219.22	171.429
219.59	266.667
219.97	-114.286
220.34	160.000
220.72	-666.667
221.09	150.000
221.47	375.000
221.84	-200.000
222.22	0.000
222.59	450.000
222.97	-400.000
223.34	200.000
223.72	153.846
224.09	400.000
224.46	600.000
224.84	-200.000
225.21	-240.000
225.59	-600.000
225.96	180.000
226.34	105.000
226.71	500.000
227.08	262.500
227.46	200.000
227.83	-275.000
228.21	-400.000
228.58	166.667
228.95	-700.000
229.33	-700.000
229.70	266.667
230.08	142.857
230.45	-200.000
230.82	75.000
231.20	266.667
231.57	214.286
231.95	175.000
232.32	50.000
232.69	81.818
233.07	42.857
233.44	69.231
233.81	-366.667
234.19	178.947
234.56	75.000
234.93	16.667
235.31	118.182
235.68	7.692
236.05	78.571
236.43	81.818
236.80	68.421
237.17	1300.000
237.55	47.619
237.92	82.143
238.29	71.429
238.67	83.871
239.04	82.759
239.41	27.778
239.79	47.826
240.16	42.857
240.53	52.273
240.91	31.373
241.28	28.000
241.65	18.000
242.02	34.783
242.40	25.806
242.77	38.333
243.14	35.484
243.51	35.955
243.89	17.647
244.26	28.889
244.63	25.806
245.00	24.468
245.38	23.762
245.75	23.364
246.12	22.018
246.49	29.927
246.87	40.000
247.24	29.231
247.61	22.143
247.98	30.065
248.36	16.216
248.73	23.567
249.10	28.025
249.47	18.079
249.84	25.134
250.22	21.390
250.59	20.118
250.96	23.737
251.33	24.645
251.70	21.287
252.08	25.238
252.45	21.973
252.82	24.348
253.19	22.128
253.56	24.314
253.94	19.917
254.31	26.172
254.68	23.077
255.05	18.450
255.42	22.358
255.79	20.221
256.16	23.105
256.54	18.728
256.91	19.217
257.28	13.669
257.65	21.452
258.02	22.360
258.39	20.820
258.76	18.729
259.14	21.429
259.51	19.453
259.88	17.702
260.25	20.242
260.62	20.520
260.99	18.944
261.36	17.718
261.73	21.777
262.10	20.640
262.47	20.563
262.85	17.270
263.22	20.513
263.59	21.652
263.96	19.780
264.33	18.016
264.70	18.158
265.07	19.693
265.44	18.939
265.81	15.572
266.18	20.854
266.55	17.317
266.92	17.445
267.29	22.917
267.66	21.560
268.03	19.091
268.40	18.458
268.77	16.468
269.14	17.117
269.51	18.962
269.88	18.648
270.25	18.736
270.62	16.854
270.99	21.290
271.36	21.459
271.73	15.888
272.10	17.391
272.47	19.140
272.84	16.883
273.21	18.029
273.58	13.755
273.95	16.143
274.32	17.769
274.69	16.274
275.06	18.898
275.43	15.957
275.80	17.635
276.17	17.108
276.54	18.919
276.91	15.810
277.28	16.211
277.65	16.054
278.02	17.805
278.39	21.094
278.76	18.364
279.13	16.981
279.50	16.387
279.87	13.944
280.23	16.168
280.60	18.956
280.97	16.081
281.34	18.053
281.71	19.636
282.08	18.810
282.45	15.091
282.82	18.117
283.19	17.112
283.56	17.018
283.92	16.751
284.29	15.520
284.66	16.515
285.03	15.009
285.40	17.254
285.77	16.667
286.14	15.544
286.51	18.167
286.87	16.239
287.24	16.287
287.61	17.335
287.98	15.909
288.35	17.750
288.72	15.576
289.08	17.840
289.45	14.827
289.82	15.610
290.19	14.129
290.56	15.314
290.93	15.408
291.29	15.491
291.66	14.602
292.03	17.442
292.40	17.474
292.77	13.462
293.13	13.582
293.50	14.577
293.87	12.148
294.24	15.111
294.60	13.392
294.97	13.372
295.34	15.233
295.71	15.057
296.08	12.963
296.44	14.718
296.81	13.606
297.18	13.957
297.55	10.818
297.91	12.005
298.28	13.387
298.65	13.055
299.02	14.361
299.38	12.749
299.75	11.456
300.12	12.005
300.48	13.750
300.85	13.564
301.22	13.121
301.59	10.985
301.95	11.461
302.32	12.580
302.69	15.173
303.05	11.879
303.42	10.988
303.79	13.250
304.15	11.538
304.52	12.167
304.89	11.847
305.25	12.877
305.62	13.250
305.99	12.751
306.35	13.535
306.72	12.332
307.09	13.762
307.45	14.302
307.82	12.500
308.19	12.252
308.55	13.592
308.92	12.782
309.29	12.566
309.65	11.665
310.02	13.742
310.38	13.656
310.75	13.411
311.12	13.613
311.48	13.062
311.85	13.522
312.22	13.944
312.58	12.474
312.95	14.784
313.31	13.301
313.68	13.825
314.05	14.793
314.41	14.874
314.78	12.790
315.14	14.697
315.51	15.860
315.87	15.545
316.24	14.697
316.61	14.815
316.97	15.264
317.34	13.992
317.70	16.730
318.07	15.014
318.43	17.221
318.80	17.057
319.16	16.008
319.53	15.947
319.89	17.238
320.26	18.000
320.62	17.163
320.99	16.667
321.35	16.970
321.72	17.351
322.08	17.670
322.45	19.104
322.81	18.217
323.18	18.593
323.54	18.738
323.91	18.302
324.27	19.598
324.64	20.130
325.00	18.485
325.37	19.381
325.73	20.557
326.10	20.653
326.46	19.086
326.83	22.002
327.19	21.264
327.56	21.080
327.92	21.172
328.29	21.295
328.65	22.099
329.01	22.744
329.38	21.554
329.74	21.791
330.11	22.337
330.47	22.406
330.84	23.162
331.20	21.676
331.56	22.294
331.93	22.963
332.29	22.005
332.66	22.566
333.02	21.938
333.38	22.855
333.75	22.193
334.11	22.509
334.48	21.562
334.84	21.783
335.20	22.727
335.57	20.762
335.93	20.268
336.29	22.161
336.66	21.280
337.02	21.629
337.38	22.593
337.75	21.925
338.11	21.486
338.47	21.271
338.84	21.815
339.20	19.450
339.56	22.628
339.93	21.818
340.29	21.649
340.65	21.034
341.02	22.426
341.38	22.331
341.74	22.368
342.11	23.930
342.47	21.233
342.83	22.260
343.20	21.645
343.56	22.409
343.92	21.754
344.28	21.514
344.65	21.238
345.01	20.623
345.37	21.012
345.73	22.673
346.10	21.739
346.46	22.119
346.82	21.582
347.19	21.136
347.55	22.332
347.91	22.816
348.27	22.186
348.63	22.241
349.00	23.301
349.36	20.690
349.72	21.973
350.08	21.637
350.45	21.888
350.81	21.608
351.17	22.042
351.53	21.540
351.89	21.040
352.26	22.021
352.62	22.053
352.98	22.123
353.34	22.514
353.70	21.522
354.07	22.097
354.43	21.111
354.79	22.446
355.15	21.229
355.51	24.221
355.87	22.041
356.24	22.476
356.60	21.812
356.96	22.607
357.32	22.486
357.68	22.362
358.04	20.744
358.40	22.328
358.77	21.753
359.13	22.415
359.49	21.176
359.85	21.825
360.21	21.691
360.57	22.646
360.93	22.846
361.29	21.618
361.66	20.666
362.02	23.134
362.38	22.205
362.74	22.321
363.10	21.318
363.46	22.010
363.82	22.147
364.18	21.512
364.54	22.065
364.90	22.592
365.26	23.015
365.62	22.936
365.98	22.279
366.35	22.421
366.71	22.343
367.07	23.088
367.43	23.512
367.79	23.911
368.15	24.066
368.51	22.602
368.87	23.269
369.23	23.482
369.59	23.678
369.95	23.162
370.31	23.291
370.67	22.609
371.03	23.446
371.39	23.542
371.75	23.676
372.11	22.760
372.47	24.194
372.83	24.712
373.19	22.543
373.55	24.464
373.91	24.669
374.27	23.093
374.63	23.927
374.99	24.223
375.35	23.517
375.71	24.126
376.07	25.926
376.42	25.034
376.78	24.718
377.14	23.406
377.50	24.636
377.86	24.003
378.22	24.716
378.58	24.185
378.94	24.953
379.30	24.491
379.66	24.683
380.02	25.000
380.38	24.954
380.74	25.210
381.09	25.550
381.45	24.524
381.81	26.106
382.17	25.350
382.53	25.660
382.89	26.049
383.25	25.766
383.61	26.270
383.97	25.829
384.32	25.951
384.68	26.208
385.04	25.937
385.40	25.077
385.76	26.167
386.12	26.425
386.48	26.306
386.83	26.812
387.19	26.840
387.55	26.221
387.91	26.058
388.27	26.303
388.62	27.044
388.98	25.921
389.34	26.471
389.70	26.793
390.06	27.060
390.42	27.237
390.77	27.481
391.13	27.951
391.49	26.015
391.85	26.225
392.20	26.372
392.56	26.768
392.92	27.369
393.28	25.325
393.64	26.978
393.99	25.962
394.35	27.233
394.71	27.666
395.07	26.480
395.42	27.132
395.78	27.417
396.14	27.312
396.50	27.068
396.85	26.955
397.21	27.004
397.57	27.464
397.92	26.803
398.28	26.962
398.64	27.180
399.00	27.308
399.35	27.693
399.71	27.836
400.07	27.499
400.42	26.319
400.78	27.684
401.14	26.768
401.49	27.224
401.85	27.102
402.21	26.467
402.57	26.650
402.92	27.049
403.28	28.232
403.63	27.104
403.99	27.070
404.35	27.273
404.70	27.098
405.06	26.383
405.42	26.575
405.77	26.400
406.13	27.314
406.49	26.316
406.84	26.816
407.20	26.182
407.55	26.165
407.91	26.533
408.27	27.441
408.62	26.972
408.98	26.409
409.34	27.306
409.69	27.419
410.05	27.261
410.40	26.667
410.76	25.866
411.11	26.538
411.47	26.134
411.83	27.123
412.18	26.592
412.54	26.650
412.89	26.747
413.25	26.623
413.60	27.363
413.96	26.472
414.31	27.704
414.67	27.186
415.03	26.358
415.38	26.933
415.74	27.331
416.09	27.368
416.45	26.774
416.80	27.495
417.16	27.547
417.51	27.405
417.87	26.846
418.22	27.634
418.58	26.469
418.93	26.597
419.29	26.798
419.64	26.952
420.00	27.744
420.35	27.362
420.71	27.735
421.06	27.267
421.42	27.135
421.77	27.018
422.12	26.951
422.48	26.606
422.83	27.199
423.19	27.514
423.54	27.452
423.90	26.783
424.25	27.136
424.61	26.607
424.96	27.055
425.31	27.907
425.67	26.798
426.02	26.229
426.38	27.473
426.73	26.390
427.09	27.295
427.44	26.624
427.79	27.660
428.15	26.607
428.50	26.624
428.85	26.758
429.21	26.891
429.56	27.372
429.92	26.623
430.27	27.259
430.62	26.779
430.98	27.400
431.33	27.010
431.68	28.010
432.04	26.944
432.39	27.413
432.74	27.887
433.10	27.957
433.45	27.055
433.80	26.663
434.16	28.152
434.51	28.000
434.86	27.309
435.22	27.349
435.57	27.538
435.92	27.150
436.28	27.046
436.63	27.428
436.98	26.846
437.34	27.967
437.69	27.713
438.04	27.600
438.39	27.761
438.75	27.775
439.10	28.436
439.45	27.627
439.81	27.069
440.16	27.216
440.51	27.592
440.86	28.141
441.22	26.863
441.57	26.858
441.92	28.096
442.27	28.095
442.63	27.541
442.98	28.732
443.33	28.207
443.68	28.446
444.03	27.233
444.39	27.264
444.74	28.030
445.09	27.763
445.44	27.337
445.79	27.115
446.15	27.263
446.50	27.464
446.85	28.314
447.20	27.333
447.55	27.080
447.91	27.413
448.26	27.546
448.61	27.812
448.96	27.962
449.31	27.897
449.66	28.081
450.02	27.632
450.37	27.494
450.72	27.806
451.07	27.727
451.42	26.991
451.77	27.540
452.12	27.425
452.47	28.856
452.83	28.438
453.18	28.178
453.53	28.324
453.88	27.761
454.23	27.675
454.58	27.377
454.93	28.099
455.28	27.369
455.63	28.519
455.98	28.869
456.34	27.764
456.69	28.491
457.04	27.988
457.39	27.586
457.74	27.742
458.09	28.005
458.44	27.195
458.79	27.332
459.14	27.765
459.49	28.313
459.84	28.476
460.19	27.519
460.54	27.025
460.89	27.976
461.24	28.051
461.59	28.239
461.94	27.620
462.29	27.656
462.64	28.079
462.99	26.415
463.34	28.533
463.69	28.018
464.04	27.942
464.39	27.420
464.74	28.699
465.09	27.684
465.44	27.147
465.79	27.685
466.14	26.929
466.49	27.364
466.84	27.087
467.19	27.278
467.54	27.750
467.89	27.491
468.24	28.040
468.59	28.632
468.94	27.428
469.29	28.342
469.64	28.179
469.99	28.214
470.34	26.684
470.68	28.161
471.03	26.463
471.38	27.797
471.73	28.181
472.08	27.763
472.43	26.696
472.78	27.452
473.13	27.086
473.48	27.278
473.83	27.561
474.17	27.567
474.52	26.489
474.87	27.554
475.22	27.452
475.57	27.190
475.92	26.978
476.27	27.339
476.61	27.137
476.96	27.158
477.31	27.002
477.66	26.696
478.01	26.712
478.36	27.552
478.70	27.155
479.05	27.796
479.40	27.482
479.75	27.504
480.10	27.485
480.45	25.988
480.79	26.660
481.14	27.495
481.49	26.531
481.84	27.343
482.19	26.579
482.53	26.376
482.88	26.943
483.23	26.355
483.58	27.252
483.92	27.741
484.27	26.362
484.62	26.466
484.97	26.330
485.31	26.815
485.66	26.450
486.01	25.608
486.36	24.347
486.70	24.817
487.05	25.169
487.40	25.000
487.75	25.301
488.09	25.993
488.44	25.117
488.79	26.112
489.13	25.783
489.48	25.530
489.83	26.500
490.17	27.269
490.52	26.572
490.87	26.368
491.22	26.103
491.56	25.877
491.91	26.664
492.26	26.137
492.60	25.484
492.95	26.006
493.30	26.355
493.64	26.132
493.99	26.091
494.34	27.197
494.68	26.328
495.03	26.269
495.37	26.198
495.72	26.316
496.07	26.450
496.41	24.779
496.76	26.649
497.11	25.439
497.45	26.129
497.80	25.816
498.14	25.556
498.49	26.195
498.84	25.839
499.18	25.762
499.53	25.831
499.87	25.955
500.22	26.331
500.56	26.699
500.91	25.385
501.26	26.031
501.60	27.243
501.95	25.940
502.29	26.757
502.64	25.978
502.98	25.199
503.33	25.229
503.67	25.568
504.02	25.678
504.36	25.643
504.71	25.159
505.06	25.976
505.40	25.036
505.75	25.217
506.09	25.413
506.44	25.555
506.78	25.718
507.13	25.946
507.47	25.253
507.82	25.684
508.16	26.342
508.51	25.926
508.85	25.422
509.19	25.816
509.54	26.071
509.88	25.296
510.23	26.015
510.57	26.471
510.92	25.531
511.26	25.591
511.61	26.245
511.95	24.635
512.30	24.920
512.64	25.900
512.98	26.099
513.33	26.285
513.67	25.293
514.02	25.920
514.36	25.942
514.70	26.231
515.05	25.544
515.39	25.967
515.74	25.957
516.08	25.713
516.42	26.304
516.77	26.310
517.11	25.694
517.46	25.790
517.80	27.003
518.14	25.304
518.49	26.138
518.83	26.080
519.17	26.039
519.52	25.806
519.86	26.127
520.20	26.127
520.55	26.571
520.89	25.669
521.23	26.357
521.58	25.330
521.92	26.148
522.26	24.893
522.61	25.047
522.95	25.230
523.29	26.172
523.64	26.341
523.98	26.371
524.32	26.417
524.66	25.135
525.01	25.858
525.35	24.597
525.69	25.308
526.04	25.109
526.38	25.076
526.72	25.460
527.06	26.051
527.41	24.381
527.75	26.045
528.09	25.947
528.43	25.558
528.78	25.384
529.12	25.394
529.46	26.209
529.80	26.671
530.15	26.293
530.49	24.677
530.83	25.759
531.17	26.044
531.51	26.135
531.86	25.419
532.20	25.684
532.54	25.240
532.88	25.610
533.22	24.735
533.57	25.247
533.91	24.383
534.25	25.456
534.59	25.015
534.93	24.390
535.27	24.804
535.62	24.664
535.96	25.675
536.30	25.620
536.64	24.791
536.98	25.348
537.32	24.621
537.66	24.600
538.01	24.292
538.35	24.564
538.69	26.611
539.03	23.912
539.37	24.217
539.71	23.914
540.05	25.098
540.39	25.050
540.73	24.191
541.07	24.335
541.42	25.310
541.76	24.452
542.10	25.291
542.44	24.901
542.78	23.781
543.12	23.097
543.46	24.656
543.80	24.789
544.14	22.850
544.48	24.127
544.82	23.797
545.16	24.528
545.50	24.743
545.84	23.858
546.18	24.781
546.52	24.019
546.86	23.436
547.20	24.477
547.54	24.382
547.88	25.191
548.22	23.724
548.56	23.585
548.90	23.688
549.24	23.973
549.58	23.602
549.92	24.382
550.26	23.437
550.60	23.306
550.94	23.944
551.28	22.751
551.62	24.012
551.96	23.018
552.30	23.959
552.64	23.529
552.98	24.610
553.32	24.073
553.66	23.722
554.00	24.571
554.34	24.293
554.68	24.607
555.02	23.202
555.36	23.521
555.69	23.207
556.03	22.476
556.37	23.397
556.71	23.124
557.05	23.459
557.39	23.723
557.73	22.795
558.07	23.278
558.41	24.023
558.75	23.659
559.08	24.534
559.42	23.885
559.76	23.676
560.10	22.841
560.44	23.270
560.78	23.819
561.12	22.296
561.45	24.055
561.79	23.599
562.13	23.273
562.47	23.429
562.81	23.640
563.15	22.742
563.48	23.143
563.82	23.483
564.16	22.106
564.50	21.875
564.84	22.124
565.17	21.879
565.51	23.642
565.85	22.779
566.19	21.478
566.52	22.546
566.86	22.242
567.20	22.583
567.54	22.489
567.88	21.782
568.21	21.958
568.55	22.245
568.89	21.839
569.23	21.257
569.56	21.862
569.90	21.283
570.24	20.883
570.57	20.843
570.91	20.556
571.25	20.229
571.59	20.854
571.92	20.478
572.26	20.191
572.60	20.661
572.93	19.850
573.27	20.053
573.61	20.408
573.95	20.336
574.28	19.774
574.62	20.262
574.96	19.857
575.29	19.714
575.63	19.893
575.97	19.995
576.30	19.862
576.64	20.318
576.98	19.762
577.31	20.032
577.65	19.609
577.98	19.843
578.32	19.222
578.66	19.476
578.99	19.082
579.33	19.269
579.67	19.290
580.00	19.060
580.34	19.483
580.67	19.641
581.01	19.901
581.35	19.636
581.68	19.639
582.02	18.891
582.35	19.476
582.69	19.329
583.02	19.042
583.36	18.930
583.70	19.880
584.03	19.462
584.37	19.130
584.70	19.645
585.04	19.349
585.37	19.478
585.71	19.290
586.04	19.183
586.38	19.566
586.72	19.166
587.05	18.989
587.39	19.446
587.72	19.634
588.06	19.184
588.39	19.342
588.73	18.921
589.06	19.508
589.40	19.798
589.73	19.571
590.07	19.431
590.40	19.364
590.73	19.945
591.07	20.065
591.40	19.739
591.74	20.563
592.07	19.764
592.41	20.215
592.74	19.176
593.08	19.420
593.41	20.278
593.75	19.457
594.08	18.874
594.41	19.548
594.75	19.630
595.08	18.719
595.42	20.000
595.75	19.373
596.09	19.902
596.42	20.000
596.75	19.713
597.09	20.043
597.42	18.465
597.75	19.060
598.09	19.739
598.42	19.974
598.76	18.727
599.09	19.270
599.42	18.959
599.76	19.766
600.09	18.434
600.42	19.138
600.76	18.679
601.09	18.543
601.42	19.140
601.76	18.975
602.09	19.209
602.42	19.148
602.76	19.790
603.09	19.079
603.42	19.172
603.76	19.588
604.09	18.651
604.42	18.916
604.76	19.528
605.09	19.397
605.42	18.427
605.75	19.454
606.09	18.991
606.42	19.616
606.75	19.245
607.09	18.878
607.42	19.170
607.75	18.692
608.08	19.409
608.42	19.095
608.75	19.161
609.08	18.548
609.41	19.467
609.75	18.390
610.08	19.510
610.41	18.622
610.74	18.685
611.07	19.219
611.41	18.989
611.74	19.859
612.07	19.513
612.40	18.888
612.73	19.947
613.07	19.289
613.40	19.905
613.73	18.091
614.06	19.140
614.39	19.350
614.72	19.368
615.06	19.590
615.39	18.206
615.72	18.354
616.05	18.979
616.38	19.455
616.71	19.537
617.05	19.552
617.38	19.543
617.71	19.399
618.04	20.012
618.37	19.456
618.70	19.166
619.03	20.132
619.36	18.941
619.69	20.070
620.03	20.192
620.36	20.120
620.69	20.479
621.02	19.100
621.35	20.047
621.68	19.393
622.01	20.820
622.34	20.348
622.67	20.684
623.00	18.635
623.33	19.585
623.66	19.442
623.99	20.250
624.32	19.544
624.65	18.997
624.99	18.626
625.32	19.117
625.65	19.083
625.98	19.523
626.31	19.984
626.64	20.898
626.97	20.283
627.30	19.784
627.63	20.509
627.96	21.026
628.29	19.685
628.62	20.860
628.95	21.792
629.28	21.350
629.61	20.715
629.94	21.238
630.26	20.400
630.59	21.640
630.92	21.552
631.25	19.348
631.58	21.822
631.91	21.805
632.24	21.097
632.57	20.357
632.90	20.614
