SpectraSuite Data File
++++++++++++++++++++++++++++++++++++
Date: Wed May 13 15:58:13 PDT 2015
User: schluterlab
Dark Spectrum Present: Yes
Reference Spectrum Present: Yes
Number of Sampled Component Spectra: 1
Spectrometers: USB2E3373
Integration Time (usec): 3000 (USB2E3373)
Spectra Averaged: 3 (USB2E3373)
Boxcar Smoothing: 0 (USB2E3373)
Correct for Electrical Dark: No (USB2E3373)
Strobe/Lamp Enabled: No (USB2E3373)
Correct for Detector Non-linearity: No (USB2E3373)
Correct for Stray Light: No (USB2E3373)
Number of Pixels in Processed Spectrum: 2048
>>>>>Begin Processed Spectral Data<<<<<
178.53	0.000
178.91	-275.000
179.29	-675.000
179.67	-11.111
180.04	-200.000
180.42	650.000
180.80	180.000
181.18	25.000
181.56	-28.571
181.94	0.000
182.31	-57.143
182.69	33.333
183.07	-62.500
183.45	-66.667
183.83	118.182
184.20	80.000
184.58	200.000
184.96	1800.000
185.34	-100.000
185.72	-137.500
186.09	-350.000
186.47	450.000
186.85	200.000
187.23	500.000
187.61	-100.000
187.98	475.000
188.36	127.273
188.74	136.364
189.12	-80.000
189.49	170.000
189.87	-600.000
190.25	-50.000
190.63	142.857
191.00	61.538
191.38	100.000
191.76	125.000
192.14	325.000
192.51	12.500
192.89	316.667
193.27	25.000
193.65	75.000
194.02	100.000
194.40	200.000
194.78	90.000
195.15	116.667
195.53	150.000
195.91	500.000
196.29	75.000
196.66	147.368
197.04	60.000
197.42	0.000
197.79	240.000
198.17	-800.000
198.55	100.000
198.92	100.000
199.30	60.000
199.68	0.000
200.05	94.444
200.43	200.000
200.81	1300.000
201.18	-33.333
201.56	-333.333
201.94	66.667
202.31	100.000
202.69	116.667
203.07	170.000
203.44	0.000
203.82	125.000
204.19	271.429
204.57	142.857
204.95	137.500
205.32	266.667
205.70	154.545
206.08	128.571
206.45	750.000
206.83	68.750
207.20	183.333
207.58	180.000
207.96	61.111
208.33	250.000
208.71	-166.667
209.08	185.714
209.46	122.222
209.84	109.091
210.21	133.333
210.59	450.000
210.96	87.500
211.34	250.000
211.71	190.000
212.09	183.333
212.46	0.000
212.84	433.333
213.22	100.000
213.59	-200.000
213.97	83.333
214.34	300.000
214.72	145.455
215.09	180.000
215.47	-350.000
215.84	-200.000
216.22	433.333
216.59	135.714
216.97	300.000
217.34	190.909
217.72	-0.000
218.09	0.000
218.47	500.000
218.84	211.111
219.22	257.143
219.59	200.000
219.97	71.429
220.34	80.000
220.72	-266.667
221.09	50.000
221.47	275.000
221.84	-100.000
222.22	0.000
222.59	425.000
222.97	-300.000
223.34	260.000
223.72	30.769
224.09	240.000
224.46	300.000
224.84	-800.000
225.21	-60.000
225.59	-900.000
225.96	190.000
226.34	70.000
226.71	250.000
227.08	137.500
227.46	70.000
227.83	-75.000
228.21	-400.000
228.58	233.333
228.95	-100.000
229.33	-0.000
229.70	433.333
230.08	171.429
230.45	-0.000
230.82	125.000
231.20	50.000
231.57	-28.571
231.95	116.667
232.32	9.091
232.69	109.091
233.07	-14.286
233.44	61.538
233.81	-100.000
234.19	57.895
234.56	125.000
234.93	8.333
235.31	81.818
235.68	-30.769
236.05	57.143
236.43	39.394
236.80	36.842
237.17	500.000
237.55	47.619
237.92	64.286
238.29	47.619
238.67	22.581
239.04	51.724
239.41	16.667
239.79	19.565
240.16	30.952
240.53	34.091
240.91	27.451
241.28	8.000
241.65	12.000
242.02	23.188
242.40	16.129
242.77	25.000
243.14	22.581
243.51	31.461
243.89	14.118
244.26	12.222
244.63	10.753
245.00	9.574
245.38	11.881
245.75	13.084
246.12	10.092
246.49	27.737
246.87	20.800
247.24	15.385
247.61	14.286
247.98	12.418
248.36	10.135
248.73	10.191
249.10	14.650
249.47	8.475
249.84	13.904
250.22	12.834
250.59	10.059
250.96	15.152
251.33	14.218
251.70	12.871
252.08	12.857
252.45	11.211
252.82	11.304
253.19	10.638
253.56	10.196
253.94	10.373
254.31	12.891
254.68	16.154
255.05	14.760
255.42	13.008
255.79	12.868
256.16	11.191
256.54	10.247
256.91	14.235
257.28	8.993
257.65	12.541
258.02	13.354
258.39	10.726
258.76	8.361
259.14	9.226
259.51	9.119
259.88	9.006
260.25	10.574
260.62	12.717
260.99	8.696
261.36	11.411
261.73	12.034
262.10	8.430
262.47	11.549
262.85	9.471
263.22	9.687
263.59	14.245
263.96	9.890
264.33	10.966
264.70	7.895
265.07	10.230
265.44	10.101
265.81	9.732
266.18	10.804
266.55	11.463
266.92	10.319
267.29	12.037
267.66	12.385
268.03	12.955
268.40	11.916
268.77	7.876
269.14	11.486
269.51	13.093
269.88	11.422
270.25	11.061
270.62	8.090
270.99	14.194
271.36	11.159
271.73	6.542
272.10	9.783
272.47	9.892
272.84	11.905
273.21	11.321
273.58	9.607
273.95	10.063
274.32	9.917
274.69	8.994
275.06	10.236
275.43	9.149
275.80	10.020
276.17	11.609
276.54	10.603
276.91	7.312
277.28	11.328
277.65	10.445
278.02	9.110
278.39	11.133
278.76	11.091
279.13	9.623
279.50	8.566
279.87	11.355
280.23	7.784
280.60	7.737
280.97	10.906
281.34	10.442
281.71	10.182
282.08	10.940
282.45	9.091
282.82	9.414
283.19	9.982
283.56	9.649
283.92	9.137
284.29	9.171
284.66	9.800
285.03	8.137
285.40	7.746
285.77	10.438
286.14	10.535
286.51	11.667
286.87	9.744
287.24	9.609
287.61	8.828
287.98	11.039
288.35	9.509
288.72	11.215
289.08	11.424
289.45	9.061
289.82	9.106
290.19	7.221
290.56	8.576
290.93	6.798
291.29	7.975
291.66	9.882
292.03	10.756
292.40	11.160
292.77	8.284
293.13	7.612
293.50	8.892
293.87	7.852
294.24	7.259
294.60	8.151
294.97	7.994
295.34	10.014
295.71	8.523
296.08	8.689
296.44	8.391
296.81	8.587
297.18	10.027
297.55	7.124
297.91	9.235
298.28	9.505
298.65	10.313
299.02	10.672
299.38	9.562
299.75	6.739
300.12	8.046
300.48	8.125
300.85	7.645
301.22	8.662
301.59	8.838
301.95	9.572
302.32	9.371
302.69	10.514
303.05	9.091
303.42	9.136
303.79	9.287
304.15	8.275
304.52	9.270
304.89	9.524
305.25	8.353
305.62	9.740
305.99	8.973
306.35	8.837
306.72	9.081
307.09	10.544
307.45	10.135
307.82	8.147
308.19	10.486
308.55	10.248
308.92	9.452
309.29	9.715
309.65	8.696
310.02	8.985
310.38	9.140
310.75	9.504
311.12	9.826
311.48	9.718
311.85	9.644
312.22	9.053
312.58	9.667
312.95	10.665
313.31	9.223
313.68	10.291
314.05	11.144
314.41	9.749
314.78	10.373
315.14	9.335
315.51	10.093
315.87	10.396
316.24	10.526
316.61	9.942
316.97	9.980
317.34	10.274
317.70	11.568
318.07	10.298
318.43	9.883
318.80	10.872
319.16	11.488
319.53	10.319
319.89	11.048
320.26	11.600
320.62	9.623
320.99	11.414
321.35	10.808
321.72	11.088
322.08	12.241
322.45	11.642
322.81	11.434
323.18	11.946
323.54	12.801
323.91	13.113
324.27	11.759
324.64	11.836
325.00	11.812
325.37	12.921
325.73	11.849
326.10	12.533
326.46	12.276
326.83	13.028
327.19	12.980
327.56	13.153
327.92	12.248
328.29	13.753
328.65	13.628
329.01	12.455
329.38	12.673
329.74	12.558
330.11	13.666
330.47	12.764
330.84	13.603
331.20	12.295
331.56	13.853
331.93	13.056
332.29	12.689
332.66	13.363
333.02	12.980
333.38	13.008
333.75	13.280
334.11	12.900
334.48	13.576
334.84	13.695
335.20	12.545
335.57	12.149
335.93	12.232
336.29	11.905
336.66	12.624
337.02	12.489
337.38	12.037
337.75	12.923
338.11	13.071
338.47	13.076
338.84	13.107
339.20	13.394
339.56	12.956
339.93	12.091
340.29	12.319
340.65	11.586
341.02	13.351
341.38	13.256
341.74	12.895
342.11	12.489
342.47	13.040
342.83	13.099
343.20	13.160
343.56	12.805
343.92	12.632
344.28	12.500
344.65	12.468
345.01	11.869
345.37	11.835
345.73	13.621
346.10	12.702
346.46	13.644
346.82	13.344
347.19	11.779
347.55	11.741
347.91	12.136
348.27	14.297
348.63	12.375
349.00	12.945
349.36	12.479
349.72	12.831
350.08	12.723
350.45	12.775
350.81	11.860
351.17	13.371
351.53	12.203
351.89	13.119
352.26	12.391
352.62	12.911
352.98	12.399
353.34	12.983
353.70	11.784
354.07	12.258
354.43	12.222
354.79	11.585
355.15	14.286
355.51	12.950
355.87	12.082
356.24	12.459
356.60	12.029
356.96	12.792
357.32	12.919
357.68	13.386
358.04	13.618
358.40	12.510
358.77	13.224
359.13	12.076
359.49	13.490
359.85	11.984
360.21	12.360
360.57	13.385
360.93	13.000
361.29	12.094
361.66	12.926
362.02	13.134
362.38	13.384
362.74	13.542
363.10	12.287
363.46	12.252
363.82	13.454
364.18	13.142
364.54	13.001
364.90	13.173
365.26	12.353
365.62	13.806
365.98	12.126
366.35	12.249
366.71	13.232
367.07	12.891
367.43	13.643
367.79	13.704
368.15	14.511
368.51	13.154
368.87	13.276
369.23	13.972
369.59	14.265
369.95	12.574
370.31	14.815
370.67	13.913
371.03	13.333
371.39	13.557
371.75	13.456
372.11	13.798
372.47	14.223
372.83	14.265
373.19	13.078
373.55	14.191
373.91	14.654
374.27	14.021
374.63	14.036
374.99	13.842
375.35	12.770
375.71	13.639
376.07	14.746
376.42	14.237
376.78	15.043
377.14	14.722
377.50	15.430
377.86	14.495
378.22	15.171
378.58	14.160
378.94	14.079
379.30	14.122
379.66	15.355
380.02	15.172
380.38	15.361
380.74	15.246
381.09	14.181
381.45	15.612
381.81	16.585
382.17	15.414
382.53	15.220
382.89	14.877
383.25	15.260
383.61	16.481
383.97	15.322
384.32	15.596
384.68	15.304
385.04	16.288
385.40	14.923
385.76	15.786
386.12	16.192
386.48	15.356
386.83	16.870
387.19	16.821
387.55	16.141
387.91	16.687
388.27	16.677
388.62	16.841
388.98	15.971
389.34	16.708
389.70	16.922
390.06	16.730
390.42	16.407
390.77	16.985
391.13	17.294
391.49	17.513
391.85	16.741
392.20	16.025
392.56	17.677
392.92	17.422
393.28	16.864
393.64	17.386
393.99	17.593
394.35	16.873
394.71	16.939
395.07	17.072
395.42	17.800
395.78	16.667
396.14	17.443
396.50	17.356
396.85	17.292
397.21	17.509
397.57	17.173
397.92	18.329
398.28	17.713
398.64	17.742
399.00	17.851
399.35	18.105
399.71	17.593
400.07	17.623
400.42	18.466
400.78	18.577
401.14	17.256
401.49	19.403
401.85	18.996
402.21	18.503
402.57	17.643
402.92	17.591
403.28	18.801
403.63	18.688
403.99	17.197
404.35	18.242
404.70	18.465
405.06	17.531
405.42	18.091
405.77	18.000
406.13	17.494
406.49	18.037
406.84	18.901
407.20	18.794
407.55	18.953
407.91	17.600
408.27	18.379
408.62	19.145
408.98	18.015
409.34	18.573
409.69	19.161
410.05	17.906
410.40	18.226
410.76	18.877
411.11	18.456
411.47	18.466
411.83	17.776
412.18	18.306
412.54	18.991
412.89	18.735
413.25	19.185
413.60	18.159
413.96	18.458
414.31	18.530
414.67	19.518
415.03	18.146
415.38	19.394
415.74	18.328
416.09	18.223
416.45	19.411
416.80	18.969
417.16	19.772
417.51	19.443
417.87	18.754
418.22	18.675
418.58	19.819
418.93	17.813
419.29	19.223
419.64	19.647
420.00	19.146
420.35	19.478
420.71	19.486
421.06	19.153
421.42	19.064
421.77	19.899
422.12	19.034
422.48	18.403
422.83	19.453
423.19	19.227
423.54	19.559
423.90	19.710
424.25	19.989
424.61	20.119
424.96	19.534
425.31	18.937
425.67	18.258
426.02	18.971
426.38	20.085
426.73	18.900
427.09	19.635
427.44	19.666
427.79	18.804
428.15	20.000
428.50	19.251
428.85	20.203
429.21	18.609
429.56	19.699
429.92	19.930
430.27	19.960
430.62	19.560
430.98	19.616
431.33	20.206
431.68	20.524
432.04	19.382
432.39	19.874
432.74	20.108
433.10	20.034
433.45	19.184
433.80	20.344
434.16	19.765
434.51	19.632
434.86	20.810
435.22	20.400
435.57	20.000
435.92	19.895
436.28	20.937
436.63	20.530
436.98	20.492
437.34	19.917
437.69	20.828
438.04	20.011
438.39	20.299
438.75	20.802
439.10	19.721
439.45	20.661
439.81	20.121
440.16	20.102
440.51	21.148
440.86	20.556
441.22	19.633
441.57	19.851
441.92	21.085
442.27	21.044
442.63	20.537
442.98	21.634
443.33	21.196
443.68	20.702
444.03	20.888
444.39	20.058
444.74	21.320
445.09	21.132
445.44	20.995
445.79	20.782
446.15	21.175
446.50	20.786
446.85	20.863
447.20	20.551
447.55	21.050
447.91	20.960
448.26	20.757
448.61	20.633
448.96	21.373
449.31	21.991
449.66	20.653
450.02	20.390
450.37	20.805
450.72	20.361
451.07	19.988
451.42	20.182
451.77	21.080
452.12	21.016
452.47	20.460
452.83	20.455
453.18	21.027
453.53	20.903
453.88	20.437
454.23	21.100
454.58	20.836
454.93	22.441
455.28	20.698
455.63	20.995
455.98	21.548
456.34	20.917
456.69	21.039
457.04	21.300
457.39	20.397
457.74	20.894
458.09	20.587
458.44	21.380
458.79	20.336
459.14	21.896
459.49	21.308
459.84	21.274
460.19	20.330
460.54	20.602
460.89	20.954
461.24	20.765
461.59	22.022
461.94	21.270
462.29	21.780
462.64	20.230
462.99	21.015
463.34	21.267
463.69	20.450
464.04	21.565
464.39	21.507
464.74	21.569
465.09	21.110
465.44	20.388
465.79	20.861
466.14	21.675
466.49	21.190
466.84	21.775
467.19	21.183
467.54	20.625
467.89	20.888
468.24	21.990
468.59	22.466
468.94	20.403
469.29	21.015
469.64	22.356
469.99	21.719
470.34	20.938
470.68	20.833
471.03	21.633
471.38	22.933
471.73	21.985
472.08	21.908
472.43	20.917
472.78	21.001
473.13	21.759
473.48	21.286
473.83	21.646
474.17	20.909
474.52	22.022
474.87	22.300
475.22	22.055
475.57	21.279
475.92	21.614
476.27	20.857
476.61	21.953
476.96	21.495
477.31	21.455
477.66	21.444
478.01	21.223
478.36	21.364
478.70	20.872
479.05	21.512
479.40	21.187
479.75	21.556
480.10	21.372
480.45	20.562
480.79	21.548
481.14	21.282
481.49	22.354
481.84	21.308
482.19	21.581
482.53	21.193
482.88	21.545
483.23	22.150
483.58	22.247
483.92	21.275
484.27	20.479
484.62	21.422
484.97	20.970
485.31	21.541
485.66	20.723
486.01	20.671
486.36	19.981
486.70	20.059
487.05	20.613
487.40	20.480
487.75	20.646
488.09	21.565
488.44	20.280
488.79	21.157
489.13	21.352
489.48	20.840
489.83	21.191
490.17	21.394
490.52	21.523
490.87	21.303
491.22	21.237
491.56	20.957
491.91	21.638
492.26	20.808
492.60	21.336
492.95	20.533
493.30	20.748
493.64	21.605
493.99	21.031
494.34	21.369
494.68	21.703
495.03	21.335
495.37	21.173
495.72	21.735
496.07	21.021
496.41	20.752
496.76	20.932
497.11	20.801
497.45	21.099
497.80	20.633
498.14	21.643
498.49	21.122
498.84	22.052
499.18	21.286
499.53	21.130
499.87	22.134
500.22	21.196
500.56	22.039
500.91	20.817
501.26	21.622
501.60	21.595
501.95	21.219
502.29	21.837
502.64	21.555
502.98	21.272
503.33	21.207
503.67	21.160
504.02	21.890
504.36	21.666
504.71	22.228
505.06	21.301
505.40	21.342
505.75	21.408
506.09	21.477
506.44	21.855
506.78	21.286
507.13	21.151
507.47	21.717
507.82	21.277
508.16	21.125
508.51	21.715
508.85	21.102
509.19	22.398
509.54	22.245
509.88	21.381
510.23	20.771
510.57	22.343
510.92	22.113
511.26	21.634
511.61	20.954
511.95	21.242
512.30	21.739
512.64	21.816
512.98	22.883
513.33	22.216
513.67	21.772
514.02	20.455
514.36	21.901
514.70	22.302
515.05	22.086
515.39	21.929
515.74	21.791
516.08	22.247
516.42	22.475
516.77	22.631
517.11	21.476
517.46	22.065
517.80	22.125
518.14	20.787
518.49	23.046
518.83	21.080
519.17	22.171
519.52	22.694
519.86	21.905
520.20	22.601
520.55	22.621
520.89	22.141
521.23	23.703
521.58	21.909
521.92	22.290
522.26	21.293
522.61	21.682
522.95	21.056
523.29	22.702
523.64	22.256
523.98	22.366
524.32	22.859
524.66	22.069
525.01	21.446
525.35	22.367
525.69	22.167
526.04	21.558
526.38	21.538
526.72	21.411
527.06	21.846
527.41	22.401
527.75	23.537
528.09	22.672
528.43	23.199
528.78	22.864
529.12	22.121
529.46	22.474
529.80	22.525
530.15	22.305
530.49	22.462
530.83	22.215
531.17	23.433
531.51	22.179
531.86	22.387
532.20	21.904
532.54	23.318
532.88	22.465
533.22	22.111
533.57	22.531
533.91	21.915
534.25	21.507
534.59	21.782
534.93	21.297
535.27	21.364
535.62	21.856
535.96	22.285
536.30	20.661
536.64	21.764
536.98	21.964
537.32	22.251
537.66	22.867
538.01	22.054
538.35	22.107
538.69	22.208
539.03	21.183
539.37	21.214
539.71	20.868
540.05	21.111
540.39	20.997
540.73	21.798
541.07	21.544
541.42	22.309
541.76	22.129
542.10	21.798
542.44	20.993
542.78	22.398
543.12	21.241
543.46	23.016
543.80	22.186
544.14	20.732
544.48	21.714
544.82	20.783
545.16	21.666
545.50	20.566
545.84	21.102
546.18	22.088
546.52	21.473
546.86	20.756
547.20	21.038
547.54	21.042
547.88	22.194
548.22	21.606
548.56	21.132
548.90	20.551
549.24	20.202
549.58	22.169
549.92	21.566
550.26	21.520
550.60	20.539
550.94	21.972
551.28	20.629
551.62	21.208
551.96	20.702
552.30	20.410
552.64	21.163
552.98	21.831
553.32	20.634
553.66	21.950
554.00	21.688
554.34	21.325
554.68	21.245
555.02	20.663
555.36	20.042
555.69	20.839
556.03	20.861
556.37	20.600
556.71	21.282
557.05	20.378
557.39	20.784
557.73	20.466
558.07	19.942
558.41	20.043
558.75	20.867
559.08	20.805
559.42	21.164
559.76	21.618
560.10	20.414
560.44	21.104
560.78	20.027
561.12	20.383
561.45	19.948
561.79	20.040
562.13	21.194
562.47	20.697
562.81	20.572
563.15	20.000
563.48	20.557
563.82	20.613
564.16	19.490
564.50	19.596
564.84	20.670
565.17	20.785
565.51	20.767
565.85	20.241
566.19	20.288
566.52	19.823
566.86	18.565
567.20	21.050
567.54	19.749
567.88	19.392
568.21	20.053
568.55	19.565
568.89	18.920
569.23	18.984
569.56	19.352
569.90	18.755
570.24	18.694
570.57	18.055
570.91	18.164
571.25	18.098
571.59	18.999
571.92	18.779
572.26	18.573
572.60	18.859
572.93	18.531
573.27	18.338
573.61	18.816
573.95	18.295
574.28	17.965
574.62	18.319
574.96	18.208
575.29	17.798
575.63	18.471
575.97	17.834
576.30	18.109
576.64	17.766
576.98	18.449
577.31	17.398
577.65	18.393
577.98	17.833
578.32	17.554
578.66	18.365
578.99	17.895
579.33	18.107
579.67	17.733
580.00	17.742
580.34	17.632
580.67	17.726
581.01	17.990
581.35	18.020
581.68	17.854
582.02	17.299
582.35	17.378
582.69	17.813
583.02	17.661
583.36	17.777
583.70	17.682
584.03	17.894
584.37	17.971
584.70	17.999
585.04	18.028
585.37	17.661
585.71	17.904
586.04	17.661
586.38	17.529
586.72	18.282
587.05	17.305
587.39	17.361
587.72	17.212
588.06	17.316
588.39	17.339
588.73	17.688
589.06	17.607
589.40	17.609
589.73	17.987
590.07	18.399
590.40	17.574
590.73	17.760
591.07	18.030
591.40	17.377
591.74	18.442
592.07	17.714
592.41	17.983
592.74	16.554
593.08	17.955
593.41	17.811
593.75	17.427
594.08	17.667
594.41	17.533
594.75	16.969
595.08	17.788
595.42	17.723
595.75	17.415
596.09	17.462
596.42	17.996
596.75	17.307
597.09	18.182
597.42	16.990
597.75	17.292
598.09	17.783
598.42	17.096
598.76	16.741
599.09	16.572
599.42	17.067
599.76	17.313
600.09	16.831
600.42	17.093
600.76	16.464
601.09	16.648
601.42	17.428
601.76	16.774
602.09	16.996
602.42	17.317
602.76	17.654
603.09	17.152
603.42	16.868
603.76	16.730
604.09	17.294
604.42	17.081
604.76	17.545
605.09	17.256
605.42	16.503
605.75	17.094
606.09	16.429
606.42	16.878
606.75	17.171
607.09	16.911
607.42	16.902
607.75	16.667
608.08	17.152
608.42	17.346
608.75	16.772
609.08	16.420
609.41	16.897
609.75	16.246
610.08	17.201
610.41	16.201
610.74	16.367
611.07	17.540
611.41	16.192
611.74	17.848
612.07	16.460
612.40	16.579
612.73	16.579
613.07	17.403
613.40	16.798
613.73	16.203
614.06	16.075
614.39	17.147
614.72	16.684
615.06	17.332
615.39	16.295
615.72	16.922
616.05	16.374
616.38	16.176
616.71	17.399
617.05	17.020
617.38	16.597
617.71	16.396
618.04	16.767
618.37	16.499
618.70	16.926
619.03	16.842
619.36	17.651
619.69	16.620
620.03	16.621
620.36	16.912
620.69	16.370
621.02	16.740
621.35	16.601
621.68	17.445
622.01	16.641
622.34	16.717
622.67	17.186
623.00	16.141
623.33	16.297
623.66	17.655
623.99	16.863
624.32	16.405
624.65	16.667
624.99	16.006
625.32	16.220
625.65	16.003
625.98	16.756
626.31	16.952
626.64	17.878
626.97	16.874
627.30	16.625
627.63	17.227
627.96	16.316
628.29	17.410
628.62	18.115
628.95	19.811
629.28	17.518
629.61	18.515
629.94	16.762
630.26	17.445
630.59	17.350
630.92	16.762
631.25	16.387
631.58	16.517
631.91	17.039
632.24	16.667
632.57	16.999
632.90	16.667
633.23	16.667
633.56	18.305
633.89	17.894
634.22	17.934
634.55	17.988
634.88	17.844
635.20	18.757
635.53	17.952
635.86	15.965
