SpectraSuite Data File
++++++++++++++++++++++++++++++++++++
Date: Wed May 13 16:15:11 PDT 2015
User: schluterlab
Dark Spectrum Present: Yes
Reference Spectrum Present: Yes
Number of Sampled Component Spectra: 1
Spectrometers: USB2E3373
Integration Time (usec): 3000 (USB2E3373)
Spectra Averaged: 3 (USB2E3373)
Boxcar Smoothing: 0 (USB2E3373)
Correct for Electrical Dark: No (USB2E3373)
Strobe/Lamp Enabled: No (USB2E3373)
Correct for Detector Non-linearity: No (USB2E3373)
Correct for Stray Light: No (USB2E3373)
Number of Pixels in Processed Spectrum: 2048
>>>>>Begin Processed Spectral Data<<<<<
178.53	0.000
178.91	-825.000
179.29	-925.000
179.67	-144.444
180.04	-1100.000
180.42	2100.000
180.80	940.000
181.18	-800.000
181.56	628.571
181.94	0.000
182.31	-400.000
182.69	1366.667
183.07	-550.000
183.45	-400.000
183.83	427.273
184.20	-280.000
184.58	1700.000
184.96	4200.000
185.34	-560.000
185.72	-325.000
186.09	-1600.000
186.47	1700.000
186.85	2050.000
187.23	3700.000
187.61	-1100.000
187.98	1025.000
188.36	445.455
188.74	463.636
189.12	-700.000
189.49	460.000
189.87	-3900.000
190.25	-850.000
190.63	328.571
191.00	338.462
191.38	716.667
191.76	-775.000
192.14	950.000
192.51	475.000
192.89	750.000
193.27	387.500
193.65	-850.000
194.02	390.000
194.40	680.000
194.78	470.000
195.15	366.667
195.53	460.000
195.91	-1650.000
196.29	237.500
196.66	305.263
197.04	-220.000
197.42	0.000
197.79	420.000
198.17	-4100.000
198.55	628.571
198.92	637.500
199.30	740.000
199.68	0.000
200.05	355.556
200.43	614.286
200.81	4400.000
201.18	966.667
201.56	-1466.667
201.94	433.333
202.31	500.000
202.69	250.000
203.07	390.000
203.44	0.000
203.82	975.000
204.19	700.000
204.57	364.286
204.95	500.000
205.32	1466.667
205.70	400.000
206.08	350.000
206.45	1800.000
206.83	293.750
207.20	700.000
207.58	560.000
207.96	266.667
208.33	650.000
208.71	-750.000
209.08	685.714
209.46	466.667
209.84	436.364
210.21	-1266.667
210.59	1125.000
210.96	-337.500
211.34	2300.000
211.71	480.000
212.09	616.667
212.46	0.000
212.84	1200.000
213.22	1200.000
213.59	-3800.000
213.97	633.333
214.34	614.286
214.72	436.364
215.09	820.000
215.47	-1900.000
215.84	-2000.000
216.22	1300.000
216.59	278.571
216.97	1000.000
217.34	400.000
217.72	-666.667
218.09	0.000
218.47	-2800.000
218.84	477.778
219.22	585.714
219.59	1166.667
219.97	-514.286
220.34	680.000
220.72	-1300.000
221.09	292.857
221.47	1125.000
221.84	-733.333
222.22	0.000
222.59	1150.000
222.97	-1950.000
223.34	740.000
223.72	284.615
224.09	920.000
224.46	2000.000
224.84	-3800.000
225.21	-800.000
225.59	-2800.000
225.96	480.000
226.34	260.000
226.71	1950.000
227.08	437.500
227.46	420.000
227.83	-950.000
228.21	-2100.000
228.58	422.222
228.95	-1850.000
229.33	-1450.000
229.70	1633.333
230.08	614.286
230.45	-600.000
230.82	316.667
231.20	716.667
231.57	571.429
231.95	391.667
232.32	227.273
232.69	318.182
233.07	600.000
233.44	176.923
233.81	-1233.333
234.19	173.684
234.56	400.000
234.93	350.000
235.31	390.909
235.68	315.385
236.05	257.143
236.43	160.606
236.80	242.105
237.17	3700.000
237.55	204.762
237.92	171.429
238.29	195.238
238.67	135.484
239.04	172.414
239.41	133.333
239.79	82.609
240.16	111.905
240.53	109.091
240.91	86.275
241.28	84.000
241.65	86.000
242.02	84.058
242.40	82.258
242.77	80.000
243.14	60.215
243.51	59.551
243.89	67.059
244.26	53.333
244.63	61.290
245.00	52.128
245.38	65.347
245.75	55.140
246.12	55.046
246.49	54.015
246.87	63.200
247.24	52.308
247.61	46.429
247.98	50.980
248.36	45.946
248.73	47.771
249.10	47.134
249.47	49.718
249.84	51.872
250.22	41.711
250.59	42.604
250.96	39.899
251.33	38.863
251.70	48.020
252.08	36.190
252.45	39.462
252.82	36.087
253.19	40.851
253.56	36.471
253.94	39.004
254.31	35.937
254.68	35.385
255.05	36.900
255.42	37.398
255.79	32.353
256.16	37.906
256.54	36.042
256.91	36.655
257.28	35.971
257.65	31.683
258.02	34.472
258.39	30.915
258.76	34.114
259.14	33.036
259.51	33.131
259.88	31.677
260.25	33.837
260.62	32.081
260.99	34.472
261.36	34.535
261.73	31.805
262.10	32.558
262.47	35.493
262.85	30.362
263.22	28.205
263.59	31.909
263.96	30.220
264.33	34.465
264.70	31.579
265.07	32.737
265.44	30.556
265.81	30.414
266.18	30.905
266.55	30.244
266.92	32.432
267.29	30.556
267.66	31.193
268.03	31.591
268.40	30.841
268.77	30.072
269.14	31.306
269.51	28.217
269.88	31.002
270.25	30.700
270.62	30.112
270.99	29.247
271.36	30.043
271.73	30.374
272.10	28.261
272.47	31.398
272.84	30.519
273.21	29.560
273.58	28.384
273.95	27.044
274.32	27.273
274.69	30.193
275.06	27.953
275.43	28.085
275.80	28.257
276.17	27.291
276.54	29.314
276.91	27.470
277.28	27.344
277.65	26.692
278.02	28.986
278.39	28.711
278.76	27.818
279.13	26.226
279.50	29.236
279.87	27.291
280.23	29.142
280.60	26.886
280.97	27.726
281.34	28.673
281.71	29.818
282.08	24.760
282.45	26.727
282.82	25.933
283.19	25.490
283.56	27.544
283.92	25.550
284.29	25.926
284.66	25.408
285.03	25.859
285.40	26.937
285.77	27.441
286.14	25.043
286.51	26.333
286.87	27.863
287.24	27.524
287.61	22.953
287.98	25.649
288.35	24.406
288.72	26.012
289.08	25.039
289.45	23.558
289.82	23.577
290.19	23.391
290.56	24.809
290.93	23.263
291.29	23.466
291.66	25.811
292.03	25.145
292.40	23.935
292.77	21.450
293.13	24.030
293.50	24.490
293.87	23.259
294.24	21.778
294.60	21.543
294.97	22.529
295.34	24.260
295.71	22.869
296.08	20.513
296.44	22.008
296.81	20.872
297.18	21.816
297.55	20.580
297.91	19.921
298.28	21.419
298.65	21.018
299.02	20.949
299.38	21.514
299.75	17.520
300.12	20.307
300.48	20.875
300.85	19.236
301.22	20.510
301.59	19.571
301.95	19.521
302.32	20.668
302.69	18.996
303.05	18.545
303.42	18.765
303.79	19.026
304.15	18.881
304.52	19.235
304.89	18.931
305.25	19.142
305.62	19.026
305.99	19.244
306.35	17.897
306.72	18.946
307.09	19.978
307.45	19.482
307.82	17.188
308.19	18.102
308.55	19.094
308.92	19.012
309.29	18.796
309.65	17.285
310.02	18.499
310.38	18.817
310.75	18.163
311.12	18.833
311.48	17.973
311.85	18.763
312.22	18.002
312.58	17.152
312.95	18.163
313.31	17.087
313.68	17.775
314.05	19.724
314.41	17.789
314.78	17.523
315.14	18.570
315.51	18.126
315.87	17.426
316.24	17.875
316.61	16.959
316.97	18.004
317.34	16.732
317.70	18.451
318.07	17.421
318.43	18.787
318.80	18.369
319.16	17.232
319.53	16.979
319.89	18.095
320.26	18.700
320.62	18.452
320.99	18.687
321.35	17.677
321.72	19.097
322.08	18.460
322.45	19.005
322.81	18.314
323.18	18.112
323.54	18.924
323.91	17.453
324.27	18.069
324.64	17.894
325.00	17.493
325.37	18.016
325.73	18.851
326.10	17.829
326.46	16.756
326.83	18.637
327.19	18.617
327.56	18.206
327.92	17.585
328.29	18.456
328.65	17.956
329.01	17.509
329.38	17.576
329.74	17.636
330.11	18.002
330.47	18.090
330.84	18.290
331.20	17.395
331.56	17.890
331.93	16.111
332.29	17.835
332.66	18.053
333.02	18.282
333.38	18.157
333.75	18.449
334.11	17.616
334.48	16.859
334.84	17.371
335.20	18.091
335.57	18.132
335.93	17.054
336.29	17.857
336.66	17.583
337.02	17.647
337.38	17.037
337.75	16.043
338.11	16.831
338.47	17.311
338.84	16.407
339.20	15.596
339.56	17.518
339.93	16.545
340.29	17.754
340.65	18.004
341.02	17.714
341.38	16.815
341.74	16.930
342.11	18.341
342.47	17.269
342.83	17.551
343.20	17.922
343.56	17.607
343.92	17.281
344.28	17.432
344.65	17.455
345.01	17.256
345.37	16.724
345.73	17.174
346.10	17.136
346.46	16.695
346.82	15.898
347.19	15.789
347.55	15.846
347.91	17.314
348.27	17.091
348.63	16.054
349.00	17.718
349.36	15.025
349.72	16.921
350.08	15.883
350.45	16.680
350.81	16.084
351.17	16.775
351.53	15.315
351.89	15.924
352.26	16.969
352.62	16.119
352.98	15.397
353.34	16.023
353.70	15.057
354.07	16.210
354.43	15.000
354.79	16.412
355.15	15.962
355.51	16.707
355.87	15.184
356.24	16.042
356.60	15.397
356.96	16.171
357.32	16.517
357.68	16.614
358.04	15.439
358.40	15.202
358.77	17.371
359.13	14.996
359.49	15.216
359.85	14.365
360.21	15.231
360.57	16.109
360.93	15.538
361.29	15.646
361.66	14.551
362.02	15.522
362.38	16.046
362.74	16.220
363.10	15.396
363.46	14.820
363.82	15.797
364.18	15.639
364.54	15.676
364.90	15.793
365.26	15.368
365.62	15.924
365.98	14.755
366.35	15.115
366.71	15.257
367.07	15.149
367.43	15.675
367.79	15.846
368.15	16.595
368.51	15.625
368.87	15.703
369.23	15.069
369.59	15.713
369.95	15.074
370.31	15.741
370.67	15.435
371.03	16.030
371.39	16.254
371.75	14.779
372.11	15.292
372.47	16.202
372.83	15.850
373.19	16.040
373.55	16.260
373.91	16.642
374.27	14.433
374.63	14.909
374.99	15.184
375.35	13.957
375.71	14.873
376.07	15.501
376.42	15.543
376.78	15.507
377.14	16.214
377.50	15.497
377.86	14.096
378.22	16.245
378.58	14.662
378.94	14.896
379.30	14.186
379.66	15.736
380.02	15.233
380.38	14.208
380.74	15.246
381.09	15.526
381.45	15.612
381.81	15.602
382.17	15.541
382.53	14.843
382.89	15.000
383.25	15.385
383.61	15.180
383.97	15.572
384.32	15.471
384.68	15.551
385.04	15.489
385.40	15.046
385.76	14.865
386.12	15.285
386.48	15.104
386.83	15.138
387.19	15.523
387.55	16.141
387.91	15.780
388.27	15.573
388.62	15.550
388.98	15.049
389.34	14.706
389.70	15.880
390.06	16.793
390.42	15.694
390.77	15.903
391.13	15.635
391.49	15.419
391.85	15.277
392.20	14.448
392.56	15.720
392.92	15.480
393.28	15.030
393.64	15.168
393.99	15.944
394.35	15.136
394.71	15.935
395.07	15.389
395.42	15.204
395.78	14.695
396.14	15.332
396.50	15.351
396.85	15.321
397.21	15.845
397.57	14.693
397.92	14.724
398.28	15.247
398.64	15.472
399.00	15.165
399.35	15.116
399.71	15.914
400.07	15.376
400.42	15.706
400.78	15.501
401.14	14.817
401.49	15.284
401.85	15.487
402.21	14.850
402.57	15.238
402.92	16.393
403.28	15.365
403.63	15.347
403.99	15.223
404.35	15.697
404.70	15.228
405.06	15.201
405.42	16.032
405.77	14.514
406.13	15.181
406.49	14.843
406.84	15.416
407.20	14.539
407.55	15.061
407.91	15.200
408.27	14.997
408.62	16.014
408.98	15.502
409.34	15.560
409.69	15.935
410.05	15.861
410.40	15.535
410.76	15.711
411.11	15.561
411.47	14.952
411.83	16.127
412.18	15.090
412.54	15.006
412.89	15.482
413.25	15.466
413.60	15.318
413.96	15.118
414.31	15.674
414.67	15.209
415.03	15.695
415.38	15.399
415.74	15.691
416.09	16.199
416.45	15.997
416.80	15.069
417.16	16.086
417.51	15.262
417.87	14.772
418.22	15.773
418.58	15.881
418.93	15.602
419.29	15.595
419.64	16.373
420.00	15.915
420.35	15.768
420.71	16.019
421.06	14.797
421.42	15.906
421.77	15.919
422.12	15.328
422.48	14.517
422.83	15.259
423.19	15.249
423.54	15.090
423.90	16.406
424.25	14.517
424.61	15.238
424.96	14.927
425.31	15.338
425.67	14.831
426.02	15.314
426.38	15.324
426.73	15.506
427.09	14.711
427.44	15.066
427.79	15.469
428.15	15.536
428.50	15.097
428.85	16.150
429.21	15.461
429.56	15.293
429.92	14.997
430.27	14.896
430.62	14.644
430.98	15.309
431.33	15.052
431.68	15.340
432.04	14.856
432.39	15.248
432.74	15.560
433.10	15.563
433.45	15.394
433.80	15.576
434.16	14.690
434.51	15.474
434.86	15.906
435.22	15.620
435.57	14.894
435.92	14.980
436.28	15.421
436.63	16.170
436.98	15.341
437.34	15.146
437.69	15.753
438.04	15.402
438.39	16.418
438.75	15.224
439.10	15.754
439.45	15.939
439.81	16.133
440.16	15.359
440.51	15.583
440.86	16.271
441.22	16.185
441.57	15.021
441.92	15.507
442.27	15.877
442.63	14.481
442.98	15.268
443.33	15.489
443.68	15.488
444.03	15.129
444.39	14.557
444.74	15.368
445.09	15.472
445.44	15.637
445.79	15.141
446.15	15.934
446.50	15.293
446.85	15.211
447.20	15.196
447.55	15.522
447.91	15.389
448.26	16.082
448.61	15.828
448.96	15.947
449.31	16.142
449.66	14.969
450.02	15.320
450.37	14.966
450.72	15.736
451.07	15.174
451.42	15.441
451.77	16.735
452.12	15.242
452.47	15.734
452.83	15.152
453.18	15.770
453.53	16.265
453.88	15.830
454.23	15.900
454.58	15.990
454.93	16.592
455.28	15.212
455.63	15.898
455.98	16.905
456.34	15.892
456.69	16.218
457.04	15.604
457.39	15.780
457.74	15.670
458.09	15.929
458.44	15.964
458.79	15.401
459.14	15.688
459.49	16.287
459.84	15.789
460.19	15.675
460.54	15.451
460.89	16.072
461.24	15.543
461.59	17.025
461.94	15.968
462.29	16.558
462.64	15.699
462.99	15.680
463.34	17.400
463.69	16.510
464.04	15.710
464.39	16.174
464.74	16.043
465.09	15.862
465.44	14.515
465.79	16.107
466.14	15.216
466.49	15.239
466.84	16.287
467.19	15.993
467.54	16.500
467.89	15.066
468.24	16.463
468.59	15.812
468.94	15.272
469.29	14.974
469.64	17.403
469.99	15.697
470.34	15.720
470.68	16.667
471.03	17.075
471.38	17.165
471.73	16.056
472.08	17.039
472.43	16.018
472.78	16.524
473.13	16.239
473.48	15.980
473.83	15.854
474.17	15.246
474.52	17.370
474.87	16.404
475.22	16.193
475.57	15.852
475.92	15.454
476.27	16.065
476.61	16.106
476.96	15.448
477.31	15.594
477.66	15.864
478.01	15.630
478.36	15.812
478.70	15.628
479.05	16.081
479.40	16.121
479.75	16.218
480.10	15.805
480.45	15.421
480.79	15.432
481.14	15.753
481.49	16.137
481.84	15.821
482.19	15.266
482.53	15.367
482.88	15.170
483.23	16.402
483.58	15.696
483.92	15.370
484.27	14.858
484.62	15.259
484.97	15.175
485.31	15.616
485.66	14.454
486.01	13.559
486.36	12.939
486.70	12.683
487.05	13.396
487.40	13.560
487.75	13.636
488.09	14.680
488.44	14.410
488.79	14.973
489.13	15.393
489.48	15.171
489.83	15.149
490.17	15.563
490.52	15.722
490.87	15.423
491.22	15.553
491.56	15.171
491.91	15.403
492.26	15.021
492.60	15.438
492.95	14.920
493.30	16.028
493.64	15.446
493.99	15.599
494.34	16.096
494.68	15.659
495.03	15.836
495.37	15.589
495.72	15.595
496.07	16.102
496.41	15.177
496.76	15.919
497.11	14.903
497.45	15.929
497.80	15.883
498.14	15.217
498.49	15.610
498.84	15.772
499.18	15.476
499.53	16.429
499.87	15.610
500.22	15.450
500.56	16.165
500.91	15.769
501.26	15.742
501.60	16.754
501.95	15.674
502.29	16.448
502.64	15.549
502.98	15.054
503.33	15.676
503.67	16.102
504.02	15.575
504.36	15.957
504.71	15.340
505.06	16.289
505.40	16.529
505.75	16.008
506.09	15.986
506.44	15.688
506.78	16.512
507.13	15.851
507.47	16.364
507.82	16.312
508.16	15.805
508.51	16.337
508.85	15.541
509.19	15.918
509.54	16.020
509.88	15.817
510.23	15.733
510.57	16.718
510.92	16.002
511.26	15.827
511.61	15.560
511.95	16.180
512.30	15.748
512.64	16.443
512.98	16.935
513.33	16.381
513.67	16.329
514.02	16.342
514.36	17.094
514.70	17.266
515.05	15.561
515.39	16.657
515.74	16.667
516.08	17.775
516.42	17.592
516.77	17.336
517.11	16.315
517.46	17.494
517.80	16.899
518.14	15.981
518.49	16.861
518.83	16.705
519.17	17.148
519.52	16.469
519.86	16.714
520.20	16.879
520.55	17.534
520.89	17.640
521.23	17.491
521.58	16.687
521.92	17.024
522.26	16.779
522.61	17.383
522.95	16.575
523.29	16.616
523.64	17.683
523.98	16.081
524.32	17.973
524.66	17.498
525.01	17.279
525.35	16.729
525.69	16.749
526.04	17.695
526.38	17.389
526.72	17.301
527.06	17.389
527.41	16.584
527.75	17.685
528.09	16.570
528.43	18.037
528.78	17.271
529.12	16.848
529.46	17.942
529.80	17.265
530.15	17.570
530.49	16.246
530.83	18.038
531.17	18.342
531.51	18.677
531.86	17.226
532.20	18.579
532.54	16.976
532.88	17.522
533.22	17.052
533.57	17.469
533.91	17.098
534.25	17.072
534.59	16.656
534.93	17.490
535.27	17.200
535.62	16.789
535.96	16.824
536.30	17.228
536.64	17.128
536.98	16.987
537.32	17.512
537.66	17.733
538.01	17.643
538.35	17.970
538.69	18.060
539.03	16.114
539.37	16.613
539.71	16.202
540.05	17.582
540.39	16.346
540.73	16.559
541.07	18.430
541.42	18.200
541.76	17.742
542.10	17.723
542.44	16.755
542.78	17.787
543.12	16.187
543.46	16.984
543.80	17.697
544.14	16.110
544.48	16.762
544.82	17.126
545.16	17.567
545.50	16.195
545.84	17.473
546.18	17.710
546.52	17.343
546.86	17.663
547.20	17.802
547.54	17.034
547.88	18.176
548.22	16.563
548.56	16.604
548.90	16.773
549.24	17.172
549.58	17.872
549.92	17.445
550.26	17.898
550.60	17.704
550.94	16.549
551.28	16.313
551.62	18.620
551.96	18.386
552.30	18.089
552.64	17.918
552.98	18.508
553.32	18.071
553.66	17.860
554.00	18.119
554.34	17.943
554.68	18.312
555.02	18.477
555.36	17.397
555.69	17.050
556.03	17.833
556.37	17.190
556.71	17.190
557.05	17.437
557.39	18.055
557.73	17.855
558.07	18.274
558.41	17.004
558.75	18.148
559.08	18.419
559.42	17.687
559.76	18.162
560.10	17.630
560.44	16.702
560.78	17.365
561.12	17.414
561.45	17.731
561.79	17.007
562.13	17.371
562.47	17.964
562.81	16.946
563.15	17.592
563.48	17.374
563.82	17.808
564.16	17.201
564.50	17.122
564.84	17.573
565.17	17.375
565.51	17.764
565.85	17.322
566.19	16.531
566.52	16.783
566.86	16.757
567.20	17.158
567.54	16.667
567.88	16.784
568.21	16.402
568.55	15.976
568.89	16.488
569.23	15.285
569.56	15.142
569.90	15.358
570.24	14.747
570.57	14.553
570.91	14.253
571.25	14.237
571.59	14.580
571.92	13.998
572.26	14.414
572.60	14.264
572.93	14.333
573.27	14.848
573.61	14.098
573.95	14.057
574.28	13.467
574.62	13.800
574.96	13.692
575.29	13.749
575.63	13.491
575.97	13.564
576.30	13.914
576.64	13.697
576.98	13.855
577.31	13.933
577.65	13.398
577.98	13.530
578.32	13.384
578.66	13.208
578.99	13.467
579.33	13.241
579.67	13.306
580.00	13.570
580.34	13.194
580.67	13.779
581.01	13.560
581.35	13.663
581.68	13.669
582.02	13.294
582.35	13.327
582.69	12.886
583.02	13.141
583.36	13.466
583.70	13.736
584.03	13.767
584.37	14.308
584.70	13.636
585.04	13.919
585.37	13.933
585.71	14.051
586.04	13.892
586.38	13.689
586.72	14.278
587.05	13.882
587.39	13.404
587.72	13.811
588.06	13.874
588.39	13.745
588.73	13.904
589.06	14.428
589.40	14.444
589.73	14.748
590.07	14.555
590.40	13.884
590.73	15.027
591.07	15.018
591.40	14.888
591.74	15.455
592.07	15.663
592.41	15.420
592.74	14.757
593.08	14.257
593.41	14.046
593.75	13.835
594.08	14.046
594.41	14.422
594.75	14.270
595.08	14.674
595.42	14.956
595.75	13.996
596.09	14.307
596.42	15.167
596.75	15.281
597.09	15.325
597.42	14.924
597.75	14.791
598.09	15.348
598.42	14.905
598.76	14.795
599.09	14.405
599.42	14.156
599.76	14.531
600.09	14.353
600.42	14.427
600.76	14.357
601.09	14.098
601.42	14.269
601.76	14.649
602.09	14.901
602.42	15.486
602.76	15.155
603.09	14.673
603.42	14.565
603.76	14.748
604.09	14.230
604.42	14.391
604.76	15.268
605.09	14.941
605.42	14.408
605.75	14.694
606.09	14.315
606.42	15.039
606.75	14.226
607.09	14.860
607.42	15.062
607.75	14.430
608.08	15.154
608.42	15.016
608.75	15.059
609.08	15.079
609.41	15.469
609.75	15.341
610.08	15.598
610.41	14.944
610.74	14.948
611.07	15.761
611.41	15.456
611.74	15.988
612.07	15.580
612.40	15.477
612.73	16.000
613.07	15.733
613.40	15.482
613.73	14.997
614.06	15.108
614.39	15.627
614.72	15.737
615.06	15.389
615.39	15.021
615.72	15.644
616.05	15.098
616.38	15.953
616.71	15.914
617.05	16.078
617.38	15.935
617.71	15.495
618.04	16.526
618.37	16.203
618.70	16.801
619.03	16.579
619.36	17.108
619.69	16.972
620.03	17.170
620.36	16.711
620.69	17.945
621.02	17.035
621.35	16.601
621.68	17.134
622.01	16.718
622.34	17.625
622.67	16.578
623.00	17.095
623.33	17.012
623.66	17.370
623.99	16.789
624.32	16.120
624.65	17.020
624.99	16.431
625.32	16.655
625.65	16.153
625.98	18.063
626.31	18.351
626.64	17.714
626.97	18.537
627.30	17.041
627.63	18.294
627.96	17.830
628.29	17.673
628.62	18.207
628.95	18.396
629.28	17.974
629.61	18.790
629.94	18.286
630.26	17.636
630.59	19.256
630.92	19.157
631.25	17.769
