SpectraSuite Data File
++++++++++++++++++++++++++++++++++++
Date: Wed May 13 16:13:07 PDT 2015
User: schluterlab
Dark Spectrum Present: Yes
Reference Spectrum Present: Yes
Number of Sampled Component Spectra: 1
Spectrometers: USB2E3373
Integration Time (usec): 3000 (USB2E3373)
Spectra Averaged: 3 (USB2E3373)
Boxcar Smoothing: 0 (USB2E3373)
Correct for Electrical Dark: No (USB2E3373)
Strobe/Lamp Enabled: No (USB2E3373)
Correct for Detector Non-linearity: No (USB2E3373)
Correct for Stray Light: No (USB2E3373)
Number of Pixels in Processed Spectrum: 2048
>>>>>Begin Processed Spectral Data<<<<<
178.53	0.000
178.91	-1225.000
179.29	-875.000
179.67	-172.222
180.04	-900.000
180.42	1950.000
180.80	860.000
181.18	-950.000
181.56	485.714
181.94	0.000
182.31	-514.286
182.69	1433.333
183.07	-475.000
183.45	-344.444
183.83	445.455
184.20	-270.000
184.58	1650.000
184.96	4100.000
185.34	-780.000
185.72	-425.000
186.09	-1800.000
186.47	2100.000
186.85	1500.000
187.23	3000.000
187.61	-1333.333
187.98	925.000
188.36	381.818
188.74	418.182
189.12	-720.000
189.49	480.000
189.87	-3200.000
190.25	-1000.000
190.63	342.857
191.00	330.769
191.38	683.333
191.76	-900.000
192.14	1000.000
192.51	500.000
192.89	750.000
193.27	337.500
193.65	-825.000
194.02	400.000
194.40	680.000
194.78	430.000
195.15	383.333
195.53	550.000
195.91	-1600.000
196.29	262.500
196.66	242.105
197.04	-310.000
197.42	0.000
197.79	480.000
198.17	-4100.000
198.55	485.714
198.92	650.000
199.30	800.000
199.68	0.000
200.05	300.000
200.43	571.429
200.81	2800.000
201.18	1400.000
201.56	-1200.000
201.94	533.333
202.31	422.222
202.69	333.333
203.07	330.000
203.44	0.000
203.82	950.000
204.19	628.571
204.57	385.714
204.95	475.000
205.32	1000.000
205.70	345.455
206.08	285.714
206.45	2000.000
206.83	262.500
207.20	700.000
207.58	580.000
207.96	250.000
208.33	512.500
208.71	-516.667
209.08	600.000
209.46	422.222
209.84	327.273
210.21	-1200.000
210.59	1175.000
210.96	-337.500
211.34	1850.000
211.71	430.000
212.09	500.000
212.46	0.000
212.84	1266.667
213.22	1100.000
213.59	-2800.000
213.97	750.000
214.34	585.714
214.72	436.364
215.09	820.000
215.47	-1250.000
215.84	-2100.000
216.22	966.667
216.59	264.286
216.97	950.000
217.34	463.636
217.72	-516.667
218.09	0.000
218.47	-2900.000
218.84	477.778
219.22	571.429
219.59	1400.000
219.97	-414.286
220.34	680.000
220.72	-1366.667
221.09	300.000
221.47	1175.000
221.84	-500.000
222.22	0.000
222.59	925.000
222.97	-2300.000
223.34	920.000
223.72	338.462
224.09	780.000
224.46	1350.000
224.84	-4300.000
225.21	-700.000
225.59	-3700.000
225.96	480.000
226.34	245.000
226.71	2350.000
227.08	475.000
227.46	430.000
227.83	-825.000
228.21	-1200.000
228.58	466.667
228.95	-1750.000
229.33	-1650.000
229.70	1233.333
230.08	671.429
230.45	-680.000
230.82	291.667
231.20	416.667
231.57	457.143
231.95	358.333
232.32	195.455
232.69	218.182
233.07	442.857
233.44	215.385
233.81	-1433.333
234.19	252.632
234.56	358.333
234.93	241.667
235.31	409.091
235.68	261.538
236.05	214.286
236.43	139.394
236.80	194.737
237.17	2600.000
237.55	128.571
237.92	146.429
238.29	185.714
238.67	93.548
239.04	120.690
239.41	105.556
239.79	76.087
240.16	92.857
240.53	95.455
240.91	70.588
241.28	64.000
241.65	58.000
242.02	60.870
242.40	40.323
242.77	50.000
243.14	48.387
243.51	53.933
243.89	37.647
244.26	31.111
244.63	43.011
245.00	36.170
245.38	35.644
245.75	28.972
246.12	33.945
246.49	37.956
246.87	33.600
247.24	36.154
247.61	24.286
247.98	28.105
248.36	23.649
248.73	21.656
249.10	24.841
249.47	23.729
249.84	21.390
250.22	19.251
250.59	24.260
250.96	22.222
251.33	18.009
251.70	20.297
252.08	19.048
252.45	14.350
252.82	16.087
253.19	19.574
253.56	16.863
253.94	20.332
254.31	15.625
254.68	18.462
255.05	16.605
255.42	17.480
255.79	10.662
256.16	14.801
256.54	10.601
256.91	13.523
257.28	10.072
257.65	16.832
258.02	13.043
258.39	10.410
258.76	11.037
259.14	12.798
259.51	11.246
259.88	7.453
260.25	14.804
260.62	11.561
260.99	12.422
261.36	11.111
261.73	10.315
262.10	12.500
262.47	11.549
262.85	11.699
263.22	7.977
263.59	13.675
263.96	9.615
264.33	9.922
264.70	9.211
265.07	12.020
265.44	12.121
265.81	9.002
266.18	8.291
266.55	9.756
266.92	11.302
267.29	11.574
267.66	9.862
268.03	8.409
268.40	8.411
268.77	7.876
269.14	7.883
269.51	7.675
269.88	7.925
270.25	8.804
270.62	7.191
270.99	10.968
271.36	9.871
271.73	8.411
272.10	7.391
272.47	9.032
272.84	9.740
273.21	10.063
273.58	6.769
273.95	7.966
274.32	8.471
274.69	7.709
275.06	9.055
275.43	9.362
275.80	7.415
276.17	7.536
276.54	9.771
276.91	9.091
277.28	7.617
277.65	7.737
278.02	4.348
278.39	8.594
278.76	9.818
279.13	7.547
279.50	8.194
279.87	7.371
280.23	7.585
280.60	4.836
280.97	6.285
281.34	7.080
281.71	10.545
282.08	7.486
282.45	6.727
282.82	8.526
283.19	5.704
283.56	8.596
283.92	5.415
284.29	7.760
284.66	6.897
285.03	6.691
285.40	4.577
285.77	6.229
286.14	6.563
286.51	8.000
286.87	7.350
287.24	8.143
287.61	6.100
287.98	6.331
288.35	6.656
288.72	6.542
289.08	6.573
289.45	5.766
289.82	5.691
290.19	5.181
290.56	6.738
290.93	4.532
291.29	7.055
291.66	6.490
292.03	7.703
292.40	7.195
292.77	5.030
293.13	5.672
293.50	5.539
293.87	5.037
294.24	5.481
294.60	3.930
294.97	5.959
295.34	6.911
295.71	4.830
296.08	4.843
296.44	5.089
296.81	5.284
297.18	7.453
297.55	3.694
297.91	3.562
298.28	6.292
298.65	6.136
299.02	6.061
299.38	5.312
299.75	3.369
300.12	4.470
300.48	4.625
300.85	4.932
301.22	5.987
301.59	3.030
301.95	4.534
302.32	5.006
302.69	4.540
303.05	4.485
303.42	4.938
303.79	5.096
304.15	4.312
304.52	2.897
304.89	4.413
305.25	4.408
305.62	5.323
305.99	4.841
306.35	6.040
306.72	4.933
307.09	4.329
307.45	5.518
307.82	3.795
308.19	4.746
308.55	4.854
308.92	3.867
309.29	3.590
309.65	5.196
310.02	4.651
310.38	3.978
310.75	4.646
311.12	3.071
311.48	4.493
311.85	4.927
312.22	4.787
312.58	4.470
312.95	4.329
313.31	3.981
313.68	4.158
314.05	5.819
314.41	4.523
314.78	4.330
315.14	4.767
315.51	4.634
315.87	4.455
316.24	3.972
316.61	3.606
316.97	4.207
317.34	2.838
317.70	4.589
318.07	4.620
318.43	4.207
318.80	4.873
319.16	4.520
319.53	4.315
319.89	4.571
320.26	6.000
320.62	4.762
320.99	5.051
321.35	3.939
321.72	4.517
322.08	3.949
322.45	6.070
322.81	4.748
323.18	6.069
323.54	5.473
323.91	6.038
324.27	5.641
324.64	3.914
325.00	4.058
325.37	3.913
325.73	4.937
326.10	3.530
326.46	5.108
326.83	5.436
327.19	5.038
327.56	4.878
327.92	4.199
328.29	5.590
328.65	5.709
329.01	4.603
329.38	4.440
329.74	4.432
330.11	4.241
330.47	5.693
330.84	5.607
331.20	4.007
331.56	5.596
331.93	4.722
332.29	5.590
332.66	5.664
333.02	5.119
333.38	5.330
333.75	5.080
334.11	5.249
334.48	5.856
334.84	5.055
335.20	5.364
335.57	4.714
335.93	4.018
336.29	4.762
336.66	5.140
337.02	4.434
337.38	4.444
337.75	4.545
338.11	4.566
338.47	3.959
338.84	4.950
339.20	4.037
339.56	5.201
339.93	4.091
340.29	4.348
340.65	4.100
341.02	5.585
341.38	4.448
341.74	5.000
342.11	4.716
342.47	4.141
342.83	4.195
343.20	4.589
343.56	4.128
343.92	4.386
344.28	4.932
344.65	5.933
345.01	3.872
345.37	3.859
345.73	5.076
346.10	4.689
346.46	4.322
346.82	4.613
347.19	4.428
347.55	4.187
347.91	5.097
348.27	5.834
348.63	5.351
349.00	4.207
349.36	4.516
349.72	4.411
350.08	4.052
350.45	5.207
350.81	3.656
351.17	4.457
351.53	4.341
351.89	3.300
352.26	5.683
352.62	4.651
352.98	3.971
353.34	4.601
353.70	4.173
354.07	5.000
354.43	4.365
354.79	4.344
355.15	3.990
355.51	4.556
355.87	4.245
356.24	3.909
356.60	3.849
356.96	4.264
357.32	4.415
357.68	5.118
358.04	4.355
358.40	5.067
358.77	4.538
359.13	3.710
359.49	4.706
359.85	2.619
360.21	2.951
360.57	4.669
360.93	4.385
361.29	4.686
361.66	4.180
362.02	4.328
362.38	5.247
362.74	3.795
363.10	3.849
363.46	4.255
363.82	3.704
364.18	4.993
364.54	5.201
364.90	5.666
365.26	3.971
365.62	5.113
365.98	3.433
366.35	3.940
366.71	4.917
367.07	3.787
367.43	4.209
367.79	4.354
368.15	4.813
368.51	3.924
368.87	4.497
369.23	4.243
369.59	5.503
369.95	4.338
370.31	4.416
370.67	4.710
371.03	4.419
371.39	5.394
371.75	4.265
372.11	4.267
372.47	4.326
372.83	4.395
373.19	5.058
373.55	3.622
373.91	4.271
374.27	4.055
374.63	4.945
374.99	5.014
375.35	3.699
375.71	5.209
376.07	4.664
376.42	4.814
376.78	4.771
377.14	4.003
377.50	4.901
377.86	4.455
378.22	4.425
378.58	3.885
378.94	4.714
379.30	3.944
379.66	4.251
380.02	4.853
380.38	4.007
380.74	4.622
381.09	4.768
381.45	5.101
381.81	5.160
382.17	5.287
382.53	5.283
382.89	5.432
383.25	4.753
383.61	5.081
383.97	4.628
384.32	5.490
384.68	4.709
385.04	5.470
385.40	5.139
385.76	4.730
386.12	4.663
386.48	5.664
386.83	5.452
387.19	6.308
387.55	5.071
387.91	4.897
388.27	5.028
388.62	5.716
388.98	5.590
389.34	5.319
389.70	5.395
390.06	6.274
390.42	5.318
390.77	5.916
391.13	5.871
391.49	6.345
391.85	5.729
392.20	4.479
392.56	6.061
392.92	5.592
393.28	4.142
393.64	6.535
393.99	6.231
394.35	6.079
394.71	5.772
395.07	5.919
395.42	5.748
395.78	5.852
396.14	6.456
396.50	6.078
396.85	5.594
397.21	5.795
397.57	5.580
397.92	5.649
398.28	5.269
398.64	6.153
399.00	5.204
399.35	5.584
399.71	5.613
400.07	6.387
400.42	6.196
400.78	6.454
401.14	4.939
401.49	5.970
401.85	5.566
402.21	5.569
402.57	5.676
402.92	6.116
403.28	6.371
403.63	5.260
403.99	5.541
404.35	5.515
404.70	6.055
405.06	5.649
405.42	6.238
405.77	5.143
406.13	6.264
406.49	6.209
406.84	6.143
407.20	5.378
407.55	6.190
407.91	5.933
408.27	5.488
408.62	6.321
408.98	5.944
409.34	5.658
409.69	6.387
410.05	5.266
410.40	5.994
410.76	5.675
411.11	6.695
411.47	6.518
411.83	6.109
412.18	5.813
412.54	6.538
412.89	6.807
413.25	6.021
413.60	6.485
413.96	6.072
414.31	6.015
414.67	6.907
415.03	6.490
415.38	6.701
415.74	6.109
416.09	6.009
416.45	5.489
416.80	6.015
417.16	6.300
417.51	6.702
417.87	5.780
418.22	6.498
418.58	6.585
418.93	6.081
419.29	5.729
419.64	6.990
420.00	5.671
420.35	6.899
420.71	6.993
421.06	5.668
421.42	5.906
421.77	6.895
422.12	5.896
422.48	4.965
422.83	5.824
423.19	6.519
423.54	5.804
423.90	6.493
424.25	5.695
424.61	6.131
424.96	5.773
425.31	6.146
425.67	6.180
426.02	5.657
426.38	6.471
426.73	6.846
427.09	6.018
427.44	5.923
427.79	5.635
428.15	6.845
428.50	6.495
428.85	6.496
429.21	5.908
429.56	5.754
429.92	6.593
430.27	5.710
430.62	5.786
430.98	6.175
431.33	6.289
431.68	6.545
432.04	6.124
432.39	5.825
432.74	6.224
433.10	6.621
433.45	6.181
433.80	5.155
434.16	6.036
434.51	6.632
434.86	6.100
435.22	6.003
435.57	5.593
435.92	5.617
436.28	6.524
436.63	7.230
436.98	5.209
437.34	6.440
437.69	6.126
438.04	5.846
438.39	6.448
438.75	6.566
439.10	6.201
439.45	5.667
439.81	5.921
440.16	6.381
440.51	6.034
440.86	6.312
441.22	6.618
441.57	6.423
441.92	6.295
442.27	5.867
442.63	6.003
442.98	6.366
443.33	6.033
443.68	5.989
444.03	6.247
444.39	5.794
444.74	6.006
445.09	5.876
445.44	6.288
445.79	6.581
446.15	6.088
446.50	5.654
446.85	5.653
447.20	5.558
447.55	6.253
447.91	5.847
448.26	6.455
448.61	6.727
448.96	6.645
449.31	6.693
449.66	6.303
450.02	5.961
450.37	5.896
450.72	6.148
451.07	5.850
451.42	5.653
451.77	6.694
452.12	6.062
452.47	6.343
452.83	6.876
453.18	6.540
453.53	6.555
453.88	5.434
454.23	6.216
454.58	6.239
454.93	7.057
455.28	5.860
455.63	6.129
455.98	6.845
456.34	5.779
456.69	6.637
457.04	5.944
457.39	5.845
457.74	5.978
458.09	6.440
458.44	5.701
458.79	5.586
459.14	6.321
459.49	6.246
459.84	6.094
460.19	6.128
460.54	6.539
460.89	6.199
461.24	5.829
461.59	6.973
461.94	6.289
462.29	6.469
462.64	6.701
462.99	6.311
463.34	7.533
463.69	7.567
464.04	6.435
464.39	6.957
464.74	6.833
465.09	6.514
465.44	6.593
465.79	5.649
466.14	6.404
466.49	6.118
466.84	7.356
467.19	5.733
467.54	7.188
467.89	6.603
468.24	5.934
468.59	7.021
468.94	6.536
469.29	6.234
469.64	6.693
469.99	6.495
470.34	6.341
470.68	6.609
471.03	6.054
471.38	6.602
471.73	6.862
472.08	6.645
472.43	6.281
472.78	6.452
473.13	6.547
473.48	7.303
473.83	6.646
474.17	6.098
474.52	6.700
474.87	6.713
475.22	6.790
475.57	5.803
475.92	5.736
476.27	6.032
476.61	5.792
476.96	5.882
477.31	5.651
477.66	6.346
478.01	5.959
478.36	6.081
478.70	5.711
479.05	6.283
479.40	6.602
479.75	5.948
480.10	5.915
480.45	5.759
480.79	5.638
481.14	5.675
481.49	5.933
481.84	5.807
482.19	6.361
482.53	6.606
482.88	5.537
483.23	5.607
483.58	6.779
483.92	5.998
484.27	5.011
484.62	5.733
484.97	5.242
485.31	5.616
485.66	5.138
486.01	4.624
486.36	4.109
486.70	4.118
487.05	4.556
487.40	4.648
487.75	4.792
488.09	5.065
488.44	4.703
488.79	5.823
489.13	5.004
489.48	5.628
489.83	5.654
490.17	5.918
490.52	5.447
490.87	5.834
491.22	5.957
491.56	4.966
491.91	5.351
492.26	5.328
492.60	5.714
492.95	5.426
493.30	6.075
493.64	5.833
493.99	5.246
494.34	6.059
494.68	5.907
495.03	6.250
495.37	5.770
495.72	5.897
496.07	5.615
496.41	5.265
496.76	5.541
497.11	5.988
497.45	5.589
497.80	5.518
498.14	5.411
498.49	5.415
498.84	6.088
499.18	5.810
499.53	5.461
499.87	5.638
500.22	5.558
500.56	6.117
500.91	5.385
501.26	6.306
501.60	5.505
501.95	5.225
502.29	6.186
502.64	5.540
502.98	5.610
503.33	5.667
503.67	5.800
504.02	5.987
504.36	5.756
504.71	5.520
505.06	5.783
505.40	5.493
505.75	5.400
506.09	5.782
506.44	5.575
506.78	5.504
507.13	5.603
507.47	6.212
507.82	5.927
508.16	5.876
508.51	5.682
508.85	5.412
509.19	5.306
509.54	5.969
509.88	5.770
510.23	5.707
510.57	6.914
510.92	6.059
511.26	6.115
511.61	6.172
511.95	6.367
512.30	5.726
512.64	6.233
512.98	6.217
513.33	6.317
513.67	5.710
514.02	5.357
514.36	5.898
514.70	6.032
515.05	5.354
515.39	6.169
515.74	6.137
516.08	6.652
516.42	6.659
516.77	6.689
517.11	5.993
517.46	6.998
517.80	6.446
518.14	5.617
518.49	6.359
518.83	6.420
519.17	5.947
519.52	6.395
519.86	6.161
520.20	6.474
520.55	6.284
520.89	6.934
521.23	6.876
521.58	6.543
521.92	7.042
522.26	5.796
522.61	6.355
522.95	6.139
523.29	6.878
523.64	6.646
523.98	6.285
524.32	6.876
524.66	7.276
525.01	6.127
525.35	6.258
525.69	6.404
526.04	6.231
526.38	6.223
526.72	6.380
527.06	6.340
527.41	5.198
527.75	7.267
528.09	6.551
528.43	6.565
528.78	6.454
529.12	6.121
529.46	6.920
529.80	6.745
530.15	6.978
530.49	6.646
530.83	6.835
531.17	6.919
531.51	7.847
531.86	6.387
532.20	7.366
532.54	7.047
532.88	6.868
533.22	6.933
533.57	6.605
533.91	6.623
534.25	6.987
534.59	6.528
534.93	7.139
535.27	5.914
535.62	6.593
535.96	6.340
536.30	6.039
536.64	6.568
536.98	6.503
537.32	5.925
537.66	5.667
538.01	6.517
538.35	6.012
538.69	7.147
539.03	6.498
539.37	5.942
539.71	5.444
540.05	6.667
540.39	6.047
540.73	6.404
541.07	7.203
541.42	6.523
541.76	7.419
542.10	7.180
542.44	6.291
542.78	7.181
543.12	6.782
543.46	7.738
543.80	6.571
544.14	6.162
544.48	6.730
544.82	6.928
545.16	6.441
545.50	6.684
545.84	6.317
546.18	6.734
546.52	6.951
546.86	6.460
547.20	6.608
547.54	6.212
547.88	7.462
548.22	6.849
548.56	6.226
548.90	6.018
549.24	5.657
549.58	7.435
549.92	5.701
550.26	6.037
550.60	6.916
550.94	5.845
551.28	6.291
551.62	6.614
551.96	6.737
552.30	7.031
552.64	7.505
552.98	6.644
553.32	7.080
553.66	7.362
554.00	7.412
554.34	6.901
554.68	6.938
555.02	6.417
555.36	6.611
555.69	6.631
556.03	6.393
556.37	6.412
556.71	6.889
557.05	6.232
557.39	6.788
557.73	7.269
558.07	5.729
558.41	6.585
558.75	6.833
559.08	6.786
559.42	6.425
559.76	7.500
560.10	6.210
560.44	6.080
560.78	5.722
561.12	6.201
561.45	7.562
561.79	6.856
562.13	6.439
562.47	5.874
562.81	6.555
563.15	6.488
563.48	6.366
563.82	5.740
564.16	6.082
564.50	4.753
564.84	6.953
565.17	5.470
565.51	5.815
565.85	6.409
566.19	5.322
566.52	6.143
566.86	5.847
567.20	6.368
567.54	5.822
567.88	5.486
568.21	6.243
568.55	5.713
568.89	5.399
569.23	5.749
569.56	4.696
569.90	5.358
570.24	5.059
570.57	4.930
570.91	4.719
571.25	4.632
571.59	4.654
571.92	4.724
572.26	4.131
572.60	4.805
572.93	4.738
573.27	4.762
573.61	4.746
573.95	4.703
574.28	4.347
574.62	4.397
574.96	4.468
575.29	4.340
575.63	4.421
575.97	4.426
576.30	4.434
576.64	4.321
576.98	4.716
577.31	3.974
577.65	4.582
577.98	4.343
578.32	4.051
578.66	4.361
578.99	3.949
579.33	4.454
579.67	4.354
580.00	4.268
580.34	4.271
580.67	4.396
581.01	4.318
581.35	4.418
581.68	4.092
582.02	3.918
582.35	3.942
582.69	4.264
583.02	3.871
583.36	4.312
583.70	4.471
584.03	4.389
584.37	4.928
584.70	4.101
585.04	4.574
585.37	4.287
585.71	4.558
586.04	4.421
586.38	4.519
586.72	4.695
587.05	4.428
587.39	4.327
587.72	4.432
588.06	4.242
588.39	4.774
588.73	4.547
589.06	4.924
589.40	4.512
589.73	4.893
590.07	5.018
590.40	4.750
590.73	5.191
591.07	5.332
591.40	4.808
591.74	5.498
592.07	5.061
592.41	4.961
592.74	4.607
593.08	4.497
593.41	4.334
593.75	4.403
594.08	4.727
594.41	5.125
594.75	4.547
595.08	4.832
595.42	4.764
595.75	4.665
596.09	4.844
596.42	5.580
596.75	4.939
597.09	5.541
597.42	4.806
597.75	4.873
598.09	5.087
598.42	4.639
598.76	4.499
599.09	4.485
599.42	4.367
599.76	4.832
600.09	4.335
600.42	4.711
600.76	4.214
601.09	4.590
601.42	4.756
601.76	4.478
602.09	5.059
602.42	5.056
602.76	4.998
603.09	4.603
603.42	5.232
603.76	4.688
604.09	4.731
604.42	4.688
604.76	5.314
605.09	5.111
605.42	4.746
605.75	4.719
606.09	4.595
606.42	4.168
606.75	4.936
607.09	5.609
607.42	4.536
607.75	4.388
608.08	4.820
608.42	5.334
608.75	5.230
609.08	5.412
609.41	5.045
609.75	5.050
610.08	5.090
610.41	4.143
610.74	4.825
611.07	5.237
611.41	5.250
611.74	5.732
612.07	5.435
612.40	4.879
612.73	5.053
613.07	5.442
613.40	5.371
613.73	4.824
614.06	5.215
614.39	5.506
614.72	5.947
615.06	5.305
615.39	4.512
615.72	5.112
616.05	5.635
616.38	5.670
616.71	5.226
617.05	5.654
617.38	5.412
617.71	4.745
618.04	5.589
618.37	5.559
618.70	4.854
619.03	5.855
619.36	5.838
619.69	6.268
620.03	5.632
620.36	6.551
620.69	6.507
621.02	6.047
621.35	6.265
621.68	6.698
622.01	6.115
622.34	6.203
622.67	6.464
623.00	6.310
623.33	5.790
623.66	6.290
623.99	5.965
624.32	5.706
624.65	5.438
624.99	5.878
625.32	5.286
625.65	5.485
625.98	6.533
626.31	6.921
626.64	5.796
626.97	6.401
627.30	5.985
627.63	6.891
627.96	6.897
628.29	5.774
628.62	7.411
628.95	7.170
629.28	7.026
629.61	6.691
629.94	7.048
630.26	6.101
630.59	7.531
630.92	7.184
631.25	6.022
631.58	7.207
631.91	6.694
632.24	5.802
632.57	7.870
632.90	7.346
633.23	7.718
633.56	7.571
633.89	7.588
634.22	8.173
634.55	9.112
634.88	6.108
635.20	7.527
635.53	7.711
635.86	8.292
636.19	6.941
636.52	8.651
636.85	7.675
637.18	7.488
637.51	9.693
637.83	5.919
638.16	7.673
638.49	7.557
638.82	8.344
639.15	9.125
639.48	8.853
639.81	9.115
640.13	8.464
640.46	8.456
640.79	9.379
641.12	8.803
641.45	7.542
641.77	9.278
642.10	9.649
642.43	7.357
642.76	6.656
643.09	9.663
643.41	8.346
643.74	11.420
644.07	9.146
644.40	8.896
644.73	9.449
645.05	10.460
645.38	9.321
645.71	9.179
646.04	10.631
646.36	8.848
646.69	9.197
647.02	9.354
647.35	8.591
647.67	10.265
648.00	12.358
648.33	8.746
648.66	8.636
648.98	9.295
649.31	8.670
649.64	9.118
649.96	8.197
650.29	9.637
650.62	6.796
650.94	10.373
651.27	9.628
651.60	9.817
651.92	10.064
652.25	8.143
652.58	9.346
652.90	8.531
653.23	7.242
653.56	8.031
653.88	10.143
654.21	9.163
654.54	8.581
654.86	8.879
655.19	7.432
655.52	4.782
