SpectraSuite Data File
++++++++++++++++++++++++++++++++++++
Date: Wed May 13 16:30:23 PDT 2015
User: schluterlab
Dark Spectrum Present: Yes
Reference Spectrum Present: Yes
Number of Sampled Component Spectra: 1
Spectrometers: USB2E3373
Integration Time (usec): 3000 (USB2E3373)
Spectra Averaged: 3 (USB2E3373)
Boxcar Smoothing: 0 (USB2E3373)
Correct for Electrical Dark: No (USB2E3373)
Strobe/Lamp Enabled: No (USB2E3373)
Correct for Detector Non-linearity: No (USB2E3373)
Correct for Stray Light: No (USB2E3373)
Number of Pixels in Processed Spectrum: 2048
>>>>>Begin Processed Spectral Data<<<<<
178.53	0.000
178.91	-1100.000
179.29	-925.000
179.67	-183.333
180.04	-1200.000
180.42	2550.000
180.80	980.000
181.18	-1050.000
181.56	700.000
181.94	0.000
182.31	-642.857
182.69	1333.333
183.07	-475.000
183.45	-477.778
183.83	463.636
184.20	-300.000
184.58	2000.000
184.96	4400.000
185.34	-800.000
185.72	-525.000
186.09	-2300.000
186.47	2350.000
186.85	2350.000
187.23	3900.000
187.61	-1733.333
187.98	1400.000
188.36	618.182
188.74	536.364
189.12	-920.000
189.49	490.000
189.87	-4000.000
190.25	-1250.000
190.63	350.000
191.00	392.308
191.38	733.333
191.76	-875.000
192.14	1225.000
192.51	412.500
192.89	733.333
193.27	537.500
193.65	-1025.000
194.02	550.000
194.40	840.000
194.78	540.000
195.15	483.333
195.53	580.000
195.91	-1650.000
196.29	350.000
196.66	278.947
197.04	-300.000
197.42	0.000
197.79	520.000
198.17	-4100.000
198.55	571.429
198.92	625.000
199.30	720.000
199.68	0.000
200.05	305.556
200.43	642.857
200.81	3900.000
201.18	1466.667
201.56	-1400.000
201.94	400.000
202.31	588.889
202.69	308.333
203.07	480.000
203.44	0.000
203.82	1050.000
204.19	671.429
204.57	428.571
204.95	512.500
205.32	1466.667
205.70	454.545
206.08	321.429
206.45	2800.000
206.83	250.000
207.20	650.000
207.58	780.000
207.96	311.111
208.33	612.500
208.71	-766.667
209.08	714.286
209.46	500.000
209.84	445.455
210.21	-1433.333
210.59	1250.000
210.96	-562.500
211.34	2450.000
211.71	490.000
212.09	716.667
212.46	0.000
212.84	1566.667
213.22	1050.000
213.59	-4500.000
213.97	766.667
214.34	742.857
214.72	518.182
215.09	1020.000
215.47	-2150.000
215.84	-2250.000
216.22	1366.667
216.59	335.714
216.97	1175.000
217.34	390.909
217.72	-616.667
218.09	0.000
218.47	-4600.000
218.84	566.667
219.22	771.429
219.59	1466.667
219.97	-471.429
220.34	960.000
220.72	-1433.333
221.09	350.000
221.47	1250.000
221.84	-783.333
222.22	0.000
222.59	1125.000
222.97	-2300.000
223.34	1060.000
223.72	415.385
224.09	800.000
224.46	1750.000
224.84	-4900.000
225.21	-820.000
225.59	-4200.000
225.96	470.000
226.34	270.000
226.71	2450.000
227.08	462.500
227.46	560.000
227.83	-1100.000
228.21	-1850.000
228.58	511.111
228.95	-2150.000
229.33	-1700.000
229.70	1700.000
230.08	571.429
230.45	-720.000
230.82	425.000
231.20	766.667
231.57	700.000
231.95	441.667
232.32	245.455
232.69	372.727
233.07	642.857
233.44	361.538
233.81	-1533.333
234.19	300.000
234.56	466.667
234.93	400.000
235.31	427.273
235.68	353.846
236.05	307.143
236.43	178.788
236.80	310.526
237.17	5100.000
237.55	257.143
237.92	210.714
238.29	271.429
238.67	206.452
239.04	227.586
239.41	169.444
239.79	158.696
240.16	164.286
240.53	154.545
240.91	135.294
241.28	140.000
241.65	136.000
242.02	114.493
242.40	135.484
242.77	140.000
243.14	103.226
243.51	108.989
243.89	110.588
244.26	105.556
244.63	98.925
245.00	117.021
245.38	100.990
245.75	90.654
246.12	92.661
246.49	90.511
246.87	92.000
247.24	90.769
247.61	90.000
247.98	80.392
248.36	83.108
248.73	80.892
249.10	84.076
249.47	82.486
249.84	78.075
250.22	77.540
250.59	75.740
250.96	83.838
251.33	72.986
251.70	78.218
252.08	75.714
252.45	69.955
252.82	72.174
253.19	71.064
253.56	70.196
253.94	72.199
254.31	71.484
254.68	75.769
255.05	73.801
255.42	74.797
255.79	68.015
256.16	71.119
256.54	67.491
256.91	62.633
257.28	69.424
257.65	68.977
258.02	64.907
258.39	65.300
258.76	68.227
259.14	59.821
259.51	64.438
259.88	66.460
260.25	67.674
260.62	63.584
260.99	69.565
261.36	66.667
261.73	67.049
262.10	66.860
262.47	69.014
262.85	65.460
263.22	63.248
263.59	70.655
263.96	64.835
264.33	62.924
264.70	66.316
265.07	65.217
265.44	63.131
265.81	61.071
266.18	65.075
266.55	61.463
266.92	64.865
267.29	64.583
267.66	64.908
268.03	62.045
268.40	62.617
268.77	62.530
269.14	60.586
269.51	60.497
269.88	62.937
270.25	58.465
270.62	61.124
270.99	61.935
271.36	59.227
271.73	64.019
272.10	62.174
272.47	64.086
272.84	63.203
273.21	59.119
273.58	60.262
273.95	58.491
274.32	59.917
274.69	60.171
275.06	57.677
275.43	59.787
275.80	60.321
276.17	61.914
276.54	60.083
276.91	58.893
277.28	57.812
277.65	60.735
278.02	59.627
278.39	61.914
278.76	58.000
279.13	57.925
279.50	58.845
279.87	59.163
280.23	58.283
280.60	58.801
280.97	56.747
281.34	59.646
281.71	56.545
282.08	58.925
282.45	56.909
282.82	56.306
283.19	56.684
283.56	54.737
283.92	53.638
284.29	56.085
284.66	54.446
285.03	54.611
285.40	55.810
285.77	55.724
286.14	52.159
286.51	56.833
286.87	55.043
287.24	54.560
287.61	53.130
287.98	52.273
288.35	53.249
288.72	52.025
289.08	50.861
289.45	52.389
289.82	52.520
290.19	48.509
290.56	50.383
290.93	47.885
291.29	50.153
291.66	49.115
292.03	50.145
292.40	49.633
292.77	47.781
293.13	48.060
293.50	48.980
293.87	48.296
294.24	47.704
294.60	47.307
294.97	45.785
295.34	46.121
295.71	45.597
296.08	43.020
296.44	45.117
296.81	40.951
297.18	46.206
297.55	42.612
297.91	43.140
298.28	44.578
298.65	43.473
299.02	44.137
299.38	42.895
299.75	43.127
300.12	44.572
300.48	42.375
300.85	42.293
301.22	40.892
301.59	39.773
301.95	41.814
302.32	41.849
302.69	41.338
303.05	40.364
303.42	40.370
303.79	41.336
304.15	40.093
304.52	39.629
304.89	40.418
305.25	40.951
305.62	40.770
305.99	39.433
306.35	41.387
306.72	39.350
307.09	38.735
307.45	40.653
307.82	39.063
308.19	37.748
308.55	39.482
308.92	38.453
309.29	37.804
309.65	38.706
310.02	39.112
310.38	39.247
310.75	38.332
311.12	38.997
311.48	38.976
311.85	38.994
312.22	38.085
312.58	38.877
312.95	38.965
313.31	36.990
313.68	37.214
314.05	40.138
314.41	37.990
314.78	38.268
315.14	37.835
315.51	38.002
315.87	38.020
316.24	37.339
316.61	36.745
316.97	37.280
317.34	36.986
317.70	38.623
318.07	37.825
318.43	37.769
318.80	38.613
319.16	38.324
319.53	37.054
319.89	38.190
320.26	38.000
320.62	36.706
320.99	37.677
321.35	36.869
321.72	36.037
322.08	37.414
322.45	39.005
322.81	38.081
323.18	39.210
323.54	38.497
323.91	37.830
324.27	37.285
324.64	37.185
325.00	36.880
325.37	37.216
325.73	36.535
326.10	35.746
326.46	35.842
326.83	36.756
327.19	37.660
327.56	36.324
327.92	37.008
328.29	38.509
328.65	37.477
329.01	37.545
329.38	37.835
329.74	35.826
330.11	36.664
330.47	35.904
330.84	36.949
331.20	34.608
331.56	35.780
331.93	35.185
332.29	34.428
332.66	36.460
333.02	36.563
333.38	36.224
333.75	36.275
334.11	35.587
334.48	36.114
334.84	36.765
335.20	36.182
335.57	35.630
335.93	33.750
336.29	35.440
336.66	34.085
337.02	33.575
337.38	36.296
337.75	33.512
338.11	34.020
338.47	34.070
338.84	35.655
339.20	33.028
339.56	35.036
339.93	33.818
340.29	33.605
340.65	33.155
341.02	34.642
341.38	34.609
341.74	33.947
342.11	35.109
342.47	35.242
342.83	32.877
343.20	35.238
343.56	33.024
343.92	33.158
344.28	34.354
344.65	33.448
345.01	31.987
345.37	32.161
345.73	32.910
346.10	34.271
346.46	33.898
346.82	33.031
347.19	33.083
347.55	32.348
347.91	32.524
348.27	34.100
348.63	33.110
349.00	33.252
349.36	33.169
349.72	31.836
350.08	32.658
350.45	32.547
350.81	32.981
351.17	32.901
351.53	31.859
351.89	32.261
352.26	34.254
352.62	32.799
352.98	32.253
353.34	32.457
353.70	30.851
354.07	31.613
354.43	31.984
354.79	31.537
355.15	31.844
355.51	32.854
355.87	33.306
356.24	31.270
356.60	32.318
356.96	32.422
357.32	31.480
357.68	32.520
358.04	31.275
358.40	31.275
358.77	31.455
359.13	30.229
359.49	30.667
359.85	30.714
360.21	30.383
360.57	30.661
360.93	32.231
361.29	31.141
361.66	31.037
362.02	30.299
362.38	31.179
362.74	31.176
363.10	30.422
363.46	30.521
363.82	30.612
364.18	30.470
364.54	30.832
364.90	31.020
365.26	30.882
365.62	31.118
365.98	30.387
366.35	29.943
366.71	30.947
367.07	30.007
367.43	31.132
367.79	31.263
368.15	30.819
368.51	29.724
368.87	31.263
369.23	30.578
369.59	30.123
369.95	29.191
370.31	30.484
370.67	30.507
371.03	30.637
371.39	29.956
371.75	30.441
372.11	29.943
372.47	30.132
372.83	31.556
373.19	30.491
373.55	30.377
373.91	31.149
374.27	29.691
374.63	30.545
374.99	31.144
375.35	30.007
375.71	30.089
376.07	31.276
376.42	30.124
376.78	30.484
377.14	29.986
377.50	30.000
377.86	30.452
378.22	29.709
378.58	28.634
378.94	29.667
379.30	29.962
379.66	30.203
380.02	29.853
380.38	29.569
380.74	29.772
381.09	30.929
381.45	30.117
381.81	29.484
382.17	29.172
382.53	29.497
382.89	29.136
383.25	29.518
383.61	29.802
383.97	30.582
384.32	29.258
384.68	29.678
385.04	30.486
385.40	29.783
385.76	29.668
386.12	30.376
386.48	30.334
386.83	31.046
387.19	29.499
387.55	30.118
387.91	29.686
388.27	30.656
388.62	29.871
388.98	29.177
389.34	29.537
389.70	30.227
390.06	30.355
390.42	29.831
390.77	29.198
391.13	29.419
391.49	30.457
391.85	29.153
392.20	28.959
392.56	29.861
392.92	30.489
393.28	29.231
393.64	29.556
393.99	30.055
394.35	29.218
394.71	29.987
395.07	29.346
395.42	31.273
395.78	30.153
396.14	29.423
396.50	30.764
396.85	29.816
397.21	28.977
397.57	29.448
397.92	29.748
398.28	29.372
398.64	30.167
399.00	29.211
399.35	30.175
399.71	29.803
400.07	29.982
400.42	29.693
400.78	30.157
401.14	29.085
401.49	29.075
401.85	29.220
402.21	29.940
402.57	29.981
402.92	29.887
403.28	29.482
403.63	29.579
403.99	29.554
404.35	29.333
404.70	29.137
405.06	28.247
405.42	29.632
405.77	28.571
406.13	28.499
406.49	29.982
406.84	29.120
407.20	29.492
407.55	29.292
407.91	29.733
408.27	29.419
408.62	29.500
408.98	29.105
409.34	29.213
409.69	29.032
410.05	28.934
410.40	29.052
410.76	28.375
411.11	29.312
411.47	29.137
411.83	29.322
412.18	28.448
412.54	29.763
412.89	28.855
413.25	28.689
413.60	30.142
413.96	28.537
414.31	28.736
414.67	28.771
415.03	28.675
415.38	29.510
415.74	28.810
416.09	29.719
416.45	28.849
416.80	28.685
417.16	29.155
417.51	29.861
417.87	28.645
418.22	29.779
418.58	28.276
418.93	29.853
419.29	29.408
419.64	29.597
420.00	28.963
420.35	28.000
420.71	29.707
421.06	28.162
421.42	28.480
421.77	29.260
422.12	29.141
422.48	27.793
422.83	28.655
423.19	28.398
423.54	28.497
423.90	29.333
424.25	28.308
424.61	28.452
424.96	29.213
425.31	28.405
425.67	28.427
426.02	28.743
426.38	29.609
426.73	28.262
427.09	28.571
427.44	28.005
427.79	28.235
428.15	30.179
428.50	27.970
428.85	28.725
429.21	27.719
429.56	28.149
429.92	27.982
430.27	28.302
430.62	27.599
430.98	28.179
431.33	28.247
431.68	28.482
432.04	27.529
432.39	28.498
432.74	28.905
433.10	28.862
433.45	28.338
433.80	28.160
434.16	27.938
434.51	27.579
434.86	27.480
435.22	28.127
435.57	28.632
435.92	28.379
436.28	28.470
436.63	28.863
436.98	28.163
437.34	29.636
437.69	28.530
438.04	28.499
438.39	28.896
438.75	28.414
439.10	28.715
439.45	27.745
439.81	28.459
440.16	28.571
440.51	27.651
440.86	28.431
441.22	27.697
441.57	28.344
441.92	28.045
442.27	28.364
442.63	28.278
442.98	28.789
443.33	28.043
443.68	28.033
444.03	28.551
444.39	28.335
444.74	27.706
445.09	28.410
445.44	27.665
445.79	27.610
446.15	27.316
446.50	27.625
446.85	28.674
447.20	27.588
447.55	28.699
447.91	28.130
448.26	27.991
448.61	28.660
448.96	29.014
449.31	28.121
449.66	28.081
450.02	27.577
450.37	27.891
450.72	27.862
451.07	27.727
451.42	27.416
451.77	27.951
452.12	27.598
452.47	28.234
452.83	27.273
453.18	28.056
453.53	27.829
453.88	27.466
454.23	27.496
454.58	27.620
454.93	28.735
455.28	27.494
455.63	28.216
455.98	28.631
456.34	28.078
456.69	27.489
457.04	27.678
457.39	27.586
457.74	27.626
458.09	27.775
458.44	27.936
458.79	27.928
459.14	27.257
459.49	27.963
459.84	27.701
460.19	27.991
460.54	27.257
460.89	27.647
461.24	28.355
461.59	28.239
461.94	27.497
462.29	28.665
462.64	27.632
462.99	28.627
463.34	29.133
463.69	28.518
464.04	28.058
464.39	27.246
464.74	28.342
465.09	27.805
465.44	27.313
465.79	28.020
466.14	27.148
466.49	27.419
466.84	27.379
467.19	27.761
467.54	27.750
467.89	27.011
468.24	28.447
468.59	28.510
468.94	27.428
469.29	27.956
469.64	29.317
469.99	28.417
470.34	27.543
470.68	28.520
471.03	27.687
471.38	28.214
471.73	27.915
472.08	27.039
472.43	26.822
472.78	27.650
473.13	26.380
473.48	28.090
473.83	27.378
474.17	26.136
474.52	27.295
474.87	28.138
475.22	27.336
475.57	25.846
475.92	26.447
476.27	26.663
476.61	26.696
476.96	26.608
477.31	27.316
477.66	28.228
478.01	26.189
478.36	27.234
478.70	26.272
479.05	27.157
479.40	25.793
479.75	26.894
480.10	26.640
480.45	25.559
480.79	26.517
481.14	26.419
481.49	26.483
481.84	26.475
482.19	26.306
482.53	26.330
482.88	26.757
483.23	26.729
483.58	26.388
483.92	26.242
484.27	25.621
484.62	26.207
484.97	26.133
485.31	26.781
485.66	25.320
486.01	24.410
486.36	24.235
486.70	24.158
487.05	24.222
487.40	26.124
487.75	26.287
488.09	27.419
488.44	27.452
488.79	27.776
489.13	27.311
489.48	26.876
489.83	26.327
490.17	26.260
490.52	25.421
490.87	25.871
491.22	25.921
491.56	25.513
491.91	25.500
492.26	25.034
492.60	24.931
492.95	24.649
493.30	25.280
493.64	24.218
493.99	25.487
494.34	25.439
494.68	26.236
495.03	25.940
495.37	25.081
495.72	25.877
496.07	25.940
496.41	25.265
496.76	25.506
497.11	25.709
497.45	25.897
497.80	25.144
498.14	24.831
498.49	25.512
498.84	25.695
499.18	25.857
499.53	25.546
499.87	25.443
500.22	25.483
500.56	26.165
500.91	25.144
501.26	26.031
501.60	26.246
501.95	25.390
502.29	25.773
502.64	25.140
502.98	25.666
503.33	25.046
503.67	25.708
504.02	24.649
504.36	25.690
504.71	25.012
505.06	24.675
505.40	25.182
505.75	25.362
506.09	25.462
506.44	25.210
506.78	25.231
507.13	25.745
507.47	25.606
507.82	25.127
508.16	25.228
508.51	25.419
508.85	24.926
509.19	26.071
509.54	24.592
509.88	24.884
510.23	24.422
510.57	26.058
510.92	24.806
511.26	25.437
511.61	25.571
511.95	24.530
512.30	24.973
512.64	25.255
512.98	25.027
513.33	25.107
513.67	24.813
514.02	25.758
514.36	25.014
514.70	25.125
515.05	24.930
515.39	24.846
515.74	24.381
516.08	25.266
516.42	25.694
516.77	25.307
517.11	23.640
517.46	24.605
517.80	25.610
518.14	24.783
518.49	25.379
518.83	25.000
519.17	24.654
519.52	25.014
519.86	24.872
520.20	25.665
520.55	25.554
520.89	25.122
521.23	25.513
521.58	25.210
521.92	25.230
522.26	24.405
522.61	24.611
522.95	24.862
523.29	24.589
523.64	25.061
523.98	25.262
524.32	25.271
524.66	24.654
525.01	24.571
525.35	25.217
525.69	24.815
526.04	24.673
526.38	24.832
526.72	24.847
527.06	24.482
527.41	23.515
527.75	25.209
528.09	24.213
528.43	25.239
528.78	24.954
529.12	24.485
529.46	25.046
529.80	25.495
530.15	24.922
530.49	23.938
530.83	24.430
531.17	25.914
531.51	25.875
531.86	25.226
532.20	25.684
532.54	24.087
532.88	25.481
533.22	24.610
533.57	24.506
533.91	24.804
534.25	24.848
534.59	24.710
534.93	24.390
535.27	25.045
535.62	25.031
535.96	24.984
536.30	24.857
536.64	24.533
536.98	25.614
537.32	24.885
537.66	25.533
538.01	25.477
538.35	24.952
538.69	26.420
539.03	24.366
539.37	24.153
539.71	24.238
540.05	24.837
540.39	24.983
540.73	24.580
541.07	25.762
541.42	25.049
541.76	25.226
542.10	24.580
542.44	25.099
542.78	26.350
543.12	24.696
543.46	25.639
543.80	25.244
544.14	24.454
544.48	25.270
544.82	24.695
545.16	25.309
545.50	25.064
545.84	24.597
546.18	25.724
546.52	25.189
546.86	25.155
547.20	24.680
547.54	24.048
547.88	25.765
548.22	23.973
548.56	25.220
548.90	23.239
549.24	24.377
549.58	24.557
549.92	25.343
550.26	25.781
550.60	24.620
550.94	24.859
551.28	24.433
551.62	24.946
551.96	25.544
552.30	24.846
552.64	24.408
552.98	24.881
553.32	25.219
553.66	24.063
554.00	25.806
554.34	24.707
554.68	25.823
555.02	24.260
555.36	25.052
555.69	24.222
556.03	24.293
556.37	24.420
556.71	24.147
557.05	24.020
557.39	23.793
557.73	23.853
558.07	25.236
558.41	24.313
558.75	24.835
559.08	24.683
559.42	25.019
559.76	24.118
560.10	24.411
560.44	25.017
560.78	24.351
561.12	24.868
561.45	25.424
561.79	24.127
562.13	24.816
562.47	24.522
562.81	24.616
563.15	24.682
563.48	24.602
563.82	24.201
564.16	24.068
564.50	24.870
564.84	25.284
565.17	24.646
565.51	24.920
565.85	25.635
566.19	23.607
566.52	24.256
566.86	23.930
567.20	25.118
567.54	25.057
567.88	24.063
568.21	24.339
568.55	23.913
568.89	24.562
569.23	23.797
569.56	23.806
569.90	23.623
570.24	23.933
570.57	24.277
570.91	23.982
571.25	23.935
571.59	24.359
571.92	24.770
572.26	24.263
572.60	24.745
572.93	24.588
573.27	24.874
573.61	24.846
573.95	25.245
574.28	24.196
574.62	24.514
574.96	24.014
575.29	24.345
575.63	23.526
575.97	24.577
576.30	24.642
576.64	24.185
576.98	24.307
577.31	24.884
577.65	23.865
577.98	24.045
578.32	23.948
578.66	24.319
578.99	24.949
579.33	25.030
579.67	24.422
580.00	25.414
580.34	25.249
580.67	25.148
581.01	25.118
581.35	24.402
581.68	24.270
582.02	23.981
582.35	24.195
582.69	24.578
583.02	24.524
583.36	25.040
583.70	25.574
584.03	25.549
584.37	25.771
584.70	25.784
585.04	25.000
585.37	25.140
585.71	24.883
586.04	24.740
586.38	24.791
586.72	25.104
587.05	24.939
587.39	24.301
587.72	25.071
588.06	24.947
588.39	24.609
588.73	25.403
589.06	25.709
589.40	26.431
589.73	25.766
590.07	25.480
590.40	25.137
590.73	25.722
591.07	25.967
591.40	25.517
591.74	25.368
592.07	25.262
592.41	25.093
592.74	24.419
593.08	24.350
593.41	24.138
593.75	23.579
594.08	24.170
594.41	24.779
594.75	25.102
595.08	24.517
595.42	24.799
595.75	24.929
596.09	25.723
596.42	25.422
596.75	25.918
597.09	25.152
597.42	25.295
597.75	25.097
598.09	25.522
598.42	24.527
598.76	24.118
599.09	25.010
599.42	23.799
599.76	24.780
600.09	24.335
600.42	24.470
600.76	24.214
601.09	24.663
601.42	25.076
601.76	24.782
602.09	24.466
602.42	24.881
602.76	25.595
603.09	25.374
603.42	24.795
603.76	24.466
604.09	24.428
604.42	24.745
604.76	24.968
605.09	25.644
605.42	24.198
605.75	25.083
606.09	24.441
606.42	25.010
606.75	25.010
607.09	25.701
607.42	24.604
607.75	24.388
608.08	25.271
608.42	25.325
608.75	24.752
609.08	24.653
609.41	24.893
609.75	24.535
610.08	24.694
610.41	24.488
610.74	24.551
611.07	25.346
611.41	25.368
611.74	25.189
612.07	25.725
612.40	24.711
612.73	24.368
613.07	25.431
613.40	24.961
613.73	24.594
614.06	24.946
614.39	23.912
614.72	24.474
615.06	24.317
615.39	25.159
615.72	24.642
616.05	23.923
616.38	24.736
616.71	25.119
617.05	24.912
617.38	24.293
617.71	25.165
618.04	25.781
618.37	25.429
618.70	25.327
619.03	25.592
619.36	25.730
619.69	25.986
620.03	25.137
620.36	25.067
620.69	25.342
621.02	25.221
621.35	24.432
621.68	24.533
622.01	24.923
622.34	25.189
622.67	24.791
623.00	24.065
623.33	24.375
623.66	24.589
623.99	24.521
624.32	24.465
624.65	24.647
624.99	23.017
625.32	23.751
625.65	25.845
625.98	24.904
626.31	26.439
626.64	24.816
626.97	25.353
627.30	25.270
627.63	24.938
627.96	26.829
628.29	25.372
628.62	25.435
628.95	27.925
629.28	25.456
629.61	25.848
629.94	25.619
630.26	23.737
630.59	25.453
630.92	24.713
