SpectraSuite Data File
++++++++++++++++++++++++++++++++++++
Date: Wed May 13 16:05:56 PDT 2015
User: schluterlab
Dark Spectrum Present: Yes
Reference Spectrum Present: Yes
Number of Sampled Component Spectra: 1
Spectrometers: USB2E3373
Integration Time (usec): 3000 (USB2E3373)
Spectra Averaged: 3 (USB2E3373)
Boxcar Smoothing: 0 (USB2E3373)
Correct for Electrical Dark: No (USB2E3373)
Strobe/Lamp Enabled: No (USB2E3373)
Correct for Detector Non-linearity: No (USB2E3373)
Correct for Stray Light: No (USB2E3373)
Number of Pixels in Processed Spectrum: 2048
>>>>>Begin Processed Spectral Data<<<<<
178.53	0.000
178.91	-875.000
179.29	-800.000
179.67	-122.222
180.04	-575.000
180.42	1100.000
180.80	580.000
181.18	-600.000
181.56	314.286
181.94	0.000
182.31	-442.857
182.69	900.000
183.07	-250.000
183.45	-277.778
183.83	345.455
184.20	-160.000
184.58	1250.000
184.96	3300.000
185.34	-540.000
185.72	-250.000
186.09	-1550.000
186.47	1550.000
186.85	1350.000
187.23	2700.000
187.61	-1166.667
187.98	725.000
188.36	354.545
188.74	354.545
189.12	-600.000
189.49	270.000
189.87	-3100.000
190.25	-625.000
190.63	228.571
191.00	215.385
191.38	316.667
191.76	-700.000
192.14	675.000
192.51	387.500
192.89	716.667
193.27	237.500
193.65	-700.000
194.02	350.000
194.40	580.000
194.78	400.000
195.15	333.333
195.53	440.000
195.91	-650.000
196.29	231.250
196.66	215.789
197.04	-250.000
197.42	0.000
197.79	340.000
198.17	-2700.000
198.55	385.714
198.92	437.500
199.30	400.000
199.68	0.000
200.05	183.333
200.43	400.000
200.81	2200.000
201.18	833.333
201.56	-1100.000
201.94	355.556
202.31	400.000
202.69	258.333
203.07	370.000
203.44	0.000
203.82	575.000
204.19	271.429
204.57	285.714
204.95	412.500
205.32	866.667
205.70	281.818
206.08	228.571
206.45	1500.000
206.83	212.500
207.20	683.333
207.58	400.000
207.96	227.778
208.33	362.500
208.71	-450.000
209.08	371.429
209.46	444.444
209.84	263.636
210.21	-933.333
210.59	875.000
210.96	-262.500
211.34	1350.000
211.71	360.000
212.09	500.000
212.46	0.000
212.84	1000.000
213.22	675.000
213.59	-1700.000
213.97	566.667
214.34	514.286
214.72	381.818
215.09	640.000
215.47	-1250.000
215.84	-1450.000
216.22	700.000
216.59	242.857
216.97	850.000
217.34	300.000
217.72	-400.000
218.09	0.000
218.47	-2100.000
218.84	377.778
219.22	500.000
219.59	1033.333
219.97	-257.143
220.34	460.000
220.72	-966.667
221.09	235.714
221.47	925.000
221.84	-616.667
222.22	0.000
222.59	850.000
222.97	-1550.000
223.34	580.000
223.72	261.538
224.09	480.000
224.46	1200.000
224.84	-3100.000
225.21	-540.000
225.59	-3600.000
225.96	450.000
226.34	180.000
226.71	1750.000
227.08	237.500
227.46	370.000
227.83	-800.000
228.21	-1250.000
228.58	333.333
228.95	-1150.000
229.33	-1200.000
229.70	1400.000
230.08	414.286
230.45	-400.000
230.82	191.667
231.20	533.333
231.57	457.143
231.95	325.000
232.32	136.364
232.69	218.182
233.07	428.571
233.44	284.615
233.81	-533.333
234.19	194.737
234.56	233.333
234.93	183.333
235.31	363.636
235.68	200.000
236.05	164.286
236.43	115.152
236.80	173.684
237.17	2200.000
237.55	128.571
237.92	157.143
238.29	152.381
238.67	132.258
239.04	110.345
239.41	72.222
239.79	76.087
240.16	66.667
240.53	47.727
240.91	49.020
241.28	56.000
241.65	50.000
242.02	53.623
242.40	51.613
242.77	35.000
243.14	30.108
243.51	50.562
243.89	35.294
244.26	28.889
244.63	30.108
245.00	31.915
245.38	31.683
245.75	35.514
246.12	33.945
246.49	45.985
246.87	40.800
247.24	34.615
247.61	22.143
247.98	30.065
248.36	26.351
248.73	20.382
249.10	27.389
249.47	29.379
249.84	24.599
250.22	26.738
250.59	28.402
250.96	18.182
251.33	23.223
251.70	29.208
252.08	23.333
252.45	17.937
252.82	20.870
253.19	20.851
253.56	20.392
253.94	24.066
254.31	21.484
254.68	21.154
255.05	19.557
255.42	18.293
255.79	20.221
256.16	17.329
256.54	15.194
256.91	18.505
257.28	15.468
257.65	15.842
258.02	15.839
258.39	17.666
258.76	14.381
259.14	15.476
259.51	14.894
259.88	11.801
260.25	17.523
260.62	14.451
260.99	13.665
261.36	15.916
261.73	14.613
262.10	13.953
262.47	18.310
262.85	17.549
263.22	14.530
263.59	14.530
263.96	14.011
264.33	12.010
264.70	13.421
265.07	15.090
265.44	13.889
265.81	12.652
266.18	16.080
266.55	16.585
266.92	15.725
267.29	14.583
267.66	11.927
268.03	13.182
268.40	14.019
268.77	12.172
269.14	13.063
269.51	16.930
269.88	14.685
270.25	12.641
270.62	13.258
270.99	15.484
271.36	13.519
271.73	12.617
272.10	12.609
272.47	14.624
272.84	13.420
273.21	15.304
273.58	11.135
273.95	10.901
274.32	14.256
274.69	14.989
275.06	12.205
275.43	14.043
275.80	13.026
276.17	14.460
276.54	11.435
276.91	12.055
277.28	12.305
277.65	12.959
278.02	12.422
278.39	14.844
278.76	12.545
279.13	10.943
279.50	11.918
279.87	13.347
280.23	11.178
280.60	11.605
280.97	11.275
281.34	11.681
281.71	12.727
282.08	12.092
282.45	10.909
282.82	11.368
283.19	8.734
283.56	13.860
283.92	12.860
284.29	10.582
284.66	12.704
285.03	11.754
285.40	11.796
285.77	12.458
286.14	10.363
286.51	11.333
286.87	11.966
287.24	13.518
287.61	10.754
287.98	12.013
288.35	11.727
288.72	11.838
289.08	12.363
289.45	11.532
289.82	11.545
290.19	11.617
290.56	12.404
290.93	9.517
291.29	11.503
291.66	11.652
292.03	12.645
292.40	13.656
292.77	9.763
293.13	11.791
293.50	11.079
293.87	11.259
294.24	10.074
294.60	10.189
294.97	11.773
295.34	12.553
295.71	10.227
296.08	10.969
296.44	10.316
296.81	10.304
297.18	11.518
297.55	10.026
297.91	11.609
298.28	11.647
298.65	13.446
299.02	11.199
299.38	9.163
299.75	7.817
300.12	9.834
300.48	10.875
300.85	11.714
301.22	9.682
301.59	10.101
301.95	10.957
302.32	11.168
302.69	10.753
303.05	10.424
303.42	10.988
303.79	10.532
304.15	9.790
304.52	9.849
304.89	10.105
305.25	9.513
305.62	11.778
305.99	11.452
306.35	11.074
306.72	11.099
307.09	10.988
307.45	11.712
307.82	10.379
308.19	12.141
308.55	12.190
308.92	12.567
309.29	11.193
309.65	11.241
310.02	12.685
310.38	12.258
310.75	11.932
311.12	12.385
311.48	13.271
311.85	13.208
312.22	12.487
312.58	12.682
312.95	12.777
313.31	12.621
313.68	13.514
314.05	14.103
314.41	12.965
314.78	13.494
315.14	13.307
315.51	12.770
315.87	13.861
316.24	14.002
316.61	13.548
316.97	13.307
317.34	13.307
317.70	14.436
318.07	15.207
318.43	14.775
318.80	15.276
319.16	14.689
319.53	14.540
319.89	15.714
320.26	17.200
320.62	16.071
320.99	16.263
321.35	17.172
321.72	16.940
322.08	16.881
322.45	17.811
322.81	17.733
323.18	18.304
323.54	18.367
323.91	18.679
324.27	17.878
324.64	18.733
325.00	18.124
325.37	20.109
325.73	20.557
326.10	19.417
326.46	20.161
326.83	19.672
327.19	21.435
327.56	19.948
327.92	20.997
328.29	22.005
328.65	22.652
329.01	22.022
329.38	20.259
329.74	22.068
330.11	22.526
330.47	22.865
330.84	23.346
331.20	23.042
331.56	23.670
331.93	22.407
332.29	24.135
332.66	24.248
333.02	22.669
333.38	22.584
333.75	24.421
334.11	24.555
334.48	23.514
334.84	22.610
335.20	24.273
335.57	23.663
335.93	24.196
336.29	23.810
336.66	23.445
337.02	22.172
337.38	25.741
337.75	23.351
338.11	23.366
338.47	24.586
338.84	25.206
339.20	23.211
339.56	24.909
339.93	22.091
340.29	24.094
340.65	23.619
341.02	24.695
341.38	24.911
341.74	24.298
342.11	23.406
342.47	24.141
342.83	24.914
343.20	24.416
343.56	24.263
343.92	24.474
344.28	25.340
344.65	24.936
345.01	24.242
345.37	23.499
345.73	25.127
346.10	24.808
346.46	24.237
346.82	25.206
347.19	24.311
347.55	24.713
347.91	25.728
348.27	25.965
348.63	24.749
349.00	24.595
349.36	25.698
349.72	24.459
350.08	23.582
350.45	25.956
350.81	24.045
351.17	25.203
351.53	25.143
351.89	24.175
352.26	26.440
352.62	25.100
352.98	25.122
353.34	25.801
353.70	25.205
354.07	26.210
354.43	24.603
354.79	24.618
355.15	24.741
355.51	25.739
355.87	25.633
356.24	26.792
356.60	24.619
356.96	25.181
357.32	26.083
357.68	25.118
358.04	26.049
358.40	27.158
358.77	25.978
359.13	25.888
359.49	26.588
359.85	25.317
360.21	27.352
360.57	26.537
360.93	27.154
361.29	25.926
361.66	25.232
362.02	26.940
362.38	27.300
362.74	26.637
363.10	25.611
363.46	26.412
363.82	26.682
364.18	27.313
364.54	27.266
364.90	26.771
365.26	26.765
365.62	27.027
365.98	27.246
366.35	25.931
366.71	26.464
367.07	27.312
367.43	27.721
367.79	28.837
368.15	28.448
368.51	28.052
368.87	27.695
369.23	27.798
369.59	27.299
369.95	26.912
370.31	28.205
370.67	26.739
371.03	28.689
371.39	28.353
371.75	27.941
372.11	27.952
372.47	28.886
372.83	29.179
373.19	27.601
373.55	29.342
373.91	29.455
374.27	28.729
374.63	28.364
374.99	29.167
375.35	27.704
375.71	28.170
376.07	28.875
376.42	28.611
376.78	29.092
377.14	28.901
377.50	29.205
377.86	28.989
378.22	29.962
378.58	29.010
378.94	28.975
379.30	29.517
379.66	30.711
380.02	30.651
380.38	29.569
380.74	29.592
381.09	29.279
381.45	29.809
381.81	30.590
382.17	30.764
382.53	29.874
382.89	30.617
383.25	31.207
383.61	30.607
383.97	30.832
384.32	30.880
384.68	30.173
385.04	30.486
385.40	29.969
385.76	30.897
386.12	31.412
386.48	31.466
386.83	31.046
387.19	31.787
387.55	31.045
387.91	31.681
388.27	30.595
388.62	30.916
388.98	30.098
389.34	31.164
389.70	30.717
390.06	31.305
390.42	31.388
390.77	30.280
391.13	31.142
391.49	31.472
391.85	31.700
392.20	30.599
392.56	31.629
392.92	31.960
393.28	31.124
393.64	30.276
393.99	30.177
394.35	31.948
394.71	31.493
395.07	30.717
395.42	32.077
395.78	32.188
396.14	31.161
396.50	32.644
396.85	31.977
397.21	31.319
397.57	30.812
397.92	31.671
398.28	30.774
398.64	32.019
399.00	31.393
399.35	30.626
399.71	30.613
400.07	31.342
400.42	31.595
400.78	31.725
401.14	32.012
401.49	31.045
401.85	31.579
402.21	30.719
402.57	31.154
402.92	30.706
403.28	31.043
403.63	30.755
403.99	30.573
404.35	31.030
404.70	30.815
405.06	29.645
405.42	31.316
405.77	30.571
406.13	29.853
406.49	30.455
406.84	30.124
407.20	29.965
407.55	30.887
407.91	31.333
408.27	30.121
408.62	30.584
408.98	30.025
409.34	30.012
409.69	30.452
410.05	31.289
410.40	30.336
410.76	30.824
411.11	31.001
411.47	30.543
411.83	30.238
412.18	29.870
412.54	30.137
412.89	30.663
413.25	30.638
413.60	31.007
413.96	29.751
414.31	29.951
414.67	30.735
415.03	30.530
415.38	30.670
415.74	31.383
416.09	30.764
416.45	31.727
416.80	30.007
417.16	30.362
417.51	30.790
417.87	31.085
418.22	30.915
418.58	32.343
418.93	30.958
419.29	31.509
419.64	31.549
420.00	30.427
420.35	31.826
420.71	31.441
421.06	30.191
421.42	30.760
421.77	30.830
422.12	31.162
422.48	30.275
422.83	31.101
423.19	30.994
423.54	31.747
423.90	31.594
424.25	31.602
424.61	30.893
424.96	31.778
425.31	31.285
425.67	30.281
426.02	30.000
426.38	32.662
426.73	31.188
427.09	31.733
427.44	32.087
427.79	31.857
428.15	32.202
428.50	31.305
428.85	32.360
429.21	31.253
429.56	32.141
429.92	32.310
430.27	31.082
430.62	30.671
430.98	32.330
431.33	31.392
431.68	32.147
432.04	31.310
432.39	31.868
432.74	32.077
433.10	33.390
433.45	32.711
433.80	31.984
434.16	31.731
434.51	31.000
434.86	32.668
435.22	31.962
435.57	32.158
435.92	31.949
436.28	32.977
436.63	32.781
436.98	32.971
437.34	33.274
437.69	34.539
438.04	32.771
438.39	33.493
438.75	32.249
439.10	34.134
439.45	33.530
439.81	33.353
440.16	32.863
440.51	33.450
440.86	33.179
441.22	32.925
441.57	33.280
441.92	33.163
442.27	33.584
442.63	33.281
442.98	34.197
443.33	33.261
443.68	32.938
444.03	33.187
444.39	32.814
444.74	33.279
445.09	33.908
445.44	33.953
445.79	34.389
446.15	34.198
446.50	33.872
446.85	33.350
447.20	32.789
447.55	35.120
447.91	34.915
448.26	33.945
448.61	33.635
448.96	33.887
449.31	34.758
449.66	33.540
450.02	33.760
450.37	33.447
450.72	33.446
451.07	33.699
451.42	33.495
451.77	34.175
452.12	33.372
452.47	34.639
452.83	34.615
453.18	33.802
453.53	34.879
453.88	33.136
454.23	34.429
454.58	34.525
454.93	34.901
455.28	34.040
455.63	34.769
455.98	35.536
456.34	34.045
456.69	35.128
457.04	34.613
457.39	35.184
457.74	33.604
458.09	34.905
458.44	34.265
458.79	34.599
459.14	35.214
459.49	35.260
459.84	34.958
460.19	34.355
460.54	33.623
460.89	34.668
461.24	35.094
461.59	34.863
461.94	33.847
462.29	35.786
462.64	34.397
462.99	35.003
463.34	35.000
463.69	35.522
464.04	34.725
464.39	34.435
464.74	34.938
465.09	34.620
465.44	33.795
465.79	33.613
466.14	34.045
466.49	34.205
466.84	35.143
467.19	33.736
467.54	35.500
467.89	34.514
468.24	34.031
468.59	36.203
468.94	34.881
469.29	35.154
469.64	36.345
469.99	35.318
470.34	35.271
470.68	36.207
471.03	35.102
471.38	36.484
471.73	36.043
472.08	36.053
472.43	35.678
472.78	35.023
473.13	35.494
473.48	34.894
473.83	36.098
474.17	35.594
474.52	35.732
474.87	35.727
475.22	35.287
475.57	34.713
475.92	35.050
476.27	33.822
476.61	35.411
476.96	35.789
477.31	35.793
477.66	35.558
478.01	35.442
478.36	35.643
478.70	34.579
479.05	35.676
479.40	35.056
479.75	35.333
480.10	35.338
480.45	34.222
480.79	34.448
481.14	34.589
481.49	34.836
481.84	35.208
482.19	34.711
482.53	35.000
482.88	35.691
483.23	34.813
483.58	35.168
483.92	35.380
484.27	34.248
484.62	34.267
484.97	34.647
485.31	34.418
485.66	33.382
486.01	31.301
486.36	30.390
486.70	30.344
487.05	30.920
487.40	32.406
487.75	32.749
488.09	33.940
488.44	33.923
488.79	35.081
489.13	35.447
489.48	35.155
489.83	34.873
490.17	35.511
490.52	35.252
490.87	34.962
491.22	35.107
491.56	33.895
491.91	34.853
492.26	34.773
492.60	34.839
492.95	34.846
493.30	34.486
493.64	34.951
493.99	35.144
494.34	35.106
494.68	35.485
495.03	35.056
495.37	34.760
495.72	35.331
496.07	35.963
496.41	34.204
496.76	33.641
497.11	35.750
497.45	35.538
497.80	36.228
498.14	34.879
498.49	35.951
498.84	36.290
499.18	36.619
499.53	35.185
499.87	35.927
500.22	35.657
500.56	36.408
500.91	35.529
501.26	35.230
501.60	36.687
501.95	34.785
502.29	35.567
502.64	36.173
502.98	35.811
503.33	35.512
503.67	35.638
504.02	35.454
504.36	35.798
504.71	34.929
505.06	36.627
505.40	36.121
505.75	35.776
506.09	35.569
506.44	36.902
506.78	36.191
507.13	36.598
507.47	36.111
507.82	36.930
508.16	37.690
508.51	37.494
508.85	36.941
509.19	37.755
509.54	36.531
509.88	36.321
510.23	37.069
510.57	37.513
510.92	37.131
511.26	36.948
511.61	36.670
511.95	37.161
512.30	37.805
512.64	38.205
512.98	37.674
513.33	39.079
513.67	37.086
514.02	36.797
514.36	38.067
514.70	38.462
515.05	38.483
515.39	38.643
515.74	38.739
516.08	38.345
516.42	38.901
516.77	40.412
517.11	38.180
517.46	39.108
517.80	39.373
518.14	39.085
518.49	39.732
518.83	39.091
519.17	40.012
519.52	39.559
519.86	39.304
520.20	39.827
520.55	40.694
520.89	40.815
521.23	40.229
521.58	39.196
521.92	39.130
522.26	38.438
522.61	39.190
522.95	39.349
523.29	40.596
523.64	39.817
523.98	40.481
524.32	39.324
524.66	39.387
525.01	39.645
525.35	39.653
525.69	39.470
526.04	40.498
526.38	40.085
526.72	40.061
527.06	41.117
527.41	37.995
527.75	39.871
528.09	41.040
528.43	39.452
528.78	38.967
529.12	39.273
529.46	40.723
529.80	41.399
530.15	40.312
530.49	38.831
530.83	41.139
531.17	41.449
531.51	40.986
531.86	40.065
532.20	41.069
532.54	40.551
532.88	40.822
533.22	39.663
533.57	39.691
533.91	39.013
534.25	39.793
534.59	39.231
534.93	39.500
535.27	38.202
535.62	38.889
535.96	39.485
536.30	39.352
536.64	39.794
536.98	40.478
537.32	39.631
537.66	40.400
538.01	40.619
538.35	39.948
538.69	40.268
539.03	39.246
539.37	38.530
539.71	38.820
540.05	40.065
540.39	39.801
540.73	38.551
541.07	40.428
541.42	40.183
541.76	40.323
542.10	40.168
542.44	40.397
542.78	40.382
543.12	38.900
543.46	40.328
543.80	39.688
544.14	38.832
544.48	39.556
544.82	38.743
545.16	40.989
545.50	39.267
545.84	40.591
546.18	39.663
546.52	39.849
546.86	41.512
547.20	39.582
547.54	40.748
547.88	40.434
548.22	39.041
548.56	38.365
548.90	39.821
549.24	40.000
549.58	40.109
549.92	40.247
550.26	40.980
550.60	40.318
550.94	41.338
551.28	40.161
551.62	41.050
551.96	40.421
552.30	40.614
552.64	39.757
552.98	40.610
553.32	40.189
553.66	40.286
554.00	40.426
554.34	40.511
554.68	41.059
555.02	40.621
555.36	41.197
555.69	39.851
556.03	41.454
556.37	41.337
556.71	40.518
557.05	39.706
557.39	39.818
557.73	40.508
558.07	41.914
558.41	39.870
558.75	40.999
559.08	41.312
559.42	42.857
559.76	41.471
560.10	40.542
560.44	40.671
560.78	38.656
561.12	39.974
561.45	40.417
561.79	39.618
562.13	40.174
562.47	41.940
562.81	40.795
563.15	40.669
563.48	40.650
563.82	40.183
564.16	40.549
564.50	39.583
564.84	40.265
565.17	40.605
565.51	40.000
565.85	39.467
566.19	38.698
566.52	41.039
566.86	39.180
567.20	41.450
567.54	38.813
567.88	38.512
568.21	38.677
568.55	38.170
568.89	38.084
569.23	37.032
569.56	36.073
569.90	36.755
570.24	36.024
570.57	34.988
570.91	34.324
571.25	34.682
571.59	34.227
571.92	33.813
572.26	34.518
572.60	34.985
572.93	34.333
573.27	35.256
573.61	34.953
573.95	34.212
574.28	33.367
574.62	33.941
574.96	33.596
575.29	33.414
575.63	33.460
575.97	33.949
576.30	34.201
576.64	34.016
576.98	33.641
577.31	33.780
577.65	33.789
577.98	33.253
578.32	33.082
578.66	32.704
578.99	33.668
579.33	33.091
579.67	32.693
580.00	33.781
580.34	34.385
580.67	33.609
581.01	34.270
581.35	33.831
581.68	33.085
582.02	33.024
582.35	32.803
582.69	33.144
583.02	33.208
583.36	34.240
583.70	34.491
584.03	34.639
584.37	35.283
584.70	34.535
585.04	34.271
585.37	34.133
585.71	34.821
586.04	34.018
586.38	35.162
586.72	35.073
587.05	34.746
587.39	34.142
587.72	34.398
588.06	34.819
588.39	35.089
588.73	35.025
589.06	36.055
589.40	36.768
589.73	36.501
590.07	36.477
590.40	36.025
590.73	37.432
591.07	37.770
591.40	37.284
591.74	38.225
592.07	37.216
592.41	37.205
592.74	36.330
593.08	35.943
593.41	35.653
593.75	34.916
594.08	35.401
594.41	35.666
594.75	36.044
595.08	35.791
595.42	36.673
595.75	36.717
596.09	36.763
596.42	37.328
596.75	38.202
597.09	37.879
597.42	36.931
597.75	37.689
598.09	37.522
598.42	37.242
598.76	37.738
599.09	36.336
599.42	35.771
599.76	36.347
600.09	35.665
600.42	36.304
600.76	35.607
601.09	36.284
601.42	36.530
601.76	36.698
602.09	37.154
602.42	36.584
602.76	37.807
603.09	37.293
603.42	37.563
603.76	36.242
604.09	36.177
604.42	37.546
604.76	37.579
605.09	37.047
605.42	37.452
605.75	36.921
606.09	36.844
606.42	36.575
606.75	37.039
607.09	37.003
607.42	36.628
607.75	36.371
608.08	37.603
608.42	37.875
608.75	37.827
609.08	36.633
609.41	38.553
609.75	37.828
610.08	38.454
610.41	36.639
610.74	37.559
611.07	38.686
611.41	38.126
611.74	39.517
612.07	38.872
612.40	38.930
612.73	38.368
613.07	39.925
613.40	39.442
613.73	38.752
614.06	39.409
614.39	38.542
614.72	38.579
615.06	38.498
615.39	37.792
615.72	37.935
616.05	37.746
616.38	39.077
616.71	40.558
617.05	39.576
617.38	39.327
617.71	39.339
618.04	40.084
618.37	38.439
618.70	39.515
619.03	42.697
619.36	40.937
619.69	41.197
620.03	40.934
620.36	40.575
620.69	41.575
621.02	41.298
621.35	42.522
621.68	41.121
622.01	41.950
622.34	42.360
622.67	41.901
623.00	40.866
623.33	40.815
623.66	42.387
623.99	42.710
624.32	41.441
624.65	39.407
624.99	39.943
625.32	41.202
625.65	42.074
625.98	41.891
626.31	41.913
626.64	44.163
626.97	43.142
627.30	43.225
627.63	44.873
627.96	43.061
628.29	44.007
628.62	44.465
628.95	46.226
629.28	45.073
629.61	43.905
629.94	44.000
630.26	44.805
630.59	44.519
630.92	45.019
631.25	44.916
631.58	45.045
631.91	44.828
