SpectraSuite Data File
++++++++++++++++++++++++++++++++++++
Date: Wed May 13 16:45:12 PDT 2015
User: schluterlab
Dark Spectrum Present: Yes
Reference Spectrum Present: Yes
Number of Sampled Component Spectra: 1
Spectrometers: USB2E3373
Integration Time (usec): 3000 (USB2E3373)
Spectra Averaged: 3 (USB2E3373)
Boxcar Smoothing: 0 (USB2E3373)
Correct for Electrical Dark: No (USB2E3373)
Strobe/Lamp Enabled: No (USB2E3373)
Correct for Detector Non-linearity: No (USB2E3373)
Correct for Stray Light: No (USB2E3373)
Number of Pixels in Processed Spectrum: 2048
>>>>>Begin Processed Spectral Data<<<<<
178.53	0.000
178.91	-1350.000
179.29	-1300.000
179.67	-233.333
180.04	-1250.000
180.42	2150.000
180.80	1040.000
181.18	-1225.000
181.56	657.143
181.94	0.000
182.31	-528.571
182.69	1433.333
183.07	-662.500
183.45	-588.889
183.83	436.364
184.20	-300.000
184.58	2100.000
184.96	5200.000
185.34	-980.000
185.72	-600.000
186.09	-1800.000
186.47	2650.000
186.85	2250.000
187.23	4800.000
187.61	-1600.000
187.98	1250.000
188.36	500.000
188.74	436.364
189.12	-940.000
189.49	530.000
189.87	-4600.000
190.25	-1025.000
190.63	378.571
191.00	407.692
191.38	583.333
191.76	-975.000
192.14	1200.000
192.51	725.000
192.89	750.000
193.27	625.000
193.65	-1125.000
194.02	410.000
194.40	800.000
194.78	400.000
195.15	533.333
195.53	610.000
195.91	-2200.000
196.29	337.500
196.66	378.947
197.04	-370.000
197.42	0.000
197.79	590.000
198.17	-4800.000
198.55	714.286
198.92	750.000
199.30	980.000
199.68	0.000
200.05	300.000
200.43	714.286
200.81	3800.000
201.18	1600.000
201.56	-1566.667
201.94	500.000
202.31	655.556
202.69	433.333
203.07	470.000
203.44	0.000
203.82	1325.000
204.19	857.143
204.57	364.286
204.95	625.000
205.32	1566.667
205.70	418.182
206.08	378.571
206.45	2250.000
206.83	293.750
207.20	816.667
207.58	740.000
207.96	283.333
208.33	600.000
208.71	-766.667
209.08	771.429
209.46	644.444
209.84	436.364
210.21	-1200.000
210.59	1400.000
210.96	-425.000
211.34	2600.000
211.71	580.000
212.09	800.000
212.46	0.000
212.84	1866.667
213.22	1525.000
213.59	-4700.000
213.97	916.667
214.34	800.000
214.72	572.727
215.09	1160.000
215.47	-2250.000
215.84	-2600.000
216.22	1500.000
216.59	421.429
216.97	1300.000
217.34	490.909
217.72	-800.000
218.09	0.000
218.47	-3900.000
218.84	544.444
219.22	728.571
219.59	1566.667
219.97	-757.143
220.34	840.000
220.72	-1800.000
221.09	421.429
221.47	1425.000
221.84	-883.333
222.22	0.000
222.59	1350.000
222.97	-2400.000
223.34	1120.000
223.72	384.615
224.09	960.000
224.46	2550.000
224.84	-5300.000
225.21	-1060.000
225.59	-4600.000
225.96	510.000
226.34	290.000
226.71	3050.000
227.08	625.000
227.46	490.000
227.83	-925.000
228.21	-2200.000
228.58	544.444
228.95	-2500.000
229.33	-2000.000
229.70	1566.667
230.08	700.000
230.45	-960.000
230.82	391.667
231.20	900.000
231.57	685.714
231.95	491.667
232.32	186.364
232.69	336.364
233.07	614.286
233.44	346.154
233.81	-1533.333
234.19	273.684
234.56	491.667
234.93	400.000
235.31	445.455
235.68	353.846
236.05	364.286
236.43	184.848
236.80	221.053
237.17	3900.000
237.55	209.524
237.92	171.429
238.29	238.095
238.67	183.871
239.04	182.759
239.41	133.333
239.79	115.217
240.16	102.381
240.53	111.364
240.91	100.000
241.28	104.000
241.65	86.000
242.02	88.406
242.40	82.258
242.77	90.000
243.14	54.839
243.51	69.663
243.89	62.353
244.26	57.778
244.63	61.290
245.00	41.489
245.38	55.446
245.75	51.402
246.12	40.367
246.49	51.095
246.87	56.800
247.24	50.000
247.61	43.571
247.98	39.869
248.36	37.838
248.73	35.032
249.10	41.401
249.47	28.814
249.84	38.503
250.22	26.738
250.59	30.769
250.96	23.737
251.33	31.754
251.70	30.693
252.08	30.000
252.45	25.112
252.82	23.913
253.19	26.809
253.56	28.235
253.94	29.046
254.31	26.172
254.68	23.462
255.05	26.568
255.42	26.423
255.79	24.632
256.16	23.105
256.54	18.728
256.91	28.114
257.28	20.144
257.65	22.772
258.02	21.118
258.39	23.344
258.76	19.732
259.14	19.048
259.51	22.796
259.88	22.981
260.25	20.544
260.62	19.364
260.99	17.391
261.36	23.423
261.73	18.052
262.10	21.512
262.47	19.155
262.85	19.499
263.22	16.809
263.59	21.937
263.96	19.231
264.33	18.799
264.70	19.211
265.07	17.391
265.44	17.929
265.81	17.032
266.18	19.095
266.55	18.293
266.92	16.953
267.29	18.056
267.66	17.661
268.03	18.636
268.40	15.421
268.77	15.752
269.14	18.243
269.51	16.027
269.88	16.084
270.25	18.059
270.62	17.753
270.99	17.204
271.36	18.026
271.73	16.121
272.10	18.478
272.47	16.129
272.84	15.152
273.21	16.981
273.58	17.904
273.95	15.304
274.32	13.843
274.69	14.561
275.06	14.173
275.43	16.170
275.80	15.431
276.17	14.868
276.54	17.464
276.91	14.625
277.28	15.039
277.65	16.441
278.02	14.493
278.39	17.187
278.76	16.182
279.13	14.717
279.50	17.318
279.87	14.741
280.23	14.172
280.60	14.120
280.97	13.309
281.34	14.867
281.71	16.364
282.08	18.042
282.45	14.182
282.82	14.920
283.19	12.656
283.56	14.737
283.92	13.875
284.29	13.933
284.66	13.249
285.03	13.562
285.40	14.789
285.77	14.141
286.14	13.817
286.51	14.500
286.87	11.282
287.24	13.355
287.61	13.323
287.98	13.961
288.35	11.410
288.72	13.084
289.08	13.459
289.45	12.191
289.82	12.358
290.19	11.303
290.56	12.098
290.93	11.934
291.29	11.656
291.66	10.472
292.03	13.953
292.40	14.684
292.77	11.391
293.13	14.627
293.50	11.808
293.87	10.519
294.24	10.815
294.60	12.082
294.97	11.919
295.34	13.399
295.71	12.926
296.08	9.687
296.44	10.454
296.81	10.436
297.18	13.415
297.55	8.707
297.91	11.478
298.28	10.442
298.65	12.924
299.02	10.804
299.38	11.155
299.75	8.356
300.12	9.579
300.48	9.750
300.85	10.604
301.22	10.828
301.59	8.965
301.95	10.579
302.32	10.526
302.69	11.828
303.05	8.727
303.42	9.630
303.79	10.079
304.15	9.091
304.52	8.575
304.89	9.524
305.25	8.933
305.62	9.966
305.99	9.563
306.35	9.955
306.72	9.978
307.09	9.434
307.45	10.360
307.82	7.589
308.19	10.155
308.55	10.572
308.92	9.882
309.29	8.870
309.65	8.802
310.02	9.725
310.38	10.645
310.75	8.870
311.12	10.338
311.48	10.136
311.85	10.377
312.22	9.677
312.58	9.044
312.95	10.243
313.31	9.612
313.68	9.979
314.05	11.538
314.41	9.347
314.78	10.373
315.14	10.725
315.51	10.505
315.87	10.693
316.24	10.924
316.61	10.819
316.97	10.274
317.34	10.176
317.70	10.421
318.07	10.876
318.43	12.524
318.80	10.872
319.16	11.488
319.53	10.600
319.89	12.952
320.26	12.900
320.62	12.202
320.99	11.717
321.35	12.929
321.72	13.655
322.08	13.129
322.45	13.333
322.81	13.275
323.18	13.391
323.54	14.100
323.91	13.962
324.27	14.723
324.64	13.234
325.00	13.977
325.37	15.833
325.73	15.889
326.10	14.475
326.46	15.143
326.83	15.272
327.19	16.225
327.56	16.463
327.92	16.798
328.29	17.657
328.65	16.575
329.01	16.336
329.38	17.576
329.74	16.713
330.11	17.531
330.47	18.365
330.84	18.750
331.20	17.304
331.56	17.615
331.93	18.056
332.29	17.303
332.66	17.965
333.02	17.093
333.38	18.338
333.75	18.984
334.11	18.060
334.48	17.569
334.84	17.555
335.20	17.727
335.57	16.138
335.93	16.696
336.29	17.216
336.66	18.305
337.02	17.557
337.38	17.963
337.75	18.806
338.11	16.920
338.47	16.759
338.84	18.790
339.20	16.881
339.56	18.522
339.93	17.909
340.29	18.297
340.65	17.112
341.02	17.277
341.38	17.527
341.74	18.333
342.11	18.952
342.47	18.943
342.83	18.408
343.20	18.615
343.56	17.439
343.92	18.947
344.28	17.772
344.65	18.143
345.01	17.340
345.37	18.096
345.73	18.274
346.10	17.903
346.46	18.390
346.82	18.781
347.19	17.293
347.55	18.062
347.91	19.417
348.27	18.488
348.63	18.144
349.00	18.608
349.36	17.406
349.72	18.765
350.08	17.747
350.45	19.121
350.81	18.197
351.17	18.476
351.53	17.527
351.89	16.914
352.26	19.968
352.62	17.963
352.98	17.828
353.34	18.981
353.70	17.349
354.07	19.677
354.43	17.698
354.79	16.814
355.15	18.835
355.51	19.744
355.87	19.918
356.24	18.241
356.60	18.925
356.96	18.021
357.32	18.970
357.68	20.472
358.04	18.844
358.40	20.507
358.77	19.484
359.13	19.574
359.49	19.529
359.85	17.381
360.21	18.501
360.57	20.000
360.93	19.462
361.29	18.443
361.66	19.582
362.02	19.328
362.38	19.240
362.74	19.345
363.10	18.653
363.46	18.782
363.82	18.896
364.18	19.310
364.54	19.465
364.90	19.759
365.26	19.706
365.62	19.138
365.98	18.627
366.35	18.911
366.71	20.463
367.07	19.519
367.43	19.811
367.79	20.628
368.15	22.126
368.51	18.823
368.87	19.914
369.23	20.556
369.59	20.782
369.95	20.147
370.31	19.729
370.67	19.638
371.03	21.199
371.39	20.773
371.75	21.103
372.11	20.626
372.47	21.554
372.83	21.398
373.19	20.592
373.55	20.621
373.91	22.312
374.27	21.168
374.63	21.236
374.99	21.328
375.35	21.703
375.71	21.522
376.07	22.085
376.42	21.664
376.78	22.333
377.14	22.320
377.50	22.649
377.86	22.008
378.22	22.756
378.58	21.178
378.94	23.256
379.30	22.774
379.66	23.541
380.02	23.280
380.38	23.315
380.74	22.689
381.09	23.289
381.45	23.294
381.81	23.526
382.17	23.694
382.53	23.774
382.89	24.568
383.25	24.015
383.61	25.155
383.97	24.140
384.32	24.828
384.68	23.854
385.04	24.339
385.40	24.768
385.76	25.307
386.12	24.417
386.48	25.865
386.83	25.786
387.19	27.025
387.55	25.417
387.91	26.421
388.27	25.690
388.62	26.921
388.98	26.044
389.34	26.971
389.70	26.609
390.06	27.376
390.42	27.756
390.77	26.845
391.13	27.122
391.49	27.475
391.85	27.244
392.20	26.562
392.56	27.399
392.92	27.722
393.28	27.515
393.64	27.518
393.99	28.161
394.35	27.481
394.71	28.419
395.07	27.788
395.42	28.183
395.78	27.354
396.14	27.809
396.50	29.261
396.85	28.417
397.21	27.559
397.57	27.960
397.92	28.546
398.28	29.092
398.64	28.853
399.00	28.539
399.35	28.426
399.71	28.241
400.07	28.267
400.42	29.080
400.78	30.157
401.14	28.354
401.49	28.955
401.85	28.978
402.21	28.204
402.57	28.994
402.92	29.760
403.28	29.169
403.63	29.703
403.99	29.490
404.35	29.030
404.70	29.496
405.06	29.121
405.42	29.881
405.77	29.371
406.13	28.499
406.49	28.740
406.84	29.061
407.20	28.723
407.55	28.781
407.91	30.067
408.27	29.994
408.62	30.163
408.98	29.473
409.34	28.967
409.69	29.484
410.05	29.678
410.40	29.602
410.76	29.092
411.11	29.916
411.47	29.712
411.83	29.200
412.18	29.746
412.54	29.763
412.89	30.060
413.25	30.697
413.60	29.277
413.96	29.630
414.31	29.891
414.67	31.052
415.03	29.338
415.38	30.219
415.74	30.096
416.09	29.784
416.45	30.054
416.80	29.412
417.16	29.960
417.51	30.259
417.87	28.902
418.22	30.662
418.58	30.148
418.93	29.423
419.29	29.663
419.64	29.912
420.00	29.939
420.35	29.449
420.71	30.185
421.06	29.773
421.42	29.415
421.77	29.933
422.12	28.804
422.48	29.304
422.83	30.460
423.19	29.834
423.54	29.483
423.90	29.797
424.25	29.927
424.61	29.107
424.96	30.262
425.31	29.734
425.67	28.820
426.02	29.429
426.38	29.915
426.73	29.198
427.09	29.848
427.44	29.787
427.79	29.442
428.15	29.881
428.50	29.901
428.85	30.215
429.21	29.597
429.56	29.601
429.92	29.089
430.27	28.848
430.62	29.083
430.98	29.943
431.33	29.588
431.68	29.424
432.04	28.860
432.39	29.812
432.74	29.563
433.10	29.032
433.45	30.437
433.80	29.989
434.16	29.327
434.51	29.421
434.86	30.445
435.22	29.572
435.57	29.848
435.92	29.842
436.28	29.656
436.63	30.022
436.98	29.880
437.34	30.113
437.69	29.405
438.04	29.511
438.39	28.836
438.75	30.099
439.10	28.436
439.45	29.103
439.81	29.245
440.16	28.571
440.51	29.936
440.86	28.720
441.22	29.032
441.57	29.034
441.92	29.171
442.27	28.687
442.63	28.120
442.98	30.028
443.33	28.478
443.68	29.117
444.03	28.843
444.39	28.968
444.74	28.896
445.09	28.787
445.44	28.704
445.79	28.451
446.15	29.381
446.50	28.271
446.85	28.417
447.20	29.271
447.55	29.257
447.91	28.958
448.26	28.436
448.61	28.999
448.96	28.904
449.31	28.684
449.66	28.700
450.02	28.245
450.37	29.138
450.72	29.667
451.07	27.666
451.42	27.660
451.77	28.773
452.12	27.887
452.47	28.794
452.83	28.904
453.18	27.751
453.53	28.881
453.88	28.588
454.23	28.571
454.58	28.044
454.93	28.671
455.28	28.242
455.63	28.337
455.98	28.929
456.34	28.769
456.69	28.366
457.04	27.802
457.39	28.814
457.74	28.497
458.09	28.120
458.44	28.050
458.79	27.223
459.14	28.160
459.49	28.605
459.84	27.424
460.19	27.814
460.54	27.025
460.89	27.537
461.24	28.719
461.59	28.239
461.94	26.757
462.29	27.300
462.64	27.186
462.99	26.740
463.34	28.067
463.69	27.079
464.04	27.536
464.39	27.420
464.74	27.094
465.09	27.021
465.44	26.316
465.79	26.790
466.14	26.656
466.49	26.140
466.84	27.320
467.19	26.916
467.54	27.625
467.89	27.011
468.24	26.992
468.59	27.900
468.94	26.206
469.29	26.799
469.64	28.246
469.99	26.658
470.34	27.609
470.68	27.371
471.03	27.007
471.38	27.033
471.73	27.781
472.08	26.579
472.43	27.010
472.78	26.926
473.13	27.343
473.48	27.216
473.83	26.646
474.17	26.260
474.52	26.551
474.87	27.320
475.22	27.452
475.57	26.921
475.92	25.651
476.27	25.986
476.61	25.593
476.96	25.399
477.31	24.961
477.66	26.586
478.01	25.405
478.36	25.383
478.70	25.649
479.05	25.240
479.40	24.923
479.75	25.470
480.10	24.354
480.45	25.178
480.79	25.131
481.14	24.951
481.49	26.009
481.84	25.743
482.19	25.716
482.53	24.862
482.88	25.500
483.23	25.794
483.58	25.023
483.92	25.070
484.27	23.747
484.62	24.397
484.97	24.675
485.31	24.829
485.66	23.968
486.01	23.250
486.36	22.382
486.70	21.761
487.05	22.170
487.40	22.855
487.75	22.837
488.09	23.112
488.44	23.215
488.79	23.761
489.13	24.293
489.48	24.347
489.83	23.392
490.17	24.682
490.52	23.605
490.87	24.016
491.22	24.420
491.56	23.462
491.91	22.987
492.26	23.565
492.60	23.456
492.95	23.152
493.30	23.318
493.64	23.892
493.99	22.702
494.34	23.451
494.68	24.038
495.03	23.637
495.37	23.360
495.72	23.197
496.07	22.599
496.41	22.920
496.76	23.615
497.11	22.062
497.45	23.009
497.80	23.033
498.14	22.657
498.49	23.317
498.84	23.346
499.18	22.619
499.53	23.409
499.87	23.020
500.22	22.374
500.56	23.058
500.91	22.308
501.26	22.617
501.60	23.636
501.95	22.319
502.29	23.290
502.64	23.045
502.98	22.814
503.33	22.075
503.67	22.506
504.02	22.591
504.36	22.836
504.71	22.814
505.06	22.747
505.40	22.509
505.75	22.131
506.09	22.206
506.44	22.447
506.78	22.601
507.13	22.463
507.47	23.384
507.82	22.948
508.16	22.492
508.51	22.780
508.85	22.244
509.19	22.602
509.54	22.602
509.88	22.205
510.23	22.314
510.57	22.859
510.92	21.750
511.26	22.816
511.61	22.770
511.95	21.764
512.30	22.269
512.64	22.730
512.98	22.830
513.33	23.448
513.67	22.145
514.02	22.294
514.36	22.174
514.70	22.025
515.05	22.811
515.39	22.658
515.74	22.860
516.08	22.974
516.42	22.420
516.77	22.687
517.11	21.865
517.46	23.194
517.80	22.532
518.14	22.235
518.49	22.812
518.83	21.818
519.17	22.055
519.52	21.788
519.86	22.305
520.20	22.543
520.55	22.501
520.89	23.054
521.23	22.979
521.58	22.569
521.92	22.413
522.26	22.270
522.61	22.243
522.95	22.038
523.29	22.398
523.64	22.805
523.98	22.551
524.32	21.773
524.66	21.888
525.01	22.978
525.35	22.491
525.69	22.167
526.04	22.118
526.38	22.453
526.72	22.883
527.06	22.285
527.41	21.597
527.75	21.801
528.09	22.543
528.43	22.753
528.78	22.127
529.12	22.000
529.46	21.984
529.80	22.649
530.15	22.243
530.49	21.477
530.83	22.342
531.17	22.911
531.51	23.735
531.86	22.258
532.20	22.751
532.54	22.614
532.88	21.694
533.22	22.111
533.57	21.049
533.91	21.915
534.25	22.479
534.59	22.331
534.93	21.178
535.27	21.847
535.62	23.138
535.96	22.034
536.30	21.106
536.64	22.408
536.98	22.960
537.32	22.317
537.66	21.533
538.01	21.593
538.35	21.784
538.69	22.655
539.03	21.507
539.37	20.319
539.71	20.091
540.05	21.111
540.39	21.528
540.73	20.828
541.07	21.739
541.42	21.135
541.76	21.161
542.10	21.928
542.44	21.457
542.78	21.080
543.12	20.665
543.46	20.656
543.80	22.121
544.14	20.090
544.48	21.016
544.82	20.783
545.16	21.535
545.50	20.437
545.84	21.102
546.18	21.010
546.52	21.748
546.86	20.069
547.20	21.106
547.54	20.641
547.88	21.556
548.22	20.797
548.56	20.692
548.90	20.038
549.24	19.933
549.58	21.487
549.92	20.604
550.26	21.165
550.60	20.609
550.94	20.634
551.28	20.922
551.62	21.567
551.96	20.421
552.30	20.546
552.64	20.149
552.98	20.881
553.32	21.038
553.66	20.041
554.00	20.110
554.34	20.290
554.68	21.531
555.02	20.451
555.36	20.320
555.69	20.433
556.03	20.592
556.37	20.600
556.71	20.055
557.05	20.238
557.39	20.994
557.73	20.254
558.07	21.175
558.41	19.971
558.75	21.161
559.08	21.029
559.42	20.257
559.76	20.662
560.10	20.771
560.44	20.825
560.78	19.894
561.12	20.449
561.45	21.252
561.79	19.974
562.13	19.920
562.47	20.697
562.81	20.223
563.15	19.599
563.48	20.225
563.82	19.439
564.16	19.294
564.50	19.271
564.84	20.544
565.17	19.949
565.51	20.064
565.85	19.734
566.19	18.535
566.52	19.569
566.86	18.987
567.20	19.517
567.54	19.463
567.88	19.066
568.21	19.524
568.55	19.869
568.89	18.677
569.23	18.627
569.56	17.692
569.90	18.264
570.24	17.546
570.57	17.817
570.91	17.421
571.25	17.449
571.59	17.850
571.92	17.368
572.26	17.880
572.60	17.658
572.93	17.811
573.27	17.805
573.61	17.393
573.95	17.597
574.28	17.060
574.62	17.371
574.96	17.085
575.29	16.731
575.63	16.819
575.97	16.897
576.30	17.313
576.64	17.134
576.98	16.894
577.31	16.867
577.65	17.025
577.98	16.486
578.32	16.640
578.66	16.834
578.99	16.572
579.33	16.703
579.67	16.857
580.00	16.783
580.34	17.252
580.67	16.639
581.01	17.338
581.35	17.161
581.68	16.980
582.02	16.547
582.35	16.600
582.69	16.506
583.02	16.175
583.36	16.671
583.70	16.858
584.03	17.163
584.37	17.154
584.70	17.111
585.04	16.487
585.37	16.542
585.71	16.894
586.04	16.767
586.38	17.059
586.72	17.205
587.05	16.680
587.39	16.412
587.72	16.877
588.06	16.862
588.39	16.955
588.73	16.926
589.06	17.420
589.40	17.340
589.73	17.423
590.07	17.260
590.40	17.172
590.73	17.721
591.07	17.460
591.40	17.756
591.74	17.922
592.07	17.496
592.41	18.189
592.74	17.828
593.08	16.889
593.41	16.862
593.75	16.521
594.08	17.298
594.41	17.533
594.75	17.560
595.08	16.965
595.42	16.848
595.75	16.880
596.09	17.199
596.42	17.407
596.75	16.716
597.09	18.009
597.42	16.906
597.75	17.508
598.09	17.652
598.42	17.268
598.76	16.741
599.09	16.686
599.42	16.776
599.76	17.094
600.09	16.758
600.42	16.618
600.76	16.536
601.09	16.466
601.42	16.629
601.76	16.774
602.09	16.324
602.42	16.919
602.76	17.372
603.09	16.798
603.42	17.220
603.76	16.616
604.09	16.053
604.42	16.877
604.76	17.967
605.09	16.907
605.42	16.973
605.75	17.094
606.09	16.511
606.42	16.755
606.75	17.047
607.09	17.371
607.42	16.645
607.75	16.624
608.08	16.761
608.42	16.943
608.75	17.223
609.08	16.374
609.41	17.563
609.75	16.579
610.08	17.389
610.41	16.667
610.74	17.219
611.07	17.540
611.41	17.174
611.74	17.798
612.07	16.667
612.40	17.576
612.73	16.895
613.07	17.619
613.40	17.641
613.73	16.675
614.06	17.688
614.39	17.252
614.72	17.316
615.06	17.332
615.39	16.932
615.72	16.667
616.05	17.065
616.38	17.788
616.71	17.933
617.05	17.550
617.38	17.859
617.71	16.997
618.04	18.149
618.37	17.564
618.70	17.984
619.03	17.961
619.36	18.330
619.69	18.592
620.03	19.162
620.36	18.048
620.69	18.562
621.02	17.552
621.35	17.384
621.68	17.290
622.01	18.034
622.34	18.381
622.67	18.327
623.00	17.755
623.33	17.655
623.66	17.870
623.99	17.378
624.32	18.616
624.65	17.444
624.99	17.351
625.32	16.655
625.65	18.182
625.98	19.062
626.31	18.585
626.64	18.449
626.97	18.454
627.30	17.789
627.63	18.704
627.96	18.755
628.29	17.585
628.62	18.939
628.95	18.868
629.28	18.704
629.61	20.257
629.94	18.571
630.26	18.208
630.59	18.112
630.92	17.912
631.25	18.855
631.58	18.318
