SpectraSuite Data File
++++++++++++++++++++++++++++++++++++
Date: Wed May 13 15:58:30 PDT 2015
User: schluterlab
Dark Spectrum Present: Yes
Reference Spectrum Present: Yes
Number of Sampled Component Spectra: 1
Spectrometers: USB2E3373
Integration Time (usec): 3000 (USB2E3373)
Spectra Averaged: 3 (USB2E3373)
Boxcar Smoothing: 0 (USB2E3373)
Correct for Electrical Dark: No (USB2E3373)
Strobe/Lamp Enabled: No (USB2E3373)
Correct for Detector Non-linearity: No (USB2E3373)
Correct for Stray Light: No (USB2E3373)
Number of Pixels in Processed Spectrum: 2048
>>>>>Begin Processed Spectral Data<<<<<
178.53	0.000
178.91	-400.000
179.29	-200.000
179.67	-16.667
180.04	-125.000
180.42	650.000
180.80	260.000
181.18	125.000
181.56	57.143
181.94	0.000
182.31	-42.857
182.69	100.000
183.07	-12.500
183.45	-77.778
183.83	136.364
184.20	20.000
184.58	200.000
184.96	1500.000
185.34	-120.000
185.72	-100.000
186.09	350.000
186.47	800.000
186.85	350.000
187.23	0.000
187.61	-433.333
187.98	425.000
188.36	163.636
188.74	154.545
189.12	-100.000
189.49	140.000
189.87	-1700.000
190.25	-200.000
190.63	121.429
191.00	169.231
191.38	200.000
191.76	-125.000
192.14	200.000
192.51	175.000
192.89	316.667
193.27	50.000
193.65	-150.000
194.02	150.000
194.40	140.000
194.78	170.000
195.15	75.000
195.53	140.000
195.91	-0.000
196.29	100.000
196.66	84.211
197.04	-10.000
197.42	0.000
197.79	260.000
198.17	400.000
198.55	100.000
198.92	112.500
199.30	40.000
199.68	0.000
200.05	166.667
200.43	100.000
200.81	700.000
201.18	300.000
201.56	-400.000
201.94	111.111
202.31	111.111
202.69	41.667
203.07	110.000
203.44	0.000
203.82	75.000
204.19	114.286
204.57	128.571
204.95	25.000
205.32	500.000
205.70	100.000
206.08	42.857
206.45	450.000
206.83	75.000
207.20	200.000
207.58	-20.000
207.96	66.667
208.33	175.000
208.71	-50.000
209.08	100.000
209.46	188.889
209.84	45.455
210.21	-66.667
210.59	450.000
210.96	-0.000
211.34	850.000
211.71	240.000
212.09	0.000
212.46	0.000
212.84	666.667
213.22	325.000
213.59	-1100.000
213.97	183.333
214.34	200.000
214.72	190.909
215.09	100.000
215.47	-500.000
215.84	-500.000
216.22	200.000
216.59	107.143
216.97	100.000
217.34	54.545
217.72	-150.000
218.09	0.000
218.47	-600.000
218.84	200.000
219.22	57.143
219.59	33.333
219.97	-42.857
220.34	280.000
220.72	-366.667
221.09	114.286
221.47	350.000
221.84	-216.667
222.22	0.000
222.59	225.000
222.97	-200.000
223.34	320.000
223.72	130.769
224.09	160.000
224.46	-50.000
224.84	-700.000
225.21	-240.000
225.59	-400.000
225.96	130.000
226.34	105.000
226.71	850.000
227.08	137.500
227.46	180.000
227.83	-75.000
228.21	-350.000
228.58	144.444
228.95	50.000
229.33	-350.000
229.70	400.000
230.08	142.857
230.45	40.000
230.82	58.333
231.20	100.000
231.57	114.286
231.95	158.333
232.32	72.727
232.69	109.091
233.07	142.857
233.44	53.846
233.81	-266.667
234.19	57.895
234.56	66.667
234.93	108.333
235.31	190.909
235.68	-15.385
236.05	64.286
236.43	42.424
236.80	36.842
237.17	-100.000
237.55	4.762
237.92	57.143
238.29	76.190
238.67	48.387
239.04	48.276
239.41	16.667
239.79	10.870
240.16	26.190
240.53	0.000
240.91	27.451
241.28	18.000
241.65	18.000
242.02	24.638
242.40	6.452
242.77	11.667
243.14	21.505
243.51	14.607
243.89	18.824
244.26	10.000
244.63	15.054
245.00	2.128
245.38	8.911
245.75	19.626
246.12	4.587
246.49	24.818
246.87	16.800
247.24	16.154
247.61	10.000
247.98	13.072
248.36	9.459
248.73	14.013
249.10	13.376
249.47	11.864
249.84	11.230
250.22	14.973
250.59	5.917
250.96	12.626
251.33	15.166
251.70	11.881
252.08	13.810
252.45	13.453
252.82	12.609
253.19	15.745
253.56	14.118
253.94	10.788
254.31	11.328
254.68	12.692
255.05	15.129
255.42	6.911
255.79	7.353
256.16	13.357
256.54	6.714
256.91	11.032
257.28	8.273
257.65	10.231
258.02	12.422
258.39	11.041
258.76	12.375
259.14	8.631
259.51	9.119
259.88	5.901
260.25	6.949
260.62	7.514
260.99	9.006
261.36	11.712
261.73	8.023
262.10	9.302
262.47	10.986
262.85	6.407
263.22	5.413
263.59	10.541
263.96	7.143
264.33	5.744
264.70	8.947
265.07	9.463
265.44	7.576
265.81	7.786
266.18	8.040
266.55	8.293
266.92	7.862
267.29	11.343
267.66	8.028
268.03	8.636
268.40	8.178
268.77	5.251
269.14	8.559
269.51	8.126
269.88	9.091
270.25	8.126
270.62	4.719
270.99	12.043
271.36	7.725
271.73	8.178
272.10	8.478
272.47	9.247
272.84	8.225
273.21	10.063
273.58	6.550
273.95	8.386
274.32	6.405
274.69	7.495
275.06	5.906
275.43	8.511
275.80	7.214
276.17	6.110
276.54	7.692
276.91	7.708
277.28	8.594
277.65	8.897
278.02	7.246
278.39	8.203
278.76	8.364
279.13	7.925
279.50	8.007
279.87	6.574
280.23	6.587
280.60	6.770
280.97	7.763
281.34	9.027
281.71	8.909
282.08	11.132
282.45	7.273
282.82	6.039
283.19	8.021
283.56	7.018
283.92	8.460
284.29	6.526
284.66	8.167
285.03	8.137
285.40	8.099
285.77	8.418
286.14	7.599
286.51	8.833
286.87	6.667
287.24	8.632
287.61	9.791
287.98	8.117
288.35	8.082
288.72	7.477
289.08	8.138
289.45	7.908
289.82	8.780
290.19	6.750
290.56	8.576
290.93	8.157
291.29	9.049
291.66	8.850
292.03	9.884
292.40	10.132
292.77	8.284
293.13	8.507
293.50	8.746
293.87	8.741
294.24	6.963
294.60	8.588
294.97	7.849
295.34	10.719
295.71	8.949
296.08	8.405
296.44	8.803
296.81	9.247
297.18	9.485
297.55	7.784
297.91	9.367
298.28	8.969
298.65	9.530
299.02	8.827
299.38	8.367
299.75	8.356
300.12	8.174
300.48	8.875
300.85	9.248
301.22	8.535
301.59	9.848
301.95	8.942
302.32	7.959
302.69	10.394
303.05	8.848
303.42	9.259
303.79	10.532
304.15	8.392
304.52	9.038
304.89	8.362
305.25	9.861
305.62	10.419
305.99	9.563
306.35	8.949
306.72	10.090
307.09	11.099
307.45	10.586
307.82	8.929
308.19	9.934
308.55	10.895
308.92	10.526
309.29	10.137
309.65	8.696
310.02	10.782
310.38	10.108
310.75	11.193
311.12	10.952
311.48	9.927
311.85	11.740
312.22	10.406
312.58	10.083
312.95	10.771
313.31	10.777
313.68	10.187
314.05	13.116
314.41	11.256
314.78	12.387
315.14	10.328
315.51	10.814
315.87	10.891
316.24	11.221
316.61	11.014
316.97	10.861
317.34	11.350
317.70	11.185
318.07	10.780
318.43	12.329
318.80	11.809
319.16	12.053
319.53	11.069
319.89	12.857
320.26	11.600
320.62	12.302
320.99	11.515
321.35	11.212
321.72	13.039
322.08	13.820
322.45	12.935
322.81	13.081
323.18	14.066
323.54	13.636
323.91	13.679
324.27	14.340
324.64	12.582
325.00	13.345
325.37	13.285
325.73	14.452
326.10	15.181
326.46	14.606
326.83	14.150
327.19	14.688
327.56	14.808
327.92	14.961
328.29	15.972
328.65	15.009
329.01	15.162
329.38	14.986
329.74	15.882
330.11	14.797
330.47	16.988
330.84	15.901
331.20	15.301
331.56	16.055
331.93	14.537
332.29	15.528
332.66	15.841
333.02	15.722
333.38	15.266
333.75	15.241
334.11	16.459
334.48	16.149
334.84	15.625
335.20	14.636
335.57	16.138
335.93	14.018
336.29	15.110
336.66	15.149
337.02	14.751
337.38	15.833
337.75	14.973
338.11	15.130
338.47	14.733
338.84	14.849
339.20	14.587
339.56	14.964
339.93	15.818
340.29	13.678
340.65	15.865
341.02	14.834
341.38	15.747
341.74	15.263
342.11	15.459
342.47	14.978
342.83	14.897
343.20	15.931
343.56	15.417
343.92	15.000
344.28	15.646
344.65	15.649
345.01	14.646
345.37	14.151
345.73	15.313
346.10	14.749
346.46	15.508
346.82	14.580
347.19	14.703
347.55	15.517
347.91	15.534
348.27	15.776
348.63	16.054
349.00	14.887
349.36	16.256
349.72	15.557
350.08	14.506
350.45	15.297
350.81	14.460
351.17	15.154
351.53	14.660
351.89	13.944
352.26	15.549
352.62	15.397
352.98	15.316
353.34	15.530
353.70	14.566
354.07	16.532
354.43	15.556
354.79	14.803
355.15	15.483
355.51	15.508
355.87	15.347
356.24	15.635
356.60	14.836
356.96	15.607
357.32	15.863
357.68	15.354
358.04	15.994
358.40	15.994
358.77	16.432
359.13	14.522
359.49	16.314
359.85	15.159
360.21	16.108
360.57	16.342
360.93	16.538
361.29	14.966
361.66	15.867
362.02	16.493
362.38	15.665
362.74	16.815
363.10	16.728
363.46	16.875
363.82	16.553
364.18	16.593
364.54	17.236
364.90	16.643
365.26	16.544
365.62	16.801
365.98	15.559
366.35	15.473
366.71	16.920
367.07	17.116
367.43	16.981
367.79	17.131
368.15	18.391
368.51	16.352
368.87	17.773
369.23	17.630
369.59	17.524
369.95	17.574
370.31	17.236
370.67	16.957
371.03	19.775
371.39	17.784
371.75	17.574
372.11	18.065
372.47	18.548
372.83	18.588
373.19	17.775
373.55	18.773
373.91	19.661
374.27	18.832
374.63	17.891
374.99	18.008
375.35	18.981
375.71	19.602
376.07	19.410
376.42	18.776
376.78	19.947
377.14	19.674
377.50	19.934
377.86	19.282
378.22	20.038
378.58	18.985
378.94	19.862
379.30	20.038
379.66	20.939
380.02	21.192
380.38	20.340
380.74	22.029
381.09	20.721
381.45	21.635
381.81	21.622
382.17	21.401
382.53	21.761
382.89	22.037
383.25	22.264
383.61	22.862
383.97	21.826
384.32	22.583
384.68	21.933
385.04	22.495
385.40	23.777
385.76	22.543
386.12	22.992
386.48	24.103
386.83	23.412
387.19	23.871
387.55	23.129
387.91	24.123
388.27	23.483
388.62	24.339
388.98	23.710
389.34	24.718
389.70	24.647
390.06	25.539
390.42	24.578
390.77	24.746
391.13	24.633
391.49	26.206
391.85	24.825
392.20	25.363
392.56	26.641
392.92	26.663
393.28	24.379
393.64	24.940
393.99	25.046
394.35	25.868
394.71	26.286
395.07	24.984
395.42	25.896
395.78	25.382
396.14	26.567
396.50	26.504
396.85	27.273
397.21	26.449
397.57	25.790
397.92	26.142
398.28	25.897
398.64	26.464
399.00	25.965
399.35	26.791
399.71	26.620
400.07	26.316
400.42	27.730
400.78	25.995
401.14	26.341
401.49	26.627
401.85	26.195
402.21	26.168
402.57	26.897
402.92	26.860
403.28	27.545
403.63	26.918
403.99	26.178
404.35	27.212
404.70	27.458
405.06	27.839
405.42	27.324
405.77	26.114
406.13	25.790
406.49	27.144
406.84	26.698
407.20	26.950
407.55	26.930
407.91	27.600
408.27	26.484
408.62	27.333
408.98	27.390
409.34	27.737
409.69	27.097
410.05	26.766
410.40	28.257
410.76	26.583
411.11	27.684
411.47	27.029
411.83	27.978
412.18	27.706
412.54	28.020
412.89	27.651
413.25	27.391
413.60	26.930
413.96	26.655
414.31	26.974
414.67	27.947
415.03	26.821
415.38	28.608
415.74	28.167
416.09	28.413
416.45	27.979
416.80	28.288
417.16	28.150
417.51	28.069
417.87	28.324
418.22	28.328
418.58	28.212
418.93	27.641
419.29	28.453
419.64	28.778
420.00	28.171
420.35	28.348
420.71	27.914
421.06	28.819
421.42	28.363
421.77	28.924
422.12	29.029
422.48	27.199
422.83	29.121
423.19	28.343
423.54	28.903
423.90	28.754
424.25	28.364
424.61	28.810
424.96	28.455
425.31	27.962
425.67	27.921
426.02	28.114
426.38	29.548
426.73	29.081
427.09	29.848
427.44	28.867
427.79	28.522
428.15	30.238
428.50	29.140
428.85	29.261
429.21	28.879
429.56	28.875
429.92	29.592
430.27	29.245
430.62	29.237
430.98	29.268
431.33	29.072
431.68	29.424
432.04	29.446
432.39	29.469
432.74	29.623
433.10	29.881
433.45	29.854
433.80	28.991
434.16	29.060
434.51	29.263
434.86	29.418
435.22	30.017
435.57	28.997
435.92	29.901
436.28	30.902
436.63	30.077
436.98	28.907
437.34	29.994
437.69	29.872
438.04	29.848
438.39	29.552
438.75	29.460
439.10	29.832
439.45	31.228
439.81	29.305
440.16	29.644
440.51	29.936
440.86	30.284
441.22	29.366
441.57	28.981
441.92	30.757
442.27	29.279
442.63	29.384
442.98	31.324
443.33	29.728
443.68	29.479
444.03	29.966
444.39	30.088
444.74	30.249
445.09	29.919
445.44	29.907
445.79	29.342
446.15	29.857
446.50	29.672
446.85	30.627
447.20	29.883
447.55	30.988
447.91	29.619
448.26	29.605
448.61	29.734
448.96	30.731
449.31	29.584
449.66	29.769
450.02	29.805
450.37	30.952
450.72	29.442
451.07	30.104
451.42	28.936
451.77	30.652
452.12	29.561
452.47	30.286
452.83	29.604
453.18	28.423
453.53	30.612
453.88	30.183
454.23	29.647
454.58	30.588
454.93	30.833
455.28	29.364
455.63	29.187
455.98	31.012
456.34	30.653
456.69	30.557
457.04	30.898
457.39	29.398
457.74	29.425
458.09	29.902
458.44	28.506
458.79	29.826
459.14	29.571
459.49	30.006
459.84	30.194
460.19	28.698
460.54	28.877
460.89	29.841
461.24	31.087
461.59	30.389
461.94	29.655
462.29	29.792
462.64	29.611
462.99	28.627
463.34	29.600
463.69	29.143
464.04	29.623
464.39	29.971
464.74	29.709
465.09	28.649
465.44	29.584
465.79	28.468
466.14	29.830
466.49	29.811
466.84	29.130
467.19	29.330
467.54	30.438
467.89	29.052
468.24	30.076
468.59	30.281
468.94	28.650
469.29	30.141
469.64	30.120
469.99	29.499
470.34	29.524
470.68	29.023
471.03	28.844
471.38	29.326
471.73	29.181
472.08	29.803
472.43	29.397
472.78	29.756
473.13	29.589
473.48	28.589
473.83	30.427
474.17	28.314
474.52	29.156
474.87	29.072
475.22	29.251
475.57	28.479
475.92	29.049
476.27	29.087
476.61	28.737
476.96	28.752
477.31	29.199
477.66	28.939
478.01	28.332
478.36	29.402
478.70	28.505
479.05	29.020
479.40	28.659
479.75	29.232
480.10	28.529
480.45	28.463
480.79	28.524
481.14	28.914
481.49	28.239
481.84	27.298
482.19	29.577
482.53	29.174
482.88	28.385
483.23	28.505
483.58	28.708
483.92	28.257
484.27	27.887
484.62	28.103
484.97	27.670
485.31	28.562
485.66	27.557
486.01	27.911
486.36	27.457
486.70	27.251
487.05	27.176
487.40	27.554
487.75	27.355
488.09	27.965
488.44	27.952
488.79	27.993
489.13	27.960
489.48	27.202
489.83	27.881
490.17	27.883
490.52	27.325
490.87	27.544
491.22	27.649
491.56	27.335
491.91	27.408
492.26	26.872
492.60	27.189
492.95	26.988
493.30	27.150
493.64	27.252
493.99	26.927
494.34	27.243
494.68	27.839
495.03	27.115
495.37	27.175
495.72	28.314
496.07	27.007
496.41	27.035
496.76	27.265
497.11	26.835
497.45	26.828
497.80	26.919
498.14	27.005
498.49	26.585
498.84	27.229
499.18	27.190
499.53	26.828
499.87	26.841
500.22	26.613
500.56	26.990
500.91	26.827
501.26	26.648
501.60	27.907
501.95	26.306
502.29	26.945
502.64	27.421
502.98	26.227
503.33	26.051
503.67	26.032
504.02	26.473
504.36	26.065
504.71	26.282
505.06	25.880
505.40	25.863
505.75	25.892
506.09	25.899
506.44	26.443
506.78	26.644
507.13	26.704
507.47	26.414
507.82	26.039
508.16	25.177
508.51	26.839
508.85	25.720
509.19	25.663
509.54	26.071
509.88	25.605
510.23	26.581
510.57	26.316
510.92	25.272
511.26	26.053
511.61	26.504
511.95	25.470
512.30	25.504
512.64	25.416
512.98	25.991
513.33	25.910
513.67	25.880
514.02	25.703
514.36	25.997
514.70	25.512
515.05	25.544
515.39	25.463
515.74	25.619
516.08	25.154
516.42	25.694
516.77	26.310
517.11	25.472
517.46	25.621
517.80	25.842
518.14	24.957
518.49	25.554
518.83	24.886
519.17	25.289
519.52	25.071
519.86	25.727
520.20	25.318
520.55	25.793
520.89	24.574
521.23	26.236
521.58	25.150
521.92	25.842
522.26	24.405
522.61	24.112
522.95	24.985
523.29	25.076
523.64	25.000
523.98	24.954
524.32	24.970
524.66	25.075
525.01	24.755
525.35	25.403
525.69	24.569
526.04	25.109
526.38	24.405
526.72	23.313
527.06	24.419
527.41	24.196
527.75	25.080
528.09	24.213
528.43	23.709
528.78	24.647
529.12	23.818
529.46	24.985
529.80	24.567
530.15	24.112
530.49	22.708
530.83	24.367
531.17	24.543
531.51	24.514
531.86	24.774
532.20	24.381
532.54	23.831
532.88	24.390
533.22	23.548
533.57	24.074
533.91	23.961
534.25	23.815
534.59	23.673
534.93	22.963
535.27	23.537
535.62	22.955
535.96	24.168
536.30	21.933
536.64	23.181
536.98	23.756
537.32	23.107
537.66	22.667
538.01	22.646
538.35	23.077
538.69	23.165
539.03	23.652
539.37	22.236
539.71	21.452
540.05	23.856
540.39	22.259
540.73	22.186
541.07	22.648
541.42	23.744
541.76	23.419
542.10	21.604
542.44	22.715
542.78	22.925
543.12	21.753
543.46	22.623
543.80	23.227
544.14	22.208
544.48	22.730
544.82	21.937
545.16	22.251
545.50	22.044
545.84	22.379
546.18	22.357
546.52	21.266
546.86	22.062
547.20	22.387
547.54	21.910
547.88	22.832
548.22	22.229
548.56	22.327
548.90	20.743
549.24	21.414
549.58	22.237
549.92	21.154
550.26	21.946
550.60	21.162
550.94	21.690
551.28	19.678
551.62	22.070
551.96	21.053
552.30	21.092
552.64	22.515
552.98	20.610
553.32	21.308
553.66	21.813
554.00	21.002
554.34	21.187
554.68	21.602
555.02	19.817
555.36	21.155
555.69	20.704
556.03	20.525
556.37	21.555
556.71	20.191
557.05	20.868
557.39	19.874
557.73	21.171
558.07	20.087
558.41	20.984
558.75	20.794
559.08	21.253
559.42	20.559
559.76	20.588
560.10	21.271
560.44	19.637
560.78	19.561
561.12	20.712
561.45	19.817
561.79	19.974
562.13	20.188
562.47	20.833
562.81	20.432
563.15	20.602
563.48	20.557
563.82	20.352
564.16	19.228
564.50	18.880
564.84	20.164
565.17	20.399
565.51	20.319
565.85	19.670
566.19	19.224
566.52	19.633
566.86	19.409
567.20	20.460
567.54	20.434
567.88	19.500
568.21	19.630
568.55	19.262
568.89	19.309
569.23	18.405
569.56	18.866
569.90	18.679
570.24	18.658
570.57	19.177
570.91	18.261
571.25	18.715
571.59	19.293
571.92	18.433
572.26	18.400
572.60	18.649
572.93	18.081
573.27	18.397
573.61	18.788
573.95	18.114
574.28	18.342
574.62	18.003
574.96	18.112
575.29	18.089
575.63	18.725
575.97	18.120
576.30	18.242
576.64	18.448
576.98	17.890
577.31	17.976
577.65	17.720
577.98	17.873
578.32	17.693
578.66	17.987
578.99	17.895
579.33	17.526
579.67	17.636
580.00	17.885
580.34	17.561
580.67	17.892
581.01	17.990
581.35	17.693
581.68	17.798
582.02	17.282
582.35	17.649
582.69	17.851
583.02	17.535
583.36	17.570
583.70	17.557
584.03	18.051
584.37	17.576
584.70	17.764
585.04	17.759
585.37	17.451
585.71	17.458
586.04	17.275
586.38	17.738
586.72	17.592
587.05	17.332
587.39	17.124
587.72	17.495
588.06	17.396
588.39	17.421
588.73	17.190
589.06	17.731
589.40	17.576
589.73	17.353
590.07	17.260
590.40	17.026
590.73	17.174
591.07	17.908
591.40	17.588
591.74	17.576
592.07	17.103
592.41	17.817
592.74	17.004
593.08	17.355
593.41	17.273
593.75	16.864
594.08	17.332
594.41	17.285
594.75	17.412
595.08	16.893
595.42	17.128
595.75	16.667
596.09	17.386
596.42	17.485
596.75	17.180
597.09	17.186
597.42	16.737
597.75	16.774
598.09	17.522
598.42	16.538
598.76	16.579
599.09	16.648
599.42	16.084
599.76	16.508
600.09	17.086
600.42	16.618
600.76	16.643
601.09	16.503
601.42	16.781
601.76	16.433
602.09	16.364
602.42	17.357
602.76	16.969
603.09	16.444
603.42	16.673
603.76	16.692
604.09	15.936
604.42	16.714
604.76	16.997
605.09	16.820
605.42	16.417
605.75	16.970
606.09	16.551
606.42	16.714
606.75	16.508
607.09	16.199
607.42	15.661
607.75	15.781
608.08	16.153
608.42	16.047
608.75	16.231
609.08	15.865
609.41	16.326
609.75	16.484
610.08	16.352
610.41	15.922
610.74	16.272
611.07	16.354
611.41	16.389
611.74	16.993
612.07	16.253
612.40	15.635
612.73	15.789
613.07	16.649
613.40	16.482
613.73	15.732
614.06	16.398
614.39	16.046
614.72	16.684
615.06	16.282
615.39	16.507
615.72	16.207
616.05	16.108
616.38	16.120
616.71	16.865
617.05	17.256
617.38	16.717
617.71	15.556
618.04	16.286
618.37	15.612
618.70	17.050
619.03	17.105
619.36	16.429
619.69	16.690
620.03	16.827
620.36	16.176
620.69	16.986
621.02	16.593
621.35	15.348
621.68	15.109
622.01	14.861
622.34	16.263
622.67	16.502
623.00	15.407
623.33	15.368
623.66	15.797
623.99	16.421
624.32	15.621
624.65	15.184
624.99	15.085
625.32	16.944
625.65	16.454
625.98	16.295
626.31	16.485
626.64	16.408
626.97	15.544
627.30	15.378
627.63	16.325
627.96	16.905
628.29	14.611
628.62	16.468
628.95	16.226
629.28	16.241
629.61	16.407
629.94	15.429
630.26	16.111
630.59	16.301
630.92	15.805
631.25	14.511
631.58	15.816
631.91	15.619
632.24	16.983
632.57	15.215
632.90	15.241
633.23	17.450
633.56	18.418
633.89	15.402
634.22	15.664
634.55	16.213
634.88	14.850
635.20	17.921
635.53	16.024
635.86	15.842
636.19	14.588
