SpectraSuite Data File
++++++++++++++++++++++++++++++++++++
Date: Wed May 13 16:04:19 PDT 2015
User: schluterlab
Dark Spectrum Present: Yes
Reference Spectrum Present: Yes
Number of Sampled Component Spectra: 1
Spectrometers: USB2E3373
Integration Time (usec): 3000 (USB2E3373)
Spectra Averaged: 3 (USB2E3373)
Boxcar Smoothing: 0 (USB2E3373)
Correct for Electrical Dark: No (USB2E3373)
Strobe/Lamp Enabled: No (USB2E3373)
Correct for Detector Non-linearity: No (USB2E3373)
Correct for Stray Light: No (USB2E3373)
Number of Pixels in Processed Spectrum: 2048
>>>>>Begin Processed Spectral Data<<<<<
178.53	0.000
178.91	-725.000
179.29	-625.000
179.67	-100.000
180.04	-325.000
180.42	900.000
180.80	600.000
181.18	-525.000
181.56	285.714
181.94	0.000
182.31	-257.143
182.69	733.333
183.07	-312.500
183.45	-188.889
183.83	245.455
184.20	-180.000
184.58	1100.000
184.96	3000.000
185.34	-340.000
185.72	-225.000
186.09	-1000.000
186.47	1400.000
186.85	1150.000
187.23	2400.000
187.61	-733.333
187.98	825.000
188.36	290.909
188.74	309.091
189.12	-320.000
189.49	320.000
189.87	-1100.000
190.25	-475.000
190.63	235.714
191.00	161.538
191.38	316.667
191.76	-425.000
192.14	775.000
192.51	137.500
192.89	550.000
193.27	375.000
193.65	-550.000
194.02	270.000
194.40	380.000
194.78	280.000
195.15	333.333
195.53	320.000
195.91	-950.000
196.29	243.750
196.66	142.105
197.04	-110.000
197.42	0.000
197.79	350.000
198.17	-2200.000
198.55	328.571
198.92	350.000
199.30	500.000
199.68	0.000
200.05	188.889
200.43	414.286
200.81	2200.000
201.18	933.333
201.56	-466.667
201.94	300.000
202.31	366.667
202.69	241.667
203.07	230.000
203.44	0.000
203.82	575.000
204.19	428.571
204.57	257.143
204.95	287.500
205.32	833.333
205.70	327.273
206.08	178.571
206.45	1250.000
206.83	131.250
207.20	433.333
207.58	260.000
207.96	150.000
208.33	387.500
208.71	-566.667
209.08	514.286
209.46	288.889
209.84	227.273
210.21	-566.667
210.59	850.000
210.96	-125.000
211.34	1450.000
211.71	300.000
212.09	383.333
212.46	0.000
212.84	733.333
213.22	800.000
213.59	-2400.000
213.97	316.667
214.34	342.857
214.72	400.000
215.09	520.000
215.47	-1050.000
215.84	-1000.000
216.22	966.667
216.59	307.143
216.97	625.000
217.34	263.636
217.72	-333.333
218.09	0.000
218.47	-1500.000
218.84	388.889
219.22	314.286
219.59	1000.000
219.97	-171.429
220.34	380.000
220.72	-833.333
221.09	185.714
221.47	750.000
221.84	-483.333
222.22	0.000
222.59	850.000
222.97	-1350.000
223.34	640.000
223.72	230.769
224.09	420.000
224.46	850.000
224.84	-2600.000
225.21	-580.000
225.59	-2600.000
225.96	370.000
226.34	145.000
226.71	1600.000
227.08	312.500
227.46	190.000
227.83	-350.000
228.21	-1200.000
228.58	322.222
228.95	-950.000
229.33	-950.000
229.70	833.333
230.08	328.571
230.45	-420.000
230.82	233.333
231.20	433.333
231.57	285.714
231.95	241.667
232.32	118.182
232.69	163.636
233.07	228.571
233.44	184.615
233.81	-700.000
234.19	194.737
234.56	166.667
234.93	158.333
235.31	190.909
235.68	130.769
236.05	171.429
236.43	72.727
236.80	89.474
237.17	1400.000
237.55	95.238
237.92	85.714
238.29	114.286
238.67	70.968
239.04	93.103
239.41	66.667
239.79	63.043
240.16	71.429
240.53	61.364
240.91	23.529
241.28	34.000
241.65	48.000
242.02	47.826
242.40	29.032
242.77	51.667
243.14	30.108
243.51	37.079
243.89	28.235
244.26	23.333
244.63	24.731
245.00	21.277
245.38	19.802
245.75	26.168
246.12	15.596
246.49	27.007
246.87	26.400
247.24	23.846
247.61	24.286
247.98	19.608
248.36	14.189
248.73	12.739
249.10	11.465
249.47	15.819
249.84	22.995
250.22	12.299
250.59	14.201
250.96	16.162
251.33	15.166
251.70	17.327
252.08	10.952
252.45	13.453
252.82	14.348
253.19	8.511
253.56	16.078
253.94	12.448
254.31	12.500
254.68	16.923
255.05	10.332
255.42	8.130
255.79	8.456
256.16	13.357
256.54	8.481
256.91	10.320
257.28	8.633
257.65	4.950
258.02	9.938
258.39	10.410
258.76	8.027
259.14	9.524
259.51	6.079
259.88	7.764
260.25	12.689
260.62	8.960
260.99	9.006
261.36	10.811
261.73	6.590
262.10	6.395
262.47	6.761
262.85	6.964
263.22	4.843
263.59	8.832
263.96	7.692
264.33	9.138
264.70	7.368
265.07	9.207
265.44	9.343
265.81	6.083
266.18	8.794
266.55	7.561
266.92	7.862
267.29	7.870
267.66	6.651
268.03	8.864
268.40	8.178
268.77	4.773
269.14	8.108
269.51	9.029
269.88	6.760
270.25	8.804
270.62	5.843
270.99	9.892
271.36	7.511
271.73	6.776
272.10	5.652
272.47	6.882
272.84	7.143
273.21	10.482
273.58	3.930
273.95	6.289
274.32	7.438
274.69	6.210
275.06	7.480
275.43	6.170
275.80	7.415
276.17	5.703
276.54	6.237
276.91	5.336
277.28	6.445
277.65	7.157
278.02	4.141
278.39	7.812
278.76	5.636
279.13	6.604
279.50	6.890
279.87	7.371
280.23	6.188
280.60	4.836
280.97	5.545
281.34	6.372
281.71	7.455
282.08	4.990
282.45	4.000
282.82	6.217
283.19	4.278
283.56	5.965
283.92	6.261
284.29	4.233
284.66	5.445
285.03	6.329
285.40	4.577
285.77	6.566
286.14	3.972
286.51	6.333
286.87	7.350
287.24	7.818
287.61	6.742
287.98	6.494
288.35	6.022
288.72	5.452
289.08	6.103
289.45	5.272
289.82	6.016
290.19	4.553
290.56	5.513
290.93	4.381
291.29	4.908
291.66	5.605
292.03	8.285
292.40	6.608
292.77	5.030
293.13	5.672
293.50	6.706
293.87	5.926
294.24	6.815
294.60	5.386
294.97	4.506
295.34	7.334
295.71	6.250
296.08	5.271
296.44	4.264
296.81	4.095
297.18	8.130
297.55	4.881
297.91	4.354
298.28	6.426
298.65	5.352
299.02	5.665
299.38	5.445
299.75	4.043
300.12	6.130
300.48	4.750
300.85	5.672
301.22	5.350
301.59	4.545
301.95	4.282
302.32	5.777
302.69	5.974
303.05	5.212
303.42	5.185
303.79	6.229
304.15	4.779
304.52	5.446
304.89	5.691
305.25	4.408
305.62	6.682
305.99	4.959
306.35	5.593
306.72	6.054
307.09	5.771
307.45	6.982
307.82	4.129
308.19	6.512
308.55	6.796
308.92	5.800
309.29	6.019
309.65	4.560
310.02	6.237
310.38	4.516
310.75	5.702
311.12	5.834
311.48	6.270
311.85	7.023
312.22	6.243
312.58	5.405
312.95	6.125
313.31	4.757
313.68	6.445
314.05	7.101
314.41	6.432
314.78	6.042
315.14	6.554
315.51	6.076
315.87	6.436
316.24	6.554
316.61	5.945
316.97	5.969
317.34	6.067
317.70	6.597
318.07	5.871
318.43	6.556
318.80	6.560
319.16	5.932
319.53	5.535
319.89	7.524
320.26	7.000
320.62	6.746
320.99	6.263
321.35	6.263
321.72	6.057
322.08	7.009
322.45	9.154
322.81	7.849
323.18	7.900
323.54	8.627
323.91	7.925
324.27	6.501
324.64	6.431
325.00	6.583
325.37	6.642
325.73	7.899
326.10	7.679
326.46	7.348
326.83	8.197
327.19	8.198
327.56	6.794
327.92	8.049
328.29	8.784
328.65	7.827
329.01	7.942
329.38	7.308
329.74	8.218
330.11	7.729
330.47	7.805
330.84	8.272
331.20	7.377
331.56	9.083
331.93	7.130
332.29	7.098
332.66	8.053
333.02	7.952
333.38	9.124
333.75	8.824
334.11	8.096
334.48	7.808
334.84	7.813
335.20	7.727
335.57	6.800
335.93	7.054
336.29	7.418
336.66	8.386
337.02	7.873
337.38	8.796
337.75	7.130
338.11	7.789
338.47	8.011
338.84	6.874
339.20	6.697
339.56	8.029
339.93	6.273
340.29	7.518
340.65	7.665
341.02	7.853
341.38	8.096
341.74	7.632
342.11	7.336
342.47	5.991
342.83	7.877
343.20	8.918
343.56	7.666
343.92	7.456
344.28	8.163
344.65	7.309
345.01	7.576
345.37	6.518
345.73	7.614
346.10	7.843
346.46	7.542
346.82	7.661
347.19	6.767
347.55	7.307
347.91	8.252
348.27	7.724
348.63	7.609
349.00	7.201
349.36	7.225
349.72	8.260
350.08	6.321
350.45	7.404
350.81	6.905
351.17	7.050
351.53	7.289
351.89	6.271
352.26	7.972
352.62	7.939
352.98	7.455
353.34	6.984
353.70	6.056
354.07	7.581
354.43	6.984
354.79	7.160
355.15	6.864
355.51	7.114
355.87	7.837
356.24	7.492
356.60	6.255
356.96	6.919
357.32	6.950
357.68	7.008
358.04	7.284
358.40	7.838
358.77	8.216
359.13	6.709
359.49	7.294
359.85	5.952
360.21	6.300
360.57	7.315
360.93	7.769
361.29	7.559
361.66	6.579
362.02	8.209
362.38	6.540
362.74	7.068
363.10	6.662
363.46	6.236
363.82	6.576
364.18	7.048
364.54	7.578
364.90	7.436
365.26	6.176
365.62	6.866
365.98	5.625
366.35	6.375
366.71	6.797
367.07	6.191
367.43	7.692
367.79	6.781
368.15	7.256
368.51	5.959
368.87	7.281
369.23	6.364
369.59	6.662
369.95	6.029
370.31	7.977
370.67	6.739
371.03	7.865
371.39	6.268
371.75	6.691
372.11	7.468
372.47	6.672
372.83	7.565
373.19	6.864
373.55	7.169
373.91	7.953
374.27	6.735
374.63	6.473
374.99	7.627
375.35	5.652
375.71	6.991
376.07	6.996
376.42	7.497
376.78	7.555
377.14	6.784
377.50	6.225
377.86	6.582
378.22	7.332
378.58	6.516
378.94	7.165
379.30	6.616
379.66	6.853
380.02	7.371
380.38	7.165
380.74	7.323
381.09	7.946
381.45	7.498
381.81	7.924
382.17	7.070
382.53	7.358
382.89	7.037
383.25	7.192
383.61	7.621
383.97	7.880
384.32	7.236
384.68	6.196
385.04	6.822
385.40	7.245
385.76	7.064
386.12	6.671
386.48	8.181
386.83	6.928
387.19	7.978
387.55	7.545
387.91	6.953
388.27	7.725
388.62	7.806
388.98	7.432
389.34	7.822
389.70	7.419
390.06	7.668
390.42	7.134
390.77	7.252
391.13	7.658
391.49	8.185
391.85	7.129
392.20	6.498
392.56	8.144
392.92	8.122
393.28	6.331
393.64	7.074
393.99	8.308
394.35	7.258
394.71	7.340
395.07	6.978
395.42	6.860
395.78	7.443
396.14	7.200
396.50	7.707
396.85	8.137
397.21	6.720
397.57	7.502
397.92	7.392
398.28	7.399
398.64	7.527
399.00	7.163
399.35	7.107
399.71	7.350
400.07	7.037
400.42	8.160
400.78	7.720
401.14	7.439
401.49	7.821
401.85	7.623
402.21	7.365
402.57	6.601
402.92	7.566
403.28	6.996
403.63	6.745
403.99	6.306
404.35	7.333
404.70	7.374
405.06	6.931
405.42	7.112
405.77	6.514
406.13	6.941
406.49	6.860
406.84	7.088
407.20	6.265
407.55	7.339
407.91	7.267
408.27	6.637
408.62	7.887
408.98	6.495
409.34	7.011
409.69	6.839
410.05	7.001
410.40	7.156
410.76	7.348
411.11	7.057
411.47	7.284
411.83	7.269
412.18	6.988
412.54	6.164
412.89	7.410
413.25	7.202
413.60	6.980
413.96	7.468
414.31	7.412
414.67	6.971
415.03	6.821
415.38	7.474
415.74	6.817
416.09	7.446
416.45	6.225
416.80	7.469
417.16	6.903
417.51	7.167
417.87	6.936
418.22	6.877
418.58	7.811
418.93	7.248
419.29	7.066
419.64	7.305
420.00	7.012
420.35	7.246
420.71	7.950
421.06	6.086
421.42	6.842
421.77	6.839
422.12	6.345
422.48	6.800
422.83	7.338
423.19	7.569
423.54	7.023
423.90	7.072
424.25	7.147
424.61	6.488
424.96	7.289
425.31	7.032
425.67	6.629
426.02	7.143
426.38	7.082
426.73	6.495
427.09	6.140
427.44	7.016
427.79	6.901
428.15	7.262
428.50	7.080
428.85	7.211
429.21	6.240
429.56	6.480
429.92	6.442
430.27	6.306
430.62	6.554
430.98	6.175
431.33	6.546
431.68	7.330
432.04	6.869
432.39	6.568
432.74	6.523
433.10	6.395
433.45	6.997
433.80	6.652
434.16	6.944
434.51	6.579
434.86	7.241
435.22	7.059
435.57	7.477
435.92	6.495
436.28	6.880
436.63	7.616
436.98	6.354
437.34	6.380
437.69	6.884
438.04	6.464
438.39	7.403
438.75	7.786
439.10	6.592
439.45	6.907
439.81	6.224
440.16	7.002
440.51	7.030
440.86	7.064
441.22	6.563
441.57	6.794
441.92	7.574
442.27	6.997
442.63	6.372
442.98	6.817
443.33	7.120
443.68	6.711
444.03	6.784
444.39	6.183
444.74	6.602
445.09	7.385
445.44	6.944
445.79	6.878
446.15	7.411
446.50	6.247
446.85	6.886
447.20	6.374
447.55	7.370
447.91	6.729
448.26	6.622
448.61	7.123
448.96	7.087
449.31	6.862
449.66	6.978
450.02	6.518
450.37	7.086
450.72	5.922
451.07	6.581
451.42	6.383
451.77	7.223
452.12	7.044
452.47	6.965
452.83	7.401
453.18	7.213
453.53	7.916
453.88	6.261
454.23	6.575
454.58	7.268
454.93	7.311
455.28	6.546
455.63	6.917
455.98	7.679
456.34	7.098
456.69	8.140
457.04	7.492
457.39	7.189
457.74	6.732
458.09	7.533
458.44	6.784
458.79	5.911
459.14	7.844
459.49	6.888
459.84	7.258
460.19	6.364
460.54	7.234
460.89	6.253
461.24	7.468
461.59	8.309
461.94	6.782
462.29	7.596
462.64	7.275
462.99	6.571
463.34	8.200
463.69	7.067
464.04	7.478
464.39	7.188
464.74	7.427
465.09	7.298
465.44	6.814
465.79	7.215
466.14	7.499
466.49	6.674
466.84	7.531
467.19	7.544
467.54	6.688
467.89	7.023
468.24	7.213
468.59	7.082
468.94	7.575
469.29	7.776
469.64	7.831
469.99	7.781
470.34	6.539
470.68	6.753
471.03	6.667
471.38	7.088
471.73	7.662
472.08	8.158
472.43	7.098
472.78	6.978
473.13	7.125
473.48	7.803
473.83	7.805
474.17	6.907
474.52	7.320
474.87	7.823
475.22	7.139
475.57	7.792
475.92	6.532
476.27	7.441
476.61	7.115
476.96	6.267
477.31	6.855
477.66	6.947
478.01	6.430
478.36	7.086
478.70	6.334
479.05	6.763
479.40	6.960
479.75	6.609
480.10	6.710
480.45	6.521
480.79	6.737
481.14	6.409
481.49	7.451
481.84	6.676
482.19	6.361
482.53	7.110
482.88	6.980
483.23	6.542
483.58	6.642
483.92	6.607
484.27	6.013
484.62	6.466
484.97	6.228
485.31	6.438
485.66	5.998
486.01	5.324
486.36	5.317
486.70	5.454
487.05	5.480
487.40	5.720
487.75	5.997
488.09	5.914
488.44	5.804
488.79	6.184
489.13	6.570
489.48	6.444
489.83	6.301
490.17	6.883
490.52	6.776
490.87	6.468
491.22	6.321
491.56	6.287
491.91	6.468
492.26	6.247
492.60	6.959
492.95	5.659
493.30	6.215
493.64	6.440
493.99	6.500
494.34	7.493
494.68	7.601
495.03	6.344
495.37	6.375
495.72	6.676
496.07	7.425
496.41	6.283
496.76	6.201
497.11	6.303
497.45	6.567
497.80	6.766
498.14	6.377
498.49	5.951
498.84	6.711
499.18	7.048
499.53	5.935
499.87	6.803
500.22	7.160
500.56	7.039
500.91	6.058
501.26	7.160
501.60	7.024
501.95	6.645
502.29	6.373
502.64	6.750
502.98	6.311
503.33	6.353
503.67	6.497
504.02	6.361
504.36	6.832
504.71	6.497
505.06	7.229
505.40	6.952
505.75	6.798
506.09	6.803
506.44	6.364
506.78	6.868
507.13	6.865
507.47	7.424
507.82	7.042
508.16	6.890
508.51	7.154
508.85	6.653
509.19	6.684
509.54	7.092
509.88	6.852
510.23	6.684
510.57	7.792
510.92	6.111
511.26	6.835
511.61	7.106
511.95	6.628
512.30	6.204
512.64	6.878
512.98	6.645
513.33	7.173
513.67	7.311
514.02	6.331
514.36	6.499
514.70	6.475
515.05	7.083
515.39	7.684
515.74	6.757
516.08	7.099
516.42	7.436
516.77	7.302
517.11	6.770
517.46	7.449
517.80	7.201
518.14	6.254
518.49	7.876
518.83	7.159
519.17	6.755
519.52	7.074
519.86	7.302
520.20	7.630
520.55	7.899
520.89	6.813
521.23	8.022
521.58	7.503
521.92	7.042
522.26	7.138
522.61	6.916
522.95	6.875
523.29	7.608
523.64	7.927
523.98	7.640
524.32	7.057
524.66	7.637
525.01	6.985
525.35	7.249
525.69	7.081
526.04	7.850
526.38	7.200
526.72	8.221
527.06	8.223
527.41	6.498
527.75	7.460
528.09	7.129
528.43	7.776
528.78	7.867
529.12	6.848
529.46	7.165
529.80	7.426
530.15	8.411
530.49	7.077
530.83	7.595
531.17	7.507
531.51	7.912
531.86	7.290
532.20	7.562
532.54	8.200
532.88	8.216
533.22	7.683
533.57	7.531
533.91	7.104
534.25	7.959
534.59	7.261
534.93	7.020
535.27	6.518
535.62	7.204
535.96	7.094
536.30	6.612
536.64	7.534
536.98	7.432
537.32	7.637
537.66	7.000
538.01	8.163
538.35	7.434
538.69	7.466
539.03	7.472
539.37	6.837
539.71	6.481
540.05	6.928
540.39	7.774
540.73	7.050
541.07	7.528
541.42	7.828
541.76	8.387
542.10	7.503
542.44	7.748
542.78	7.444
543.12	7.166
543.46	8.131
543.80	7.612
544.14	6.483
544.48	7.175
544.82	7.377
545.16	7.157
545.50	7.391
545.84	6.855
546.18	7.744
546.52	7.708
546.86	6.873
547.20	7.485
547.54	7.615
547.88	8.673
548.22	7.410
548.56	7.610
548.90	6.658
549.24	6.599
549.58	7.094
549.92	7.898
550.26	7.173
550.60	7.261
550.94	7.113
551.28	6.511
551.62	7.980
551.96	6.877
552.30	8.532
552.64	7.437
552.98	7.593
553.32	6.945
553.66	7.362
554.00	7.687
554.34	6.901
554.68	7.082
555.02	7.264
555.36	7.446
555.69	6.698
556.03	7.335
556.37	7.162
556.71	7.367
557.05	6.653
557.39	7.768
557.73	8.045
558.07	6.962
558.41	6.802
558.75	7.274
559.08	7.532
559.42	7.407
559.76	6.985
560.10	7.138
560.44	7.128
560.78	7.518
561.12	7.322
561.45	7.757
561.79	7.251
562.13	6.975
562.47	7.240
562.81	7.043
563.15	6.689
563.48	8.289
563.82	7.045
564.16	7.063
564.50	6.836
564.84	6.258
565.17	7.529
565.51	6.837
565.85	7.424
566.19	6.262
566.52	7.030
566.86	6.570
567.20	7.252
567.54	6.849
567.88	6.464
568.21	6.402
568.55	6.724
568.89	6.323
569.23	6.462
569.56	6.113
569.90	5.849
570.24	5.705
570.57	6.052
570.91	5.527
571.25	6.053
571.59	5.832
571.92	5.732
572.26	5.604
572.60	5.766
572.93	5.397
573.27	5.856
573.61	5.751
573.95	5.891
574.28	5.452
574.62	5.248
574.96	5.711
575.29	5.068
575.63	5.640
575.97	5.493
576.30	5.709
576.64	5.560
576.98	5.372
577.31	5.430
577.65	5.320
577.98	5.388
578.32	5.342
578.66	5.430
578.99	5.433
579.33	5.301
579.67	5.351
580.00	5.610
580.34	5.339
580.67	5.271
581.01	5.577
581.35	5.298
581.68	5.263
582.02	5.265
582.35	4.937
582.69	5.344
583.02	5.148
583.36	5.372
583.70	5.495
584.03	5.408
584.37	5.718
584.70	4.859
585.04	5.920
585.37	5.732
585.71	5.639
586.04	5.678
586.38	5.512
586.72	5.827
587.05	5.325
587.39	5.224
587.72	5.591
588.06	5.309
588.39	5.652
588.73	5.661
589.06	5.609
589.40	5.522
589.73	5.597
590.07	6.263
590.40	5.517
590.73	5.855
591.07	6.675
591.40	6.116
591.74	6.190
592.07	6.239
592.41	6.036
592.74	6.255
593.08	5.863
593.41	5.346
593.75	5.996
594.08	5.531
594.41	6.080
594.75	5.878
595.08	5.655
595.42	6.025
595.75	5.805
596.09	6.196
596.42	6.365
596.75	6.163
597.09	6.364
597.42	6.197
597.75	5.865
598.09	6.652
598.42	5.713
598.76	6.242
599.09	5.777
599.42	5.750
599.76	5.820
600.09	5.756
600.42	5.917
600.76	5.429
601.09	5.792
601.42	5.594
601.76	5.806
602.09	5.494
602.42	5.732
602.76	6.409
603.09	5.507
603.42	6.287
603.76	5.945
604.09	5.816
604.42	5.463
604.76	6.158
605.09	5.985
605.42	5.686
605.75	5.836
606.09	5.490
606.42	5.640
606.75	5.848
607.09	6.321
607.42	5.220
607.75	5.401
608.08	5.601
608.42	6.096
608.75	6.718
609.08	5.874
609.41	6.092
609.75	6.098
610.08	6.645
610.41	5.307
610.74	5.960
611.07	5.879
611.41	6.035
611.74	5.983
612.07	6.263
612.40	6.401
612.73	5.842
613.07	6.304
613.40	6.214
613.73	5.506
614.06	6.613
614.39	6.555
614.72	6.947
615.06	6.408
615.39	5.573
615.72	5.777
616.05	6.114
616.38	6.615
616.71	6.829
617.05	6.302
617.38	6.013
617.71	6.126
618.04	6.731
618.37	7.274
618.70	6.098
619.03	6.711
619.36	6.993
619.69	6.338
620.03	7.555
620.36	6.818
620.69	7.192
621.02	7.301
621.35	7.048
621.68	5.997
622.01	6.502
622.34	7.640
622.67	6.540
623.00	6.383
623.33	6.433
623.66	6.433
623.99	6.701
624.32	6.919
624.65	7.133
624.99	6.445
625.32	6.300
625.65	7.137
625.98	7.071
626.31	6.998
626.64	7.673
626.97	6.401
627.30	6.318
627.63	7.711
627.96	7.149
628.29	7.087
628.62	7.777
628.95	8.774
629.28	6.387
629.61	7.791
629.94	7.619
630.26	7.245
630.59	7.817
630.92	7.567
631.25	6.318
631.58	7.508
631.91	7.099
632.24	7.595
632.57	7.765
632.90	7.237
633.23	7.494
633.56	9.040
633.89	7.588
634.22	8.400
634.55	8.284
634.88	7.186
635.20	8.602
635.53	8.795
635.86	7.797
636.19	7.412
636.52	6.805
636.85	7.446
637.18	8.180
637.51	8.038
637.83	6.782
638.16	8.568
638.49	9.572
638.82	8.976
639.15	8.875
639.48	8.229
639.81	9.115
640.13	8.464
640.46	7.785
640.79	9.379
641.12	7.840
641.45	8.799
641.77	7.658
642.10	9.064
642.43	7.357
642.76	8.978
643.09	8.742
643.41	8.649
643.74	9.568
644.07	8.841
644.40	9.969
644.73	10.551
645.05	10.777
645.38	8.215
645.71	8.213
646.04	8.970
646.36	10.351
646.69	8.863
647.02	10.034
647.35	8.935
647.67	9.204
648.00	11.382
648.33	8.416
648.66	9.091
648.98	10.495
649.31	7.324
649.64	10.463
649.96	8.644
650.29	8.057
650.62	8.414
650.94	10.373
651.27	11.486
651.60	12.313
651.92	10.224
652.25	9.283
652.58	9.813
652.90	9.953
653.23	7.704
653.56	6.614
653.88	10.143
654.21	9.795
654.54	7.591
654.86	7.944
655.19	8.243
655.52	5.499
655.84	3.985
656.17	4.611
656.49	6.211
656.82	6.417
