SpectraSuite Data File
++++++++++++++++++++++++++++++++++++
Date: Wed May 13 16:51:13 PDT 2015
User: schluterlab
Dark Spectrum Present: Yes
Reference Spectrum Present: Yes
Number of Sampled Component Spectra: 1
Spectrometers: USB2E3373
Integration Time (usec): 3000 (USB2E3373)
Spectra Averaged: 3 (USB2E3373)
Boxcar Smoothing: 0 (USB2E3373)
Correct for Electrical Dark: No (USB2E3373)
Strobe/Lamp Enabled: No (USB2E3373)
Correct for Detector Non-linearity: No (USB2E3373)
Correct for Stray Light: No (USB2E3373)
Number of Pixels in Processed Spectrum: 2048
>>>>>Begin Processed Spectral Data<<<<<
178.53	0.000
178.91	-1200.000
179.29	-1225.000
179.67	-222.222
180.04	-1275.000
180.42	2150.000
180.80	940.000
181.18	-1075.000
181.56	757.143
181.94	0.000
182.31	-800.000
182.69	1900.000
183.07	-537.500
183.45	-544.444
183.83	518.182
184.20	-420.000
184.58	2050.000
184.96	5100.000
185.34	-760.000
185.72	-462.500
186.09	-2000.000
186.47	2550.000
186.85	2400.000
187.23	4300.000
187.61	-1833.333
187.98	1375.000
188.36	563.636
188.74	472.727
189.12	-900.000
189.49	550.000
189.87	-5400.000
190.25	-1225.000
190.63	428.571
191.00	453.846
191.38	1016.667
191.76	-1150.000
192.14	1375.000
192.51	637.500
192.89	850.000
193.27	612.500
193.65	-1425.000
194.02	620.000
194.40	1060.000
194.78	570.000
195.15	558.333
195.53	620.000
195.91	-2100.000
196.29	325.000
196.66	336.842
197.04	-350.000
197.42	0.000
197.79	670.000
198.17	-5200.000
198.55	814.286
198.92	687.500
199.30	1080.000
199.68	0.000
200.05	327.778
200.43	700.000
200.81	5400.000
201.18	1966.667
201.56	-1533.333
201.94	577.778
202.31	588.889
202.69	375.000
203.07	490.000
203.44	0.000
203.82	1000.000
204.19	742.857
204.57	457.143
204.95	625.000
205.32	1466.667
205.70	472.727
206.08	414.286
206.45	2250.000
206.83	318.750
207.20	916.667
207.58	880.000
207.96	327.778
208.33	712.500
208.71	-650.000
209.08	800.000
209.46	588.889
209.84	481.818
210.21	-1733.333
210.59	1525.000
210.96	-437.500
211.34	2900.000
211.71	590.000
212.09	916.667
212.46	0.000
212.84	1766.667
213.22	1625.000
213.59	-4700.000
213.97	950.000
214.34	785.714
214.72	600.000
215.09	1180.000
215.47	-2150.000
215.84	-2500.000
216.22	1733.333
216.59	350.000
216.97	1275.000
217.34	500.000
217.72	-833.333
218.09	0.000
218.47	-5600.000
218.84	633.333
219.22	785.714
219.59	1633.333
219.97	-500.000
220.34	1020.000
220.72	-1700.000
221.09	342.857
221.47	1725.000
221.84	-900.000
222.22	0.000
222.59	1275.000
222.97	-2350.000
223.34	1240.000
223.72	453.846
224.09	1220.000
224.46	1900.000
224.84	-5000.000
225.21	-1120.000
225.59	-4100.000
225.96	620.000
226.34	260.000
226.71	2950.000
227.08	562.500
227.46	600.000
227.83	-1025.000
228.21	-2400.000
228.58	600.000
228.95	-2550.000
229.33	-2400.000
229.70	1933.333
230.08	785.714
230.45	-760.000
230.82	458.333
231.20	850.000
231.57	657.143
231.95	500.000
232.32	295.455
232.69	436.364
233.07	785.714
233.44	430.769
233.81	-1866.667
234.19	289.474
234.56	500.000
234.93	416.667
235.31	581.818
235.68	438.462
236.05	464.286
236.43	184.848
236.80	326.316
237.17	5600.000
237.55	300.000
237.92	225.000
238.29	309.524
238.67	238.710
239.04	251.724
239.41	213.889
239.79	150.000
240.16	197.619
240.53	175.000
240.91	147.059
241.28	162.000
241.65	162.000
242.02	123.188
242.40	138.710
242.77	153.333
243.14	103.226
243.51	129.213
243.89	110.588
244.26	115.556
244.63	109.677
245.00	91.489
245.38	100.990
245.75	100.000
246.12	102.752
246.49	94.891
246.87	102.400
247.24	90.000
247.61	90.000
247.98	85.621
248.36	92.568
248.73	91.720
249.10	86.624
249.47	79.661
249.84	83.957
250.22	77.005
250.59	81.065
250.96	86.869
251.33	77.725
251.70	80.198
252.08	76.667
252.45	73.991
252.82	74.348
253.19	74.894
253.56	76.078
253.94	73.859
254.31	70.703
254.68	80.000
255.05	73.801
255.42	78.049
255.79	69.485
256.16	74.368
256.54	71.025
256.91	74.733
257.28	67.266
257.65	68.647
258.02	71.739
258.39	66.877
258.76	69.565
259.14	66.964
259.51	68.389
259.88	67.702
260.25	71.903
260.62	65.896
260.99	71.118
261.36	72.372
261.73	65.903
262.10	65.698
262.47	69.014
262.85	64.624
263.22	67.521
263.59	65.242
263.96	64.286
264.33	62.924
264.70	67.895
265.07	63.939
265.44	66.162
265.81	61.557
266.18	66.080
266.55	67.317
266.92	64.128
267.29	64.583
267.66	62.385
268.03	61.136
268.40	63.318
268.77	64.916
269.14	64.640
269.51	63.883
269.88	64.103
270.25	61.625
270.62	63.820
270.99	66.022
271.36	60.730
271.73	64.019
272.10	63.478
272.47	62.366
272.84	63.636
273.21	63.312
273.58	60.699
273.95	59.119
274.32	56.198
274.69	61.242
275.06	58.268
275.43	62.128
275.80	58.918
276.17	62.729
276.54	59.044
276.91	58.893
277.28	57.031
277.65	61.315
278.02	59.213
278.39	62.109
278.76	57.818
279.13	59.623
279.50	58.287
279.87	59.761
280.23	59.880
280.60	59.574
280.97	59.150
281.34	58.407
281.71	58.545
282.08	60.845
282.45	56.364
282.82	55.773
283.19	56.506
283.56	57.018
283.92	57.360
284.29	57.143
284.66	58.621
285.03	56.600
285.40	57.923
285.77	56.566
286.14	55.786
286.51	55.667
286.87	56.752
287.24	55.049
287.61	54.735
287.98	53.409
288.35	54.358
288.72	52.960
289.08	51.800
289.45	54.695
289.82	53.984
290.19	51.177
290.56	50.536
290.93	49.698
291.29	53.221
291.66	48.968
292.03	50.291
292.40	50.073
292.77	48.964
293.13	49.701
293.50	49.125
293.87	49.630
294.24	47.407
294.60	46.870
294.97	48.256
295.34	48.237
295.71	47.727
296.08	44.872
296.44	46.905
296.81	45.310
297.18	45.935
297.55	43.140
297.91	43.931
298.28	44.846
298.65	43.734
299.02	44.005
299.38	42.231
299.75	42.722
300.12	42.529
300.48	44.250
300.85	40.814
301.22	42.675
301.59	40.783
301.95	43.325
302.32	44.159
302.69	41.935
303.05	42.182
303.42	41.358
303.79	41.676
304.15	40.676
304.52	40.324
304.89	39.141
305.25	41.763
305.62	39.524
305.99	40.850
306.35	40.268
306.72	40.247
307.09	40.954
307.45	40.653
307.82	39.174
308.19	39.956
308.55	40.777
308.92	38.668
309.29	39.071
309.65	38.918
310.02	38.795
310.38	38.817
310.75	38.226
311.12	39.099
311.48	40.334
311.85	39.937
312.22	39.230
312.58	39.501
312.95	40.021
313.31	37.670
313.68	41.788
314.05	39.546
314.41	40.402
314.78	41.088
315.14	39.325
315.51	40.783
315.87	39.307
316.24	40.020
316.61	39.961
316.97	40.215
317.34	40.607
317.70	41.683
318.07	41.290
318.43	41.879
318.80	43.018
319.16	42.373
319.53	41.839
319.89	42.571
320.26	43.700
320.62	42.659
320.99	45.657
321.35	45.657
321.72	46.201
322.08	46.002
322.45	48.358
322.81	48.450
323.18	49.904
323.54	49.351
323.91	48.491
324.27	49.809
324.64	49.394
325.00	48.693
325.37	52.593
325.73	52.603
326.10	52.868
326.46	53.315
326.83	55.997
327.19	53.459
327.56	56.794
327.92	56.780
328.29	59.805
328.65	58.748
329.01	58.845
329.38	61.887
329.74	62.142
330.11	63.525
330.47	62.167
330.84	64.338
331.20	62.933
331.56	62.752
331.93	64.630
332.29	63.265
332.66	63.009
333.02	65.082
333.38	67.480
333.75	67.112
334.11	67.349
334.48	67.169
334.84	67.831
335.20	68.727
335.57	68.178
335.93	66.607
336.29	67.582
336.66	70.784
337.02	69.231
337.38	69.444
337.75	67.736
338.11	70.367
338.47	69.890
338.84	70.394
339.20	71.835
339.56	72.172
339.93	70.727
340.29	71.649
340.65	71.747
341.02	69.808
341.38	73.310
341.74	70.351
342.11	73.013
342.47	73.304
342.83	72.003
343.20	72.468
343.56	70.514
343.92	72.807
344.28	69.728
344.65	74.205
345.01	71.970
345.37	74.185
345.73	71.320
346.10	72.208
346.46	72.712
346.82	72.735
347.19	72.180
347.55	73.563
347.91	74.191
348.27	74.281
348.63	72.826
349.00	73.382
349.36	72.332
349.72	72.494
350.08	73.258
350.45	74.858
350.81	75.061
351.17	75.203
351.53	75.430
351.89	73.762
352.26	74.665
352.62	74.900
352.98	74.068
353.34	75.842
353.70	74.223
354.07	75.565
354.43	74.206
354.79	74.014
355.15	75.259
355.51	77.618
355.87	77.143
356.24	75.814
356.60	76.905
356.96	76.669
357.32	77.760
357.68	77.480
358.04	75.297
358.40	75.851
358.77	76.291
359.13	76.717
359.49	77.804
359.85	77.302
360.21	79.825
360.57	77.977
360.93	80.077
361.29	78.836
361.66	76.625
362.02	77.015
362.38	78.175
362.74	77.753
363.10	77.646
363.46	78.283
363.82	77.702
364.18	77.753
364.54	80.312
364.90	77.691
365.26	80.221
365.62	80.278
365.98	78.451
366.35	77.794
366.71	80.116
367.07	79.825
367.43	82.946
367.79	81.799
368.15	80.460
368.51	81.032
368.87	81.870
369.23	82.224
369.59	81.970
369.95	82.647
370.31	79.986
370.67	81.377
371.03	84.045
371.39	81.560
371.75	83.309
372.11	81.792
372.47	82.698
372.83	85.231
373.19	82.948
373.55	84.996
373.91	86.156
374.27	83.299
374.63	84.655
374.99	85.452
375.35	85.625
375.71	84.510
376.07	85.940
376.42	86.382
376.78	85.421
377.14	85.550
377.50	86.887
377.86	87.367
378.22	86.283
378.58	85.714
378.94	87.932
379.30	88.677
379.66	87.056
380.02	86.241
380.38	86.400
380.74	88.355
381.09	88.081
381.45	89.490
381.81	89.128
382.17	89.045
382.53	87.044
382.89	90.309
383.25	89.556
383.61	91.016
383.97	88.931
384.32	89.208
384.68	89.777
385.04	90.043
385.40	90.279
385.76	90.295
386.12	90.803
386.48	90.497
386.83	92.174
387.19	94.187
387.55	91.280
387.91	91.233
388.27	91.232
388.62	91.948
388.98	90.541
389.34	93.116
389.70	91.968
390.06	93.473
390.42	94.682
390.77	93.066
391.13	94.384
391.49	94.099
391.85	93.889
392.20	92.871
392.56	94.192
392.92	94.350
393.28	93.787
393.64	92.866
393.99	91.814
394.35	93.672
394.71	93.287
395.07	92.648
395.42	95.365
395.78	93.702
396.14	93.669
396.50	96.617
396.85	93.961
397.21	94.390
397.57	95.102
397.92	94.591
398.28	95.404
398.64	93.907
399.00	93.788
399.35	94.134
399.71	95.660
400.07	95.151
400.42	93.926
400.78	95.235
401.14	95.305
401.49	95.701
401.85	94.858
402.21	94.251
402.57	95.003
402.92	96.028
403.28	95.128
403.63	96.163
403.99	97.006
404.35	94.000
404.70	94.305
405.06	95.399
405.42	95.820
405.77	94.343
406.13	94.413
406.49	93.672
406.84	94.684
407.20	94.326
407.55	95.724
407.91	97.200
408.27	96.107
408.62	94.943
408.98	93.811
409.34	96.310
409.69	96.903
410.05	94.981
410.40	95.168
410.76	95.639
411.11	94.511
411.47	93.610
411.83	94.441
412.18	94.805
412.54	96.202
412.89	95.422
413.25	95.396
413.60	96.479
413.96	94.111
414.31	94.107
414.67	97.592
415.03	95.563
415.38	96.263
415.74	98.135
416.09	97.649
416.45	94.913
416.80	95.968
417.16	98.190
417.51	97.877
417.87	95.440
418.22	97.792
418.58	95.997
418.93	96.990
419.29	98.281
419.64	98.552
420.00	96.707
420.35	97.565
420.71	99.940
421.06	97.255
421.42	97.485
421.77	98.487
422.12	97.193
422.48	97.949
422.83	99.651
423.19	98.232
423.54	99.884
423.90	101.043
424.25	98.939
424.61	98.750
424.96	100.641
425.31	98.671
425.67	97.303
426.02	99.886
426.38	101.770
426.73	101.053
427.09	101.763
427.44	101.840
427.79	101.208
428.15	100.298
428.50	101.638
428.85	101.192
429.21	101.160
429.56	103.110
429.92	101.711
430.27	102.284
430.62	99.181
430.98	101.920
431.33	99.330
431.68	100.733
432.04	100.799
432.39	102.170
432.74	103.291
433.10	104.527
433.45	104.898
433.80	105.155
434.16	102.350
434.51	103.211
434.86	105.359
435.22	104.336
435.57	105.289
435.92	104.389
436.28	105.931
436.63	105.022
436.98	103.892
437.34	105.963
437.69	106.651
438.04	107.364
438.39	106.866
438.75	107.147
439.10	106.648
439.45	107.025
439.81	109.970
440.16	106.832
440.51	108.377
440.86	108.628
441.22	108.009
441.57	108.015
441.92	108.137
442.27	107.750
442.63	107.109
442.98	109.577
443.33	109.130
443.68	106.970
444.03	109.370
444.39	109.396
444.74	109.470
445.09	108.733
445.44	107.818
445.79	107.323
446.15	105.664
446.50	108.293
446.85	108.993
447.20	108.312
447.55	110.106
447.91	109.046
448.26	109.126
448.61	109.497
448.96	109.302
449.31	110.349
449.66	110.073
450.02	109.471
450.37	108.163
450.72	110.603
451.07	109.324
451.42	106.809
451.77	110.981
452.12	107.448
452.47	109.204
452.83	110.664
453.18	107.763
453.53	113.173
453.88	109.923
454.23	111.357
454.58	110.418
454.93	111.888
455.28	111.783
455.63	111.893
455.98	112.202
456.34	111.118
456.69	110.645
457.04	112.446
457.39	110.637
457.74	110.505
458.09	110.351
458.44	111.117
458.79	107.918
459.14	111.795
459.49	111.150
459.84	111.302
460.19	110.077
460.54	107.176
460.89	110.697
461.24	110.625
461.59	112.260
461.94	109.864
462.29	111.217
462.64	109.381
462.99	110.215
463.34	109.933
463.69	111.507
464.04	110.203
464.39	109.159
464.74	110.101
465.09	110.495
465.44	109.363
465.79	109.955
466.14	108.703
466.49	107.731
466.84	109.457
467.19	108.630
467.54	109.875
467.89	109.664
468.24	109.715
468.59	109.402
468.94	108.491
469.29	110.283
469.64	110.040
469.99	112.179
470.34	112.021
470.68	110.776
471.03	110.884
471.38	112.856
471.73	111.259
472.08	110.855
472.43	108.857
472.78	108.953
473.13	109.884
473.48	108.489
473.83	108.476
474.17	109.521
474.52	110.112
474.87	111.851
475.22	108.880
475.57	107.469
475.92	108.922
476.27	109.076
476.61	108.660
476.96	109.676
477.31	107.849
477.66	109.519
478.01	105.802
478.36	109.625
478.70	110.384
479.05	109.478
479.40	109.570
479.75	108.795
480.10	108.996
480.45	107.568
480.79	107.167
481.14	108.170
481.49	109.207
481.84	108.505
482.19	108.269
482.53	106.560
482.88	107.725
483.23	109.019
483.58	107.643
483.92	108.154
484.27	106.972
484.62	107.112
484.97	105.715
485.31	111.541
485.66	107.768
486.01	104.293
486.36	99.887
486.70	98.133
487.05	100.564
487.40	103.371
487.75	105.148
488.09	107.461
488.44	107.772
488.79	110.199
489.13	109.626
489.48	108.524
489.83	109.020
490.17	107.584
490.52	106.377
490.87	107.508
491.22	105.912
491.56	106.424
491.91	107.538
492.26	105.374
492.60	106.590
492.95	106.501
493.30	104.860
493.64	106.580
493.99	105.850
494.34	106.614
494.68	107.784
495.03	106.814
495.37	103.443
495.72	106.969
496.07	106.961
496.41	103.540
496.76	105.453
497.11	103.962
497.45	106.381
497.80	105.902
498.14	105.652
498.49	107.512
498.84	106.376
499.18	106.048
499.53	105.318
499.87	106.524
500.22	104.805
500.56	106.553
500.91	105.913
501.26	104.173
501.60	106.787
501.95	103.987
502.29	105.764
502.64	106.285
502.98	105.143
503.33	104.388
503.67	104.687
504.02	105.098
504.36	104.258
504.71	106.058
505.06	104.289
505.40	105.493
505.75	104.243
506.09	103.013
506.44	106.117
506.78	104.335
507.13	106.209
507.47	103.889
507.82	106.940
508.16	105.370
508.51	107.915
508.85	104.618
509.19	106.582
509.54	103.367
509.88	104.328
510.23	105.604
510.57	106.089
510.92	105.748
511.26	103.392
511.61	104.512
511.95	104.697
512.30	105.514
512.64	105.373
512.98	105.627
513.33	106.585
513.67	102.882
514.02	103.301
514.36	106.171
514.70	104.040
515.05	104.127
515.39	106.057
515.74	105.462
516.08	104.136
516.42	105.771
516.77	105.463
517.11	104.661
517.46	104.120
517.80	107.201
518.14	105.096
518.49	105.601
518.83	103.750
519.17	104.850
519.52	104.527
519.86	104.564
520.20	103.006
520.55	104.369
520.89	106.022
521.23	106.514
521.58	104.982
521.92	105.511
522.26	103.722
522.61	106.978
522.95	105.279
523.29	104.687
523.64	105.488
523.98	105.484
524.32	105.127
524.66	101.804
525.01	102.941
525.35	104.647
525.69	102.278
526.04	103.489
526.38	103.600
526.72	103.681
527.06	105.399
527.41	101.980
527.75	104.437
528.09	104.303
528.43	106.820
528.78	104.241
529.12	101.030
529.46	104.042
529.80	104.889
530.15	103.614
530.49	101.662
530.83	103.671
531.17	104.634
531.51	103.891
531.86	104.000
532.20	104.237
532.54	102.883
532.88	103.273
533.22	102.748
533.57	102.037
533.91	101.565
534.25	100.972
534.59	102.379
534.93	101.428
535.27	101.811
535.62	104.090
535.96	103.390
536.30	103.878
536.64	102.576
536.98	103.650
537.32	102.897
537.66	104.200
538.01	103.292
538.35	104.008
538.69	102.999
539.03	101.949
539.37	101.981
539.71	102.333
540.05	103.595
540.39	103.654
540.73	100.841
541.07	103.245
541.42	104.240
541.76	102.774
542.10	102.458
542.44	104.503
542.78	103.689
543.12	101.088
543.46	102.623
543.80	103.513
544.14	101.155
544.48	103.302
544.82	101.924
545.16	103.709
545.50	100.900
545.84	103.965
546.18	102.088
546.52	104.886
546.86	104.399
547.20	104.046
547.54	103.540
547.88	102.997
548.22	100.249
548.56	101.635
548.90	101.921
549.24	102.828
549.58	102.183
549.92	103.297
550.26	104.688
550.60	102.213
550.94	102.042
551.28	103.658
551.62	102.948
551.96	101.825
552.30	102.935
552.64	103.245
552.98	101.966
553.32	102.428
553.66	103.272
554.00	101.716
554.34	101.449
554.68	104.363
555.02	103.879
555.36	101.322
555.69	101.286
556.03	101.952
556.37	102.592
556.71	101.501
557.05	102.731
557.39	100.910
557.73	102.117
558.07	106.817
558.41	103.111
558.75	102.792
559.08	105.369
559.42	105.140
559.76	102.353
560.10	102.213
560.44	101.677
560.78	101.131
561.12	101.055
561.45	100.522
561.79	100.527
562.13	103.152
562.47	101.639
562.81	104.463
563.15	100.870
563.48	101.724
563.82	104.110
564.16	101.308
564.50	101.888
564.84	99.810
565.17	100.708
565.51	102.492
565.85	102.157
566.19	101.315
566.52	102.977
566.86	100.301
567.20	102.064
567.54	103.425
567.88	99.240
568.21	101.429
568.55	99.596
568.89	102.675
569.23	99.242
569.56	98.421
569.90	98.604
570.24	98.672
570.57	97.144
570.91	96.574
571.25	96.232
571.59	96.465
571.92	96.976
572.26	98.209
572.60	97.538
572.93	96.672
573.27	98.196
573.61	97.041
573.95	97.364
574.28	96.935
574.62	96.793
574.96	96.105
575.29	95.611
575.63	96.062
575.97	96.850
576.30	96.946
576.64	97.726
576.98	97.278
577.31	97.366
577.65	96.743
577.98	96.381
578.32	96.048
578.66	95.702
578.99	96.005
579.33	97.337
579.67	97.203
580.00	96.811
580.34	98.552
580.67	97.022
581.01	97.212
581.35	97.361
581.68	96.355
582.02	94.787
582.35	95.714
582.69	96.305
583.02	97.322
583.36	98.109
583.70	99.650
584.03	99.687
584.37	100.132
584.70	100.183
585.04	98.483
585.37	97.856
585.71	97.744
586.04	97.197
586.38	99.190
586.72	99.089
587.05	97.963
587.39	97.625
587.72	97.964
588.06	99.626
588.39	98.052
588.73	99.325
589.06	100.748
589.40	100.909
589.73	101.549
590.07	99.181
590.40	99.671
590.73	101.015
591.07	101.709
591.40	100.422
591.74	101.688
592.07	100.262
592.41	100.827
592.74	98.951
593.08	98.168
593.41	98.039
593.75	95.846
594.08	97.754
594.41	97.632
594.75	100.148
595.08	97.781
595.42	98.739
595.75	99.038
596.09	100.713
596.42	100.275
596.75	99.916
597.09	100.779
597.42	98.272
597.75	100.604
598.09	99.957
598.42	99.570
598.76	98.176
599.09	97.567
599.42	96.470
599.76	98.353
600.09	96.940
600.42	97.772
600.76	98.071
601.09	98.324
601.42	98.706
601.76	99.431
602.09	100.000
602.42	99.960
602.76	100.726
603.09	99.095
603.42	99.024
603.76	97.485
604.09	99.651
604.42	100.408
604.76	99.873
605.09	99.345
605.42	98.247
605.75	99.379
606.09	100.569
606.42	101.430
606.75	99.751
607.09	98.828
607.42	99.529
607.75	97.004
608.08	99.218
608.42	100.045
608.75	97.746
609.08	98.150
609.41	99.096
609.75	100.095
610.08	100.895
610.41	99.302
610.74	100.000
611.07	101.680
611.41	99.411
611.74	100.151
612.07	102.226
612.40	102.361
612.73	100.368
613.07	102.532
613.40	101.001
613.73	100.000
614.06	100.860
614.39	99.004
614.72	98.474
615.06	99.475
615.39	100.902
615.72	100.051
616.05	98.565
616.38	100.723
616.71	103.385
617.05	101.943
617.38	102.526
617.71	102.282
618.04	103.125
618.37	100.177
618.70	102.987
619.03	102.566
619.36	102.444
619.69	103.873
620.03	103.777
620.36	104.211
