SpectraSuite Data File
++++++++++++++++++++++++++++++++++++
Date: Wed May 13 16:04:31 PDT 2015
User: schluterlab
Dark Spectrum Present: Yes
Reference Spectrum Present: Yes
Number of Sampled Component Spectra: 1
Spectrometers: USB2E3373
Integration Time (usec): 3000 (USB2E3373)
Spectra Averaged: 3 (USB2E3373)
Boxcar Smoothing: 0 (USB2E3373)
Correct for Electrical Dark: No (USB2E3373)
Strobe/Lamp Enabled: No (USB2E3373)
Correct for Detector Non-linearity: No (USB2E3373)
Correct for Stray Light: No (USB2E3373)
Number of Pixels in Processed Spectrum: 2048
>>>>>Begin Processed Spectral Data<<<<<
178.53	0.000
178.91	-650.000
179.29	-800.000
179.67	-72.222
180.04	-725.000
180.42	1550.000
180.80	460.000
181.18	-600.000
181.56	342.857
181.94	0.000
182.31	-257.143
182.69	1066.667
183.07	-262.500
183.45	-233.333
183.83	318.182
184.20	-150.000
184.58	1100.000
184.96	2600.000
185.34	-300.000
185.72	-312.500
186.09	-1150.000
186.47	2050.000
186.85	1150.000
187.23	2000.000
187.61	-700.000
187.98	750.000
188.36	309.091
188.74	209.091
189.12	-400.000
189.49	290.000
189.87	-2700.000
190.25	-650.000
190.63	250.000
191.00	269.231
191.38	400.000
191.76	-650.000
192.14	800.000
192.51	412.500
192.89	533.333
193.27	350.000
193.65	-625.000
194.02	300.000
194.40	420.000
194.78	350.000
195.15	300.000
195.53	380.000
195.91	-600.000
196.29	225.000
196.66	173.684
197.04	-70.000
197.42	0.000
197.79	400.000
198.17	-1600.000
198.55	242.857
198.92	300.000
199.30	440.000
199.68	0.000
200.05	238.889
200.43	428.571
200.81	2300.000
201.18	700.000
201.56	-666.667
201.94	200.000
202.31	233.333
202.69	166.667
203.07	310.000
203.44	0.000
203.82	700.000
204.19	485.714
204.57	235.714
204.95	250.000
205.32	733.333
205.70	290.909
206.08	250.000
206.45	1200.000
206.83	175.000
207.20	316.667
207.58	280.000
207.96	155.556
208.33	325.000
208.71	-383.333
209.08	271.429
209.46	311.111
209.84	209.091
210.21	-700.000
210.59	675.000
210.96	-212.500
211.34	1300.000
211.71	390.000
212.09	333.333
212.46	0.000
212.84	766.667
213.22	625.000
213.59	-1500.000
213.97	400.000
214.34	485.714
214.72	381.818
215.09	740.000
215.47	-750.000
215.84	-1500.000
216.22	1066.667
216.59	221.429
216.97	725.000
217.34	272.727
217.72	-400.000
218.09	0.000
218.47	-2100.000
218.84	311.111
219.22	285.714
219.59	900.000
219.97	-185.714
220.34	420.000
220.72	-833.333
221.09	221.429
221.47	850.000
221.84	-550.000
222.22	0.000
222.59	600.000
222.97	-950.000
223.34	520.000
223.72	276.923
224.09	500.000
224.46	1000.000
224.84	-2300.000
225.21	-440.000
225.59	-2100.000
225.96	280.000
226.34	155.000
226.71	1550.000
227.08	300.000
227.46	360.000
227.83	-525.000
228.21	-1000.000
228.58	211.111
228.95	-1250.000
229.33	-1150.000
229.70	866.667
230.08	471.429
230.45	-200.000
230.82	200.000
231.20	316.667
231.57	342.857
231.95	216.667
232.32	150.000
232.69	263.636
233.07	214.286
233.44	169.231
233.81	-700.000
234.19	163.158
234.56	241.667
234.93	108.333
235.31	209.091
235.68	184.615
236.05	164.286
236.43	84.848
236.80	142.105
237.17	1700.000
237.55	104.762
237.92	78.571
238.29	142.857
238.67	77.419
239.04	106.897
239.41	55.556
239.79	30.435
240.16	54.762
240.53	47.727
240.91	5.882
241.28	36.000
241.65	44.000
242.02	52.174
242.40	43.548
242.77	23.333
243.14	29.032
243.51	34.831
243.89	25.882
244.26	15.556
244.63	20.430
245.00	22.340
245.38	14.851
245.75	15.888
246.12	16.514
246.49	24.818
246.87	25.600
247.24	12.308
247.61	20.000
247.98	16.340
248.36	18.243
248.73	14.650
249.10	14.013
249.47	14.124
249.84	17.112
250.22	8.556
250.59	15.976
250.96	15.657
251.33	16.588
251.70	12.376
252.08	11.905
252.45	13.901
252.82	12.174
253.19	11.489
253.56	14.118
253.94	10.788
254.31	11.328
254.68	10.000
255.05	12.546
255.42	12.195
255.79	6.250
256.16	11.913
256.54	4.594
256.91	13.523
257.28	6.115
257.65	10.231
258.02	9.938
258.39	9.779
258.76	9.030
259.14	9.226
259.51	9.422
259.88	7.764
260.25	7.251
260.62	7.225
260.99	7.143
261.36	7.207
261.73	7.736
262.10	5.814
262.47	6.761
262.85	6.685
263.22	4.558
263.59	8.832
263.96	7.692
264.33	7.572
264.70	7.895
265.07	8.440
265.44	8.586
265.81	8.029
266.18	6.281
266.55	3.902
266.92	4.914
267.29	10.185
267.66	7.110
268.03	6.364
268.40	5.841
268.77	4.296
269.14	5.405
269.51	7.449
269.88	8.625
270.25	4.289
270.62	8.090
270.99	8.387
271.36	6.009
271.73	3.972
272.10	6.304
272.47	4.086
272.84	6.277
273.21	8.176
273.58	3.930
273.95	4.822
274.32	4.545
274.69	5.996
275.06	3.937
275.43	5.745
275.80	6.413
276.17	6.517
276.54	7.277
276.91	5.731
277.28	6.250
277.65	6.190
278.02	2.899
278.39	7.422
278.76	3.273
279.13	8.868
279.50	5.587
279.87	4.582
280.23	4.391
280.60	4.449
280.97	4.251
281.34	6.549
281.71	5.455
282.08	4.798
282.45	5.273
282.82	4.973
283.19	2.852
283.56	3.158
283.92	7.107
284.29	6.702
284.66	3.811
285.03	3.617
285.40	4.225
285.77	5.219
286.14	4.663
286.51	5.000
286.87	6.496
287.24	5.537
287.61	4.173
287.98	5.682
288.35	4.596
288.72	3.583
289.08	5.634
289.45	4.613
289.82	3.902
290.19	4.082
290.56	5.207
290.93	3.625
291.29	3.067
291.66	5.605
292.03	5.669
292.40	6.021
292.77	4.882
293.13	4.776
293.50	4.082
293.87	3.852
294.24	4.148
294.60	4.221
294.97	5.523
295.34	5.642
295.71	6.534
296.08	4.843
296.44	5.640
296.81	5.152
297.18	5.556
297.55	2.507
297.91	4.881
298.28	4.418
298.65	4.961
299.02	4.611
299.38	5.179
299.75	1.887
300.12	4.598
300.48	5.250
300.85	3.699
301.22	5.096
301.59	4.040
301.95	5.668
302.32	3.851
302.69	5.735
303.05	5.091
303.42	3.457
303.79	5.436
304.15	3.263
304.52	3.244
304.89	4.530
305.25	4.176
305.62	6.229
305.99	5.431
306.35	5.705
306.72	5.493
307.09	5.438
307.45	6.532
307.82	3.906
308.19	5.960
308.55	5.609
308.92	5.048
309.29	5.702
309.65	4.878
310.02	6.765
310.38	4.839
310.75	4.752
311.12	5.937
311.48	6.792
311.85	5.870
312.22	6.556
312.58	5.509
312.95	5.385
313.31	5.825
313.68	5.925
314.05	7.495
314.41	6.432
314.78	5.841
315.14	6.753
315.51	6.179
315.87	6.832
316.24	6.256
316.61	6.140
316.97	6.164
317.34	5.577
317.70	7.744
318.07	6.545
318.43	6.947
318.80	7.591
319.16	8.286
319.53	6.379
319.89	8.381
320.26	8.400
320.62	8.433
320.99	7.071
321.35	8.081
321.72	8.522
322.08	8.292
322.45	8.856
322.81	8.527
323.18	10.116
323.54	9.462
323.91	9.057
324.27	8.795
324.64	8.201
325.00	9.107
325.37	10.009
325.73	10.233
326.10	9.444
326.46	9.140
326.83	10.871
327.19	10.589
327.56	9.930
327.92	10.499
328.29	11.269
328.65	11.050
329.01	10.921
329.38	9.991
329.74	9.788
330.11	10.462
330.47	10.560
330.84	12.040
331.20	10.656
331.56	11.651
331.93	12.500
332.29	12.422
332.66	10.973
333.02	11.335
333.38	11.382
333.75	12.478
334.11	11.922
334.48	11.446
334.84	11.305
335.20	12.727
335.57	11.242
335.93	11.071
336.29	11.264
336.66	11.722
337.02	10.950
337.38	12.778
337.75	11.319
338.11	12.086
338.47	10.958
338.84	12.191
339.20	10.092
339.56	11.679
339.93	11.091
340.29	11.504
340.65	11.854
341.02	12.042
341.38	12.456
341.74	10.965
342.11	12.402
342.47	11.189
342.83	11.130
343.20	12.381
343.56	11.879
343.92	11.316
344.28	12.245
344.65	12.296
345.01	11.869
345.37	10.806
345.73	11.421
346.10	11.594
346.46	10.932
346.82	11.038
347.19	11.362
347.55	11.166
347.91	10.922
348.27	12.408
348.63	11.204
349.00	11.650
349.36	12.479
349.72	10.345
350.08	11.345
350.45	11.473
350.81	11.129
351.17	11.102
351.53	10.893
351.89	11.056
352.26	11.997
352.62	11.949
352.98	11.345
353.34	11.093
353.70	10.884
354.07	11.129
354.43	10.952
354.79	10.539
355.15	11.812
355.51	11.271
355.87	11.837
356.24	10.749
356.60	10.184
356.96	11.665
357.32	10.957
357.68	11.339
358.04	11.797
358.40	11.006
358.77	11.581
359.13	10.734
359.49	11.137
359.85	9.127
360.21	10.447
360.57	10.272
360.93	11.154
361.29	10.960
361.66	10.449
362.02	10.373
362.38	11.179
362.74	10.714
363.10	10.141
363.46	10.638
363.82	10.204
364.18	10.646
364.54	11.738
364.90	11.473
365.26	10.809
365.62	11.249
365.98	10.226
366.35	9.957
366.71	11.497
367.07	10.124
367.43	10.740
367.79	10.921
368.15	11.782
368.51	9.956
368.87	10.992
369.23	10.241
369.59	11.513
369.95	10.368
370.31	11.966
370.67	10.725
371.03	11.311
371.39	10.277
371.75	10.956
372.11	10.882
372.47	11.584
372.83	10.735
373.19	10.188
373.55	11.234
373.91	11.414
374.27	10.859
374.63	9.964
374.99	11.864
375.35	10.328
375.71	11.035
376.07	11.523
376.42	10.591
376.78	12.194
377.14	11.330
377.50	11.325
377.86	10.572
378.22	10.619
378.58	9.461
378.94	10.622
379.30	10.941
379.66	11.041
380.02	10.995
380.38	10.625
380.74	10.984
381.09	10.819
381.45	10.817
381.81	11.548
382.17	11.338
382.53	10.440
382.89	11.605
383.25	10.256
383.61	11.090
383.97	10.632
384.32	11.291
384.68	10.285
385.04	10.756
385.40	10.712
385.76	11.057
386.12	10.492
386.48	11.454
386.83	10.391
387.19	11.688
387.55	11.688
387.91	10.520
388.27	10.362
388.62	11.616
388.98	10.627
389.34	11.452
389.70	11.159
390.06	10.266
390.42	11.089
390.77	11.260
391.13	11.104
391.49	11.612
391.85	10.121
392.20	10.536
392.56	10.985
392.92	10.889
393.28	9.763
393.64	10.192
393.99	11.362
394.35	11.042
394.71	11.355
395.07	10.654
395.42	10.816
395.78	10.178
396.14	10.615
396.50	12.093
396.85	10.362
397.21	10.358
397.57	10.539
397.92	10.817
398.28	9.978
398.64	11.350
399.00	9.961
399.35	9.475
399.71	10.359
400.07	10.231
400.42	10.491
400.78	10.977
401.14	10.366
401.49	10.925
401.85	9.619
402.21	9.880
402.57	10.857
402.92	10.404
403.28	10.306
403.63	10.891
403.99	9.873
404.35	10.848
404.70	9.652
405.06	10.309
405.42	10.168
405.77	9.600
406.13	10.327
406.49	9.344
406.84	10.750
407.20	9.634
407.55	9.955
407.91	10.733
408.27	9.317
408.62	10.476
408.98	9.252
409.34	9.656
409.69	10.516
410.05	9.232
410.40	10.336
410.76	9.498
411.11	10.495
411.47	10.288
411.83	9.591
412.18	9.462
412.54	10.087
412.89	10.301
413.25	9.386
413.60	9.265
413.96	9.350
414.31	9.721
414.67	10.330
415.03	9.801
415.38	9.923
415.74	10.289
416.09	10.124
416.45	10.241
416.80	10.377
417.16	10.657
417.51	10.883
417.87	9.120
418.22	9.527
418.58	8.974
418.93	9.828
419.29	10.057
419.64	10.139
420.00	10.610
420.35	10.203
420.71	9.863
421.06	9.547
421.42	10.468
421.77	9.753
422.12	9.096
422.48	9.012
422.83	9.901
423.19	9.779
423.54	9.054
423.90	9.623
424.25	9.771
424.61	9.940
424.96	9.796
425.31	9.801
425.67	9.382
426.02	8.857
426.38	9.890
426.73	9.421
427.09	9.362
427.44	10.121
427.79	8.913
428.15	10.060
428.50	10.123
428.85	9.595
429.21	9.332
429.56	9.124
429.92	9.713
430.27	9.186
430.62	9.165
430.98	9.912
431.33	9.639
431.68	9.686
432.04	9.212
432.39	9.309
432.74	10.533
433.10	10.130
433.45	9.796
433.80	9.202
434.16	9.509
434.51	10.158
434.86	10.091
435.22	9.505
435.57	10.517
435.92	8.660
436.28	9.431
436.63	10.265
436.98	9.845
437.34	10.614
437.69	10.210
438.04	9.500
438.39	9.433
438.75	10.110
439.10	10.559
439.45	10.153
439.81	8.882
440.16	9.768
440.51	9.607
440.86	9.959
441.22	9.121
441.57	10.032
441.92	9.570
442.27	9.365
442.63	9.321
442.98	10.761
443.33	10.163
443.68	10.170
444.03	10.005
444.39	9.250
444.74	10.227
445.09	10.404
445.44	9.732
445.79	9.995
446.15	10.217
446.50	9.639
446.85	9.969
447.20	9.689
447.55	10.050
447.91	9.377
448.26	9.961
448.61	10.062
448.96	10.410
449.31	10.180
449.66	10.017
450.02	9.805
450.37	9.014
450.72	9.306
451.07	9.994
451.42	9.666
451.77	10.217
452.12	9.873
452.47	9.950
452.83	9.907
453.18	10.208
453.53	9.771
453.88	9.923
454.23	9.564
454.58	10.297
454.93	10.553
455.28	10.037
455.63	9.648
455.98	10.357
456.34	10.113
456.69	10.332
457.04	10.093
457.39	9.702
457.74	9.808
458.09	9.948
458.44	10.091
458.79	9.544
459.14	10.892
459.49	10.216
459.84	9.695
460.19	9.959
460.54	9.664
460.89	9.600
461.24	10.383
461.59	10.110
461.94	9.864
462.29	10.801
462.64	10.338
462.99	9.369
463.34	11.000
463.69	10.256
464.04	11.014
464.39	10.435
464.74	9.745
465.09	10.072
465.44	9.806
465.79	9.452
466.14	10.016
466.49	9.677
466.84	10.741
467.19	10.078
467.54	10.250
467.89	9.904
468.24	10.646
468.59	9.951
468.94	9.041
469.29	11.183
469.64	10.643
469.99	10.081
470.34	9.643
470.68	10.345
471.03	9.932
471.38	10.771
471.73	10.193
472.08	10.526
472.43	9.736
472.78	10.533
473.13	9.884
473.48	10.112
473.83	10.000
474.17	9.770
474.52	10.484
474.87	9.807
475.22	10.099
475.57	9.780
475.92	9.453
476.27	9.414
476.61	9.322
476.96	9.621
477.31	10.413
477.66	9.847
478.01	9.514
478.36	9.730
478.70	10.177
479.05	9.904
479.40	9.775
479.75	10.066
480.10	9.294
480.45	9.662
480.79	9.556
481.14	9.393
481.49	9.540
481.84	9.465
482.19	9.132
482.53	9.862
482.88	9.819
483.23	10.000
483.58	9.918
483.92	9.419
484.27	8.845
484.62	9.267
484.97	9.026
485.31	9.315
485.66	8.579
486.01	8.272
486.36	8.073
486.70	8.016
487.05	8.074
487.40	8.504
487.75	8.598
488.09	8.887
488.44	8.706
488.79	8.969
489.13	8.556
489.48	9.095
489.83	9.279
490.17	9.426
490.52	8.990
490.87	9.272
491.22	9.686
491.56	8.474
491.91	8.748
492.26	8.911
492.60	9.263
492.95	8.934
493.30	9.252
493.64	8.773
493.99	9.053
494.34	10.176
494.68	9.020
495.03	9.164
495.37	9.074
495.72	8.674
496.07	9.606
496.41	9.336
496.76	9.191
497.11	8.645
497.45	8.756
497.80	9.069
498.14	9.130
498.49	9.024
498.84	9.156
499.18	9.048
499.53	9.164
499.87	9.413
500.22	9.185
500.56	9.320
500.91	9.231
501.26	8.867
501.60	9.824
501.95	9.303
502.29	9.185
502.64	9.544
502.98	9.163
503.33	9.141
503.67	9.002
504.02	9.401
504.36	9.453
504.71	8.842
505.06	9.157
505.40	8.994
505.75	8.775
506.09	10.010
506.44	9.028
506.78	9.011
507.13	8.531
507.47	9.545
507.82	9.524
508.16	9.777
508.51	9.691
508.85	9.136
509.19	9.286
509.54	9.490
509.88	9.067
510.23	9.409
510.57	9.804
510.92	9.218
511.26	9.455
511.61	9.284
511.95	9.603
512.30	8.537
512.64	8.920
512.98	9.593
513.33	10.493
513.67	9.232
514.02	8.604
514.36	9.721
514.70	8.688
515.05	9.370
515.39	10.320
515.74	9.178
516.08	9.726
516.42	9.933
516.77	9.532
517.11	10.044
517.46	9.763
517.80	9.640
518.14	9.612
518.49	9.743
518.83	10.284
519.17	10.219
519.52	8.829
519.86	10.040
520.20	10.058
520.55	10.174
520.89	9.672
521.23	10.555
521.58	9.424
521.92	9.492
522.26	9.152
522.61	9.720
522.95	9.454
523.29	9.130
523.64	9.329
523.98	9.612
524.32	9.288
524.66	9.621
525.01	9.743
525.35	9.913
525.69	9.052
526.04	9.844
526.38	9.701
526.72	9.509
527.06	9.730
527.41	9.035
527.75	9.904
528.09	9.505
528.43	8.859
528.78	9.711
529.12	9.212
529.46	9.920
529.80	10.087
530.15	10.530
530.49	9.231
530.83	10.696
531.17	10.183
531.51	10.960
531.86	9.226
532.20	10.169
532.54	10.442
532.88	10.719
533.22	9.244
533.57	9.938
533.91	9.573
534.25	8.870
534.59	9.152
534.93	10.232
535.27	9.716
535.62	9.768
535.96	9.918
536.30	10.045
536.64	9.466
536.98	10.219
537.32	9.019
537.66	9.933
538.01	9.480
538.35	9.632
538.69	9.764
539.03	9.032
539.37	9.521
539.71	9.138
540.05	9.281
540.39	9.369
540.73	9.250
541.07	10.123
541.42	9.720
541.76	10.129
542.10	9.832
542.44	9.934
542.78	9.354
543.12	9.021
543.46	9.311
543.80	9.499
544.14	9.307
544.48	9.397
544.82	9.622
545.16	9.174
545.50	9.254
545.84	8.065
546.18	9.226
546.52	9.635
546.86	9.141
547.20	9.440
547.54	9.018
547.88	10.395
548.22	9.091
548.56	9.560
548.90	9.027
549.24	8.552
549.58	9.413
549.92	9.341
550.26	9.659
550.60	9.820
550.94	8.662
551.28	9.217
551.62	9.490
551.96	10.386
552.30	10.375
552.64	9.736
552.98	9.424
553.32	10.249
553.66	10.020
554.00	9.952
554.34	8.627
554.68	10.730
555.02	8.604
555.36	9.325
555.69	8.863
556.03	8.614
556.37	9.209
556.71	9.277
557.05	9.454
557.39	9.797
557.73	8.892
558.07	10.805
558.41	9.117
558.75	9.552
559.08	9.545
559.42	9.070
559.76	9.926
560.10	8.779
560.44	9.923
560.78	9.381
561.12	9.037
561.45	10.104
561.79	8.833
562.13	9.993
562.47	8.470
562.81	9.972
563.15	9.565
563.48	8.488
563.82	9.132
564.16	8.633
564.50	7.812
564.84	8.786
565.17	8.880
565.51	9.649
565.85	9.264
566.19	8.015
566.52	9.436
566.86	8.680
567.20	9.316
567.54	8.505
567.88	8.311
568.21	9.153
568.55	8.342
568.89	8.414
569.23	8.512
569.56	8.219
569.90	7.849
570.24	8.037
570.57	7.956
570.91	7.531
571.25	7.721
571.59	7.982
571.92	7.863
572.26	7.972
572.60	7.898
572.93	7.976
573.27	7.986
573.61	7.929
573.95	7.959
574.28	7.688
574.62	7.532
574.96	7.527
575.29	7.759
575.63	7.724
575.97	7.602
576.30	7.886
576.64	7.506
576.98	7.365
577.31	7.417
577.65	7.579
577.98	7.378
578.32	7.327
578.66	7.400
578.99	7.601
579.33	7.601
579.67	7.370
580.00	7.816
580.34	7.594
580.67	7.492
581.01	7.443
581.35	7.404
581.68	7.513
582.02	7.224
582.35	7.269
582.69	7.428
583.02	7.261
583.36	7.263
583.70	7.592
584.03	7.628
584.37	8.274
584.70	7.732
585.04	7.681
585.37	7.596
585.71	7.754
586.04	7.611
586.38	7.550
586.72	7.705
587.05	7.416
587.39	7.599
587.72	7.730
588.06	7.124
588.39	7.682
588.73	7.832
589.06	7.946
589.40	7.946
589.73	7.392
590.07	8.078
590.40	7.928
590.73	7.963
591.07	7.692
591.40	8.435
591.74	8.268
592.07	8.246
592.41	8.392
592.74	7.865
593.08	7.928
593.41	7.561
593.75	7.402
594.08	7.811
594.41	8.024
594.75	7.616
595.08	7.731
595.42	8.021
595.75	7.906
596.09	8.074
596.42	8.173
596.75	8.147
597.09	8.658
597.42	7.884
597.75	8.064
598.09	8.174
598.42	8.763
598.76	7.256
599.09	7.792
599.42	7.460
599.76	7.723
600.09	7.760
600.42	7.816
600.76	7.429
601.09	7.796
601.42	7.801
601.76	7.704
602.09	7.826
602.42	8.121
602.76	8.182
603.09	7.828
603.42	8.161
603.76	7.584
604.09	7.173
604.42	7.501
604.76	8.646
605.09	7.427
605.42	7.909
605.75	8.113
606.09	7.849
606.42	7.724
606.75	7.715
607.09	8.623
607.42	7.745
607.75	7.300
608.08	7.642
608.42	8.516
608.75	8.296
609.08	8.141
609.41	8.663
609.75	7.718
610.08	8.671
610.41	7.030
610.74	7.852
611.07	7.955
611.41	7.998
611.74	9.050
612.07	8.489
612.40	7.817
612.73	8.526
613.07	8.459
613.40	8.899
613.73	8.180
614.06	7.957
614.39	8.390
614.72	8.895
615.06	8.246
615.39	7.590
615.72	7.924
616.05	7.974
616.38	8.671
616.71	8.076
617.05	8.893
617.38	8.058
617.71	7.688
618.04	8.413
618.37	8.161
618.70	8.463
619.03	9.671
619.36	8.622
619.69	9.296
620.03	8.723
620.36	8.623
620.69	10.137
621.02	9.440
621.35	7.674
621.68	8.567
622.01	8.901
622.34	9.531
622.67	9.430
623.00	8.437
623.33	8.006
623.66	9.650
623.99	8.100
624.32	9.272
624.65	8.475
624.99	7.861
625.32	7.676
625.65	8.264
625.98	9.531
626.31	9.953
626.64	9.469
626.97	9.643
627.30	8.728
627.63	8.696
627.96	9.504
628.29	9.186
628.62	9.973
628.95	10.660
629.28	9.215
629.61	9.899
629.94	8.952
630.26	7.626
630.59	10.391
630.92	9.387
631.25	9.279
631.58	10.010
631.91	9.736
632.24	10.021
632.57	10.073
632.90	8.662
633.23	10.738
633.56	10.621
633.89	9.626
634.22	10.897
634.55	11.243
634.88	9.102
635.20	11.828
635.53	10.120
635.86	9.282
636.19	9.529
636.52	9.804
636.85	9.851
637.18	8.065
637.51	11.229
637.83	8.508
638.16	10.358
638.49	10.705
638.82	11.252
639.15	9.125
639.48	10.224
639.81	10.456
640.13	10.417
640.46	9.933
640.79	10.964
641.12	10.454
641.45	9.777
641.77	11.487
642.10	10.234
642.43	8.408
642.76	9.443
643.09	10.583
643.41	11.381
643.74	12.191
644.07	9.299
644.40	10.429
644.73	12.126
645.05	12.678
645.38	10.427
645.71	10.628
646.04	11.130
646.36	11.853
646.69	10.535
647.02	11.565
647.35	10.997
647.67	11.858
648.00	12.033
648.33	9.571
