SpectraSuite Data File
++++++++++++++++++++++++++++++++++++
Date: Wed May 13 16:20:10 PDT 2015
User: schluterlab
Dark Spectrum Present: Yes
Reference Spectrum Present: Yes
Number of Sampled Component Spectra: 1
Spectrometers: USB2E3373
Integration Time (usec): 3000 (USB2E3373)
Spectra Averaged: 3 (USB2E3373)
Boxcar Smoothing: 0 (USB2E3373)
Correct for Electrical Dark: No (USB2E3373)
Strobe/Lamp Enabled: No (USB2E3373)
Correct for Detector Non-linearity: No (USB2E3373)
Correct for Stray Light: No (USB2E3373)
Number of Pixels in Processed Spectrum: 2048
>>>>>Begin Processed Spectral Data<<<<<
178.53	0.000
178.91	-975.000
179.29	-1000.000
179.67	-211.111
180.04	-1250.000
180.42	2300.000
180.80	880.000
181.18	-1050.000
181.56	714.286
181.94	0.000
182.31	-514.286
182.69	1266.667
183.07	-400.000
183.45	-500.000
183.83	463.636
184.20	-380.000
184.58	2350.000
184.96	5100.000
185.34	-820.000
185.72	-562.500
186.09	-2100.000
186.47	2500.000
186.85	1600.000
187.23	4200.000
187.61	-1566.667
187.98	1025.000
188.36	372.727
188.74	400.000
189.12	-780.000
189.49	470.000
189.87	-4700.000
190.25	-950.000
190.63	378.571
191.00	330.769
191.38	800.000
191.76	-775.000
192.14	1150.000
192.51	562.500
192.89	850.000
193.27	500.000
193.65	-925.000
194.02	420.000
194.40	720.000
194.78	570.000
195.15	433.333
195.53	630.000
195.91	-1900.000
196.29	256.250
196.66	305.263
197.04	-370.000
197.42	0.000
197.79	520.000
198.17	-3900.000
198.55	657.143
198.92	650.000
199.30	840.000
199.68	0.000
200.05	250.000
200.43	685.714
200.81	4400.000
201.18	1566.667
201.56	-1133.333
201.94	477.778
202.31	477.778
202.69	391.667
203.07	540.000
203.44	0.000
203.82	1050.000
204.19	785.714
204.57	400.000
204.95	550.000
205.32	1366.667
205.70	436.364
206.08	300.000
206.45	2500.000
206.83	312.500
207.20	916.667
207.58	640.000
207.96	283.333
208.33	487.500
208.71	-533.333
209.08	642.857
209.46	566.667
209.84	427.273
210.21	-1433.333
210.59	1350.000
210.96	-362.500
211.34	2200.000
211.71	500.000
212.09	716.667
212.46	0.000
212.84	1300.000
213.22	1050.000
213.59	-4600.000
213.97	783.333
214.34	728.571
214.72	509.091
215.09	1120.000
215.47	-2150.000
215.84	-2150.000
216.22	1400.000
216.59	350.000
216.97	1100.000
217.34	454.545
217.72	-633.333
218.09	0.000
218.47	-4100.000
218.84	644.444
219.22	571.429
219.59	1500.000
219.97	-542.857
220.34	800.000
220.72	-1566.667
221.09	378.571
221.47	1350.000
221.84	-700.000
222.22	0.000
222.59	1125.000
222.97	-2200.000
223.34	900.000
223.72	376.923
224.09	1060.000
224.46	1700.000
224.84	-4200.000
225.21	-800.000
225.59	-4400.000
225.96	510.000
226.34	260.000
226.71	2200.000
227.08	650.000
227.46	550.000
227.83	-875.000
228.21	-1800.000
228.58	533.333
228.95	-1900.000
229.33	-2150.000
229.70	1333.333
230.08	742.857
230.45	-900.000
230.82	425.000
231.20	716.667
231.57	585.714
231.95	408.333
232.32	200.000
232.69	354.545
233.07	600.000
233.44	353.846
233.81	-1300.000
234.19	273.684
234.56	341.667
234.93	233.333
235.31	381.818
235.68	246.154
236.05	278.571
236.43	121.212
236.80	210.526
237.17	2900.000
237.55	180.952
237.92	164.286
238.29	195.238
238.67	125.806
239.04	158.621
239.41	122.222
239.79	95.652
240.16	97.619
240.53	88.636
240.91	80.392
241.28	92.000
241.65	80.000
242.02	55.072
242.40	58.065
242.77	65.000
243.14	52.688
243.51	50.562
243.89	45.882
244.26	44.444
244.63	39.785
245.00	37.234
245.38	30.693
245.75	45.794
246.12	22.936
246.49	40.146
246.87	47.200
247.24	31.538
247.61	30.714
247.98	36.601
248.36	29.054
248.73	20.382
249.10	29.936
249.47	23.729
249.84	26.738
250.22	21.925
250.59	24.852
250.96	24.242
251.33	23.223
251.70	24.257
252.08	21.905
252.45	17.937
252.82	20.000
253.19	18.723
253.56	21.961
253.94	19.917
254.31	22.266
254.68	17.308
255.05	19.557
255.42	15.447
255.79	17.279
256.16	19.495
256.54	13.781
256.91	16.370
257.28	12.590
257.65	17.162
258.02	16.149
258.39	13.880
258.76	13.712
259.14	18.750
259.51	13.374
259.88	9.938
260.25	14.199
260.62	13.295
260.99	13.665
261.36	11.411
261.73	15.473
262.10	9.884
262.47	13.803
262.85	13.649
263.22	10.826
263.59	13.960
263.96	12.912
264.33	13.316
264.70	11.053
265.07	13.043
265.44	12.121
265.81	9.976
266.18	9.799
266.55	11.951
266.92	12.039
267.29	13.194
267.66	10.780
268.03	9.091
268.40	13.318
268.77	7.637
269.14	11.036
269.51	10.384
269.88	6.760
270.25	7.675
270.62	10.337
270.99	12.688
271.36	10.086
271.73	10.748
272.10	10.652
272.47	11.183
272.84	10.823
273.21	11.740
273.58	10.262
273.95	10.482
274.32	6.612
274.69	11.563
275.06	9.252
275.43	11.277
275.80	12.224
276.17	9.776
276.54	10.395
276.91	9.684
277.28	9.766
277.65	9.671
278.02	9.317
278.39	8.984
278.76	9.091
279.13	11.509
279.50	9.497
279.87	8.167
280.23	7.186
280.60	8.124
280.97	7.763
281.34	8.496
281.71	9.818
282.08	9.213
282.45	9.455
282.82	7.815
283.19	4.991
283.56	8.421
283.92	10.660
284.29	8.289
284.66	9.619
285.03	6.691
285.40	8.275
285.77	6.734
286.14	7.254
286.51	9.000
286.87	8.205
287.24	9.121
287.61	8.668
287.98	8.442
288.35	7.607
288.72	7.788
289.08	7.512
289.45	8.896
289.82	8.130
290.19	6.907
290.56	8.423
290.93	6.798
291.29	6.748
291.66	7.522
292.03	8.140
292.40	9.398
292.77	6.953
293.13	7.910
293.50	6.851
293.87	6.963
294.24	6.370
294.60	6.841
294.97	7.558
295.34	7.334
295.71	7.386
296.08	6.980
296.44	6.602
296.81	5.812
297.18	6.640
297.55	4.485
297.91	5.937
298.28	7.095
298.65	6.658
299.02	6.192
299.38	7.039
299.75	4.582
300.12	5.492
300.48	6.000
300.85	5.672
301.22	5.096
301.59	5.808
301.95	5.290
302.32	5.263
302.69	5.974
303.05	6.424
303.42	5.062
303.79	5.889
304.15	4.196
304.52	5.910
304.89	5.459
305.25	5.800
305.62	7.135
305.99	5.077
306.35	6.264
306.72	6.502
307.09	6.992
307.45	7.545
307.82	4.353
308.19	6.623
308.55	6.472
308.92	5.908
309.29	5.702
309.65	5.090
310.02	6.448
310.38	6.129
310.75	5.280
311.12	6.551
311.48	5.120
311.85	6.499
312.22	5.515
312.58	4.886
312.95	6.336
313.31	5.243
313.68	6.237
314.05	7.890
314.41	6.332
314.78	5.841
315.14	5.164
315.51	6.797
315.87	7.030
316.24	6.256
316.61	6.823
316.97	5.871
317.34	3.523
317.70	6.023
318.07	7.218
318.43	6.067
318.80	6.373
319.16	7.156
319.53	5.910
319.89	7.333
320.26	6.800
320.62	6.250
320.99	6.162
321.35	7.172
321.72	7.187
322.08	6.614
322.45	6.766
322.81	6.977
323.18	7.803
323.54	7.978
323.91	7.075
324.27	7.553
324.64	6.151
325.00	6.853
325.37	7.006
325.73	7.720
326.10	6.443
326.46	6.989
326.83	7.248
327.19	6.490
327.56	6.272
327.92	7.437
328.29	7.276
328.65	6.722
329.01	7.040
329.38	7.216
329.74	7.110
330.11	7.352
330.47	5.969
330.84	7.904
331.20	6.284
331.56	7.431
331.93	5.926
332.29	8.252
332.66	7.345
333.02	6.307
333.38	7.407
333.75	8.378
334.11	6.673
334.48	7.098
334.84	6.526
335.20	5.727
335.57	6.890
335.93	6.071
336.29	6.227
336.66	6.402
337.02	6.063
337.38	6.667
337.75	6.595
338.11	6.983
338.47	5.709
338.84	7.424
339.20	6.606
339.56	6.934
339.93	6.091
340.29	6.703
340.65	6.506
341.02	6.981
341.38	7.295
341.74	6.754
342.11	6.288
342.47	6.520
342.83	5.993
343.20	7.879
343.56	6.403
343.92	5.877
344.28	6.973
344.65	5.847
345.01	5.808
345.37	5.575
345.73	6.176
346.10	6.138
346.46	6.780
346.82	6.919
347.19	6.266
347.55	5.665
347.91	6.311
348.27	6.902
348.63	6.689
349.00	6.230
349.36	5.337
349.72	5.533
350.08	5.754
350.45	6.998
350.81	6.093
351.17	6.321
351.53	5.160
351.89	5.446
352.26	7.024
352.62	6.576
352.98	6.321
353.34	6.984
353.70	4.746
354.07	6.048
354.43	6.429
354.79	6.356
355.15	5.666
355.51	6.795
355.87	6.204
356.24	6.026
356.60	6.255
356.96	6.356
357.32	5.805
357.68	6.772
358.04	6.334
358.40	6.097
358.77	7.277
359.13	5.683
359.49	6.275
359.85	4.921
360.21	4.785
360.57	6.926
360.93	5.692
361.29	5.367
361.66	6.192
362.02	6.194
362.38	5.856
362.74	6.473
363.10	4.737
363.46	5.209
363.82	4.837
364.18	5.727
364.54	6.018
364.90	7.011
365.26	5.294
365.62	5.990
365.98	4.529
366.35	5.301
366.71	6.146
367.07	6.336
367.43	5.152
367.79	6.353
368.15	6.681
368.51	5.160
368.87	6.353
369.23	5.194
369.59	6.227
369.95	5.735
370.31	5.627
370.67	5.362
371.03	7.341
371.39	5.321
371.75	4.779
372.11	6.401
372.47	6.012
372.83	5.476
373.19	6.142
373.55	5.839
373.91	6.038
374.27	6.117
374.63	5.382
374.99	6.427
375.35	5.722
375.71	5.483
376.07	6.653
376.42	4.470
376.78	6.561
377.14	6.309
377.50	6.424
377.86	5.319
378.22	6.195
378.58	5.388
378.94	5.343
379.30	5.471
379.66	5.838
380.02	6.818
380.38	5.586
380.74	6.122
381.09	6.296
381.45	6.945
381.81	6.757
382.17	5.860
382.53	5.975
382.89	5.556
383.25	6.442
383.61	6.444
383.97	6.254
384.32	6.675
384.68	6.010
385.04	6.454
385.40	6.254
385.76	5.835
386.12	6.801
386.48	6.797
386.83	6.863
387.19	7.174
387.55	6.988
387.91	7.255
388.27	5.825
388.62	7.068
388.98	6.941
389.34	7.697
389.70	6.806
390.06	7.921
390.42	7.069
390.77	6.870
391.13	6.956
391.49	7.614
391.85	7.129
392.20	5.868
392.56	6.376
392.92	6.886
393.28	6.095
393.64	7.434
393.99	7.453
394.35	7.568
394.71	6.399
395.07	7.414
395.42	6.489
395.78	6.679
396.14	6.704
396.50	7.143
396.85	6.929
397.21	7.090
397.57	6.634
397.92	6.671
398.28	5.998
398.64	7.527
399.00	6.827
399.35	6.486
399.71	6.481
400.07	7.156
400.42	7.730
400.78	7.600
401.14	6.585
401.49	7.522
401.85	6.715
402.21	6.647
402.57	6.848
402.92	7.377
403.28	7.620
403.63	6.498
403.99	6.369
404.35	7.333
404.70	6.595
405.06	7.105
405.42	6.550
405.77	6.743
406.13	7.223
406.49	7.156
406.84	6.793
407.20	5.969
407.55	7.339
407.91	6.800
408.27	5.871
408.62	6.442
408.98	6.189
409.34	6.581
409.69	7.032
410.05	7.373
410.40	6.972
410.76	6.511
411.11	6.695
411.47	6.390
411.83	6.781
412.18	6.494
412.54	6.849
412.89	7.590
413.25	6.907
413.60	6.733
413.96	6.982
414.31	6.744
414.67	6.971
415.03	7.285
415.38	7.152
415.74	6.624
416.09	7.120
416.45	6.627
416.80	7.006
417.16	6.702
417.51	7.764
417.87	6.230
418.22	6.372
418.58	7.230
418.93	6.818
419.29	6.875
419.64	7.431
420.00	6.341
420.35	6.551
420.71	6.515
421.06	6.802
421.42	6.608
421.77	6.334
422.12	6.289
422.48	5.828
422.83	6.232
423.19	7.017
423.54	6.442
423.90	7.304
424.25	6.309
424.61	6.786
424.96	5.773
425.31	6.312
425.67	5.337
426.02	6.514
426.38	7.570
426.73	6.612
427.09	6.079
427.44	5.923
427.79	5.923
428.15	7.024
428.50	7.139
428.85	7.032
429.21	6.184
429.56	5.391
429.92	6.140
430.27	6.455
430.62	6.093
430.98	6.279
431.33	6.186
431.68	6.440
432.04	6.709
432.39	5.825
432.74	5.925
433.10	6.169
433.45	6.122
433.80	6.430
434.16	6.410
434.51	6.526
434.86	7.013
435.22	6.337
435.57	6.201
435.92	5.968
436.28	6.584
436.63	7.009
436.98	5.552
437.34	6.619
437.69	6.826
438.04	5.734
438.39	6.687
438.75	6.450
439.10	6.816
439.45	6.139
439.81	6.042
440.16	6.155
440.51	6.210
440.86	7.064
441.22	6.396
441.57	6.847
441.92	6.397
442.27	6.189
442.63	6.740
442.98	6.197
443.33	7.174
443.68	6.660
444.03	6.979
444.39	6.232
444.74	6.439
445.09	5.660
445.44	6.670
445.79	6.630
446.15	6.617
446.50	6.624
446.85	5.910
447.20	6.272
447.55	6.812
447.91	6.067
448.26	6.566
448.61	6.557
448.96	6.811
449.31	6.749
449.66	6.978
450.02	6.240
450.37	6.122
450.72	6.486
451.07	5.972
451.42	6.565
451.77	6.518
452.12	7.390
452.47	7.463
452.83	6.235
453.18	6.846
453.53	6.803
453.88	6.320
454.23	6.874
454.58	7.511
454.93	6.929
455.28	6.983
455.63	7.100
455.98	7.083
456.34	7.286
456.69	7.201
457.04	6.935
457.39	6.838
457.74	6.384
458.09	7.131
458.44	5.986
458.79	5.206
459.14	7.111
459.49	7.414
459.84	6.371
460.19	7.012
460.54	6.944
460.89	6.967
461.24	6.922
461.59	8.019
461.94	5.795
462.29	7.240
462.64	6.254
462.99	6.766
463.34	7.533
463.69	6.879
464.04	7.246
464.39	6.725
464.74	7.011
465.09	6.936
465.44	6.260
465.79	5.928
466.14	6.842
466.49	6.340
466.84	6.538
467.19	6.578
467.54	7.750
467.89	6.543
468.24	6.574
468.59	7.021
468.94	6.842
469.29	5.977
469.64	7.028
469.99	6.428
470.34	6.143
470.68	7.543
471.03	6.667
471.38	7.714
471.73	7.728
472.08	7.303
472.43	6.784
472.78	7.176
473.13	7.125
473.48	7.865
473.83	7.012
474.17	6.845
474.52	7.072
474.87	7.005
475.22	6.965
475.57	6.556
475.92	6.532
476.27	6.877
476.61	7.226
476.96	5.662
477.31	5.599
477.66	6.346
478.01	6.639
478.36	6.610
478.70	5.400
479.05	6.230
479.40	6.295
479.75	6.050
480.10	5.865
480.45	6.283
480.79	6.116
481.14	6.018
481.49	6.028
481.84	5.807
482.19	5.997
482.53	6.055
482.88	6.329
483.23	6.121
483.58	5.960
483.92	6.186
484.27	5.752
484.62	6.034
484.97	5.715
485.31	5.719
485.66	4.941
486.01	4.440
486.36	4.544
486.70	4.301
487.05	4.781
487.40	4.724
487.75	5.203
488.09	5.217
488.44	5.304
488.79	5.714
489.13	5.615
489.48	5.914
489.83	5.222
490.17	6.269
490.52	5.934
490.87	5.654
491.22	5.821
491.56	5.649
491.91	6.189
492.26	5.742
492.60	6.037
492.95	5.566
493.30	5.748
493.64	5.413
493.99	6.175
494.34	6.059
494.68	6.227
495.03	6.720
495.37	6.235
495.72	6.676
496.07	6.450
496.41	5.575
496.76	5.761
497.11	5.853
497.45	5.729
497.80	5.566
498.14	5.411
498.49	5.659
498.84	6.280
499.18	5.524
499.53	5.888
499.87	5.871
500.22	5.888
500.56	6.602
500.91	5.577
501.26	6.306
501.60	5.695
501.95	6.370
502.29	6.092
502.64	5.912
502.98	5.330
503.33	5.896
503.67	5.847
504.02	5.893
504.36	6.598
504.71	5.911
505.06	6.024
505.40	6.077
505.75	5.304
506.09	6.171
506.44	6.265
506.78	6.040
507.13	5.957
507.47	6.263
507.82	6.282
508.16	6.028
508.51	6.038
508.85	6.107
509.19	6.582
509.54	6.020
509.88	6.079
510.23	5.501
510.57	6.863
510.92	6.525
511.26	5.447
511.61	6.224
511.95	6.263
512.30	5.567
512.64	6.179
512.98	6.431
513.33	6.049
513.67	6.083
514.02	5.628
514.36	6.718
514.70	6.087
515.05	5.856
515.39	6.450
515.74	6.475
516.08	6.260
516.42	6.659
516.77	6.633
517.11	6.049
517.46	6.659
517.80	6.330
518.14	6.080
518.49	6.476
518.83	6.875
519.17	6.467
519.52	6.395
519.86	6.446
520.20	6.994
520.55	6.044
520.89	6.995
521.23	6.996
521.58	6.543
521.92	6.491
522.26	6.772
522.61	6.293
522.95	6.630
523.29	6.147
523.64	6.890
523.98	6.470
524.32	5.790
524.66	7.035
525.01	6.250
525.35	6.629
525.69	5.850
526.04	6.480
526.38	6.345
526.72	6.626
527.06	7.094
527.41	5.384
527.75	6.495
528.09	6.487
528.43	6.055
528.78	7.068
529.12	6.545
529.46	6.797
529.80	7.178
530.15	7.040
530.49	5.723
530.83	7.342
531.17	6.789
531.51	7.263
531.86	6.000
532.20	6.975
532.54	7.175
532.88	6.290
533.22	6.496
533.57	6.605
533.91	6.442
534.25	6.987
534.59	6.833
534.93	6.901
535.27	6.276
535.62	6.654
535.96	6.968
536.30	6.230
536.64	7.663
536.98	6.768
537.32	7.110
537.66	7.400
538.01	6.847
538.35	7.175
538.69	7.084
539.03	6.953
539.37	6.262
539.71	5.768
540.05	6.340
540.39	6.711
540.73	6.468
541.07	7.073
541.42	6.784
541.76	7.355
542.10	6.274
542.44	6.424
542.78	7.049
543.12	6.718
543.46	7.344
543.80	6.962
544.14	6.162
544.48	7.302
544.82	6.928
545.16	6.376
545.50	5.527
545.84	6.855
546.18	6.397
546.52	6.332
546.86	6.254
547.20	7.013
547.54	6.346
547.88	7.207
548.22	5.230
548.56	5.975
548.90	5.890
549.24	6.061
549.58	7.299
549.92	7.212
550.26	7.173
550.60	6.708
550.94	6.408
551.28	6.437
551.62	6.830
551.96	6.246
552.30	6.758
552.64	7.235
552.98	7.051
553.32	7.080
553.66	6.885
554.00	7.207
554.34	6.487
554.68	6.867
555.02	7.264
555.36	6.124
555.69	6.631
556.03	6.797
556.37	7.162
556.71	6.412
557.05	6.443
557.39	6.718
557.73	6.775
558.07	6.236
558.41	6.078
558.75	7.054
559.08	6.935
559.42	5.820
559.76	7.426
560.10	6.424
560.44	6.289
560.78	6.520
561.12	6.135
561.45	6.714
561.79	6.262
562.13	5.835
562.47	6.011
562.81	6.137
563.15	6.622
563.48	6.233
563.82	6.458
564.16	6.475
564.50	6.380
564.84	6.637
565.17	5.985
565.51	5.623
565.85	6.980
566.19	5.636
566.52	6.206
566.86	6.209
567.20	5.837
567.54	6.164
567.88	5.703
568.21	6.032
568.55	5.865
568.89	5.204
569.23	5.258
569.56	5.425
569.90	5.245
570.24	4.772
570.57	4.726
570.91	4.622
571.25	4.509
571.59	4.860
571.92	4.205
572.26	4.217
572.60	4.625
572.93	4.558
573.27	4.673
573.61	4.439
573.95	4.496
574.28	4.196
574.62	4.130
574.96	4.182
575.29	4.195
575.63	4.243
575.97	4.348
576.30	4.434
576.64	4.069
576.98	4.229
577.31	4.067
577.65	4.083
577.98	3.920
578.32	4.011
578.66	4.046
578.99	4.428
579.33	4.067
579.67	4.330
580.00	4.124
580.34	4.461
580.67	4.420
581.01	4.520
581.35	3.825
581.68	4.222
582.02	3.866
582.35	3.635
582.69	3.961
583.02	3.892
583.36	4.081
583.70	4.595
584.03	4.363
584.37	4.190
584.70	4.049
585.04	4.281
585.37	4.357
585.71	4.441
586.04	4.228
586.38	3.945
586.72	4.584
587.05	4.265
587.39	3.958
587.72	4.226
588.06	3.949
588.39	4.280
588.73	4.077
589.06	4.612
589.40	4.478
589.73	4.576
590.07	4.698
590.40	4.092
590.73	4.645
591.07	5.128
591.40	5.019
591.74	5.152
592.07	5.323
592.41	4.630
592.74	4.532
593.08	4.797
593.41	4.619
593.75	4.216
594.08	4.894
594.41	5.055
594.75	4.177
595.08	4.545
595.42	4.378
595.75	4.736
596.09	4.619
596.42	5.029
596.75	4.854
597.09	5.498
597.42	4.384
597.75	5.088
598.09	5.391
598.42	5.069
598.76	4.743
599.09	4.903
599.42	4.440
599.76	4.722
600.09	4.627
600.42	4.711
600.76	4.429
601.09	4.772
601.42	4.528
601.76	4.668
602.09	4.743
602.42	4.857
602.76	4.958
603.09	4.445
603.42	4.842
603.76	4.421
604.09	4.459
604.42	4.770
604.76	5.441
605.09	4.675
605.42	4.746
605.75	4.843
606.09	4.758
606.42	4.250
606.75	4.728
607.09	4.981
607.42	4.536
607.75	4.768
608.08	4.950
608.42	5.244
608.75	5.320
609.08	4.949
609.41	4.950
609.75	4.859
610.08	5.419
610.41	4.702
610.74	5.061
611.07	5.138
611.41	4.956
611.74	5.530
612.07	5.487
612.40	5.509
612.73	5.158
613.07	5.172
613.40	5.793
613.73	4.719
614.06	4.731
614.39	5.611
614.72	5.842
615.06	6.250
615.39	4.565
615.72	5.521
616.05	4.838
616.38	5.447
616.71	4.988
617.05	6.125
617.38	5.472
617.71	4.805
618.04	5.589
618.37	4.908
618.70	6.596
619.03	6.447
619.36	6.449
619.69	5.986
620.03	6.387
620.36	6.551
620.69	6.575
621.02	6.490
621.35	5.560
621.68	6.386
622.01	6.347
622.34	5.598
622.67	5.779
623.00	5.429
623.33	5.718
623.66	6.219
623.99	5.449
624.32	7.275
624.65	6.003
624.99	6.091
625.32	6.155
625.65	5.860
625.98	6.149
626.31	7.387
626.64	6.776
626.97	7.066
627.30	6.567
627.63	6.973
627.96	7.317
628.29	6.387
628.62	7.502
628.95	8.302
629.28	7.208
629.61	8.433
629.94	6.476
630.26	7.626
630.59	7.340
630.92	6.897
631.25	5.824
631.58	8.809
631.91	7.302
632.24	6.751
632.57	8.290
632.90	8.224
633.23	7.271
633.56	8.588
633.89	8.154
634.22	7.832
634.55	8.994
634.88	6.707
635.20	7.527
635.53	8.434
635.86	9.777
636.19	8.588
636.52	6.690
636.85	8.362
637.18	9.101
637.51	9.338
637.83	6.535
638.16	7.673
638.49	9.194
638.82	8.597
639.15	9.000
639.48	8.853
639.81	8.847
640.13	8.594
640.46	8.591
640.79	9.511
641.12	7.428
641.45	9.358
641.77	7.658
642.10	9.357
642.43	8.408
642.76	8.050
643.09	9.356
643.41	9.560
643.74	11.265
644.07	10.061
644.40	10.276
644.73	10.079
645.05	10.460
645.38	10.111
645.71	9.984
646.04	10.631
646.36	12.020
646.69	12.207
647.02	9.864
647.35	9.278
647.67	8.850
648.00	11.382
648.33	10.396
648.66	8.939
648.98	10.195
649.31	8.819
649.64	9.865
649.96	9.985
650.29	8.847
650.62	9.871
650.94	10.373
651.27	11.149
651.60	9.651
651.92	11.821
652.25	8.632
652.58	9.346
652.90	9.479
653.23	8.012
653.56	8.976
653.88	10.618
654.21	12.322
654.54	9.571
654.86	9.969
