SpectraSuite Data File
++++++++++++++++++++++++++++++++++++
Date: Wed May 13 16:10:13 PDT 2015
User: schluterlab
Dark Spectrum Present: Yes
Reference Spectrum Present: Yes
Number of Sampled Component Spectra: 1
Spectrometers: USB2E3373
Integration Time (usec): 3000 (USB2E3373)
Spectra Averaged: 3 (USB2E3373)
Boxcar Smoothing: 0 (USB2E3373)
Correct for Electrical Dark: No (USB2E3373)
Strobe/Lamp Enabled: No (USB2E3373)
Correct for Detector Non-linearity: No (USB2E3373)
Correct for Stray Light: No (USB2E3373)
Number of Pixels in Processed Spectrum: 2048
>>>>>Begin Processed Spectral Data<<<<<
178.53	0.000
178.91	-875.000
179.29	-1125.000
179.67	-155.556
180.04	-850.000
180.42	1900.000
180.80	780.000
181.18	-875.000
181.56	528.571
181.94	0.000
182.31	-514.286
182.69	1200.000
183.07	-412.500
183.45	-388.889
183.83	363.636
184.20	-280.000
184.58	1050.000
184.96	3700.000
185.34	-700.000
185.72	-312.500
186.09	-1800.000
186.47	2050.000
186.85	2100.000
187.23	3000.000
187.61	-1233.333
187.98	1175.000
188.36	445.455
188.74	390.909
189.12	-520.000
189.49	480.000
189.87	-2800.000
190.25	-700.000
190.63	335.714
191.00	369.231
191.38	633.333
191.76	-700.000
192.14	1150.000
192.51	412.500
192.89	800.000
193.27	462.500
193.65	-1125.000
194.02	340.000
194.40	760.000
194.78	390.000
195.15	366.667
195.53	520.000
195.91	-1250.000
196.29	318.750
196.66	273.684
197.04	-270.000
197.42	0.000
197.79	480.000
198.17	-3900.000
198.55	385.714
198.92	487.500
199.30	640.000
199.68	0.000
200.05	266.667
200.43	600.000
200.81	2700.000
201.18	1266.667
201.56	-933.333
201.94	400.000
202.31	488.889
202.69	375.000
203.07	490.000
203.44	0.000
203.82	1000.000
204.19	514.286
204.57	371.429
204.95	400.000
205.32	1100.000
205.70	418.182
206.08	250.000
206.45	1750.000
206.83	225.000
207.20	750.000
207.58	620.000
207.96	255.556
208.33	512.500
208.71	-633.333
209.08	485.714
209.46	344.444
209.84	381.818
210.21	-966.667
210.59	1000.000
210.96	-212.500
211.34	1850.000
211.71	420.000
212.09	616.667
212.46	0.000
212.84	1233.333
213.22	1200.000
213.59	-3600.000
213.97	633.333
214.34	571.429
214.72	481.818
215.09	820.000
215.47	-1800.000
215.84	-1750.000
216.22	1400.000
216.59	250.000
216.97	975.000
217.34	372.727
217.72	-566.667
218.09	0.000
218.47	-2900.000
218.84	455.556
219.22	457.143
219.59	1166.667
219.97	-385.714
220.34	740.000
220.72	-1233.333
221.09	335.714
221.47	1000.000
221.84	-600.000
222.22	0.000
222.59	925.000
222.97	-1750.000
223.34	900.000
223.72	276.923
224.09	720.000
224.46	1400.000
224.84	-3800.000
225.21	-740.000
225.59	-4500.000
225.96	490.000
226.34	250.000
226.71	1750.000
227.08	550.000
227.46	320.000
227.83	-500.000
228.21	-1300.000
228.58	488.889
228.95	-1450.000
229.33	-1700.000
229.70	1400.000
230.08	514.286
230.45	-560.000
230.82	300.000
231.20	650.000
231.57	342.857
231.95	358.333
232.32	186.364
232.69	300.000
233.07	514.286
233.44	253.846
233.81	-1166.667
234.19	163.158
234.56	350.000
234.93	266.667
235.31	409.091
235.68	300.000
236.05	257.143
236.43	133.333
236.80	221.053
237.17	3600.000
237.55	204.762
237.92	160.714
238.29	180.952
238.67	135.484
239.04	165.517
239.41	122.222
239.79	102.174
240.16	116.667
240.53	122.727
240.91	88.235
241.28	94.000
241.65	84.000
242.02	75.362
242.40	90.323
242.77	73.333
243.14	66.667
243.51	76.404
243.89	69.412
244.26	51.111
244.63	51.613
245.00	55.319
245.38	49.505
245.75	53.271
246.12	53.211
246.49	57.664
246.87	60.800
247.24	55.385
247.61	43.571
247.98	44.444
248.36	40.541
248.73	43.312
249.10	45.860
249.47	42.373
249.84	40.107
250.22	42.246
250.59	46.746
250.96	41.919
251.33	35.545
251.70	37.624
252.08	37.619
252.45	33.184
252.82	33.913
253.19	38.298
253.56	36.078
253.94	36.100
254.31	30.078
254.68	39.231
255.05	30.996
255.42	36.992
255.79	34.926
256.16	34.657
256.54	33.922
256.91	34.520
257.28	32.374
257.65	31.683
258.02	34.161
258.39	33.123
258.76	35.117
259.14	33.929
259.51	31.915
259.88	30.435
260.25	29.305
260.62	28.902
260.99	31.366
261.36	30.631
261.73	32.951
262.10	29.942
262.47	30.704
262.85	33.148
263.22	29.630
263.59	31.054
263.96	26.374
264.33	27.415
264.70	30.526
265.07	30.946
265.44	31.313
265.81	30.900
266.18	30.653
266.55	29.024
266.92	30.467
267.29	29.167
267.66	28.440
268.03	29.773
268.40	27.570
268.77	29.356
269.14	28.829
269.51	30.474
269.88	28.671
270.25	26.862
270.62	26.966
270.99	30.538
271.36	28.755
271.73	26.869
272.10	27.174
272.47	30.108
272.84	29.004
273.21	30.608
273.58	28.384
273.95	27.883
274.32	24.174
274.69	28.266
275.06	26.575
275.43	27.234
275.80	27.255
276.17	26.069
276.54	27.443
276.91	26.482
277.28	26.172
277.65	24.758
278.02	26.708
278.39	27.539
278.76	25.091
279.13	27.170
279.50	27.002
279.87	23.506
280.23	23.553
280.60	25.145
280.97	26.987
281.34	25.664
281.71	26.909
282.08	28.407
282.45	25.818
282.82	26.465
283.19	24.421
283.56	25.789
283.92	26.904
284.29	22.751
284.66	24.501
285.03	23.508
285.40	24.472
285.77	26.768
286.14	23.489
286.51	23.333
286.87	27.521
287.24	23.941
287.61	25.361
287.98	23.539
288.35	23.613
288.72	26.324
289.08	23.005
289.45	23.064
289.82	22.114
290.19	20.251
290.56	24.043
290.93	20.846
291.29	22.699
291.66	23.156
292.03	25.291
292.40	25.404
292.77	21.154
293.13	22.687
293.50	22.595
293.87	23.259
294.24	23.111
294.60	21.834
294.97	21.076
295.34	24.401
295.71	19.886
296.08	20.370
296.44	22.421
296.81	20.872
297.18	21.680
297.55	19.657
297.91	20.185
298.28	21.285
298.65	21.149
299.02	21.871
299.38	19.256
299.75	17.251
300.12	18.263
300.48	20.000
300.85	19.236
301.22	19.618
301.59	19.571
301.95	20.025
302.32	19.512
302.69	18.638
303.05	20.242
303.42	18.272
303.79	19.479
304.15	17.366
304.52	18.772
304.89	16.492
305.25	18.445
305.62	19.479
305.99	19.599
306.35	18.568
306.72	19.619
307.09	17.980
307.45	19.820
307.82	18.973
308.19	18.985
308.55	20.173
308.92	18.904
309.29	18.268
309.65	18.558
310.02	19.239
310.38	19.677
310.75	18.585
311.12	19.652
311.48	19.436
311.85	19.916
312.22	19.147
312.58	19.647
312.95	19.747
313.31	18.544
313.68	18.815
314.05	21.400
314.41	19.698
314.78	19.940
315.14	18.173
315.51	19.876
315.87	20.297
316.24	19.662
316.61	18.811
316.97	18.982
317.34	18.885
317.70	19.694
318.07	19.731
318.43	20.254
318.80	19.494
319.16	20.245
319.53	20.075
319.89	21.524
320.26	21.300
320.62	20.040
320.99	20.606
321.35	20.101
321.72	20.021
322.08	21.619
322.45	20.597
322.81	21.609
323.18	21.773
323.54	21.521
323.91	20.943
324.27	21.415
324.64	20.690
325.00	21.010
325.37	22.475
325.73	21.993
326.10	21.006
326.46	20.520
326.83	21.311
327.19	21.691
327.56	22.038
327.92	21.872
328.29	22.449
328.65	21.547
329.01	21.570
329.38	21.739
329.74	21.791
330.11	22.714
330.47	20.845
330.84	22.702
331.20	21.311
331.56	22.936
331.93	21.111
332.29	22.183
332.66	23.363
333.02	22.303
333.38	22.945
333.75	22.371
334.11	22.064
334.48	22.626
334.84	22.151
335.20	21.727
335.57	22.031
335.93	20.536
336.29	20.421
336.66	22.182
337.02	20.543
337.38	21.667
337.75	21.569
338.11	22.381
338.47	21.731
338.84	22.456
339.20	20.550
339.56	22.628
339.93	21.545
340.29	21.558
340.65	21.569
341.02	22.077
341.38	21.975
341.74	20.088
342.11	20.873
342.47	21.674
342.83	21.747
343.20	21.645
343.56	21.904
343.92	21.404
344.28	20.578
344.65	22.442
345.01	21.044
345.37	19.811
345.73	20.558
346.10	21.057
346.46	20.763
346.82	21.417
347.19	20.050
347.55	21.182
347.91	21.278
348.27	21.282
348.63	21.405
349.00	20.631
349.36	21.018
349.72	20.850
350.08	20.583
350.45	21.562
350.81	21.446
351.17	19.854
351.53	21.540
351.89	19.967
352.26	20.284
352.62	20.529
352.98	20.421
353.34	20.542
353.70	19.640
354.07	20.081
354.43	20.317
354.79	20.113
355.15	20.990
355.51	21.183
355.87	20.816
356.24	21.254
356.60	19.968
356.96	20.756
357.32	20.523
357.68	20.709
358.04	21.140
358.40	21.219
358.77	21.205
359.13	19.574
359.49	21.569
359.85	19.444
360.21	20.813
360.57	20.934
360.93	21.154
361.29	20.937
361.66	20.201
362.02	21.716
362.38	20.760
362.74	20.015
363.10	20.281
363.46	20.690
363.82	20.862
364.18	20.705
364.54	22.585
364.90	21.176
365.26	21.103
365.62	21.256
365.98	20.380
366.35	19.842
366.71	21.330
367.07	20.175
367.43	20.537
367.79	20.985
368.15	22.342
368.51	20.349
368.87	21.056
369.23	20.629
369.59	21.506
369.95	20.735
370.31	20.513
370.67	20.435
371.03	22.547
371.39	21.501
371.75	21.103
372.11	21.266
372.47	22.434
372.83	21.470
373.19	20.882
373.55	21.951
373.91	22.165
374.27	20.962
374.63	21.745
374.99	21.822
375.35	20.307
375.71	21.864
376.07	21.536
376.42	22.352
376.78	22.266
377.14	21.845
377.50	21.854
377.86	21.809
378.22	23.072
378.58	21.679
378.94	21.936
379.30	21.883
379.66	23.287
380.02	22.912
380.38	22.101
380.74	23.109
381.09	22.861
381.45	22.987
381.81	23.771
382.17	24.331
382.53	22.453
382.89	23.395
383.25	22.577
383.61	23.668
383.97	23.577
384.32	23.518
384.68	23.854
385.04	23.848
385.40	23.777
385.76	24.386
386.12	24.547
386.48	24.858
386.83	25.273
387.19	25.479
387.55	25.046
387.91	24.486
388.27	23.605
388.62	24.647
388.98	24.079
389.34	25.532
389.70	24.770
390.06	25.982
390.42	24.449
390.77	25.064
391.13	25.718
391.49	26.777
391.85	24.761
392.20	24.669
392.56	25.063
392.92	24.956
393.28	25.089
393.64	25.600
393.99	26.084
394.35	26.303
394.71	25.282
395.07	25.234
395.42	26.267
395.78	25.636
396.14	26.257
396.50	26.817
396.85	26.573
397.21	25.709
397.57	25.604
397.92	26.082
398.28	25.112
398.64	27.240
399.00	25.965
399.35	25.494
399.71	26.215
400.07	26.671
400.42	26.074
400.78	26.116
401.14	25.854
401.49	26.687
401.85	26.860
402.21	25.629
402.57	25.540
402.92	26.797
403.28	25.921
403.63	26.423
403.99	25.924
404.35	26.242
404.70	25.899
405.06	26.616
405.42	26.887
405.77	25.429
406.13	26.467
406.49	26.257
406.84	26.108
407.20	25.768
407.55	26.867
407.91	27.133
408.27	26.165
408.62	26.069
408.98	26.348
409.34	26.445
409.69	26.258
410.05	26.332
410.40	26.728
410.76	26.045
411.11	26.598
411.47	26.262
411.83	26.268
412.18	26.283
412.54	26.401
412.89	26.807
413.25	26.564
413.60	26.683
413.96	26.230
414.31	26.185
414.67	26.743
415.03	25.762
415.38	26.740
415.74	25.145
416.09	26.519
416.45	26.707
416.80	27.297
417.16	27.279
417.51	27.472
417.87	26.590
418.22	26.940
418.58	26.469
418.93	27.027
419.29	26.098
419.64	26.574
420.00	26.463
420.35	27.072
420.71	26.599
421.06	26.492
421.42	26.725
421.77	27.522
422.12	25.828
422.48	26.066
422.83	26.267
423.19	26.298
423.54	26.872
423.90	26.957
424.25	26.131
424.61	26.131
424.96	25.889
425.31	26.744
425.67	25.787
426.02	25.886
426.38	27.656
426.73	25.805
427.09	27.842
427.44	27.315
427.79	26.452
428.15	27.083
428.50	27.209
428.85	26.520
429.21	26.560
429.56	26.853
429.92	26.422
430.27	25.720
430.62	25.909
430.98	26.362
431.33	26.031
431.68	26.911
432.04	26.092
432.39	26.670
432.74	26.451
433.10	26.882
433.45	27.872
433.80	27.384
434.16	26.282
434.51	25.632
434.86	25.542
435.22	27.126
435.57	26.991
435.92	26.624
436.28	27.699
436.63	27.263
436.98	26.617
437.34	26.416
437.69	27.596
438.04	27.206
438.39	28.597
438.75	27.310
439.10	27.598
439.45	27.450
439.81	26.828
440.16	26.595
440.51	27.592
440.86	26.867
441.22	27.141
441.57	26.805
441.92	27.226
442.27	26.857
442.63	27.330
442.98	28.225
443.33	27.174
443.68	27.207
444.03	26.940
444.39	26.485
444.74	27.381
445.09	26.954
445.44	26.791
445.79	26.620
446.15	27.104
446.50	27.087
446.85	26.619
447.20	27.180
447.55	27.527
447.91	27.523
448.26	26.711
448.61	27.586
448.96	29.070
449.31	27.559
449.66	27.518
450.02	26.908
450.37	26.757
450.72	27.580
451.07	27.422
451.42	26.079
451.77	28.009
452.12	27.194
452.47	27.177
452.83	27.855
453.18	27.078
453.53	28.077
453.88	27.584
454.23	27.256
454.58	28.044
454.93	28.417
455.28	27.431
455.63	27.609
455.98	29.048
456.34	27.513
456.69	27.865
457.04	27.616
457.39	26.885
457.74	27.046
458.09	27.947
458.44	27.480
458.79	26.735
459.14	27.822
459.49	27.379
459.84	27.202
460.19	27.578
460.54	27.025
460.89	27.811
461.24	27.505
461.59	28.995
461.94	27.682
462.29	27.596
462.64	28.398
462.99	27.391
463.34	29.067
463.69	28.080
464.04	27.768
464.39	27.362
464.74	27.213
465.09	27.081
465.44	27.922
465.79	26.286
466.14	27.641
466.49	26.696
466.84	27.379
467.19	27.459
467.54	27.562
467.89	27.251
468.24	27.574
468.59	28.327
468.94	28.467
469.29	27.571
469.64	28.313
469.99	28.484
470.34	27.279
470.68	28.807
471.03	27.823
471.38	28.075
471.73	28.048
472.08	28.158
472.43	28.266
472.78	28.506
473.13	27.728
473.48	27.403
473.83	27.988
474.17	28.563
474.52	28.102
474.87	27.204
475.22	27.742
475.57	26.437
475.92	27.138
476.27	27.339
476.61	27.413
476.96	27.213
477.31	26.217
477.66	28.063
478.01	26.973
478.36	28.133
478.70	27.310
479.05	26.890
479.40	27.226
479.75	27.605
480.10	27.038
480.45	26.511
480.79	26.565
481.14	27.740
481.49	27.385
481.84	26.932
482.19	27.533
482.53	26.239
482.88	26.896
483.23	26.963
483.58	27.571
483.92	26.710
484.27	26.231
484.62	26.164
484.97	26.685
485.31	26.884
485.66	25.959
486.01	24.650
486.36	23.364
486.70	23.316
487.05	23.884
487.40	24.719
487.75	24.863
488.09	25.690
488.44	25.584
488.79	27.306
489.13	26.814
489.48	27.162
489.83	27.233
490.17	27.050
490.52	26.528
490.87	26.052
491.22	27.376
491.56	26.241
491.91	26.803
492.26	26.826
492.60	26.037
492.95	26.239
493.30	26.449
493.64	26.178
493.99	27.112
494.34	26.457
494.68	26.511
495.03	26.598
495.37	26.710
495.72	27.290
496.07	26.914
496.41	25.885
496.76	27.177
497.11	25.439
497.45	26.409
497.80	26.583
498.14	26.473
498.49	27.122
498.84	27.085
499.18	26.619
499.53	27.350
499.87	26.142
500.22	26.802
500.56	26.650
500.91	26.250
501.26	26.695
501.60	27.670
501.95	25.894
502.29	27.038
502.64	26.723
502.98	26.461
503.33	26.737
503.67	26.868
504.02	26.473
504.36	26.626
504.71	27.015
505.06	26.506
505.40	26.981
505.75	26.181
506.09	27.308
506.44	27.282
506.78	26.839
507.13	26.653
507.47	27.020
507.82	27.254
508.16	27.305
508.51	27.549
508.85	26.862
509.19	26.684
509.54	26.378
509.88	27.202
510.23	26.838
510.57	27.761
510.92	27.447
511.26	27.441
511.61	27.334
511.95	27.140
512.30	27.306
512.64	26.921
512.98	26.742
513.33	27.088
513.67	26.948
514.02	26.894
514.36	28.236
514.70	28.058
515.05	26.994
515.39	27.538
515.74	27.928
516.08	27.501
516.42	28.413
516.77	28.094
517.11	27.469
517.46	27.709
517.80	27.642
518.14	26.983
518.49	28.588
518.83	27.955
519.17	28.349
519.52	28.240
519.86	28.123
520.20	27.803
520.55	29.563
520.89	28.893
521.23	28.770
521.58	27.371
521.92	28.169
522.26	27.761
522.61	28.910
522.95	28.484
523.29	28.119
523.64	27.866
523.98	27.788
524.32	28.166
524.66	28.443
525.01	27.757
525.35	27.385
525.69	27.648
526.04	27.913
526.38	28.005
526.72	27.669
527.06	28.939
527.41	26.980
527.75	29.068
528.09	28.388
528.43	28.999
528.78	27.535
529.12	28.061
529.46	28.475
529.80	28.280
530.15	29.034
530.49	27.754
530.83	27.975
531.17	28.394
531.51	28.470
531.86	28.000
532.20	29.531
532.54	28.635
532.88	28.370
533.22	27.171
533.57	27.963
533.91	26.671
534.25	27.643
534.59	27.822
534.93	26.710
535.27	27.399
535.62	27.106
535.96	28.562
536.30	27.781
536.64	28.075
536.98	27.339
537.32	27.452
537.66	27.600
538.01	27.452
538.35	27.860
538.69	28.398
539.03	27.745
539.37	26.773
539.71	27.025
540.05	28.039
540.39	27.375
540.73	27.232
541.07	29.137
541.42	27.071
541.76	27.677
542.10	27.102
542.44	27.086
542.78	28.986
543.12	26.871
543.46	27.082
543.80	27.196
544.14	27.150
544.48	28.063
544.82	27.453
545.16	27.846
545.50	26.028
545.84	27.621
546.18	28.283
546.52	27.529
546.86	26.254
547.20	27.782
547.54	27.589
547.88	27.296
548.22	26.463
548.56	27.610
548.90	26.120
549.24	26.734
549.58	27.558
549.92	27.404
550.26	27.486
550.60	26.971
550.94	27.113
551.28	26.920
551.62	28.325
551.96	27.789
552.30	27.645
552.64	28.330
552.98	27.525
553.32	27.242
553.66	27.744
554.00	27.111
554.34	27.260
554.68	27.539
555.02	27.433
555.36	28.253
555.69	26.252
556.03	26.985
556.37	27.149
556.71	27.080
557.05	27.381
557.39	27.012
557.73	27.311
558.07	27.121
558.41	27.207
558.75	27.627
559.08	28.039
559.42	28.571
559.76	28.235
560.10	27.052
560.44	26.765
560.78	26.813
561.12	26.517
561.45	26.858
561.79	26.038
562.13	26.224
562.47	26.366
562.81	26.918
563.15	27.023
563.48	26.260
563.82	26.158
564.16	27.338
564.50	25.716
564.84	25.917
565.17	26.963
565.51	26.390
565.85	26.586
566.19	25.548
566.52	25.839
566.86	25.980
567.20	26.356
567.54	26.769
567.88	24.932
568.21	26.138
568.55	25.278
568.89	25.340
569.23	24.421
569.56	24.494
569.90	24.679
570.24	23.717
570.57	23.461
570.91	23.368
571.25	23.410
571.59	23.476
571.92	22.955
572.26	23.108
572.60	23.183
572.93	23.448
573.27	23.810
573.61	23.004
573.95	23.127
574.28	22.387
574.62	22.643
574.96	22.031
575.29	22.454
575.63	22.713
575.97	22.937
576.30	23.075
576.64	22.795
576.98	22.606
577.31	22.528
577.65	22.476
577.98	22.557
578.32	21.267
578.66	21.761
578.99	22.301
579.33	22.367
579.67	21.917
580.00	22.225
580.34	22.402
580.67	22.761
581.01	22.734
581.35	22.499
581.68	22.020
582.02	21.602
582.35	21.682
582.69	21.868
583.02	21.992
583.36	22.135
583.70	22.752
584.03	22.675
584.37	23.083
584.70	22.780
585.04	22.676
585.37	22.717
585.71	22.509
586.04	21.938
586.38	22.910
586.72	23.060
587.05	22.575
587.39	22.559
587.72	22.778
588.06	22.545
588.39	22.442
588.73	22.705
589.06	23.278
589.40	23.737
589.73	23.654
590.07	23.060
590.40	23.054
590.73	24.044
591.07	24.501
591.40	23.619
591.74	24.632
592.07	23.735
592.41	23.853
592.74	23.446
593.08	22.552
593.41	23.505
593.75	22.455
594.08	22.025
594.41	22.764
594.75	23.105
595.08	22.691
595.42	23.853
595.75	22.578
596.09	23.545
596.42	23.929
596.75	24.103
597.09	24.156
597.42	23.187
597.75	23.588
598.09	23.261
598.42	24.141
598.76	23.064
599.09	22.729
599.42	22.489
599.76	23.755
600.09	23.024
600.42	22.717
600.76	22.464
601.09	22.149
601.42	22.336
601.76	23.074
602.09	23.043
602.42	23.726
602.76	23.620
603.09	23.603
603.42	23.350
603.76	23.018
604.09	22.606
604.42	23.237
604.76	23.914
605.09	23.198
605.42	23.343
605.75	22.972
606.09	23.139
606.42	23.376
606.75	23.310
607.09	23.022
607.42	22.978
607.75	22.110
608.08	23.317
608.42	23.577
608.75	22.678
609.08	23.728
609.41	22.703
609.75	23.344
610.08	24.222
610.41	23.045
610.74	23.888
611.07	23.271
611.41	23.651
611.74	23.529
612.07	23.602
612.40	23.610
612.73	22.632
613.07	23.599
613.40	23.328
613.73	23.545
614.06	24.032
614.39	24.227
614.72	24.737
615.06	24.370
615.39	23.514
615.72	23.875
616.05	22.967
616.38	23.791
616.71	24.347
617.05	24.205
617.38	23.993
617.71	24.024
618.04	24.399
618.37	24.246
618.70	24.331
619.03	25.066
619.36	25.187
619.69	25.775
620.03	24.931
620.36	24.131
620.69	25.616
621.02	25.369
621.35	24.980
621.68	25.623
622.01	25.929
622.34	25.794
622.67	25.399
623.00	24.358
623.33	23.517
623.66	25.447
623.99	23.785
624.32	25.107
624.65	24.929
624.99	23.513
625.32	24.475
625.65	24.793
625.98	25.903
626.31	26.516
626.64	25.388
626.97	26.185
627.30	24.771
627.63	25.923
627.96	26.325
628.29	26.597
628.62	26.349
628.95	27.547
629.28	26.369
629.61	26.306
629.94	27.905
630.26	25.834
630.59	26.406
630.92	26.916
631.25	25.962
