SpectraSuite Data File
++++++++++++++++++++++++++++++++++++
Date: Wed May 13 16:37:03 PDT 2015
User: schluterlab
Dark Spectrum Present: Yes
Reference Spectrum Present: Yes
Number of Sampled Component Spectra: 1
Spectrometers: USB2E3373
Integration Time (usec): 3000 (USB2E3373)
Spectra Averaged: 3 (USB2E3373)
Boxcar Smoothing: 0 (USB2E3373)
Correct for Electrical Dark: No (USB2E3373)
Strobe/Lamp Enabled: No (USB2E3373)
Correct for Detector Non-linearity: No (USB2E3373)
Correct for Stray Light: No (USB2E3373)
Number of Pixels in Processed Spectrum: 2048
>>>>>Begin Processed Spectral Data<<<<<
178.53	0.000
178.91	-1375.000
179.29	-1425.000
179.67	-222.222
180.04	-1175.000
180.42	2500.000
180.80	1260.000
181.18	-1150.000
181.56	771.429
181.94	0.000
182.31	-657.143
182.69	1566.667
183.07	-625.000
183.45	-588.889
183.83	509.091
184.20	-380.000
184.58	2500.000
184.96	5300.000
185.34	-1120.000
185.72	-550.000
186.09	-2050.000
186.47	2300.000
186.85	2550.000
187.23	4900.000
187.61	-1600.000
187.98	1525.000
188.36	463.636
188.74	500.000
189.12	-980.000
189.49	560.000
189.87	-4900.000
190.25	-1350.000
190.63	428.571
191.00	369.231
191.38	783.333
191.76	-1200.000
192.14	1350.000
192.51	725.000
192.89	1100.000
193.27	625.000
193.65	-1100.000
194.02	590.000
194.40	1020.000
194.78	530.000
195.15	525.000
195.53	590.000
195.91	-2150.000
196.29	343.750
196.66	310.526
197.04	-330.000
197.42	0.000
197.79	650.000
198.17	-5200.000
198.55	685.714
198.92	712.500
199.30	940.000
199.68	0.000
200.05	344.444
200.43	771.429
200.81	4200.000
201.18	1266.667
201.56	-1633.333
201.94	511.111
202.31	600.000
202.69	425.000
203.07	690.000
203.44	0.000
203.82	1200.000
204.19	728.571
204.57	478.571
204.95	537.500
205.32	1533.333
205.70	590.909
206.08	342.857
206.45	2450.000
206.83	362.500
207.20	850.000
207.58	820.000
207.96	383.333
208.33	712.500
208.71	-816.667
209.08	714.286
209.46	600.000
209.84	463.636
210.21	-1666.667
210.59	1275.000
210.96	-550.000
211.34	2350.000
211.71	660.000
212.09	833.333
212.46	0.000
212.84	1833.333
213.22	1500.000
213.59	-4200.000
213.97	833.333
214.34	885.714
214.72	563.636
215.09	1040.000
215.47	-2350.000
215.84	-2250.000
216.22	1533.333
216.59	414.286
216.97	1225.000
217.34	500.000
217.72	-733.333
218.09	0.000
218.47	-5200.000
218.84	633.333
219.22	785.714
219.59	1566.667
219.97	-557.143
220.34	940.000
220.72	-1933.333
221.09	428.571
221.47	1375.000
221.84	-1033.333
222.22	0.000
222.59	1425.000
222.97	-2600.000
223.34	1160.000
223.72	484.615
224.09	1080.000
224.46	2100.000
224.84	-4500.000
225.21	-860.000
225.59	-4500.000
225.96	570.000
226.34	310.000
226.71	2500.000
227.08	675.000
227.46	530.000
227.83	-1025.000
228.21	-2400.000
228.58	555.556
228.95	-2500.000
229.33	-2650.000
229.70	1733.333
230.08	800.000
230.45	-860.000
230.82	441.667
231.20	833.333
231.57	557.143
231.95	525.000
232.32	259.091
232.69	381.818
233.07	657.143
233.44	392.308
233.81	-1900.000
234.19	257.895
234.56	400.000
234.93	333.333
235.31	454.545
235.68	323.077
236.05	385.714
236.43	178.788
236.80	263.158
237.17	4200.000
237.55	247.619
237.92	217.857
238.29	209.524
238.67	212.903
239.04	193.103
239.41	122.222
239.79	113.043
240.16	154.762
240.53	145.455
240.91	109.804
241.28	118.000
241.65	96.000
242.02	100.000
242.40	96.774
242.77	98.333
243.14	84.946
243.51	87.640
243.89	82.353
244.26	75.556
244.63	73.118
245.00	74.468
245.38	78.218
245.75	68.224
246.12	57.798
246.49	63.504
246.87	69.600
247.24	68.462
247.61	63.571
247.98	53.595
248.36	47.973
248.73	56.051
249.10	57.325
249.47	48.023
249.84	51.337
250.22	44.920
250.59	56.805
250.96	45.960
251.33	43.602
251.70	50.990
252.08	43.810
252.45	43.049
252.82	45.217
253.19	45.957
253.56	43.922
253.94	41.079
254.31	44.922
254.68	43.077
255.05	41.697
255.42	40.244
255.79	40.809
256.16	41.516
256.54	37.809
256.91	40.569
257.28	38.129
257.65	37.294
258.02	38.199
258.39	38.801
258.76	40.803
259.14	38.988
259.51	37.082
259.88	34.783
260.25	37.764
260.62	34.682
260.99	37.888
261.36	36.937
261.73	38.395
262.10	33.140
262.47	39.718
262.85	37.604
263.22	32.479
263.59	38.177
263.96	33.516
264.33	37.076
264.70	36.316
265.07	36.317
265.44	34.848
265.81	34.793
266.18	33.417
266.55	33.902
266.92	34.398
267.29	33.102
267.66	30.963
268.03	34.318
268.40	32.243
268.77	29.594
269.14	31.982
269.51	31.828
269.88	34.965
270.25	32.506
270.62	34.831
270.99	35.269
271.36	32.189
271.73	35.280
272.10	32.609
272.47	32.043
272.84	30.736
273.21	35.849
273.58	29.476
273.95	29.350
274.32	30.579
274.69	33.619
275.06	30.709
275.43	32.979
275.80	32.064
276.17	29.735
276.54	33.472
276.91	33.399
277.28	32.617
277.65	30.948
278.02	29.400
278.39	32.227
278.76	29.273
279.13	29.623
279.50	30.168
279.87	31.275
280.23	30.739
280.60	28.240
280.97	28.651
281.34	30.973
281.71	30.182
282.08	30.134
282.45	28.545
282.82	28.597
283.19	28.342
283.56	29.825
283.92	29.780
284.29	26.808
284.66	29.401
285.03	29.295
285.40	28.873
285.77	28.956
286.14	27.979
286.51	28.333
286.87	28.889
287.24	29.642
287.61	28.892
287.98	30.032
288.35	25.040
288.72	26.012
289.08	27.387
289.45	26.853
289.82	27.317
290.19	26.845
290.56	26.953
290.93	24.471
291.29	25.920
291.66	24.336
292.03	26.453
292.40	27.019
292.77	24.112
293.13	24.627
293.50	26.822
293.87	26.222
294.24	23.704
294.60	24.745
294.97	22.820
295.34	25.247
295.71	24.290
296.08	23.077
296.44	23.521
296.81	22.325
297.18	24.390
297.55	22.823
297.91	23.351
298.28	23.561
298.65	22.846
299.02	23.979
299.38	23.108
299.75	21.024
300.12	22.222
300.48	22.125
300.85	21.085
301.22	21.911
301.59	22.348
301.95	21.411
302.32	21.823
302.69	21.864
303.05	23.758
303.42	21.235
303.79	20.159
304.15	20.979
304.52	20.742
304.89	20.674
305.25	21.230
305.62	20.725
305.99	21.370
306.35	21.029
306.72	21.188
307.09	20.977
307.45	22.185
307.82	19.643
308.19	21.302
308.55	20.820
308.92	21.267
309.29	19.007
309.65	19.830
310.02	21.670
310.38	19.032
310.75	20.697
311.12	20.573
311.48	21.526
311.85	20.335
312.22	20.291
312.58	21.830
312.95	20.803
313.31	19.903
313.68	21.622
314.05	21.992
314.41	22.010
314.78	21.349
315.14	20.854
315.51	22.348
315.87	21.584
316.24	21.549
316.61	21.442
316.97	21.526
317.34	21.331
317.70	21.702
318.07	22.329
318.43	22.603
318.80	23.055
319.16	22.693
319.53	21.951
319.89	22.000
320.26	23.900
320.62	23.512
320.99	23.333
321.35	23.434
321.72	22.793
322.08	24.186
322.45	23.881
322.81	23.934
323.18	24.566
323.54	23.191
323.91	22.264
324.27	23.327
324.64	24.324
325.00	23.264
325.37	23.840
325.73	24.686
326.10	24.360
326.46	22.401
326.83	23.900
327.19	24.167
327.56	23.084
327.92	23.185
328.29	23.780
328.65	23.849
329.01	24.729
329.38	24.422
329.74	23.453
330.11	24.599
330.47	24.059
330.84	24.908
331.20	23.133
331.56	24.495
331.93	22.685
332.29	24.933
332.66	23.717
333.02	23.857
333.38	24.300
333.75	23.886
334.11	23.754
334.48	24.756
334.84	25.092
335.20	23.364
335.57	23.028
335.93	22.768
336.29	22.802
336.66	24.076
337.02	22.353
337.38	23.611
337.75	24.332
338.11	23.187
338.47	23.389
338.84	24.198
339.20	22.477
339.56	24.635
339.93	22.455
340.29	23.188
340.65	22.103
341.02	23.211
341.38	23.665
341.74	22.895
342.11	24.105
342.47	23.965
342.83	23.630
343.20	23.723
343.56	22.494
343.92	23.684
344.28	24.235
344.65	23.388
345.01	22.222
345.37	22.298
345.73	23.435
346.10	22.847
346.46	23.136
346.82	23.147
347.19	22.640
347.55	23.399
347.91	23.382
348.27	24.158
348.63	23.746
349.00	22.816
349.36	22.742
349.72	22.614
350.08	22.042
350.45	23.841
350.81	21.690
351.17	21.880
351.53	22.932
351.89	21.617
352.26	23.520
352.62	22.935
352.98	23.096
353.34	23.007
353.70	21.686
354.07	22.661
354.43	21.825
354.79	22.124
355.15	21.708
355.51	23.661
355.87	21.959
356.24	23.046
356.60	20.609
356.96	22.526
357.32	22.159
357.68	22.835
358.04	22.882
358.40	23.278
358.77	22.692
359.13	22.178
359.49	23.529
359.85	22.222
360.21	22.010
360.57	23.268
360.93	22.077
361.29	23.432
361.66	22.910
362.02	23.209
362.38	22.433
362.74	22.396
363.10	22.354
363.46	22.744
363.82	22.525
364.18	23.275
364.54	23.254
364.90	22.734
365.26	24.265
365.62	22.717
365.98	23.009
366.35	22.278
366.71	23.861
367.07	22.651
367.43	23.295
367.79	23.983
368.15	23.635
368.51	23.692
368.87	23.269
369.23	23.189
369.59	23.678
369.95	23.456
370.31	23.077
370.67	22.826
371.03	24.419
371.39	23.178
371.75	23.971
372.11	23.755
372.47	24.927
372.83	25.072
373.19	23.555
373.55	24.612
373.91	25.037
374.27	24.880
374.63	23.709
374.99	24.929
375.35	24.355
375.71	25.154
376.07	24.897
376.42	24.897
376.78	25.182
377.14	26.052
377.50	25.894
377.86	25.399
378.22	26.106
378.58	25.251
378.94	25.707
379.30	25.891
379.66	27.030
380.02	26.536
380.38	27.019
380.74	27.071
381.09	27.384
381.45	27.535
381.81	27.518
382.17	27.898
382.53	27.296
382.89	28.457
383.25	28.018
383.61	28.191
383.97	29.018
384.32	28.135
384.68	27.819
385.04	28.949
385.40	28.978
385.76	28.747
386.12	30.505
386.48	30.271
386.83	31.238
387.19	32.096
387.55	30.118
387.91	30.351
388.27	30.533
388.62	31.530
388.98	31.143
389.34	31.227
389.70	31.269
390.06	31.242
390.42	31.777
390.77	32.316
391.13	32.674
391.49	33.185
391.85	32.718
392.20	31.924
392.56	32.702
392.92	32.784
393.28	32.249
393.64	33.034
393.99	33.537
394.35	33.375
394.71	32.999
395.07	32.399
395.42	33.189
395.78	33.270
396.14	32.651
396.50	34.336
396.85	33.503
397.21	32.737
397.57	33.416
397.92	33.714
398.28	32.960
398.64	33.453
399.00	33.576
399.35	32.995
399.71	32.581
400.07	33.176
400.42	33.988
400.78	33.715
401.14	34.024
401.49	33.373
401.85	32.970
402.21	33.832
402.57	33.374
402.92	34.552
403.28	35.103
403.63	33.230
403.99	32.548
404.35	33.152
404.70	33.873
405.06	33.722
405.42	34.435
405.77	33.486
406.13	33.578
406.49	34.299
406.84	33.077
407.20	32.920
407.55	34.142
407.91	34.467
408.27	34.333
408.62	33.293
408.98	33.762
409.34	33.026
409.69	34.194
410.05	33.271
410.40	33.333
410.76	33.393
411.11	33.957
411.47	32.652
411.83	33.720
412.18	33.271
412.54	33.375
412.89	33.614
413.25	33.412
413.60	32.860
413.96	32.665
414.31	33.232
414.67	33.650
415.03	32.450
415.38	33.763
415.74	33.633
416.09	33.573
416.45	33.668
416.80	32.783
417.16	34.517
417.51	34.107
417.87	32.755
418.22	34.196
418.58	32.989
418.93	32.740
419.29	33.673
419.64	33.564
420.00	32.378
420.35	33.159
420.71	34.489
421.06	32.578
421.42	33.041
421.77	33.520
422.12	33.577
422.48	32.920
422.83	33.547
423.19	32.486
423.54	33.256
423.90	33.217
424.25	33.780
424.61	33.452
424.96	33.236
425.31	33.333
425.67	32.303
426.02	31.886
426.38	34.249
426.73	32.534
427.09	33.678
427.44	33.353
427.79	33.698
428.15	33.929
428.50	33.002
428.85	33.671
429.21	33.076
429.56	33.696
429.92	32.360
430.27	32.870
430.62	33.538
430.98	32.590
431.33	32.526
431.68	32.775
432.04	32.694
432.39	33.352
432.74	33.393
433.10	33.786
433.45	33.936
433.80	33.149
434.16	33.387
434.51	32.474
434.86	32.782
435.22	32.462
435.57	33.435
435.92	32.709
436.28	34.223
436.63	33.885
436.98	32.627
437.34	33.870
437.69	34.072
438.04	33.839
438.39	34.090
438.75	33.643
439.10	33.631
439.45	33.530
439.81	33.837
440.16	33.089
440.51	34.446
440.86	33.874
441.22	32.481
441.57	34.342
441.92	33.828
442.27	33.369
442.63	33.017
442.98	34.479
443.33	34.130
443.68	32.886
444.03	33.382
444.39	32.814
444.74	33.874
445.09	33.046
445.44	33.078
445.79	34.043
446.15	32.663
446.50	33.495
446.85	32.991
447.20	33.248
447.55	33.892
447.91	32.488
448.26	33.222
448.61	33.748
448.96	33.832
449.31	33.915
449.66	34.609
450.02	33.203
450.37	33.844
450.72	33.108
451.07	33.090
451.42	32.827
451.77	33.999
452.12	33.025
452.47	34.204
452.83	33.625
453.18	33.802
453.53	34.014
453.88	34.377
454.23	32.815
454.58	34.585
454.93	33.503
455.28	32.980
455.63	33.252
455.98	33.929
456.34	33.857
456.69	33.438
457.04	34.489
457.39	33.957
457.74	33.198
458.09	32.490
458.44	33.352
458.79	32.538
459.14	32.957
459.49	33.684
459.84	33.352
460.19	33.058
460.54	32.812
460.89	33.242
461.24	33.030
461.59	33.701
461.94	32.367
462.29	34.481
462.64	33.631
462.99	34.548
463.34	33.067
463.69	33.583
464.04	32.638
464.39	32.870
464.74	32.858
465.09	32.931
465.44	32.465
465.79	32.942
466.14	32.567
466.49	32.091
466.84	32.808
467.19	33.313
467.54	33.125
467.89	33.013
468.24	32.693
468.59	34.005
468.94	33.170
469.29	33.290
469.64	34.003
469.99	33.627
470.34	32.563
470.68	33.980
471.03	32.177
471.38	34.190
471.73	33.578
472.08	34.145
472.43	32.663
472.78	33.311
473.13	34.082
473.48	33.708
473.83	34.024
474.17	32.981
474.52	33.313
474.87	33.567
475.22	32.734
475.57	32.456
475.92	32.501
476.27	32.356
476.61	32.157
476.96	31.281
477.31	32.234
477.66	33.479
478.01	32.671
478.36	33.421
478.70	32.451
479.05	32.375
479.40	32.293
479.75	32.791
480.10	31.412
480.45	32.413
480.79	31.295
481.14	32.143
481.49	32.463
481.84	32.602
482.19	31.804
482.53	31.789
482.88	31.503
483.23	31.963
483.58	31.665
483.92	32.240
484.27	30.850
484.62	31.293
484.97	31.376
485.31	32.192
485.66	32.448
486.01	30.508
486.36	29.053
486.70	27.727
487.05	28.845
487.40	29.265
487.75	29.545
488.09	29.785
488.44	29.887
488.79	30.271
489.13	31.169
489.48	30.057
489.83	30.729
490.17	30.864
490.52	30.204
490.87	30.846
491.22	30.423
491.56	31.162
491.91	31.177
492.26	30.547
492.60	30.968
492.95	30.215
493.30	30.981
493.64	30.705
493.99	29.991
494.34	30.759
494.68	31.456
495.03	30.780
495.37	30.479
495.72	30.653
496.07	32.111
496.41	30.929
496.76	29.683
497.11	29.491
497.45	30.228
497.80	29.942
498.14	30.290
498.49	30.293
498.84	30.585
499.18	30.429
499.53	30.864
499.87	29.916
500.22	30.052
500.56	31.117
500.91	30.721
501.26	30.251
501.60	31.039
501.95	30.247
502.29	31.256
502.64	30.959
502.98	30.482
503.33	30.210
503.67	30.487
504.02	30.496
504.36	30.416
504.71	30.142
505.06	29.639
505.40	30.287
505.75	28.255
506.09	30.272
506.44	30.883
506.78	31.223
507.13	30.389
507.47	30.000
507.82	30.496
508.16	31.307
508.51	30.797
508.85	30.437
509.19	30.663
509.54	30.459
509.88	30.242
510.23	30.643
510.57	30.908
510.92	30.088
511.26	29.908
511.61	30.446
511.95	29.958
512.30	30.223
512.64	30.629
512.98	30.707
513.33	30.407
513.67	30.256
514.02	29.870
514.36	29.711
514.70	30.880
515.05	30.452
515.39	30.510
515.74	30.405
516.08	30.240
516.42	30.744
516.77	30.658
517.11	29.745
517.46	31.490
517.80	31.010
518.14	29.415
518.49	31.505
518.83	30.625
519.17	29.965
519.52	30.504
519.86	30.177
520.20	30.231
520.55	31.837
520.89	30.049
521.23	31.001
521.58	30.732
521.92	31.108
522.26	30.140
522.61	30.841
522.95	30.264
523.29	30.250
523.64	30.305
523.98	31.362
524.32	30.458
524.66	31.028
525.01	30.821
525.35	30.359
525.69	29.680
526.04	30.530
526.38	30.628
526.72	30.675
527.06	30.697
527.41	28.960
527.75	30.997
528.09	30.379
528.43	31.039
528.78	31.653
529.12	30.485
529.46	30.374
529.80	30.384
530.15	31.215
530.49	29.108
530.83	30.380
531.17	30.744
531.51	31.323
531.86	29.806
532.20	31.617
532.54	30.429
532.88	30.488
533.22	29.044
533.57	30.185
533.91	29.561
534.25	29.891
534.59	29.042
534.93	29.566
535.27	29.390
535.62	29.548
535.96	29.504
536.30	29.243
536.64	29.491
536.98	29.728
537.32	30.217
537.66	29.533
538.01	29.888
538.35	29.541
538.69	29.802
539.03	29.500
539.37	28.754
539.71	27.609
540.05	29.020
540.39	29.369
540.73	28.719
541.07	29.137
541.42	29.028
541.76	29.935
542.10	29.495
542.44	29.139
542.78	29.249
543.12	28.663
543.46	29.508
543.80	29.278
544.14	28.755
544.48	29.587
544.82	28.480
545.16	29.538
545.50	28.085
545.84	28.427
546.18	30.034
546.52	29.387
546.86	30.241
547.20	29.130
547.54	30.060
547.88	30.931
548.22	29.763
548.56	29.686
548.90	27.593
549.24	29.360
549.58	29.400
549.92	29.808
550.26	29.474
550.60	28.769
550.94	30.211
551.28	27.871
551.62	29.475
551.96	29.544
552.30	29.420
552.64	30.223
552.98	29.424
553.32	29.198
553.66	30.402
554.00	28.895
554.34	28.502
554.68	29.614
555.02	28.773
555.36	28.810
555.69	29.499
556.03	28.533
556.37	29.741
556.71	28.649
557.05	28.922
557.39	29.181
557.73	29.217
558.07	29.514
558.41	28.582
558.75	29.096
559.08	29.381
559.42	29.327
559.76	29.118
560.10	28.408
560.44	29.210
560.78	27.878
561.12	28.958
561.45	29.726
561.79	28.939
562.13	29.041
562.47	28.210
562.81	29.149
563.15	27.692
563.48	28.912
563.82	29.159
564.16	28.188
564.50	28.646
564.84	28.382
565.17	28.764
565.51	27.859
565.85	28.871
566.19	27.990
566.52	28.499
566.86	27.185
567.20	27.830
567.54	27.968
567.88	26.616
568.21	28.519
568.55	27.604
568.89	27.870
569.23	26.604
569.56	27.166
569.90	27.019
570.24	26.947
570.57	26.454
570.91	25.986
571.25	26.220
571.59	25.773
571.92	26.469
572.26	25.246
572.60	25.736
572.93	25.487
573.27	26.383
573.61	26.410
573.95	25.943
574.28	25.930
574.62	24.879
574.96	25.042
575.29	25.267
575.63	24.975
575.97	25.072
576.30	25.597
576.64	24.817
576.98	25.474
577.31	25.254
577.65	25.277
577.98	25.412
578.32	25.040
578.66	24.948
578.99	24.629
579.33	24.837
579.67	24.982
580.00	25.006
580.34	24.537
580.67	24.675
581.01	25.253
581.35	25.424
581.68	25.386
582.02	24.506
582.35	24.901
582.69	25.204
583.02	24.901
583.36	24.856
583.70	25.000
584.03	25.183
584.37	24.980
584.70	25.209
585.04	25.073
585.37	25.629
585.71	25.658
586.04	25.175
586.38	25.313
586.72	25.960
587.05	25.808
587.39	25.752
587.72	25.174
588.06	25.240
588.39	25.460
588.73	25.609
589.06	25.366
589.40	26.027
589.73	25.977
590.07	25.552
590.40	25.502
590.73	26.190
591.07	26.781
591.40	26.023
591.74	26.926
592.07	26.789
592.41	26.581
592.74	26.330
593.08	26.016
593.41	25.910
593.75	25.640
594.08	25.243
594.41	26.193
594.75	25.952
595.08	25.698
595.42	25.779
595.75	25.605
596.09	25.535
596.42	26.483
596.75	26.340
597.09	26.320
597.42	26.054
597.75	26.434
598.09	25.696
598.42	26.203
598.76	26.024
599.09	25.428
599.42	25.946
599.76	25.695
600.09	25.574
600.42	25.785
600.76	25.464
601.09	25.647
601.42	26.294
601.76	25.541
602.09	25.850
602.42	25.995
602.76	26.642
603.09	26.121
603.42	26.005
603.76	25.838
604.09	25.514
604.42	26.254
604.76	25.643
605.09	26.606
605.42	25.609
605.75	26.076
606.09	25.132
606.42	25.950
606.75	26.006
607.09	26.036
607.42	25.032
607.75	25.443
608.08	25.488
608.42	25.773
608.75	26.510
609.08	25.439
609.41	25.369
609.75	26.346
610.08	26.249
610.41	25.838
610.74	26.916
611.07	26.877
611.41	26.153
611.74	26.647
612.07	27.070
612.40	26.023
612.73	26.632
613.07	27.101
613.40	26.119
613.73	26.009
614.06	26.882
614.39	26.167
614.72	27.053
615.06	27.206
615.39	25.318
615.72	25.920
616.05	25.944
616.38	26.904
616.71	27.375
617.05	27.444
617.38	26.398
617.71	26.847
618.04	27.103
618.37	26.434
618.70	28.002
619.03	27.434
619.36	27.088
619.69	27.113
620.03	27.610
620.36	27.540
620.69	28.425
621.02	26.917
621.35	27.486
621.68	27.336
622.01	27.012
622.34	28.442
622.67	27.757
623.00	27.439
623.33	26.733
623.66	26.948
623.99	28.424
624.32	28.459
624.65	27.895
624.99	26.487
625.32	27.227
625.65	27.573
625.98	28.286
626.31	26.827
626.64	28.163
626.97	28.429
627.30	26.850
627.63	28.548
627.96	29.437
628.29	27.647
628.62	28.179
628.95	29.434
629.28	28.832
629.61	29.148
629.94	29.905
630.26	28.027
630.59	27.931
630.92	29.310
