SpectraSuite Data File
++++++++++++++++++++++++++++++++++++
Date: Wed May 13 16:19:44 PDT 2015
User: schluterlab
Dark Spectrum Present: Yes
Reference Spectrum Present: Yes
Number of Sampled Component Spectra: 1
Spectrometers: USB2E3373
Integration Time (usec): 3000 (USB2E3373)
Spectra Averaged: 3 (USB2E3373)
Boxcar Smoothing: 0 (USB2E3373)
Correct for Electrical Dark: No (USB2E3373)
Strobe/Lamp Enabled: No (USB2E3373)
Correct for Detector Non-linearity: No (USB2E3373)
Correct for Stray Light: No (USB2E3373)
Number of Pixels in Processed Spectrum: 2048
>>>>>Begin Processed Spectral Data<<<<<
178.53	0.000
178.91	-1350.000
179.29	-1125.000
179.67	-150.000
180.04	-925.000
180.42	2150.000
180.80	780.000
181.18	-925.000
181.56	585.714
181.94	0.000
182.31	-557.143
182.69	1166.667
183.07	-587.500
183.45	-377.778
183.83	472.727
184.20	-340.000
184.58	2000.000
184.96	4800.000
185.34	-880.000
185.72	-500.000
186.09	-2100.000
186.47	2500.000
186.85	1650.000
187.23	4700.000
187.61	-1466.667
187.98	1100.000
188.36	490.909
188.74	427.273
189.12	-880.000
189.49	490.000
189.87	-3300.000
190.25	-1050.000
190.63	400.000
191.00	369.231
191.38	666.667
191.76	-900.000
192.14	1350.000
192.51	525.000
192.89	850.000
193.27	512.500
193.65	-925.000
194.02	490.000
194.40	700.000
194.78	470.000
195.15	500.000
195.53	520.000
195.91	-1850.000
196.29	275.000
196.66	294.737
197.04	-270.000
197.42	0.000
197.79	530.000
198.17	-3500.000
198.55	528.571
198.92	525.000
199.30	660.000
199.68	0.000
200.05	227.778
200.43	700.000
200.81	4600.000
201.18	1266.667
201.56	-1300.000
201.94	522.222
202.31	511.111
202.69	300.000
203.07	410.000
203.44	0.000
203.82	850.000
204.19	600.000
204.57	392.857
204.95	612.500
205.32	1400.000
205.70	445.455
206.08	400.000
206.45	2600.000
206.83	306.250
207.20	800.000
207.58	500.000
207.96	344.444
208.33	550.000
208.71	-650.000
209.08	671.429
209.46	522.222
209.84	418.182
210.21	-1233.333
210.59	1125.000
210.96	-412.500
211.34	1950.000
211.71	450.000
212.09	616.667
212.46	0.000
212.84	1200.000
213.22	1200.000
213.59	-4500.000
213.97	750.000
214.34	671.429
214.72	445.455
215.09	780.000
215.47	-1950.000
215.84	-2350.000
216.22	1166.667
216.59	357.143
216.97	1225.000
217.34	372.727
217.72	-683.333
218.09	0.000
218.47	-4700.000
218.84	533.333
219.22	571.429
219.59	1700.000
219.97	-457.143
220.34	860.000
220.72	-1633.333
221.09	421.429
221.47	1050.000
221.84	-800.000
222.22	0.000
222.59	1175.000
222.97	-2100.000
223.34	980.000
223.72	376.923
224.09	700.000
224.46	1750.000
224.84	-3600.000
225.21	-800.000
225.59	-4200.000
225.96	550.000
226.34	265.000
226.71	1750.000
227.08	662.500
227.46	520.000
227.83	-925.000
228.21	-2200.000
228.58	633.333
228.95	-2250.000
229.33	-2100.000
229.70	1600.000
230.08	685.714
230.45	-480.000
230.82	366.667
231.20	766.667
231.57	657.143
231.95	366.667
232.32	236.364
232.69	336.364
233.07	414.286
233.44	284.615
233.81	-1300.000
234.19	221.053
234.56	383.333
234.93	316.667
235.31	400.000
235.68	253.846
236.05	271.429
236.43	136.364
236.80	215.789
237.17	3600.000
237.55	209.524
237.92	182.143
238.29	200.000
238.67	151.613
239.04	148.276
239.41	108.333
239.79	100.000
240.16	111.905
240.53	97.727
240.91	86.275
241.28	94.000
241.65	66.000
242.02	72.464
242.40	59.677
242.77	65.000
243.14	47.312
243.51	43.820
243.89	50.588
244.26	42.222
244.63	50.538
245.00	36.170
245.38	44.554
245.75	38.318
246.12	31.193
246.49	39.416
246.87	45.600
247.24	40.769
247.61	32.857
247.98	30.719
248.36	29.730
248.73	23.567
249.10	28.025
249.47	25.424
249.84	31.016
250.22	27.807
250.59	26.627
250.96	25.758
251.33	26.066
251.70	25.248
252.08	22.857
252.45	21.525
252.82	17.391
253.19	18.723
253.56	19.608
253.94	21.162
254.31	24.609
254.68	22.692
255.05	16.605
255.42	13.415
255.79	18.750
256.16	19.856
256.54	12.367
256.91	19.929
257.28	14.748
257.65	21.122
258.02	18.944
258.39	15.142
258.76	16.388
259.14	15.774
259.51	15.805
259.88	14.596
260.25	18.127
260.62	14.740
260.99	16.149
261.36	17.718
261.73	14.613
262.10	14.244
262.47	17.746
262.85	14.206
263.22	11.966
263.59	13.960
263.96	12.363
264.33	17.232
264.70	14.211
265.07	15.601
265.44	14.899
265.81	10.706
266.18	13.317
266.55	12.439
266.92	13.022
267.29	13.194
267.66	12.615
268.03	13.636
268.40	14.252
268.77	12.649
269.14	11.937
269.51	16.479
269.88	12.821
270.25	13.093
270.62	13.258
270.99	14.194
271.36	15.021
271.73	11.682
272.10	12.826
272.47	11.828
272.84	13.420
273.21	12.579
273.58	9.389
273.95	10.692
274.32	11.777
274.69	13.276
275.06	11.220
275.43	12.128
275.80	11.022
276.17	11.202
276.54	15.177
276.91	11.067
277.28	9.766
277.65	13.153
278.02	12.008
278.39	13.477
278.76	12.364
279.13	11.887
279.50	11.359
279.87	11.355
280.23	10.778
280.60	12.379
280.97	11.275
281.34	10.265
281.71	10.909
282.08	11.324
282.45	9.818
282.82	12.789
283.19	8.200
283.56	10.000
283.92	10.660
284.29	9.877
284.66	8.893
285.03	10.850
285.40	9.859
285.77	9.091
286.14	9.326
286.51	10.833
286.87	9.915
287.24	11.726
287.61	9.149
287.98	10.390
288.35	10.301
288.72	8.723
289.08	11.268
289.45	8.731
289.82	10.569
290.19	9.576
290.56	7.351
290.93	8.912
291.29	8.129
291.66	9.292
292.03	11.773
292.40	9.985
292.77	9.172
293.13	8.507
293.50	8.309
293.87	8.741
294.24	8.296
294.60	7.278
294.97	8.866
295.34	10.578
295.71	9.801
296.08	6.553
296.44	8.528
296.81	8.983
297.18	9.350
297.55	6.860
297.91	8.443
298.28	10.174
298.65	9.269
299.02	9.881
299.38	8.101
299.75	6.199
300.12	7.024
300.48	8.000
300.85	8.138
301.22	6.369
301.59	6.944
301.95	8.312
302.32	7.959
302.69	10.036
303.05	7.758
303.42	7.654
303.79	8.494
304.15	6.876
304.52	7.416
304.89	7.085
305.25	6.148
305.62	8.720
305.99	7.674
306.35	7.159
306.72	7.399
307.09	7.214
307.45	8.671
307.82	6.585
308.19	8.720
308.55	8.306
308.92	7.841
309.29	7.920
309.65	7.529
310.02	8.668
310.38	7.742
310.75	6.969
311.12	7.369
311.48	6.897
311.85	8.071
312.22	7.804
312.58	7.069
312.95	8.448
313.31	7.282
313.68	8.004
314.05	9.961
314.41	8.342
314.78	7.654
315.14	7.646
315.51	8.342
315.87	9.010
316.24	7.547
316.61	8.090
316.97	7.534
317.34	7.045
317.70	7.744
318.07	7.892
318.43	7.339
318.80	9.560
319.16	7.533
319.53	8.349
319.89	7.905
320.26	8.600
320.62	9.226
320.99	9.596
321.35	8.687
321.72	9.138
322.08	9.181
322.45	9.154
322.81	9.109
323.18	9.345
323.54	8.905
323.91	8.962
324.27	9.082
324.64	8.015
325.00	8.386
325.37	8.644
325.73	11.041
326.10	9.356
326.46	7.796
326.83	9.318
327.19	9.906
327.56	7.927
327.92	9.274
328.29	10.293
328.65	9.761
329.01	9.838
329.38	8.233
329.74	8.864
330.11	8.200
330.47	9.458
330.84	10.478
331.20	9.107
331.56	9.633
331.93	9.074
332.29	9.228
332.66	9.558
333.02	9.689
333.38	10.027
333.75	9.537
334.11	10.231
334.48	9.583
334.84	9.926
335.20	9.091
335.57	8.885
335.93	7.768
336.29	9.158
336.66	8.656
337.02	8.235
337.38	9.537
337.75	8.556
338.11	8.953
338.47	8.195
338.84	9.716
339.20	7.890
339.56	9.124
339.93	8.818
340.29	8.514
340.65	8.556
341.02	9.424
341.38	8.541
341.74	8.684
342.11	9.170
342.47	8.811
342.83	8.990
343.20	8.918
343.56	8.677
343.92	8.421
344.28	9.609
344.65	9.114
345.01	8.502
345.37	7.461
345.73	8.714
346.10	8.781
346.46	8.390
346.82	9.226
347.19	8.020
347.55	9.524
347.91	8.981
348.27	8.874
348.63	8.110
349.00	8.981
349.36	8.210
349.72	8.741
350.08	9.157
350.45	8.706
350.81	8.936
351.17	8.671
351.53	9.091
351.89	8.581
352.26	8.761
352.62	8.741
352.98	8.752
353.34	8.628
353.70	7.692
354.07	8.548
354.43	9.286
354.79	8.206
355.15	8.380
355.51	9.832
355.87	8.898
356.24	8.306
356.60	8.661
356.96	8.769
357.32	8.831
357.68	8.661
358.04	9.026
358.40	9.818
358.77	9.077
359.13	8.603
359.49	8.706
359.85	8.016
360.21	8.852
360.57	9.183
360.93	9.308
361.29	8.919
361.66	7.585
362.02	9.627
362.38	9.202
362.74	9.077
363.10	7.920
363.46	9.024
363.82	8.390
364.18	8.737
364.54	9.510
364.90	9.348
365.26	8.456
365.62	8.473
365.98	7.816
366.35	7.736
366.71	8.821
367.07	7.939
367.43	8.491
367.79	9.279
368.15	9.555
368.51	8.648
368.87	9.136
369.23	8.925
369.59	8.762
369.95	8.529
370.31	8.547
370.67	8.406
371.03	9.663
371.39	9.548
371.75	8.529
372.11	9.246
372.47	9.604
372.83	10.159
373.19	8.382
373.55	8.647
373.91	9.573
374.27	9.416
374.63	8.800
374.99	8.828
375.35	9.351
375.71	9.253
376.07	10.151
376.42	9.697
376.78	9.410
377.14	9.159
377.50	10.000
377.86	9.043
378.22	9.166
378.58	8.459
378.94	9.742
379.30	8.715
379.66	10.533
380.02	9.889
380.38	8.440
380.74	9.664
381.09	9.597
381.45	9.650
381.81	10.995
382.17	10.127
382.53	8.931
382.89	10.988
383.25	9.694
383.61	9.665
383.97	9.506
384.32	10.231
384.68	9.913
385.04	10.203
385.40	9.969
385.76	10.319
386.12	10.039
386.48	11.139
386.83	10.904
387.19	10.451
387.55	10.575
387.91	10.459
388.27	9.381
388.62	11.186
388.98	10.074
389.34	11.014
389.70	10.546
390.06	10.837
390.42	10.506
390.77	10.878
391.13	10.913
391.49	10.279
391.85	10.821
392.20	10.410
392.56	10.227
392.92	10.359
393.28	9.882
393.64	10.612
393.99	11.301
394.35	10.794
394.71	11.104
395.07	10.654
395.42	10.445
395.78	11.069
396.14	11.421
396.50	11.967
396.85	11.252
397.21	10.419
397.57	10.911
397.92	11.118
398.28	10.202
398.64	10.454
399.00	11.416
399.35	10.491
399.71	10.880
400.07	10.645
400.42	11.227
400.78	11.460
401.14	10.610
401.49	11.463
401.85	10.405
402.21	10.599
402.57	10.734
402.92	10.340
403.28	11.056
403.63	11.696
403.99	10.446
404.35	11.152
404.70	10.612
405.06	11.299
405.42	10.356
405.77	10.629
406.13	10.722
406.49	10.763
406.84	11.636
407.20	10.816
407.55	10.785
407.91	10.867
408.27	10.466
408.62	10.897
408.98	10.662
409.34	10.763
409.69	11.419
410.05	11.276
410.40	10.336
410.76	11.051
411.11	10.676
411.47	10.351
411.83	10.996
412.18	11.255
412.54	11.208
412.89	12.410
413.25	11.216
413.60	11.118
413.96	11.233
414.31	11.118
414.67	10.710
415.03	11.325
415.38	12.049
415.74	10.611
416.09	12.149
416.45	11.312
416.80	11.236
417.16	11.997
417.51	11.612
417.87	10.597
418.22	11.356
418.58	11.943
418.93	10.811
419.29	10.503
419.64	12.091
420.00	10.976
420.35	11.246
420.71	11.297
421.06	11.277
421.42	11.520
421.77	10.930
422.12	10.556
422.48	10.038
422.83	11.124
423.19	11.492
423.54	10.737
423.90	11.594
424.25	10.664
424.61	10.893
424.96	10.554
425.31	11.185
425.67	10.562
426.02	11.314
426.38	10.379
426.73	11.176
427.09	10.638
427.44	10.868
427.79	10.811
428.15	11.726
428.50	11.469
428.85	11.561
429.21	11.044
429.56	10.886
429.92	10.518
430.27	10.973
430.62	10.753
430.98	10.794
431.33	10.773
431.68	10.890
432.04	10.596
432.39	11.365
432.74	10.952
433.10	10.809
433.45	11.079
433.80	10.310
434.16	10.791
434.51	10.842
434.86	11.117
435.22	10.951
435.57	10.638
435.92	11.059
436.28	10.439
436.63	11.755
436.98	10.876
437.34	11.151
437.69	11.494
438.04	10.624
438.39	11.582
438.75	10.691
439.10	11.061
439.45	11.275
439.81	11.299
440.16	9.994
440.51	11.306
440.86	11.754
441.22	10.901
441.57	11.146
441.92	10.645
442.27	11.195
442.63	9.847
442.98	11.268
443.33	10.978
443.68	10.583
444.03	10.688
444.39	10.370
444.74	11.093
445.09	11.321
445.44	10.716
445.79	10.787
446.15	11.593
446.50	11.255
446.85	10.329
447.20	10.454
447.55	10.944
447.91	10.811
448.26	10.907
448.61	11.419
448.96	11.739
449.31	11.192
449.66	11.536
450.02	10.474
450.37	11.451
450.72	11.224
451.07	10.360
451.42	10.517
451.77	10.570
452.12	11.490
452.47	11.754
452.83	11.422
453.18	10.575
453.53	11.503
453.88	11.045
454.23	11.715
454.58	11.629
454.93	11.570
455.28	11.409
455.63	11.104
455.98	11.488
456.34	10.992
456.69	10.708
457.04	11.331
457.39	11.514
457.74	10.737
458.09	11.386
458.44	10.661
458.79	10.358
459.14	11.625
459.49	10.917
459.84	11.579
460.19	10.077
460.54	10.590
460.89	11.135
461.24	11.415
461.59	11.737
461.94	10.419
462.29	11.395
462.64	11.104
462.99	11.256
463.34	11.800
463.69	11.257
464.04	10.841
464.39	11.246
464.74	10.458
465.09	11.158
465.44	10.748
465.79	10.235
466.14	10.892
466.49	10.901
466.84	10.917
467.19	11.648
467.54	11.812
467.89	10.804
468.24	11.227
468.59	11.661
468.94	11.240
469.29	10.797
469.64	12.584
469.99	11.908
470.34	11.625
470.68	11.422
471.03	11.905
471.38	11.814
471.73	11.392
472.08	11.908
472.43	11.558
472.78	10.731
473.13	10.847
473.48	11.548
473.83	10.976
474.17	10.641
474.52	11.911
474.87	10.975
475.22	11.259
475.57	10.317
475.92	10.781
476.27	10.767
476.61	11.418
476.96	10.775
477.31	10.832
477.66	10.832
478.01	10.925
478.36	11.052
478.70	10.540
479.05	11.395
479.40	10.747
479.75	10.625
480.10	10.338
480.45	10.519
480.79	10.033
481.14	10.616
481.49	10.584
481.84	10.745
482.19	10.541
482.53	10.459
482.88	10.982
483.23	10.654
483.58	10.464
483.92	10.637
484.27	10.240
484.62	10.000
484.97	10.367
485.31	10.479
485.66	9.022
486.01	8.456
486.36	8.282
486.70	8.236
487.05	8.773
487.40	8.810
487.75	9.200
488.09	9.463
488.44	9.873
488.79	9.946
489.13	10.084
489.48	9.951
489.83	9.668
490.17	10.478
490.52	10.275
490.87	10.131
491.22	10.323
491.56	9.704
491.91	10.423
492.26	10.243
492.60	10.323
492.95	10.103
493.30	10.187
493.64	9.706
493.99	9.935
494.34	10.870
494.68	10.394
495.03	9.821
495.37	10.470
495.72	10.331
496.07	10.441
496.41	10.088
496.76	10.070
497.11	10.131
497.45	9.176
497.80	10.269
498.14	10.145
498.49	10.146
498.84	10.307
499.18	9.810
499.53	10.256
499.87	10.158
500.22	10.127
500.56	10.534
500.91	10.000
501.26	10.194
501.60	10.441
501.95	9.899
502.29	10.684
502.64	10.009
502.98	9.584
503.33	9.598
503.67	9.652
504.02	10.009
504.36	10.154
504.71	10.650
505.06	10.554
505.40	10.452
505.75	9.981
506.09	9.621
506.44	9.916
506.78	9.888
507.13	10.449
507.47	10.354
507.82	10.993
508.16	10.537
508.51	10.452
508.85	9.682
509.19	10.816
509.54	11.071
509.88	10.149
510.23	10.848
510.57	10.733
510.92	10.150
511.26	10.740
511.61	10.581
511.95	9.551
512.30	10.233
512.64	9.995
512.98	10.932
513.33	11.563
513.67	10.566
514.02	10.335
514.36	10.486
514.70	10.957
515.05	9.872
515.39	10.768
515.74	10.867
516.08	11.627
516.42	10.877
516.77	11.538
517.11	10.211
517.46	11.512
517.80	10.859
518.14	10.539
518.49	11.260
518.83	10.170
519.17	10.624
519.52	11.205
519.86	11.238
520.20	11.098
520.55	11.191
520.89	11.253
521.23	11.821
521.58	11.465
521.92	10.778
522.26	11.409
522.61	11.589
522.95	11.479
523.29	10.164
523.64	11.220
523.98	10.290
524.32	11.460
524.66	11.846
525.01	10.478
525.35	10.781
525.69	11.145
526.04	10.343
526.38	10.860
526.72	11.043
527.06	11.551
527.41	9.839
527.75	11.125
528.09	11.368
528.43	10.707
528.78	10.817
529.12	10.788
529.46	11.819
529.80	11.572
530.15	11.526
530.49	10.892
530.83	11.139
531.17	11.619
531.51	11.803
531.86	11.097
532.20	11.930
532.54	11.531
532.88	12.003
533.22	10.493
533.57	11.296
533.91	10.897
534.25	10.875
534.59	10.616
534.93	11.124
535.27	10.742
535.62	11.538
535.96	11.425
536.30	11.380
536.64	11.912
536.98	11.015
537.32	11.257
537.66	11.667
538.01	11.192
538.35	11.571
538.69	11.742
539.03	10.201
539.37	10.160
539.71	9.462
540.05	10.523
540.39	11.229
540.73	10.737
541.07	12.395
541.42	10.959
541.76	11.742
542.10	10.608
542.44	10.795
542.78	11.397
543.12	11.260
543.46	10.557
543.80	11.646
544.14	10.077
544.48	11.048
544.82	10.520
545.16	11.516
545.50	10.411
545.84	9.543
546.18	10.909
546.52	11.425
546.86	11.203
547.20	11.126
547.54	11.089
547.88	11.607
548.22	11.083
548.56	11.447
548.90	10.243
549.24	10.707
549.58	10.982
549.92	11.058
550.26	11.222
550.60	10.996
550.94	10.423
551.28	10.315
551.62	11.718
551.96	10.877
552.30	11.468
552.64	10.953
552.98	11.186
553.32	11.800
553.66	11.929
554.00	11.256
554.34	10.076
554.68	12.232
555.02	10.649
555.36	11.413
555.69	10.758
556.03	10.902
556.37	11.596
556.71	10.641
557.05	10.014
557.39	10.847
557.73	11.150
558.07	11.240
558.41	11.360
558.75	11.242
559.08	12.155
559.42	10.582
559.76	11.618
560.10	11.706
560.44	11.251
560.78	9.980
561.12	10.950
561.45	11.473
561.79	10.415
562.13	10.396
562.47	11.680
562.81	10.739
563.15	11.304
563.48	11.008
563.82	10.502
564.16	10.661
564.50	9.635
564.84	10.746
565.17	10.039
565.51	10.863
565.85	10.660
566.19	11.209
566.52	10.386
566.86	10.307
567.20	10.495
567.54	10.217
567.88	9.886
568.21	10.952
568.55	9.403
568.89	9.047
569.23	9.002
569.56	9.352
569.90	8.830
570.24	8.540
570.57	8.739
570.91	8.436
571.25	8.740
571.59	8.542
571.92	8.497
572.26	8.463
572.60	8.378
572.93	8.756
573.27	8.814
573.61	8.766
573.95	8.191
574.28	8.116
574.62	8.358
574.96	7.981
575.29	7.759
575.63	8.308
575.97	7.967
576.30	8.099
576.64	8.137
576.98	8.070
577.31	7.602
577.65	7.752
577.98	7.760
578.32	7.585
578.66	7.987
578.99	7.806
579.33	7.771
579.67	7.760
580.00	8.032
580.34	8.045
580.67	7.918
581.01	8.230
581.35	7.670
581.68	7.402
582.02	7.242
582.35	7.450
582.69	7.826
583.02	7.491
583.36	8.185
583.70	8.167
584.03	8.150
584.37	8.748
584.70	7.941
585.04	8.293
585.37	8.108
585.71	8.271
586.04	8.287
586.38	7.837
586.72	8.230
587.05	8.313
587.39	7.863
587.72	8.142
588.06	8.111
588.39	8.752
588.73	8.360
589.06	8.881
589.40	8.788
589.73	8.729
590.07	9.004
590.40	8.148
590.73	8.665
591.07	9.280
591.40	9.911
591.74	9.221
592.07	8.901
592.41	9.301
592.74	8.502
593.08	8.361
593.41	8.478
593.75	7.901
594.08	8.314
594.41	9.332
594.75	8.207
595.08	8.697
595.42	8.441
595.75	8.440
596.09	8.975
596.42	9.273
596.75	8.653
597.09	9.437
597.42	8.516
597.75	8.624
598.09	8.957
598.42	8.677
598.76	8.350
599.09	8.514
599.42	8.079
599.76	8.748
600.09	7.905
600.42	8.510
600.76	8.500
601.09	8.962
601.42	8.409
601.76	8.273
602.09	8.498
602.42	9.275
602.76	9.109
603.09	9.245
603.42	8.708
603.76	8.384
604.09	8.492
604.42	8.398
604.76	9.110
605.09	8.781
605.42	8.893
605.75	9.230
606.09	8.337
606.42	8.418
606.75	8.917
607.09	9.167
607.42	8.644
607.75	8.692
608.08	8.467
608.42	9.009
608.75	9.062
609.08	8.094
609.41	9.472
609.75	8.576
610.08	9.614
610.41	8.566
610.74	8.893
611.07	8.597
611.41	9.666
611.74	9.452
612.07	9.420
612.40	9.549
612.73	9.579
613.07	9.483
613.40	9.742
613.73	9.649
614.06	9.086
614.39	9.229
614.72	9.316
615.06	10.084
615.39	9.713
615.72	9.560
616.05	8.931
616.38	9.672
616.71	9.620
617.05	9.894
617.38	9.381
617.71	9.249
618.04	9.135
618.37	9.403
618.70	10.392
619.03	10.855
619.36	10.115
619.69	9.930
620.03	10.852
620.36	10.294
620.69	10.685
621.02	10.841
621.35	9.475
621.68	10.514
622.01	10.449
622.34	10.666
622.67	10.266
623.00	10.492
623.33	10.079
623.66	10.436
623.99	9.720
624.32	9.629
624.65	9.816
624.99	10.127
625.32	9.486
625.65	10.819
625.98	10.300
626.31	11.353
626.64	11.673
626.97	10.308
627.30	9.892
627.63	11.731
627.96	11.438
628.29	10.761
628.62	11.619
628.95	12.642
629.28	11.953
629.61	12.282
629.94	11.905
630.26	10.582
630.59	10.963
630.92	12.165
631.25	11.550
631.58	10.811
631.91	10.649
632.24	11.392
632.57	12.067
632.90	11.842
633.23	12.864
633.56	12.090
633.89	13.024
634.22	12.145
634.55	13.254
634.88	12.575
635.20	13.978
635.53	13.855
635.86	11.139
636.19	12.235
636.52	11.534
636.85	13.517
637.18	11.636
637.51	13.002
637.83	9.494
638.16	13.683
638.49	12.343
638.82	13.654
639.15	12.750
639.48	14.838
639.81	13.673
640.13	14.453
640.46	15.302
640.79	13.606
641.12	12.242
