SpectraSuite Data File
++++++++++++++++++++++++++++++++++++
Date: Wed May 13 16:32:24 PDT 2015
User: schluterlab
Dark Spectrum Present: Yes
Reference Spectrum Present: Yes
Number of Sampled Component Spectra: 1
Spectrometers: USB2E3373
Integration Time (usec): 3000 (USB2E3373)
Spectra Averaged: 3 (USB2E3373)
Boxcar Smoothing: 0 (USB2E3373)
Correct for Electrical Dark: No (USB2E3373)
Strobe/Lamp Enabled: No (USB2E3373)
Correct for Detector Non-linearity: No (USB2E3373)
Correct for Stray Light: No (USB2E3373)
Number of Pixels in Processed Spectrum: 2048
>>>>>Begin Processed Spectral Data<<<<<
178.53	0.000
178.91	-1075.000
179.29	-1150.000
179.67	-200.000
180.04	-925.000
180.42	2350.000
180.80	1060.000
181.18	-975.000
181.56	642.857
181.94	0.000
182.31	-628.571
182.69	1500.000
183.07	-437.500
183.45	-455.556
183.83	536.364
184.20	-420.000
184.58	2000.000
184.96	5300.000
185.34	-680.000
185.72	-362.500
186.09	-2250.000
186.47	2400.000
186.85	2150.000
187.23	4700.000
187.61	-1433.333
187.98	1525.000
188.36	509.091
188.74	609.091
189.12	-840.000
189.49	450.000
189.87	-3700.000
190.25	-900.000
190.63	392.857
191.00	392.308
191.38	700.000
191.76	-850.000
192.14	1200.000
192.51	562.500
192.89	1050.000
193.27	575.000
193.65	-1100.000
194.02	440.000
194.40	760.000
194.78	440.000
195.15	508.333
195.53	550.000
195.91	-2650.000
196.29	306.250
196.66	305.263
197.04	-390.000
197.42	0.000
197.79	610.000
198.17	-5400.000
198.55	828.571
198.92	625.000
199.30	760.000
199.68	0.000
200.05	316.667
200.43	771.429
200.81	4800.000
201.18	1500.000
201.56	-1500.000
201.94	466.667
202.31	600.000
202.69	383.333
203.07	520.000
203.44	0.000
203.82	1325.000
204.19	728.571
204.57	442.857
204.95	575.000
205.32	1700.000
205.70	454.545
206.08	307.143
206.45	2450.000
206.83	325.000
207.20	916.667
207.58	620.000
207.96	366.667
208.33	625.000
208.71	-666.667
209.08	628.571
209.46	488.889
209.84	545.455
210.21	-1433.333
210.59	1375.000
210.96	-500.000
211.34	2600.000
211.71	630.000
212.09	683.333
212.46	0.000
212.84	1766.667
213.22	1250.000
213.59	-3800.000
213.97	833.333
214.34	814.286
214.72	581.818
215.09	1000.000
215.47	-2050.000
215.84	-2350.000
216.22	1900.000
216.59	407.143
216.97	1250.000
217.34	436.364
217.72	-666.667
218.09	0.000
218.47	-4800.000
218.84	577.778
219.22	785.714
219.59	1500.000
219.97	-542.857
220.34	760.000
220.72	-1800.000
221.09	471.429
221.47	1375.000
221.84	-783.333
222.22	0.000
222.59	1525.000
222.97	-2650.000
223.34	1100.000
223.72	415.385
224.09	1060.000
224.46	1750.000
224.84	-5100.000
225.21	-860.000
225.59	-4300.000
225.96	460.000
226.34	285.000
226.71	2550.000
227.08	550.000
227.46	580.000
227.83	-925.000
228.21	-2100.000
228.58	655.556
228.95	-2850.000
229.33	-1800.000
229.70	1733.333
230.08	671.429
230.45	-860.000
230.82	416.667
231.20	783.333
231.57	614.286
231.95	433.333
232.32	245.455
232.69	400.000
233.07	600.000
233.44	361.538
233.81	-1633.333
234.19	363.158
234.56	433.333
234.93	416.667
235.31	418.182
235.68	338.462
236.05	357.143
236.43	175.758
236.80	294.737
237.17	4000.000
237.55	276.190
237.92	217.857
238.29	261.905
238.67	180.645
239.04	213.793
239.41	163.889
239.79	121.739
240.16	166.667
240.53	159.091
240.91	105.882
241.28	106.000
241.65	128.000
242.02	102.899
242.40	109.677
242.77	106.667
243.14	86.022
243.51	101.124
243.89	84.706
244.26	90.000
244.63	81.720
245.00	89.362
245.38	74.257
245.75	78.505
246.12	66.972
246.49	75.182
246.87	88.800
247.24	77.692
247.61	65.000
247.98	64.052
248.36	65.541
248.73	62.420
249.10	70.701
249.47	64.407
249.84	60.963
250.22	55.615
250.59	58.580
250.96	62.121
251.33	53.555
251.70	65.347
252.08	57.619
252.45	51.570
252.82	56.087
253.19	57.447
253.56	48.627
253.94	50.207
254.31	56.250
254.68	54.231
255.05	50.185
255.42	57.724
255.79	52.941
256.16	51.986
256.54	51.943
256.91	50.178
257.28	49.640
257.65	48.845
258.02	50.311
258.39	46.372
258.76	47.826
259.14	49.702
259.51	44.985
259.88	44.410
260.25	50.755
260.62	47.688
260.99	45.031
261.36	49.249
261.73	46.418
262.10	47.384
262.47	47.606
262.85	44.290
263.22	43.590
263.59	47.293
263.96	48.352
264.33	44.125
264.70	45.263
265.07	45.524
265.44	45.202
265.81	39.903
266.18	47.236
266.55	46.341
266.92	43.980
267.29	45.602
267.66	43.119
268.03	43.182
268.40	43.224
268.77	43.437
269.14	43.468
269.51	44.470
269.88	45.921
270.25	41.084
270.62	44.494
270.99	42.796
271.36	43.991
271.73	44.159
272.10	41.522
272.47	44.086
272.84	42.424
273.21	42.767
273.58	41.921
273.95	41.509
274.32	39.669
274.69	42.398
275.06	42.717
275.43	42.340
275.80	41.884
276.17	40.122
276.54	44.491
276.91	42.490
277.28	40.820
277.65	39.845
278.02	40.994
278.39	41.016
278.76	38.545
279.13	42.642
279.50	40.596
279.87	40.837
280.23	40.719
280.60	37.718
280.97	39.926
281.34	41.593
281.71	41.091
282.08	41.459
282.45	39.636
282.82	40.675
283.19	38.503
283.56	38.947
283.92	39.763
284.29	39.683
284.66	40.472
285.03	39.783
285.40	39.613
285.77	38.721
286.14	38.515
286.51	40.333
286.87	39.658
287.24	37.785
287.61	36.597
287.98	38.149
288.35	36.292
288.72	36.760
289.08	35.524
289.45	39.044
289.82	36.748
290.19	36.107
290.56	34.456
290.93	36.405
291.29	36.350
291.66	36.873
292.03	37.936
292.40	36.123
292.77	33.284
293.13	36.866
293.50	34.257
293.87	37.037
294.24	34.519
294.60	34.061
294.97	33.576
295.34	36.530
295.71	34.801
296.08	32.336
296.44	34.250
296.81	34.346
297.18	34.959
297.55	34.037
297.91	34.169
298.28	34.806
298.65	33.943
299.02	36.364
299.38	34.130
299.75	32.345
300.12	33.333
300.48	34.500
300.85	32.799
301.22	34.777
301.59	33.333
301.95	33.123
302.32	32.478
302.69	34.528
303.05	32.121
303.42	34.321
303.79	33.182
304.15	32.517
304.52	32.793
304.89	31.707
305.25	33.063
305.62	34.088
305.99	33.884
306.35	34.004
306.72	35.426
307.09	33.407
307.45	35.023
307.82	33.259
308.19	33.775
308.55	35.383
308.92	34.694
309.29	33.580
309.65	33.828
310.02	33.298
310.38	33.978
310.75	35.269
311.12	34.596
311.48	34.796
311.85	36.478
312.22	35.068
312.58	35.655
312.95	36.853
313.31	35.146
313.68	36.486
314.05	38.955
314.41	36.583
314.78	37.563
315.14	36.743
315.51	36.354
315.87	37.228
316.24	35.948
316.61	37.329
316.97	38.356
317.34	35.421
317.70	39.101
318.07	38.691
318.43	40.020
318.80	40.206
319.16	39.171
319.53	38.931
319.89	40.000
320.26	41.000
320.62	40.377
320.99	42.222
321.35	40.000
321.72	43.224
322.08	43.040
322.45	44.577
322.81	43.702
323.18	45.472
323.54	44.434
323.91	45.377
324.27	47.323
324.64	46.785
325.00	46.979
325.37	48.954
325.73	50.180
326.10	50.309
326.46	49.821
326.83	50.302
327.19	50.897
327.56	51.655
327.92	52.931
328.29	54.392
328.65	53.775
329.01	52.527
329.38	55.967
329.74	53.555
330.11	55.137
330.47	55.005
330.84	55.607
331.20	55.009
331.56	55.138
331.93	56.111
332.29	56.078
332.66	54.336
333.02	56.399
333.38	56.007
333.75	56.684
334.11	55.160
334.48	56.256
334.84	56.526
335.20	57.455
335.57	55.394
335.93	54.286
336.29	55.678
336.66	55.906
337.02	56.018
337.38	56.389
337.75	54.724
338.11	55.953
338.47	56.262
338.84	55.729
339.20	56.147
339.56	57.664
339.93	55.909
340.29	55.616
340.65	55.526
341.02	54.887
341.38	57.206
341.74	55.000
342.11	55.633
342.47	55.330
342.83	54.623
343.20	55.411
343.56	53.665
343.92	56.667
344.28	55.442
344.65	55.976
345.01	55.387
345.37	54.117
345.73	54.738
346.10	54.390
346.46	54.068
346.82	54.613
347.19	54.637
347.55	53.530
347.91	54.531
348.27	56.122
348.63	54.682
349.00	53.883
349.36	56.732
349.72	54.050
350.08	53.971
350.45	56.469
350.81	54.509
351.17	54.781
351.53	54.627
351.89	54.043
352.26	54.854
352.62	53.889
352.98	54.700
353.34	54.889
353.70	54.910
354.07	54.113
354.43	54.286
354.79	54.224
355.15	55.227
355.51	56.675
355.87	55.184
356.24	55.537
356.60	54.050
356.96	56.798
357.32	55.274
357.68	55.354
358.04	54.869
358.40	55.186
358.77	55.634
359.13	54.775
359.49	55.294
359.85	55.714
360.21	54.147
360.57	55.486
360.93	54.615
361.29	55.480
361.66	54.489
362.02	56.567
362.38	55.437
362.74	55.655
363.10	54.626
363.46	54.806
363.82	55.556
364.18	54.626
364.54	56.018
364.90	56.374
365.26	58.382
365.62	57.049
365.98	56.903
366.35	56.519
366.71	56.471
367.07	56.664
367.43	57.547
367.79	57.459
368.15	57.112
368.51	57.267
368.87	58.315
369.23	58.230
369.59	59.450
369.95	57.426
370.31	57.621
370.67	58.188
371.03	58.951
371.39	57.289
371.75	58.162
372.11	56.188
372.47	60.484
372.83	57.781
373.19	59.249
373.55	59.202
373.91	61.046
374.27	58.144
374.63	60.655
374.99	59.110
375.35	58.897
375.71	58.944
376.07	59.465
376.42	61.073
376.78	61.564
377.14	59.430
377.50	60.927
377.86	59.907
378.22	61.631
378.58	59.586
378.94	61.911
379.30	60.941
379.66	62.310
380.02	61.302
380.38	62.052
380.74	62.425
381.09	63.814
381.45	62.815
381.81	63.575
382.17	62.611
382.53	63.082
382.89	64.568
383.25	64.415
383.61	65.551
383.97	64.103
384.32	64.130
384.68	64.994
385.04	64.290
385.40	64.768
385.76	64.189
386.12	65.350
386.48	65.702
386.83	67.736
387.19	65.986
387.55	66.234
387.91	66.868
388.27	65.113
388.62	67.179
388.98	65.909
389.34	68.085
389.70	67.014
390.06	66.350
390.42	68.353
390.77	67.176
391.13	69.879
391.49	68.338
391.85	68.300
392.20	67.571
392.56	68.687
392.92	67.981
393.28	67.633
393.64	67.986
393.99	67.563
394.35	68.672
394.71	67.189
395.07	68.723
395.42	69.716
395.78	69.020
396.14	67.349
396.50	70.301
396.85	70.248
397.21	67.509
397.57	68.444
397.92	69.411
398.28	68.666
398.64	67.324
399.00	68.607
399.35	68.020
399.71	67.650
400.07	69.840
400.42	70.798
400.78	69.662
401.14	70.366
401.49	69.493
401.85	69.087
402.21	69.820
402.57	70.080
402.92	69.924
403.28	70.144
403.63	69.802
403.99	71.592
404.35	69.273
404.70	69.305
405.06	68.725
405.42	70.742
405.77	70.114
406.13	67.269
406.49	68.539
406.84	68.163
407.20	69.444
407.55	70.262
407.91	71.400
408.27	70.262
408.62	68.633
408.98	70.098
409.34	70.541
409.69	71.032
410.05	69.827
410.40	70.214
410.76	69.713
411.11	68.456
411.47	69.393
411.83	70.373
412.18	69.326
412.54	70.859
412.89	69.217
413.25	69.717
413.60	70.290
413.96	68.549
414.31	69.320
414.67	70.406
415.03	71.589
415.38	70.039
415.74	69.453
416.09	70.869
416.45	71.084
416.80	70.522
417.16	70.777
417.51	70.737
417.87	70.970
418.22	71.987
418.58	71.853
418.93	70.147
419.29	71.165
419.64	70.718
420.00	69.939
420.35	70.319
420.71	71.309
421.06	71.122
421.42	70.526
421.77	71.132
422.12	71.870
422.48	70.318
422.83	70.879
423.19	71.492
423.54	71.097
423.90	70.435
424.25	70.854
424.61	70.536
424.96	72.070
425.31	70.155
425.67	69.551
426.02	71.543
426.38	73.199
426.73	71.445
427.09	71.307
427.44	72.685
427.79	71.708
428.15	72.619
428.50	72.791
428.85	72.348
429.21	71.728
429.56	73.924
429.92	72.018
430.27	71.648
430.62	71.019
430.98	70.939
431.33	70.876
431.68	71.990
432.04	70.341
432.39	71.274
432.74	71.933
433.10	73.175
433.45	73.469
433.80	72.727
434.16	72.917
434.51	70.842
434.86	71.893
435.22	72.707
435.57	73.070
435.92	72.791
436.28	75.030
436.63	72.406
436.98	73.440
437.34	72.987
437.69	72.229
438.04	72.232
438.39	73.552
438.75	73.446
439.10	73.687
439.45	73.081
439.81	72.931
440.16	71.485
440.51	73.697
440.86	72.554
441.22	72.080
441.57	72.346
441.92	73.030
442.27	72.121
442.63	71.617
442.98	73.803
443.33	72.500
443.68	72.173
444.03	72.670
444.39	72.833
444.74	74.567
445.09	72.507
445.44	72.717
445.79	72.489
446.15	72.049
446.50	72.321
446.85	73.176
447.20	72.514
447.55	73.143
447.91	74.462
448.26	73.957
448.61	74.505
448.96	74.197
449.31	74.916
449.66	72.876
450.02	73.092
450.37	73.469
450.72	74.224
451.07	73.370
451.42	73.009
451.77	74.281
452.12	73.557
452.47	73.010
452.83	75.350
453.18	73.227
453.53	74.830
453.88	74.011
454.23	74.178
454.58	74.319
454.93	74.317
455.28	74.065
455.63	72.633
455.98	75.357
456.34	73.492
456.69	74.953
457.04	74.861
457.39	73.758
457.74	73.476
458.09	74.698
458.44	74.458
458.79	72.505
459.14	73.476
459.49	74.489
459.84	72.022
460.19	73.718
460.54	72.627
460.89	73.944
461.24	74.013
461.59	74.375
461.94	72.565
462.29	74.659
462.64	72.814
462.99	73.390
463.34	73.933
463.69	74.922
464.04	72.406
464.39	72.058
464.74	73.024
465.09	73.945
465.44	73.241
465.79	72.204
466.14	71.976
466.49	72.080
466.84	73.380
467.19	71.635
467.54	72.688
467.89	72.449
468.24	72.484
468.59	72.833
468.94	72.327
469.29	72.429
469.64	74.565
469.99	74.560
470.34	72.985
470.68	74.425
471.03	72.177
471.38	75.539
471.73	72.885
472.08	75.395
472.43	73.492
472.78	74.128
473.13	72.914
473.48	72.222
473.83	74.268
474.17	72.246
474.52	74.504
474.87	73.205
475.22	73.070
475.57	71.521
475.92	73.765
476.27	71.533
476.61	72.201
476.96	73.557
477.31	72.318
477.66	72.538
478.01	71.040
478.36	72.924
478.70	71.703
479.05	73.216
479.40	72.108
479.75	73.106
480.10	71.869
480.45	71.728
480.79	70.807
481.14	72.945
481.49	71.903
481.84	71.605
482.19	72.058
482.53	71.193
482.88	70.824
483.23	72.150
483.58	71.884
483.92	72.071
484.27	69.325
484.62	72.716
484.97	70.556
485.31	72.568
485.66	71.927
486.01	69.344
486.36	66.001
486.70	64.733
487.05	65.201
487.40	67.390
487.75	67.935
488.09	68.426
488.44	68.779
488.79	70.669
489.13	70.168
489.48	70.432
489.83	70.565
490.17	71.767
490.52	70.018
490.87	70.330
491.22	70.487
491.56	70.296
491.91	71.336
492.26	70.280
492.60	70.553
492.95	69.270
493.30	69.252
493.64	70.275
493.99	70.009
494.34	70.352
494.68	70.101
495.03	69.596
495.37	69.335
495.72	70.419
496.07	70.673
496.41	68.805
496.76	69.437
497.11	68.663
497.45	69.306
497.80	69.194
498.14	69.565
498.49	69.024
498.84	69.655
499.18	69.857
499.53	68.756
499.87	69.199
500.22	68.865
500.56	69.369
500.91	69.471
501.26	67.520
501.60	70.527
501.95	67.278
502.29	70.431
502.64	69.693
502.98	67.321
503.33	68.144
503.67	68.260
504.02	67.399
504.36	68.320
504.71	68.930
505.06	67.807
505.40	68.255
505.75	67.454
506.09	68.270
506.44	70.054
506.78	69.508
507.13	69.914
507.47	69.596
507.82	69.605
508.16	69.200
508.51	70.167
508.85	66.832
509.19	69.490
509.54	68.571
509.88	68.934
510.23	68.843
510.57	69.608
510.92	68.514
511.26	68.191
511.61	68.309
511.95	67.484
512.30	68.399
512.64	69.586
512.98	68.221
513.33	68.255
513.67	68.356
514.02	68.290
514.36	68.214
514.70	67.239
515.05	68.042
515.39	68.480
515.74	69.369
516.08	67.244
516.42	68.424
516.77	68.952
517.11	67.758
517.46	67.889
517.80	68.873
518.14	67.111
518.49	69.545
518.83	68.295
519.17	68.187
519.52	69.100
519.86	68.454
520.20	68.613
520.55	69.001
520.89	69.951
521.23	68.697
521.58	67.887
521.92	68.953
522.26	66.992
522.61	70.530
522.95	68.017
523.29	68.107
523.64	68.354
523.98	69.809
524.32	66.948
524.66	68.370
525.01	67.341
525.35	67.968
525.69	66.133
526.04	66.604
526.38	67.114
526.72	68.221
527.06	67.922
527.41	65.903
527.75	68.167
528.09	68.337
528.43	67.495
528.78	67.548
529.12	66.727
529.46	67.361
529.80	66.894
530.15	66.604
530.49	65.231
530.83	65.823
531.17	67.885
531.51	68.807
531.86	67.613
532.20	67.536
532.54	66.624
532.88	66.945
533.22	66.084
533.57	65.617
533.91	65.081
534.25	65.492
534.59	65.650
534.93	64.961
535.27	65.238
535.62	66.361
535.96	66.729
536.30	65.989
536.64	65.229
536.98	66.755
537.32	65.438
537.66	65.800
538.01	65.701
538.35	65.352
538.69	66.114
539.03	64.457
539.37	63.898
539.71	63.837
540.05	65.098
540.39	66.711
540.73	64.877
541.07	65.282
541.42	66.667
541.76	64.839
542.10	64.424
542.44	65.099
542.78	64.427
543.12	62.828
543.46	64.721
543.80	65.062
544.14	63.350
544.48	63.429
544.82	64.015
545.16	64.281
545.50	63.368
545.84	64.718
546.18	63.838
546.52	64.831
546.86	65.155
547.20	64.531
547.54	63.527
547.88	62.628
548.22	62.578
548.56	62.830
548.90	62.676
549.24	63.704
549.58	64.870
549.92	64.354
550.26	64.986
550.60	64.661
550.94	63.169
551.28	62.911
551.62	63.480
551.96	64.211
552.30	63.345
552.64	63.827
552.98	64.000
553.32	62.980
553.66	63.054
554.00	63.967
554.34	61.767
554.68	64.235
555.02	63.611
555.36	62.491
555.69	61.976
556.03	62.180
556.37	62.074
556.71	61.255
557.05	62.255
557.39	62.281
557.73	63.232
558.07	64.032
558.41	63.748
558.75	63.997
559.08	63.162
559.42	64.021
559.76	63.382
560.10	62.170
560.44	61.635
560.78	61.544
561.12	61.609
561.45	61.278
561.79	62.755
562.13	62.441
562.47	63.525
562.81	64.156
563.15	60.134
563.48	61.737
563.82	62.753
564.16	61.216
564.50	60.872
564.84	60.177
565.17	61.004
565.51	59.936
565.85	60.406
566.19	60.301
566.52	61.558
566.86	58.710
567.20	60.908
567.54	61.016
567.88	58.990
568.21	60.265
568.55	58.797
568.89	59.630
569.23	57.665
569.56	57.449
569.90	57.170
570.24	56.728
570.57	56.987
570.91	55.301
571.25	54.540
571.59	55.052
571.92	54.579
572.26	54.795
572.60	56.096
572.93	54.333
573.27	55.191
573.61	55.388
573.95	55.271
574.28	53.894
574.62	53.790
574.96	53.381
575.29	53.565
575.63	53.430
575.97	53.372
576.30	53.956
576.64	53.677
576.98	53.500
577.31	53.789
577.65	53.464
577.98	52.975
578.32	52.701
578.66	52.285
578.99	53.230
579.33	53.111
579.67	52.274
580.00	53.057
580.34	53.441
580.67	53.132
581.01	52.890
581.35	53.058
581.68	52.780
582.02	51.793
582.35	52.477
582.69	52.492
583.02	52.459
583.36	53.009
583.70	53.197
584.03	53.187
584.37	53.992
584.70	53.527
585.04	52.838
585.37	52.819
585.71	52.702
586.04	53.080
586.38	53.710
586.72	53.853
587.05	52.839
587.39	52.137
587.72	52.358
588.06	53.255
588.39	52.346
588.73	53.183
589.06	54.222
589.40	54.545
589.73	54.241
590.07	53.950
590.40	53.782
590.73	54.411
591.07	54.660
591.40	54.829
591.74	55.887
592.07	54.232
592.41	55.023
592.74	53.296
593.08	53.398
593.41	52.768
593.75	51.843
594.08	51.861
594.41	53.164
594.75	53.715
595.08	52.720
595.42	52.750
595.75	53.205
596.09	53.211
596.42	53.399
596.75	54.833
597.09	54.502
597.42	52.909
597.75	54.377
598.09	52.652
598.42	53.737
598.76	53.223
599.09	53.022
599.42	52.875
599.76	51.757
600.09	52.313
600.42	51.278
600.76	51.643
601.09	52.386
601.42	52.702
601.76	52.220
602.09	52.055
602.42	53.861
602.76	53.849
603.09	53.265
603.42	53.299
603.76	52.172
604.09	52.113
604.42	52.915
604.76	53.480
605.09	52.818
605.42	52.715
605.75	53.022
606.09	52.094
606.42	54.025
606.75	52.426
607.09	51.779
607.42	52.118
607.75	51.688
608.08	51.455
608.42	52.667
608.75	52.254
609.08	52.313
609.41	51.642
609.75	52.072
610.08	52.828
610.41	53.026
610.74	53.784
611.07	53.656
611.41	53.484
611.74	54.047
612.07	53.675
612.40	54.355
612.73	53.632
613.07	53.610
613.40	53.555
613.73	52.543
614.06	54.247
614.39	52.910
614.72	52.684
615.06	51.418
615.39	51.752
615.72	52.198
616.05	51.994
616.38	53.029
616.71	54.097
617.05	54.653
617.38	53.999
617.71	54.114
618.04	55.048
618.37	53.400
618.70	54.947
619.03	54.145
619.36	54.243
619.69	55.211
620.03	54.876
620.36	54.880
620.69	55.685
621.02	55.162
621.35	55.599
621.68	55.530
622.01	56.424
622.34	55.219
622.67	55.894
623.00	54.659
623.33	55.182
623.66	53.824
623.99	55.302
624.32	53.709
624.65	54.590
624.99	54.462
625.32	54.526
625.65	55.372
625.98	56.649
626.31	55.910
626.64	56.571
626.97	56.941
627.30	55.445
627.63	56.768
627.96	57.611
628.29	55.993
628.62	58.005
628.95	58.962
629.28	57.117
629.61	57.654
629.94	59.238
630.26	56.625
630.59	57.102
630.92	58.429
