SpectraSuite Data File
++++++++++++++++++++++++++++++++++++
Date: Wed May 13 16:55:58 PDT 2015
User: schluterlab
Dark Spectrum Present: Yes
Reference Spectrum Present: Yes
Number of Sampled Component Spectra: 1
Spectrometers: USB2E3373
Integration Time (usec): 3000 (USB2E3373)
Spectra Averaged: 3 (USB2E3373)
Boxcar Smoothing: 0 (USB2E3373)
Correct for Electrical Dark: No (USB2E3373)
Strobe/Lamp Enabled: No (USB2E3373)
Correct for Detector Non-linearity: No (USB2E3373)
Correct for Stray Light: No (USB2E3373)
Number of Pixels in Processed Spectrum: 2048
>>>>>Begin Processed Spectral Data<<<<<
178.53	0.000
178.91	-1400.000
179.29	-1275.000
179.67	-266.667
180.04	-1650.000
180.42	2900.000
180.80	1060.000
181.18	-1025.000
181.56	700.000
181.94	0.000
182.31	-614.286
182.69	1566.667
183.07	-550.000
183.45	-466.667
183.83	545.455
184.20	-400.000
184.58	2250.000
184.96	4800.000
185.34	-820.000
185.72	-612.500
186.09	-2000.000
186.47	2000.000
186.85	2250.000
187.23	5500.000
187.61	-1733.333
187.98	1450.000
188.36	463.636
188.74	472.727
189.12	-880.000
189.49	680.000
189.87	-4300.000
190.25	-1025.000
190.63	450.000
191.00	423.077
191.38	783.333
191.76	-1300.000
192.14	1475.000
192.51	687.500
192.89	1066.667
193.27	562.500
193.65	-1325.000
194.02	650.000
194.40	1240.000
194.78	560.000
195.15	508.333
195.53	650.000
195.91	-2200.000
196.29	381.250
196.66	310.526
197.04	-400.000
197.42	0.000
197.79	550.000
198.17	-4500.000
198.55	728.571
198.92	612.500
199.30	880.000
199.68	0.000
200.05	288.889
200.43	857.143
200.81	5400.000
201.18	2133.333
201.56	-1700.000
201.94	611.111
202.31	544.444
202.69	458.333
203.07	540.000
203.44	0.000
203.82	1325.000
204.19	757.143
204.57	392.857
204.95	712.500
205.32	1266.667
205.70	500.000
206.08	428.571
206.45	2300.000
206.83	381.250
207.20	816.667
207.58	640.000
207.96	288.889
208.33	612.500
208.71	-1016.667
209.08	771.429
209.46	644.444
209.84	481.818
210.21	-1500.000
210.59	1300.000
210.96	-550.000
211.34	2600.000
211.71	580.000
212.09	783.333
212.46	0.000
212.84	2066.667
213.22	1200.000
213.59	-5700.000
213.97	966.667
214.34	971.429
214.72	536.364
215.09	1340.000
215.47	-2400.000
215.84	-2750.000
216.22	1700.000
216.59	371.429
216.97	1500.000
217.34	445.455
217.72	-683.333
218.09	0.000
218.47	-5600.000
218.84	711.111
219.22	671.429
219.59	1800.000
219.97	-600.000
220.34	1200.000
220.72	-1700.000
221.09	378.571
221.47	1275.000
221.84	-950.000
222.22	0.000
222.59	1300.000
222.97	-2650.000
223.34	1240.000
223.72	446.154
224.09	1120.000
224.46	2050.000
224.84	-4600.000
225.21	-980.000
225.59	-5300.000
225.96	610.000
226.34	310.000
226.71	2600.000
227.08	662.500
227.46	550.000
227.83	-1000.000
228.21	-2700.000
228.58	700.000
228.95	-2550.000
229.33	-2400.000
229.70	1933.333
230.08	857.143
230.45	-860.000
230.82	433.333
231.20	933.333
231.57	742.857
231.95	575.000
232.32	250.000
232.69	436.364
233.07	728.571
233.44	453.846
233.81	-1933.333
234.19	315.789
234.56	491.667
234.93	400.000
235.31	545.455
235.68	330.769
236.05	421.429
236.43	200.000
236.80	305.263
237.17	4200.000
237.55	280.952
237.92	221.429
238.29	261.905
238.67	183.871
239.04	200.000
239.41	175.000
239.79	139.130
240.16	169.048
240.53	161.364
240.91	121.569
241.28	142.000
241.65	138.000
242.02	101.449
242.40	116.129
242.77	106.667
243.14	94.624
243.51	88.764
243.89	83.529
244.26	86.667
244.63	91.398
245.00	84.043
245.38	78.218
245.75	85.981
246.12	72.477
246.49	85.401
246.87	83.200
247.24	79.231
247.61	70.000
247.98	71.242
248.36	62.162
248.73	68.790
249.10	72.611
249.47	66.667
249.84	62.032
250.22	63.636
250.59	68.047
250.96	59.091
251.33	64.929
251.70	64.851
252.08	58.095
252.45	51.570
252.82	52.609
253.19	58.723
253.56	58.431
253.94	56.846
254.31	56.641
254.68	56.923
255.05	56.089
255.42	48.374
255.79	56.985
256.16	54.513
256.54	50.883
256.91	55.872
257.28	48.921
257.65	49.835
258.02	49.379
258.39	46.057
258.76	50.502
259.14	49.702
259.51	51.368
259.88	52.795
260.25	51.964
260.62	45.665
260.99	51.553
261.36	52.252
261.73	49.857
262.10	46.802
262.47	47.606
262.85	44.290
263.22	45.014
263.59	52.137
263.96	47.527
264.33	46.997
264.70	49.211
265.07	47.315
265.44	49.495
265.81	44.282
266.18	47.990
266.55	44.878
266.92	47.174
267.29	47.454
267.66	43.349
268.03	44.545
268.40	43.925
268.77	40.573
269.14	43.468
269.51	46.727
269.88	45.455
270.25	43.567
270.62	45.393
270.99	45.591
271.36	43.777
271.73	47.196
272.10	41.957
272.47	44.516
272.84	45.671
273.21	44.025
273.58	43.013
273.95	44.444
274.32	42.149
274.69	43.469
275.06	42.520
275.43	45.319
275.80	43.687
276.17	43.992
276.54	45.738
276.91	43.281
277.28	41.211
277.65	42.747
278.02	42.029
278.39	43.164
278.76	40.909
279.13	41.509
279.50	40.968
279.87	43.227
280.23	44.311
280.60	41.586
280.97	42.144
281.34	41.947
281.71	41.636
282.08	42.035
282.45	38.909
282.82	40.853
283.19	37.790
283.56	39.649
283.92	40.948
284.29	38.977
284.66	39.746
285.03	39.421
285.40	37.852
285.77	39.394
286.14	38.860
286.51	38.833
286.87	37.607
287.24	38.436
287.61	36.918
287.98	37.500
288.35	37.876
288.72	36.449
289.08	36.620
289.45	38.550
289.82	36.748
290.19	34.694
290.56	36.753
290.93	35.952
291.29	38.037
291.66	35.251
292.03	35.029
292.40	36.564
292.77	34.024
293.13	33.134
293.50	35.131
293.87	34.074
294.24	34.370
294.60	31.732
294.97	32.122
295.34	32.158
295.71	34.801
296.08	33.618
296.44	32.737
296.81	31.572
297.18	34.688
297.55	31.794
297.91	30.475
298.28	32.129
298.65	32.637
299.02	32.279
299.38	30.810
299.75	28.571
300.12	30.013
300.48	31.000
300.85	30.333
301.22	30.064
301.59	29.798
301.95	31.612
302.32	29.782
302.69	29.630
303.05	29.091
303.42	30.741
303.79	28.652
304.15	29.371
304.52	27.810
304.89	28.804
305.25	28.654
305.62	28.426
305.99	29.634
306.35	27.964
306.72	29.933
307.09	28.413
307.45	30.968
307.82	27.009
308.19	28.808
308.55	29.558
308.92	29.001
309.29	27.455
309.65	28.844
310.02	28.858
310.38	29.355
310.75	29.039
311.12	29.069
311.48	28.631
311.85	29.455
312.22	29.657
312.58	28.690
312.95	29.884
313.31	26.796
313.68	29.314
314.05	32.150
314.41	29.749
314.78	30.312
315.14	30.487
315.51	30.072
315.87	30.990
316.24	30.983
316.61	30.604
316.97	30.822
317.34	30.626
317.70	31.836
318.07	31.954
318.43	33.170
318.80	33.927
319.16	33.333
319.53	31.801
319.89	33.524
320.26	34.800
320.62	34.127
320.99	35.051
321.35	35.455
321.72	36.037
322.08	36.328
322.45	36.816
322.81	37.888
323.18	39.306
323.54	36.364
323.91	37.925
324.27	36.520
324.64	38.304
325.00	38.323
325.37	40.218
325.73	41.382
326.10	40.335
326.46	40.233
326.83	41.415
327.19	41.076
327.56	42.334
327.92	40.420
328.29	43.212
328.65	43.923
329.01	42.599
329.38	43.293
329.74	43.213
330.11	44.958
330.47	44.720
330.84	45.404
331.20	44.080
331.56	45.138
331.93	45.556
332.29	43.833
332.66	43.894
333.02	44.698
333.38	46.432
333.75	46.613
334.11	45.285
334.48	45.164
334.84	46.875
335.20	45.818
335.57	46.056
335.93	45.625
336.29	45.879
336.66	45.266
337.02	45.339
337.38	46.481
337.75	46.346
338.11	46.374
338.47	46.501
338.84	47.204
339.20	45.963
339.56	46.989
339.93	45.636
340.29	45.471
340.65	45.544
341.02	46.859
341.38	46.174
341.74	45.175
342.11	46.376
342.47	46.256
342.83	45.462
343.20	46.234
343.56	44.735
343.92	46.053
344.28	46.088
344.65	47.463
345.01	45.623
345.37	45.026
345.73	46.108
346.10	46.547
346.46	46.864
346.82	45.717
347.19	45.363
347.55	45.402
347.91	46.683
348.27	47.083
348.63	46.237
349.00	45.550
349.36	46.634
349.72	45.870
350.08	46.353
350.45	46.705
350.81	45.898
351.17	46.191
351.53	44.308
351.89	45.215
352.26	46.646
352.62	45.950
352.98	44.814
353.34	46.097
353.70	45.090
354.07	45.806
354.43	44.444
354.79	44.730
355.15	44.932
355.51	46.043
355.87	45.878
356.24	46.336
356.60	45.229
356.96	45.696
357.32	47.097
357.68	45.276
358.04	45.368
358.40	44.656
358.77	46.009
359.13	45.225
359.49	45.961
359.85	45.476
360.21	45.694
360.57	47.393
360.93	45.231
361.29	45.654
361.66	44.892
362.02	45.299
362.38	45.932
362.74	45.685
363.10	45.818
363.46	46.809
363.82	45.049
364.18	45.374
364.54	46.508
364.90	46.813
365.26	45.956
365.62	46.238
365.98	45.069
366.35	45.272
366.71	45.915
367.07	44.574
367.43	46.372
367.79	46.253
368.15	46.911
368.51	46.148
368.87	47.038
369.23	46.086
369.59	47.502
369.95	45.515
370.31	46.866
370.67	46.087
371.03	47.640
371.39	45.773
371.75	45.956
372.11	46.017
372.47	47.067
372.83	46.470
373.19	47.038
373.55	47.894
373.91	48.454
374.27	46.254
374.63	47.055
374.99	47.599
375.35	46.406
375.71	46.539
376.07	47.942
376.42	46.424
376.78	47.647
377.14	48.440
377.50	47.152
377.86	47.939
378.22	47.155
378.58	45.614
378.94	46.386
379.30	47.519
379.66	47.525
380.02	47.236
380.38	46.205
380.74	46.939
381.09	47.311
381.45	48.064
381.81	47.666
382.17	47.771
382.53	47.044
382.89	48.333
383.25	47.467
383.61	47.831
383.97	47.592
384.32	47.785
384.68	48.079
385.04	47.695
385.40	47.183
385.76	47.850
386.12	48.381
386.48	47.829
386.83	47.979
387.19	49.536
387.55	48.423
387.91	48.065
388.27	46.781
388.62	47.818
388.98	46.929
389.34	48.561
389.70	48.130
390.06	48.352
390.42	48.898
390.77	48.092
391.13	48.564
391.49	48.668
391.85	48.631
392.20	47.886
392.56	48.169
392.92	48.970
393.28	47.219
393.64	48.441
393.99	46.732
394.35	48.139
394.71	47.804
395.07	46.355
395.42	48.269
395.78	47.901
396.14	47.424
396.50	49.185
396.85	50.032
397.21	46.979
397.57	47.303
397.92	46.454
398.28	46.132
398.64	47.909
399.00	46.670
399.35	47.547
399.71	46.296
400.07	47.723
400.42	47.546
400.78	47.889
401.14	48.537
401.49	47.224
401.85	46.400
402.21	47.665
402.57	46.144
402.92	48.045
403.28	47.470
403.63	46.225
403.99	46.815
404.35	47.212
404.70	45.983
405.06	46.418
405.42	48.908
405.77	45.943
406.13	46.275
406.49	46.422
406.84	46.840
407.20	45.981
407.55	46.969
407.91	47.267
408.27	46.650
408.62	46.779
408.98	45.711
409.34	46.556
409.69	47.806
410.05	46.592
410.40	46.850
410.76	45.878
411.11	45.959
411.47	46.198
411.83	45.877
412.18	45.145
412.54	46.824
412.89	45.361
413.25	45.100
413.60	45.584
413.96	45.962
414.31	45.869
414.67	46.198
415.03	46.159
415.38	45.941
415.74	46.109
416.09	46.375
416.45	47.189
416.80	46.134
417.16	46.582
417.51	46.384
417.87	45.151
418.22	46.751
418.58	45.707
418.93	46.130
419.29	45.512
419.64	46.348
420.00	45.488
420.35	45.797
420.71	46.683
421.06	45.048
421.42	45.439
421.77	46.300
422.12	45.143
422.48	44.307
422.83	46.651
423.19	44.088
423.54	45.560
423.90	45.275
424.25	46.119
424.61	45.060
424.96	45.131
425.31	44.795
425.67	44.382
426.02	43.886
426.38	45.665
426.73	44.880
427.09	45.106
427.44	44.738
427.79	45.888
428.15	45.000
428.50	45.816
428.85	45.411
429.21	45.389
429.56	44.997
429.92	45.546
430.27	45.184
430.62	44.137
430.98	44.162
431.33	44.278
431.68	45.969
432.04	44.036
432.39	45.917
432.74	46.260
433.10	46.180
433.45	45.423
433.80	45.565
434.16	45.620
434.51	44.526
434.86	45.040
435.22	45.359
435.57	45.350
435.92	44.822
436.28	45.433
436.63	44.426
436.98	45.278
437.34	45.200
437.69	46.091
438.04	45.025
438.39	45.433
438.75	45.264
439.10	46.536
439.45	45.809
439.81	45.257
440.16	45.003
440.51	45.870
440.86	46.497
441.22	44.549
441.57	45.701
441.92	45.445
442.27	44.618
442.63	44.655
442.98	45.521
443.33	45.543
443.68	44.760
444.03	44.705
444.39	44.791
444.74	45.887
445.09	45.768
445.44	45.107
445.79	45.720
446.15	44.733
446.50	44.373
446.85	45.427
447.20	45.793
447.55	46.454
447.91	45.891
448.26	44.908
448.61	46.241
448.96	46.290
449.31	45.838
449.66	44.401
450.02	45.905
450.37	46.032
450.72	45.008
451.07	44.851
451.42	45.289
451.77	46.095
452.12	45.150
452.47	44.838
452.83	46.270
453.18	44.682
453.53	46.135
453.88	44.123
454.23	44.889
454.58	46.638
454.93	46.917
455.28	46.010
455.63	45.692
455.98	46.250
456.34	44.912
456.69	46.462
457.04	45.882
457.39	45.120
457.74	45.154
458.09	45.083
458.44	45.496
458.79	45.716
459.14	45.485
459.49	46.001
459.84	45.319
460.19	44.549
460.54	43.576
460.89	44.816
461.24	45.841
461.59	46.078
461.94	45.068
462.29	46.113
462.64	44.799
462.99	45.088
463.34	45.867
463.69	45.278
464.04	44.812
464.39	44.986
464.74	44.504
465.09	46.080
465.44	44.211
465.79	45.358
466.14	43.952
466.49	43.548
466.84	44.016
467.19	45.323
467.54	44.375
467.89	43.878
468.24	45.143
468.59	44.933
468.94	43.739
469.29	45.437
469.64	45.448
469.99	45.467
470.34	44.518
470.68	45.330
471.03	44.422
471.38	46.838
471.73	44.837
472.08	45.855
472.43	44.472
472.78	45.425
473.13	44.801
473.48	45.256
473.83	45.366
474.17	45.053
474.52	44.293
474.87	44.542
475.22	44.980
475.57	43.632
475.92	43.972
476.27	43.348
476.61	44.015
476.96	43.980
477.31	43.433
477.66	44.858
478.01	43.701
478.36	43.575
478.70	43.146
479.05	44.036
479.40	44.166
479.75	44.128
480.10	43.091
480.45	43.551
480.79	42.905
481.14	43.542
481.49	43.806
481.84	42.936
482.19	43.208
482.53	42.706
482.88	43.648
483.23	43.832
483.58	42.584
483.92	43.814
484.27	41.612
484.62	42.716
484.97	42.491
485.31	43.836
485.66	43.166
486.01	41.120
486.36	39.462
486.70	37.958
487.05	39.242
487.40	40.271
487.75	40.635
488.09	41.128
488.44	41.361
488.79	41.591
489.13	42.246
489.48	42.904
489.83	41.606
490.17	42.481
490.52	41.763
490.87	42.741
491.22	42.656
491.56	42.369
491.91	41.554
492.26	41.847
492.60	42.258
492.95	41.862
493.30	41.589
493.64	42.324
493.99	41.179
494.34	42.599
494.68	42.216
495.03	42.763
495.37	41.880
495.72	42.495
496.07	42.227
496.41	40.664
496.76	41.337
497.11	41.558
497.45	42.105
497.80	42.035
498.14	41.546
498.49	41.854
498.84	41.850
499.18	41.238
499.53	42.355
499.87	42.591
500.22	41.922
500.56	41.942
500.91	40.673
501.26	41.868
501.60	42.477
501.95	41.247
502.29	42.409
502.64	42.225
502.98	41.468
503.33	40.128
503.67	41.717
504.02	41.815
504.36	41.226
504.71	42.599
505.06	41.494
505.40	42.149
505.75	41.514
506.09	41.108
506.44	41.934
506.78	41.159
507.13	42.100
507.47	42.980
507.82	41.692
508.16	42.249
508.51	42.364
508.85	42.056
509.19	41.939
509.54	41.071
509.88	41.783
510.23	42.314
510.57	41.796
510.92	42.103
511.26	41.727
511.61	41.494
511.95	41.649
512.30	40.774
512.64	41.268
512.98	42.229
513.33	41.702
513.67	41.676
514.02	41.342
514.36	41.671
514.70	42.114
515.05	41.997
515.39	41.559
515.74	42.005
516.08	41.923
516.42	43.008
516.77	43.423
517.11	41.676
517.46	41.817
517.80	42.625
518.14	40.996
518.49	42.940
518.83	41.932
519.17	42.725
519.52	41.200
519.86	40.274
520.20	41.850
520.55	42.669
520.89	41.849
521.23	42.400
521.58	41.657
521.92	42.743
522.26	41.001
522.61	42.617
522.95	41.621
523.29	41.509
523.64	42.500
523.98	42.144
524.32	41.375
524.66	42.393
525.01	41.973
525.35	41.140
525.69	41.133
526.04	42.617
526.38	41.367
526.72	41.288
527.06	42.436
527.41	39.233
527.75	41.865
528.09	42.132
528.43	42.001
528.78	41.672
529.12	41.333
529.46	41.151
529.80	41.460
530.15	40.810
530.49	40.431
530.83	40.949
531.17	42.167
531.51	42.153
531.86	42.258
532.20	41.591
532.54	40.679
532.88	41.078
533.22	40.162
533.57	40.432
533.91	40.999
534.25	40.826
534.59	40.818
534.93	40.869
535.27	40.978
535.62	40.965
535.96	40.929
536.30	40.305
536.64	41.082
536.98	41.805
537.32	41.080
537.66	40.333
538.01	40.553
538.35	41.370
538.69	41.225
539.03	40.481
539.37	40.511
539.71	39.922
540.05	40.784
540.39	40.532
540.73	40.362
541.07	41.596
541.42	40.900
541.76	40.710
542.10	40.686
542.44	41.126
542.78	41.568
543.12	38.772
543.46	39.869
543.80	40.468
544.14	39.345
544.48	40.508
544.82	39.833
545.16	39.948
545.50	38.753
545.84	40.323
546.18	40.471
546.52	41.225
546.86	40.687
547.20	40.931
547.54	40.147
547.88	41.135
548.22	39.477
548.56	39.748
548.90	39.885
549.24	40.202
549.58	41.405
549.92	40.659
550.26	40.057
550.60	39.488
550.94	39.859
551.28	38.917
551.62	40.690
551.96	40.211
552.30	40.273
552.64	39.554
552.98	39.593
553.32	39.245
553.66	40.014
554.00	39.259
554.34	38.440
554.68	41.130
555.02	40.832
555.36	39.736
555.69	39.175
556.03	41.319
556.37	39.973
556.71	38.472
557.05	38.796
557.39	39.888
557.73	39.238
558.07	40.609
558.41	39.508
558.75	39.750
559.08	40.567
559.42	39.683
559.76	40.735
560.10	38.972
560.44	39.133
560.78	38.589
561.12	38.127
561.45	39.635
561.79	37.442
562.13	38.296
562.47	39.686
562.81	40.028
563.15	39.331
563.48	39.125
563.82	38.878
564.16	38.326
564.50	37.500
564.84	38.559
565.17	38.546
565.51	38.658
565.85	38.515
566.19	37.070
566.52	38.695
566.86	37.432
567.20	38.561
567.54	37.215
567.88	37.262
568.21	37.989
568.55	37.007
568.89	37.792
569.23	36.720
569.56	36.275
569.90	36.453
570.24	35.630
570.57	36.212
570.91	35.262
571.25	34.867
571.59	34.669
571.92	35.138
572.26	35.240
572.60	35.375
572.93	34.423
573.27	35.078
573.61	35.232
573.95	35.194
574.28	34.196
574.62	34.670
574.96	34.194
575.29	34.069
575.63	34.451
575.97	33.897
576.30	34.626
576.64	34.951
576.98	34.249
577.31	33.896
577.65	33.898
577.98	34.278
578.32	33.539
578.66	34.109
578.99	33.759
579.33	33.624
579.67	33.763
580.00	33.493
580.34	33.840
580.67	33.798
581.01	34.158
581.35	33.892
581.68	34.555
582.02	33.287
582.35	33.761
582.69	33.504
583.02	33.752
583.36	33.871
583.70	34.515
584.03	34.222
584.37	35.178
584.70	35.214
585.04	33.488
585.37	33.621
585.71	34.234
586.04	33.897
586.38	34.326
586.72	34.245
587.05	34.012
587.39	33.905
587.72	34.038
588.06	34.445
588.39	34.211
588.73	33.764
589.06	34.528
589.40	34.242
589.73	35.058
590.07	34.733
590.40	34.344
590.73	35.012
591.07	35.246
591.40	35.808
591.74	35.195
592.07	35.035
592.41	34.725
592.74	35.431
593.08	34.477
593.41	34.704
593.75	32.948
594.08	34.026
594.41	34.040
594.75	34.566
595.08	34.467
595.42	34.641
595.75	34.402
596.09	34.998
596.42	34.538
596.75	34.107
597.09	35.541
597.42	34.570
597.75	34.411
598.09	34.609
598.42	34.064
598.76	34.171
599.09	33.561
599.42	33.624
599.76	34.553
600.09	33.370
600.42	33.565
600.76	32.679
601.09	33.770
601.42	33.942
601.76	33.472
602.09	34.032
602.42	33.678
602.76	34.180
603.09	34.304
603.42	34.947
603.76	34.032
604.09	34.316
604.42	34.651
604.76	34.542
605.09	33.945
605.42	33.732
605.75	33.733
606.09	33.347
606.42	33.429
606.75	33.720
607.09	34.073
607.42	34.061
607.75	33.291
608.08	33.261
608.42	34.558
608.75	33.724
609.08	33.488
609.41	33.984
609.75	33.969
610.08	34.025
610.41	33.473
610.74	33.538
611.07	34.190
611.41	33.611
611.74	34.289
612.07	33.903
612.40	35.467
612.73	34.316
613.07	34.321
613.40	34.966
613.73	33.718
614.06	34.946
614.39	34.137
614.72	34.474
615.06	33.351
615.39	33.970
615.72	33.742
616.05	33.121
616.38	33.963
616.71	34.501
617.05	36.042
617.38	34.336
617.71	34.715
618.04	34.736
618.37	34.299
618.70	34.848
619.03	35.395
619.36	35.438
619.69	34.648
620.03	35.783
620.36	34.826
620.69	36.370
621.02	35.546
621.35	34.926
621.68	34.502
622.01	35.217
622.34	36.006
622.67	35.741
623.00	35.290
623.33	35.811
623.66	34.668
623.99	35.567
624.32	35.021
624.65	35.099
624.99	33.711
625.32	34.323
625.65	34.786
625.98	34.973
626.31	36.236
626.64	35.673
626.97	35.661
627.30	35.328
627.63	35.029
627.96	35.156
628.29	35.258
628.62	36.322
628.95	37.075
629.28	36.314
629.61	36.480
629.94	37.810
630.26	36.892
630.59	37.083
