SpectraSuite Data File
++++++++++++++++++++++++++++++++++++
Date: Wed May 13 16:10:01 PDT 2015
User: schluterlab
Dark Spectrum Present: Yes
Reference Spectrum Present: Yes
Number of Sampled Component Spectra: 1
Spectrometers: USB2E3373
Integration Time (usec): 3000 (USB2E3373)
Spectra Averaged: 3 (USB2E3373)
Boxcar Smoothing: 0 (USB2E3373)
Correct for Electrical Dark: No (USB2E3373)
Strobe/Lamp Enabled: No (USB2E3373)
Correct for Detector Non-linearity: No (USB2E3373)
Correct for Stray Light: No (USB2E3373)
Number of Pixels in Processed Spectrum: 2048
>>>>>Begin Processed Spectral Data<<<<<
178.53	0.000
178.91	-1050.000
179.29	-1250.000
179.67	-155.556
180.04	-1025.000
180.42	1900.000
180.80	780.000
181.18	-825.000
181.56	385.714
181.94	0.000
182.31	-485.714
182.69	1400.000
183.07	-362.500
183.45	-266.667
183.83	445.455
184.20	-290.000
184.58	1350.000
184.96	4300.000
185.34	-560.000
185.72	-475.000
186.09	-1650.000
186.47	1800.000
186.85	2000.000
187.23	2900.000
187.61	-1233.333
187.98	775.000
188.36	509.091
188.74	390.909
189.12	-680.000
189.49	380.000
189.87	-3000.000
190.25	-875.000
190.63	292.857
191.00	369.231
191.38	633.333
191.76	-725.000
192.14	1050.000
192.51	462.500
192.89	816.667
193.27	475.000
193.65	-700.000
194.02	400.000
194.40	680.000
194.78	360.000
195.15	358.333
195.53	550.000
195.91	-1550.000
196.29	237.500
196.66	236.842
197.04	-220.000
197.42	0.000
197.79	420.000
198.17	-3400.000
198.55	485.714
198.92	425.000
199.30	680.000
199.68	0.000
200.05	272.222
200.43	771.429
200.81	3600.000
201.18	1000.000
201.56	-1066.667
201.94	433.333
202.31	377.778
202.69	358.333
203.07	420.000
203.44	0.000
203.82	800.000
204.19	600.000
204.57	378.571
204.95	562.500
205.32	933.333
205.70	354.545
206.08	278.571
206.45	2100.000
206.83	268.750
207.20	716.667
207.58	440.000
207.96	238.889
208.33	600.000
208.71	-600.000
209.08	585.714
209.46	544.444
209.84	345.455
210.21	-1066.667
210.59	1025.000
210.96	-200.000
211.34	1050.000
211.71	450.000
212.09	683.333
212.46	0.000
212.84	1133.333
213.22	975.000
213.59	-3000.000
213.97	716.667
214.34	685.714
214.72	400.000
215.09	1040.000
215.47	-1300.000
215.84	-2400.000
216.22	1000.000
216.59	307.143
216.97	700.000
217.34	381.818
217.72	-633.333
218.09	0.000
218.47	-3400.000
218.84	400.000
219.22	557.143
219.59	1333.333
219.97	-442.857
220.34	760.000
220.72	-1566.667
221.09	328.571
221.47	1050.000
221.84	-650.000
222.22	0.000
222.59	825.000
222.97	-1600.000
223.34	820.000
223.72	330.769
224.09	740.000
224.46	1750.000
224.84	-3200.000
225.21	-760.000
225.59	-3100.000
225.96	390.000
226.34	250.000
226.71	1850.000
227.08	437.500
227.46	390.000
227.83	-750.000
228.21	-1150.000
228.58	422.222
228.95	-1750.000
229.33	-1650.000
229.70	1100.000
230.08	528.571
230.45	-440.000
230.82	250.000
231.20	783.333
231.57	514.286
231.95	408.333
232.32	163.636
232.69	190.909
233.07	557.143
233.44	230.769
233.81	-1300.000
234.19	194.737
234.56	275.000
234.93	266.667
235.31	427.273
235.68	253.846
236.05	285.714
236.43	112.121
236.80	194.737
237.17	3300.000
237.55	204.762
237.92	160.714
238.29	233.333
238.67	109.677
239.04	151.724
239.41	138.889
239.79	123.913
240.16	104.762
240.53	79.545
240.91	64.706
241.28	76.000
241.65	88.000
242.02	76.812
242.40	80.645
242.77	63.333
243.14	64.516
243.51	74.157
243.89	55.294
244.26	47.778
244.63	52.688
245.00	50.000
245.38	52.475
245.75	51.402
246.12	49.541
246.49	54.015
246.87	55.200
247.24	54.615
247.61	50.714
247.98	45.752
248.36	45.270
248.73	42.038
249.10	48.408
249.47	45.763
249.84	48.128
250.22	33.155
250.59	42.604
250.96	39.394
251.33	35.071
251.70	47.525
252.08	36.667
252.45	34.978
252.82	38.261
253.19	40.426
253.56	36.863
253.94	38.174
254.31	36.328
254.68	37.308
255.05	36.162
255.42	36.992
255.79	34.926
256.16	36.462
256.54	30.389
256.91	34.520
257.28	30.216
257.65	32.673
258.02	32.919
258.39	32.808
258.76	34.783
259.14	31.845
259.51	30.395
259.88	29.193
260.25	34.441
260.62	29.769
260.99	30.435
261.36	31.832
261.73	33.524
262.10	29.360
262.47	29.859
262.85	30.084
263.22	26.211
263.59	32.479
263.96	29.121
264.33	28.982
264.70	30.526
265.07	30.435
265.44	32.071
265.81	26.277
266.18	30.402
266.55	29.512
266.92	30.713
267.29	31.250
267.66	30.275
268.03	32.955
268.40	28.738
268.77	26.969
269.14	27.928
269.51	28.217
269.88	32.867
270.25	30.474
270.62	27.640
270.99	29.677
271.36	27.682
271.73	28.505
272.10	27.609
272.47	30.538
272.84	26.623
273.21	29.560
273.58	27.293
273.95	25.367
274.32	26.653
274.69	29.122
275.06	28.740
275.43	28.085
275.80	27.856
276.17	28.106
276.54	30.353
276.91	26.680
277.28	26.367
277.65	28.433
278.02	27.329
278.39	26.758
278.76	27.091
279.13	27.736
279.50	28.678
279.87	28.287
280.23	26.547
280.60	26.499
280.97	26.433
281.34	26.549
281.71	26.364
282.08	26.871
282.45	26.727
282.82	27.531
283.19	25.312
283.56	25.263
283.92	25.888
284.29	26.631
284.66	27.042
285.03	24.593
285.40	25.704
285.77	24.916
286.14	25.043
286.51	26.500
286.87	25.812
287.24	26.710
287.61	26.806
287.98	24.675
288.35	23.772
288.72	24.766
289.08	24.726
289.45	25.371
289.82	25.691
290.19	24.333
290.56	23.583
290.93	23.414
291.29	25.000
291.66	23.894
292.03	22.674
292.40	23.935
292.77	21.598
293.13	22.239
293.50	22.595
293.87	22.074
294.24	21.778
294.60	20.961
294.97	22.238
295.34	23.554
295.71	21.023
296.08	22.507
296.44	21.320
296.81	18.494
297.18	21.274
297.55	19.657
297.91	20.580
298.28	22.892
298.65	22.324
299.02	22.003
299.38	21.514
299.75	17.655
300.12	21.711
300.48	19.875
300.85	20.099
301.22	21.401
301.59	21.212
301.95	18.640
302.32	22.080
302.69	20.789
303.05	22.545
303.42	21.111
303.79	20.951
304.15	19.464
304.52	20.046
304.89	21.951
305.25	20.766
305.62	21.404
305.99	20.779
306.35	20.470
306.72	20.067
307.09	20.866
307.45	21.847
307.82	19.196
308.19	20.309
308.55	20.928
308.92	20.408
309.29	19.535
309.65	19.194
310.02	21.353
310.38	21.075
310.75	21.964
311.12	20.471
311.48	21.317
311.85	21.803
312.22	20.916
312.58	21.102
312.95	20.803
313.31	20.583
313.68	21.518
314.05	23.373
314.41	20.603
314.78	20.645
315.14	21.152
315.51	21.833
315.87	20.891
316.24	22.443
316.61	21.832
316.97	21.820
317.34	22.798
317.70	23.996
318.07	21.848
318.43	22.701
318.80	23.524
319.16	23.823
319.53	22.702
319.89	23.524
320.26	25.500
320.62	23.909
320.99	24.343
321.35	24.141
321.72	25.051
322.08	25.370
322.45	26.368
322.81	26.163
323.18	25.434
323.54	27.737
323.91	27.075
324.27	26.673
324.64	26.468
325.00	26.781
325.37	26.934
325.73	28.187
326.10	28.685
326.46	28.674
326.83	29.681
327.19	30.231
327.56	29.181
327.92	30.446
328.29	31.233
328.65	31.676
329.01	30.144
329.38	30.712
329.74	30.471
330.11	32.893
330.47	30.579
330.84	34.099
331.20	30.783
331.56	31.651
331.93	32.778
332.29	31.500
332.66	32.655
333.02	31.810
333.38	32.249
333.75	33.244
334.11	33.452
334.48	32.742
334.84	33.548
335.20	33.364
335.57	31.732
335.93	32.321
336.29	32.418
336.66	33.093
337.02	33.032
337.38	33.241
337.75	32.353
338.11	33.303
338.47	33.517
338.84	33.914
339.20	31.927
339.56	32.938
339.93	31.727
340.29	33.152
340.65	32.977
341.02	33.072
341.38	32.740
341.74	33.421
342.11	32.838
342.47	32.775
342.83	33.733
343.20	33.333
343.56	32.435
343.92	32.105
344.28	32.398
344.65	34.394
345.01	32.407
345.37	32.590
345.73	33.503
346.10	32.225
346.46	31.356
346.82	31.137
347.19	32.581
347.55	31.938
347.91	33.172
348.27	33.196
348.63	33.278
349.00	32.201
349.36	32.512
349.72	32.157
350.08	31.361
350.45	32.872
350.81	32.006
351.17	32.172
351.53	32.023
351.89	31.518
352.26	33.623
352.62	32.398
352.98	32.415
353.34	33.443
353.70	32.651
354.07	32.500
354.43	32.302
354.79	31.617
355.15	31.764
355.51	32.854
355.87	33.224
356.24	31.596
356.60	31.275
356.96	32.582
357.32	31.889
357.68	32.205
358.04	31.116
358.40	31.908
358.77	31.847
359.13	31.018
359.49	32.000
359.85	32.063
360.21	31.021
360.57	31.440
360.93	32.000
361.29	31.595
361.66	31.656
362.02	32.463
362.38	32.471
362.74	31.101
363.10	31.236
363.46	31.548
363.82	31.141
364.18	31.278
364.54	31.947
364.90	30.807
365.26	31.103
365.62	32.067
365.98	31.191
366.35	31.017
366.71	33.189
367.07	32.192
367.43	30.987
367.79	33.191
368.15	32.256
368.51	31.904
368.87	31.977
369.23	32.041
369.59	31.789
369.95	32.206
370.31	31.766
370.67	32.319
371.03	32.434
371.39	32.653
371.75	31.618
372.11	32.077
372.47	33.431
372.83	32.853
373.19	32.081
373.55	32.373
373.91	34.462
374.27	32.302
374.63	32.655
374.99	32.910
375.35	32.240
375.71	31.391
376.07	34.156
376.42	33.563
376.78	33.267
377.14	32.225
377.50	33.444
377.86	32.314
378.22	34.008
378.58	32.331
378.94	33.627
379.30	33.142
379.66	33.058
380.02	33.538
380.38	33.333
380.74	32.953
381.09	33.680
381.45	34.665
381.81	33.845
382.17	34.013
382.53	33.396
382.89	34.877
383.25	34.709
383.61	34.511
383.97	34.522
384.32	33.437
384.68	33.581
385.04	34.726
385.40	33.994
385.76	33.784
386.12	34.326
386.48	35.053
386.83	34.317
387.19	35.003
387.55	34.694
387.91	34.704
388.27	33.231
388.62	34.665
388.98	34.644
389.34	34.793
389.70	34.580
390.06	35.425
390.42	34.501
390.77	34.160
391.13	35.163
391.49	34.645
391.85	33.800
392.20	33.943
392.56	34.533
392.92	35.021
393.28	34.083
393.64	35.132
393.99	34.759
394.35	34.677
394.71	34.442
395.07	35.639
395.42	34.858
395.78	35.178
396.14	33.768
396.50	35.840
396.85	34.838
397.21	35.080
397.57	33.664
397.92	34.435
398.28	33.800
398.64	33.990
399.00	33.632
399.35	32.939
399.71	33.854
400.07	35.068
400.42	34.233
400.78	35.404
401.14	34.207
401.49	33.970
401.85	34.422
402.21	34.371
402.57	35.040
402.92	34.615
403.28	34.354
403.63	33.601
403.99	34.395
404.35	34.000
404.70	33.693
405.06	33.081
405.42	33.874
405.77	33.200
406.13	33.409
406.49	33.176
406.84	33.077
407.20	33.452
407.55	33.886
407.91	33.667
408.27	33.695
408.62	33.835
408.98	33.211
409.34	34.256
409.69	33.355
410.05	34.882
410.40	33.394
410.76	33.811
411.11	33.474
411.47	32.268
411.83	33.965
412.18	33.395
412.54	33.001
412.89	33.494
413.25	33.825
413.60	33.848
413.96	33.515
414.31	33.050
414.67	32.890
415.03	33.510
415.38	33.634
415.74	33.183
416.09	34.226
416.45	33.333
416.80	32.650
417.16	33.311
417.51	33.643
417.87	33.269
418.22	33.817
418.58	32.989
418.93	32.985
419.29	32.654
419.64	33.879
420.00	33.537
420.35	32.638
420.71	34.071
421.06	33.294
421.42	33.626
421.77	33.072
422.12	32.510
422.48	31.786
422.83	33.547
423.19	32.707
423.54	32.850
423.90	33.565
424.25	33.222
424.61	33.155
424.96	33.528
425.31	33.389
425.67	32.921
426.02	33.029
426.38	34.127
426.73	33.236
427.09	33.435
427.44	33.353
427.79	33.640
428.15	33.750
428.50	34.289
428.85	33.909
429.21	34.180
429.56	33.748
429.92	33.367
430.27	32.969
430.62	33.794
430.98	32.901
431.33	33.351
431.68	33.508
432.04	32.694
432.39	33.752
432.74	33.992
433.10	34.861
433.45	33.994
433.80	34.146
434.16	33.547
434.51	33.579
434.86	34.208
435.22	34.297
435.57	33.982
435.92	34.055
436.28	35.053
436.63	35.155
436.98	34.745
437.34	35.122
437.69	34.422
438.04	34.008
438.39	33.970
438.75	35.038
439.10	34.860
439.45	35.301
439.81	34.562
440.16	35.234
440.51	35.677
440.86	35.032
441.22	34.260
441.57	35.350
441.92	35.722
442.27	35.307
442.63	34.860
442.98	36.282
443.33	35.109
443.68	35.829
444.03	35.188
444.39	35.248
444.74	36.255
445.09	36.011
445.44	35.156
445.79	35.131
446.15	36.104
446.50	35.757
446.85	35.920
447.20	35.441
447.55	36.237
447.91	35.301
448.26	36.728
448.61	36.744
448.96	36.711
449.31	36.839
449.66	36.185
450.02	35.432
450.37	36.338
450.72	36.266
451.07	36.807
451.42	36.839
451.77	37.228
452.12	37.182
452.47	36.754
452.83	37.121
453.18	37.164
453.53	37.539
453.88	36.680
454.23	37.179
454.58	38.340
454.93	38.652
455.28	38.342
455.63	37.925
455.98	39.286
456.34	38.191
456.69	39.449
457.04	37.523
457.39	38.515
457.74	37.319
458.09	38.298
458.44	37.514
458.79	37.419
459.14	38.770
459.49	37.887
459.84	37.839
460.19	37.478
460.54	37.269
460.89	38.398
461.24	39.223
461.59	40.442
461.94	38.718
462.29	38.754
462.64	38.736
462.99	38.972
463.34	38.667
463.69	38.774
464.04	37.971
464.39	38.899
464.74	38.740
465.09	38.540
465.44	38.283
465.79	38.199
466.14	39.354
466.49	38.265
466.84	38.412
467.19	38.564
467.54	39.188
467.89	38.896
468.24	39.034
468.59	39.744
468.94	38.424
469.29	39.974
469.64	41.432
469.99	40.528
470.34	39.498
470.68	39.799
471.03	40.068
471.38	40.306
471.73	40.306
472.08	40.329
472.43	39.510
472.78	39.763
473.13	39.923
473.48	39.700
473.83	39.817
474.17	40.448
474.52	40.633
474.87	40.397
475.22	40.511
475.57	40.247
475.92	39.299
476.27	40.079
476.61	39.879
476.96	39.582
477.31	39.770
477.66	40.864
478.01	39.467
478.36	40.137
478.70	40.239
479.05	40.628
479.40	40.635
479.75	40.976
480.10	39.414
480.45	39.505
480.79	39.417
481.14	40.411
481.49	40.342
481.84	40.192
482.19	40.663
482.53	39.817
482.88	40.996
483.23	40.421
483.58	40.446
483.92	40.487
484.27	39.390
484.62	40.129
484.97	39.929
485.31	40.548
485.66	38.766
486.01	37.528
486.36	35.675
486.70	35.102
487.05	36.333
487.40	37.972
487.75	37.760
488.09	39.157
488.44	38.926
488.79	40.579
489.13	40.298
489.48	41.109
489.83	40.785
490.17	41.035
490.52	40.611
490.87	41.203
491.22	40.609
491.56	40.000
491.91	40.810
492.26	40.698
492.60	41.797
492.95	41.394
493.30	40.421
493.64	41.111
493.99	41.411
494.34	41.813
494.68	41.300
495.03	41.870
495.37	41.461
495.72	41.910
496.07	42.274
496.41	40.664
496.76	41.513
497.11	41.288
497.45	41.220
497.80	42.370
498.14	41.594
498.49	42.244
498.84	41.755
499.18	42.762
499.53	42.118
499.87	41.705
500.22	43.005
500.56	43.107
500.91	42.115
501.26	42.817
501.60	43.094
501.95	40.880
502.29	42.362
502.64	43.110
502.98	42.309
503.33	41.773
503.67	43.155
504.02	42.329
504.36	42.536
504.71	43.674
505.06	42.217
505.40	42.635
505.75	42.623
506.09	43.003
506.44	44.055
506.78	44.033
507.13	45.078
507.47	43.737
507.82	44.883
508.16	44.580
508.51	45.611
508.85	42.701
509.19	44.796
509.54	44.541
509.88	43.277
510.23	44.524
510.57	46.130
510.92	44.588
511.26	44.296
511.61	44.917
511.95	44.102
512.30	45.493
512.64	45.352
512.98	45.766
513.33	46.681
513.67	45.037
514.02	45.238
514.36	46.204
514.70	46.707
515.05	46.403
515.39	46.270
515.74	46.284
516.08	47.624
516.42	46.837
516.77	47.269
517.11	47.558
517.46	47.573
517.80	47.096
518.14	46.323
518.49	48.016
518.83	46.761
519.17	47.113
519.52	47.765
519.86	47.176
520.20	47.861
520.55	50.030
520.89	48.236
521.23	49.035
521.58	47.119
521.92	48.745
522.26	48.505
522.61	49.283
522.95	49.233
523.29	48.935
523.64	49.085
523.98	50.216
524.32	49.517
524.66	49.068
525.01	49.265
525.35	48.761
525.69	48.584
526.04	49.346
526.38	49.176
526.72	49.939
527.06	49.466
527.41	48.515
527.75	50.482
528.09	49.775
528.43	50.414
528.78	50.092
529.12	48.606
529.46	50.214
529.80	51.300
530.15	50.280
530.49	48.677
530.83	50.570
531.17	51.632
531.51	52.399
531.86	50.194
532.20	50.978
532.54	49.904
532.88	50.770
533.22	49.844
533.57	48.827
533.91	48.706
534.25	49.818
534.59	49.481
534.93	49.256
535.27	50.573
535.62	49.512
535.96	50.408
536.30	50.731
536.64	50.225
536.98	51.228
537.32	50.494
537.66	50.800
538.01	51.415
538.35	51.648
538.69	51.500
539.03	50.552
539.37	49.840
539.71	48.995
540.05	51.176
540.39	50.033
540.73	50.776
541.07	51.655
541.42	51.990
541.76	51.806
542.10	51.294
542.44	51.656
542.78	50.791
543.12	50.288
543.46	50.820
543.80	51.269
544.14	50.128
544.48	52.000
544.82	50.802
545.16	49.902
545.50	50.193
545.84	51.680
546.18	51.919
546.52	52.099
546.86	51.546
547.20	51.854
547.54	52.238
547.88	52.615
548.22	50.436
548.56	50.063
548.90	50.576
549.24	51.448
549.58	51.228
549.92	50.824
550.26	53.409
550.60	51.867
550.94	51.690
551.28	52.085
551.62	53.271
551.96	52.772
552.30	52.833
552.64	51.792
552.98	52.678
553.32	52.596
553.66	53.715
554.00	52.986
554.34	51.622
554.68	53.791
555.02	52.257
555.36	52.053
555.69	51.624
556.03	52.490
556.37	52.797
556.71	52.729
557.05	52.521
557.39	53.114
557.73	52.858
558.07	54.677
558.41	53.980
558.75	52.755
559.08	54.362
559.42	53.061
559.76	54.191
560.10	53.319
560.44	54.158
560.78	52.628
561.12	51.781
561.45	54.042
561.79	52.406
562.13	53.521
562.47	53.825
562.81	53.138
563.15	52.375
563.48	52.984
563.82	53.947
564.16	52.976
564.50	52.865
564.84	51.580
565.17	52.510
565.51	52.204
565.85	50.952
566.19	51.597
566.52	52.438
566.86	52.984
567.20	53.243
567.54	52.169
567.88	52.634
568.21	53.704
568.55	51.112
568.89	51.313
569.23	49.822
569.56	49.150
569.90	49.019
570.24	49.157
570.57	48.895
570.91	47.770
571.25	47.622
571.59	47.275
571.92	46.889
572.26	47.400
572.60	47.568
572.93	47.526
573.27	48.063
573.61	47.962
573.95	48.372
574.28	47.437
574.62	47.522
574.96	46.643
575.29	46.508
575.63	47.002
575.97	47.019
576.30	48.088
576.64	47.839
576.98	46.257
577.31	47.551
577.65	47.904
577.98	47.326
578.32	46.485
578.66	46.331
578.99	46.747
579.33	47.422
579.67	47.093
580.00	47.830
580.34	48.339
580.67	47.672
581.01	48.392
581.35	48.415
581.68	47.499
582.02	46.790
582.35	46.854
582.69	46.712
583.02	47.416
583.36	47.475
583.70	48.302
584.03	49.060
584.37	49.038
584.70	49.269
585.04	48.606
585.37	47.973
585.71	47.956
586.04	48.345
586.38	48.720
586.72	49.655
587.05	49.117
587.39	48.179
587.72	49.085
588.06	48.826
588.39	48.944
588.73	49.516
589.06	50.639
589.40	50.741
589.73	51.038
590.07	50.569
590.40	50.493
590.73	51.561
591.07	52.584
591.40	52.003
591.74	52.857
592.07	51.963
592.41	52.253
592.74	50.824
593.08	50.133
593.41	50.206
593.75	49.032
594.08	49.547
594.41	50.230
594.75	50.869
595.08	50.966
595.42	52.049
595.75	51.460
596.09	51.596
596.42	51.788
596.75	52.174
597.09	53.333
597.42	52.234
597.75	52.824
598.09	53.087
598.42	51.976
598.76	52.331
599.09	50.969
599.42	50.801
599.76	52.196
600.09	51.111
600.42	50.730
600.76	51.250
601.09	50.747
601.42	52.207
601.76	51.992
602.09	52.095
602.42	53.105
602.76	52.519
603.09	53.344
603.42	52.597
603.76	51.181
604.09	51.764
604.42	53.078
604.76	52.720
605.09	53.080
605.42	51.347
605.75	52.442
606.09	52.420
606.42	53.821
606.75	52.136
607.09	52.114
607.42	53.145
607.75	51.688
608.08	52.280
608.42	53.698
608.75	52.435
609.08	52.821
609.41	52.975
609.75	53.835
610.08	54.948
610.41	53.305
610.74	54.210
611.07	54.447
611.41	54.956
611.74	54.751
612.07	55.072
612.40	55.719
612.73	54.158
613.07	55.172
613.40	55.714
613.73	54.326
614.06	55.591
614.39	54.012
614.72	54.737
615.06	55.095
615.39	54.724
615.72	55.215
616.05	54.811
616.38	55.197
616.71	56.829
617.05	56.949
617.38	55.803
617.71	57.177
618.04	57.512
618.37	56.298
618.70	57.498
619.03	58.158
619.36	58.384
619.69	59.155
620.03	59.272
620.36	58.021
620.69	58.973
621.02	58.407
621.35	61.472
621.68	59.657
622.01	60.836
622.34	60.287
622.67	60.000
623.00	59.574
623.33	58.470
623.66	59.471
623.99	59.278
624.32	58.845
624.65	58.333
624.99	57.861
625.32	59.088
625.65	60.556
625.98	61.184
626.31	60.498
626.64	61.061
626.97	62.427
627.30	61.180
627.63	61.854
627.96	62.658
628.29	62.467
628.62	62.855
628.95	66.132
629.28	63.139
629.61	64.161
629.94	62.762
630.26	64.824
630.59	64.728
630.92	64.943
631.25	64.166
