SpectraSuite Data File
++++++++++++++++++++++++++++++++++++
Date: Wed May 13 16:56:11 PDT 2015
User: schluterlab
Dark Spectrum Present: Yes
Reference Spectrum Present: Yes
Number of Sampled Component Spectra: 1
Spectrometers: USB2E3373
Integration Time (usec): 3000 (USB2E3373)
Spectra Averaged: 3 (USB2E3373)
Boxcar Smoothing: 0 (USB2E3373)
Correct for Electrical Dark: No (USB2E3373)
Strobe/Lamp Enabled: No (USB2E3373)
Correct for Detector Non-linearity: No (USB2E3373)
Correct for Stray Light: No (USB2E3373)
Number of Pixels in Processed Spectrum: 2048
>>>>>Begin Processed Spectral Data<<<<<
178.53	0.000
178.91	-1325.000
179.29	-1225.000
179.67	-272.222
180.04	-1475.000
180.42	2750.000
180.80	900.000
181.18	-1125.000
181.56	714.286
181.94	0.000
182.31	-614.286
182.69	1833.333
183.07	-637.500
183.45	-566.667
183.83	618.182
184.20	-430.000
184.58	2200.000
184.96	5100.000
185.34	-1080.000
185.72	-687.500
186.09	-2500.000
186.47	3050.000
186.85	2750.000
187.23	5000.000
187.61	-2066.667
187.98	1300.000
188.36	500.000
188.74	600.000
189.12	-1100.000
189.49	540.000
189.87	-4800.000
190.25	-1250.000
190.63	400.000
191.00	423.077
191.38	783.333
191.76	-1300.000
192.14	1700.000
192.51	737.500
192.89	1000.000
193.27	600.000
193.65	-1275.000
194.02	460.000
194.40	840.000
194.78	590.000
195.15	433.333
195.53	670.000
195.91	-2050.000
196.29	318.750
196.66	310.526
197.04	-410.000
197.42	0.000
197.79	620.000
198.17	-5800.000
198.55	728.571
198.92	725.000
199.30	960.000
199.68	0.000
200.05	327.778
200.43	771.429
200.81	5300.000
201.18	1500.000
201.56	-1666.667
201.94	455.556
202.31	588.889
202.69	450.000
203.07	680.000
203.44	0.000
203.82	1075.000
204.19	685.714
204.57	507.143
204.95	712.500
205.32	1700.000
205.70	463.636
206.08	371.429
206.45	2400.000
206.83	306.250
207.20	983.333
207.58	840.000
207.96	327.778
208.33	712.500
208.71	-816.667
209.08	700.000
209.46	600.000
209.84	509.091
210.21	-1500.000
210.59	1475.000
210.96	-450.000
211.34	2500.000
211.71	440.000
212.09	950.000
212.46	0.000
212.84	1700.000
213.22	1325.000
213.59	-4200.000
213.97	816.667
214.34	814.286
214.72	554.545
215.09	1160.000
215.47	-2100.000
215.84	-2650.000
216.22	1900.000
216.59	414.286
216.97	1450.000
217.34	427.273
217.72	-850.000
218.09	0.000
218.47	-4600.000
218.84	700.000
219.22	628.571
219.59	1566.667
219.97	-700.000
220.34	1020.000
220.72	-1833.333
221.09	442.857
221.47	1450.000
221.84	-966.667
222.22	0.000
222.59	1650.000
222.97	-2600.000
223.34	1080.000
223.72	446.154
224.09	1080.000
224.46	2200.000
224.84	-5400.000
225.21	-1040.000
225.59	-5500.000
225.96	660.000
226.34	300.000
226.71	2550.000
227.08	687.500
227.46	580.000
227.83	-1200.000
228.21	-2650.000
228.58	500.000
228.95	-2450.000
229.33	-2500.000
229.70	1600.000
230.08	714.286
230.45	-900.000
230.82	458.333
231.20	783.333
231.57	728.571
231.95	441.667
232.32	263.636
232.69	354.545
233.07	557.143
233.44	307.692
233.81	-1766.667
234.19	300.000
234.56	416.667
234.93	375.000
235.31	463.636
235.68	292.308
236.05	392.857
236.43	178.788
236.80	236.842
237.17	3800.000
237.55	266.667
237.92	192.857
238.29	219.048
238.67	170.968
239.04	227.586
239.41	141.667
239.79	113.043
240.16	128.571
240.53	111.364
240.91	103.922
241.28	84.000
241.65	108.000
242.02	76.812
242.40	66.129
242.77	55.000
243.14	59.140
243.51	64.045
243.89	60.000
244.26	54.444
244.63	52.688
245.00	44.681
245.38	54.455
245.75	47.664
246.12	52.294
246.49	52.555
246.87	56.000
247.24	48.462
247.61	41.429
247.98	39.216
248.36	28.378
248.73	35.669
249.10	32.484
249.47	30.508
249.84	32.086
250.22	31.016
250.59	33.136
250.96	30.303
251.33	33.649
251.70	32.673
252.08	30.476
252.45	26.457
252.82	26.957
253.19	28.085
253.56	28.627
253.94	26.971
254.31	27.734
254.68	23.462
255.05	23.616
255.42	27.236
255.79	25.735
256.16	23.827
256.54	19.788
256.91	24.911
257.28	22.662
257.65	24.752
258.02	21.739
258.39	23.344
258.76	20.401
259.14	21.429
259.51	19.453
259.88	18.012
260.25	21.450
260.62	19.942
260.99	19.876
261.36	20.120
261.73	20.057
262.10	20.930
262.47	18.028
262.85	18.384
263.22	16.524
263.59	20.513
263.96	17.308
264.33	17.493
264.70	18.421
265.07	18.670
265.44	18.182
265.81	15.572
266.18	18.593
266.55	15.122
266.92	19.165
267.29	17.361
267.66	16.972
268.03	17.045
268.40	17.523
268.77	15.513
269.14	15.090
269.51	18.510
269.88	17.016
270.25	16.930
270.62	16.629
270.99	19.785
271.36	17.167
271.73	15.888
272.10	15.870
272.47	16.989
272.84	16.450
273.21	16.352
273.58	14.629
273.95	14.675
274.32	15.496
274.69	15.632
275.06	14.173
275.43	15.745
275.80	16.232
276.17	16.090
276.54	16.008
276.91	14.229
277.28	14.648
277.65	14.313
278.02	14.286
278.39	14.648
278.76	14.909
279.13	13.396
279.50	15.642
279.87	14.542
280.23	13.573
280.60	13.346
280.97	13.494
281.34	14.690
281.71	14.000
282.08	17.083
282.45	14.182
282.82	13.854
283.19	13.191
283.56	14.561
283.92	14.552
284.29	14.815
284.66	13.249
285.03	14.286
285.40	12.852
285.77	11.785
286.14	13.472
286.51	14.500
286.87	14.530
287.24	13.844
287.61	11.396
287.98	13.149
288.35	12.203
288.72	12.305
289.08	12.833
289.45	12.850
289.82	13.008
290.19	10.832
290.56	13.017
290.93	10.574
291.29	11.196
291.66	12.389
292.03	13.517
292.40	13.803
292.77	12.426
293.13	10.896
293.50	11.370
293.87	11.704
294.24	10.963
294.60	11.645
294.97	11.192
295.34	12.271
295.71	11.648
296.08	10.826
296.44	11.967
296.81	9.908
297.18	12.195
297.55	10.818
297.91	11.609
298.28	10.710
298.65	13.055
299.02	11.594
299.38	11.023
299.75	8.221
300.12	9.706
300.48	9.875
300.85	9.125
301.22	9.045
301.59	9.343
301.95	11.209
302.32	9.371
302.69	9.438
303.05	9.697
303.42	9.630
303.79	9.853
304.15	9.790
304.52	8.806
304.89	9.292
305.25	10.325
305.62	9.287
305.99	9.917
306.35	10.179
306.72	10.314
307.09	10.100
307.45	10.473
307.82	9.821
308.19	9.603
308.55	9.924
308.92	9.882
309.29	9.081
309.65	9.332
310.02	10.359
310.38	10.323
310.75	9.293
311.12	9.826
311.48	9.509
311.85	9.539
312.22	10.198
312.58	9.459
312.95	10.348
313.31	9.223
313.68	10.707
314.05	10.947
314.41	9.648
314.78	10.373
315.14	9.930
315.51	9.990
315.87	9.802
316.24	9.633
316.61	9.747
316.97	9.491
317.34	9.491
317.70	10.421
318.07	11.838
318.43	10.568
318.80	11.903
319.16	11.488
319.53	10.600
319.89	12.095
320.26	11.400
320.62	10.714
320.99	12.020
321.35	12.020
321.72	12.731
322.08	11.649
322.45	12.736
322.81	12.888
323.18	13.198
323.54	11.503
323.91	11.981
324.27	12.524
324.64	12.954
325.00	12.263
325.37	12.648
325.73	14.183
326.10	11.827
326.46	12.545
326.83	13.374
327.19	13.066
327.56	12.108
327.92	12.511
328.29	13.221
328.65	14.825
329.01	12.726
329.38	12.673
329.74	13.112
330.11	13.289
330.47	12.305
330.84	13.235
331.20	14.117
331.56	13.853
331.93	13.889
332.29	13.221
332.66	13.628
333.02	13.711
333.38	13.640
333.75	13.280
334.11	13.256
334.48	14.020
334.84	13.511
335.20	12.727
335.57	12.421
335.93	13.214
336.29	12.179
336.66	14.067
337.02	12.398
337.38	13.796
337.75	11.943
338.11	11.280
338.47	13.076
338.84	12.924
339.20	12.661
339.56	13.321
339.93	13.000
340.29	12.228
340.65	12.656
341.02	12.740
341.38	13.167
341.74	13.246
342.11	13.537
342.47	11.806
342.83	13.784
343.20	13.074
343.56	12.974
343.92	12.719
344.28	13.520
344.65	13.156
345.01	12.121
345.37	11.921
345.73	13.790
346.10	13.043
346.46	12.203
346.82	12.685
347.19	11.195
347.55	12.151
347.91	12.702
348.27	13.804
348.63	12.709
349.00	11.327
349.36	11.987
349.72	12.670
350.08	12.399
350.45	13.019
350.81	12.266
351.17	13.371
351.53	12.695
351.89	12.789
352.26	13.575
352.62	12.831
352.98	12.804
353.34	13.722
353.70	10.966
354.07	13.065
354.43	12.460
354.79	12.550
355.15	12.450
355.51	12.310
355.87	12.816
356.24	13.681
356.60	11.868
356.96	13.516
357.32	13.246
357.68	13.543
358.04	12.827
358.40	14.014
358.77	13.928
359.13	12.155
359.49	13.490
359.85	11.667
360.21	12.520
360.57	12.529
360.93	12.846
361.29	12.623
361.66	13.235
362.02	12.985
362.38	12.928
362.74	13.170
363.10	12.213
363.46	12.619
363.82	12.018
364.18	14.097
364.54	13.744
364.90	13.598
365.26	12.647
365.62	13.075
365.98	13.587
366.35	12.966
366.71	13.811
367.07	12.673
367.43	13.498
367.79	13.348
368.15	15.014
368.51	13.299
368.87	14.347
369.23	13.972
369.59	14.555
369.95	13.015
370.31	13.889
370.67	13.406
371.03	14.831
371.39	14.213
371.75	14.338
372.11	14.225
372.47	14.516
372.83	14.625
373.19	13.512
373.55	13.599
373.91	14.875
374.27	13.952
374.63	13.964
374.99	14.831
375.35	13.329
375.71	14.599
376.07	15.021
376.42	15.062
376.78	14.645
377.14	14.179
377.50	14.834
377.86	14.894
378.22	15.550
378.58	14.662
378.94	15.336
379.30	14.758
379.66	15.419
380.02	14.742
380.38	15.422
380.74	15.906
381.09	16.015
381.45	15.734
381.81	16.953
382.17	16.688
382.53	15.849
382.89	16.975
383.25	15.947
383.61	17.038
383.97	17.636
384.32	16.906
384.68	17.286
385.04	16.472
385.40	16.656
385.76	17.445
386.12	17.163
386.48	18.313
386.83	18.217
387.19	18.677
387.55	17.440
387.91	17.896
388.27	17.658
388.62	17.947
388.98	17.875
389.34	18.085
389.70	18.578
390.06	19.772
390.42	17.964
390.77	18.321
391.13	19.847
391.49	18.972
391.85	18.523
392.20	18.549
392.56	19.129
392.92	19.541
393.28	18.166
393.64	19.065
393.99	19.365
394.35	18.797
394.71	19.824
395.07	19.128
395.42	18.480
395.78	19.211
396.14	19.491
396.50	20.238
396.85	20.343
397.21	18.927
397.57	19.653
397.92	19.171
398.28	19.114
398.64	19.773
399.00	19.306
399.35	19.064
399.71	19.329
400.07	19.042
400.42	19.080
400.78	19.300
401.14	20.183
401.49	19.403
401.85	19.722
402.21	18.443
402.57	19.247
402.92	19.735
403.28	19.363
403.63	19.926
403.99	19.236
404.35	19.697
404.70	19.365
405.06	19.220
405.42	19.963
405.77	19.600
406.13	20.260
406.49	19.456
406.84	18.783
407.20	19.208
407.55	19.783
407.91	19.267
408.27	19.081
408.62	19.747
408.98	19.056
409.34	19.127
409.69	21.226
410.05	19.517
410.40	20.245
410.76	19.713
411.11	20.386
411.47	20.192
411.83	19.914
412.18	19.913
412.54	19.676
412.89	20.000
413.25	19.303
413.60	19.148
413.96	19.004
414.31	19.866
414.67	20.152
415.03	18.742
415.38	19.974
415.74	19.871
416.09	19.334
416.45	19.679
416.80	19.299
417.16	19.906
417.51	20.438
417.87	19.782
418.22	19.180
418.58	20.207
418.93	19.779
419.29	19.287
419.64	20.340
420.00	19.573
420.35	19.652
420.71	19.605
421.06	19.212
421.42	19.123
421.77	20.179
422.12	18.697
422.48	18.457
422.83	19.278
423.19	18.895
423.54	18.572
423.90	18.957
424.25	19.040
424.61	19.464
424.96	18.776
425.31	18.162
425.67	18.764
426.02	19.200
426.38	20.085
426.73	18.490
427.09	19.027
427.44	19.034
427.79	18.861
428.15	18.750
428.50	18.783
428.85	19.547
429.21	18.443
429.56	18.559
429.92	18.218
430.27	18.421
430.62	18.126
430.98	18.319
431.33	18.660
431.68	18.482
432.04	18.743
432.39	18.846
432.74	19.150
433.10	19.355
433.45	19.475
433.80	18.237
434.16	18.056
434.51	18.368
434.86	18.529
435.22	19.122
435.57	19.027
435.92	18.783
436.28	19.276
436.63	19.702
436.98	18.432
437.34	17.949
437.69	19.195
438.04	18.100
438.39	19.284
438.75	18.478
439.10	18.883
439.45	19.599
439.81	19.033
440.16	18.634
440.51	18.336
440.86	19.803
441.22	17.742
441.57	18.471
441.92	18.475
442.27	18.515
442.63	17.746
442.98	18.197
443.33	18.587
443.68	18.379
444.03	18.106
444.39	17.186
444.74	18.777
445.09	18.437
445.44	18.535
445.79	18.951
446.15	17.840
446.50	18.148
446.85	18.551
447.20	17.950
447.55	18.928
447.91	18.036
448.26	18.308
448.61	18.146
448.96	18.660
449.31	19.123
449.66	18.008
450.02	18.273
450.37	18.311
450.72	17.936
451.07	17.611
451.42	17.568
451.77	18.262
452.12	18.072
452.47	18.097
452.83	18.298
453.18	18.704
453.53	19.109
453.88	17.779
454.23	18.410
454.58	18.353
454.93	19.263
455.28	17.955
455.63	18.083
455.98	19.345
456.34	17.965
456.69	18.848
457.04	18.142
457.39	17.650
457.74	17.934
458.09	18.401
458.44	18.358
458.79	17.354
459.14	18.284
459.49	18.097
459.84	17.729
460.19	17.973
460.54	18.113
460.89	17.553
461.24	18.215
461.59	18.536
461.94	18.064
462.29	17.092
462.64	17.230
462.99	17.306
463.34	18.933
463.69	18.449
464.04	18.551
464.39	17.159
464.74	18.004
465.09	17.310
465.44	18.338
465.79	17.002
466.14	17.241
466.49	16.852
466.84	17.980
467.19	17.622
467.54	18.812
467.89	17.407
468.24	17.161
468.59	17.888
468.94	17.349
469.29	17.738
469.64	17.805
469.99	17.659
470.34	17.768
470.68	17.672
471.03	18.027
471.38	17.790
471.73	17.189
472.08	18.224
472.43	17.965
472.78	18.038
473.13	18.228
473.48	17.665
473.83	18.354
474.17	16.490
474.52	16.998
474.87	17.396
475.22	17.063
475.57	16.765
475.92	17.207
476.27	16.573
476.61	17.044
476.96	15.668
477.31	16.484
477.66	16.630
478.01	16.309
478.36	16.816
478.70	15.732
479.05	16.400
479.40	16.633
479.75	16.268
480.10	16.153
480.45	16.230
480.79	15.671
481.14	16.732
481.49	16.232
481.84	15.912
482.19	16.447
482.53	16.789
482.88	16.612
483.23	16.215
483.58	15.833
483.92	15.276
484.27	15.294
484.62	15.862
484.97	15.136
485.31	15.514
485.66	14.676
486.01	13.762
486.36	13.310
486.70	13.195
487.05	13.442
487.40	13.662
487.75	14.074
488.09	14.771
488.44	14.676
488.79	14.937
489.13	15.775
489.48	15.538
489.83	15.710
490.17	15.870
490.52	15.722
490.87	15.649
491.22	15.189
491.56	14.442
491.91	15.170
492.26	15.250
492.60	15.484
492.95	14.500
493.30	15.701
493.64	15.259
493.99	15.599
494.34	15.726
494.68	15.110
495.03	15.038
495.37	14.705
495.72	15.448
496.07	15.128
496.41	14.425
496.76	14.996
497.11	14.948
497.45	15.370
497.80	14.875
498.14	14.928
498.49	14.390
498.84	15.101
499.18	14.619
499.53	15.052
499.87	15.098
500.22	14.979
500.56	15.777
500.91	14.760
501.26	14.794
501.60	15.899
501.95	14.390
502.29	14.995
502.64	15.084
502.98	14.960
503.33	15.265
503.67	15.313
504.02	15.716
504.36	15.068
504.71	15.291
505.06	14.843
505.40	14.487
505.75	14.465
506.09	13.800
506.44	15.590
506.78	14.515
507.13	14.235
507.47	15.808
507.82	15.147
508.16	14.640
508.51	15.424
508.85	14.846
509.19	15.204
509.54	14.949
509.88	15.147
510.23	15.373
510.57	15.789
510.92	16.106
511.26	15.262
511.61	15.871
511.95	14.927
512.30	14.899
512.64	14.562
512.98	14.952
513.33	15.096
513.67	15.368
514.02	14.448
514.36	15.620
514.70	15.163
515.05	14.445
515.39	14.750
515.74	15.484
516.08	15.651
516.42	15.871
516.77	15.886
517.11	15.427
517.46	15.688
517.80	15.854
518.14	14.476
518.49	14.994
518.83	15.852
519.17	15.300
519.52	15.620
519.86	15.231
520.20	15.723
520.55	15.141
520.89	15.998
521.23	15.923
521.58	15.906
521.92	15.677
522.26	14.399
522.61	16.012
522.95	16.083
523.29	15.399
523.64	15.671
523.98	15.342
524.32	14.958
524.66	15.935
525.01	15.993
525.35	15.489
525.69	15.209
526.04	15.576
526.38	15.070
526.72	15.276
527.06	15.443
527.41	14.233
527.75	15.627
528.09	15.286
528.43	15.296
528.78	15.427
529.12	14.727
529.46	15.003
529.80	15.718
530.15	15.888
530.49	14.954
530.83	16.582
531.17	15.666
531.51	16.148
531.86	16.258
532.20	15.385
532.54	15.759
532.88	16.239
533.22	15.553
533.57	15.802
533.91	15.232
534.25	15.128
534.59	15.497
534.93	14.575
535.27	14.846
535.62	15.568
535.96	15.568
536.30	15.830
536.64	15.583
536.98	15.727
537.32	15.076
537.66	14.200
538.01	15.273
538.35	15.385
538.69	15.507
539.03	14.230
539.37	14.121
539.71	14.128
540.05	15.163
540.39	15.017
540.73	15.524
541.07	14.990
541.42	15.395
541.76	16.194
542.10	14.748
542.44	14.768
542.78	16.469
543.12	14.523
543.46	15.869
543.80	16.135
544.14	14.249
544.48	14.984
544.82	14.753
545.16	15.420
545.50	15.103
545.84	14.315
546.18	14.276
546.52	15.692
546.86	14.914
547.20	15.779
547.54	15.164
547.88	15.880
548.22	14.695
548.56	14.843
548.90	14.789
549.24	14.882
549.58	14.188
549.92	15.316
550.26	15.270
550.60	15.076
550.94	14.789
551.28	14.119
551.62	15.025
551.96	15.088
552.30	15.358
552.64	15.483
552.98	15.864
553.32	15.105
553.66	15.201
554.00	15.100
554.34	14.907
554.68	15.594
555.02	14.316
555.36	15.310
555.69	14.411
556.03	15.007
556.37	14.598
556.71	14.939
557.05	15.826
557.39	15.185
557.73	14.679
558.07	15.083
558.41	14.544
558.75	14.034
559.08	15.585
559.42	14.815
559.76	15.588
560.10	14.989
560.44	14.745
560.78	14.039
561.12	14.776
561.45	15.776
561.79	14.898
562.13	14.085
562.47	14.686
562.81	14.644
563.15	14.247
563.48	14.655
563.82	14.547
564.16	14.716
564.50	14.062
564.84	14.096
565.17	14.736
565.51	14.121
565.85	14.023
566.19	14.026
566.52	14.693
566.86	13.743
567.20	14.328
567.54	13.870
567.88	13.036
568.21	14.286
568.55	13.397
568.89	13.716
569.23	13.146
569.56	12.632
569.90	12.113
570.24	12.343
570.57	11.901
570.91	11.571
571.25	11.767
571.59	12.165
571.92	11.434
572.26	11.987
572.60	12.162
572.93	11.994
573.27	11.653
573.61	12.172
573.95	12.041
574.28	11.533
574.62	11.492
574.96	11.732
575.29	11.324
575.63	11.255
575.97	11.664
576.30	11.338
576.64	11.473
576.98	11.570
577.31	11.322
577.65	11.357
577.98	11.460
578.32	11.319
578.66	11.468
578.99	11.207
579.33	11.281
579.67	11.214
580.00	11.700
580.34	11.509
580.67	11.416
581.01	11.648
581.35	11.352
581.68	11.196
582.02	10.687
582.35	10.597
582.69	11.256
583.02	10.546
583.36	11.183
583.70	11.364
584.03	11.285
584.37	11.831
584.70	11.573
585.04	11.350
585.37	11.696
585.71	11.443
586.04	11.404
586.38	11.677
586.72	11.820
587.05	11.682
587.39	11.187
587.72	11.595
588.06	11.473
588.39	11.468
588.73	11.528
589.06	11.873
589.40	11.684
589.73	12.003
590.07	11.566
590.40	12.057
590.73	12.256
591.07	12.576
591.40	12.400
591.74	12.814
592.07	12.565
592.41	12.815
592.74	11.910
593.08	11.892
593.41	11.515
593.75	11.836
594.08	11.800
594.41	12.301
594.75	11.793
595.08	12.026
595.42	12.084
595.75	11.752
596.09	12.279
596.42	12.652
596.75	12.790
597.09	12.987
597.42	11.804
597.75	12.462
598.09	12.130
598.42	12.156
598.76	11.755
599.09	12.277
599.42	11.390
599.76	12.152
600.09	11.985
600.42	11.980
600.76	11.857
601.09	11.840
601.42	11.872
601.76	12.106
602.09	11.937
602.42	12.341
602.76	12.052
603.09	12.274
603.42	12.027
603.76	11.814
604.09	12.020
604.42	12.271
604.76	12.864
605.09	12.101
605.42	12.270
605.75	12.252
606.09	11.915
606.42	12.137
606.75	12.153
607.09	12.013
607.42	12.152
607.75	11.688
608.08	11.767
608.42	11.744
608.75	12.444
609.08	12.488
609.41	12.375
609.75	12.434
610.08	12.677
610.41	12.011
610.74	12.583
611.07	12.500
611.41	12.071
611.74	13.223
612.07	12.681
612.40	12.697
612.73	12.947
613.07	12.877
613.40	12.533
613.73	12.690
614.06	12.312
614.39	12.585
614.72	12.737
615.06	12.605
615.39	12.580
615.72	12.117
616.05	12.015
616.38	12.840
616.71	12.411
617.05	13.251
617.38	11.726
617.71	12.853
618.04	13.822
618.37	12.241
618.70	13.006
619.03	13.684
619.36	13.374
619.69	14.648
620.03	13.599
620.36	13.770
620.69	13.767
621.02	13.274
621.35	13.547
621.68	13.474
622.01	14.241
622.34	13.464
622.67	13.384
623.00	13.353
623.33	12.938
623.66	13.581
623.99	13.181
624.32	12.981
624.65	13.630
624.99	13.739
625.32	13.758
625.65	13.298
625.98	13.989
626.31	13.219
626.64	14.449
626.97	13.716
627.30	13.466
627.63	15.012
627.96	15.559
628.29	14.611
628.62	14.547
628.95	14.811
629.28	14.507
629.61	16.040
629.94	14.667
630.26	13.441
630.59	14.681
630.92	14.559
631.25	13.623
631.58	15.115
