SpectraSuite Data File
++++++++++++++++++++++++++++++++++++
Date: Wed May 13 16:22:12 PDT 2015
User: schluterlab
Dark Spectrum Present: Yes
Reference Spectrum Present: Yes
Number of Sampled Component Spectra: 1
Spectrometers: USB2E3373
Integration Time (usec): 3000 (USB2E3373)
Spectra Averaged: 3 (USB2E3373)
Boxcar Smoothing: 0 (USB2E3373)
Correct for Electrical Dark: No (USB2E3373)
Strobe/Lamp Enabled: No (USB2E3373)
Correct for Detector Non-linearity: No (USB2E3373)
Correct for Stray Light: No (USB2E3373)
Number of Pixels in Processed Spectrum: 2048
>>>>>Begin Processed Spectral Data<<<<<
178.53	0.000
178.91	-1275.000
179.29	-1000.000
179.67	-244.444
180.04	-1075.000
180.42	2350.000
180.80	860.000
181.18	-975.000
181.56	700.000
181.94	0.000
182.31	-600.000
182.69	1566.667
183.07	-612.500
183.45	-455.556
183.83	481.818
184.20	-410.000
184.58	2250.000
184.96	4900.000
185.34	-740.000
185.72	-575.000
186.09	-2350.000
186.47	2900.000
186.85	2350.000
187.23	4100.000
187.61	-1766.667
187.98	1250.000
188.36	554.545
188.74	536.364
189.12	-820.000
189.49	560.000
189.87	-3400.000
190.25	-1325.000
190.63	407.143
191.00	369.231
191.38	783.333
191.76	-1050.000
192.14	1425.000
192.51	625.000
192.89	983.333
193.27	537.500
193.65	-975.000
194.02	400.000
194.40	860.000
194.78	510.000
195.15	500.000
195.53	600.000
195.91	-2150.000
196.29	306.250
196.66	300.000
197.04	-280.000
197.42	0.000
197.79	570.000
198.17	-3900.000
198.55	600.000
198.92	737.500
199.30	880.000
199.68	0.000
200.05	322.222
200.43	714.286
200.81	4700.000
201.18	1566.667
201.56	-1400.000
201.94	500.000
202.31	622.222
202.69	325.000
203.07	490.000
203.44	0.000
203.82	850.000
204.19	714.286
204.57	421.429
204.95	475.000
205.32	1400.000
205.70	490.909
206.08	385.714
206.45	2600.000
206.83	325.000
207.20	916.667
207.58	680.000
207.96	316.667
208.33	612.500
208.71	-900.000
209.08	671.429
209.46	655.556
209.84	418.182
210.21	-1266.667
210.59	1175.000
210.96	-450.000
211.34	2300.000
211.71	520.000
212.09	633.333
212.46	0.000
212.84	1300.000
213.22	1325.000
213.59	-4900.000
213.97	500.000
214.34	757.143
214.72	490.909
215.09	1120.000
215.47	-2250.000
215.84	-2250.000
216.22	1500.000
216.59	450.000
216.97	1425.000
217.34	418.182
217.72	-700.000
218.09	0.000
218.47	-4200.000
218.84	600.000
219.22	671.429
219.59	1633.333
219.97	-557.143
220.34	960.000
220.72	-1866.667
221.09	392.857
221.47	1225.000
221.84	-1083.333
222.22	0.000
222.59	1150.000
222.97	-2800.000
223.34	1020.000
223.72	376.923
224.09	1080.000
224.46	1800.000
224.84	-4100.000
225.21	-1020.000
225.59	-4500.000
225.96	630.000
226.34	270.000
226.71	2450.000
227.08	525.000
227.46	460.000
227.83	-800.000
228.21	-2450.000
228.58	566.667
228.95	-2850.000
229.33	-2150.000
229.70	1766.667
230.08	828.571
230.45	-720.000
230.82	383.333
231.20	883.333
231.57	657.143
231.95	416.667
232.32	236.364
232.69	454.545
233.07	557.143
233.44	361.538
233.81	-1533.333
234.19	273.684
234.56	325.000
234.93	291.667
235.31	390.909
235.68	323.077
236.05	278.571
236.43	151.515
236.80	205.263
237.17	4500.000
237.55	257.143
237.92	182.143
238.29	280.952
238.67	103.226
239.04	165.517
239.41	105.556
239.79	115.217
240.16	109.524
240.53	122.727
240.91	96.078
241.28	100.000
241.65	98.000
242.02	95.652
242.40	75.806
242.77	75.000
243.14	70.968
243.51	64.045
243.89	58.824
244.26	44.444
244.63	55.914
245.00	56.383
245.38	42.574
245.75	44.860
246.12	44.037
246.49	43.066
246.87	48.800
247.24	37.692
247.61	44.286
247.98	33.333
248.36	37.162
248.73	40.127
249.10	36.943
249.47	35.593
249.84	38.503
250.22	31.016
250.59	29.586
250.96	31.818
251.33	34.597
251.70	34.158
252.08	30.476
252.45	24.215
252.82	28.261
253.19	26.809
253.56	27.451
253.94	29.876
254.31	28.125
254.68	27.308
255.05	25.830
255.42	23.577
255.79	19.853
256.16	23.827
256.54	24.028
256.91	26.690
257.28	17.266
257.65	20.132
258.02	22.360
258.39	22.397
258.76	25.418
259.14	22.619
259.51	19.453
259.88	17.391
260.25	24.773
260.62	20.231
260.99	18.012
261.36	24.324
261.73	21.203
262.10	19.186
262.47	21.972
262.85	18.384
263.22	18.234
263.59	19.088
263.96	19.231
264.33	17.755
264.70	18.947
265.07	20.205
265.44	20.707
265.81	18.491
266.18	19.095
266.55	18.537
266.92	19.902
267.29	16.204
267.66	16.284
268.03	18.864
268.40	18.692
268.77	18.377
269.14	17.117
269.51	20.767
269.88	16.783
270.25	18.736
270.62	18.652
270.99	19.355
271.36	18.026
271.73	15.187
272.10	15.870
272.47	17.204
272.84	18.398
273.21	17.191
273.58	13.974
273.95	14.256
274.32	16.116
274.69	18.201
275.06	15.945
275.43	18.298
275.80	18.036
276.17	13.849
276.54	17.879
276.91	15.613
277.28	16.992
277.65	16.441
278.02	13.872
278.39	17.969
278.76	16.000
279.13	17.547
279.50	16.574
279.87	18.327
280.23	16.168
280.60	13.540
280.97	16.266
281.34	15.929
281.71	16.545
282.08	17.274
282.45	16.545
282.82	14.387
283.19	14.082
283.56	14.561
283.92	16.751
284.29	16.226
284.66	15.064
285.03	15.913
285.40	16.373
285.77	14.646
286.14	15.026
286.51	14.500
286.87	14.872
287.24	14.984
287.61	14.607
287.98	13.474
288.35	14.580
288.72	13.863
289.08	13.615
289.45	14.003
289.82	12.846
290.19	11.931
290.56	13.629
290.93	12.236
291.29	12.117
291.66	14.454
292.03	16.570
292.40	14.097
292.77	13.018
293.13	13.881
293.50	13.557
293.87	13.481
294.24	11.259
294.60	11.499
294.97	13.372
295.34	13.540
295.71	13.068
296.08	11.396
296.44	12.792
296.81	11.889
297.18	13.008
297.55	11.082
297.91	11.214
298.28	12.316
298.65	12.924
299.02	12.780
299.38	12.483
299.75	9.569
300.12	11.239
300.48	11.625
300.85	11.837
301.22	10.573
301.59	10.354
301.95	10.579
302.32	11.040
302.69	11.828
303.05	12.121
303.42	10.617
303.79	10.193
304.15	9.557
304.52	10.545
304.89	11.266
305.25	9.513
305.62	12.458
305.99	9.917
306.35	10.962
306.72	10.090
307.09	11.765
307.45	10.586
307.82	9.710
308.19	11.148
308.55	12.082
308.92	10.204
309.29	10.243
309.65	9.756
310.02	10.042
310.38	10.430
310.75	10.665
311.12	10.850
311.48	10.240
311.85	11.111
312.22	10.822
312.58	10.291
312.95	11.721
313.31	10.000
313.68	11.331
314.05	11.637
314.41	11.457
314.78	11.480
315.14	11.122
315.51	11.020
315.87	11.980
316.24	10.924
316.61	11.014
316.97	11.546
317.34	10.568
317.70	12.524
318.07	11.357
318.43	12.524
318.80	12.465
319.16	12.241
319.53	11.820
319.89	13.714
320.26	13.300
320.62	12.401
320.99	13.939
321.35	12.323
321.72	14.271
322.08	14.610
322.45	15.224
322.81	14.729
323.18	16.281
323.54	15.584
323.91	15.094
324.27	15.583
324.64	14.911
325.00	15.780
325.37	15.742
325.73	16.158
326.10	16.240
326.46	16.756
326.83	17.860
327.19	16.652
327.56	16.115
327.92	18.198
328.29	18.012
328.65	17.495
329.01	17.780
329.38	17.576
329.74	17.452
330.11	18.944
330.47	17.906
330.84	18.750
331.20	18.397
331.56	18.440
331.93	18.519
332.29	18.367
332.66	19.115
333.02	19.927
333.38	18.880
333.75	19.697
334.11	20.018
334.48	19.521
334.84	19.026
335.20	20.000
335.57	18.495
335.93	17.589
336.29	18.681
336.66	20.649
337.02	18.643
337.38	18.889
337.75	18.360
338.11	19.427
338.47	19.613
338.84	21.723
339.20	18.165
339.56	20.255
339.93	18.545
340.29	19.928
340.65	18.984
341.02	19.110
341.38	20.285
341.74	19.035
342.11	19.913
342.47	18.943
342.83	19.949
343.20	20.000
343.56	19.798
343.92	20.351
344.28	20.068
344.65	20.722
345.01	19.360
345.37	19.211
345.73	20.389
346.10	19.352
346.46	19.576
346.82	19.275
347.19	19.048
347.55	18.883
347.91	19.013
348.27	20.542
348.63	20.652
349.00	18.932
349.36	19.704
349.72	20.289
350.08	19.611
350.45	20.423
350.81	20.227
351.17	19.773
351.53	19.984
351.89	18.977
352.26	20.679
352.62	19.808
352.98	19.854
353.34	20.049
353.70	19.067
354.07	19.032
354.43	19.286
354.79	19.389
355.15	20.192
355.51	20.943
355.87	20.327
356.24	21.336
356.60	19.166
356.96	19.791
357.32	18.479
357.68	20.787
358.04	19.636
358.40	20.190
358.77	19.953
359.13	18.627
359.49	19.529
359.85	19.365
360.21	20.335
360.57	20.856
360.93	19.769
361.29	19.350
361.66	19.892
362.02	20.970
362.38	20.684
362.74	19.717
363.10	19.393
363.46	19.736
363.82	20.559
364.18	20.778
364.54	20.877
364.90	21.813
365.26	19.853
365.62	20.599
365.98	19.942
366.35	19.842
366.71	19.957
367.07	20.757
367.43	21.263
367.79	21.342
368.15	21.911
368.51	20.785
368.87	21.413
369.23	21.141
369.59	21.723
369.95	21.176
370.31	21.724
370.67	20.870
371.03	21.573
371.39	21.501
371.75	22.279
372.11	20.341
372.47	21.628
372.83	21.614
373.19	20.809
373.55	22.321
373.91	23.270
374.27	21.581
374.63	22.182
374.99	22.599
375.35	21.563
375.71	22.070
376.07	23.525
376.42	22.283
376.78	23.592
377.14	22.795
377.50	22.517
377.86	22.008
378.22	23.451
378.58	22.494
378.94	22.816
379.30	22.583
379.66	22.970
380.02	23.464
380.38	22.951
380.74	23.109
381.09	23.472
381.45	24.093
381.81	24.754
382.17	23.822
382.53	24.591
382.89	23.951
383.25	23.515
383.61	25.031
383.97	25.016
384.32	24.080
384.68	25.093
385.04	24.954
385.40	24.458
385.76	24.509
386.12	25.259
386.48	25.991
386.83	25.786
387.19	26.345
387.55	25.232
387.91	25.937
388.27	25.015
388.62	26.306
388.98	25.369
389.34	26.408
389.70	25.935
390.06	27.250
390.42	26.070
390.77	25.191
391.13	26.037
391.49	26.523
391.85	26.034
392.20	26.372
392.56	25.947
392.92	26.957
393.28	26.154
393.64	26.739
393.99	26.817
394.35	26.551
394.71	26.098
395.07	25.794
395.42	26.329
395.78	26.718
396.14	26.691
396.50	27.381
396.85	27.463
397.21	26.264
397.57	26.968
397.92	27.224
398.28	25.953
398.64	27.061
399.00	26.021
399.35	26.509
399.71	27.315
400.07	27.085
400.42	27.362
400.78	27.503
401.14	26.829
401.49	27.701
401.85	26.437
402.21	25.988
402.57	26.835
402.92	28.247
403.28	27.171
403.63	26.609
403.99	26.306
404.35	27.576
404.70	26.918
405.06	26.966
405.42	26.825
405.77	26.286
406.13	27.144
406.49	28.445
406.84	26.344
407.20	27.069
407.55	27.250
407.91	28.000
408.27	26.867
408.62	26.370
408.98	26.409
409.34	26.445
409.69	27.355
410.05	27.200
410.40	26.850
410.76	26.941
411.11	26.840
411.47	26.645
411.83	28.100
412.18	26.531
412.54	27.273
412.89	26.446
413.25	26.800
413.60	26.868
413.96	26.108
414.31	27.157
414.67	26.806
415.03	26.490
415.38	26.675
415.74	26.881
416.09	26.976
416.45	26.238
416.80	26.438
417.16	27.748
417.51	27.671
417.87	27.039
418.22	27.445
418.58	27.502
418.93	27.764
419.29	27.053
419.64	27.393
420.00	27.927
420.35	26.145
420.71	26.599
421.06	26.134
421.42	27.251
421.77	26.626
422.12	25.435
422.48	26.120
422.83	26.733
423.19	26.906
423.54	26.640
423.90	26.493
424.25	26.689
424.61	25.595
424.96	26.589
425.31	26.190
425.67	25.843
426.02	26.171
426.38	27.106
426.73	26.156
427.09	25.897
427.44	26.970
427.79	25.819
428.15	26.488
428.50	25.395
428.85	26.698
429.21	26.063
429.56	25.868
429.92	26.371
430.27	25.273
430.62	25.806
430.98	26.258
431.33	25.052
431.68	25.707
432.04	26.092
432.39	26.442
432.74	26.810
433.10	26.429
433.45	26.997
433.80	26.164
434.16	26.282
434.51	25.789
434.86	26.682
435.22	25.903
435.57	26.079
435.92	26.097
436.28	27.699
436.63	26.821
436.98	25.529
437.34	25.701
437.69	26.429
438.04	26.419
438.39	26.209
438.75	26.438
439.10	25.307
439.45	26.151
439.81	26.586
440.16	25.692
440.51	27.124
440.86	26.752
441.22	25.806
441.57	26.062
441.92	26.305
442.27	25.834
442.63	25.224
442.98	27.324
443.33	26.087
443.68	25.090
444.03	25.720
444.39	25.316
444.74	26.461
445.09	26.146
445.44	25.478
445.79	25.779
446.15	25.834
446.50	26.333
446.85	25.385
447.20	24.885
447.55	25.796
447.91	26.531
448.26	25.765
448.61	25.325
448.96	26.357
449.31	25.816
449.66	25.661
450.02	25.627
450.37	24.830
450.72	25.381
451.07	25.472
451.42	25.471
451.77	25.954
452.12	25.462
452.47	25.871
452.83	26.107
453.18	26.222
453.53	26.964
453.88	25.399
454.23	25.822
454.58	26.469
454.93	26.383
455.28	25.873
455.63	26.274
455.98	26.667
456.34	25.628
456.69	25.736
457.04	25.820
457.39	25.424
457.74	24.782
458.09	25.819
458.44	25.998
458.79	25.000
459.14	25.113
459.49	25.161
459.84	24.598
460.19	24.691
460.54	24.421
460.89	24.410
461.24	26.108
461.59	26.031
461.94	25.339
462.29	25.638
462.64	25.080
462.99	25.374
463.34	26.067
463.69	25.203
464.04	25.391
464.39	24.522
464.74	24.777
465.09	24.608
465.44	24.986
465.79	24.609
466.14	23.372
466.49	24.416
466.84	24.985
467.19	25.106
467.54	25.875
467.89	25.030
468.24	25.538
468.59	25.458
468.94	24.252
469.29	25.771
469.64	25.770
469.99	24.966
470.34	24.042
470.68	25.144
471.03	25.034
471.38	25.643
471.73	24.717
472.08	25.921
472.43	24.623
472.78	24.424
473.13	24.840
473.48	24.594
473.83	23.659
474.17	24.020
474.52	24.752
474.87	25.044
475.22	24.318
475.57	24.288
475.92	23.261
476.27	23.506
476.61	23.221
476.96	24.189
477.31	22.868
477.66	24.398
478.01	23.837
478.36	24.220
478.70	23.157
479.05	23.855
479.40	23.593
479.75	23.335
480.10	23.360
480.45	23.893
480.79	22.695
481.14	23.043
481.49	23.398
481.84	23.365
482.19	23.217
482.53	23.211
482.88	23.267
483.23	23.458
483.58	23.203
483.92	23.852
484.27	21.351
484.62	22.845
484.97	21.955
485.31	23.390
485.66	21.731
486.01	20.615
486.36	19.529
486.70	19.034
487.05	20.140
487.40	21.118
487.75	20.920
488.09	21.353
488.44	20.981
488.79	22.098
489.13	22.918
489.48	22.145
489.83	21.795
490.17	22.534
490.52	21.656
490.87	23.021
491.22	21.783
491.56	21.595
491.91	22.103
492.26	22.049
492.60	22.304
492.95	21.656
493.30	22.336
493.64	21.885
493.99	21.588
494.34	22.109
494.68	22.756
495.03	22.321
495.37	22.336
495.72	22.027
496.07	22.877
496.41	21.637
496.76	21.416
497.11	21.387
497.45	21.006
497.80	21.929
498.14	21.498
498.49	21.659
498.84	21.572
499.18	22.048
499.53	22.222
499.87	21.575
500.22	21.385
500.56	22.087
500.91	21.442
501.26	21.290
501.60	21.405
501.95	20.761
502.29	21.790
502.64	22.067
502.98	21.412
503.33	21.846
503.67	21.671
504.02	20.907
504.36	20.636
504.71	22.081
505.06	21.639
505.40	21.585
505.75	20.878
506.09	21.234
506.44	20.918
506.78	21.822
507.13	21.302
507.47	22.222
507.82	21.733
508.16	21.530
508.51	21.867
508.85	21.251
509.19	21.224
509.54	20.816
509.88	20.711
510.23	21.234
510.57	22.601
510.92	20.456
511.26	21.429
511.61	21.369
511.95	21.764
512.30	20.944
512.64	21.064
512.98	21.543
513.33	21.627
513.67	20.277
514.02	21.050
514.36	21.573
514.70	21.140
515.05	20.524
515.39	21.593
515.74	21.227
516.08	21.744
516.42	21.643
516.77	21.851
517.11	21.421
517.46	21.275
517.80	21.719
518.14	20.845
518.49	21.529
518.83	21.193
519.17	21.132
519.52	21.222
519.86	21.221
520.20	21.387
520.55	21.843
520.89	21.655
521.23	22.135
521.58	21.849
521.92	21.310
522.26	21.110
522.61	21.807
522.95	21.301
523.29	20.694
523.64	21.707
523.98	21.935
524.32	20.567
524.66	22.369
525.01	20.527
525.35	20.880
525.69	21.798
526.04	21.931
526.38	21.782
526.72	20.736
527.06	21.281
527.41	20.173
527.75	22.186
528.09	21.452
528.43	21.734
528.78	21.512
529.12	21.273
529.46	20.576
529.80	20.483
530.15	22.056
530.49	20.862
530.83	22.342
531.17	21.606
531.51	22.503
531.86	20.710
532.20	21.447
532.54	21.781
532.88	22.144
533.22	20.550
533.57	20.988
533.91	21.373
534.25	20.838
534.59	20.500
534.93	20.523
535.27	21.545
535.62	20.635
535.96	21.030
536.30	20.407
536.64	21.442
536.98	21.102
537.32	20.408
537.66	21.000
538.01	21.330
538.35	21.202
538.69	20.676
539.03	20.338
539.37	19.872
539.71	19.637
540.05	20.196
540.39	20.465
540.73	20.310
541.07	21.480
541.42	19.961
541.76	20.258
542.10	20.893
542.44	20.132
542.78	21.476
543.12	19.898
543.46	20.393
543.80	19.779
544.14	19.641
544.48	20.698
544.82	20.269
545.16	20.560
545.50	19.987
545.84	19.960
546.18	19.865
546.52	20.647
546.86	19.863
547.20	20.499
547.54	20.174
547.88	20.089
548.22	19.365
548.56	19.937
548.90	20.102
549.24	19.394
549.58	20.327
549.92	20.673
550.26	20.810
550.60	19.848
550.94	20.282
551.28	19.312
551.62	20.201
551.96	20.140
552.30	20.956
552.64	20.284
552.98	20.407
553.32	20.634
553.66	20.245
554.00	20.316
554.34	19.738
554.68	20.744
555.02	19.887
555.36	18.998
555.69	19.147
556.03	19.112
556.37	19.850
556.71	20.055
557.05	20.518
557.39	20.364
557.73	19.125
558.07	19.724
558.41	19.537
558.75	19.985
559.08	20.283
559.42	19.652
559.76	19.779
560.10	19.843
560.44	18.798
560.78	19.029
561.12	18.997
561.45	19.166
561.79	18.853
562.13	19.182
562.47	19.945
562.81	18.828
563.15	18.997
563.48	18.833
563.82	18.656
564.16	18.967
564.50	18.945
564.84	18.900
565.17	18.597
565.51	19.042
565.85	19.289
566.19	18.096
566.52	19.253
566.86	18.204
567.20	18.868
567.54	17.694
567.88	17.599
568.21	18.571
568.55	17.846
568.89	17.656
569.23	17.023
569.56	17.126
569.90	16.943
570.24	16.254
570.57	15.947
570.91	16.193
571.25	16.152
571.59	15.611
571.92	15.726
572.26	15.540
572.60	15.616
572.93	15.712
573.27	15.883
573.61	15.606
573.95	15.607
574.28	15.503
574.62	15.646
574.96	15.197
575.29	15.034
575.63	15.168
575.97	15.777
576.30	15.640
576.64	15.188
576.98	15.022
577.31	15.504
577.65	15.201
577.98	15.300
578.32	14.774
578.66	14.864
578.99	14.814
579.33	15.081
579.67	15.106
580.00	15.128
580.34	15.211
580.67	15.150
581.01	15.179
581.35	14.666
581.68	14.934
582.02	14.588
582.35	14.503
582.69	14.762
583.02	14.585
583.36	15.126
583.70	15.035
584.03	15.282
584.37	15.468
584.70	15.230
585.04	15.533
585.37	15.075
585.71	15.461
586.04	14.835
586.38	15.282
586.72	15.327
587.05	14.996
587.39	14.855
587.72	14.867
588.06	15.128
588.39	14.842
588.73	14.843
589.06	15.924
589.40	15.623
589.73	15.839
590.07	15.872
590.40	15.491
590.73	16.120
591.07	16.768
591.40	16.491
591.74	16.494
592.07	16.449
592.41	15.502
592.74	15.318
593.08	15.256
593.41	15.027
593.75	14.959
594.08	14.918
594.41	15.200
594.75	15.564
595.08	15.641
595.42	15.587
595.75	15.598
596.09	15.997
596.42	16.149
596.75	16.041
597.09	16.926
597.42	16.484
597.75	15.998
598.09	15.913
598.42	15.636
598.76	15.768
599.09	15.013
599.42	15.175
599.76	15.227
600.09	15.118
600.42	15.303
600.76	15.214
601.09	14.900
601.42	15.449
601.76	15.370
602.09	15.059
602.42	15.884
602.76	16.042
603.09	15.500
603.42	15.502
603.76	15.511
604.09	14.928
604.42	15.736
604.76	15.858
605.09	16.121
605.42	15.348
605.75	15.356
606.09	15.535
606.42	15.611
606.75	15.678
607.09	15.488
607.42	15.276
607.75	15.527
608.08	15.588
608.42	16.136
608.75	15.645
609.08	15.957
609.41	15.612
609.75	15.150
610.08	15.928
610.41	15.223
610.74	15.894
611.07	15.810
611.41	16.389
611.74	16.642
612.07	16.460
612.40	17.156
612.73	16.526
613.07	16.972
613.40	16.377
613.73	15.050
614.06	15.591
614.39	17.147
614.72	16.368
615.06	16.282
615.39	16.030
615.72	16.258
616.05	16.108
616.38	16.620
616.71	16.390
617.05	16.843
617.38	15.815
617.71	17.237
618.04	16.587
618.37	16.972
618.70	16.366
619.03	17.632
619.36	17.515
619.69	17.324
620.03	18.132
620.36	17.848
620.69	18.836
621.02	17.035
621.35	17.463
621.68	17.835
622.01	17.957
622.34	17.247
622.67	17.186
623.00	16.875
623.33	16.583
623.66	17.584
623.99	17.231
624.32	16.904
624.65	16.879
624.99	16.431
625.32	16.437
625.65	16.679
625.98	17.909
626.31	18.740
626.64	18.122
626.97	18.786
627.30	17.955
627.63	18.130
627.96	19.092
628.29	19.073
628.62	19.396
628.95	20.660
629.28	19.434
629.61	19.707
629.94	19.810
630.26	18.398
630.59	18.875
630.92	18.391
631.25	17.966
