SpectraSuite Data File
++++++++++++++++++++++++++++++++++++
Date: Wed May 13 16:04:15 PDT 2015
User: schluterlab
Dark Spectrum Present: Yes
Reference Spectrum Present: Yes
Number of Sampled Component Spectra: 1
Spectrometers: USB2E3373
Integration Time (usec): 3000 (USB2E3373)
Spectra Averaged: 3 (USB2E3373)
Boxcar Smoothing: 0 (USB2E3373)
Correct for Electrical Dark: No (USB2E3373)
Strobe/Lamp Enabled: No (USB2E3373)
Correct for Detector Non-linearity: No (USB2E3373)
Correct for Stray Light: No (USB2E3373)
Number of Pixels in Processed Spectrum: 2048
>>>>>Begin Processed Spectral Data<<<<<
178.53	0.000
178.91	-575.000
179.29	-675.000
179.67	-111.111
180.04	-725.000
180.42	950.000
180.80	560.000
181.18	-425.000
181.56	328.571
181.94	0.000
182.31	-185.714
182.69	900.000
183.07	-162.500
183.45	-100.000
183.83	236.364
184.20	-180.000
184.58	1250.000
184.96	3100.000
185.34	-480.000
185.72	-250.000
186.09	-1150.000
186.47	1200.000
186.85	1050.000
187.23	2400.000
187.61	-766.667
187.98	575.000
188.36	345.455
188.74	272.727
189.12	-440.000
189.49	320.000
189.87	-2500.000
190.25	-725.000
190.63	242.857
191.00	223.077
191.38	400.000
191.76	-750.000
192.14	475.000
192.51	362.500
192.89	433.333
193.27	262.500
193.65	-500.000
194.02	280.000
194.40	360.000
194.78	220.000
195.15	341.667
195.53	380.000
195.91	-700.000
196.29	175.000
196.66	147.368
197.04	-120.000
197.42	0.000
197.79	330.000
198.17	-2600.000
198.55	314.286
198.92	350.000
199.30	380.000
199.68	0.000
200.05	150.000
200.43	414.286
200.81	2700.000
201.18	833.333
201.56	-933.333
201.94	233.333
202.31	233.333
202.69	216.667
203.07	240.000
203.44	0.000
203.82	600.000
204.19	342.857
204.57	221.429
204.95	337.500
205.32	733.333
205.70	272.727
206.08	207.143
206.45	1350.000
206.83	156.250
207.20	416.667
207.58	280.000
207.96	127.778
208.33	275.000
208.71	-366.667
209.08	357.143
209.46	233.333
209.84	172.727
210.21	-566.667
210.59	575.000
210.96	-200.000
211.34	1050.000
211.71	310.000
212.09	433.333
212.46	0.000
212.84	866.667
213.22	650.000
213.59	-2300.000
213.97	383.333
214.34	300.000
214.72	327.273
215.09	500.000
215.47	-1250.000
215.84	-800.000
216.22	1033.333
216.59	250.000
216.97	650.000
217.34	181.818
217.72	-433.333
218.09	0.000
218.47	-1500.000
218.84	322.222
219.22	371.429
219.59	833.333
219.97	-271.429
220.34	300.000
220.72	-933.333
221.09	264.286
221.47	850.000
221.84	-483.333
222.22	0.000
222.59	575.000
222.97	-800.000
223.34	600.000
223.72	161.538
224.09	500.000
224.46	1400.000
224.84	-1900.000
225.21	-400.000
225.59	-1900.000
225.96	310.000
226.34	165.000
226.71	2000.000
227.08	287.500
227.46	240.000
227.83	-450.000
228.21	-1050.000
228.58	288.889
228.95	-950.000
229.33	-400.000
229.70	500.000
230.08	471.429
230.45	-240.000
230.82	258.333
231.20	333.333
231.57	271.429
231.95	275.000
232.32	127.273
232.69	136.364
233.07	171.429
233.44	192.308
233.81	-900.000
234.19	136.842
234.56	175.000
234.93	216.667
235.31	136.364
235.68	138.462
236.05	164.286
236.43	84.848
236.80	100.000
237.17	2200.000
237.55	95.238
237.92	103.571
238.29	95.238
238.67	51.613
239.04	72.414
239.41	83.333
239.79	34.783
240.16	42.857
240.53	43.182
240.91	52.941
241.28	36.000
241.65	26.000
242.02	49.275
242.40	30.645
242.77	28.333
243.14	40.860
243.51	31.461
243.89	15.294
244.26	23.333
244.63	32.258
245.00	15.957
245.38	16.832
245.75	25.234
246.12	20.183
246.49	29.927
246.87	24.800
247.24	18.462
247.61	15.000
247.98	18.954
248.36	14.189
248.73	15.287
249.10	19.108
249.47	17.514
249.84	20.856
250.22	13.369
250.59	16.568
250.96	18.182
251.33	21.327
251.70	12.376
252.08	10.476
252.45	15.247
252.82	11.304
253.19	13.191
253.56	15.686
253.94	16.598
254.31	6.641
254.68	15.000
255.05	13.653
255.42	8.943
255.79	9.559
256.16	11.191
256.54	12.014
256.91	11.388
257.28	8.273
257.65	8.911
258.02	13.043
258.39	7.571
258.76	9.365
259.14	10.417
259.51	7.599
259.88	4.348
260.25	11.782
260.62	7.803
260.99	8.075
261.36	9.910
261.73	6.304
262.10	9.012
262.47	8.169
262.85	6.685
263.22	4.843
263.59	8.262
263.96	7.692
264.33	8.616
264.70	8.947
265.07	9.207
265.44	7.323
265.81	7.056
266.18	8.040
266.55	7.561
266.92	7.125
267.29	9.028
267.66	8.028
268.03	4.318
268.40	7.243
268.77	5.967
269.14	7.432
269.51	7.223
269.88	7.226
270.25	6.095
270.62	5.843
270.99	8.387
271.36	5.794
271.73	5.607
272.10	5.870
272.47	7.742
272.84	8.658
273.21	8.386
273.58	4.803
273.95	4.612
274.32	5.785
274.69	5.139
275.06	5.315
275.43	5.319
275.80	4.810
276.17	4.888
276.54	5.613
276.91	6.126
277.28	5.469
277.65	6.770
278.02	5.176
278.39	7.227
278.76	6.364
279.13	6.792
279.50	5.587
279.87	5.378
280.23	4.192
280.60	3.095
280.97	5.360
281.34	6.018
281.71	7.273
282.08	6.334
282.45	2.364
282.82	6.927
283.19	3.565
283.56	7.895
283.92	5.753
284.29	4.586
284.66	4.719
285.03	4.521
285.40	5.282
285.77	6.397
286.14	4.836
286.51	5.333
286.87	5.299
287.24	7.003
287.61	5.457
287.98	6.006
288.35	6.498
288.72	6.075
289.08	5.634
289.45	5.931
289.82	5.528
290.19	3.454
290.56	5.360
290.93	3.323
291.29	5.368
291.66	5.162
292.03	6.541
292.40	7.195
292.77	4.586
293.13	4.776
293.50	5.685
293.87	4.296
294.24	4.741
294.60	4.949
294.97	6.105
295.34	5.360
295.71	6.250
296.08	4.416
296.44	4.402
296.81	5.284
297.18	5.285
297.55	4.881
297.91	4.881
298.28	5.890
298.65	6.005
299.02	4.875
299.38	3.984
299.75	2.561
300.12	4.853
300.48	4.375
300.85	5.919
301.22	5.478
301.59	4.798
301.95	4.534
302.32	4.493
302.69	4.182
303.05	5.455
303.42	3.333
303.79	6.002
304.15	3.730
304.52	3.940
304.89	3.949
305.25	3.596
305.62	5.663
305.99	4.841
306.35	5.034
306.72	4.148
307.09	5.105
307.45	5.068
307.82	4.018
308.19	4.967
308.55	4.531
308.92	5.263
309.29	3.907
309.65	5.302
310.02	4.757
310.38	4.301
310.75	5.491
311.12	5.834
311.48	5.747
311.85	5.031
312.22	4.475
312.58	5.405
312.95	5.597
313.31	5.049
313.68	5.405
314.05	6.607
314.41	4.824
314.78	4.532
315.14	4.866
315.51	5.355
315.87	5.347
316.24	5.859
316.61	4.581
316.97	5.382
317.34	3.425
317.70	4.589
318.07	5.101
318.43	4.795
318.80	5.811
319.16	5.367
319.53	4.690
319.89	5.619
320.26	6.500
320.62	5.456
320.99	5.859
321.35	5.051
321.72	6.468
322.08	6.219
322.45	7.463
322.81	5.911
323.18	6.551
323.54	6.494
323.91	6.226
324.27	6.501
324.64	5.405
325.00	6.222
325.37	7.552
325.73	7.451
326.10	6.443
326.46	5.376
326.83	6.903
327.19	6.746
327.56	5.488
327.92	5.774
328.29	7.276
328.65	7.090
329.01	6.047
329.38	5.920
329.74	5.355
330.11	6.786
330.47	6.428
330.84	7.169
331.20	6.466
331.56	7.156
331.93	5.741
332.29	6.744
332.66	8.142
333.02	6.399
333.38	7.136
333.75	8.021
334.11	5.961
334.48	6.655
334.84	7.629
335.20	6.727
335.57	5.893
335.93	5.089
336.29	5.952
336.66	6.943
337.02	5.611
337.38	6.111
337.75	6.595
338.11	6.446
338.47	6.169
338.84	6.599
339.20	5.505
339.56	7.026
339.93	6.364
340.29	6.884
340.65	6.061
341.02	6.370
341.38	6.406
341.74	6.316
342.11	7.249
342.47	5.463
342.83	6.421
343.20	6.753
343.56	5.729
343.92	5.614
344.28	6.207
344.65	6.449
345.01	6.061
345.37	6.003
345.73	6.599
346.10	5.456
346.46	6.356
346.82	6.425
347.19	5.263
347.55	5.501
347.91	6.553
348.27	6.902
348.63	6.605
349.00	5.825
349.36	6.240
349.72	5.052
350.08	5.997
350.45	6.184
350.81	6.824
351.17	6.807
351.53	5.487
351.89	5.776
352.26	7.182
352.62	6.576
352.98	6.888
353.34	6.656
353.70	5.974
354.07	6.855
354.43	6.825
354.79	5.229
355.15	5.906
355.51	7.034
355.87	5.469
356.24	5.700
356.60	5.694
356.96	6.195
357.32	6.214
357.68	6.850
358.04	6.255
358.40	7.126
358.77	6.495
359.13	6.077
359.49	6.745
359.85	5.397
360.21	5.582
360.57	7.082
360.93	6.846
361.29	6.500
361.66	5.650
362.02	6.791
362.38	6.008
362.74	6.696
363.10	5.774
363.46	6.090
363.82	5.518
364.18	6.681
364.54	6.686
364.90	6.870
365.26	5.809
365.62	6.720
365.98	5.551
366.35	6.304
366.71	6.725
367.07	6.336
367.43	6.386
367.79	6.709
368.15	7.112
368.51	5.741
368.87	7.209
369.23	7.315
369.59	7.241
369.95	5.662
370.31	6.695
370.67	7.246
371.03	6.592
371.39	6.341
371.75	6.471
372.11	6.899
372.47	7.478
372.83	7.277
373.19	5.997
373.55	7.021
373.91	6.922
374.27	7.079
374.63	6.109
374.99	7.062
375.35	6.001
375.71	6.237
376.07	7.270
376.42	6.602
376.78	7.223
377.14	6.649
377.50	7.152
377.86	6.117
378.22	7.585
378.58	5.764
378.94	6.788
379.30	6.616
379.66	6.853
380.02	7.310
380.38	6.436
380.74	7.623
381.09	6.357
381.45	7.744
381.81	7.125
382.17	7.261
382.53	6.667
382.89	7.716
383.25	7.192
383.61	7.311
383.97	7.255
384.32	6.925
384.68	7.683
385.04	7.498
385.40	6.687
385.76	7.310
386.12	7.060
386.48	7.363
386.83	8.403
387.19	7.916
387.55	7.730
387.91	6.530
388.27	7.235
388.62	7.621
388.98	6.572
389.34	7.947
389.70	7.419
390.06	7.921
390.42	7.328
390.77	6.870
391.13	7.147
391.49	8.058
391.85	6.875
392.20	6.498
392.56	7.765
392.92	7.534
393.28	5.266
393.64	7.314
393.99	7.758
394.35	7.506
394.71	7.465
395.07	7.165
395.42	7.849
395.78	7.697
396.14	7.759
396.50	7.519
396.85	7.184
397.21	6.720
397.57	7.192
397.92	6.791
398.28	7.455
398.64	7.945
399.00	7.443
399.35	7.558
399.71	7.581
400.07	7.629
400.42	7.301
400.78	7.358
401.14	6.585
401.49	7.104
401.85	6.836
402.21	6.467
402.57	7.835
402.92	7.440
403.28	7.495
403.63	7.488
403.99	6.051
404.35	7.818
404.70	7.254
405.06	7.164
405.42	6.800
405.77	7.257
406.13	7.054
406.49	7.156
406.84	6.911
407.20	6.265
407.55	7.658
407.91	6.933
408.27	6.254
408.62	7.164
408.98	6.311
409.34	6.827
409.69	7.355
410.05	6.072
410.40	7.156
410.76	6.571
411.11	6.815
411.47	6.965
411.83	7.330
412.18	6.061
412.54	6.912
412.89	7.651
413.25	6.966
413.60	6.856
413.96	7.043
414.31	7.230
414.67	7.098
415.03	7.483
415.38	7.990
415.74	6.431
416.09	6.336
416.45	7.028
416.80	6.279
417.16	7.641
417.51	7.100
417.87	6.680
418.22	7.066
418.58	7.747
418.93	7.248
419.29	6.811
419.64	7.179
420.00	7.073
420.35	6.725
420.71	7.950
421.06	6.444
421.42	7.076
421.77	7.063
422.12	6.457
422.48	6.530
422.83	6.581
423.19	6.740
423.54	6.500
423.90	7.188
424.25	7.203
424.61	6.369
424.96	6.647
425.31	6.811
425.67	7.191
426.02	6.286
426.38	6.899
426.73	6.963
427.09	7.173
427.44	6.671
427.79	6.498
428.15	7.381
428.50	6.612
428.85	6.973
429.21	6.681
429.56	6.739
429.92	6.190
430.27	6.306
430.62	6.093
430.98	6.591
431.33	7.062
431.68	7.225
432.04	7.029
432.39	6.339
432.74	7.121
433.10	6.621
433.45	6.880
433.80	6.375
434.16	6.410
434.51	7.105
434.86	7.298
435.22	6.893
435.57	7.052
435.92	6.554
436.28	7.295
436.63	7.119
436.98	6.583
437.34	7.454
437.69	7.351
438.04	7.420
438.39	7.104
438.75	6.856
439.10	6.927
439.45	7.379
439.81	6.647
440.16	6.945
440.51	7.264
440.86	7.759
441.22	6.118
441.57	6.741
441.92	7.114
442.27	6.512
442.63	6.477
442.98	7.549
443.33	7.120
443.68	7.021
444.03	7.516
444.39	6.183
444.74	6.494
445.09	7.008
445.44	6.944
445.79	6.086
446.15	6.935
446.50	6.785
446.85	6.732
447.20	6.833
447.55	7.035
447.91	6.839
448.26	6.121
448.61	6.614
448.96	7.087
449.31	6.637
449.66	6.472
450.02	7.019
450.37	6.349
450.72	6.035
451.07	6.155
451.42	5.714
451.77	6.753
452.12	6.871
452.47	6.965
452.83	6.643
453.18	6.968
453.53	7.174
453.88	6.438
454.23	6.575
454.58	7.571
454.93	7.438
455.28	6.234
455.63	7.282
455.98	6.905
456.34	6.407
456.69	7.076
457.04	7.183
457.39	6.487
457.74	6.616
458.09	6.786
458.44	7.469
458.79	6.291
459.14	6.490
459.49	7.239
459.84	6.759
460.19	6.659
460.54	6.308
460.89	7.405
461.24	7.225
461.59	8.193
461.94	6.782
462.29	7.418
462.64	7.466
462.99	6.831
463.34	7.200
463.69	6.879
464.04	7.188
464.39	7.536
464.74	7.190
465.09	6.393
465.44	6.482
465.79	6.376
466.14	5.966
466.49	6.452
466.84	6.597
467.19	7.302
467.54	7.875
467.89	6.242
468.24	7.388
468.59	7.326
468.94	6.475
469.29	6.105
469.64	7.095
469.99	7.104
470.34	7.133
470.68	6.537
471.03	7.415
471.38	6.463
471.73	7.462
472.08	7.171
472.43	6.784
472.78	6.847
473.13	7.638
473.48	7.054
473.83	6.768
474.17	6.409
474.52	7.320
474.87	7.297
475.22	6.965
475.57	6.824
475.92	6.691
476.27	6.764
476.61	6.343
476.96	6.047
477.31	6.384
477.66	6.400
478.01	6.430
478.36	6.875
478.70	6.127
479.05	6.709
479.40	6.858
479.75	6.151
480.10	6.809
480.45	6.283
480.79	5.781
481.14	6.703
481.49	6.597
481.84	6.401
482.19	6.997
482.53	6.468
482.88	6.608
483.23	6.121
483.58	7.279
483.92	6.842
484.27	6.275
484.62	6.293
484.97	6.188
485.31	5.890
485.66	5.752
486.01	5.232
486.36	5.060
486.70	5.509
487.05	5.255
487.40	5.516
487.75	5.641
488.09	5.945
488.44	6.371
488.79	6.546
489.13	6.264
489.48	6.485
489.83	5.913
490.17	6.488
490.52	5.934
490.87	6.015
491.22	6.048
491.56	6.150
491.91	6.003
492.26	6.155
492.60	6.175
492.95	6.127
493.30	6.308
493.64	6.020
493.99	6.314
494.34	6.152
494.68	6.593
495.03	6.626
495.37	6.468
495.72	6.189
496.07	6.450
496.41	6.372
496.76	5.805
497.11	6.439
497.45	7.173
497.80	6.334
498.14	5.797
498.49	5.659
498.84	5.849
499.18	6.143
499.53	6.553
499.87	6.291
500.22	6.642
500.56	6.602
500.91	6.490
501.26	6.686
501.60	7.072
501.95	6.324
502.29	6.373
502.64	6.657
502.98	6.218
503.33	6.353
503.67	6.125
504.02	6.642
504.36	7.113
504.71	6.644
505.06	6.699
505.40	6.563
505.75	6.123
506.09	6.608
506.44	6.512
506.78	6.235
507.13	6.058
507.47	6.869
507.82	7.194
508.16	6.028
508.51	6.799
508.85	6.356
509.19	6.888
509.54	6.327
509.88	6.491
510.23	6.375
510.57	7.121
510.92	6.577
511.26	6.783
511.61	7.054
511.95	7.046
512.30	6.098
512.64	6.824
512.98	7.128
513.33	7.923
513.67	7.204
514.02	5.844
514.36	6.335
514.70	6.862
515.05	6.637
515.39	6.898
515.74	7.207
516.08	7.323
516.42	7.103
516.77	7.358
517.11	6.271
517.46	7.223
517.80	6.446
518.14	5.848
518.49	7.526
518.83	7.386
519.17	7.044
519.52	7.244
519.86	7.131
520.20	7.919
520.55	6.583
520.89	7.482
521.23	7.539
521.58	7.263
521.92	7.900
522.26	6.406
522.61	7.103
522.95	6.507
523.29	7.182
523.64	7.500
523.98	6.962
524.32	7.238
524.66	7.637
525.01	7.230
525.35	6.815
525.69	7.143
526.04	7.975
526.38	7.383
526.72	7.791
527.06	7.094
527.41	6.621
527.75	8.103
528.09	7.258
528.43	7.967
528.78	8.175
529.12	7.212
529.46	8.145
529.80	7.240
530.15	8.037
530.49	8.000
530.83	7.975
531.17	7.768
531.51	8.301
531.86	7.032
532.20	7.888
532.54	8.264
532.88	7.060
533.22	6.933
533.57	7.099
533.91	6.984
534.25	7.533
534.59	7.627
534.93	8.209
535.27	7.483
535.62	7.021
535.96	7.282
536.30	6.612
536.64	7.663
536.98	7.830
537.32	7.571
537.66	6.933
538.01	7.571
538.35	8.274
538.69	7.977
539.03	7.537
539.37	6.901
539.71	6.351
540.05	7.843
540.39	6.977
540.73	6.662
541.07	7.657
541.42	7.893
541.76	8.323
542.10	7.374
542.44	6.424
542.78	7.773
543.12	6.654
543.46	7.672
543.80	7.027
544.14	6.932
544.48	7.810
544.82	6.799
545.16	7.938
545.50	7.262
545.84	6.922
546.18	7.273
546.52	6.882
546.86	7.148
547.20	7.552
547.54	7.548
547.88	7.717
548.22	7.534
548.56	7.736
548.90	6.658
549.24	7.340
549.58	7.367
549.92	7.074
550.26	8.097
550.60	7.953
550.94	6.901
551.28	7.023
551.62	8.052
551.96	7.298
552.30	7.782
552.64	7.640
552.98	7.797
553.32	7.080
553.66	7.771
554.00	6.040
554.34	7.315
554.68	8.083
555.02	8.110
555.36	7.168
555.69	6.563
556.03	6.528
556.37	6.958
556.71	6.821
557.05	7.073
557.39	7.628
557.73	7.198
558.07	7.542
558.41	7.381
558.75	7.127
559.08	7.979
559.42	6.878
559.76	7.941
560.10	7.495
560.44	7.407
560.78	6.986
561.12	6.728
561.45	8.018
561.79	7.515
562.13	6.908
562.47	7.377
562.81	7.880
563.15	6.823
563.48	7.825
563.82	6.719
564.16	7.260
564.50	6.836
564.84	7.206
565.17	7.593
565.51	7.093
565.85	7.107
566.19	7.264
566.52	6.966
566.86	7.052
567.20	7.252
567.54	6.279
567.88	6.084
568.21	7.037
568.55	6.471
568.89	5.982
569.23	6.328
569.56	6.113
569.90	5.849
570.24	6.028
570.57	5.542
570.91	5.721
571.25	5.991
571.59	5.655
571.92	5.501
572.26	5.748
572.60	5.796
572.93	5.457
573.27	5.649
573.61	5.918
573.95	5.736
574.28	5.503
574.62	5.637
574.96	5.281
575.29	5.116
575.63	5.615
575.97	5.519
576.30	5.337
576.64	5.433
576.98	5.421
577.31	5.499
577.65	5.364
577.98	5.086
578.32	5.123
578.66	5.556
578.99	5.455
579.33	5.519
579.67	5.424
580.00	5.418
580.34	5.577
580.67	5.767
581.01	5.599
581.35	5.216
581.68	5.189
582.02	5.038
582.35	5.063
582.69	5.135
583.02	5.148
583.36	5.234
583.70	5.744
584.03	5.408
584.37	5.692
584.70	5.303
585.04	5.724
585.37	5.336
585.71	5.404
586.04	5.315
586.38	5.434
586.72	5.689
587.05	5.515
587.39	5.356
587.72	5.514
588.06	5.523
588.39	5.734
588.73	5.456
589.06	5.796
589.40	5.690
589.73	5.949
590.07	5.872
590.40	5.407
590.73	5.543
591.07	6.227
591.40	5.905
591.74	6.364
592.07	6.065
592.41	6.408
592.74	5.506
593.08	5.696
593.41	5.536
593.75	5.340
594.08	5.665
594.41	5.620
594.75	5.804
595.08	5.691
595.42	6.060
595.75	5.876
596.09	5.821
596.42	6.640
596.75	6.290
597.09	6.364
597.42	5.902
597.75	5.821
598.09	6.261
598.42	6.229
598.76	5.999
599.09	5.891
599.42	5.822
599.76	5.271
600.09	5.902
600.42	5.844
600.76	5.393
601.09	5.719
601.42	5.518
601.76	5.920
602.09	5.455
602.42	6.210
602.76	6.368
603.09	5.901
603.42	5.974
603.76	5.678
604.09	5.506
604.42	5.870
604.76	6.073
605.09	5.679
605.42	5.729
605.75	6.167
606.09	5.897
606.42	5.394
606.75	6.304
607.09	6.111
607.42	6.033
607.75	5.316
608.08	5.818
608.42	6.948
608.75	5.951
609.08	6.198
609.41	6.426
609.75	6.146
610.08	6.221
610.41	5.680
610.74	5.487
611.07	6.176
611.41	5.839
611.74	6.033
612.07	6.315
612.40	6.139
612.73	5.895
613.07	5.819
613.40	6.635
613.73	5.401
614.06	5.968
614.39	7.027
614.72	6.737
615.06	6.408
615.39	5.945
615.72	5.879
616.05	5.157
616.38	6.115
616.71	6.354
617.05	6.596
617.38	5.713
617.71	6.066
618.04	6.190
618.37	6.978
618.70	6.783
619.03	6.513
619.36	5.906
619.69	7.042
620.03	7.143
620.36	8.088
620.69	7.329
621.02	7.080
621.35	5.638
621.68	7.009
622.01	6.502
622.34	6.959
622.67	6.844
623.00	5.943
623.33	5.861
623.66	6.648
623.99	6.848
624.32	6.847
624.65	6.144
624.99	5.949
625.32	6.589
625.65	7.062
625.98	8.071
626.31	7.465
626.64	7.102
626.97	7.648
627.30	6.234
627.63	8.039
627.96	7.149
628.29	7.787
628.62	8.234
628.95	8.585
629.28	7.299
629.61	8.341
629.94	7.048
630.26	6.959
630.59	8.866
630.92	7.184
631.25	7.108
631.58	7.908
631.91	7.505
632.24	6.118
632.57	8.080
632.90	7.675
633.23	8.277
633.56	7.684
633.89	8.834
634.22	7.037
634.55	8.402
634.88	7.545
635.20	9.677
635.53	8.434
635.86	7.550
636.19	8.353
636.52	8.074
636.85	7.789
637.18	6.221
637.51	9.102
637.83	5.795
638.16	8.056
638.49	8.186
638.82	9.355
639.15	8.625
639.48	8.978
639.81	8.713
640.13	8.594
640.46	8.993
640.79	9.379
641.12	8.803
641.45	9.218
641.77	9.131
642.10	8.041
642.43	8.408
642.76	8.978
643.09	10.276
643.41	8.194
643.74	11.265
644.07	8.689
644.40	11.503
644.73	10.394
645.05	10.143
645.38	8.847
645.71	8.857
646.04	9.302
646.36	10.684
646.69	10.033
647.02	9.014
647.35	12.027
647.67	8.850
648.00	10.407
648.33	9.571
648.66	9.242
648.98	9.895
649.31	6.577
649.64	8.072
649.96	8.346
650.29	8.215
650.62	8.738
650.94	9.724
651.27	9.628
651.60	10.649
651.92	10.064
652.25	8.143
652.58	9.034
652.90	8.215
653.23	8.012
653.56	7.717
653.88	7.924
654.21	12.322
654.54	9.241
654.86	9.969
655.19	7.973
655.52	5.439
655.84	4.126
656.17	4.848
656.49	6.644
656.82	6.824
