SpectraSuite Data File
++++++++++++++++++++++++++++++++++++
Date: Wed May 13 16:24:35 PDT 2015
User: schluterlab
Dark Spectrum Present: Yes
Reference Spectrum Present: Yes
Number of Sampled Component Spectra: 1
Spectrometers: USB2E3373
Integration Time (usec): 3000 (USB2E3373)
Spectra Averaged: 3 (USB2E3373)
Boxcar Smoothing: 0 (USB2E3373)
Correct for Electrical Dark: No (USB2E3373)
Strobe/Lamp Enabled: No (USB2E3373)
Correct for Detector Non-linearity: No (USB2E3373)
Correct for Stray Light: No (USB2E3373)
Number of Pixels in Processed Spectrum: 2048
>>>>>Begin Processed Spectral Data<<<<<
178.53	0.000
178.91	-1125.000
179.29	-1225.000
179.67	-250.000
180.04	-1325.000
180.42	1900.000
180.80	1080.000
181.18	-1125.000
181.56	528.571
181.94	0.000
182.31	-657.143
182.69	1466.667
183.07	-587.500
183.45	-355.556
183.83	554.545
184.20	-370.000
184.58	2700.000
184.96	5100.000
185.34	-900.000
185.72	-512.500
186.09	-2700.000
186.47	2650.000
186.85	2250.000
187.23	5100.000
187.61	-2100.000
187.98	1350.000
188.36	500.000
188.74	472.727
189.12	-980.000
189.49	520.000
189.87	-3800.000
190.25	-1350.000
190.63	385.714
191.00	361.538
191.38	583.333
191.76	-1150.000
192.14	1375.000
192.51	625.000
192.89	850.000
193.27	562.500
193.65	-1075.000
194.02	480.000
194.40	880.000
194.78	460.000
195.15	433.333
195.53	650.000
195.91	-2450.000
196.29	250.000
196.66	331.579
197.04	-340.000
197.42	0.000
197.79	590.000
198.17	-3700.000
198.55	757.143
198.92	737.500
199.30	680.000
199.68	0.000
200.05	344.444
200.43	642.857
200.81	4700.000
201.18	1633.333
201.56	-1600.000
201.94	566.667
202.31	533.333
202.69	341.667
203.07	460.000
203.44	0.000
203.82	1025.000
204.19	785.714
204.57	442.857
204.95	625.000
205.32	1533.333
205.70	490.909
206.08	328.571
206.45	2150.000
206.83	350.000
207.20	900.000
207.58	800.000
207.96	316.667
208.33	625.000
208.71	-616.667
209.08	814.286
209.46	577.778
209.84	436.364
210.21	-1566.667
210.59	1225.000
210.96	-362.500
211.34	2650.000
211.71	640.000
212.09	733.333
212.46	0.000
212.84	1766.667
213.22	1225.000
213.59	-4200.000
213.97	733.333
214.34	771.429
214.72	509.091
215.09	920.000
215.47	-1950.000
215.84	-2300.000
216.22	1633.333
216.59	442.857
216.97	950.000
217.34	436.364
217.72	-683.333
218.09	0.000
218.47	-3500.000
218.84	600.000
219.22	685.714
219.59	1466.667
219.97	-557.143
220.34	860.000
220.72	-1500.000
221.09	428.571
221.47	1275.000
221.84	-883.333
222.22	0.000
222.59	1600.000
222.97	-2500.000
223.34	900.000
223.72	392.308
224.09	960.000
224.46	1700.000
224.84	-4900.000
225.21	-1060.000
225.59	-4200.000
225.96	520.000
226.34	280.000
226.71	2450.000
227.08	637.500
227.46	590.000
227.83	-1050.000
228.21	-2500.000
228.58	533.333
228.95	-2200.000
229.33	-2650.000
229.70	1666.667
230.08	771.429
230.45	-720.000
230.82	425.000
231.20	683.333
231.57	700.000
231.95	450.000
232.32	195.455
232.69	390.909
233.07	700.000
233.44	346.154
233.81	-1566.667
234.19	257.895
234.56	425.000
234.93	366.667
235.31	472.727
235.68	276.923
236.05	307.143
236.43	157.576
236.80	236.842
237.17	3600.000
237.55	233.333
237.92	178.571
238.29	228.571
238.67	138.710
239.04	158.621
239.41	102.778
239.79	95.652
240.16	97.619
240.53	90.909
240.91	113.725
241.28	74.000
241.65	78.000
242.02	85.507
242.40	75.806
242.77	70.000
243.14	54.839
243.51	58.427
243.89	52.941
244.26	47.778
244.63	40.860
245.00	40.426
245.38	41.584
245.75	37.383
246.12	38.532
246.49	54.015
246.87	38.400
247.24	36.923
247.61	33.571
247.98	37.255
248.36	27.027
248.73	28.662
249.10	28.025
249.47	32.768
249.84	32.620
250.22	27.273
250.59	24.852
250.96	27.273
251.33	26.540
251.70	29.703
252.08	23.333
252.45	21.076
252.82	20.000
253.19	21.702
253.56	17.255
253.94	20.747
254.31	21.875
254.68	18.846
255.05	22.140
255.42	18.293
255.79	18.015
256.16	18.773
256.54	14.488
256.91	19.217
257.28	15.468
257.65	15.512
258.02	13.665
258.39	13.565
258.76	14.381
259.14	17.560
259.51	14.286
259.88	13.975
260.25	16.314
260.62	14.162
260.99	10.559
261.36	13.814
261.73	13.181
262.10	14.535
262.47	16.056
262.85	12.813
263.22	8.832
263.59	16.524
263.96	13.462
264.33	13.577
264.70	13.947
265.07	14.066
265.44	12.879
265.81	11.436
266.18	12.060
266.55	9.024
266.92	10.319
267.29	12.500
267.66	12.156
268.03	11.136
268.40	10.748
268.77	9.785
269.14	11.261
269.51	11.512
269.88	10.023
270.25	11.287
270.62	10.562
270.99	13.548
271.36	13.519
271.73	11.449
272.10	11.522
272.47	9.247
272.84	10.606
273.21	14.675
273.58	8.515
273.95	9.434
274.32	9.504
274.69	10.493
275.06	10.433
275.43	11.702
275.80	11.222
276.17	10.591
276.54	10.395
276.91	9.881
277.28	9.570
277.65	11.025
278.02	7.246
278.39	10.352
278.76	9.818
279.13	11.132
279.50	9.870
279.87	9.761
280.23	9.381
280.60	9.478
280.97	8.872
281.34	11.327
281.71	11.455
282.08	9.981
282.45	6.182
282.82	10.302
283.19	6.774
283.56	8.772
283.92	9.645
284.29	8.995
284.66	8.348
285.03	8.137
285.40	9.859
285.77	8.249
286.14	6.736
286.51	6.833
286.87	9.573
287.24	8.143
287.61	8.507
287.98	12.013
288.35	8.399
288.72	10.280
289.08	8.451
289.45	7.084
289.82	9.431
290.19	6.436
290.56	7.810
290.93	7.553
291.29	7.362
291.66	7.817
292.03	10.320
292.40	9.398
292.77	7.396
293.13	7.910
293.50	7.726
293.87	8.593
294.24	7.259
294.60	7.278
294.97	5.814
295.34	8.463
295.71	7.812
296.08	6.410
296.44	6.327
296.81	6.869
297.18	8.266
297.55	5.277
297.91	6.069
298.28	7.095
298.65	7.963
299.02	6.983
299.38	5.179
299.75	4.313
300.12	5.109
300.48	6.125
300.85	7.028
301.22	5.223
301.59	5.177
301.95	6.675
302.32	5.777
302.69	6.332
303.05	5.939
303.42	6.543
303.79	6.569
304.15	5.361
304.52	4.983
304.89	6.039
305.25	6.032
305.62	7.361
305.99	5.667
306.35	5.593
306.72	6.839
307.09	6.326
307.45	7.320
307.82	4.799
308.19	6.733
308.55	6.580
308.92	4.296
309.29	5.280
309.65	4.666
310.02	5.920
310.38	4.946
310.75	5.069
311.12	6.244
311.48	5.329
311.85	5.031
312.22	5.411
312.58	4.782
312.95	5.702
313.31	5.340
313.68	5.198
314.05	7.101
314.41	5.528
314.78	5.942
315.14	4.866
315.51	5.149
315.87	6.040
316.24	4.965
316.61	5.945
316.97	5.577
317.34	5.088
317.70	5.258
318.07	5.967
318.43	5.088
318.80	5.342
319.16	5.273
319.53	4.597
319.89	5.429
320.26	6.600
320.62	5.258
320.99	5.960
321.35	6.162
321.72	6.982
322.08	5.824
322.45	6.269
322.81	6.977
323.18	6.455
323.54	5.751
323.91	6.415
324.27	5.449
324.64	4.473
325.00	5.140
325.37	5.641
325.73	7.181
326.10	4.501
326.46	5.376
326.83	5.867
327.19	6.319
327.56	5.662
327.92	5.337
328.29	7.098
328.65	7.182
329.01	5.596
329.38	6.013
329.74	6.833
330.11	5.372
330.47	6.244
330.84	6.893
331.20	4.918
331.56	6.147
331.93	5.185
332.29	7.098
332.66	6.991
333.02	5.850
333.38	7.678
333.75	6.328
334.11	6.406
334.48	6.300
334.84	6.618
335.20	6.182
335.57	5.440
335.93	4.643
336.29	6.136
336.66	6.041
337.02	5.520
337.38	6.389
337.75	6.595
338.11	6.177
338.47	4.972
338.84	6.049
339.20	4.862
339.56	7.026
339.93	4.727
340.29	5.525
340.65	6.506
341.02	6.195
341.38	6.406
341.74	5.088
342.11	5.415
342.47	5.374
342.83	5.308
343.20	7.013
343.56	6.150
343.92	5.965
344.28	6.803
344.65	5.675
345.01	5.976
345.37	4.974
345.73	5.076
346.10	5.371
346.46	4.492
346.82	6.260
347.19	5.514
347.55	4.844
347.91	6.230
348.27	5.588
348.63	5.351
349.00	6.068
349.36	5.747
349.72	6.656
350.08	4.781
350.45	5.614
350.81	5.605
351.17	5.916
351.53	5.242
351.89	3.960
352.26	6.314
352.62	6.014
352.98	5.916
353.34	5.505
353.70	4.092
354.07	5.081
354.43	5.476
354.79	5.310
355.15	5.188
355.51	5.835
355.87	4.980
356.24	5.212
356.60	4.651
356.96	5.551
357.32	5.642
357.68	5.276
358.04	6.176
358.40	5.622
358.77	5.477
359.13	4.341
359.49	5.333
359.85	3.968
360.21	4.944
360.57	5.603
360.93	4.538
361.29	5.669
361.66	4.799
362.02	5.672
362.38	5.171
362.74	5.729
363.10	4.589
363.46	5.209
363.82	4.535
364.18	4.919
364.54	6.166
364.90	5.524
365.26	4.706
365.62	4.967
365.98	4.602
366.35	4.728
366.71	5.134
367.07	5.025
367.43	5.225
367.79	5.425
368.15	5.747
368.51	4.724
368.87	4.069
369.23	5.413
369.59	4.924
369.95	4.853
370.31	5.271
370.67	4.783
371.03	5.768
371.39	5.248
371.75	4.265
372.11	4.979
372.47	5.792
372.83	5.187
373.19	5.419
373.55	5.100
373.91	5.449
374.27	5.223
374.63	4.145
374.99	5.155
375.35	3.908
375.71	5.278
376.07	5.898
376.42	4.264
376.78	5.633
377.14	5.292
377.50	5.430
377.86	3.856
378.22	4.994
378.58	3.947
378.94	3.897
379.30	4.008
379.66	4.632
380.02	4.484
380.38	4.736
380.74	4.742
381.09	4.768
381.45	4.917
381.81	5.098
382.17	5.223
382.53	3.836
382.89	5.370
383.25	4.440
383.61	4.833
383.97	4.816
384.32	4.492
384.68	4.399
385.04	4.610
385.40	4.149
385.76	4.423
386.12	5.117
386.48	5.349
386.83	4.426
387.19	5.380
387.55	5.133
387.91	4.655
388.27	4.353
388.62	4.364
388.98	4.607
389.34	5.257
389.70	4.844
390.06	5.767
390.42	4.540
390.77	5.471
391.13	4.659
391.49	5.520
391.85	4.328
392.20	3.659
392.56	4.419
392.92	5.297
393.28	3.550
393.64	5.276
393.99	5.315
394.35	4.342
394.71	4.517
395.07	4.174
395.42	4.388
395.78	5.471
396.14	5.152
396.50	5.576
396.85	4.577
397.21	4.932
397.57	4.650
397.92	4.988
398.28	3.980
398.64	4.600
399.00	4.701
399.35	3.835
399.71	5.613
400.07	4.908
400.42	4.908
400.78	5.247
401.14	4.085
401.49	5.075
401.85	4.356
402.21	4.132
402.57	5.059
402.92	4.981
403.28	4.934
403.63	3.960
403.99	4.459
404.35	4.545
404.70	4.676
405.06	4.601
405.42	4.679
405.77	4.171
406.13	4.628
406.49	5.559
406.84	4.903
407.20	3.960
407.55	4.403
407.91	4.933
408.27	4.467
408.62	5.358
408.98	5.086
409.34	4.674
409.69	4.968
410.05	4.585
410.40	5.015
410.76	4.301
411.11	5.247
411.47	5.240
411.83	5.254
412.18	5.257
412.54	4.795
412.89	5.422
413.25	5.018
413.60	4.509
413.96	5.829
414.31	4.921
414.67	5.323
415.03	5.166
415.38	5.928
415.74	5.531
416.09	5.421
416.45	4.351
416.80	4.494
417.16	5.161
417.51	5.773
417.87	4.560
418.22	5.741
418.58	6.004
418.93	5.283
419.29	4.965
419.64	5.542
420.00	5.427
420.35	5.449
420.71	5.380
421.06	5.370
421.42	5.614
421.77	5.774
422.12	5.109
422.48	4.533
422.83	5.009
423.19	5.359
423.54	5.223
423.90	5.739
424.25	6.198
424.61	4.524
424.96	5.248
425.31	5.648
425.67	5.169
426.02	5.657
426.38	5.433
426.73	5.266
427.09	5.775
427.44	5.348
427.79	5.348
428.15	5.655
428.50	5.793
428.85	5.423
429.21	4.859
429.56	5.236
429.92	5.184
430.27	5.263
430.62	4.659
430.98	5.605
431.33	5.825
431.68	5.654
432.04	5.698
432.39	5.254
432.74	6.104
433.10	5.659
433.45	5.598
433.80	5.322
434.16	6.090
434.51	5.737
434.86	6.100
435.22	5.225
435.57	5.532
435.92	5.149
436.28	5.457
436.63	6.181
436.98	5.667
437.34	5.844
437.69	5.893
438.04	5.059
438.39	6.567
438.75	5.985
439.10	5.531
439.45	6.080
439.81	5.438
440.16	5.703
440.51	5.917
440.86	5.848
441.22	6.007
441.57	5.573
441.92	5.732
442.27	5.167
442.63	5.266
442.98	6.592
443.33	6.033
443.68	6.298
444.03	5.857
444.39	4.966
444.74	5.844
445.09	5.984
445.44	6.178
445.79	5.839
446.15	6.406
446.50	5.654
446.85	6.115
447.20	6.068
447.55	6.253
447.91	6.453
448.26	6.400
448.61	6.444
448.96	6.811
449.31	6.637
449.66	6.640
450.02	5.181
450.37	6.122
450.72	6.373
451.07	5.667
451.42	6.079
451.77	6.694
452.12	6.640
452.47	6.716
452.83	5.828
453.18	6.296
453.53	6.617
453.88	5.493
454.23	6.575
454.58	6.663
454.93	7.120
455.28	6.172
455.63	6.432
455.98	6.845
456.34	6.595
456.69	6.888
457.04	6.378
457.39	6.137
457.74	6.500
458.09	6.095
458.44	6.157
458.79	5.640
459.14	7.111
459.49	6.538
459.84	5.928
460.19	5.893
460.54	6.771
460.89	5.815
461.24	6.982
461.59	7.496
461.94	6.535
462.29	7.062
462.64	6.445
462.99	6.311
463.34	7.533
463.69	6.754
464.04	7.014
464.39	6.957
464.74	7.546
465.09	6.695
465.44	6.150
465.79	5.537
466.14	6.349
466.49	6.674
466.84	6.597
467.19	6.820
467.54	7.188
467.89	5.882
468.24	6.166
468.59	7.570
468.94	6.964
469.29	6.234
469.64	7.028
469.99	6.428
470.34	6.077
470.68	7.471
471.03	6.803
471.38	6.532
471.73	7.328
472.08	7.895
472.43	6.910
472.78	7.571
473.13	7.060
473.48	7.303
473.83	6.890
474.17	6.907
474.52	7.320
474.87	7.589
475.22	6.500
475.57	5.911
475.92	6.213
476.27	5.919
476.61	6.343
476.96	6.047
477.31	6.332
477.66	6.729
478.01	6.691
478.36	7.192
478.70	6.075
479.05	6.496
479.40	6.653
479.75	5.999
480.10	6.064
480.45	6.426
480.79	5.590
481.14	7.045
481.49	6.312
481.84	6.310
482.19	6.633
482.53	6.193
482.88	5.817
483.23	5.935
483.58	6.415
483.92	6.186
484.27	5.752
484.62	5.345
484.97	5.479
485.31	5.445
485.66	4.892
486.01	4.458
486.36	4.270
486.70	4.209
487.05	4.691
487.40	4.980
487.75	4.682
488.09	4.792
488.44	5.003
488.79	5.606
489.13	6.035
489.48	5.220
489.83	5.611
490.17	6.006
490.52	6.067
490.87	6.287
491.22	6.367
491.56	5.513
491.91	6.096
492.26	5.374
492.60	5.991
492.95	5.613
493.30	5.981
493.64	5.973
493.99	5.989
494.34	6.244
494.68	6.044
495.03	6.344
495.37	6.189
495.72	5.897
496.07	6.265
496.41	5.133
496.76	6.069
497.11	5.808
497.45	5.869
497.80	5.614
498.14	5.894
498.49	5.854
498.84	6.711
499.18	5.857
499.53	5.888
499.87	6.244
500.22	5.464
500.56	6.408
500.91	5.913
501.26	6.211
501.60	5.885
501.95	5.637
502.29	6.560
502.64	6.192
502.98	6.078
503.33	6.718
503.67	6.125
504.02	6.361
504.36	6.317
504.71	6.839
505.06	5.880
505.40	5.834
505.75	6.075
506.09	6.414
506.44	5.821
506.78	6.089
507.13	6.007
507.47	6.616
507.82	6.434
508.16	6.890
508.51	6.545
508.85	6.852
509.19	5.765
509.54	6.429
509.88	6.079
510.23	6.581
510.57	6.398
510.92	6.266
511.26	7.246
511.61	7.313
511.95	6.263
512.30	6.787
512.64	6.985
512.98	6.592
513.33	7.173
513.67	6.617
514.02	5.952
514.36	7.100
514.70	7.416
515.05	6.414
515.39	6.955
515.74	7.207
516.08	7.490
516.42	7.270
516.77	7.525
517.11	6.493
517.46	6.321
517.80	7.085
518.14	6.717
518.49	7.060
518.83	7.330
519.17	6.928
519.52	7.074
519.86	8.157
520.20	7.457
520.55	7.241
520.89	7.786
521.23	7.660
521.58	7.203
521.92	8.328
522.26	7.322
522.61	7.352
522.95	7.305
523.29	7.304
523.64	7.866
523.98	7.887
524.32	7.358
524.66	8.539
525.01	8.088
525.35	7.311
525.69	7.820
526.04	7.290
526.38	7.627
526.72	8.098
527.06	7.533
527.41	6.683
527.75	6.945
528.09	7.771
528.43	7.202
528.78	7.867
529.12	6.788
529.46	8.022
529.80	7.426
530.15	7.601
530.49	8.246
530.83	8.608
531.17	7.963
531.51	8.495
531.86	7.355
532.20	8.670
532.54	7.944
532.88	8.537
533.22	7.870
533.57	7.840
533.91	7.947
534.25	7.959
534.59	8.054
534.93	7.615
535.27	7.121
535.62	8.120
535.96	7.470
536.30	7.629
536.64	8.500
536.98	8.029
537.32	7.768
537.66	7.533
538.01	8.163
538.35	8.274
538.69	8.360
539.03	8.187
539.37	7.668
539.71	7.259
540.05	7.974
540.39	8.239
540.73	7.762
541.07	7.722
541.42	7.567
541.76	8.516
542.10	8.085
542.44	7.748
542.78	8.300
543.12	7.742
543.46	8.590
543.80	8.458
544.14	7.831
544.48	8.698
544.82	7.633
545.16	7.872
545.50	8.033
545.84	7.930
546.18	8.148
546.52	7.915
546.86	7.973
547.20	8.361
547.54	8.216
547.88	8.737
548.22	7.970
548.56	8.742
548.90	7.362
549.24	7.677
549.58	7.640
549.92	8.104
550.26	8.736
550.60	8.575
550.94	7.746
551.28	7.754
551.62	8.914
551.96	7.649
552.30	9.283
552.64	9.331
552.98	8.949
553.32	8.564
553.66	8.725
554.00	9.128
554.34	8.834
554.68	9.371
555.02	8.886
555.36	8.629
555.69	7.984
556.03	8.816
556.37	8.117
556.71	8.322
557.05	8.263
557.39	9.447
557.73	8.821
558.07	8.412
558.41	8.249
558.75	8.964
559.08	9.172
559.42	8.466
559.76	9.853
560.10	8.351
560.44	8.595
560.78	8.051
561.12	7.652
561.45	8.801
561.79	8.042
562.13	8.182
562.47	8.811
562.81	8.717
563.15	8.361
563.48	8.820
563.82	7.828
564.16	8.306
564.50	7.096
564.84	8.091
565.17	8.172
565.51	8.115
565.85	8.503
566.19	7.890
566.52	7.790
566.86	8.258
567.20	8.255
567.54	7.534
567.88	6.735
568.21	7.937
568.55	7.634
568.89	7.101
569.23	6.684
569.56	6.316
569.90	6.679
570.24	6.351
570.57	6.426
570.91	5.688
571.25	6.393
571.59	6.097
571.92	5.847
572.26	6.153
572.60	6.006
572.93	6.177
573.27	6.063
573.61	5.779
573.95	5.736
574.28	5.653
574.62	5.709
574.96	5.281
575.29	5.165
575.63	5.894
575.97	6.040
576.30	5.895
576.64	5.383
576.98	5.153
577.31	5.476
577.65	5.190
577.98	5.428
578.32	4.984
578.66	5.388
578.99	5.592
579.33	5.350
579.67	5.449
580.00	5.514
580.34	5.743
580.67	5.531
581.01	5.712
581.35	5.175
581.68	5.356
582.02	5.160
582.35	5.045
582.69	5.477
583.02	5.189
583.36	5.695
583.70	5.744
584.03	5.747
584.37	6.271
584.70	5.773
585.04	6.067
585.37	5.499
585.71	5.733
586.04	5.557
586.38	5.904
586.72	6.214
587.05	6.112
587.39	5.646
587.72	5.952
588.06	5.656
588.39	6.008
588.73	5.955
589.06	6.357
589.40	6.263
589.73	6.688
590.07	6.584
590.40	6.284
590.73	6.948
591.07	6.960
591.40	7.128
591.74	6.970
592.07	7.330
592.41	7.069
592.74	6.704
593.08	6.262
593.41	6.485
593.75	6.371
594.08	6.436
594.41	6.363
594.75	6.654
595.08	6.979
595.42	6.515
595.75	6.588
596.09	6.609
596.42	7.544
596.75	7.218
597.09	7.446
597.42	7.083
597.75	7.158
598.09	7.217
598.42	6.830
598.76	6.891
599.09	6.423
599.42	7.096
599.76	6.552
600.09	6.339
600.42	6.538
600.76	6.500
601.09	6.995
601.42	6.545
601.76	6.490
602.09	6.759
602.42	6.768
602.76	7.376
603.09	6.963
603.42	6.872
603.76	6.479
604.09	7.173
604.42	6.890
604.76	7.592
605.09	6.772
605.42	6.926
605.75	6.664
606.09	6.466
606.42	6.620
606.75	6.885
607.09	7.451
607.42	6.162
607.75	6.414
608.08	6.904
608.42	7.396
608.75	6.718
609.08	7.031
609.41	6.663
609.75	6.908
610.08	7.446
610.41	6.611
610.74	6.906
611.07	6.966
611.41	7.017
611.74	8.044
612.07	7.195
612.40	7.450
612.73	7.053
613.07	7.543
613.40	8.162
613.73	6.188
614.06	7.527
614.39	7.708
614.72	8.053
615.06	7.458
615.39	7.325
615.72	7.004
616.05	7.762
616.38	6.837
616.71	8.195
617.05	8.304
617.38	8.058
617.71	7.748
618.04	7.272
618.37	8.102
618.70	8.401
619.03	9.539
619.36	8.622
619.69	8.239
620.03	8.723
620.36	8.623
620.69	9.315
621.02	7.817
621.35	7.987
621.68	8.567
622.01	8.437
622.34	8.472
622.67	9.202
623.00	8.804
623.33	8.363
623.66	9.006
623.99	8.542
624.32	7.917
624.65	8.475
624.99	7.790
625.32	8.689
625.65	7.889
625.98	8.686
626.31	9.720
626.64	8.980
626.97	9.227
627.30	9.144
627.63	10.336
627.96	10.261
628.29	8.486
628.62	10.979
628.95	10.755
629.28	9.215
629.61	9.808
629.94	9.238
630.26	9.533
630.59	9.914
630.92	9.483
631.25	7.897
631.58	10.210
631.91	10.446
632.24	10.443
632.57	9.969
632.90	10.526
633.23	10.738
633.56	11.525
633.89	11.212
634.22	10.897
634.55	11.953
634.88	11.018
635.20	11.470
635.53	13.133
635.86	10.767
636.19	11.647
636.52	10.265
636.85	11.684
637.18	9.562
637.51	12.648
637.83	9.741
638.16	10.742
638.49	11.839
638.82	11.631
639.15	12.500
639.48	12.594
639.81	12.466
640.13	12.109
640.46	12.081
640.79	11.757
641.12	10.179
641.45	12.849
641.77	10.898
642.10	11.988
642.43	12.613
642.76	10.217
643.09	11.963
643.41	11.533
643.74	13.580
644.07	13.110
644.40	15.031
644.73	13.071
645.05	15.055
645.38	13.902
645.71	10.789
646.04	12.791
646.36	13.856
646.69	15.886
647.02	13.946
647.35	13.918
647.67	12.920
648.00	14.146
648.33	12.871
648.66	13.636
648.98	12.294
649.31	11.360
649.64	11.809
649.96	11.923
650.29	12.164
650.62	12.460
650.94	15.397
651.27	14.696
651.60	14.809
651.92	14.377
652.25	12.866
652.58	13.863
652.90	15.640
653.23	11.556
