SpectraSuite Data File
++++++++++++++++++++++++++++++++++++
Date: Wed May 13 16:13:02 PDT 2015
User: schluterlab
Dark Spectrum Present: Yes
Reference Spectrum Present: Yes
Number of Sampled Component Spectra: 1
Spectrometers: USB2E3373
Integration Time (usec): 3000 (USB2E3373)
Spectra Averaged: 3 (USB2E3373)
Boxcar Smoothing: 0 (USB2E3373)
Correct for Electrical Dark: No (USB2E3373)
Strobe/Lamp Enabled: No (USB2E3373)
Correct for Detector Non-linearity: No (USB2E3373)
Correct for Stray Light: No (USB2E3373)
Number of Pixels in Processed Spectrum: 2048
>>>>>Begin Processed Spectral Data<<<<<
178.53	0.000
178.91	-975.000
179.29	-1025.000
179.67	-188.889
180.04	-1075.000
180.42	1950.000
180.80	640.000
181.18	-800.000
181.56	442.857
181.94	0.000
182.31	-514.286
182.69	1400.000
183.07	-425.000
183.45	-377.778
183.83	472.727
184.20	-300.000
184.58	1900.000
184.96	5000.000
185.34	-860.000
185.72	-525.000
186.09	-1800.000
186.47	2300.000
186.85	1500.000
187.23	3600.000
187.61	-1233.333
187.98	875.000
188.36	427.273
188.74	409.091
189.12	-580.000
189.49	380.000
189.87	-3300.000
190.25	-1100.000
190.63	307.143
191.00	361.538
191.38	716.667
191.76	-925.000
192.14	1200.000
192.51	387.500
192.89	700.000
193.27	462.500
193.65	-750.000
194.02	390.000
194.40	860.000
194.78	370.000
195.15	400.000
195.53	470.000
195.91	-1350.000
196.29	243.750
196.66	226.316
197.04	-190.000
197.42	0.000
197.79	440.000
198.17	-3200.000
198.55	571.429
198.92	437.500
199.30	580.000
199.68	0.000
200.05	261.111
200.43	542.857
200.81	3200.000
201.18	1166.667
201.56	-1200.000
201.94	433.333
202.31	377.778
202.69	383.333
203.07	410.000
203.44	0.000
203.82	1025.000
204.19	385.714
204.57	378.571
204.95	475.000
205.32	1033.333
205.70	418.182
206.08	278.571
206.45	1850.000
206.83	325.000
207.20	666.667
207.58	680.000
207.96	200.000
208.33	475.000
208.71	-616.667
209.08	500.000
209.46	488.889
209.84	372.727
210.21	-1333.333
210.59	1000.000
210.96	-337.500
211.34	2050.000
211.71	420.000
212.09	483.333
212.46	0.000
212.84	1066.667
213.22	1050.000
213.59	-2600.000
213.97	666.667
214.34	571.429
214.72	454.545
215.09	740.000
215.47	-1850.000
215.84	-1900.000
216.22	1166.667
216.59	357.143
216.97	950.000
217.34	363.636
217.72	-533.333
218.09	0.000
218.47	-4400.000
218.84	544.444
219.22	628.571
219.59	1100.000
219.97	-357.143
220.34	700.000
220.72	-1366.667
221.09	300.000
221.47	1225.000
221.84	-600.000
222.22	0.000
222.59	1150.000
222.97	-1850.000
223.34	820.000
223.72	315.385
224.09	680.000
224.46	1450.000
224.84	-3100.000
225.21	-780.000
225.59	-2600.000
225.96	480.000
226.34	235.000
226.71	1600.000
227.08	562.500
227.46	370.000
227.83	-800.000
228.21	-2100.000
228.58	511.111
228.95	-2100.000
229.33	-1800.000
229.70	1233.333
230.08	628.571
230.45	-380.000
230.82	283.333
231.20	733.333
231.57	457.143
231.95	408.333
232.32	140.909
232.69	263.636
233.07	485.714
233.44	184.615
233.81	-1466.667
234.19	236.842
234.56	358.333
234.93	275.000
235.31	336.364
235.68	215.385
236.05	257.143
236.43	133.333
236.80	210.526
237.17	2600.000
237.55	166.667
237.92	153.571
238.29	171.429
238.67	74.194
239.04	134.483
239.41	116.667
239.79	89.130
240.16	95.238
240.53	65.909
240.91	50.980
241.28	64.000
241.65	56.000
242.02	53.623
242.40	59.677
242.77	76.667
243.14	45.161
243.51	47.191
243.89	47.059
244.26	38.889
244.63	36.559
245.00	29.787
245.38	44.554
245.75	27.103
246.12	26.606
246.49	30.657
246.87	36.800
247.24	25.385
247.61	23.571
247.98	24.183
248.36	14.865
248.73	22.930
249.10	26.115
249.47	19.774
249.84	25.134
250.22	24.064
250.59	24.852
250.96	20.202
251.33	18.957
251.70	18.317
252.08	16.190
252.45	11.211
252.82	15.652
253.19	14.043
253.56	16.078
253.94	20.332
254.31	14.453
254.68	16.538
255.05	15.129
255.42	12.602
255.79	12.500
256.16	14.801
256.54	11.661
256.91	14.591
257.28	8.273
257.65	15.182
258.02	14.596
258.39	12.934
258.76	11.371
259.14	13.690
259.51	13.374
259.88	6.522
260.25	7.855
260.62	12.428
260.99	10.870
261.36	13.814
261.73	8.309
262.10	9.012
262.47	14.085
262.85	11.978
263.22	8.547
263.59	14.815
263.96	9.066
264.33	10.705
264.70	10.263
265.07	8.951
265.44	10.859
265.81	9.732
266.18	9.799
266.55	9.512
266.92	9.091
267.29	10.648
267.66	7.110
268.03	7.955
268.40	10.280
268.77	5.728
269.14	8.333
269.51	9.255
269.88	8.858
270.25	8.352
270.62	9.213
270.99	12.688
271.36	9.013
271.73	7.009
272.10	7.609
272.47	9.032
272.84	10.390
273.21	10.273
273.58	5.895
273.95	7.128
274.32	6.405
274.69	8.137
275.06	8.465
275.43	8.511
275.80	10.421
276.17	7.739
276.54	8.940
276.91	6.324
277.28	8.008
277.65	7.930
278.02	5.590
278.39	9.375
278.76	8.000
279.13	8.868
279.50	9.497
279.87	8.167
280.23	7.784
280.60	5.996
280.97	7.763
281.34	9.381
281.71	9.636
282.08	6.142
282.45	5.636
282.82	7.282
283.19	6.952
283.56	7.719
283.92	6.261
284.29	7.937
284.66	7.441
285.03	6.148
285.40	5.986
285.77	6.397
286.14	5.872
286.51	6.833
286.87	8.034
287.24	7.818
287.61	8.026
287.98	6.494
288.35	6.815
288.72	6.854
289.08	5.790
289.45	6.260
289.82	7.642
290.19	4.239
290.56	5.513
290.93	5.438
291.29	6.135
291.66	6.195
292.03	7.267
292.40	7.636
292.77	5.325
293.13	5.672
293.50	5.102
293.87	6.074
294.24	4.593
294.60	4.076
294.97	6.105
295.34	7.052
295.71	6.250
296.08	4.558
296.44	4.539
296.81	3.963
297.18	7.182
297.55	3.166
297.91	4.485
298.28	6.024
298.65	6.919
299.02	6.456
299.38	4.648
299.75	4.447
300.12	4.981
300.48	5.000
300.85	5.672
301.22	5.096
301.59	3.535
301.95	5.919
302.32	3.723
302.69	5.376
303.05	4.606
303.42	3.827
303.79	5.436
304.15	3.963
304.52	3.360
304.89	4.646
305.25	4.756
305.62	4.643
305.99	4.368
306.35	4.586
306.72	4.933
307.09	3.885
307.45	5.631
307.82	3.125
308.19	4.305
308.55	4.854
308.92	3.867
309.29	4.224
309.65	4.666
310.02	5.180
310.38	4.301
310.75	4.646
311.12	4.504
311.48	4.807
311.85	4.612
312.22	4.995
312.58	3.638
312.95	4.752
313.31	3.786
313.68	4.886
314.05	5.030
314.41	4.020
314.78	4.129
315.14	4.171
315.51	4.943
315.87	4.257
316.24	4.866
316.61	4.094
316.97	3.620
317.34	2.838
317.70	4.207
318.07	4.524
318.43	3.425
318.80	5.811
319.16	4.802
319.53	4.128
319.89	4.857
320.26	4.900
320.62	4.464
320.99	4.545
321.35	5.253
321.72	4.928
322.08	5.824
322.45	4.975
322.81	5.911
323.18	6.166
323.54	5.566
323.91	4.623
324.27	5.354
324.64	3.355
325.00	5.410
325.37	4.459
325.73	5.655
326.10	4.678
326.46	4.928
326.83	5.781
327.19	5.038
327.56	4.443
327.92	4.899
328.29	5.856
328.65	4.696
329.01	4.783
329.38	4.070
329.74	4.986
330.11	4.430
330.47	5.418
330.84	6.618
331.20	5.009
331.56	5.505
331.93	4.630
332.29	6.211
332.66	6.106
333.02	5.119
333.38	5.149
333.75	5.258
334.11	5.160
334.48	5.146
334.84	5.055
335.20	5.545
335.57	5.621
335.93	5.357
336.29	4.304
336.66	4.869
337.02	4.163
337.38	5.556
337.75	4.456
338.11	4.655
338.47	4.696
338.84	5.316
339.20	4.587
339.56	5.657
339.93	3.727
340.29	5.616
340.65	4.991
341.02	5.323
341.38	6.317
341.74	4.825
342.11	5.153
342.47	4.405
342.83	4.623
343.20	4.762
343.56	3.960
343.92	3.947
344.28	4.847
344.65	4.815
345.01	3.535
345.37	3.945
345.73	4.399
346.10	4.263
346.46	4.661
346.82	5.107
347.19	4.762
347.55	4.598
347.91	5.987
348.27	4.684
348.63	4.431
349.00	4.288
349.36	5.172
349.72	5.132
350.08	4.457
350.45	3.987
350.81	3.899
351.17	5.267
351.53	3.931
351.89	3.878
352.26	5.446
352.62	5.132
352.98	3.971
353.34	4.437
353.70	2.946
354.07	4.919
354.43	5.159
354.79	4.666
355.15	3.831
355.51	5.036
355.87	4.980
356.24	5.293
356.60	4.411
356.96	4.103
357.32	4.661
357.68	4.567
358.04	4.751
358.40	4.830
358.77	4.851
359.13	3.315
359.49	4.941
359.85	3.095
360.21	3.828
360.57	4.903
360.93	4.385
361.29	3.855
361.66	3.715
362.02	4.701
362.38	4.335
362.74	4.464
363.10	3.849
363.46	3.668
363.82	4.460
364.18	4.258
364.54	4.458
364.90	4.816
365.26	4.044
365.62	4.529
365.98	4.237
366.35	4.226
366.71	4.700
367.07	4.370
367.43	4.209
367.79	4.069
368.15	4.598
368.51	3.488
368.87	4.711
369.23	3.365
369.59	4.924
369.95	3.603
370.31	4.060
370.67	3.913
371.03	4.794
371.39	4.082
371.75	4.191
372.11	4.339
372.47	4.985
372.83	4.395
373.19	4.191
373.55	4.065
373.91	5.081
374.27	4.055
374.63	3.855
374.99	4.096
375.35	4.187
375.71	3.975
376.07	5.556
376.42	4.195
376.78	5.500
377.14	4.410
377.50	4.570
377.86	3.923
378.22	5.436
378.58	4.135
378.94	4.337
379.30	3.435
379.66	4.442
380.02	4.607
380.38	3.825
380.74	5.042
381.09	5.134
381.45	5.409
381.81	5.037
382.17	4.650
382.53	3.962
382.89	5.309
383.25	4.628
383.61	5.143
383.97	5.253
384.32	4.741
384.68	4.027
385.04	5.286
385.40	4.458
385.76	5.528
386.12	4.663
386.48	5.160
386.83	5.003
387.19	5.380
387.55	5.257
387.91	5.139
388.27	4.905
388.62	5.347
388.98	4.607
389.34	6.383
389.70	5.825
390.06	6.654
390.42	5.123
390.77	5.980
391.13	5.361
391.49	5.964
391.85	5.156
392.20	4.038
392.56	5.871
392.92	4.591
393.28	4.320
393.64	5.216
393.99	5.925
394.35	5.087
394.71	5.772
395.07	5.607
395.42	5.192
395.78	5.471
396.14	5.773
396.50	5.764
396.85	5.722
397.21	5.055
397.57	5.456
397.92	4.988
398.28	4.372
398.64	5.137
399.00	5.204
399.35	4.794
399.71	5.382
400.07	5.618
400.42	5.706
400.78	6.393
401.14	4.756
401.49	5.254
401.85	5.263
402.21	5.449
402.57	5.059
402.92	5.612
403.28	5.746
403.63	4.765
403.99	4.968
404.35	5.576
404.70	5.276
405.06	5.183
405.42	4.928
405.77	4.686
406.13	5.023
406.49	5.677
406.84	5.375
407.20	5.024
407.55	5.616
407.91	5.133
408.27	5.041
408.62	5.238
408.98	5.515
409.34	5.228
409.69	5.226
410.05	5.886
410.40	5.872
410.76	5.615
411.11	6.212
411.47	4.920
411.83	5.925
412.18	4.453
412.54	5.978
412.89	5.904
413.25	5.608
413.60	5.127
413.96	6.011
414.31	5.589
414.67	6.527
415.03	4.636
415.38	6.572
415.74	5.852
416.09	5.748
416.45	5.288
416.80	6.015
417.16	6.233
417.51	5.242
417.87	5.459
418.22	6.751
418.58	5.810
418.93	5.774
419.29	5.983
419.64	6.297
420.00	5.732
420.35	6.261
420.71	5.858
421.06	5.609
421.42	5.789
421.77	5.605
422.12	5.783
422.48	4.803
422.83	5.067
423.19	5.414
423.54	5.862
423.90	6.029
424.25	6.030
424.61	5.417
424.96	5.131
425.31	5.150
425.67	5.281
426.02	5.200
426.38	6.166
426.73	5.091
427.09	5.775
427.44	5.405
427.79	5.865
428.15	6.071
428.50	5.383
428.85	6.317
429.21	5.135
429.56	5.236
429.92	5.335
430.27	5.263
430.62	4.864
430.98	5.189
431.33	5.773
431.68	5.550
432.04	5.857
432.39	5.654
432.74	5.625
433.10	5.716
433.45	5.073
433.80	5.377
434.16	6.090
434.51	5.474
434.86	6.043
435.22	5.281
435.57	5.897
435.92	5.266
436.28	5.575
436.63	6.291
436.98	5.266
437.34	6.202
437.69	5.659
438.04	5.790
438.39	5.791
438.75	5.927
439.10	5.531
439.45	5.785
439.81	5.317
440.16	6.042
440.51	5.917
440.86	5.848
441.22	5.339
441.57	6.263
441.92	6.141
442.27	6.082
442.63	6.056
442.98	5.803
443.33	5.435
443.68	5.782
444.03	5.612
444.39	5.209
444.74	5.628
445.09	6.092
445.44	5.249
445.79	6.037
446.15	6.141
446.50	5.547
446.85	5.447
447.20	5.762
447.55	6.086
447.91	6.067
448.26	5.732
448.61	5.709
448.96	6.589
449.31	6.187
449.66	5.853
450.02	5.627
450.37	5.839
450.72	5.697
451.07	5.728
451.42	6.261
451.77	6.518
452.12	6.351
452.47	6.032
452.83	5.536
453.18	6.174
453.53	6.555
453.88	5.966
454.23	5.738
454.58	5.815
454.93	6.548
455.28	5.860
455.63	6.917
455.98	7.024
456.34	5.905
456.69	6.137
457.04	6.378
457.39	5.552
457.74	5.165
458.09	6.555
458.44	5.872
458.79	5.152
459.14	6.151
459.49	6.713
459.84	6.205
460.19	5.480
460.54	5.498
460.89	5.650
461.24	5.707
461.59	7.263
461.94	5.487
462.29	5.757
462.64	6.126
462.99	5.725
463.34	6.933
463.69	5.879
464.04	6.377
464.39	6.319
464.74	6.536
465.09	6.514
465.44	5.319
465.79	5.872
466.14	6.459
466.49	5.562
466.84	5.954
467.19	6.578
467.54	6.562
467.89	6.423
468.24	5.759
468.59	5.983
468.94	5.620
469.29	6.362
469.64	6.560
469.99	5.819
470.34	6.011
470.68	6.250
471.03	5.374
471.38	6.046
471.73	6.729
472.08	5.855
472.43	6.910
472.78	6.254
473.13	7.060
473.48	5.930
473.83	6.585
474.17	5.600
474.52	6.948
474.87	6.538
475.22	6.036
475.57	6.287
475.92	5.789
476.27	5.468
476.61	6.067
476.96	5.882
477.31	6.175
477.66	5.252
478.01	5.750
478.36	5.711
478.70	5.763
479.05	6.177
479.40	6.192
479.75	5.694
480.10	5.517
480.45	5.664
480.79	5.303
481.14	6.067
481.49	5.695
481.84	5.487
482.19	5.634
482.53	6.330
482.88	5.258
483.23	5.467
483.58	5.687
483.92	5.764
484.27	5.229
484.62	5.345
484.97	5.203
485.31	5.479
485.66	4.671
486.01	4.016
486.36	4.157
486.70	3.843
487.05	4.330
487.40	4.545
487.75	4.518
488.09	4.792
488.44	4.937
488.79	5.244
489.13	5.233
489.48	5.261
489.83	5.050
490.17	5.173
490.52	5.049
490.87	5.789
491.22	5.775
491.56	5.421
491.91	5.677
492.26	5.328
492.60	5.622
492.95	5.332
493.30	6.028
493.64	5.086
493.99	4.782
494.34	5.828
494.68	5.861
495.03	5.733
495.37	5.863
495.72	5.214
496.07	5.290
496.41	5.177
496.76	5.893
497.11	5.448
497.45	5.217
497.80	5.710
498.14	5.652
498.49	5.707
498.84	6.328
499.18	5.667
499.53	4.843
499.87	5.312
500.22	5.558
500.56	5.534
500.91	5.962
501.26	5.642
501.60	6.122
501.95	5.545
502.29	5.811
502.64	5.680
502.98	5.657
503.33	5.439
503.67	5.661
504.02	5.566
504.36	5.849
504.71	6.009
505.06	6.072
505.40	5.493
505.75	5.931
506.09	5.782
506.44	5.180
506.78	5.943
507.13	5.250
507.47	6.061
507.82	5.876
508.16	5.775
508.51	5.682
508.85	5.263
509.19	5.459
509.54	5.459
509.88	6.028
510.23	6.015
510.57	6.192
510.92	5.904
511.26	5.961
511.61	6.587
511.95	5.585
512.30	5.832
512.64	5.750
512.98	5.895
513.33	6.370
513.67	5.923
514.02	6.061
514.36	5.735
514.70	6.032
515.05	5.354
515.39	6.394
515.74	6.532
516.08	6.428
516.42	6.659
516.77	6.912
517.11	5.771
517.46	6.546
517.80	5.865
518.14	5.675
518.49	6.243
518.83	6.420
519.17	5.485
519.52	6.169
519.86	6.275
520.20	6.127
520.55	6.044
520.89	6.509
521.23	6.996
521.58	6.423
521.92	6.797
522.26	6.528
522.61	6.355
522.95	5.770
523.29	5.660
523.64	7.073
523.98	6.408
524.32	6.273
524.66	6.374
525.01	6.556
525.35	6.382
525.69	5.850
526.04	6.417
526.38	6.894
526.72	7.178
527.06	6.466
527.41	5.507
527.75	6.881
528.09	6.808
528.43	6.501
528.78	7.498
529.12	6.848
529.46	6.430
529.80	6.745
530.15	6.231
530.49	6.708
530.83	6.835
531.17	6.397
531.51	8.042
531.86	6.645
532.20	6.845
532.54	7.175
532.88	7.060
533.22	6.871
533.57	6.852
533.91	6.382
534.25	6.501
534.59	7.383
534.93	6.425
535.27	5.975
535.62	6.471
535.96	7.031
536.30	6.357
536.64	6.632
536.98	7.299
537.32	6.847
537.66	7.333
538.01	7.307
538.35	7.304
538.69	7.849
539.03	5.978
539.37	6.070
539.71	6.092
540.05	6.993
540.39	6.578
540.73	7.568
541.07	7.982
541.42	6.915
541.76	7.677
542.10	7.115
542.44	5.629
542.78	7.312
543.12	6.206
543.46	7.410
543.80	6.831
544.14	6.996
544.48	6.413
544.82	6.543
545.16	6.441
545.50	6.748
545.84	6.384
546.18	7.138
546.52	5.988
546.86	6.735
547.20	6.541
547.54	7.281
547.88	7.589
548.22	6.351
548.56	6.415
548.90	7.298
549.24	6.128
549.58	7.231
549.92	6.593
550.26	7.102
550.60	7.469
550.94	6.690
551.28	5.706
551.62	7.333
551.96	6.596
552.30	7.645
552.64	7.505
552.98	6.915
553.32	7.080
553.66	7.498
554.00	7.207
554.34	6.832
554.68	7.010
555.02	6.488
555.36	7.724
555.69	6.969
556.03	7.335
556.37	6.821
556.71	6.139
557.05	6.513
557.39	7.348
557.73	7.339
558.07	6.962
558.41	6.078
558.75	7.348
559.08	7.532
559.42	6.576
559.76	8.162
560.10	6.852
560.44	7.407
560.78	6.919
561.12	6.266
561.45	7.366
561.79	6.922
562.13	6.975
562.47	6.967
562.81	6.276
563.15	7.358
563.48	6.499
563.82	6.132
564.16	7.194
564.50	5.794
564.84	7.143
565.17	7.014
565.51	6.965
565.85	6.472
566.19	6.262
566.52	6.270
566.86	6.570
567.20	6.722
567.54	5.479
567.88	5.921
568.21	6.085
568.55	5.662
568.89	6.128
569.23	5.749
569.56	5.709
569.90	5.660
570.24	5.167
570.57	5.372
570.91	5.171
571.25	4.849
571.59	5.420
571.92	4.637
572.26	4.795
572.60	5.045
572.93	4.348
573.27	5.058
573.61	5.193
573.95	4.935
574.28	4.749
574.62	4.519
574.96	4.779
575.29	4.583
575.63	4.319
575.97	4.504
576.30	4.939
576.64	4.574
576.98	4.205
577.31	4.621
577.65	4.517
577.98	4.001
578.32	4.150
578.66	4.361
578.99	4.405
579.33	4.527
579.67	4.378
580.00	4.316
580.34	4.699
580.67	4.467
581.01	4.632
581.35	4.254
581.68	4.296
582.02	4.268
582.35	3.942
582.69	4.586
583.02	4.331
583.36	4.427
583.70	4.545
584.03	4.911
584.37	4.796
584.70	4.441
585.04	4.623
585.37	4.800
585.71	4.535
586.04	4.421
586.38	4.728
586.72	4.861
587.05	4.401
587.39	4.485
587.72	5.102
588.06	4.349
588.39	5.075
588.73	4.840
589.06	5.329
589.40	4.815
589.73	4.787
590.07	5.587
590.40	4.786
590.73	5.308
591.07	5.495
591.40	5.567
591.74	5.758
592.07	5.410
592.41	5.415
592.74	4.944
593.08	5.396
593.41	4.745
593.75	4.841
594.08	5.230
594.41	5.514
594.75	4.658
595.08	5.190
595.42	5.009
595.75	4.950
596.09	5.558
596.42	5.462
596.75	5.741
597.09	6.147
597.42	5.017
597.75	5.821
598.09	5.696
598.42	5.241
598.76	5.026
599.09	5.359
599.42	5.531
599.76	5.271
600.09	4.991
600.42	5.150
600.76	4.750
601.09	4.663
601.42	5.365
601.76	5.199
602.09	5.336
602.42	5.573
602.76	5.643
603.09	5.114
603.42	5.389
603.76	5.297
604.09	4.886
604.42	5.381
604.76	5.694
605.09	5.330
605.42	4.746
605.75	5.132
606.09	4.961
606.42	4.904
606.75	5.185
607.09	5.400
607.42	4.964
607.75	4.641
608.08	4.907
608.42	5.693
608.75	5.906
609.08	5.458
609.41	5.712
609.75	5.669
610.08	5.702
610.41	4.935
610.74	5.298
611.07	5.336
611.41	6.183
611.74	6.285
612.07	5.538
612.40	5.509
612.73	5.263
613.07	6.304
613.40	6.161
613.73	5.349
614.06	5.269
614.39	6.083
614.72	6.684
615.06	6.250
615.39	5.839
615.72	5.573
616.05	6.114
616.38	6.003
616.71	5.463
617.05	6.125
617.38	5.713
617.71	6.246
618.04	5.709
618.37	5.677
618.70	6.161
619.03	7.105
619.36	6.789
619.69	6.549
620.03	6.868
620.36	7.152
620.69	6.575
621.02	6.932
621.35	5.951
621.68	6.620
622.01	7.121
622.34	7.186
622.67	6.236
623.00	6.016
623.33	6.147
623.66	6.648
623.99	6.480
624.32	6.134
624.65	6.215
624.99	6.586
625.32	6.372
625.65	6.086
625.98	6.380
626.31	7.076
626.64	7.429
626.97	6.068
627.30	6.983
627.63	7.957
627.96	7.653
628.29	6.999
628.62	8.051
628.95	8.962
629.28	7.026
629.61	8.616
629.94	8.190
630.26	7.817
630.59	8.580
630.92	7.663
631.25	6.417
631.58	7.908
631.91	8.114
632.24	7.911
632.57	8.185
632.90	8.224
633.23	8.277
633.56	9.944
633.89	8.494
634.22	9.421
634.55	9.112
634.88	7.665
635.20	9.558
635.53	10.361
635.86	7.797
636.19	8.118
636.52	7.497
636.85	7.789
637.18	7.373
637.51	7.801
637.83	7.275
638.16	8.184
638.49	9.068
638.82	8.470
639.15	9.250
639.48	8.978
639.81	9.249
640.13	9.245
640.46	7.383
640.79	9.511
641.12	7.978
641.45	8.520
641.77	9.573
642.10	8.480
642.43	7.808
642.76	7.895
643.09	9.816
643.41	8.194
643.74	11.574
644.07	11.128
644.40	11.963
644.73	11.654
645.05	12.044
645.38	10.427
645.71	11.916
646.04	11.960
646.36	11.853
646.69	10.368
647.02	9.354
647.35	9.278
647.67	10.619
648.00	12.683
648.33	8.911
648.66	9.545
648.98	9.895
649.31	8.221
649.64	8.371
649.96	9.538
650.29	9.795
650.62	8.738
650.94	11.345
651.27	10.980
651.60	10.649
651.92	11.821
652.25	9.446
652.58	9.502
652.90	8.689
653.23	7.858
653.56	9.764
653.88	9.984
654.21	11.374
654.54	11.386
654.86	9.657
655.19	8.514
