SpectraSuite Data File
++++++++++++++++++++++++++++++++++++
Date: Wed May 13 16:42:54 PDT 2015
User: schluterlab
Dark Spectrum Present: Yes
Reference Spectrum Present: Yes
Number of Sampled Component Spectra: 1
Spectrometers: USB2E3373
Integration Time (usec): 3000 (USB2E3373)
Spectra Averaged: 3 (USB2E3373)
Boxcar Smoothing: 0 (USB2E3373)
Correct for Electrical Dark: No (USB2E3373)
Strobe/Lamp Enabled: No (USB2E3373)
Correct for Detector Non-linearity: No (USB2E3373)
Correct for Stray Light: No (USB2E3373)
Number of Pixels in Processed Spectrum: 2048
>>>>>Begin Processed Spectral Data<<<<<
178.53	0.000
178.91	-1275.000
179.29	-1375.000
179.67	-227.778
180.04	-1525.000
180.42	2350.000
180.80	920.000
181.18	-1050.000
181.56	671.429
181.94	0.000
182.31	-514.286
182.69	1633.333
183.07	-575.000
183.45	-466.667
183.83	654.545
184.20	-480.000
184.58	2300.000
184.96	5700.000
185.34	-780.000
185.72	-650.000
186.09	-2450.000
186.47	2750.000
186.85	2850.000
187.23	4900.000
187.61	-2100.000
187.98	1225.000
188.36	572.727
188.74	463.636
189.12	-1080.000
189.49	520.000
189.87	-5000.000
190.25	-1475.000
190.63	378.571
191.00	353.846
191.38	883.333
191.76	-1100.000
192.14	1250.000
192.51	562.500
192.89	1033.333
193.27	587.500
193.65	-1150.000
194.02	550.000
194.40	960.000
194.78	540.000
195.15	458.333
195.53	650.000
195.91	-2150.000
196.29	368.750
196.66	326.316
197.04	-440.000
197.42	0.000
197.79	630.000
198.17	-5500.000
198.55	642.857
198.92	775.000
199.30	860.000
199.68	0.000
200.05	350.000
200.43	785.714
200.81	5500.000
201.18	1600.000
201.56	-1533.333
201.94	644.444
202.31	555.556
202.69	483.333
203.07	540.000
203.44	0.000
203.82	1100.000
204.19	814.286
204.57	407.143
204.95	750.000
205.32	1500.000
205.70	500.000
206.08	314.286
206.45	2750.000
206.83	381.250
207.20	1083.333
207.58	720.000
207.96	333.333
208.33	775.000
208.71	-700.000
209.08	671.429
209.46	544.444
209.84	500.000
210.21	-1666.667
210.59	1400.000
210.96	-500.000
211.34	2400.000
211.71	680.000
212.09	933.333
212.46	0.000
212.84	1666.667
213.22	1325.000
213.59	-4700.000
213.97	750.000
214.34	628.571
214.72	518.182
215.09	1180.000
215.47	-2400.000
215.84	-2300.000
216.22	1566.667
216.59	378.571
216.97	1225.000
217.34	463.636
217.72	-766.667
218.09	0.000
218.47	-4900.000
218.84	611.111
219.22	728.571
219.59	1666.667
219.97	-657.143
220.34	940.000
220.72	-1900.000
221.09	385.714
221.47	1225.000
221.84	-966.667
222.22	0.000
222.59	1375.000
222.97	-2650.000
223.34	1100.000
223.72	446.154
224.09	1080.000
224.46	2500.000
224.84	-5200.000
225.21	-900.000
225.59	-4900.000
225.96	580.000
226.34	300.000
226.71	3150.000
227.08	700.000
227.46	480.000
227.83	-1100.000
228.21	-2500.000
228.58	622.222
228.95	-2150.000
229.33	-1900.000
229.70	1533.333
230.08	728.571
230.45	-720.000
230.82	466.667
231.20	700.000
231.57	742.857
231.95	483.333
232.32	245.455
232.69	409.091
233.07	671.429
233.44	438.462
233.81	-1366.667
234.19	263.158
234.56	483.333
234.93	350.000
235.31	445.455
235.68	300.000
236.05	307.143
236.43	181.818
236.80	294.737
237.17	4200.000
237.55	171.429
237.92	185.714
238.29	252.381
238.67	161.290
239.04	165.517
239.41	136.111
239.79	126.087
240.16	123.810
240.53	106.818
240.91	88.235
241.28	110.000
241.65	118.000
242.02	95.652
242.40	91.935
242.77	101.667
243.14	77.419
243.51	77.528
243.89	60.000
244.26	65.556
244.63	67.742
245.00	56.383
245.38	52.475
245.75	56.075
246.12	43.119
246.49	54.745
246.87	49.600
247.24	56.923
247.61	50.000
247.98	42.484
248.36	43.919
248.73	36.943
249.10	48.408
249.47	37.288
249.84	35.829
250.22	41.176
250.59	43.195
250.96	35.354
251.33	36.967
251.70	37.129
252.08	34.762
252.45	34.081
252.82	34.783
253.19	35.319
253.56	32.157
253.94	34.025
254.31	32.422
254.68	31.538
255.05	32.103
255.42	29.675
255.79	34.559
256.16	34.296
256.54	30.035
256.91	28.470
257.28	30.216
257.65	29.373
258.02	32.609
258.39	29.968
258.76	25.418
259.14	27.976
259.51	29.179
259.88	23.602
260.25	31.420
260.62	26.012
260.99	25.466
261.36	27.027
261.73	26.074
262.10	25.000
262.47	23.944
262.85	25.905
263.22	24.217
263.59	25.071
263.96	23.626
264.33	25.065
264.70	25.000
265.07	26.854
265.44	24.495
265.81	22.628
266.18	24.623
266.55	24.878
266.92	25.061
267.29	26.157
267.66	21.560
268.03	22.955
268.40	24.299
268.77	21.718
269.14	21.847
269.51	26.185
269.88	22.378
270.25	23.702
270.62	22.697
270.99	26.022
271.36	24.034
271.73	23.131
272.10	23.478
272.47	23.656
272.84	25.325
273.21	25.996
273.58	20.087
273.95	21.593
274.32	22.314
274.69	20.985
275.06	21.457
275.43	22.128
275.80	23.046
276.17	21.996
276.54	20.998
276.91	21.739
277.28	23.828
277.65	23.791
278.02	21.946
278.39	23.047
278.76	20.727
279.13	21.132
279.50	21.043
279.87	21.713
280.23	21.557
280.60	19.729
280.97	19.593
281.34	21.239
281.71	21.455
282.08	23.225
282.45	18.909
282.82	22.380
283.19	18.004
283.56	22.456
283.92	20.305
284.29	19.929
284.66	20.508
285.03	20.253
285.40	20.246
285.77	19.697
286.14	19.862
286.51	18.500
286.87	20.000
287.24	20.033
287.61	18.459
287.98	19.643
288.35	19.493
288.72	19.782
289.08	20.344
289.45	18.287
289.82	18.699
290.19	18.838
290.56	19.755
290.93	18.278
291.29	19.479
291.66	18.289
292.03	19.186
292.40	19.383
292.77	17.899
293.13	18.955
293.50	18.513
293.87	17.481
294.24	17.037
294.60	15.575
294.97	16.570
295.34	18.054
295.71	18.040
296.08	16.382
296.44	16.231
296.81	16.909
297.18	17.480
297.55	15.831
297.91	15.699
298.28	18.340
298.65	17.102
299.02	16.469
299.38	16.999
299.75	16.173
300.12	17.241
300.48	15.375
300.85	16.769
301.22	15.541
301.59	16.035
301.95	16.247
302.32	16.816
302.69	15.651
303.05	15.758
303.42	17.407
303.79	15.629
304.15	15.035
304.52	14.832
304.89	16.144
305.25	16.821
305.62	15.629
305.99	17.237
306.35	17.897
306.72	16.480
307.09	16.204
307.45	16.329
307.82	14.286
308.19	15.784
308.55	16.828
308.92	15.360
309.29	16.051
309.65	15.164
310.02	14.799
310.38	16.882
310.75	17.740
311.12	16.786
311.48	16.928
311.85	17.400
312.22	17.170
312.58	15.696
312.95	17.107
313.31	17.184
313.68	17.464
314.05	18.442
314.41	16.884
314.78	16.818
315.14	17.180
315.51	16.375
315.87	17.723
316.24	16.683
316.61	16.569
316.97	17.808
317.34	16.928
317.70	17.591
318.07	17.324
318.43	16.732
318.80	17.338
319.16	18.173
319.53	16.979
319.89	17.048
320.26	18.300
320.62	17.460
320.99	18.687
321.35	18.990
321.72	18.994
322.08	18.263
322.45	19.502
322.81	19.283
323.18	19.075
323.54	19.852
323.91	19.245
324.27	18.260
324.64	19.571
325.00	17.493
325.37	18.016
325.73	19.300
326.10	19.417
326.46	19.444
326.83	20.017
327.19	19.983
327.56	18.902
327.92	19.773
328.29	19.876
328.65	18.692
329.01	19.224
329.38	18.594
329.74	18.837
330.11	19.321
330.47	19.927
330.84	20.496
331.20	20.128
331.56	20.367
331.93	18.426
332.29	19.787
332.66	19.735
333.02	19.835
333.38	19.783
333.75	19.875
334.11	19.662
334.48	19.343
334.84	17.923
335.20	19.455
335.57	19.402
335.93	18.839
336.29	17.857
336.66	20.108
337.02	18.733
337.38	18.889
337.75	18.717
338.11	18.442
338.47	18.785
338.84	19.340
339.20	18.899
339.56	19.891
339.93	18.091
340.29	18.116
340.65	18.449
341.02	19.808
341.38	19.573
341.74	18.421
342.11	17.904
342.47	19.031
342.83	19.264
343.20	19.567
343.56	17.860
343.92	18.684
344.28	19.133
344.65	18.831
345.01	18.939
345.37	17.067
345.73	20.135
346.10	18.073
346.46	19.237
346.82	18.946
347.19	17.544
347.55	18.637
347.91	19.013
348.27	18.899
348.63	18.311
349.00	18.042
349.36	19.540
349.72	18.364
350.08	17.909
350.45	19.447
350.81	18.522
351.17	18.476
351.53	17.772
351.89	18.399
352.26	18.863
352.62	19.086
352.98	19.287
353.34	18.406
353.70	18.003
354.07	18.387
354.43	19.206
354.79	17.458
355.15	18.196
355.51	19.265
355.87	19.184
356.24	18.078
356.60	18.364
356.96	19.469
357.32	19.215
357.68	19.528
358.04	18.211
358.40	18.686
358.77	18.388
359.13	17.680
359.49	18.588
359.85	18.889
360.21	18.740
360.57	18.521
360.93	17.846
361.29	18.821
361.66	17.802
362.02	18.806
362.38	19.392
362.74	19.271
363.10	18.505
363.46	18.489
363.82	18.216
364.18	18.502
364.54	19.391
364.90	20.397
365.26	19.044
365.62	20.161
365.98	18.773
366.35	18.553
366.71	18.727
367.07	19.883
367.43	19.521
367.79	19.557
368.15	20.833
368.51	19.767
368.87	19.914
369.23	18.654
369.59	19.334
369.95	19.118
370.31	19.373
370.67	19.058
371.03	20.899
371.39	20.481
371.75	19.632
372.11	19.844
372.47	21.114
372.83	21.326
373.19	20.231
373.55	19.956
373.91	20.692
374.27	20.619
374.63	20.509
374.99	21.186
375.35	20.516
375.71	19.877
376.07	21.331
376.42	20.014
376.78	20.610
377.14	20.896
377.50	21.987
377.86	19.880
378.22	20.544
378.58	20.677
378.94	21.245
379.30	21.120
379.66	21.447
380.02	21.192
380.38	20.219
380.74	21.188
381.09	21.455
381.45	22.004
381.81	22.482
382.17	22.166
382.53	23.019
382.89	22.037
383.25	22.264
383.61	23.172
383.97	22.827
384.32	22.146
384.68	21.747
385.04	21.819
385.40	21.176
385.76	22.789
386.12	21.956
386.48	22.907
386.83	23.156
387.19	23.686
387.55	22.263
387.91	23.096
388.27	23.176
388.62	23.479
388.98	22.604
389.34	24.030
389.70	23.237
390.06	23.701
390.42	23.671
390.77	23.855
391.13	23.867
391.49	23.541
391.85	23.234
392.20	23.596
392.56	24.053
392.92	23.779
393.28	23.254
393.64	23.082
393.99	24.740
394.35	24.007
394.71	23.400
395.07	23.551
395.42	23.918
395.78	24.618
396.14	24.581
396.50	24.687
396.85	24.730
397.21	23.983
397.57	24.675
397.92	23.918
398.28	23.038
398.64	23.596
399.00	24.007
399.35	23.237
399.71	24.074
400.07	24.364
400.42	24.847
400.78	24.668
401.14	23.537
401.49	23.463
401.85	24.622
402.21	23.533
402.57	23.381
402.92	24.842
403.28	24.047
403.63	23.515
403.99	24.331
404.35	24.121
404.70	24.341
405.06	24.287
405.42	24.454
405.77	23.543
406.13	23.476
406.49	24.778
406.84	24.217
407.20	23.286
407.55	23.676
407.91	24.067
408.27	23.548
408.62	24.142
408.98	23.836
409.34	23.124
409.69	24.194
410.05	23.668
410.40	23.853
410.76	23.357
411.11	24.427
411.47	24.537
411.83	23.519
412.18	22.944
412.54	23.412
412.89	24.699
413.25	25.030
413.60	23.533
413.96	23.679
414.31	23.815
414.67	24.715
415.03	23.113
415.38	24.291
415.74	24.051
416.09	24.886
416.45	24.565
416.80	24.521
417.16	24.866
417.51	23.490
417.87	23.764
418.22	24.353
418.58	24.274
418.93	24.631
419.29	24.379
419.64	24.307
420.00	23.232
420.35	24.174
420.71	24.148
421.06	23.866
421.42	23.392
421.77	23.823
422.12	22.965
422.48	23.260
422.83	23.879
423.19	24.530
423.54	23.796
423.90	23.884
424.25	24.009
424.61	23.571
424.96	23.907
425.31	24.419
425.67	22.865
426.02	23.943
426.38	24.481
426.73	23.932
427.09	24.073
427.44	23.232
427.79	23.519
428.15	24.643
428.50	23.523
428.85	24.434
429.21	23.854
429.56	23.691
429.92	23.603
430.27	23.386
430.62	23.093
430.98	23.456
431.33	23.814
431.68	23.717
432.04	23.855
432.39	23.244
432.74	24.177
433.10	24.222
433.45	24.257
433.80	23.670
434.16	24.092
434.51	22.842
434.86	24.116
435.22	24.958
435.57	23.769
435.92	23.406
436.28	24.852
436.63	24.172
436.98	23.583
437.34	24.031
437.69	24.796
438.04	23.215
438.39	23.881
438.75	24.927
439.10	24.302
439.45	23.731
439.81	24.350
440.16	24.054
440.51	23.784
440.86	24.146
441.22	24.138
441.57	24.841
441.92	24.258
442.27	24.058
442.63	23.697
442.98	24.901
443.33	24.402
443.68	24.161
444.03	23.524
444.39	23.369
444.74	24.892
445.09	24.582
445.44	24.002
445.79	24.196
446.15	23.822
446.50	23.479
446.85	24.666
447.20	23.865
447.55	23.730
447.91	24.049
448.26	24.430
448.61	24.025
448.96	24.972
449.31	23.960
449.66	24.198
450.02	23.621
450.37	24.603
450.72	23.801
451.07	24.436
451.42	23.708
451.77	24.251
452.12	24.076
452.47	24.502
452.83	24.242
453.18	23.655
453.53	25.232
453.88	24.749
454.23	23.610
454.58	24.288
454.93	24.348
455.28	23.940
455.63	24.272
455.98	25.357
456.34	23.995
456.69	24.108
457.04	24.830
457.39	23.963
457.74	23.796
458.09	24.037
458.44	24.401
458.79	23.482
459.14	24.266
459.49	23.876
459.84	23.490
460.19	23.748
460.54	23.148
460.89	24.026
461.24	24.165
461.59	25.102
461.94	24.168
462.29	24.866
462.64	24.186
462.99	23.878
463.34	25.133
463.69	23.452
464.04	24.580
464.39	25.043
464.74	24.124
465.09	23.945
465.44	23.324
465.79	22.260
466.14	23.919
466.49	23.860
466.84	24.635
467.19	23.959
467.54	23.875
467.89	23.830
468.24	23.909
468.59	24.237
468.94	23.030
469.29	23.972
469.64	24.565
469.99	24.087
470.34	23.382
470.68	23.635
471.03	23.741
471.38	25.017
471.73	24.250
472.08	24.868
472.43	23.932
472.78	23.436
473.13	23.620
473.48	23.471
473.83	23.476
474.17	23.709
474.52	23.511
474.87	24.635
475.22	23.854
475.57	23.106
475.92	22.995
476.27	22.773
476.61	23.221
476.96	23.145
477.31	23.339
477.66	23.523
478.01	22.426
478.36	23.480
478.70	22.845
479.05	23.003
479.40	22.876
479.75	22.979
480.10	22.962
480.45	22.418
480.79	22.790
481.14	23.092
481.49	22.259
481.84	22.725
482.19	22.990
482.53	22.523
482.88	22.429
483.23	22.757
483.58	22.793
483.92	22.680
484.27	21.830
484.62	22.069
484.97	22.428
485.31	22.432
485.66	21.731
486.01	20.192
486.36	19.771
486.70	19.180
487.05	20.320
487.40	20.659
487.75	20.537
488.09	20.958
488.44	21.681
488.79	21.772
489.13	22.040
489.48	21.697
489.83	21.839
490.17	22.139
490.52	21.789
490.87	22.614
491.22	21.328
491.56	21.230
491.91	21.824
492.26	21.497
492.60	22.028
492.95	21.422
493.30	21.449
493.64	21.512
493.99	21.588
494.34	21.647
494.68	22.299
495.03	21.992
495.37	22.103
495.72	21.540
496.07	21.903
496.41	21.018
496.76	20.976
497.11	21.747
497.45	20.866
497.80	21.977
498.14	21.449
498.49	21.561
498.84	21.716
499.18	21.286
499.53	21.083
499.87	21.528
500.22	21.338
500.56	22.184
500.91	21.635
501.26	20.958
501.60	21.785
501.95	21.219
502.29	21.649
502.64	21.182
502.98	21.038
503.33	21.481
503.67	21.531
504.02	21.188
504.36	21.292
504.71	21.690
505.06	20.675
505.40	21.536
505.75	21.070
506.09	20.603
506.44	21.312
506.78	21.383
507.13	21.353
507.47	21.717
507.82	21.935
508.16	21.327
508.51	22.171
508.85	20.655
509.19	21.122
509.54	21.378
509.88	21.123
510.23	21.183
510.57	22.343
510.92	21.543
511.26	21.429
511.61	21.992
511.95	21.190
512.30	20.520
512.64	21.977
512.98	21.704
513.33	21.467
513.67	21.345
514.02	20.617
514.36	21.737
514.70	20.974
515.05	20.915
515.39	21.649
515.74	21.396
516.08	21.856
516.42	21.310
516.77	21.572
517.11	21.421
517.46	21.727
517.80	21.777
518.14	20.151
518.49	21.937
518.83	22.330
519.17	21.189
519.52	21.505
519.86	21.791
520.20	21.445
520.55	22.382
520.89	20.803
521.23	22.376
521.58	20.948
521.92	21.739
522.26	20.744
522.61	21.745
522.95	21.793
523.29	20.511
523.64	22.683
523.98	21.811
524.32	21.291
524.66	21.046
525.01	20.895
525.35	20.632
525.69	21.059
526.04	20.685
526.38	21.599
526.72	21.595
527.06	20.778
527.41	19.926
527.75	21.479
528.09	21.066
528.43	21.415
528.78	21.389
529.12	20.061
529.46	20.759
529.80	21.720
530.15	21.308
530.49	20.369
530.83	21.139
531.17	21.606
531.51	21.984
531.86	21.419
532.20	22.099
532.54	21.525
532.88	21.438
533.22	20.425
533.57	20.988
533.91	20.169
534.25	21.324
534.59	21.293
534.93	19.631
535.27	20.881
535.62	20.269
535.96	20.904
536.30	20.025
536.64	21.056
536.98	21.367
537.32	20.276
537.66	21.067
538.01	21.001
538.35	21.008
538.69	21.315
539.03	20.793
539.37	19.617
539.71	19.183
540.05	19.935
540.39	20.332
540.73	19.922
541.07	20.960
541.42	21.135
541.76	21.290
542.10	21.539
542.44	20.530
542.78	21.080
543.12	19.834
543.46	21.180
543.80	20.755
544.14	19.833
544.48	20.698
544.82	19.949
545.16	19.844
545.50	19.923
545.84	20.632
546.18	19.731
546.52	20.647
546.86	20.412
547.20	20.904
547.54	20.641
547.88	21.811
548.22	20.112
548.56	20.440
548.90	19.974
549.24	20.202
549.58	21.078
549.92	21.291
550.26	20.313
550.60	20.678
550.94	19.859
551.28	19.605
551.62	19.914
551.96	20.561
552.30	20.137
552.64	19.405
552.98	20.814
553.32	20.499
553.66	21.200
554.00	20.247
554.34	19.531
554.68	19.599
555.02	20.451
555.36	19.763
555.69	19.012
556.03	19.515
556.37	20.259
556.71	19.168
557.05	20.098
557.39	19.804
557.73	19.972
558.07	20.377
558.41	19.899
558.75	19.251
559.08	21.104
559.42	19.955
559.76	20.588
560.10	19.986
560.44	20.755
560.78	19.029
561.12	19.921
561.45	19.687
561.79	19.710
562.13	20.121
562.47	20.014
562.81	19.874
563.15	19.599
563.48	20.159
563.82	19.569
564.16	19.621
564.50	19.206
564.84	18.837
565.17	18.662
565.51	19.169
565.85	19.734
566.19	19.161
566.52	20.076
566.86	17.902
567.20	18.750
567.54	19.578
567.88	18.360
568.21	19.259
568.55	19.312
568.89	18.774
569.23	18.494
569.56	17.773
569.90	17.660
570.24	17.797
570.57	17.681
570.91	16.871
571.25	17.387
571.59	16.996
571.92	16.676
572.26	17.187
572.60	16.937
572.93	16.252
573.27	16.948
573.61	17.365
573.95	17.106
574.28	16.608
574.62	16.302
574.96	16.583
575.29	16.319
575.63	16.413
575.97	16.558
576.30	16.463
576.64	16.224
576.98	16.213
577.31	16.382
577.65	16.287
577.98	16.224
578.32	16.025
578.66	16.352
578.99	16.252
579.33	16.412
579.67	15.836
580.00	16.663
580.34	16.516
580.67	16.285
581.01	16.573
581.35	15.893
581.68	16.292
582.02	15.673
582.35	16.058
582.69	15.861
583.02	15.882
583.36	16.394
583.70	16.484
584.03	16.588
584.37	16.443
584.70	16.641
585.04	16.438
585.37	16.589
585.71	16.189
586.04	16.574
586.38	16.719
586.72	17.067
587.05	16.409
587.39	15.699
587.72	16.362
588.06	16.169
588.39	16.708
588.73	15.928
589.06	16.859
589.40	16.936
589.73	16.825
590.07	15.907
590.40	16.661
590.73	16.706
591.07	17.705
591.40	17.461
591.74	18.182
592.07	17.627
592.41	17.115
592.74	17.191
593.08	17.055
593.41	16.197
593.75	16.240
594.08	16.661
594.41	16.437
594.75	16.895
595.08	17.037
595.42	16.883
595.75	16.417
596.09	17.048
596.42	17.289
596.75	17.222
597.09	17.229
597.42	16.653
597.75	16.904
598.09	17.348
598.42	17.096
598.76	16.782
599.09	16.458
599.42	16.849
599.76	16.984
600.09	16.393
600.42	16.581
600.76	16.393
601.09	16.393
601.42	16.971
601.76	16.509
602.09	16.640
602.42	16.720
602.76	17.533
603.09	16.483
603.42	17.064
603.76	16.540
604.09	16.169
604.42	17.122
604.76	17.545
605.09	17.082
605.42	16.802
605.75	16.349
606.09	16.470
606.42	16.633
606.75	16.757
607.09	17.246
607.42	16.389
607.75	16.371
608.08	16.500
608.42	17.302
608.75	16.862
609.08	16.744
609.41	16.802
609.75	17.199
610.08	17.012
610.41	16.527
610.74	16.698
611.07	16.403
611.41	16.928
611.74	16.591
612.07	17.443
612.40	17.104
612.73	16.842
613.07	17.403
613.40	17.694
613.73	16.571
614.06	17.312
614.39	17.305
614.72	17.421
615.06	17.332
615.39	17.197
615.72	17.076
616.05	16.534
616.38	17.843
616.71	17.755
617.05	17.256
617.38	16.717
617.71	17.477
618.04	18.029
618.37	17.445
618.70	18.482
619.03	18.092
619.36	17.787
619.69	17.817
620.03	19.231
620.36	18.717
620.69	18.630
621.02	18.510
621.35	18.403
621.68	17.679
622.01	18.344
622.34	17.927
622.67	17.643
623.00	17.828
623.33	17.513
623.66	18.656
623.99	18.336
624.32	18.117
624.65	18.220
624.99	17.564
625.32	17.668
625.65	18.182
625.98	18.832
626.31	18.818
626.64	18.367
626.97	17.872
627.30	18.620
627.63	19.360
627.96	18.587
628.29	18.460
628.62	20.586
628.95	19.811
629.28	19.161
629.61	19.432
629.94	18.667
630.26	18.494
630.59	19.352
630.92	18.870
