SpectraSuite Data File
++++++++++++++++++++++++++++++++++++
Date: Wed May 13 16:15:42 PDT 2015
User: schluterlab
Dark Spectrum Present: Yes
Reference Spectrum Present: Yes
Number of Sampled Component Spectra: 1
Spectrometers: USB2E3373
Integration Time (usec): 3000 (USB2E3373)
Spectra Averaged: 3 (USB2E3373)
Boxcar Smoothing: 0 (USB2E3373)
Correct for Electrical Dark: No (USB2E3373)
Strobe/Lamp Enabled: No (USB2E3373)
Correct for Detector Non-linearity: No (USB2E3373)
Correct for Stray Light: No (USB2E3373)
Number of Pixels in Processed Spectrum: 2048
>>>>>Begin Processed Spectral Data<<<<<
178.53	0.000
178.91	-1225.000
179.29	-1125.000
179.67	-166.667
180.04	-1150.000
180.42	2250.000
180.80	800.000
181.18	-600.000
181.56	571.429
181.94	0.000
182.31	-571.429
182.69	1266.667
183.07	-362.500
183.45	-388.889
183.83	418.182
184.20	-250.000
184.58	1500.000
184.96	3600.000
185.34	-760.000
185.72	-487.500
186.09	-1800.000
186.47	1600.000
186.85	1750.000
187.23	4100.000
187.61	-1266.667
187.98	1250.000
188.36	490.909
188.74	436.364
189.12	-660.000
189.49	490.000
189.87	-3700.000
190.25	-850.000
190.63	314.286
191.00	361.538
191.38	650.000
191.76	-1000.000
192.14	925.000
192.51	437.500
192.89	716.667
193.27	412.500
193.65	-925.000
194.02	460.000
194.40	780.000
194.78	420.000
195.15	383.333
195.53	380.000
195.91	-2150.000
196.29	312.500
196.66	242.105
197.04	-260.000
197.42	0.000
197.79	540.000
198.17	-4000.000
198.55	514.286
198.92	562.500
199.30	600.000
199.68	0.000
200.05	266.667
200.43	700.000
200.81	3900.000
201.18	1466.667
201.56	-1200.000
201.94	355.556
202.31	444.444
202.69	375.000
203.07	430.000
203.44	0.000
203.82	775.000
204.19	600.000
204.57	400.000
204.95	512.500
205.32	1166.667
205.70	400.000
206.08	350.000
206.45	2000.000
206.83	262.500
207.20	583.333
207.58	500.000
207.96	205.556
208.33	662.500
208.71	-550.000
209.08	500.000
209.46	444.444
209.84	436.364
210.21	-1266.667
210.59	1250.000
210.96	-475.000
211.34	2000.000
211.71	460.000
212.09	650.000
212.46	0.000
212.84	1233.333
213.22	1100.000
213.59	-2900.000
213.97	500.000
214.34	657.143
214.72	518.182
215.09	800.000
215.47	-1650.000
215.84	-1900.000
216.22	1066.667
216.59	364.286
216.97	1050.000
217.34	490.909
217.72	-566.667
218.09	0.000
218.47	-2500.000
218.84	611.111
219.22	557.143
219.59	1466.667
219.97	-528.571
220.34	740.000
220.72	-1166.667
221.09	371.429
221.47	1425.000
221.84	-716.667
222.22	0.000
222.59	1175.000
222.97	-2100.000
223.34	1060.000
223.72	323.077
224.09	920.000
224.46	1850.000
224.84	-3300.000
225.21	-780.000
225.59	-3200.000
225.96	530.000
226.34	185.000
226.71	1750.000
227.08	637.500
227.46	470.000
227.83	-800.000
228.21	-1650.000
228.58	522.222
228.95	-2000.000
229.33	-1450.000
229.70	1466.667
230.08	614.286
230.45	-800.000
230.82	358.333
231.20	650.000
231.57	500.000
231.95	375.000
232.32	190.909
232.69	327.273
233.07	542.857
233.44	323.077
233.81	-1433.333
234.19	205.263
234.56	358.333
234.93	350.000
235.31	436.364
235.68	307.692
236.05	264.286
236.43	154.545
236.80	215.789
237.17	4300.000
237.55	161.905
237.92	171.429
238.29	242.857
238.67	122.581
239.04	162.069
239.41	130.556
239.79	97.826
240.16	111.905
240.53	111.364
240.91	78.431
241.28	80.000
241.65	90.000
242.02	85.507
242.40	66.129
242.77	90.000
243.14	63.441
243.51	73.034
243.89	67.059
244.26	56.667
244.63	58.065
245.00	59.574
245.38	52.475
245.75	57.944
246.12	45.872
246.49	55.474
246.87	54.400
247.24	56.923
247.61	46.429
247.98	45.098
248.36	43.243
248.73	42.038
249.10	48.408
249.47	44.068
249.84	50.802
250.22	38.503
250.59	45.562
250.96	36.869
251.33	42.180
251.70	37.624
252.08	42.857
252.45	37.220
252.82	39.130
253.19	34.468
253.56	37.255
253.94	38.174
254.31	36.719
254.68	38.846
255.05	37.638
255.42	32.114
255.79	33.088
256.16	35.740
256.54	30.035
256.91	35.231
257.28	28.777
257.65	31.353
258.02	31.988
258.39	33.123
258.76	32.776
259.14	34.226
259.51	30.699
259.88	29.193
260.25	29.909
260.62	30.925
260.99	30.745
261.36	31.832
261.73	27.794
262.10	30.233
262.47	31.831
262.85	33.148
263.22	30.769
263.59	29.345
263.96	28.297
264.33	30.809
264.70	27.105
265.07	29.923
265.44	31.566
265.81	28.954
266.18	27.387
266.55	30.000
266.92	29.730
267.29	28.009
267.66	28.211
268.03	28.636
268.40	28.271
268.77	29.356
269.14	27.027
269.51	28.894
269.88	29.138
270.25	24.831
270.62	29.213
270.99	28.817
271.36	28.326
271.73	29.907
272.10	28.696
272.47	28.387
272.84	27.922
273.21	26.625
273.58	27.729
273.95	24.738
274.32	24.174
274.69	29.550
275.06	25.787
275.43	27.660
275.80	27.655
276.17	28.513
276.54	25.780
276.91	27.075
277.28	27.148
277.65	25.338
278.02	23.395
278.39	29.297
278.76	26.000
279.13	25.472
279.50	28.492
279.87	27.291
280.23	26.347
280.60	24.178
280.97	25.139
281.34	26.549
281.71	27.091
282.08	26.104
282.45	25.455
282.82	25.222
283.19	23.708
283.56	25.789
283.92	23.858
284.29	23.280
284.66	23.230
285.03	23.689
285.40	24.824
285.77	23.737
286.14	21.762
286.51	25.167
286.87	23.248
287.24	25.244
287.61	23.596
287.98	23.052
288.35	21.712
288.72	23.832
289.08	22.535
289.45	23.888
289.82	22.927
290.19	22.292
290.56	23.430
290.93	21.148
291.29	21.472
291.66	21.239
292.03	22.820
292.40	22.320
292.77	19.970
293.13	23.284
293.50	20.554
293.87	22.370
294.24	20.444
294.60	20.961
294.97	20.203
295.34	22.003
295.71	20.739
296.08	20.513
296.44	20.083
296.81	20.872
297.18	22.222
297.55	20.185
297.91	18.734
298.28	21.017
298.65	21.671
299.02	20.158
299.38	20.186
299.75	16.846
300.12	18.646
300.48	18.625
300.85	19.852
301.22	19.873
301.59	19.192
301.95	19.270
302.32	18.485
302.69	19.235
303.05	19.394
303.42	18.272
303.79	19.253
304.15	18.648
304.52	17.845
304.89	18.815
305.25	18.910
305.62	18.573
305.99	19.717
306.35	19.128
306.72	18.610
307.09	19.423
307.45	17.905
307.82	18.080
308.19	18.543
308.55	20.065
308.92	19.441
309.29	18.902
309.65	18.028
310.02	19.345
310.38	19.247
310.75	20.169
311.12	19.754
311.48	19.854
311.85	20.231
312.22	20.604
312.58	19.127
312.95	20.697
313.31	19.903
313.68	21.622
314.05	24.260
314.41	22.010
314.78	22.054
315.14	21.946
315.51	24.614
315.87	24.257
316.24	23.635
316.61	23.879
316.97	24.658
317.34	25.440
317.70	25.717
318.07	24.735
318.43	27.006
318.80	27.085
319.16	27.684
319.53	28.424
319.89	29.905
320.26	32.700
320.62	31.746
320.99	31.111
321.35	33.535
321.72	32.957
322.08	34.255
322.45	35.920
322.81	34.884
323.18	36.416
323.54	36.827
323.91	38.208
324.27	39.675
324.64	41.845
325.00	41.479
325.37	44.313
325.73	44.973
326.10	46.161
326.46	46.864
326.83	49.008
327.19	48.079
327.56	50.610
327.92	51.356
328.29	53.416
328.65	54.512
329.01	54.783
329.38	55.782
329.74	55.494
330.11	56.739
330.47	58.219
330.84	58.640
331.20	58.288
331.56	57.339
331.93	62.222
332.29	58.829
332.66	61.239
333.02	60.055
333.38	61.156
333.75	61.497
334.11	63.345
334.48	62.378
334.84	64.246
335.20	63.727
335.57	64.279
335.93	61.607
336.29	65.110
336.66	63.841
337.02	62.624
337.38	65.648
337.75	64.349
338.11	65.622
338.47	66.390
338.84	65.078
339.20	65.413
339.56	68.431
339.93	66.636
340.29	66.033
340.65	66.756
341.02	68.499
341.38	67.260
341.74	66.140
342.11	67.511
342.47	68.899
342.83	66.866
343.20	67.186
343.56	67.734
343.92	68.070
344.28	68.707
344.65	69.819
345.01	67.088
345.37	68.611
345.73	68.866
346.10	68.201
346.46	69.661
346.82	68.616
347.19	69.173
347.55	68.966
347.91	70.065
348.27	70.008
348.63	70.151
349.00	69.903
349.36	69.376
349.72	68.805
350.08	67.990
350.45	71.359
350.81	69.618
351.17	68.639
351.53	71.744
351.89	70.627
352.26	69.534
352.62	70.329
352.98	68.720
353.34	71.241
353.70	70.622
354.07	70.887
354.43	70.635
354.79	70.394
355.15	70.152
355.51	71.783
355.87	72.082
356.24	72.068
356.60	70.008
356.96	72.164
357.32	73.099
357.68	73.307
358.04	72.526
358.40	72.288
358.77	70.814
359.13	71.981
359.49	72.235
359.85	71.032
360.21	73.126
360.57	74.241
360.93	74.769
361.29	72.789
361.66	72.446
362.02	73.582
362.38	73.308
362.74	73.810
363.10	73.797
363.46	72.047
363.82	72.487
364.18	72.687
364.54	75.260
364.90	73.371
365.26	73.235
365.62	74.361
365.98	73.557
366.35	74.713
366.71	75.271
367.07	75.237
367.43	76.343
367.79	75.517
368.15	75.216
368.51	75.000
368.87	77.373
369.23	74.982
369.59	76.177
369.95	76.838
370.31	76.211
370.67	74.783
371.03	78.352
371.39	78.717
371.75	76.985
372.11	75.747
372.47	77.859
372.83	78.818
373.19	77.312
373.55	77.901
373.91	79.602
374.27	75.808
374.63	79.200
374.99	78.531
375.35	79.484
375.71	76.628
376.07	79.218
376.42	79.298
376.78	78.993
377.14	78.969
377.50	79.073
377.86	78.657
378.22	79.393
378.58	78.822
378.94	79.573
379.30	81.234
379.66	80.964
380.02	79.791
380.38	79.356
380.74	79.952
381.09	80.807
381.45	82.299
381.81	80.958
382.17	81.783
382.53	81.635
382.89	81.481
383.25	82.427
383.61	82.652
383.97	79.425
384.32	81.971
384.68	81.846
385.04	80.885
385.40	81.672
385.76	81.695
386.12	83.096
386.48	83.071
386.83	83.772
387.19	83.673
387.55	81.509
387.91	82.104
388.27	82.710
388.62	81.192
388.98	82.187
389.34	82.290
389.70	81.974
390.06	82.636
390.42	82.685
390.77	83.397
391.13	82.833
391.49	82.995
391.85	83.386
392.20	82.145
392.56	83.649
392.92	85.050
393.28	81.479
393.64	82.674
393.99	82.529
394.35	83.127
394.71	81.807
395.07	80.997
395.42	84.054
395.78	82.188
396.14	82.247
396.50	84.837
396.85	83.725
397.21	83.416
397.57	82.641
397.92	82.452
398.28	81.670
398.64	82.139
399.00	81.701
399.35	82.177
399.71	82.639
400.07	82.259
400.42	82.209
400.78	82.449
401.14	82.805
401.49	84.239
401.85	82.275
402.21	80.958
402.57	82.973
402.92	82.976
403.28	82.948
403.63	81.559
403.99	84.268
404.35	80.970
404.70	82.254
405.06	82.062
405.42	83.094
405.77	81.600
406.13	80.530
406.49	79.125
406.84	79.504
407.20	80.260
407.55	80.728
407.91	83.333
408.27	82.706
408.62	80.855
408.98	81.189
409.34	81.427
409.69	81.419
410.05	81.475
410.40	81.101
410.76	80.346
411.11	80.277
411.47	80.192
411.83	80.147
412.18	78.602
412.54	81.071
412.89	78.735
413.25	79.811
413.60	80.729
413.96	79.053
414.31	79.830
414.67	80.989
415.03	80.728
415.38	80.090
415.74	81.158
416.09	80.927
416.45	80.857
416.80	80.635
417.16	81.434
417.51	81.951
417.87	78.805
418.22	80.126
418.58	79.923
418.93	80.405
419.29	79.504
419.64	80.605
420.00	78.841
420.35	79.362
420.71	80.395
421.06	79.594
421.42	79.123
421.77	79.428
422.12	79.674
422.48	78.575
422.83	79.965
423.19	77.956
423.54	79.106
423.90	79.710
424.25	77.889
424.61	79.107
424.96	79.942
425.31	78.128
425.67	77.472
426.02	78.857
426.38	80.159
426.73	79.052
427.09	77.204
427.44	78.838
427.79	79.298
428.15	78.631
428.50	79.696
428.85	78.427
429.21	78.686
429.56	78.642
429.92	78.510
430.27	78.302
430.62	76.959
430.98	78.827
431.33	77.474
431.68	77.696
432.04	76.251
432.39	78.184
432.74	77.499
433.10	79.004
433.45	79.825
433.80	78.437
434.16	78.900
434.51	77.579
434.86	77.879
435.22	78.988
435.57	78.541
435.92	77.940
436.28	79.715
436.63	77.263
436.98	78.649
437.34	77.996
437.69	78.588
438.04	78.134
438.39	77.134
438.75	78.501
439.10	78.603
439.45	77.391
439.81	78.731
440.16	76.510
440.51	77.797
440.86	78.460
441.22	78.643
441.57	77.548
441.92	77.021
442.27	78.471
442.63	76.356
442.98	77.296
443.33	77.011
443.68	77.130
444.03	77.208
444.39	76.826
444.74	77.219
445.09	76.765
445.44	75.724
445.79	75.161
446.15	75.331
446.50	76.844
446.85	76.516
447.20	75.880
447.55	77.610
447.91	74.959
448.26	75.960
448.61	76.314
448.96	76.578
449.31	77.278
449.66	74.902
450.02	75.209
450.37	75.057
450.72	75.860
451.07	75.198
451.42	73.921
451.77	75.103
452.12	74.596
452.47	73.881
452.83	75.233
453.18	74.817
453.53	76.190
453.88	73.892
454.23	76.270
454.58	76.681
454.93	76.987
455.28	75.374
455.63	75.425
455.98	75.714
456.34	75.879
456.69	75.704
457.04	75.604
457.39	73.933
457.74	74.927
458.09	73.893
458.44	74.401
458.79	73.102
459.14	74.605
459.49	73.964
459.84	72.798
460.19	73.954
460.54	71.759
460.89	73.560
461.24	73.528
461.59	74.782
461.94	71.763
462.29	74.777
462.64	71.921
462.99	72.284
463.34	72.467
463.69	73.358
464.04	72.986
464.39	71.942
464.74	73.678
465.09	73.100
465.44	73.186
465.79	72.651
466.14	71.319
466.49	70.690
466.84	71.570
467.19	71.394
467.54	72.625
467.89	69.628
468.24	71.321
468.59	73.077
468.94	69.701
469.29	72.686
469.64	73.226
469.99	72.733
470.34	71.731
470.68	73.204
471.03	70.612
471.38	74.496
471.73	71.086
472.08	72.434
472.43	70.289
472.78	71.099
473.13	70.732
473.48	70.599
473.83	70.671
474.17	70.255
474.52	70.596
474.87	71.687
475.22	70.807
475.57	68.995
475.92	69.676
476.27	68.602
476.61	69.167
476.96	69.929
477.31	68.446
477.66	69.803
478.01	68.165
478.36	69.910
478.70	68.951
479.05	68.850
479.40	69.396
479.75	69.039
480.10	69.781
480.45	67.682
480.79	67.224
481.14	69.569
481.49	69.245
481.84	68.496
482.19	67.560
482.53	66.560
482.88	67.520
483.23	68.692
483.58	66.424
483.92	68.088
484.27	66.057
484.62	67.931
484.97	66.299
485.31	70.548
485.66	69.592
486.01	67.097
486.36	63.406
486.70	61.750
487.05	62.201
487.40	62.870
487.75	63.691
488.09	63.209
488.44	62.475
488.79	63.617
489.13	64.324
489.48	63.295
489.83	65.257
490.17	66.988
490.52	64.393
490.87	64.677
491.22	65.712
491.56	64.829
491.91	65.705
492.26	64.860
492.60	64.147
492.95	63.190
493.30	62.897
493.64	64.676
493.99	64.810
494.34	63.645
494.68	65.247
495.03	65.226
495.37	63.564
495.72	64.035
496.07	63.898
496.41	61.814
496.76	64.600
497.11	62.855
497.45	62.785
497.80	62.476
498.14	62.222
498.49	64.732
498.84	63.135
499.18	62.381
499.53	63.675
499.87	63.374
500.22	62.506
500.56	63.786
500.91	62.885
501.26	62.541
501.60	64.547
501.95	61.916
502.29	62.980
502.64	62.989
502.98	61.805
503.33	61.472
503.67	61.578
504.02	61.413
504.36	60.037
504.71	61.358
505.06	62.120
505.40	62.227
505.75	60.174
506.09	60.933
506.44	62.407
506.78	61.130
507.13	61.837
507.47	61.313
507.82	62.006
508.16	62.259
508.51	62.050
508.85	60.526
509.19	61.990
509.54	60.867
509.88	60.227
510.23	60.566
510.57	61.816
510.92	60.331
511.26	59.301
511.61	60.685
511.95	59.395
512.30	59.703
512.64	59.592
512.98	60.986
513.33	59.850
513.67	59.712
514.02	60.119
514.36	60.623
514.70	60.708
515.05	59.788
515.39	59.619
515.74	59.291
516.08	59.698
516.42	59.933
516.77	60.033
517.11	58.990
517.46	60.214
517.80	61.440
518.14	59.004
518.49	59.685
518.83	59.034
519.17	59.122
519.52	58.574
519.86	59.270
520.20	59.827
520.55	59.366
520.89	59.550
521.23	59.409
521.58	59.364
521.92	58.726
522.26	58.328
522.61	59.626
522.95	58.502
523.29	58.369
523.64	60.122
523.98	59.458
524.32	58.565
524.66	57.306
525.01	58.640
525.35	57.745
525.69	57.328
526.04	58.754
526.38	57.474
526.72	57.669
527.06	58.192
527.41	56.621
527.75	57.942
528.09	58.125
528.43	59.656
528.78	57.406
529.12	56.424
529.46	57.440
529.80	57.611
530.15	57.383
530.49	55.631
530.83	56.582
531.17	57.898
531.51	58.236
531.86	56.710
532.20	56.128
532.54	57.207
532.88	56.675
533.22	55.340
533.57	57.099
533.91	55.569
534.25	56.561
534.59	56.620
534.93	55.741
535.27	56.126
535.62	54.274
535.96	55.681
536.30	55.690
536.64	55.119
536.98	54.745
537.32	54.773
537.66	56.733
538.01	55.695
538.35	55.204
538.69	55.201
539.03	54.646
539.37	52.971
539.71	53.208
540.05	54.706
540.39	54.950
540.73	54.269
541.07	55.224
541.42	55.316
541.76	55.226
542.10	54.010
542.44	55.166
542.78	54.348
543.12	52.015
543.46	55.082
543.80	55.042
544.14	52.696
544.48	53.460
544.82	53.175
545.16	53.611
545.50	53.021
545.84	52.957
546.18	54.343
546.52	54.026
546.86	53.540
547.20	53.675
547.54	53.106
547.88	53.571
548.22	52.553
548.56	52.453
548.90	53.009
549.24	53.199
549.58	52.319
549.92	53.228
550.26	53.551
550.60	52.282
550.94	52.817
551.28	52.451
551.62	52.912
551.96	52.491
552.30	52.969
552.64	51.859
552.98	52.746
553.32	52.192
553.66	52.215
554.00	51.750
554.34	52.036
554.68	53.219
555.02	51.551
555.36	51.983
555.69	51.894
556.03	51.211
556.37	52.251
556.71	49.864
557.05	51.401
557.39	51.575
557.73	51.517
558.07	50.906
558.41	51.447
558.75	50.771
559.08	52.647
559.42	51.020
559.76	51.765
560.10	52.106
560.44	51.642
560.78	50.432
561.12	50.000
561.45	51.173
561.79	48.715
562.13	50.503
562.47	50.273
562.81	51.534
563.15	48.763
563.48	49.337
563.82	49.446
564.16	49.902
564.50	49.609
564.84	49.305
565.17	49.292
565.51	50.096
565.85	50.190
566.19	49.906
566.52	49.145
566.86	49.488
567.20	49.469
567.54	49.600
567.88	47.691
568.21	48.889
568.55	48.382
568.89	47.228
569.23	47.103
569.56	47.692
569.90	46.679
570.24	45.820
570.57	46.039
570.91	45.475
571.25	44.966
571.59	44.919
571.92	45.392
572.26	44.714
572.60	44.715
572.93	44.438
573.27	44.691
573.61	44.612
573.95	44.884
574.28	44.221
574.62	44.096
574.96	43.751
575.29	43.404
575.63	43.674
575.97	42.593
576.30	43.627
576.64	43.366
576.98	43.024
577.31	44.131
577.65	44.560
577.98	43.546
578.32	42.573
578.66	42.683
578.99	42.958
579.33	41.830
579.67	42.180
580.00	42.867
580.34	42.857
580.67	42.496
581.01	43.040
581.35	42.892
581.68	43.798
582.02	42.417
582.35	42.369
582.69	41.918
583.02	41.557
583.36	42.057
583.70	42.358
584.03	41.954
584.37	42.240
584.70	42.633
585.04	41.805
585.37	41.845
585.71	41.870
586.04	42.136
586.38	42.006
586.72	42.474
587.05	41.945
587.39	41.794
587.72	41.974
588.06	41.996
588.39	42.140
588.73	41.097
589.06	42.350
589.40	42.189
589.73	41.675
590.07	42.456
590.40	41.871
590.73	42.506
591.07	42.532
591.40	42.725
591.74	42.987
592.07	42.365
592.41	43.324
592.74	43.371
593.08	42.172
593.41	42.075
593.75	40.756
594.08	41.804
594.41	41.393
594.75	41.885
595.08	41.303
595.42	41.821
595.75	41.560
596.09	41.307
596.42	41.532
596.75	41.410
597.09	42.641
597.42	41.147
597.75	42.001
598.09	42.043
598.42	41.924
598.76	41.305
599.09	41.885
599.42	40.830
599.76	41.801
600.09	40.219
600.42	40.723
600.76	40.250
601.09	40.255
601.42	41.210
601.76	40.076
602.09	40.870
602.42	40.565
602.76	40.226
603.09	40.637
603.42	40.726
603.76	40.892
604.09	40.016
604.42	40.807
604.76	41.164
605.09	40.454
605.42	40.188
605.75	41.474
606.09	40.464
606.42	40.580
606.75	39.486
607.09	40.100
607.42	40.565
607.75	39.873
608.08	39.818
608.42	41.192
608.75	39.630
609.08	39.593
609.41	40.314
609.75	40.543
610.08	41.235
610.41	41.061
610.74	40.728
611.07	40.711
611.41	40.775
611.74	42.132
612.07	41.253
612.40	41.710
612.73	40.474
613.07	41.379
613.40	41.285
613.73	39.539
614.06	39.839
614.39	41.321
614.72	39.842
615.06	41.492
615.39	40.287
615.72	39.724
616.05	38.915
616.38	39.911
616.71	40.558
617.05	41.873
617.38	40.710
617.71	40.781
618.04	41.827
618.37	40.095
618.70	40.946
619.03	40.658
619.36	39.919
619.69	41.831
620.03	42.651
620.36	42.246
620.69	42.603
621.02	40.339
621.35	40.642
621.68	40.888
622.01	41.873
622.34	42.436
622.67	41.825
623.00	40.572
623.33	41.530
623.66	40.457
623.99	42.194
624.32	41.084
624.65	39.831
624.99	40.935
625.32	40.116
625.65	42.374
625.98	42.275
626.31	40.902
626.64	41.306
626.97	41.397
627.30	40.150
627.63	41.263
627.96	41.043
628.29	41.382
628.62	41.812
628.95	42.925
629.28	40.967
629.61	41.522
629.94	42.952
630.26	42.421
630.59	42.803
630.92	42.050
631.25	41.066
