SpectraSuite Data File
++++++++++++++++++++++++++++++++++++
Date: Wed May 13 16:15:29 PDT 2015
User: schluterlab
Dark Spectrum Present: Yes
Reference Spectrum Present: Yes
Number of Sampled Component Spectra: 1
Spectrometers: USB2E3373
Integration Time (usec): 3000 (USB2E3373)
Spectra Averaged: 3 (USB2E3373)
Boxcar Smoothing: 0 (USB2E3373)
Correct for Electrical Dark: No (USB2E3373)
Strobe/Lamp Enabled: No (USB2E3373)
Correct for Detector Non-linearity: No (USB2E3373)
Correct for Stray Light: No (USB2E3373)
Number of Pixels in Processed Spectrum: 2048
>>>>>Begin Processed Spectral Data<<<<<
178.53	0.000
178.91	-1175.000
179.29	-1000.000
179.67	-194.444
180.04	-925.000
180.42	1850.000
180.80	1120.000
181.18	-925.000
181.56	557.143
181.94	0.000
182.31	-428.571
182.69	1466.667
183.07	-512.500
183.45	-366.667
183.83	372.727
184.20	-330.000
184.58	1800.000
184.96	4300.000
185.34	-700.000
185.72	-400.000
186.09	-1650.000
186.47	2200.000
186.85	1700.000
187.23	3900.000
187.61	-1233.333
187.98	1300.000
188.36	481.818
188.74	463.636
189.12	-760.000
189.49	510.000
189.87	-2800.000
190.25	-750.000
190.63	285.714
191.00	330.769
191.38	766.667
191.76	-900.000
192.14	1075.000
192.51	437.500
192.89	600.000
193.27	425.000
193.65	-825.000
194.02	360.000
194.40	640.000
194.78	430.000
195.15	433.333
195.53	550.000
195.91	-1550.000
196.29	268.750
196.66	257.895
197.04	-240.000
197.42	0.000
197.79	540.000
198.17	-4000.000
198.55	642.857
198.92	525.000
199.30	740.000
199.68	0.000
200.05	211.111
200.43	542.857
200.81	3800.000
201.18	1233.333
201.56	-1333.333
201.94	388.889
202.31	555.556
202.69	333.333
203.07	450.000
203.44	0.000
203.82	775.000
204.19	614.286
204.57	342.857
204.95	387.500
205.32	1266.667
205.70	472.727
206.08	342.857
206.45	2350.000
206.83	262.500
207.20	600.000
207.58	700.000
207.96	283.333
208.33	587.500
208.71	-666.667
209.08	714.286
209.46	466.667
209.84	345.455
210.21	-1333.333
210.59	1025.000
210.96	-200.000
211.34	1950.000
211.71	510.000
212.09	600.000
212.46	0.000
212.84	1466.667
213.22	1125.000
213.59	-4000.000
213.97	700.000
214.34	685.714
214.72	463.636
215.09	940.000
215.47	-1450.000
215.84	-2200.000
216.22	1433.333
216.59	371.429
216.97	925.000
217.34	263.636
217.72	-600.000
218.09	0.000
218.47	-3100.000
218.84	511.111
219.22	528.571
219.59	1233.333
219.97	-400.000
220.34	820.000
220.72	-1500.000
221.09	300.000
221.47	1300.000
221.84	-733.333
222.22	0.000
222.59	1050.000
222.97	-1800.000
223.34	940.000
223.72	292.308
224.09	800.000
224.46	1600.000
224.84	-4000.000
225.21	-880.000
225.59	-4900.000
225.96	540.000
226.34	245.000
226.71	2000.000
227.08	687.500
227.46	430.000
227.83	-750.000
228.21	-1850.000
228.58	488.889
228.95	-1850.000
229.33	-1700.000
229.70	1466.667
230.08	700.000
230.45	-580.000
230.82	383.333
231.20	683.333
231.57	357.143
231.95	408.333
232.32	181.818
232.69	281.818
233.07	614.286
233.44	261.538
233.81	-1400.000
234.19	226.316
234.56	408.333
234.93	266.667
235.31	318.182
235.68	215.385
236.05	271.429
236.43	166.667
236.80	178.947
237.17	3200.000
237.55	214.286
237.92	160.714
238.29	180.952
238.67	145.161
239.04	158.621
239.41	105.556
239.79	102.174
240.16	135.714
240.53	113.636
240.91	78.431
241.28	84.000
241.65	92.000
242.02	82.609
242.40	85.484
242.77	83.333
243.14	68.817
243.51	69.663
243.89	61.176
244.26	60.000
244.63	48.387
245.00	46.809
245.38	57.426
245.75	49.533
246.12	61.468
246.49	53.285
246.87	66.400
247.24	58.462
247.61	54.286
247.98	45.752
248.36	43.243
248.73	54.777
249.10	56.051
249.47	49.718
249.84	54.011
250.22	45.455
250.59	43.195
250.96	41.919
251.33	47.867
251.70	50.000
252.08	43.333
252.45	44.843
252.82	39.565
253.19	42.553
253.56	36.471
253.94	50.207
254.31	40.625
254.68	39.615
255.05	36.531
255.42	41.463
255.79	37.132
256.16	42.599
256.54	36.749
256.91	34.520
257.28	32.734
257.65	37.624
258.02	34.783
258.39	37.855
258.76	36.120
259.14	35.119
259.51	36.170
259.88	35.404
260.25	35.952
260.62	35.838
260.99	33.540
261.36	40.240
261.73	32.665
262.10	32.267
262.47	38.592
262.85	33.983
263.22	29.630
263.59	36.752
263.96	31.319
264.33	32.115
264.70	33.684
265.07	31.969
265.44	37.626
265.81	31.387
266.18	33.166
266.55	34.634
266.92	35.135
267.29	35.185
267.66	30.505
268.03	32.045
268.40	32.243
268.77	31.504
269.14	31.532
269.51	36.117
269.88	33.566
270.25	34.537
270.62	32.135
270.99	32.903
271.36	32.403
271.73	32.477
272.10	29.348
272.47	33.763
272.84	31.818
273.21	33.124
273.58	31.659
273.95	29.979
274.32	30.165
274.69	34.261
275.06	28.937
275.43	29.362
275.80	31.663
276.17	29.532
276.54	33.264
276.91	28.458
277.28	31.250
277.65	29.014
278.02	30.849
278.39	31.250
278.76	30.000
279.13	30.189
279.50	29.423
279.87	28.486
280.23	28.942
280.60	29.207
280.97	28.281
281.34	31.858
281.71	30.000
282.08	29.559
282.45	29.273
282.82	28.064
283.19	26.916
283.56	28.070
283.92	31.641
284.29	29.630
284.66	26.860
285.03	29.295
285.40	28.169
285.77	28.114
286.14	27.634
286.51	28.833
286.87	28.547
287.24	30.293
287.61	26.324
287.98	29.545
288.35	25.832
288.72	26.480
289.08	27.543
289.45	26.689
289.82	27.317
290.19	24.333
290.56	25.727
290.93	25.680
291.29	25.307
291.66	26.696
292.03	26.308
292.40	27.460
292.77	23.669
293.13	25.373
293.50	24.781
293.87	25.037
294.24	23.704
294.60	23.581
294.97	24.419
295.34	25.529
295.71	25.284
296.08	23.077
296.44	23.796
296.81	22.589
297.18	23.848
297.55	21.636
297.91	22.955
298.28	23.159
298.65	22.715
299.02	21.476
299.38	21.116
299.75	21.024
300.12	21.711
300.48	22.000
300.85	22.072
301.22	21.274
301.59	20.328
301.95	22.670
302.32	22.465
302.69	21.386
303.05	21.818
303.42	19.877
303.79	21.518
304.15	20.163
304.52	20.278
304.89	21.254
305.25	20.534
305.62	21.291
305.99	19.717
306.35	21.365
306.72	20.067
307.09	21.865
307.45	21.959
307.82	21.763
308.19	20.199
308.55	20.820
308.92	21.267
309.29	19.430
309.65	20.042
310.02	19.767
310.38	21.290
310.75	20.380
311.12	20.880
311.48	21.212
311.85	20.964
312.22	20.604
312.58	19.647
312.95	22.070
313.31	20.583
313.68	21.518
314.05	22.978
314.41	21.307
314.78	21.148
315.14	20.655
315.51	21.833
315.87	21.782
316.24	21.351
316.61	21.930
316.97	20.646
317.34	21.722
317.70	21.606
318.07	21.944
318.43	22.309
318.80	23.149
319.16	22.505
319.53	22.326
319.89	22.000
320.26	24.200
320.62	22.917
320.99	23.333
321.35	23.737
321.72	24.743
322.08	23.791
322.45	25.075
322.81	24.225
323.18	24.855
323.54	24.490
323.91	24.151
324.27	24.474
324.64	26.188
325.00	25.068
325.37	25.296
325.73	26.391
326.10	24.360
326.46	25.000
326.83	27.092
327.19	27.242
327.56	26.655
327.92	27.472
328.29	27.063
328.65	27.532
329.01	27.076
329.38	28.122
329.74	27.054
330.11	28.181
330.47	28.466
330.84	28.401
331.20	28.962
331.56	29.083
331.93	28.333
332.29	27.507
332.66	28.761
333.02	29.250
333.38	28.997
333.75	29.144
334.11	30.071
334.48	29.370
334.84	29.504
335.20	28.909
335.57	29.556
335.93	28.750
336.29	28.663
336.66	29.937
337.02	27.783
337.38	29.537
337.75	28.610
338.11	29.185
338.47	29.098
338.84	29.514
339.20	28.349
339.56	30.109
339.93	28.091
340.29	28.351
340.65	27.718
341.02	29.232
341.38	30.249
341.74	29.035
342.11	28.734
342.47	28.722
342.83	28.596
343.20	30.130
343.56	28.981
343.92	30.088
344.28	28.997
344.65	28.977
345.01	29.040
345.37	28.302
345.73	29.272
346.10	29.327
346.46	29.237
346.82	29.325
347.19	29.073
347.55	28.571
347.91	29.773
348.27	29.663
348.63	28.930
349.00	28.722
349.36	28.407
349.72	28.549
350.08	28.120
350.45	29.373
350.81	29.001
351.17	29.254
351.53	29.075
351.89	28.878
352.26	30.466
352.62	29.671
352.98	29.903
353.34	29.581
353.70	28.560
354.07	28.468
354.43	28.333
354.79	28.077
355.15	28.412
355.51	30.376
355.87	29.633
356.24	29.967
356.60	28.869
356.96	28.158
357.32	28.618
357.68	29.370
358.04	29.137
358.40	29.929
358.77	30.125
359.13	28.571
359.49	29.020
359.85	28.095
360.21	29.426
360.57	31.284
360.93	30.692
361.29	28.723
361.66	27.941
362.02	29.328
362.38	29.658
362.74	29.985
363.10	29.016
363.46	29.420
363.82	29.932
364.18	29.148
364.54	30.163
364.90	29.462
365.26	29.632
365.62	30.387
365.98	29.730
366.35	28.940
366.71	30.875
367.07	30.444
367.43	30.479
367.79	30.978
368.15	30.675
368.51	29.360
368.87	29.693
369.23	29.920
369.59	30.920
369.95	29.118
370.31	30.057
370.67	29.710
371.03	31.910
371.39	31.050
371.75	30.809
372.11	30.512
372.47	31.745
372.83	31.556
373.19	30.997
373.55	32.003
373.91	32.253
374.27	31.478
374.63	31.491
374.99	32.698
375.35	32.310
375.71	31.803
376.07	32.442
376.42	33.425
376.78	33.863
377.14	32.157
377.50	32.583
377.86	31.981
378.22	32.238
378.58	32.206
378.94	31.867
379.30	33.779
379.66	33.883
380.02	33.968
380.38	32.908
380.74	33.373
381.09	33.863
381.45	34.296
381.81	33.661
382.17	34.140
382.53	34.277
382.89	34.383
383.25	33.521
383.61	35.626
383.97	35.147
384.32	35.059
384.68	34.572
385.04	35.464
385.40	35.418
385.76	33.845
386.12	34.974
386.48	35.431
386.83	36.177
387.19	36.611
387.55	36.611
387.91	34.825
388.27	35.745
388.62	35.403
388.98	35.197
389.34	35.857
389.70	35.868
390.06	36.755
390.42	36.316
390.77	36.005
391.13	37.652
391.49	36.739
391.85	35.773
392.20	35.962
392.56	37.247
392.92	36.433
393.28	35.858
393.64	36.631
393.99	36.836
394.35	36.973
394.71	37.453
395.07	36.449
395.42	37.083
395.78	37.850
396.14	36.934
396.50	38.033
396.85	38.207
397.21	36.806
397.57	37.942
397.92	36.839
398.28	36.435
398.64	37.276
399.00	38.053
399.35	37.169
399.71	37.616
400.07	37.729
400.42	38.405
400.78	37.998
401.14	37.866
401.49	38.209
401.85	37.992
402.21	37.365
402.57	38.803
402.92	37.957
403.28	38.476
403.63	38.490
403.99	38.408
404.35	38.545
404.70	38.070
405.06	37.041
405.42	37.991
405.77	37.371
406.13	37.754
406.49	38.261
406.84	37.980
407.20	38.298
407.55	39.694
407.91	39.800
408.27	39.438
408.62	39.073
408.98	39.093
409.34	39.114
409.69	39.032
410.05	39.653
410.40	39.878
410.76	39.427
411.11	38.842
411.47	38.466
411.83	38.790
412.18	38.033
412.54	39.415
412.89	38.072
413.25	39.079
413.60	39.345
413.96	38.130
414.31	39.368
414.67	39.100
415.03	39.073
415.38	39.691
415.74	40.129
416.09	41.280
416.45	40.897
416.80	39.987
417.16	40.885
417.51	40.876
417.87	38.600
418.22	40.000
418.58	40.865
418.93	40.786
419.29	39.975
419.64	40.806
420.00	39.695
420.35	40.232
420.71	40.466
421.06	39.021
421.42	39.942
421.77	40.863
422.12	38.686
422.48	39.665
422.83	39.895
423.19	40.939
423.54	40.569
423.90	40.406
424.25	40.089
424.61	39.048
424.96	41.341
425.31	39.646
425.67	39.719
426.02	39.600
426.38	41.026
426.73	40.550
427.09	39.757
427.44	41.001
427.79	40.828
428.15	40.357
428.50	39.965
428.85	40.882
429.21	40.033
429.56	40.902
429.92	40.513
430.27	40.119
430.62	39.068
430.98	40.218
431.33	40.515
431.68	41.780
432.04	39.936
432.39	41.234
432.74	40.874
433.10	40.011
433.45	41.341
433.80	40.854
434.16	40.598
434.51	40.368
434.86	41.676
435.22	41.023
435.57	41.884
435.92	41.194
436.28	42.052
436.63	41.060
436.98	41.328
437.34	42.039
437.69	42.532
438.04	42.383
438.39	41.552
438.75	41.836
439.10	41.955
439.45	42.444
439.81	42.598
440.16	41.502
440.51	42.179
440.86	42.386
441.22	42.436
441.57	41.879
441.92	41.300
442.27	42.411
442.63	41.548
442.98	43.268
443.33	42.120
443.68	42.024
444.03	41.972
444.39	41.577
444.74	42.532
445.09	43.450
445.44	41.935
445.79	41.564
446.15	42.139
446.50	42.757
446.85	43.063
447.20	42.631
447.55	43.886
447.91	42.747
448.26	42.960
448.61	43.245
448.96	43.798
449.31	43.082
449.66	43.050
450.02	42.674
450.37	43.197
450.72	42.245
451.07	42.840
451.42	42.796
451.77	43.100
452.12	43.476
452.47	43.781
452.83	43.415
453.18	43.032
453.53	43.043
453.88	43.473
454.23	44.411
454.58	44.640
454.93	45.200
455.28	43.329
455.63	43.750
455.98	45.714
456.34	45.352
456.69	44.145
457.04	44.025
457.39	43.951
457.74	43.413
458.09	43.358
458.44	44.071
458.79	42.570
459.14	44.808
459.49	44.425
459.84	44.044
460.19	44.078
460.54	42.535
460.89	43.939
461.24	44.809
461.59	45.555
461.94	43.527
462.29	45.223
462.64	44.863
462.99	44.828
463.34	43.933
463.69	45.278
464.04	45.043
464.39	44.232
464.74	44.563
465.09	44.029
465.44	43.601
465.79	43.736
466.14	43.186
466.49	44.105
466.84	43.608
467.19	44.719
467.54	44.125
467.89	44.118
468.24	45.026
468.59	44.689
468.94	44.349
469.29	45.823
469.64	47.256
469.99	46.008
470.34	46.103
470.68	46.767
471.03	45.646
471.38	46.977
471.73	47.302
472.08	47.303
472.43	46.420
472.78	45.885
473.13	47.368
473.48	46.941
473.83	46.341
474.17	46.297
474.52	46.836
474.87	47.227
475.22	44.922
475.57	45.621
475.92	45.778
476.27	45.096
476.61	46.387
476.96	45.629
477.31	45.369
477.66	46.444
478.01	46.158
478.36	45.955
478.70	45.483
479.05	45.474
479.40	46.111
479.75	45.907
480.10	45.726
480.45	45.740
480.79	45.437
481.14	45.793
481.49	45.752
481.84	46.045
482.19	45.661
482.53	45.183
482.88	45.975
483.23	46.215
483.58	46.178
483.92	46.111
484.27	44.967
484.62	45.560
484.97	44.935
485.31	45.514
485.66	44.322
486.01	41.654
486.36	39.881
486.70	39.294
487.05	40.280
487.40	41.854
487.75	41.594
488.09	43.464
488.44	43.262
488.79	44.738
489.13	45.302
489.48	45.473
489.83	45.231
490.17	47.216
490.52	46.324
490.87	46.269
491.22	46.157
491.56	46.014
491.91	46.580
492.26	45.935
492.60	46.037
492.95	45.697
493.30	46.449
493.64	46.290
493.99	46.518
494.34	47.225
494.68	47.527
495.03	46.758
495.37	45.882
495.72	47.515
496.07	47.564
496.41	46.062
496.76	46.746
497.11	45.925
497.45	46.483
497.80	46.545
498.14	47.198
498.49	48.390
498.84	47.747
499.18	47.810
499.53	46.771
499.87	46.645
500.22	47.103
500.56	48.689
500.91	47.212
501.26	47.321
501.60	48.315
501.95	46.700
502.29	47.423
502.64	47.439
502.98	47.405
503.33	46.846
503.67	47.285
504.02	46.819
504.36	47.075
504.71	47.973
505.06	47.614
505.40	47.496
505.75	47.396
506.09	47.765
506.44	48.150
506.78	48.807
507.13	48.763
507.47	48.030
507.82	48.632
508.16	49.037
508.51	49.011
508.85	48.908
509.19	49.490
509.54	48.214
509.88	48.377
510.23	50.026
510.57	50.000
510.92	50.233
511.26	49.383
511.61	49.793
511.95	48.382
512.30	49.629
512.64	49.490
512.98	50.107
513.33	50.535
513.67	50.374
514.02	50.703
514.36	51.120
514.70	51.356
515.05	51.255
515.39	51.150
515.74	51.408
516.08	50.531
516.42	52.386
516.77	53.344
517.11	50.832
517.46	50.056
517.80	53.368
518.14	50.955
518.49	53.034
518.83	52.557
519.17	52.309
519.52	52.235
519.86	51.797
520.20	52.948
520.55	53.082
520.89	52.920
521.23	53.679
521.58	53.061
521.92	54.746
522.26	52.105
522.61	53.583
522.95	52.977
523.29	53.439
523.64	53.963
523.98	53.851
524.32	53.679
524.66	53.818
525.01	52.757
525.35	53.965
525.69	53.325
526.04	54.642
526.38	54.545
526.72	52.761
527.06	53.798
527.41	53.651
527.75	54.920
528.09	53.950
528.43	54.111
528.78	53.104
529.12	53.394
529.46	52.970
529.80	53.899
530.15	53.022
530.49	52.800
530.83	53.608
531.17	54.634
531.51	55.512
531.86	53.484
532.20	56.063
532.54	53.876
532.88	55.520
533.22	53.092
533.57	53.457
533.91	52.739
534.25	53.098
534.59	53.996
534.93	52.231
535.27	52.927
535.62	52.686
535.96	53.735
536.30	52.257
536.64	54.862
536.98	54.811
537.32	53.654
537.66	54.933
538.01	55.365
538.35	52.424
538.69	53.350
539.03	52.372
539.37	53.227
539.71	52.495
540.05	53.922
540.39	53.754
540.73	54.204
541.07	54.380
541.42	54.990
541.76	54.129
542.10	53.105
542.44	54.106
542.78	55.665
543.12	53.551
543.46	53.639
543.80	53.611
544.14	51.797
544.48	53.651
544.82	54.137
545.16	54.652
545.50	52.635
545.84	54.503
546.18	54.613
546.52	53.820
546.86	55.533
547.20	54.484
547.54	53.975
547.88	53.380
548.22	52.304
548.56	54.214
548.90	52.561
549.24	53.603
549.58	54.707
549.92	53.709
550.26	55.398
550.60	53.181
550.94	54.014
551.28	55.011
551.62	54.277
551.96	54.807
552.30	55.085
552.64	53.753
552.98	54.508
553.32	53.675
553.66	53.851
554.00	54.907
554.34	53.209
554.68	53.934
555.02	54.020
555.36	53.862
555.69	52.639
556.03	53.567
556.37	53.206
556.71	53.888
557.05	53.922
557.39	54.094
557.73	54.764
558.07	54.170
558.41	54.486
558.75	53.417
559.08	56.450
559.42	55.178
559.76	56.103
560.10	54.532
560.44	54.717
560.78	53.560
561.12	53.100
561.45	54.824
561.79	52.406
562.13	53.655
562.47	52.869
562.81	55.091
563.15	52.575
563.48	53.382
563.82	54.142
564.16	52.191
564.50	52.995
564.84	52.592
565.17	51.609
565.51	52.971
565.85	53.046
566.19	51.158
566.52	52.565
566.86	51.838
567.20	52.300
567.54	51.427
567.88	50.081
568.21	51.481
568.55	50.303
568.89	49.125
569.23	49.109
569.56	48.097
569.90	47.396
570.24	46.502
570.57	45.937
570.91	45.087
571.25	45.584
571.59	44.595
571.92	45.248
572.26	44.830
572.60	45.255
572.93	44.288
573.27	44.750
573.61	44.863
573.95	44.729
574.28	44.121
574.62	43.780
574.96	43.393
575.29	43.356
575.63	43.089
575.97	43.791
576.30	43.760
576.64	43.240
576.98	43.777
577.31	42.884
577.65	42.953
577.98	42.682
578.32	42.077
578.66	41.761
578.99	42.844
579.33	43.137
579.67	42.496
580.00	43.179
580.34	43.047
580.67	43.323
581.01	43.130
581.35	42.933
581.68	42.421
582.02	41.578
582.35	42.188
582.69	42.107
583.02	42.101
583.36	42.264
583.70	43.382
584.03	43.626
584.37	43.715
584.70	44.514
585.04	42.808
585.37	43.173
585.71	43.609
586.04	42.643
586.38	43.600
586.72	43.275
587.05	43.385
587.39	42.982
587.72	43.649
588.06	43.276
588.39	43.237
588.73	43.092
589.06	44.593
589.40	45.219
589.73	45.195
590.07	45.267
590.40	44.428
590.73	45.785
591.07	46.724
591.40	45.508
591.74	47.186
592.07	45.201
592.41	45.887
592.74	44.944
593.08	45.003
593.41	43.341
593.75	43.129
594.08	43.413
594.41	44.928
594.75	43.364
595.08	44.667
595.42	44.799
595.75	44.516
596.09	44.799
596.42	45.265
596.75	46.264
597.09	46.017
597.42	45.025
597.75	45.149
598.09	45.478
598.42	45.704
598.76	44.345
599.09	43.786
599.42	43.523
599.76	44.070
600.09	44.080
600.42	43.499
600.76	43.714
601.09	43.570
601.42	44.102
601.76	44.175
602.09	45.059
602.42	44.626
602.76	45.586
603.09	44.571
603.42	44.943
603.76	44.627
604.09	44.281
604.42	44.272
604.76	45.002
605.09	45.478
605.42	44.891
605.75	45.199
606.09	45.018
606.42	44.994
606.75	44.214
607.09	44.454
607.42	45.186
607.75	44.177
608.08	43.986
608.42	44.151
608.75	44.860
609.08	44.820
609.41	45.550
609.75	45.784
610.08	45.947
610.41	45.857
610.74	46.121
611.07	47.233
611.41	45.191
611.74	46.053
612.07	45.911
612.40	47.219
612.73	46.421
613.07	48.006
613.40	46.235
613.73	45.726
614.06	46.129
614.39	46.251
614.72	45.158
615.06	46.008
615.39	45.966
615.72	44.683
616.05	45.880
616.38	47.026
616.71	47.209
617.05	47.939
617.38	47.925
617.71	47.027
618.04	47.656
618.37	46.600
618.70	48.102
619.03	48.421
619.36	48.744
619.69	49.155
620.03	49.245
620.36	49.131
620.69	48.904
621.02	50.221
621.35	49.413
621.68	50.000
622.01	50.232
622.34	50.378
622.67	49.658
623.00	48.789
623.33	49.178
623.66	48.392
623.99	50.074
624.32	48.787
624.65	49.294
624.99	47.380
625.32	48.660
625.65	50.413
625.98	50.653
626.31	49.456
626.64	51.265
626.97	50.873
627.30	52.286
627.63	50.943
627.96	51.640
628.29	51.706
628.62	52.425
628.95	54.717
629.28	53.285
629.61	53.071
629.94	54.667
630.26	52.336
630.59	52.526
630.92	52.586
631.25	52.024
