SpectraSuite Data File
++++++++++++++++++++++++++++++++++++
Date: Wed May 13 16:31:55 PDT 2015
User: schluterlab
Dark Spectrum Present: Yes
Reference Spectrum Present: Yes
Number of Sampled Component Spectra: 1
Spectrometers: USB2E3373
Integration Time (usec): 3000 (USB2E3373)
Spectra Averaged: 3 (USB2E3373)
Boxcar Smoothing: 0 (USB2E3373)
Correct for Electrical Dark: No (USB2E3373)
Strobe/Lamp Enabled: No (USB2E3373)
Correct for Detector Non-linearity: No (USB2E3373)
Correct for Stray Light: No (USB2E3373)
Number of Pixels in Processed Spectrum: 2048
>>>>>Begin Processed Spectral Data<<<<<
178.53	0.000
178.91	-1000.000
179.29	-1100.000
179.67	-200.000
180.04	-1125.000
180.42	2000.000
180.80	1120.000
181.18	-850.000
181.56	700.000
181.94	0.000
182.31	-642.857
182.69	1500.000
183.07	-537.500
183.45	-488.889
183.83	436.364
184.20	-280.000
184.58	2150.000
184.96	4300.000
185.34	-880.000
185.72	-525.000
186.09	-2250.000
186.47	2400.000
186.85	2450.000
187.23	3900.000
187.61	-1733.333
187.98	1200.000
188.36	490.909
188.74	436.364
189.12	-900.000
189.49	490.000
189.87	-4600.000
190.25	-975.000
190.63	414.286
191.00	415.385
191.38	816.667
191.76	-1150.000
192.14	1300.000
192.51	450.000
192.89	816.667
193.27	412.500
193.65	-700.000
194.02	420.000
194.40	980.000
194.78	550.000
195.15	416.667
195.53	560.000
195.91	-1950.000
196.29	262.500
196.66	273.684
197.04	-300.000
197.42	0.000
197.79	570.000
198.17	-4000.000
198.55	685.714
198.92	650.000
199.30	800.000
199.68	0.000
200.05	272.222
200.43	814.286
200.81	5000.000
201.18	1366.667
201.56	-1266.667
201.94	477.778
202.31	511.111
202.69	341.667
203.07	410.000
203.44	0.000
203.82	1100.000
204.19	828.571
204.57	450.000
204.95	587.500
205.32	1800.000
205.70	490.909
206.08	342.857
206.45	2550.000
206.83	331.250
207.20	733.333
207.58	880.000
207.96	311.111
208.33	687.500
208.71	-850.000
209.08	757.143
209.46	611.111
209.84	454.545
210.21	-1500.000
210.59	1275.000
210.96	-425.000
211.34	2450.000
211.71	490.000
212.09	783.333
212.46	0.000
212.84	1466.667
213.22	1300.000
213.59	-5400.000
213.97	783.333
214.34	714.286
214.72	600.000
215.09	1040.000
215.47	-2600.000
215.84	-2100.000
216.22	1200.000
216.59	350.000
216.97	1100.000
217.34	327.273
217.72	-533.333
218.09	0.000
218.47	-4500.000
218.84	500.000
219.22	714.286
219.59	1633.333
219.97	-442.857
220.34	940.000
220.72	-1533.333
221.09	350.000
221.47	1275.000
221.84	-916.667
222.22	0.000
222.59	1300.000
222.97	-2200.000
223.34	1020.000
223.72	400.000
224.09	900.000
224.46	1950.000
224.84	-4000.000
225.21	-840.000
225.59	-4300.000
225.96	590.000
226.34	340.000
226.71	2950.000
227.08	587.500
227.46	540.000
227.83	-950.000
228.21	-2600.000
228.58	577.778
228.95	-2050.000
229.33	-1850.000
229.70	1700.000
230.08	828.571
230.45	-700.000
230.82	408.333
231.20	616.667
231.57	571.429
231.95	458.333
232.32	218.182
232.69	418.182
233.07	557.143
233.44	223.077
233.81	-1566.667
234.19	252.632
234.56	325.000
234.93	391.667
235.31	381.818
235.68	323.077
236.05	285.714
236.43	163.636
236.80	268.421
237.17	3300.000
237.55	228.571
237.92	164.286
238.29	200.000
238.67	109.677
239.04	217.241
239.41	119.444
239.79	95.652
240.16	114.286
240.53	104.545
240.91	84.314
241.28	98.000
241.65	96.000
242.02	79.710
242.40	74.194
242.77	73.333
243.14	59.140
243.51	68.539
243.89	52.941
244.26	53.333
244.63	59.140
245.00	42.553
245.38	52.475
245.75	48.598
246.12	42.202
246.49	44.526
246.87	43.200
247.24	46.154
247.61	39.286
247.98	35.294
248.36	28.378
248.73	30.573
249.10	34.395
249.47	31.638
249.84	33.690
250.22	27.273
250.59	26.036
250.96	27.778
251.33	32.701
251.70	34.158
252.08	30.000
252.45	26.906
252.82	24.348
253.19	25.532
253.56	24.706
253.94	25.726
254.31	26.172
254.68	26.154
255.05	25.830
255.42	19.512
255.79	23.897
256.16	23.105
256.54	19.788
256.91	21.708
257.28	19.784
257.65	23.762
258.02	23.292
258.39	19.874
258.76	17.391
259.14	19.940
259.51	17.021
259.88	17.702
260.25	18.731
260.62	18.497
260.99	16.149
261.36	19.219
261.73	17.765
262.10	16.570
262.47	20.000
262.85	20.334
263.22	13.390
263.59	19.943
263.96	16.484
264.33	18.799
264.70	21.053
265.07	17.136
265.44	16.919
265.81	17.275
266.18	15.075
266.55	17.073
266.92	17.690
267.29	18.981
267.66	17.202
268.03	16.136
268.40	19.393
268.77	13.126
269.14	16.667
269.51	19.413
269.88	14.219
270.25	14.898
270.62	13.258
270.99	17.419
271.36	13.948
271.73	16.355
272.10	15.435
272.47	15.269
272.84	16.450
273.21	15.933
273.58	14.192
273.95	14.046
274.32	14.876
274.69	16.060
275.06	15.354
275.43	17.447
275.80	14.629
276.17	14.460
276.54	13.306
276.91	15.613
277.28	14.844
277.65	14.313
278.02	10.973
278.39	14.844
278.76	16.545
279.13	15.283
279.50	16.760
279.87	14.542
280.23	13.972
280.60	14.507
280.97	12.939
281.34	14.336
281.71	15.091
282.08	13.436
282.45	13.818
282.82	13.499
283.19	10.873
283.56	13.333
283.92	14.213
284.29	12.522
284.66	12.886
285.03	12.116
285.40	11.444
285.77	12.290
286.14	10.363
286.51	12.500
286.87	13.333
287.24	14.007
287.61	13.804
287.98	13.149
288.35	10.777
288.72	11.994
289.08	13.928
289.45	12.685
289.82	11.870
290.19	11.460
290.56	11.332
290.93	11.934
291.29	10.583
291.66	13.274
292.03	13.372
292.40	14.097
292.77	10.059
293.13	12.836
293.50	11.224
293.87	10.963
294.24	9.778
294.60	10.480
294.97	11.337
295.34	13.258
295.71	11.080
296.08	10.114
296.44	11.692
296.81	10.304
297.18	11.111
297.55	9.235
297.91	10.026
298.28	10.843
298.65	10.966
299.02	9.750
299.38	10.491
299.75	9.030
300.12	9.068
300.48	9.000
300.85	11.097
301.22	9.682
301.59	9.975
301.95	9.824
302.32	8.858
302.69	9.080
303.05	9.939
303.42	9.877
303.79	9.173
304.15	7.692
304.52	8.575
304.89	9.175
305.25	7.773
305.62	9.513
305.99	10.035
306.35	9.060
306.72	8.969
307.09	9.434
307.45	10.248
307.82	8.036
308.19	9.492
308.55	9.817
308.92	8.593
309.29	8.659
309.65	8.590
310.02	8.879
310.38	9.462
310.75	7.709
311.12	9.826
311.48	9.195
311.85	10.273
312.22	8.741
312.58	7.380
312.95	8.659
313.31	9.029
313.68	9.252
314.05	9.665
314.41	9.146
314.78	8.359
315.14	9.136
315.51	8.960
315.87	8.812
316.24	9.335
316.61	7.505
316.97	8.219
317.34	8.708
317.70	8.891
318.07	8.951
318.43	9.100
318.80	9.934
319.16	8.663
319.53	9.475
319.89	9.048
320.26	9.900
320.62	9.921
320.99	8.182
321.35	9.495
321.72	9.446
322.08	8.786
322.45	9.254
322.81	10.368
323.18	9.345
323.54	8.998
323.91	9.811
324.27	9.751
324.64	8.760
325.00	7.394
325.37	9.645
325.73	10.144
326.10	7.855
326.46	8.333
326.83	9.060
327.19	8.796
327.56	8.275
327.92	8.924
328.29	9.583
328.65	8.840
329.01	9.296
329.38	9.436
329.74	9.418
330.11	8.671
330.47	8.081
330.84	10.662
331.20	9.290
331.56	9.633
331.93	8.148
332.29	9.760
332.66	9.646
333.02	7.952
333.38	9.304
333.75	10.517
334.11	8.719
334.48	8.341
334.84	8.548
335.20	9.909
335.57	8.885
335.93	7.411
336.29	8.425
336.66	8.837
337.02	8.235
337.38	9.722
337.75	8.734
338.11	8.147
338.47	9.208
338.84	8.983
339.20	8.165
339.56	8.759
339.93	7.909
340.29	9.239
340.65	8.645
341.02	9.250
341.38	8.719
341.74	7.807
342.11	8.297
342.47	9.515
342.83	9.247
343.20	9.091
343.56	8.088
343.92	8.421
344.28	8.248
344.65	8.426
345.01	7.828
345.37	6.690
345.73	8.460
346.10	8.866
346.46	8.814
346.82	8.814
347.19	8.438
347.55	7.800
347.91	8.414
348.27	8.710
348.63	8.528
349.00	7.686
349.36	8.456
349.72	7.939
350.08	7.455
350.45	8.299
350.81	8.367
351.17	8.185
351.53	8.272
351.89	6.931
352.26	8.287
352.62	8.260
352.98	8.266
353.34	7.806
353.70	7.119
354.07	8.548
354.43	7.857
354.79	7.080
355.15	6.704
355.51	8.633
355.87	7.102
356.24	6.840
356.60	7.779
356.96	6.999
357.32	7.359
357.68	7.953
358.04	7.918
358.40	7.838
358.77	7.668
359.13	7.024
359.49	7.451
359.85	6.032
360.21	6.539
360.57	7.704
360.93	7.769
361.29	7.407
361.66	7.508
362.02	7.985
362.38	7.985
362.74	7.366
363.10	7.402
363.46	7.337
363.82	7.483
364.18	7.342
364.54	7.949
364.90	8.357
365.26	6.838
365.62	7.889
365.98	7.232
366.35	6.805
366.71	7.664
367.07	7.283
367.43	8.055
367.79	8.351
368.15	8.477
368.51	6.904
368.87	7.780
369.23	7.096
369.59	7.676
369.95	6.838
370.31	7.621
370.67	8.406
371.03	7.566
371.39	7.507
371.75	6.912
372.11	7.539
372.47	7.845
372.83	8.141
373.19	7.153
373.55	7.391
373.91	9.131
374.27	7.560
374.63	6.982
374.99	7.910
375.35	6.629
375.71	7.745
376.07	7.819
376.42	7.428
376.78	8.482
377.14	8.005
377.50	8.013
377.86	7.114
378.22	8.470
378.58	7.143
378.94	7.668
379.30	6.934
379.66	7.931
380.02	7.801
380.38	7.165
380.74	8.043
381.09	7.335
381.45	8.605
381.81	8.292
382.17	7.771
382.53	7.170
382.89	7.778
383.25	7.942
383.61	8.302
383.97	7.880
384.32	7.611
384.68	7.621
385.04	7.683
385.40	7.430
385.76	8.108
386.12	8.484
386.48	8.936
386.83	8.531
387.19	8.596
387.55	8.472
387.91	7.678
388.27	8.277
388.62	8.605
388.98	7.740
389.34	9.449
389.70	8.277
390.06	8.999
390.42	8.625
390.77	9.160
391.13	8.743
391.49	8.947
391.85	8.848
392.20	7.697
392.56	8.523
392.92	8.652
393.28	7.692
393.64	9.053
393.99	9.102
394.35	9.119
394.71	8.595
395.07	9.097
395.42	8.344
395.78	8.651
396.14	9.435
396.50	9.148
396.85	8.900
397.21	8.940
397.57	8.989
397.92	8.173
398.28	8.352
398.64	9.558
399.00	8.898
399.35	8.178
399.71	9.433
400.07	8.634
400.42	9.202
400.78	9.168
401.14	9.146
401.49	8.896
401.85	8.348
402.21	7.246
402.57	8.945
402.92	8.764
403.28	9.244
403.63	8.292
403.99	8.471
404.35	8.727
404.70	8.813
405.06	8.969
405.42	9.046
405.77	8.514
406.13	8.183
406.49	9.107
406.84	9.037
407.20	8.333
407.55	8.934
407.91	9.800
408.27	9.445
408.62	9.934
408.98	8.885
409.34	8.979
409.69	9.161
410.05	8.426
410.40	8.930
410.76	8.483
411.11	8.987
411.47	8.179
411.83	9.163
412.18	8.720
412.54	8.966
412.89	9.398
413.25	9.209
413.60	9.697
413.96	8.561
414.31	8.991
414.67	9.316
415.03	9.338
415.38	9.407
415.74	9.132
416.09	8.948
416.45	8.501
416.80	8.526
417.16	9.718
417.51	10.352
417.87	8.606
418.22	9.211
418.58	9.232
418.93	9.029
419.29	9.548
419.64	9.698
420.00	8.963
420.35	9.855
420.71	9.384
421.06	8.115
421.42	8.889
421.77	8.913
422.12	8.366
422.48	8.257
422.83	8.620
423.19	8.950
423.54	9.402
423.90	9.159
424.25	8.878
424.61	9.405
424.96	9.155
425.31	9.247
425.67	9.438
426.02	9.429
426.38	9.096
426.73	9.187
427.09	9.666
427.44	9.201
427.79	8.626
428.15	9.881
428.50	8.660
428.85	10.250
429.21	8.945
429.56	8.657
429.92	8.405
430.27	7.944
430.62	8.244
430.98	8.251
431.33	9.072
431.68	9.529
432.04	8.679
432.39	9.023
432.74	8.797
433.10	9.225
433.45	8.746
433.80	8.647
434.16	8.654
434.51	8.895
434.86	9.122
435.22	8.838
435.57	8.389
435.92	9.011
436.28	8.897
436.63	9.823
436.98	7.956
437.34	9.481
437.69	9.277
438.04	8.938
438.39	8.955
438.75	9.762
439.10	8.771
439.45	9.563
439.81	8.338
440.16	9.034
440.51	9.490
440.86	9.554
441.22	8.788
441.57	9.130
441.92	8.751
442.27	8.611
442.63	8.847
442.98	9.465
443.33	9.511
443.68	9.086
444.03	9.517
444.39	8.228
444.74	9.091
445.09	8.625
445.44	9.021
445.79	9.005
446.15	8.894
446.50	8.831
446.85	9.096
447.20	9.128
447.55	8.431
447.91	9.487
448.26	8.904
448.61	9.158
448.96	9.856
449.31	8.999
449.66	9.004
450.02	8.245
450.37	9.014
450.72	8.742
451.07	8.531
451.42	8.328
451.77	8.573
452.12	9.296
452.47	8.955
452.83	9.207
453.18	9.169
453.53	9.895
453.88	8.919
454.23	9.265
454.58	9.691
454.93	9.536
455.28	9.227
455.63	9.405
455.98	9.643
456.34	9.925
456.69	8.892
457.04	8.793
457.39	8.884
457.74	8.996
458.09	9.833
458.44	8.666
458.79	8.894
459.14	8.804
459.49	9.399
459.84	8.587
460.19	9.193
460.54	9.086
460.89	9.051
461.24	9.168
461.59	9.762
461.94	8.570
462.29	9.970
462.64	9.955
462.99	8.783
463.34	10.133
463.69	8.818
464.04	9.217
464.39	9.797
464.74	9.507
465.09	9.349
465.44	9.197
465.79	8.389
466.14	8.922
466.49	8.454
466.84	8.523
467.19	9.535
467.54	9.688
467.89	9.484
468.24	10.180
468.59	9.646
468.94	9.102
469.29	9.512
469.64	10.375
469.99	9.540
470.34	8.785
470.68	9.842
471.03	9.184
471.38	9.312
471.73	9.727
472.08	9.671
472.43	9.422
472.78	9.151
473.13	9.756
473.48	9.863
473.83	9.390
474.17	9.396
474.52	9.553
474.87	9.749
475.22	8.822
475.57	9.618
475.92	8.656
476.27	8.737
476.61	8.880
476.96	8.906
477.31	9.105
477.66	8.698
478.01	9.148
478.36	9.149
478.70	8.775
479.05	8.786
479.40	8.854
479.75	8.744
480.10	8.151
480.45	8.377
480.79	8.218
481.14	8.855
481.49	8.970
481.84	8.642
482.19	8.269
482.53	8.807
482.88	8.562
483.23	8.925
483.58	9.054
483.92	8.529
484.27	7.887
484.62	8.922
484.97	8.238
485.31	8.390
485.66	7.203
486.01	6.743
486.36	6.316
486.70	6.515
487.05	7.127
487.40	7.227
487.75	7.640
488.09	8.250
488.44	7.772
488.79	8.391
489.13	8.442
489.48	8.524
489.83	8.200
490.17	8.856
490.52	8.680
490.87	8.141
491.22	9.004
491.56	8.474
491.91	8.329
492.26	8.360
492.60	8.479
492.95	7.998
493.30	8.271
493.64	8.353
493.99	8.032
494.34	8.696
494.68	8.562
495.03	8.976
495.37	8.469
495.72	8.821
496.07	8.910
496.41	8.097
496.76	8.311
497.11	7.789
497.45	8.291
497.80	8.973
498.14	8.019
498.49	8.780
498.84	8.821
499.18	8.048
499.53	8.215
499.87	8.621
500.22	8.950
500.56	8.981
500.91	8.365
501.26	8.914
501.60	8.590
501.95	8.203
502.29	8.903
502.64	8.240
502.98	8.462
503.33	8.638
503.67	9.002
504.02	8.466
504.36	8.376
504.71	9.086
505.06	8.916
505.40	8.264
505.75	8.100
506.09	8.795
506.44	8.140
506.78	9.450
507.13	8.783
507.47	8.939
507.82	9.271
508.16	9.017
508.51	9.335
508.85	8.640
509.19	8.673
509.54	9.184
509.88	8.398
510.23	8.843
510.57	9.804
510.92	9.218
511.26	9.455
511.61	9.129
511.95	8.716
512.30	8.908
512.64	9.081
512.98	9.110
513.33	9.582
513.67	8.805
514.02	8.387
514.36	9.885
514.70	8.744
515.05	8.310
515.39	8.525
515.74	8.784
516.08	9.447
516.42	9.656
516.77	9.866
517.11	9.101
517.46	9.481
517.80	8.769
518.14	8.743
518.49	9.510
518.83	9.432
519.17	9.642
519.52	8.829
519.86	9.698
520.20	10.462
520.55	9.096
520.89	10.462
521.23	10.374
521.58	9.724
521.92	9.002
522.26	8.847
522.61	9.159
522.95	9.576
523.29	9.799
523.64	9.695
523.98	9.304
524.32	9.710
524.66	9.802
525.01	10.600
525.35	8.922
525.69	9.360
526.04	9.657
526.38	9.640
526.72	10.429
527.06	10.044
527.41	9.468
527.75	10.225
528.09	9.955
528.43	9.369
528.78	10.633
529.12	9.333
529.46	10.288
529.80	10.087
530.15	10.343
530.49	9.538
530.83	9.937
531.17	11.031
531.51	10.376
531.86	9.742
532.20	10.300
532.54	10.890
532.88	10.141
533.22	9.494
533.57	9.938
533.91	10.355
534.25	10.207
534.59	10.189
534.93	10.291
535.27	10.199
535.62	10.134
535.96	10.107
536.30	9.409
536.64	10.882
536.98	10.285
537.32	9.480
537.66	10.067
538.01	10.665
538.35	11.312
538.69	10.338
539.03	10.201
539.37	9.776
539.71	9.138
540.05	11.046
540.39	9.635
540.73	9.250
541.07	10.837
541.42	9.720
541.76	10.710
542.10	10.155
542.44	9.073
542.78	10.804
543.12	9.533
543.46	11.082
543.80	10.735
544.14	10.205
544.48	10.476
544.82	9.878
545.16	10.410
545.50	9.961
545.84	10.081
546.18	10.707
546.52	11.631
546.86	9.828
547.20	10.587
547.54	10.554
547.88	11.161
548.22	10.274
548.56	10.189
548.90	10.051
549.24	10.101
549.58	10.368
549.92	10.371
550.26	10.014
550.60	10.443
550.94	10.493
551.28	9.656
551.62	10.640
551.96	10.105
552.30	10.512
552.64	10.480
552.98	10.237
553.32	11.396
553.66	10.975
554.00	10.981
554.34	10.214
554.68	11.516
555.02	9.803
555.36	10.369
555.69	10.419
556.03	9.690
556.37	9.891
556.71	10.437
557.05	10.434
557.39	10.707
557.73	9.668
558.07	10.442
558.41	11.216
558.75	10.580
559.08	11.260
559.42	10.431
559.76	10.882
560.10	10.493
560.44	10.203
560.78	10.379
561.12	9.960
561.45	11.213
561.79	10.283
562.13	10.530
562.47	10.587
562.81	10.669
563.15	9.900
563.48	10.212
563.82	9.850
564.16	10.268
564.50	9.635
564.84	10.303
565.17	10.360
565.51	9.968
565.85	10.343
566.19	9.393
566.52	10.070
566.86	9.283
567.20	10.083
567.54	9.932
567.88	9.125
568.21	9.947
568.55	9.505
568.89	8.998
569.23	9.225
569.56	8.462
569.90	8.528
570.24	8.145
570.57	8.228
570.91	8.112
571.25	8.061
571.59	7.923
571.92	7.863
572.26	8.290
572.60	8.228
572.93	8.186
573.27	8.400
573.61	8.319
573.95	7.907
574.28	7.714
574.62	7.775
574.96	7.646
575.29	7.614
575.63	7.749
575.97	8.331
576.30	8.311
576.64	7.961
576.98	7.851
577.31	7.555
577.65	7.448
577.98	7.318
578.32	7.347
578.66	7.358
578.99	7.852
579.33	7.649
579.67	7.638
580.00	7.936
580.34	7.950
580.67	7.894
581.01	7.826
581.35	7.711
581.68	7.439
582.02	7.294
582.35	7.523
582.69	7.466
583.02	7.700
583.36	8.093
583.70	8.067
584.03	8.229
584.37	8.300
584.70	8.072
585.04	8.195
585.37	7.526
585.71	7.918
586.04	7.876
586.38	7.941
586.72	8.092
587.05	7.715
587.39	7.599
587.72	8.220
588.06	7.818
588.39	8.669
588.73	8.155
589.06	8.414
589.40	8.451
589.73	8.307
590.07	8.968
590.40	8.403
590.73	8.509
591.07	9.035
591.40	8.477
591.74	9.610
592.07	9.293
592.41	8.971
592.74	8.614
593.08	8.294
593.41	8.130
593.75	8.057
594.08	7.945
594.41	8.837
594.75	8.466
595.08	8.876
595.42	8.827
595.75	8.369
596.09	8.599
596.42	9.587
596.75	9.540
597.09	10.173
597.42	8.685
597.75	9.702
598.09	9.478
598.42	9.149
598.76	9.080
599.09	8.134
599.42	8.333
599.76	8.748
600.09	8.124
600.42	8.145
600.76	8.036
601.09	8.525
601.42	8.333
601.76	8.349
602.09	8.458
602.42	9.076
602.76	9.069
603.09	8.773
603.42	8.825
603.76	8.689
604.09	8.569
604.42	9.009
604.76	9.237
605.09	9.131
605.42	8.551
605.75	9.106
606.09	8.581
606.42	8.705
606.75	9.000
607.09	9.125
607.42	8.558
607.75	8.776
608.08	8.554
608.42	8.965
608.75	9.107
609.08	9.112
609.41	8.710
609.75	9.052
610.08	9.614
610.41	8.520
610.74	9.130
611.07	10.079
611.41	9.078
611.74	9.603
612.07	9.058
612.40	9.391
612.73	9.579
613.07	9.644
613.40	9.847
613.73	8.495
614.06	9.839
614.39	9.858
614.72	9.263
615.06	9.349
615.39	9.076
615.72	9.611
616.05	9.144
616.38	10.061
616.71	9.620
617.05	10.188
617.38	9.802
617.71	9.309
618.04	9.675
618.37	9.284
618.70	10.454
619.03	11.447
619.36	10.930
619.69	10.845
620.03	10.234
620.36	10.695
620.69	10.822
621.02	11.062
621.35	10.415
621.68	10.748
622.01	10.449
622.34	11.044
622.67	11.027
623.00	9.831
623.33	10.508
623.66	10.365
623.99	10.162
624.32	10.556
624.65	10.028
624.99	9.561
625.32	9.920
625.65	10.894
625.98	11.760
626.31	11.353
626.64	11.347
626.97	11.804
627.30	10.889
627.63	10.500
627.96	11.270
628.29	11.549
628.62	11.802
628.95	13.396
629.28	12.135
629.61	11.274
629.94	11.619
630.26	11.344
630.59	11.725
630.92	11.877
631.25	10.760
631.58	12.513
631.91	11.866
632.24	12.025
632.57	12.382
632.90	12.500
633.23	12.752
633.56	12.316
633.89	12.797
634.22	13.394
634.55	13.964
634.88	12.695
635.20	14.217
635.53	13.614
635.86	12.500
636.19	12.588
636.52	13.149
636.85	13.860
637.18	11.982
637.51	13.593
637.83	12.084
638.16	13.555
638.49	12.091
638.82	13.780
639.15	12.750
639.48	14.713
639.81	12.869
640.13	13.021
640.46	14.765
640.79	13.738
641.12	13.893
641.45	14.385
641.77	13.402
642.10	14.035
642.43	13.363
642.76	15.015
643.09	14.724
643.41	12.898
643.74	16.512
644.07	14.024
644.40	14.877
644.73	15.276
645.05	15.689
645.38	13.270
645.71	14.010
646.04	15.449
646.36	15.192
646.69	16.722
647.02	14.116
647.35	15.120
647.67	16.460
648.00	16.098
648.33	13.036
648.66	15.000
648.98	15.142
