SpectraSuite Data File
++++++++++++++++++++++++++++++++++++
Date: Wed May 13 16:11:24 PDT 2015
User: schluterlab
Dark Spectrum Present: Yes
Reference Spectrum Present: Yes
Number of Sampled Component Spectra: 1
Spectrometers: USB2E3373
Integration Time (usec): 3000 (USB2E3373)
Spectra Averaged: 3 (USB2E3373)
Boxcar Smoothing: 0 (USB2E3373)
Correct for Electrical Dark: No (USB2E3373)
Strobe/Lamp Enabled: No (USB2E3373)
Correct for Detector Non-linearity: No (USB2E3373)
Correct for Stray Light: No (USB2E3373)
Number of Pixels in Processed Spectrum: 2048
>>>>>Begin Processed Spectral Data<<<<<
178.53	0.000
178.91	-900.000
179.29	-975.000
179.67	-155.556
180.04	-975.000
180.42	1850.000
180.80	760.000
181.18	-850.000
181.56	528.571
181.94	0.000
182.31	-442.857
182.69	1233.333
183.07	-437.500
183.45	-388.889
183.83	418.182
184.20	-340.000
184.58	1900.000
184.96	3400.000
185.34	-640.000
185.72	-337.500
186.09	-1400.000
186.47	1450.000
186.85	1900.000
187.23	3700.000
187.61	-966.667
187.98	975.000
188.36	490.909
188.74	454.545
189.12	-520.000
189.49	420.000
189.87	-3400.000
190.25	-975.000
190.63	307.143
191.00	330.769
191.38	633.333
191.76	-800.000
192.14	1175.000
192.51	412.500
192.89	750.000
193.27	412.500
193.65	-925.000
194.02	480.000
194.40	580.000
194.78	410.000
195.15	383.333
195.53	470.000
195.91	-1300.000
196.29	300.000
196.66	226.316
197.04	-150.000
197.42	0.000
197.79	390.000
198.17	-3900.000
198.55	400.000
198.92	587.500
199.30	420.000
199.68	0.000
200.05	238.889
200.43	557.143
200.81	2100.000
201.18	1166.667
201.56	-1066.667
201.94	388.889
202.31	466.667
202.69	316.667
203.07	490.000
203.44	0.000
203.82	675.000
204.19	557.143
204.57	371.429
204.95	375.000
205.32	1300.000
205.70	309.091
206.08	342.857
206.45	2000.000
206.83	250.000
207.20	766.667
207.58	460.000
207.96	255.556
208.33	487.500
208.71	-583.333
209.08	628.571
209.46	500.000
209.84	290.909
210.21	-1000.000
210.59	1050.000
210.96	-337.500
211.34	2000.000
211.71	430.000
212.09	550.000
212.46	0.000
212.84	1166.667
213.22	950.000
213.59	-3500.000
213.97	583.333
214.34	585.714
214.72	445.455
215.09	660.000
215.47	-1450.000
215.84	-1550.000
216.22	1266.667
216.59	335.714
216.97	925.000
217.34	327.273
217.72	-533.333
218.09	0.000
218.47	-2800.000
218.84	544.444
219.22	600.000
219.59	1400.000
219.97	-542.857
220.34	700.000
220.72	-900.000
221.09	271.429
221.47	1200.000
221.84	-683.333
222.22	0.000
222.59	900.000
222.97	-1550.000
223.34	700.000
223.72	338.462
224.09	820.000
224.46	2000.000
224.84	-3500.000
225.21	-560.000
225.59	-3700.000
225.96	400.000
226.34	230.000
226.71	2250.000
227.08	400.000
227.46	380.000
227.83	-725.000
228.21	-1750.000
228.58	477.778
228.95	-1800.000
229.33	-1850.000
229.70	1300.000
230.08	542.857
230.45	-520.000
230.82	341.667
231.20	550.000
231.57	500.000
231.95	300.000
232.32	209.091
232.69	272.727
233.07	471.429
233.44	261.538
233.81	-1200.000
234.19	205.263
234.56	358.333
234.93	250.000
235.31	372.727
235.68	161.538
236.05	264.286
236.43	130.303
236.80	147.368
237.17	3100.000
237.55	152.381
237.92	146.429
238.29	147.619
238.67	109.677
239.04	127.586
239.41	83.333
239.79	63.043
240.16	88.095
240.53	100.000
240.91	58.824
241.28	60.000
241.65	66.000
242.02	57.971
242.40	53.226
242.77	46.667
243.14	37.634
243.51	47.191
243.89	43.529
244.26	36.667
244.63	32.258
245.00	27.660
245.38	34.653
245.75	32.710
246.12	27.523
246.49	32.847
246.87	40.800
247.24	26.923
247.61	24.286
247.98	30.065
248.36	18.243
248.73	19.745
249.10	26.752
249.47	22.034
249.84	24.599
250.22	21.390
250.59	12.426
250.96	19.192
251.33	23.697
251.70	20.792
252.08	15.238
252.45	14.798
252.82	13.043
253.19	20.851
253.56	13.725
253.94	16.183
254.31	14.844
254.68	13.846
255.05	18.819
255.42	10.976
255.79	13.971
256.16	17.329
256.54	9.894
256.91	13.167
257.28	6.835
257.65	9.901
258.02	11.801
258.39	12.303
258.76	11.371
259.14	15.179
259.51	11.854
259.88	12.733
260.25	13.595
260.62	9.538
260.99	10.248
261.36	16.216
261.73	7.736
262.10	9.302
262.47	11.268
262.85	12.535
263.22	7.692
263.59	13.105
263.96	10.165
264.33	10.444
264.70	11.316
265.07	9.463
265.44	8.838
265.81	10.706
266.18	8.040
266.55	5.610
266.92	8.845
267.29	10.648
267.66	8.257
268.03	8.864
268.40	10.514
268.77	7.160
269.14	9.685
269.51	10.384
269.88	10.723
270.25	9.707
270.62	8.989
270.99	10.323
271.36	8.155
271.73	9.579
272.10	7.609
272.47	8.817
272.84	8.009
273.21	11.740
273.58	6.769
273.95	6.499
274.32	6.612
274.69	9.422
275.06	6.102
275.43	9.362
275.80	8.617
276.17	7.332
276.54	8.108
276.91	7.312
277.28	8.789
277.65	7.737
278.02	7.246
278.39	9.180
278.76	7.455
279.13	7.925
279.50	8.566
279.87	7.769
280.23	6.786
280.60	7.930
280.97	5.915
281.34	7.965
281.71	7.091
282.08	7.486
282.45	6.364
282.82	7.105
283.19	4.635
283.56	8.070
283.92	6.768
284.29	7.584
284.66	6.534
285.03	5.244
285.40	5.458
285.77	6.397
286.14	7.081
286.51	8.500
286.87	6.838
287.24	7.329
287.61	6.581
287.98	8.766
288.35	5.705
288.72	8.255
289.08	7.981
289.45	4.613
289.82	6.504
290.19	6.436
290.56	5.972
290.93	5.740
291.29	4.294
291.66	7.080
292.03	9.302
292.40	7.048
292.77	6.805
293.13	5.970
293.50	6.414
293.87	6.222
294.24	6.222
294.60	4.949
294.97	6.977
295.34	6.065
295.71	7.812
296.08	4.131
296.44	6.465
296.81	5.284
297.18	6.233
297.55	2.902
297.91	4.354
298.28	4.953
298.65	6.789
299.02	6.851
299.38	6.375
299.75	4.313
300.12	4.087
300.48	5.125
300.85	4.809
301.22	5.478
301.59	5.808
301.95	5.668
302.32	5.263
302.69	6.093
303.05	4.970
303.42	5.556
303.79	4.983
304.15	5.711
304.52	4.519
304.89	4.530
305.25	5.684
305.62	6.229
305.99	5.431
306.35	5.817
306.72	5.493
307.09	4.550
307.45	6.869
307.82	4.688
308.19	5.519
308.55	5.502
308.92	4.834
309.29	5.069
309.65	4.666
310.02	5.074
310.38	5.054
310.75	5.069
311.12	5.527
311.48	6.270
311.85	5.975
312.22	5.515
312.58	5.613
312.95	5.808
313.31	4.272
313.68	5.301
314.05	6.607
314.41	5.729
314.78	5.337
315.14	5.462
315.51	5.561
315.87	5.743
316.24	5.462
316.61	3.899
316.97	4.305
317.34	4.892
317.70	4.971
318.07	5.582
318.43	4.697
318.80	6.373
319.16	4.708
319.53	3.752
319.89	5.905
320.26	5.000
320.62	5.357
320.99	5.051
321.35	4.949
321.72	5.544
322.08	5.528
322.45	5.473
322.81	5.911
323.18	5.588
323.54	6.308
323.91	5.189
324.27	5.067
324.64	5.219
325.00	4.148
325.37	5.187
325.73	5.206
326.10	5.031
326.46	4.032
326.83	5.522
327.19	4.184
327.56	4.530
327.92	4.462
328.29	5.413
328.65	4.972
329.01	5.325
329.38	4.903
329.74	4.340
330.11	4.618
330.47	5.601
330.84	6.342
331.20	4.463
331.56	5.780
331.93	4.444
332.29	4.170
332.66	6.018
333.02	4.753
333.38	5.059
333.75	6.952
334.11	5.427
334.48	4.969
334.84	5.055
335.20	5.364
335.57	5.530
335.93	4.375
336.29	4.853
336.66	5.500
337.02	3.891
337.38	4.630
337.75	4.367
338.11	4.029
338.47	4.144
338.84	5.133
339.20	4.495
339.56	6.478
339.93	4.455
340.29	4.348
340.65	4.991
341.02	4.974
341.38	5.338
341.74	4.825
342.11	4.803
342.47	4.670
342.83	5.137
343.20	5.541
343.56	4.465
343.92	3.596
344.28	5.357
344.65	4.643
345.01	4.798
345.37	4.631
345.73	4.992
346.10	4.689
346.46	4.746
346.82	5.354
347.19	4.177
347.55	5.008
347.91	5.340
348.27	4.684
348.63	5.017
349.00	4.693
349.36	3.941
349.72	4.972
350.08	4.862
350.45	4.882
350.81	4.305
351.17	4.943
351.53	4.832
351.89	4.373
352.26	5.762
352.62	4.731
352.98	4.700
353.34	3.944
353.70	3.355
354.07	5.161
354.43	4.841
354.79	4.103
355.15	4.629
355.51	4.876
355.87	4.082
356.24	5.212
356.60	4.250
356.96	4.103
357.32	3.925
357.68	5.039
358.04	5.384
358.40	5.780
358.77	4.617
359.13	3.867
359.49	3.843
359.85	2.778
360.21	3.429
360.57	4.280
360.93	4.462
361.29	4.233
361.66	4.412
362.02	4.328
362.38	4.791
362.74	4.241
363.10	3.257
363.46	3.668
363.82	3.628
364.18	4.038
364.54	5.275
364.90	4.816
365.26	4.485
365.62	4.237
365.98	3.944
366.35	3.152
366.71	4.121
367.07	3.714
367.43	4.282
367.79	3.926
368.15	4.741
368.51	3.779
368.87	4.211
369.23	3.731
369.59	4.345
369.95	3.897
370.31	4.772
370.67	4.855
371.03	4.419
371.39	4.009
371.75	4.853
372.11	4.552
372.47	3.959
372.83	4.899
373.19	4.480
373.55	4.287
373.91	5.081
374.27	4.674
374.63	4.000
374.99	4.944
375.35	3.419
375.71	4.181
376.07	4.801
376.42	3.989
376.78	4.639
377.14	4.274
377.50	4.172
377.86	3.324
378.22	4.678
378.58	3.195
378.94	3.834
379.30	3.690
379.66	4.759
380.02	4.791
380.38	4.554
380.74	4.442
381.09	3.851
381.45	4.856
381.81	5.037
382.17	4.777
382.53	3.899
382.89	4.630
383.25	4.128
383.61	4.461
383.97	4.315
384.32	4.928
384.68	4.461
385.04	4.671
385.40	4.025
385.76	5.344
386.12	4.404
386.48	4.783
386.83	5.003
387.19	4.824
387.55	4.515
387.91	3.869
388.27	3.740
388.62	5.409
388.98	3.931
389.34	5.006
389.70	4.844
390.06	5.006
390.42	4.540
390.77	5.280
391.13	5.233
391.49	5.711
391.85	4.392
392.20	4.416
392.56	4.419
392.92	4.885
393.28	3.787
393.64	5.036
393.99	5.376
394.35	4.839
394.71	5.082
395.07	4.237
395.42	4.883
395.78	5.153
396.14	5.276
396.50	5.263
396.85	4.069
397.21	5.117
397.57	4.712
397.92	4.808
398.28	4.204
398.64	5.735
399.00	4.924
399.35	4.343
399.71	4.630
400.07	4.908
400.42	5.092
400.78	4.946
401.14	4.695
401.49	5.552
401.85	4.537
402.21	4.132
402.57	4.627
402.92	5.233
403.28	5.247
403.63	4.579
403.99	4.650
404.35	4.909
404.70	5.156
405.06	4.776
405.42	4.180
405.77	4.743
406.13	4.966
406.49	4.731
406.84	5.316
407.20	5.024
407.55	4.914
407.91	4.600
408.27	4.531
408.62	5.298
408.98	4.473
409.34	4.736
409.69	4.903
410.05	4.399
410.40	4.832
410.76	4.779
411.11	5.308
411.47	4.665
411.83	4.887
412.18	5.318
412.54	4.545
412.89	5.181
413.25	4.900
413.60	4.756
413.96	4.675
414.31	4.496
414.67	5.640
415.03	5.099
415.38	5.477
415.74	5.338
416.09	5.160
416.45	4.418
416.80	4.494
417.16	5.362
417.51	4.645
417.87	4.624
418.22	4.984
418.58	5.229
418.93	5.098
419.29	4.647
419.64	5.919
420.00	4.756
420.35	5.333
420.71	5.081
421.06	4.773
421.42	4.737
421.77	5.101
422.12	4.043
422.48	4.425
422.83	4.892
423.19	4.641
423.54	5.049
423.90	5.275
424.25	5.193
424.61	4.524
424.96	4.840
425.31	5.371
425.67	4.213
426.02	5.086
426.38	5.556
426.73	4.389
427.09	4.498
427.44	4.083
427.79	4.773
428.15	4.940
428.50	4.740
428.85	5.662
429.21	4.694
429.56	4.044
429.92	4.479
430.27	4.369
430.62	4.506
430.98	5.086
431.33	5.000
431.68	4.974
432.04	4.633
432.39	4.683
432.74	5.087
433.10	4.244
433.45	4.431
433.80	4.490
434.16	4.861
434.51	4.158
434.86	5.017
435.22	4.669
435.57	4.316
435.92	4.330
436.28	4.745
436.63	5.574
436.98	3.950
437.34	4.711
437.69	4.259
438.04	3.879
438.39	5.015
438.75	4.765
439.10	4.749
439.45	5.136
439.81	4.653
440.16	4.178
440.51	4.862
440.86	4.517
441.22	4.171
441.57	5.096
441.92	4.452
442.27	4.360
442.63	4.476
442.98	5.408
443.33	5.054
443.68	4.130
444.03	4.588
444.39	3.895
444.74	4.113
445.09	4.528
445.44	4.975
445.79	5.096
446.15	5.347
446.50	4.200
446.85	4.162
447.20	4.335
447.55	4.467
447.91	4.302
448.26	4.229
448.61	4.635
448.96	5.426
449.31	5.006
449.66	5.177
450.02	4.290
450.37	4.365
450.72	4.287
451.07	3.900
451.42	3.587
451.77	4.991
452.12	5.254
452.47	5.348
452.83	4.487
453.18	4.890
453.53	5.195
453.88	4.548
454.23	4.543
454.58	5.027
454.93	5.531
455.28	4.426
455.63	5.218
455.98	5.119
456.34	4.962
456.69	4.383
457.04	5.139
457.39	4.559
457.74	4.353
458.09	4.543
458.44	4.447
458.79	4.338
459.14	5.135
459.49	4.203
459.84	4.321
460.19	3.948
460.54	4.167
460.89	4.224
461.24	4.554
461.59	6.043
461.94	3.822
462.29	5.282
462.64	4.531
462.99	4.489
463.34	5.400
463.69	5.378
464.04	5.507
464.39	5.217
464.74	5.169
465.09	4.644
465.44	4.488
465.79	4.251
466.14	4.598
466.49	4.283
466.84	4.729
467.19	5.130
467.54	4.688
467.89	4.262
468.24	5.177
468.59	5.189
468.94	4.215
469.29	4.756
469.64	6.024
469.99	4.871
470.34	4.690
470.68	5.101
471.03	4.626
471.38	4.726
471.73	6.129
472.08	5.592
472.43	4.585
472.78	4.872
473.13	5.006
473.48	5.056
473.83	5.122
474.17	4.729
474.52	4.901
474.87	5.546
475.22	5.456
475.57	4.675
475.92	4.461
476.27	4.904
476.61	5.185
476.96	4.453
477.31	4.239
477.66	4.595
478.01	4.391
478.36	4.654
478.70	3.894
479.05	4.100
479.40	4.657
479.75	4.931
480.10	3.877
480.45	4.236
480.79	4.491
481.14	4.452
481.49	5.126
481.84	4.115
482.19	4.225
482.53	4.358
482.88	4.607
483.23	4.486
483.58	4.777
483.92	4.311
484.27	3.617
484.62	4.440
484.97	3.902
485.31	4.144
485.66	3.392
486.01	3.058
486.36	2.836
486.70	3.056
487.05	3.135
487.40	3.652
487.75	3.478
488.09	3.943
488.44	3.869
488.79	3.653
489.13	4.163
489.48	3.793
489.83	3.755
490.17	4.559
490.52	4.119
490.87	3.754
491.22	3.865
491.56	3.781
491.91	4.048
492.26	4.134
492.60	4.101
492.95	3.882
493.30	4.439
493.64	4.200
493.99	4.457
494.34	4.625
494.68	4.121
495.03	4.605
495.37	4.328
495.72	4.581
496.07	4.548
496.41	3.805
496.76	3.826
497.11	4.367
497.45	3.819
497.80	4.415
498.14	4.251
498.49	4.195
498.84	4.602
499.18	3.905
499.53	4.131
499.87	4.147
500.22	4.239
500.56	4.757
500.91	3.942
501.26	4.078
501.60	4.556
501.95	4.262
502.29	4.733
502.64	4.749
502.98	4.067
503.33	4.113
503.67	4.455
504.02	4.490
504.36	4.071
504.71	4.299
505.06	5.060
505.40	4.278
505.75	3.954
506.09	4.373
506.44	4.489
506.78	4.238
507.13	4.392
507.47	5.152
507.82	5.218
508.16	4.863
508.51	4.414
508.85	4.816
509.19	4.184
509.54	4.745
509.88	3.606
510.23	4.422
510.57	5.212
510.92	4.350
511.26	4.419
511.61	5.031
511.95	4.123
512.30	4.613
512.64	4.729
512.98	4.716
513.33	5.460
513.67	4.963
514.02	4.924
514.36	5.188
514.70	4.483
515.05	4.685
515.39	4.992
515.74	4.561
516.08	4.639
516.42	5.605
516.77	5.574
517.11	5.161
517.46	4.571
517.80	5.285
518.14	4.517
518.49	5.426
518.83	5.341
519.17	4.446
519.52	4.697
519.86	5.134
520.20	5.549
520.55	5.865
520.89	5.292
521.23	5.549
521.58	5.642
521.92	5.573
522.26	5.064
522.61	4.486
522.95	5.157
523.29	5.052
523.64	5.915
523.98	5.052
524.32	5.790
524.66	6.073
525.01	5.331
525.35	5.081
525.69	5.234
526.04	5.794
526.38	5.430
526.72	5.583
527.06	5.650
527.41	4.208
527.75	5.916
528.09	5.459
528.43	5.545
528.78	6.269
529.12	5.576
529.46	5.328
529.80	6.064
530.15	6.231
530.49	5.600
530.83	6.266
531.17	5.614
531.51	6.161
531.86	5.548
532.20	5.541
532.54	6.086
532.88	5.777
533.22	5.372
533.57	5.556
533.91	5.238
534.25	5.589
534.59	5.552
534.93	5.413
535.27	5.250
535.62	5.800
535.96	5.775
536.30	5.149
536.64	5.924
536.98	5.972
537.32	5.267
537.66	4.933
538.01	6.188
538.35	5.753
538.69	6.573
539.03	5.393
539.37	5.304
539.71	4.472
540.05	5.229
540.39	4.983
540.73	5.304
541.07	6.554
541.42	5.479
541.76	6.258
542.10	5.821
542.44	5.430
542.78	6.258
543.12	5.438
543.46	6.098
543.80	5.205
544.14	4.942
544.48	5.587
544.82	5.645
545.16	5.400
545.50	5.463
545.84	4.772
546.18	6.195
546.52	5.506
546.86	5.430
547.20	5.327
547.54	5.411
547.88	5.931
548.22	5.293
548.56	6.164
548.90	4.738
549.24	4.848
549.58	5.662
549.92	5.769
550.26	5.185
550.60	5.947
550.94	6.056
551.28	5.706
551.62	5.320
551.96	4.772
552.30	6.894
552.64	5.950
552.98	5.763
553.32	5.529
553.66	5.999
554.00	5.971
554.34	5.452
554.68	5.866
555.02	5.994
555.36	5.289
555.69	5.142
556.03	6.057
556.37	5.593
556.71	4.502
557.05	5.392
557.39	5.808
557.73	5.857
558.07	5.221
558.41	5.861
558.75	5.878
559.08	5.742
559.42	5.140
559.76	5.956
560.10	5.425
560.44	5.660
560.78	4.458
561.12	5.013
561.45	6.193
561.79	4.614
562.13	4.561
562.47	5.396
562.81	4.881
563.15	5.418
563.48	5.703
563.82	5.153
564.16	5.298
564.50	5.990
564.84	6.005
565.17	5.019
565.51	4.920
565.85	5.203
566.19	4.884
566.52	5.003
566.86	4.702
567.20	5.248
567.54	4.795
567.88	4.943
568.21	5.026
568.55	4.601
568.89	4.572
569.23	4.189
569.56	4.130
569.90	3.962
570.24	4.198
570.57	4.148
570.91	3.878
571.25	3.891
571.59	4.212
571.92	3.975
572.26	3.784
572.60	4.144
572.93	3.718
573.27	4.022
573.61	4.243
573.95	3.798
574.28	3.618
574.62	3.547
574.96	3.728
575.29	3.443
575.63	3.633
575.97	3.385
576.30	4.089
576.64	3.311
576.98	3.452
577.31	3.558
577.65	3.453
577.98	3.418
578.32	3.495
578.66	3.564
578.99	3.447
579.33	3.220
579.67	3.284
580.00	3.620
580.34	3.465
580.67	3.545
581.01	3.868
581.35	3.211
581.68	3.478
582.02	3.131
582.35	3.436
582.69	3.373
583.02	3.536
583.36	3.689
583.70	3.671
584.03	3.892
584.37	3.900
584.70	3.344
585.04	3.816
585.37	3.611
585.71	3.900
586.04	3.866
586.38	3.605
586.72	3.452
587.05	3.695
587.39	3.377
587.72	3.607
588.06	3.575
588.39	3.786
588.73	3.667
589.06	3.958
589.40	3.805
589.73	3.977
590.07	3.950
590.40	3.946
590.73	4.137
591.07	5.169
591.40	4.344
591.74	5.065
592.07	4.581
592.41	3.927
592.74	4.494
593.08	4.064
593.41	4.113
593.75	3.716
594.08	4.056
594.41	4.065
594.75	4.214
595.08	4.295
595.42	4.343
595.75	3.953
596.09	4.356
596.42	4.676
596.75	4.221
597.09	5.152
597.42	4.174
597.75	4.269
598.09	4.696
598.42	4.167
598.76	3.810
599.09	4.067
599.42	4.330
599.76	4.209
600.09	3.862
600.42	3.944
600.76	4.179
601.09	3.971
601.42	4.224
601.76	3.985
602.09	3.715
602.42	4.459
602.76	4.676
603.09	3.698
603.42	4.412
603.76	4.268
604.09	3.955
604.42	4.321
604.76	4.892
605.09	4.412
605.42	4.062
605.75	4.470
606.09	4.433
606.42	4.168
606.75	4.189
607.09	4.730
607.42	3.851
607.75	4.008
608.08	4.386
608.42	4.751
608.75	5.320
609.08	4.533
609.41	4.236
609.75	4.526
610.08	5.042
610.41	4.097
610.74	4.541
611.07	4.200
611.41	4.711
611.74	4.676
612.07	4.555
612.40	4.827
612.73	4.632
613.07	4.849
613.40	4.792
613.73	3.618
614.06	4.409
614.39	4.824
614.72	4.947
615.06	5.147
615.39	4.459
615.72	4.601
616.05	4.413
616.38	4.503
616.71	4.929
617.05	6.125
617.38	4.269
617.71	4.144
618.04	4.808
618.37	5.263
618.70	5.725
619.03	6.118
619.36	6.042
619.69	4.859
620.03	5.288
620.36	5.548
620.69	5.342
621.02	5.826
621.35	4.699
621.68	4.984
622.01	6.269
622.34	6.430
622.67	5.475
623.00	5.503
623.33	5.147
623.66	5.718
623.99	5.596
624.32	5.777
624.65	5.297
624.99	5.170
625.32	4.417
625.65	4.508
625.98	5.457
626.31	6.143
626.64	6.449
626.97	6.068
627.30	5.320
627.63	6.399
627.96	5.635
628.29	5.949
628.62	6.587
628.95	7.830
629.28	7.391
629.61	6.783
629.94	6.286
630.26	5.910
630.59	7.150
630.92	6.513
631.25	5.923
631.58	7.107
631.91	6.897
632.24	5.802
632.57	6.925
632.90	5.702
633.23	5.369
633.56	7.345
633.89	6.455
634.22	6.924
634.55	6.627
634.88	5.868
635.20	7.168
635.53	7.229
635.86	7.302
636.19	6.706
636.52	7.612
636.85	6.644
637.18	5.876
637.51	7.565
637.83	5.919
638.16	5.115
638.49	6.927
638.82	7.712
639.15	7.375
639.48	7.731
639.81	7.239
640.13	6.901
640.46	8.188
640.79	8.454
641.12	7.565
641.45	6.844
641.77	7.511
642.10	8.187
642.43	6.907
642.76	6.966
643.09	9.509
643.41	8.042
643.74	9.414
644.07	7.012
644.40	11.810
644.73	10.551
645.05	10.301
645.38	7.583
645.71	8.696
646.04	7.807
646.36	10.351
646.69	8.696
647.02	7.483
647.35	9.107
647.67	8.319
648.00	10.081
648.33	7.096
648.66	7.273
648.98	8.996
649.31	7.474
649.64	6.726
649.96	8.048
650.29	7.425
650.62	7.443
650.94	10.049
651.27	9.628
651.60	8.319
651.92	10.224
652.25	6.678
652.58	9.034
652.90	7.741
653.23	6.780
653.56	8.346
653.88	8.399
654.21	10.900
654.54	6.601
654.86	8.255
655.19	6.757
655.52	3.945
655.84	2.592
