SpectraSuite Data File
++++++++++++++++++++++++++++++++++++
Date: Wed May 13 16:38:17 PDT 2015
User: schluterlab
Dark Spectrum Present: Yes
Reference Spectrum Present: Yes
Number of Sampled Component Spectra: 1
Spectrometers: USB2E3373
Integration Time (usec): 3000 (USB2E3373)
Spectra Averaged: 3 (USB2E3373)
Boxcar Smoothing: 0 (USB2E3373)
Correct for Electrical Dark: No (USB2E3373)
Strobe/Lamp Enabled: No (USB2E3373)
Correct for Detector Non-linearity: No (USB2E3373)
Correct for Stray Light: No (USB2E3373)
Number of Pixels in Processed Spectrum: 2048
>>>>>Begin Processed Spectral Data<<<<<
178.53	0.000
178.91	-1425.000
179.29	-1425.000
179.67	-222.222
180.04	-1200.000
180.42	2400.000
180.80	940.000
181.18	-975.000
181.56	685.714
181.94	0.000
182.31	-671.429
182.69	1833.333
183.07	-537.500
183.45	-544.444
183.83	545.455
184.20	-430.000
184.58	2200.000
184.96	5600.000
185.34	-900.000
185.72	-512.500
186.09	-2250.000
186.47	2550.000
186.85	2400.000
187.23	6200.000
187.61	-1433.333
187.98	1225.000
188.36	527.273
188.74	481.818
189.12	-1140.000
189.49	710.000
189.87	-4800.000
190.25	-1150.000
190.63	435.714
191.00	415.385
191.38	866.667
191.76	-1250.000
192.14	1225.000
192.51	625.000
192.89	1033.333
193.27	662.500
193.65	-1250.000
194.02	510.000
194.40	1060.000
194.78	660.000
195.15	533.333
195.53	600.000
195.91	-2400.000
196.29	375.000
196.66	278.947
197.04	-430.000
197.42	0.000
197.79	530.000
198.17	-5500.000
198.55	800.000
198.92	737.500
199.30	1020.000
199.68	0.000
200.05	322.222
200.43	771.429
200.81	5100.000
201.18	1866.667
201.56	-1600.000
201.94	566.667
202.31	533.333
202.69	400.000
203.07	540.000
203.44	0.000
203.82	1375.000
204.19	642.857
204.57	450.000
204.95	625.000
205.32	1766.667
205.70	536.364
206.08	421.429
206.45	2550.000
206.83	400.000
207.20	933.333
207.58	720.000
207.96	316.667
208.33	675.000
208.71	-783.333
209.08	871.429
209.46	600.000
209.84	490.909
210.21	-1533.333
210.59	1275.000
210.96	-537.500
211.34	2400.000
211.71	570.000
212.09	900.000
212.46	0.000
212.84	1766.667
213.22	1300.000
213.59	-4800.000
213.97	816.667
214.34	871.429
214.72	627.273
215.09	1000.000
215.47	-2700.000
215.84	-2350.000
216.22	1600.000
216.59	450.000
216.97	1500.000
217.34	454.545
217.72	-683.333
218.09	0.000
218.47	-4400.000
218.84	666.667
219.22	614.286
219.59	1733.333
219.97	-571.429
220.34	1000.000
220.72	-1500.000
221.09	457.143
221.47	1450.000
221.84	-933.333
222.22	0.000
222.59	1550.000
222.97	-2750.000
223.34	1200.000
223.72	392.308
224.09	1020.000
224.46	2600.000
224.84	-4600.000
225.21	-1240.000
225.59	-4800.000
225.96	700.000
226.34	315.000
226.71	2850.000
227.08	650.000
227.46	500.000
227.83	-1275.000
228.21	-2650.000
228.58	566.667
228.95	-2450.000
229.33	-2250.000
229.70	1800.000
230.08	685.714
230.45	-800.000
230.82	433.333
231.20	850.000
231.57	614.286
231.95	425.000
232.32	268.182
232.69	454.545
233.07	642.857
233.44	353.846
233.81	-1733.333
234.19	263.158
234.56	425.000
234.93	350.000
235.31	445.455
235.68	346.154
236.05	357.143
236.43	151.515
236.80	221.053
237.17	4500.000
237.55	185.714
237.92	196.429
238.29	238.095
238.67	177.419
239.04	179.310
239.41	150.000
239.79	108.696
240.16	147.619
240.53	111.364
240.91	72.549
241.28	92.000
241.65	102.000
242.02	84.058
242.40	67.742
242.77	86.667
243.14	63.441
243.51	66.292
243.89	56.471
244.26	56.667
244.63	60.215
245.00	47.872
245.38	48.515
245.75	41.121
246.12	42.202
246.49	44.526
246.87	48.800
247.24	50.000
247.61	33.571
247.98	27.451
248.36	25.676
248.73	29.299
249.10	37.580
249.47	31.073
249.84	29.412
250.22	28.877
250.59	24.260
250.96	29.293
251.33	25.118
251.70	31.188
252.08	28.571
252.45	26.009
252.82	20.435
253.19	25.106
253.56	25.490
253.94	24.896
254.31	24.219
254.68	25.385
255.05	22.509
255.42	19.106
255.79	20.956
256.16	18.051
256.54	17.668
256.91	21.708
257.28	19.065
257.65	17.162
258.02	18.634
258.39	19.243
258.76	16.722
259.14	14.881
259.51	17.021
259.88	14.596
260.25	19.637
260.62	13.873
260.99	13.975
261.36	16.817
261.73	14.040
262.10	12.791
262.47	15.211
262.85	15.599
263.22	9.972
263.59	17.094
263.96	11.813
264.33	15.666
264.70	12.632
265.07	12.788
265.44	12.626
265.81	15.328
266.18	12.060
266.55	12.195
266.92	12.285
267.29	13.657
267.66	13.991
268.03	14.318
268.40	13.318
268.77	10.024
269.14	11.937
269.51	12.415
269.88	14.219
270.25	12.867
270.62	11.236
270.99	13.763
271.36	15.021
271.73	10.981
272.10	10.870
272.47	12.903
272.84	11.905
273.21	14.256
273.58	10.262
273.95	10.273
274.32	9.504
274.69	10.707
275.06	10.236
275.43	10.213
275.80	10.020
276.17	12.016
276.54	12.474
276.91	11.462
277.28	12.109
277.65	10.445
278.02	7.867
278.39	12.109
278.76	10.000
279.13	11.509
279.50	9.683
279.87	10.359
280.23	7.585
280.60	8.897
280.97	8.318
281.34	10.796
281.71	10.545
282.08	12.092
282.45	10.909
282.82	10.302
283.19	8.734
283.56	8.947
283.92	10.998
284.29	8.818
284.66	7.441
285.03	9.042
285.40	9.155
285.77	9.091
286.14	8.636
286.51	10.333
286.87	11.282
287.24	10.423
287.61	9.470
287.98	9.091
288.35	8.875
288.72	8.723
289.08	11.111
289.45	9.885
289.82	8.293
290.19	7.535
290.56	8.576
290.93	8.761
291.29	7.975
291.66	8.260
292.03	9.593
292.40	10.132
292.77	8.728
293.13	8.358
293.50	8.309
293.87	8.741
294.24	8.296
294.60	6.987
294.97	8.430
295.34	9.450
295.71	8.807
296.08	8.689
296.44	8.116
296.81	7.926
297.18	9.621
297.55	6.069
297.91	7.520
298.28	7.764
298.65	8.486
299.02	8.300
299.38	7.039
299.75	4.582
300.12	6.769
300.48	7.000
300.85	6.535
301.22	6.242
301.59	7.197
301.95	7.557
302.32	7.831
302.69	8.005
303.05	7.879
303.42	6.420
303.79	6.569
304.15	5.594
304.52	6.373
304.89	6.039
305.25	6.729
305.62	7.475
305.99	6.966
306.35	6.823
306.72	8.072
307.09	7.769
307.45	8.333
307.82	5.580
308.19	7.064
308.55	7.012
308.92	7.734
309.29	7.286
309.65	6.787
310.02	8.245
310.38	7.634
310.75	7.497
311.12	7.472
311.48	6.479
311.85	7.023
312.22	8.012
312.58	7.069
312.95	7.075
313.31	7.573
313.68	7.484
314.05	9.467
314.41	8.844
314.78	8.359
315.14	8.242
315.51	8.136
315.87	9.901
316.24	8.640
316.61	9.747
316.97	8.904
317.34	8.904
317.70	10.899
318.07	9.913
318.43	10.470
318.80	11.434
319.16	10.075
319.53	11.163
319.89	11.714
320.26	13.300
320.62	12.004
320.99	11.717
321.35	13.131
321.72	13.450
322.08	13.820
322.45	14.129
322.81	14.341
323.18	14.644
323.54	15.399
323.91	13.679
324.27	15.392
324.64	14.725
325.00	15.600
325.37	17.834
325.73	17.325
326.10	17.123
326.46	16.667
326.83	17.860
327.19	17.848
327.56	18.728
327.92	18.635
328.29	19.255
328.65	20.350
329.01	20.578
329.38	20.167
329.74	18.560
330.11	20.829
330.47	21.120
330.84	22.243
331.20	20.856
331.56	22.294
331.93	20.648
332.29	21.029
332.66	21.593
333.02	21.024
333.38	21.229
333.75	20.945
334.11	22.242
334.48	20.497
334.84	22.426
335.20	22.273
335.57	22.393
335.93	21.429
336.29	22.253
336.66	23.084
337.02	21.086
337.38	21.852
337.75	22.193
338.11	21.486
338.47	21.731
338.84	23.098
339.20	21.193
339.56	23.084
339.93	22.273
340.29	22.826
340.65	22.282
341.02	22.600
341.38	22.776
341.74	22.632
342.11	22.882
342.47	24.141
342.83	22.688
343.20	22.944
343.56	21.651
343.92	22.018
344.28	23.129
344.65	23.130
345.01	22.727
345.37	21.527
345.73	23.266
346.10	23.274
346.46	21.780
346.82	23.476
347.19	21.888
347.55	22.824
347.91	23.706
348.27	23.254
348.63	23.495
349.00	23.058
349.36	22.250
349.72	22.614
350.08	23.096
350.45	23.352
350.81	22.908
351.17	23.177
351.53	22.850
351.89	22.030
352.26	23.520
352.62	23.256
352.98	23.339
353.34	24.569
353.70	22.831
354.07	23.306
354.43	23.175
354.79	23.974
355.15	22.426
355.51	24.620
355.87	24.898
356.24	24.267
356.60	23.176
356.96	24.537
357.32	23.712
357.68	25.118
358.04	24.307
358.40	24.782
358.77	24.648
359.13	23.204
359.49	24.549
359.85	23.333
360.21	23.285
360.57	25.214
360.93	24.462
361.29	25.094
361.66	24.923
362.02	24.552
362.38	24.411
362.74	24.777
363.10	23.908
363.46	25.312
363.82	24.717
364.18	24.816
364.54	26.152
364.90	25.425
365.26	25.882
365.62	25.566
365.98	25.566
366.35	26.003
366.71	26.537
367.07	26.074
367.43	25.835
367.79	26.410
368.15	27.011
368.51	25.509
368.87	27.695
369.23	27.140
369.59	26.430
369.95	26.176
370.31	25.285
370.67	26.667
371.03	28.539
371.39	27.697
371.75	28.235
372.11	27.027
372.47	28.519
372.83	29.035
373.19	28.035
373.55	28.307
373.91	28.940
374.27	28.866
374.63	29.600
374.99	29.944
375.35	27.495
375.71	29.267
376.07	30.247
376.42	30.055
376.78	30.683
377.14	30.258
377.50	30.795
377.86	29.122
378.22	29.836
378.58	28.947
378.94	30.170
379.30	30.407
379.66	31.409
380.02	30.344
380.38	31.148
380.74	30.552
381.09	30.501
381.45	31.469
381.81	31.265
382.17	32.420
382.53	31.447
382.89	32.284
383.25	32.270
383.61	33.086
383.97	31.832
384.32	32.002
384.68	32.652
385.04	33.313
385.40	32.632
385.76	33.108
386.12	33.161
386.48	33.480
386.83	34.253
387.19	34.014
387.55	34.075
387.91	34.160
388.27	33.415
388.62	33.682
388.98	32.985
389.34	35.106
389.70	34.090
390.06	35.678
390.42	35.538
390.77	35.305
391.13	35.482
391.49	35.660
391.85	34.755
392.20	34.574
392.56	35.227
392.92	35.433
393.28	34.734
393.64	35.911
393.99	35.553
394.35	35.236
394.71	36.010
395.07	34.891
395.42	36.156
395.78	35.242
396.14	36.623
396.50	36.341
396.85	36.682
397.21	35.697
397.57	36.082
397.92	36.538
398.28	36.379
398.64	36.022
399.00	36.374
399.35	35.928
399.71	36.169
400.07	37.374
400.42	36.871
400.78	37.937
401.14	37.195
401.49	37.493
401.85	36.419
402.21	36.347
402.57	36.891
402.92	37.201
403.28	37.352
403.63	37.871
403.99	38.344
404.35	37.758
404.70	38.189
405.06	36.925
405.42	38.054
405.77	36.571
406.13	37.190
406.49	37.315
406.84	37.685
407.20	36.820
407.55	37.715
407.91	38.200
408.27	38.992
408.62	38.471
408.98	36.949
409.34	37.515
409.69	38.710
410.05	38.166
410.40	38.226
410.76	38.949
411.11	38.540
411.47	38.658
411.83	38.607
412.18	38.219
412.54	39.103
412.89	38.012
413.25	38.194
413.60	38.357
413.96	37.887
414.31	38.578
414.67	38.720
415.03	38.609
415.38	39.369
415.74	39.486
416.09	39.909
416.45	38.889
416.80	39.855
417.16	40.617
417.51	39.615
417.87	38.793
418.22	39.495
418.58	38.993
418.93	39.066
419.29	38.765
419.64	39.610
420.00	40.061
420.35	39.768
420.71	39.510
421.06	37.530
421.42	40.234
421.77	39.798
422.12	38.574
422.48	38.100
422.83	39.487
423.19	39.503
423.54	39.118
423.90	39.246
424.25	40.369
424.61	40.000
424.96	40.117
425.31	40.255
425.67	38.202
426.02	39.829
426.38	40.293
426.73	40.374
427.09	40.182
427.44	40.598
427.79	40.368
428.15	40.476
428.50	40.140
428.85	39.750
429.21	39.591
429.56	40.228
429.92	39.909
430.27	40.814
430.62	39.222
430.98	39.491
431.33	39.639
431.68	39.948
432.04	39.936
432.39	39.863
432.74	39.797
433.10	40.690
433.45	40.700
433.80	39.634
434.16	39.904
434.51	39.211
434.86	39.510
435.22	40.356
435.57	40.547
435.92	40.433
436.28	40.569
436.63	41.667
436.98	40.870
437.34	41.503
437.69	41.715
438.04	42.215
438.39	40.239
438.75	40.325
439.10	41.397
439.45	40.378
439.81	40.967
440.16	40.542
440.51	40.656
440.86	41.228
441.22	41.268
441.57	41.720
441.92	40.379
442.27	40.581
442.63	40.600
442.98	41.352
443.33	40.543
443.68	40.733
444.03	41.484
444.39	40.944
444.74	41.504
445.09	41.078
445.44	40.678
445.79	40.524
446.15	40.445
446.50	41.142
446.85	40.339
447.20	40.999
447.55	42.267
447.91	41.147
448.26	41.402
448.61	40.644
448.96	41.417
449.31	42.351
449.66	40.743
450.02	41.560
450.37	40.873
450.72	41.342
451.07	40.646
451.42	40.973
451.77	41.104
452.12	41.224
452.47	40.609
452.83	41.259
453.18	40.770
453.53	41.249
453.88	41.110
454.23	42.678
454.58	41.490
454.93	42.276
455.28	41.397
455.63	41.201
455.98	42.202
456.34	42.274
456.69	42.016
457.04	41.796
457.39	41.262
457.74	41.962
458.09	41.231
458.44	41.448
458.79	40.456
459.14	40.632
459.49	41.389
459.84	40.665
460.19	41.544
460.54	39.988
460.89	40.757
461.24	41.348
461.59	41.836
461.94	40.444
462.29	41.424
462.64	41.736
462.99	40.989
463.34	41.933
463.69	40.901
464.04	42.029
464.39	40.812
464.74	40.582
465.09	40.169
465.44	39.224
465.79	40.268
466.14	40.011
466.49	40.211
466.84	39.463
467.19	40.917
467.54	41.438
467.89	39.976
468.24	40.372
468.59	41.453
468.94	39.951
469.29	40.617
469.64	41.767
469.99	41.813
470.34	41.480
470.68	42.457
471.03	41.224
471.38	42.946
471.73	42.239
472.08	41.250
472.43	41.018
472.78	41.145
473.13	41.207
473.48	41.386
473.83	40.976
474.17	40.821
474.52	40.695
474.87	40.572
475.22	40.453
475.57	39.764
475.92	39.193
476.27	39.233
476.61	40.485
476.96	40.187
477.31	40.084
477.66	41.685
478.01	39.676
478.36	40.137
478.70	39.512
479.05	39.936
479.40	39.611
479.75	40.214
480.10	39.463
480.45	38.743
480.79	38.079
481.14	38.650
481.49	39.298
481.84	39.460
482.19	39.437
482.53	39.679
482.88	39.879
483.23	39.346
483.58	39.672
483.92	39.456
484.27	38.431
484.62	39.828
484.97	38.786
485.31	38.938
485.66	37.316
486.01	34.893
486.36	33.468
486.70	33.016
487.05	33.536
487.40	34.883
487.75	35.570
488.09	36.275
488.44	36.758
488.79	38.156
489.13	38.923
489.48	38.499
489.83	37.462
490.17	38.886
490.52	38.485
490.87	38.580
491.22	38.745
491.56	37.403
491.91	38.483
492.26	37.850
492.60	38.111
492.95	37.699
493.30	37.617
493.64	38.264
493.99	38.069
494.34	38.483
494.68	39.103
495.03	37.923
495.37	38.204
495.72	38.645
496.07	38.701
496.41	37.301
496.76	38.434
497.11	37.506
497.45	38.286
497.80	38.052
498.14	37.440
498.49	37.805
498.84	37.584
499.18	37.762
499.53	37.702
499.87	37.791
500.22	37.777
500.56	38.981
500.91	38.317
501.26	38.834
501.60	38.586
501.95	37.534
502.29	38.285
502.64	37.104
502.98	38.055
503.33	37.569
503.67	36.798
504.02	37.746
504.36	37.108
504.71	38.251
505.06	38.024
505.40	38.114
505.75	37.608
506.09	37.123
506.44	37.741
506.78	38.285
507.13	37.910
507.47	38.737
507.82	38.703
508.16	37.943
508.51	38.001
508.85	37.835
509.19	38.571
509.54	37.755
509.88	38.073
510.23	38.303
510.57	38.493
510.92	38.995
511.26	37.821
511.61	38.019
511.95	37.683
512.30	37.487
512.64	38.259
512.98	38.853
513.33	38.437
513.67	38.527
514.02	38.420
514.36	38.831
514.70	38.738
515.05	38.260
515.39	38.082
515.74	38.851
516.08	38.960
516.42	39.456
516.77	38.907
517.11	39.734
517.46	39.165
517.80	38.560
518.14	39.027
518.49	40.607
518.83	38.239
519.17	38.164
519.52	39.389
519.86	38.391
520.20	39.595
520.55	39.797
520.89	39.659
521.23	39.264
521.58	39.556
521.92	39.130
522.26	39.170
522.61	39.128
522.95	39.963
523.29	38.892
523.64	39.878
523.98	39.556
524.32	38.299
524.66	39.387
525.01	39.032
525.35	38.600
525.69	39.532
526.04	38.442
526.38	39.963
526.72	38.282
527.06	39.987
527.41	36.881
527.75	40.514
528.09	39.627
528.43	39.962
528.78	38.537
529.12	38.667
529.46	38.457
529.80	39.666
530.15	38.941
530.49	37.538
530.83	39.177
531.17	40.078
531.51	39.364
531.86	38.839
532.20	39.374
532.54	39.462
532.88	39.153
533.22	39.038
533.57	38.951
533.91	37.809
534.25	37.667
534.59	38.133
534.93	37.478
535.27	36.995
535.62	37.851
535.96	38.669
536.30	38.271
536.64	37.862
536.98	38.023
537.32	37.920
537.66	37.733
538.01	39.171
538.35	38.591
538.69	38.481
539.03	37.622
539.37	36.805
539.71	36.876
540.05	39.020
540.39	39.203
540.73	36.805
541.07	37.897
541.42	37.639
541.76	37.548
542.10	37.969
542.44	38.146
542.78	38.142
543.12	36.916
543.46	37.705
543.80	38.256
544.14	35.623
544.48	37.714
544.82	37.524
545.16	37.476
545.50	36.632
545.84	36.492
546.18	37.980
546.52	38.266
546.86	37.388
547.20	39.042
547.54	37.809
547.88	38.074
548.22	36.986
548.56	36.792
548.90	35.595
549.24	36.229
549.58	37.244
549.92	37.157
550.26	38.210
550.60	37.483
550.94	39.225
551.28	37.089
551.62	37.958
551.96	37.544
552.30	37.952
552.64	37.255
552.98	37.559
553.32	37.020
553.66	38.105
554.00	37.749
554.34	36.094
554.68	38.269
555.02	36.742
555.36	36.743
555.69	36.333
556.03	36.608
556.37	36.767
556.71	36.016
557.05	37.255
557.39	36.529
557.73	36.697
558.07	38.144
558.41	37.916
558.75	36.811
559.08	37.509
559.42	37.868
559.76	37.059
560.10	35.974
560.44	35.709
560.78	35.329
561.12	35.158
561.45	37.093
561.79	36.388
562.13	36.888
562.47	36.475
562.81	36.471
563.15	36.187
563.48	36.870
563.82	36.334
564.16	35.840
564.50	34.961
564.84	34.766
565.17	35.586
565.51	35.847
565.85	36.168
566.19	35.379
566.52	35.465
566.86	35.503
567.20	35.967
567.54	34.132
567.88	32.428
568.21	34.709
568.55	33.569
568.89	32.977
569.23	32.843
569.56	31.741
569.90	30.981
570.24	31.001
570.57	30.330
570.91	29.573
571.25	29.586
571.59	30.427
571.92	29.608
572.26	30.098
572.60	30.120
572.93	29.445
573.27	30.050
573.61	29.788
573.95	29.767
574.28	29.347
574.62	29.203
574.96	28.220
575.29	28.346
575.63	29.141
575.97	28.638
576.30	29.235
576.64	29.416
576.98	28.318
577.31	28.466
577.65	28.295
577.98	28.428
578.32	27.800
578.66	28.176
578.99	28.236
579.33	28.758
579.67	28.752
580.00	28.506
580.34	28.856
580.67	28.102
581.01	28.649
581.35	28.411
581.68	27.990
582.02	27.200
582.35	27.396
582.69	27.307
583.02	27.767
583.36	28.338
583.70	28.821
584.03	28.840
584.37	29.354
584.70	28.971
585.04	29.085
585.37	28.262
585.71	28.501
586.04	27.833
586.38	29.336
586.72	29.163
587.05	28.389
587.39	28.311
587.72	28.601
588.06	28.762
588.39	28.395
588.73	28.806
589.06	29.448
589.40	29.562
589.73	29.849
590.07	30.000
590.40	28.937
590.73	30.211
591.07	30.362
591.40	30.283
591.74	31.299
592.07	30.541
592.41	30.012
592.74	29.588
593.08	29.580
593.41	29.326
593.75	28.513
594.08	28.964
594.41	29.975
594.75	29.427
595.08	29.026
595.42	29.562
595.75	28.882
596.09	29.140
596.42	30.413
596.75	30.646
597.09	30.996
597.42	29.384
597.75	30.530
598.09	30.130
598.42	29.639
598.76	29.550
599.09	28.886
599.42	29.003
599.76	28.843
600.09	28.233
600.42	28.086
600.76	28.429
601.09	28.707
601.42	29.224
601.76	29.184
602.09	29.170
602.42	29.100
602.76	30.109
603.09	29.544
603.42	29.481
603.76	29.383
604.09	29.120
604.42	29.189
604.76	29.566
605.09	29.401
605.42	29.115
605.75	29.801
606.09	28.996
606.42	29.015
606.75	29.034
607.09	28.924
607.42	29.739
607.75	29.283
608.08	29.092
608.42	30.569
608.75	29.170
609.08	29.602
609.41	29.700
609.75	29.395
610.08	30.679
610.41	29.097
610.74	30.132
611.07	29.595
611.41	29.588
611.74	30.618
612.07	31.522
612.40	30.797
612.73	30.474
613.07	29.957
613.40	30.332
613.73	29.628
614.06	30.323
614.39	30.047
614.72	30.211
615.06	29.989
615.39	29.512
615.72	29.448
616.05	29.027
616.38	30.183
616.71	31.651
617.05	31.684
617.38	30.968
617.71	30.691
618.04	30.829
618.37	31.165
618.70	31.301
619.03	31.842
619.36	32.179
619.69	32.394
620.03	32.692
620.36	31.885
620.69	31.986
621.02	32.965
621.35	33.673
621.68	32.477
622.01	33.282
622.34	32.526
622.67	32.700
623.00	31.695
623.33	32.380
623.66	33.452
623.99	32.474
624.32	32.311
624.65	31.780
624.99	30.453
625.32	32.078
625.65	31.856
625.98	32.206
626.31	33.281
626.64	34.122
626.97	33.500
627.30	33.832
627.63	35.193
627.96	33.221
628.29	33.333
628.62	34.950
628.95	35.472
629.28	35.128
629.61	35.014
629.94	35.429
630.26	34.509
630.59	34.414
630.92	32.759
631.25	33.959
631.58	33.934
631.91	35.700
632.24	33.966
632.57	38.090
632.90	36.842
