SpectraSuite Data File
++++++++++++++++++++++++++++++++++++
Date: Wed May 13 16:29:36 PDT 2015
User: schluterlab
Dark Spectrum Present: Yes
Reference Spectrum Present: Yes
Number of Sampled Component Spectra: 1
Spectrometers: USB2E3373
Integration Time (usec): 3000 (USB2E3373)
Spectra Averaged: 3 (USB2E3373)
Boxcar Smoothing: 0 (USB2E3373)
Correct for Electrical Dark: No (USB2E3373)
Strobe/Lamp Enabled: No (USB2E3373)
Correct for Detector Non-linearity: No (USB2E3373)
Correct for Stray Light: No (USB2E3373)
Number of Pixels in Processed Spectrum: 2048
>>>>>Begin Processed Spectral Data<<<<<
178.53	0.000
178.91	-1250.000
179.29	-1250.000
179.67	-172.222
180.04	-775.000
180.42	2750.000
180.80	1000.000
181.18	-1225.000
181.56	671.429
181.94	0.000
182.31	-557.143
182.69	1533.333
183.07	-487.500
183.45	-377.778
183.83	490.909
184.20	-390.000
184.58	2050.000
184.96	4500.000
185.34	-780.000
185.72	-612.500
186.09	-1750.000
186.47	2100.000
186.85	2250.000
187.23	4400.000
187.61	-1666.667
187.98	1100.000
188.36	463.636
188.74	472.727
189.12	-780.000
189.49	510.000
189.87	-4500.000
190.25	-1250.000
190.63	385.714
191.00	384.615
191.38	700.000
191.76	-850.000
192.14	1200.000
192.51	487.500
192.89	1033.333
193.27	625.000
193.65	-1150.000
194.02	470.000
194.40	820.000
194.78	570.000
195.15	483.333
195.53	480.000
195.91	-2150.000
196.29	325.000
196.66	273.684
197.04	-290.000
197.42	0.000
197.79	500.000
198.17	-4500.000
198.55	714.286
198.92	625.000
199.30	880.000
199.68	0.000
200.05	355.556
200.43	700.000
200.81	4500.000
201.18	1400.000
201.56	-1700.000
201.94	466.667
202.31	533.333
202.69	408.333
203.07	500.000
203.44	0.000
203.82	1325.000
204.19	657.143
204.57	385.714
204.95	675.000
205.32	1600.000
205.70	500.000
206.08	357.143
206.45	2400.000
206.83	318.750
207.20	716.667
207.58	600.000
207.96	288.889
208.33	675.000
208.71	-883.333
209.08	814.286
209.46	533.333
209.84	436.364
210.21	-1200.000
210.59	1175.000
210.96	-437.500
211.34	2350.000
211.71	480.000
212.09	766.667
212.46	0.000
212.84	1633.333
213.22	1500.000
213.59	-3300.000
213.97	833.333
214.34	628.571
214.72	500.000
215.09	940.000
215.47	-2100.000
215.84	-2200.000
216.22	1800.000
216.59	321.429
216.97	1100.000
217.34	354.545
217.72	-683.333
218.09	0.000
218.47	-4300.000
218.84	544.444
219.22	571.429
219.59	1566.667
219.97	-471.429
220.34	780.000
220.72	-1700.000
221.09	392.857
221.47	1350.000
221.84	-966.667
222.22	0.000
222.59	1400.000
222.97	-2550.000
223.34	1000.000
223.72	430.769
224.09	840.000
224.46	1600.000
224.84	-4000.000
225.21	-1060.000
225.59	-4100.000
225.96	560.000
226.34	265.000
226.71	2550.000
227.08	550.000
227.46	500.000
227.83	-950.000
228.21	-2100.000
228.58	633.333
228.95	-1600.000
229.33	-2000.000
229.70	1433.333
230.08	600.000
230.45	-580.000
230.82	408.333
231.20	900.000
231.57	685.714
231.95	466.667
232.32	250.000
232.69	354.545
233.07	600.000
233.44	300.000
233.81	-1366.667
234.19	231.579
234.56	458.333
234.93	283.333
235.31	390.909
235.68	246.154
236.05	328.571
236.43	181.818
236.80	257.895
237.17	4400.000
237.55	195.238
237.92	132.143
238.29	157.143
238.67	138.710
239.04	162.069
239.41	111.111
239.79	93.478
240.16	85.714
240.53	125.000
240.91	98.039
241.28	92.000
241.65	96.000
242.02	76.812
242.40	75.806
242.77	58.333
243.14	63.441
243.51	67.416
243.89	64.706
244.26	47.778
244.63	51.613
245.00	45.745
245.38	42.574
245.75	34.579
246.12	40.367
246.49	51.095
246.87	48.800
247.24	39.231
247.61	37.143
247.98	32.680
248.36	34.459
248.73	32.484
249.10	35.032
249.47	37.288
249.84	34.225
250.22	32.086
250.59	34.320
250.96	30.808
251.33	32.701
251.70	31.683
252.08	26.667
252.45	24.664
252.82	26.957
253.19	27.234
253.56	24.314
253.94	29.461
254.31	26.953
254.68	24.615
255.05	26.937
255.42	23.984
255.79	26.471
256.16	20.939
256.54	20.848
256.91	23.843
257.28	18.705
257.65	22.442
258.02	24.224
258.39	20.189
258.76	19.064
259.14	23.512
259.51	21.581
259.88	19.255
260.25	18.731
260.62	18.786
260.99	19.255
261.36	23.724
261.73	16.332
262.10	21.512
262.47	20.000
262.85	21.170
263.22	17.664
263.59	21.652
263.96	17.857
264.33	18.277
264.70	19.737
265.07	20.716
265.44	17.424
265.81	17.032
266.18	18.090
266.55	18.049
266.92	19.902
267.29	18.750
267.66	16.743
268.03	16.136
268.40	16.121
268.77	15.274
269.14	15.766
269.51	18.059
269.88	19.580
270.25	16.027
270.62	17.079
270.99	18.495
271.36	16.953
271.73	17.056
272.10	15.870
272.47	18.065
272.84	19.264
273.21	16.771
273.58	14.192
273.95	14.885
274.32	14.876
274.69	16.060
275.06	14.370
275.43	13.404
275.80	16.032
276.17	14.257
276.54	17.048
276.91	14.625
277.28	10.938
277.65	15.861
278.02	12.836
278.39	16.797
278.76	15.636
279.13	16.226
279.50	15.642
279.87	14.542
280.23	13.573
280.60	14.700
280.97	14.233
281.34	13.628
281.71	17.818
282.08	14.779
282.45	12.000
282.82	14.387
283.19	13.191
283.56	14.912
283.92	15.567
284.29	14.286
284.66	12.886
285.03	10.850
285.40	13.732
285.77	13.131
286.14	14.162
286.51	13.833
286.87	15.043
287.24	13.681
287.61	13.323
287.98	13.799
288.35	12.995
288.72	13.863
289.08	14.085
289.45	12.685
289.82	13.171
290.19	10.204
290.56	11.945
290.93	12.236
291.29	11.196
291.66	12.094
292.03	14.099
292.40	14.244
292.77	11.243
293.13	11.343
293.50	11.516
293.87	11.556
294.24	10.074
294.60	10.917
294.97	12.355
295.34	13.681
295.71	12.642
296.08	11.254
296.44	10.591
296.81	10.964
297.18	12.602
297.55	7.652
297.91	11.082
298.28	11.245
298.65	10.966
299.02	10.935
299.38	10.624
299.75	8.895
300.12	10.473
300.48	10.625
300.85	10.727
301.22	9.936
301.59	10.606
301.95	10.579
302.32	9.628
302.69	10.753
303.05	10.303
303.42	10.988
303.79	9.853
304.15	8.974
304.52	8.111
304.89	8.595
305.25	9.513
305.62	10.419
305.99	10.744
306.35	10.067
306.72	9.753
307.09	8.213
307.45	11.036
307.82	9.375
308.19	10.265
308.55	10.032
308.92	9.667
309.29	9.609
309.65	9.544
310.02	9.619
310.38	9.462
310.75	9.609
311.12	9.826
311.48	8.673
311.85	10.692
312.22	9.677
312.58	8.836
312.95	9.820
313.31	9.223
313.68	10.083
314.05	11.144
314.41	11.055
314.78	9.164
315.14	9.037
315.51	9.990
315.87	11.089
316.24	10.924
316.61	10.234
316.97	10.372
317.34	9.687
317.70	10.994
318.07	11.742
318.43	10.274
318.80	11.246
319.16	11.676
319.53	12.289
319.89	12.000
320.26	12.000
320.62	12.798
320.99	12.727
321.35	12.525
321.72	13.450
322.08	13.129
322.45	15.622
322.81	13.178
323.18	13.391
323.54	14.100
323.91	13.679
324.27	13.862
324.64	13.514
325.00	14.067
325.37	14.650
325.73	15.171
326.10	15.799
326.46	15.681
326.83	15.617
327.19	15.713
327.56	15.331
327.92	16.273
328.29	16.415
328.65	16.206
329.01	16.697
329.38	15.911
329.74	16.713
330.11	14.892
330.47	17.355
330.84	17.739
331.20	16.393
331.56	17.156
331.93	16.574
332.29	17.569
332.66	18.496
333.02	18.007
333.38	18.338
333.75	17.825
334.11	17.438
334.48	17.835
334.84	17.004
335.20	18.545
335.57	17.316
335.93	17.321
336.29	17.125
336.66	19.206
337.02	17.376
337.38	18.056
337.75	17.825
338.11	17.726
338.47	18.048
338.84	18.607
339.20	17.706
339.56	18.613
339.93	18.545
340.29	17.663
340.65	18.627
341.02	19.372
341.38	17.705
341.74	17.895
342.11	18.777
342.47	17.533
342.83	18.493
343.20	18.701
343.56	18.787
343.92	18.947
344.28	19.048
344.65	19.261
345.01	17.929
345.37	17.581
345.73	18.866
346.10	18.926
346.46	19.831
346.82	18.287
347.19	18.212
347.55	18.473
347.91	19.094
348.27	19.228
348.63	18.896
349.00	17.799
349.36	19.622
349.72	19.888
350.08	17.747
350.45	18.959
350.81	18.034
351.17	19.611
351.53	17.854
351.89	18.317
352.26	19.653
352.62	19.647
352.98	18.720
353.34	19.063
353.70	17.921
354.07	19.516
354.43	19.048
354.79	18.665
355.15	17.877
355.51	19.345
355.87	20.082
356.24	19.300
356.60	18.284
356.96	19.147
357.32	19.542
357.68	19.685
358.04	18.369
358.40	19.398
358.77	19.249
359.13	19.021
359.49	20.235
359.85	19.048
360.21	19.458
360.57	19.689
360.93	20.000
361.29	20.484
361.66	19.814
362.02	19.478
362.38	19.392
362.74	20.238
363.10	18.579
363.46	19.149
363.82	19.577
364.18	19.604
364.54	20.654
364.90	19.759
365.26	19.632
365.62	19.942
365.98	18.919
366.35	19.699
366.71	21.330
367.07	19.883
367.43	20.900
367.79	19.058
368.15	20.474
368.51	20.276
368.87	20.842
369.23	20.410
369.59	19.841
369.95	19.926
370.31	20.299
370.67	20.580
371.03	21.273
371.39	21.137
371.75	20.662
372.11	20.982
372.47	21.774
372.83	21.542
373.19	20.737
373.55	20.621
373.91	23.711
374.27	21.168
374.63	20.800
374.99	22.316
375.35	20.796
375.71	21.110
376.07	22.016
376.42	21.802
376.78	22.929
377.14	21.845
377.50	22.252
377.86	21.543
378.22	22.882
378.58	22.619
378.94	22.124
379.30	22.265
379.66	23.668
380.02	22.973
380.38	22.283
380.74	23.169
381.09	23.594
381.45	23.725
381.81	24.079
382.17	23.567
382.53	23.585
382.89	24.259
383.25	23.702
383.61	24.597
383.97	24.015
384.32	25.078
384.68	23.668
385.04	24.585
385.40	24.954
385.76	24.631
386.12	25.583
386.48	25.425
386.83	25.914
387.19	26.531
387.55	24.675
387.91	24.970
388.27	25.567
388.62	25.200
388.98	25.369
389.34	26.471
389.70	25.567
390.06	26.996
390.42	26.200
390.77	26.590
391.13	26.994
391.49	26.459
391.85	26.162
392.20	25.994
392.56	26.831
392.92	26.310
393.28	25.444
393.64	26.079
393.99	26.573
394.35	26.489
394.71	27.604
395.07	26.355
395.42	27.812
395.78	27.036
396.14	26.505
396.50	27.130
396.85	27.845
397.21	26.449
397.57	27.278
397.92	27.344
398.28	26.345
398.64	27.838
399.00	26.693
399.35	27.242
399.71	27.662
400.07	27.499
400.42	27.485
400.78	27.805
401.14	26.890
401.49	28.239
401.85	26.921
402.21	27.485
402.57	26.897
402.92	27.680
403.28	27.233
403.63	27.290
403.99	26.561
404.35	27.333
404.70	27.938
405.06	27.373
405.42	27.636
405.77	26.457
406.13	26.806
406.49	27.499
406.84	27.525
407.20	26.241
407.55	27.951
407.91	28.133
408.27	27.888
408.62	26.911
408.98	26.900
409.34	27.983
409.69	27.806
410.05	27.138
410.40	27.890
410.76	27.061
411.11	27.744
411.47	27.348
411.83	26.573
412.18	27.335
412.54	26.526
412.89	26.687
413.25	27.391
413.60	27.363
413.96	26.655
414.31	27.096
414.67	27.947
415.03	27.483
415.38	28.157
415.74	26.817
416.09	27.760
416.45	26.439
416.80	27.032
417.16	27.815
417.51	27.671
417.87	26.782
418.22	27.760
418.58	27.502
418.93	26.597
419.29	26.989
419.64	27.456
420.00	26.220
420.35	26.377
420.71	27.974
421.06	26.492
421.42	26.023
421.77	26.570
422.12	25.997
422.48	27.631
422.83	27.723
423.19	26.851
423.54	27.278
423.90	26.493
424.25	26.131
424.61	26.845
424.96	27.055
425.31	27.132
425.67	26.573
426.02	26.457
426.38	27.473
426.73	26.331
427.09	26.140
427.44	26.107
427.79	26.452
428.15	27.024
428.50	25.805
428.85	26.043
429.21	26.008
429.56	26.439
429.92	26.774
430.27	25.621
430.62	25.141
430.98	25.532
431.33	26.649
431.68	26.492
432.04	24.760
432.39	26.842
432.74	26.990
433.10	26.033
433.45	26.064
433.80	25.887
434.16	26.549
434.51	25.316
434.86	26.568
435.22	25.903
435.57	26.201
435.92	26.916
436.28	26.690
436.63	27.042
436.98	25.701
437.34	26.058
437.69	25.496
438.04	25.689
438.39	26.627
438.75	26.671
439.10	26.089
439.45	26.919
439.81	26.042
440.16	25.918
440.51	25.835
440.86	25.709
441.22	26.251
441.57	26.008
441.92	26.151
442.27	26.642
442.63	25.750
442.98	25.634
443.33	25.435
443.68	26.226
444.03	25.232
444.39	24.927
444.74	25.649
445.09	25.876
445.44	24.986
445.79	25.631
446.15	26.046
446.50	25.256
446.85	26.362
447.20	25.497
447.55	26.801
447.91	25.427
448.26	25.821
448.61	26.173
448.96	26.301
449.31	25.984
449.66	25.661
450.02	25.404
450.37	25.113
450.72	26.001
451.07	25.289
451.42	24.316
451.77	26.424
452.12	25.231
452.47	25.435
452.83	25.000
453.18	25.795
453.53	26.407
453.88	25.576
454.23	25.224
454.58	25.984
454.93	26.510
455.28	26.122
455.63	25.728
455.98	25.595
456.34	25.503
456.69	25.485
457.04	25.635
457.39	25.599
457.74	25.189
458.09	25.819
458.44	25.257
458.79	24.349
459.14	24.718
459.49	25.452
459.84	23.878
460.19	25.103
460.54	25.058
460.89	24.355
461.24	25.379
461.59	26.322
461.94	24.229
462.29	24.748
462.64	25.335
462.99	25.114
463.34	26.067
463.69	25.328
464.04	25.275
464.39	25.391
464.74	24.658
465.09	24.970
465.44	24.155
465.79	23.826
466.14	24.138
466.49	24.750
466.84	24.227
467.19	24.442
467.54	24.625
467.89	24.070
468.24	24.200
468.59	24.786
468.94	24.191
469.29	24.614
469.64	24.967
469.99	25.169
470.34	23.448
470.68	24.569
471.03	25.102
471.38	25.226
471.73	24.917
472.08	24.013
472.43	23.744
472.78	23.634
473.13	24.968
473.48	24.220
473.83	24.695
474.17	23.460
474.52	24.690
474.87	25.219
475.22	24.144
475.57	23.966
475.92	23.579
476.27	23.844
476.61	23.221
476.96	24.024
477.31	23.129
477.66	24.672
478.01	23.785
478.36	23.321
478.70	23.313
479.05	23.589
479.40	23.030
479.75	23.437
480.10	22.565
480.45	23.370
480.79	22.742
481.14	22.994
481.49	22.686
481.84	22.679
482.19	23.444
482.53	23.624
482.88	22.755
483.23	23.178
483.58	23.339
483.92	22.259
484.27	22.222
484.62	22.328
484.97	22.231
485.31	23.151
485.66	21.362
486.01	20.781
486.36	19.691
486.70	19.656
487.05	20.027
487.40	20.914
487.75	21.276
488.09	22.263
488.44	21.848
488.79	22.423
489.13	22.345
489.48	22.594
489.83	21.882
490.17	22.271
490.52	21.878
490.87	22.298
491.22	22.374
491.56	22.050
491.91	22.150
492.26	21.176
492.60	22.488
492.95	21.282
493.30	21.822
493.64	21.979
493.99	21.402
494.34	21.785
494.68	21.932
495.03	21.898
495.37	22.243
495.72	21.637
496.07	21.624
496.41	21.150
496.76	21.284
497.11	21.252
497.45	22.310
497.80	21.785
498.14	22.222
498.49	21.317
498.84	21.477
499.18	21.714
499.53	20.750
499.87	21.528
500.22	22.044
500.56	22.039
500.91	21.202
501.26	21.053
501.60	21.974
501.95	20.669
502.29	21.603
502.64	21.508
502.98	21.131
503.33	20.430
503.67	21.160
504.02	20.486
504.36	20.964
504.71	21.202
505.06	21.205
505.40	21.390
505.75	20.926
506.09	21.186
506.44	21.016
506.78	21.140
507.13	21.353
507.47	21.212
507.82	21.074
508.16	21.327
508.51	21.664
508.85	21.102
509.19	21.429
509.54	21.429
509.88	21.432
510.23	21.234
510.57	21.930
510.92	21.440
511.26	21.017
511.61	21.317
511.95	20.772
512.30	21.368
512.64	20.795
512.98	20.740
513.33	21.199
513.67	21.505
514.02	20.996
514.36	22.010
514.70	21.970
515.05	20.859
515.39	21.032
515.74	21.227
516.08	21.576
516.42	22.309
516.77	21.349
517.11	21.643
517.46	21.219
517.80	21.487
518.14	20.730
518.49	21.412
518.83	21.818
519.17	21.132
519.52	22.184
519.86	21.449
520.20	22.023
520.55	20.766
520.89	22.080
521.23	21.532
521.58	21.669
521.92	22.352
522.26	21.293
522.61	21.869
522.95	21.240
523.29	21.729
523.64	22.256
523.98	21.319
524.32	21.230
524.66	21.948
525.01	21.875
525.35	21.128
525.69	21.182
526.04	21.059
526.38	21.538
526.72	21.043
527.06	21.030
527.41	20.730
527.75	21.801
528.09	20.809
528.43	21.287
528.78	21.573
529.12	21.576
529.46	22.290
529.80	21.535
530.15	21.558
530.49	20.677
530.83	21.266
531.17	21.671
531.51	22.633
531.86	21.935
532.20	21.643
532.54	22.165
532.88	21.630
533.22	20.675
533.57	21.173
533.91	21.373
534.25	20.838
534.59	20.744
534.93	20.405
535.27	21.304
535.62	21.123
535.96	21.908
536.30	20.661
536.64	22.151
536.98	21.035
537.32	20.342
537.66	20.467
538.01	21.264
538.35	20.944
538.69	21.953
539.03	21.507
539.37	20.447
539.71	19.831
540.05	21.895
540.39	22.126
540.73	20.440
541.07	21.090
541.42	21.722
541.76	21.097
542.10	21.539
542.44	21.060
542.78	21.146
543.12	20.665
543.46	20.328
543.80	20.560
544.14	20.603
544.48	21.079
544.82	20.398
545.16	21.015
545.50	21.080
545.84	21.909
546.18	20.202
546.52	20.509
546.86	21.100
547.20	20.701
547.54	20.307
547.88	20.727
548.22	19.925
548.56	19.874
548.90	19.782
549.24	20.741
549.58	20.668
549.92	20.536
550.26	20.526
550.60	20.885
550.94	20.986
551.28	20.849
551.62	20.561
551.96	20.211
552.30	20.614
552.64	21.501
552.98	21.695
553.32	20.566
553.66	21.541
554.00	20.728
554.34	20.221
554.68	21.173
555.02	21.791
555.36	20.320
555.69	20.162
556.03	19.717
556.37	19.850
556.71	19.714
557.05	19.958
557.39	21.763
557.73	19.901
558.07	20.522
558.41	21.491
558.75	21.381
559.08	21.402
559.42	20.635
559.76	20.809
560.10	19.986
560.44	20.266
560.78	19.361
561.12	20.119
561.45	20.730
561.79	20.105
562.13	20.188
562.47	20.082
562.81	20.432
563.15	20.334
563.48	20.756
563.82	20.939
564.16	19.555
564.50	18.750
564.84	19.406
565.17	20.077
565.51	19.744
565.85	19.416
566.19	19.474
566.52	19.696
566.86	19.771
567.20	19.634
567.54	18.379
567.88	19.174
568.21	18.995
568.55	18.908
568.89	18.434
569.23	18.048
569.56	17.733
569.90	17.472
570.24	17.797
570.57	17.375
570.91	16.936
571.25	16.831
571.59	16.966
571.92	16.849
572.26	16.927
572.60	17.057
572.93	17.001
573.27	17.243
573.61	17.476
573.95	16.770
574.28	16.910
574.62	16.642
574.96	16.296
575.29	16.295
575.63	16.463
575.97	16.636
576.30	17.127
576.64	16.932
576.98	16.407
577.31	16.520
577.65	16.591
577.98	16.305
578.32	16.164
578.66	16.457
578.99	16.754
579.33	16.630
579.67	16.444
580.00	16.783
580.34	16.421
580.67	16.497
581.01	16.708
581.35	16.322
581.68	15.957
582.02	15.725
582.35	16.148
582.69	16.127
583.02	15.945
583.36	16.555
583.70	17.058
584.03	17.476
584.37	17.154
584.70	17.294
585.04	16.830
585.37	16.449
585.71	16.588
586.04	16.502
586.38	17.059
586.72	17.067
587.05	16.762
587.39	16.596
587.72	16.748
588.06	16.409
588.39	16.543
588.73	16.808
589.06	17.482
589.40	17.037
589.73	17.283
590.07	17.295
590.40	17.209
590.73	17.018
591.07	18.396
591.40	17.334
591.74	17.965
592.07	17.059
592.41	17.652
592.74	17.303
593.08	16.056
593.41	16.830
593.75	16.583
594.08	16.762
594.41	16.967
594.75	16.932
595.08	16.822
595.42	16.883
595.75	16.845
596.09	17.386
596.42	17.407
596.75	18.151
597.09	18.745
597.42	16.948
597.75	16.904
598.09	17.739
598.42	16.967
598.76	16.457
599.09	16.686
599.42	16.157
599.76	16.691
600.09	16.321
600.42	16.289
600.76	16.464
601.09	16.503
601.42	16.667
601.76	17.078
602.09	16.364
602.42	17.317
602.76	17.211
603.09	16.719
603.42	16.751
603.76	16.463
604.09	16.479
604.42	17.040
604.76	17.250
605.09	16.951
605.42	16.332
605.75	16.432
606.09	16.999
606.42	17.000
606.75	17.005
607.09	17.790
607.42	16.816
607.75	16.371
608.08	15.892
608.42	17.212
608.75	16.772
609.08	16.512
609.41	16.230
609.75	17.437
610.08	16.965
610.41	16.574
610.74	16.935
611.07	16.700
611.41	17.272
611.74	17.245
612.07	16.511
612.40	18.206
612.73	17.316
613.07	17.996
613.40	17.799
613.73	16.571
614.06	17.151
614.39	17.514
614.72	16.789
615.06	17.752
615.39	17.197
615.72	17.638
616.05	17.012
616.38	18.177
616.71	17.518
617.05	18.139
617.38	17.078
617.71	17.538
618.04	18.029
618.37	17.859
618.70	17.362
619.03	18.553
619.36	18.262
619.69	18.239
620.03	18.338
620.36	17.914
620.69	18.699
621.02	18.215
621.35	17.776
621.68	18.224
622.01	18.189
622.34	17.927
622.67	18.707
623.00	17.241
623.33	17.870
623.66	18.299
623.99	17.452
624.32	17.047
624.65	18.008
624.99	17.351
625.32	18.827
625.65	18.332
625.98	18.063
626.31	19.362
626.64	18.531
626.97	19.701
627.30	18.371
627.63	19.114
627.96	18.503
628.29	18.285
628.62	19.854
628.95	20.566
629.28	20.347
629.61	19.707
629.94	19.143
630.26	19.542
630.59	20.305
630.92	18.391
631.25	19.743
631.58	19.820
