SpectraSuite Data File
++++++++++++++++++++++++++++++++++++
Date: Wed May 13 16:36:46 PDT 2015
User: schluterlab
Dark Spectrum Present: Yes
Reference Spectrum Present: Yes
Number of Sampled Component Spectra: 1
Spectrometers: USB2E3373
Integration Time (usec): 3000 (USB2E3373)
Spectra Averaged: 3 (USB2E3373)
Boxcar Smoothing: 0 (USB2E3373)
Correct for Electrical Dark: No (USB2E3373)
Strobe/Lamp Enabled: No (USB2E3373)
Correct for Detector Non-linearity: No (USB2E3373)
Correct for Stray Light: No (USB2E3373)
Number of Pixels in Processed Spectrum: 2048
>>>>>Begin Processed Spectral Data<<<<<
178.53	0.000
178.91	-1225.000
179.29	-1325.000
179.67	-222.222
180.04	-1225.000
180.42	2350.000
180.80	1060.000
181.18	-900.000
181.56	700.000
181.94	0.000
182.31	-585.714
182.69	1700.000
183.07	-525.000
183.45	-622.222
183.83	536.364
184.20	-340.000
184.58	2600.000
184.96	6100.000
185.34	-900.000
185.72	-612.500
186.09	-2100.000
186.47	2250.000
186.85	2550.000
187.23	4900.000
187.61	-1666.667
187.98	1350.000
188.36	536.364
188.74	454.545
189.12	-760.000
189.49	580.000
189.87	-4900.000
190.25	-1075.000
190.63	378.571
191.00	400.000
191.38	800.000
191.76	-1425.000
192.14	1400.000
192.51	775.000
192.89	866.667
193.27	550.000
193.65	-1200.000
194.02	470.000
194.40	820.000
194.78	580.000
195.15	525.000
195.53	550.000
195.91	-2000.000
196.29	281.250
196.66	321.053
197.04	-410.000
197.42	0.000
197.79	610.000
198.17	-4600.000
198.55	700.000
198.92	700.000
199.30	1000.000
199.68	0.000
200.05	316.667
200.43	700.000
200.81	3800.000
201.18	1633.333
201.56	-1666.667
201.94	644.444
202.31	611.111
202.69	483.333
203.07	540.000
203.44	0.000
203.82	1300.000
204.19	742.857
204.57	435.714
204.95	600.000
205.32	1666.667
205.70	527.273
206.08	414.286
206.45	2700.000
206.83	400.000
207.20	916.667
207.58	600.000
207.96	305.556
208.33	687.500
208.71	-733.333
209.08	757.143
209.46	611.111
209.84	527.273
210.21	-1300.000
210.59	1425.000
210.96	-450.000
211.34	2450.000
211.71	550.000
212.09	816.667
212.46	0.000
212.84	1533.333
213.22	1275.000
213.59	-5400.000
213.97	850.000
214.34	685.714
214.72	536.364
215.09	940.000
215.47	-2400.000
215.84	-2650.000
216.22	1766.667
216.59	350.000
216.97	1025.000
217.34	427.273
217.72	-683.333
218.09	0.000
218.47	-5600.000
218.84	500.000
219.22	600.000
219.59	1533.333
219.97	-685.714
220.34	880.000
220.72	-1933.333
221.09	407.143
221.47	1300.000
221.84	-733.333
222.22	0.000
222.59	1225.000
222.97	-2550.000
223.34	1140.000
223.72	500.000
224.09	840.000
224.46	2400.000
224.84	-5300.000
225.21	-860.000
225.59	-4700.000
225.96	580.000
226.34	315.000
226.71	2700.000
227.08	737.500
227.46	590.000
227.83	-925.000
228.21	-1850.000
228.58	577.778
228.95	-2450.000
229.33	-2400.000
229.70	1600.000
230.08	814.286
230.45	-760.000
230.82	325.000
231.20	916.667
231.57	642.857
231.95	466.667
232.32	231.818
232.69	372.727
233.07	642.857
233.44	338.462
233.81	-1800.000
234.19	310.526
234.56	466.667
234.93	416.667
235.31	518.182
235.68	376.923
236.05	321.429
236.43	169.697
236.80	268.421
237.17	4400.000
237.55	223.810
237.92	160.714
238.29	247.619
238.67	151.613
239.04	217.241
239.41	147.222
239.79	115.217
240.16	130.952
240.53	109.091
240.91	68.627
241.28	100.000
241.65	88.000
242.02	89.855
242.40	75.806
242.77	86.667
243.14	72.043
243.51	70.787
243.89	61.176
244.26	56.667
244.63	50.538
245.00	48.936
245.38	60.396
245.75	45.794
246.12	43.119
246.49	45.985
246.87	52.000
247.24	43.077
247.61	40.000
247.98	38.562
248.36	36.486
248.73	33.121
249.10	33.121
249.47	33.333
249.84	42.246
250.22	29.412
250.59	30.769
250.96	32.323
251.33	33.175
251.70	34.158
252.08	30.476
252.45	26.906
252.82	27.826
253.19	32.340
253.56	26.667
253.94	26.971
254.31	26.953
254.68	23.077
255.05	27.675
255.42	25.203
255.79	19.853
256.16	28.159
256.54	25.442
256.91	24.555
257.28	17.986
257.65	21.452
258.02	21.118
258.39	22.713
258.76	22.408
259.14	24.405
259.51	21.581
259.88	18.634
260.25	23.263
260.62	19.364
260.99	20.186
261.36	20.420
261.73	18.338
262.10	20.640
262.47	21.408
262.85	20.891
263.22	15.100
263.59	20.798
263.96	18.681
264.33	22.715
264.70	17.895
265.07	19.437
265.44	17.929
265.81	18.005
266.18	19.095
266.55	19.024
266.92	19.902
267.29	18.750
267.66	16.284
268.03	17.500
268.40	18.925
268.77	15.513
269.14	17.793
269.51	17.607
269.88	18.182
270.25	18.059
270.62	17.528
270.99	20.000
271.36	17.811
271.73	16.121
272.10	15.870
272.47	18.280
272.84	18.182
273.21	16.981
273.58	15.502
273.95	15.304
274.32	15.702
274.69	15.632
275.06	13.189
275.43	17.234
275.80	17.034
276.17	16.090
276.54	15.177
276.91	16.008
277.28	16.016
277.65	17.021
278.02	15.114
278.39	18.164
278.76	16.000
279.13	16.604
279.50	16.574
279.87	13.745
280.23	16.168
280.60	11.799
280.97	15.712
281.34	16.106
281.71	16.182
282.08	17.850
282.45	14.364
282.82	15.808
283.19	14.082
283.56	14.737
283.92	15.059
284.29	14.815
284.66	14.882
285.03	12.658
285.40	13.380
285.77	12.626
286.14	13.472
286.51	16.000
286.87	14.188
287.24	15.309
287.61	12.841
287.98	14.123
288.35	12.361
288.72	13.707
289.08	13.928
289.45	15.157
289.82	14.309
290.19	11.931
290.56	11.332
290.93	12.085
291.29	13.037
291.66	14.897
292.03	13.953
292.40	14.244
292.77	11.538
293.13	12.985
293.50	11.662
293.87	12.889
294.24	11.111
294.60	11.499
294.97	12.209
295.34	13.822
295.71	12.784
296.08	11.681
296.44	12.792
296.81	10.700
297.18	11.789
297.55	8.971
297.91	10.950
298.28	11.780
298.65	12.272
299.02	11.594
299.38	10.359
299.75	10.108
300.12	10.728
300.48	11.375
300.85	11.837
301.22	10.701
301.59	10.227
301.95	11.335
302.32	10.398
302.69	10.992
303.05	10.788
303.42	8.395
303.79	11.099
304.15	9.674
304.52	9.038
304.89	10.453
305.25	10.441
305.62	10.985
305.99	11.216
306.35	9.284
306.72	10.650
307.09	11.987
307.45	11.036
307.82	10.603
308.19	10.596
308.55	11.435
308.92	9.667
309.29	10.243
309.65	9.332
310.02	10.677
310.38	9.247
310.75	10.032
311.12	9.724
311.48	10.240
311.85	11.216
312.22	10.198
312.58	10.083
312.95	11.088
313.31	10.388
313.68	10.291
314.05	11.144
314.41	9.950
314.78	11.279
315.14	10.427
315.51	10.608
315.87	10.495
316.24	10.725
316.61	10.526
316.97	10.568
317.34	8.611
317.70	9.847
318.07	10.106
318.43	10.372
318.80	12.184
319.16	10.640
319.53	10.600
319.89	11.238
320.26	11.600
320.62	11.706
320.99	11.111
321.35	11.717
321.72	10.678
322.08	12.340
322.45	12.338
322.81	11.822
323.18	12.909
323.54	11.503
323.91	12.075
324.27	10.899
324.64	10.438
325.00	10.730
325.37	12.284
325.73	11.131
326.10	12.004
326.46	10.573
326.83	11.734
327.19	11.785
327.56	11.324
327.92	11.549
328.29	11.890
328.65	12.891
329.01	11.282
329.38	11.193
329.74	12.188
330.11	11.876
330.47	13.315
330.84	13.787
331.20	11.931
331.56	11.468
331.93	11.019
332.29	11.801
332.66	12.743
333.02	12.980
333.38	11.382
333.75	13.458
334.11	11.121
334.48	12.422
334.84	11.489
335.20	12.455
335.57	11.061
335.93	11.786
336.29	10.806
336.66	11.542
337.02	10.045
337.38	12.222
337.75	11.141
338.11	11.907
338.47	11.418
338.84	12.282
339.20	10.826
339.56	12.774
339.93	10.909
340.29	11.775
340.65	11.230
341.02	12.391
341.38	11.744
341.74	10.877
342.11	11.092
342.47	12.511
342.83	11.558
343.20	11.775
343.56	12.131
343.92	11.140
344.28	11.054
344.65	11.780
345.01	11.111
345.37	10.034
345.73	11.421
346.10	10.997
346.46	10.847
346.82	10.873
347.19	10.610
347.55	11.002
347.91	11.408
348.27	12.325
348.63	11.455
349.00	11.003
349.36	12.397
349.72	11.227
350.08	11.183
350.45	11.961
350.81	10.885
351.17	10.454
351.53	11.057
351.89	10.066
352.26	11.602
352.62	11.227
352.98	11.264
353.34	11.750
353.70	9.493
354.07	10.887
354.43	11.587
354.79	11.826
355.15	10.136
355.51	11.591
355.87	12.082
356.24	11.564
356.60	10.505
356.96	11.907
357.32	10.793
357.68	10.236
358.04	11.322
358.40	12.431
358.77	11.581
359.13	10.182
359.49	11.216
359.85	9.524
360.21	11.244
360.57	11.051
360.93	11.538
361.29	10.355
361.66	10.372
362.02	11.642
362.38	11.027
362.74	11.235
363.10	10.659
363.46	10.638
363.82	10.809
364.18	10.866
364.54	11.590
364.90	11.686
365.26	11.029
365.62	11.030
365.98	10.226
366.35	10.029
366.71	11.063
367.07	11.289
367.43	11.466
367.79	10.707
368.15	12.284
368.51	10.683
368.87	11.849
369.23	11.851
369.59	11.079
369.95	11.397
370.31	11.966
370.67	11.014
371.03	12.959
371.39	12.464
371.75	10.588
372.11	11.309
372.47	12.390
372.83	11.744
373.19	11.850
373.55	11.604
373.91	12.445
374.27	11.409
374.63	11.564
374.99	12.641
375.35	10.886
375.71	11.446
376.07	11.523
376.42	12.448
376.78	12.922
377.14	10.855
377.50	12.252
377.86	12.301
378.22	12.895
378.58	11.779
378.94	11.376
379.30	12.723
379.66	12.373
380.02	12.654
380.38	12.447
380.74	12.125
381.09	11.980
381.45	13.030
381.81	13.575
382.17	12.994
382.53	12.704
382.89	13.642
383.25	12.133
383.61	13.507
383.97	13.196
384.32	13.412
384.68	13.259
385.04	13.768
385.40	13.251
385.76	13.022
386.12	13.342
386.48	13.782
386.83	13.534
387.19	14.471
387.55	14.038
387.91	13.362
388.27	13.182
388.62	14.505
388.98	14.128
389.34	14.456
389.70	14.102
390.06	14.829
390.42	14.591
390.77	13.868
391.13	13.465
391.49	14.784
391.85	14.895
392.20	13.060
392.56	13.763
392.92	14.303
393.28	12.899
393.64	14.868
393.99	14.600
394.35	14.950
394.71	14.492
395.07	14.642
395.42	14.030
395.78	14.567
396.14	14.463
396.50	15.915
396.85	15.512
397.21	14.427
397.57	15.003
397.92	15.325
398.28	13.845
398.64	14.456
399.00	14.829
399.35	14.552
399.71	14.873
400.07	15.021
400.42	14.847
400.78	14.717
401.14	15.244
401.49	15.045
401.85	14.761
402.21	14.910
402.57	14.929
402.92	15.069
403.28	15.303
403.63	14.233
403.99	15.414
404.35	15.212
404.70	15.048
405.06	13.920
405.42	15.471
405.77	14.629
406.13	14.955
406.49	14.548
406.84	14.471
407.20	14.066
407.55	15.380
407.91	14.667
408.27	14.933
408.62	15.593
408.98	14.338
409.34	14.453
409.69	14.452
410.05	15.428
410.40	14.679
410.76	14.217
411.11	15.078
411.47	14.952
411.83	15.333
412.18	14.904
412.54	14.757
412.89	15.060
413.25	15.289
413.60	14.392
413.96	14.633
414.31	14.824
414.67	15.843
415.03	14.967
415.38	15.657
415.74	15.177
416.09	16.656
416.45	14.592
416.80	15.135
417.16	15.416
417.51	15.727
417.87	15.029
418.22	15.899
418.58	15.300
418.93	15.602
419.29	14.831
419.64	15.743
420.00	15.610
420.35	14.725
420.71	15.780
421.06	15.036
421.42	16.140
421.77	14.966
422.12	14.430
422.48	14.679
422.83	15.201
423.19	15.028
423.54	15.206
423.90	15.884
424.25	16.025
424.61	15.298
424.96	15.160
425.31	15.006
425.67	14.494
426.02	15.429
426.38	16.178
426.73	14.394
427.09	15.258
427.44	15.009
427.79	15.239
428.15	15.774
428.50	15.155
428.85	16.627
429.21	15.351
429.56	15.656
429.92	14.897
430.27	15.343
430.62	14.388
430.98	15.464
431.33	15.052
431.68	16.073
432.04	15.708
432.39	15.306
432.74	15.260
433.10	15.789
433.45	15.627
433.80	15.466
434.16	16.132
434.51	15.316
434.86	15.621
435.22	16.676
435.57	16.413
435.92	15.214
436.28	16.785
436.63	16.170
436.98	15.913
437.34	15.146
437.69	16.044
438.04	15.795
438.39	15.403
438.75	16.153
439.10	15.587
439.45	16.411
439.81	16.012
440.16	15.641
440.51	15.817
440.86	16.561
441.22	16.296
441.57	15.817
441.92	15.865
442.27	16.308
442.63	15.482
442.98	15.944
443.33	16.304
443.68	15.901
444.03	16.105
444.39	15.239
444.74	16.017
445.09	15.580
445.44	16.074
445.79	15.487
446.15	16.358
446.50	16.209
446.85	16.033
447.20	15.757
447.55	16.304
447.91	16.161
448.26	15.693
448.61	15.546
448.96	16.611
449.31	15.861
449.66	16.207
450.02	15.877
450.37	15.760
450.72	16.808
451.07	15.661
451.42	15.258
451.77	16.148
452.12	16.628
452.47	17.226
452.83	15.676
453.18	17.176
453.53	17.192
453.88	15.771
454.23	16.378
454.58	16.778
454.93	17.355
455.28	16.708
455.63	15.959
455.98	17.143
456.34	17.023
456.69	16.907
457.04	17.214
457.39	16.598
457.74	16.019
458.09	16.504
458.44	16.192
458.79	15.781
459.14	17.043
459.49	17.396
459.84	15.900
460.19	16.853
460.54	16.030
460.89	16.840
461.24	17.001
461.59	18.187
461.94	16.831
462.29	16.855
462.64	17.294
462.99	16.135
463.34	17.267
463.69	17.136
464.04	16.290
464.39	16.928
464.74	17.172
465.09	17.129
465.44	16.731
465.79	15.436
466.14	16.201
466.49	16.129
466.84	16.521
467.19	17.260
467.54	17.000
467.89	16.747
468.24	17.277
468.59	17.643
468.94	16.921
469.29	17.095
469.64	17.269
469.99	17.050
470.34	17.305
470.68	17.672
471.03	17.007
471.38	17.651
471.73	17.522
472.08	16.908
472.43	17.085
472.78	17.577
473.13	16.752
473.48	17.790
473.83	17.256
474.17	16.864
474.52	18.176
474.87	17.396
475.22	16.135
475.57	17.249
475.92	16.835
476.27	16.855
476.61	16.823
476.96	15.778
477.31	17.268
477.66	16.357
478.01	16.675
478.36	16.605
478.70	16.303
479.05	16.347
479.40	16.837
479.75	15.608
480.10	16.899
480.45	15.945
480.79	15.480
481.14	17.025
481.49	16.659
481.84	15.821
482.19	16.629
482.53	16.606
482.88	16.752
483.23	15.794
483.58	16.288
483.92	16.542
484.27	15.425
484.62	16.164
484.97	15.688
485.31	16.096
485.66	15.093
486.01	14.149
486.36	13.261
486.70	12.994
487.05	13.915
487.40	14.147
487.75	14.814
488.09	15.256
488.44	15.811
488.79	16.275
489.13	15.852
489.48	15.946
489.83	15.839
490.17	16.396
490.52	16.430
490.87	16.554
491.22	16.280
491.56	15.763
491.91	16.752
492.26	15.664
492.60	16.313
492.95	15.903
493.30	16.495
493.64	16.706
493.99	15.877
494.34	17.114
494.68	16.987
495.03	16.964
495.37	16.333
495.72	17.057
496.07	16.984
496.41	16.549
496.76	15.963
497.11	16.119
497.45	16.488
497.80	16.267
498.14	16.377
498.49	16.634
498.84	16.299
499.18	16.667
499.53	16.572
499.87	17.008
500.22	16.863
500.56	16.796
500.91	16.779
501.26	16.169
501.60	16.754
501.95	17.003
502.29	16.448
502.64	16.667
502.98	16.643
503.33	16.316
503.67	16.473
504.02	16.838
504.36	17.080
504.71	16.756
505.06	16.916
505.40	16.334
505.75	16.345
506.09	16.861
506.44	16.823
506.78	16.756
507.13	17.314
507.47	17.172
507.82	17.275
508.16	16.464
508.51	17.301
508.85	16.733
509.19	16.378
509.54	17.041
509.88	17.053
510.23	17.172
510.57	17.957
510.92	16.675
511.26	17.112
511.61	17.272
511.95	17.276
512.30	17.497
512.64	18.323
512.98	17.792
513.33	17.773
513.67	17.343
514.02	16.775
514.36	17.149
514.70	16.657
515.05	16.509
515.39	17.443
515.74	18.300
516.08	17.440
516.42	18.147
516.77	18.450
517.11	16.981
517.46	18.115
517.80	18.409
518.14	17.371
518.49	17.620
518.83	17.557
519.17	17.321
519.52	18.110
519.86	17.684
520.20	18.266
520.55	19.031
520.89	18.674
521.23	18.637
521.58	18.607
521.92	18.677
522.26	17.938
522.61	18.318
522.95	17.986
523.29	18.807
523.64	18.780
523.98	18.546
524.32	18.154
524.66	19.122
525.01	18.444
525.35	18.340
525.69	17.488
526.04	18.629
526.38	18.548
526.72	18.282
527.06	18.079
527.41	17.574
527.75	18.457
528.09	18.690
528.43	18.674
528.78	18.808
529.12	17.697
529.46	18.494
529.80	18.812
530.15	19.315
530.49	17.908
530.83	18.608
531.17	19.648
531.51	19.455
531.86	18.581
532.20	20.078
532.54	19.795
532.88	19.063
533.22	18.863
533.57	18.272
533.91	18.302
534.25	18.408
534.59	18.243
534.93	18.560
535.27	18.105
535.62	18.437
535.96	18.895
536.30	17.610
536.64	18.995
536.98	19.044
537.32	17.907
537.66	19.000
538.01	18.565
538.35	19.392
538.69	18.698
539.03	18.908
539.37	18.339
539.71	17.304
540.05	18.431
540.39	18.472
540.73	19.146
541.07	19.079
541.42	18.004
541.76	19.548
542.10	19.146
542.44	18.344
542.78	19.763
543.12	17.914
543.46	19.016
543.80	18.543
544.14	17.715
544.48	18.730
544.82	17.960
545.16	18.217
545.50	17.995
545.84	18.212
546.18	18.855
546.52	19.202
546.86	18.351
547.20	18.881
547.54	19.372
547.88	19.452
548.22	18.991
548.56	18.679
548.90	18.182
549.24	18.519
549.58	19.577
549.92	18.887
550.26	19.744
550.60	18.811
550.94	18.239
551.28	18.654
551.62	19.051
551.96	17.895
552.30	19.249
552.64	19.067
552.98	19.458
553.32	18.678
553.66	19.018
554.00	19.355
554.34	17.874
554.68	18.884
555.02	19.041
555.36	18.789
555.69	18.945
556.03	18.573
556.37	18.554
556.71	18.963
557.05	19.118
557.39	18.195
557.73	19.054
558.07	18.999
558.41	18.090
558.75	19.251
559.08	19.165
559.42	18.972
559.76	18.750
560.10	18.915
560.44	18.239
560.78	18.696
561.12	17.744
561.45	18.774
561.79	19.051
562.13	18.243
562.47	19.262
562.81	18.271
563.15	18.796
563.48	18.767
563.82	17.352
564.16	17.986
564.50	17.643
564.84	18.142
565.17	18.275
565.51	18.530
565.85	19.162
566.19	17.533
566.52	18.303
566.86	17.300
567.20	18.219
567.54	17.295
567.88	15.970
568.21	17.460
568.55	17.796
568.89	16.780
569.23	16.266
569.56	15.911
569.90	16.302
570.24	15.501
570.57	15.267
570.91	14.964
571.25	15.102
571.59	15.022
571.92	14.747
572.26	14.529
572.60	14.985
572.93	14.933
573.27	15.232
573.61	14.852
573.95	14.729
574.28	14.673
574.62	14.674
574.96	14.385
575.29	14.282
575.63	14.533
575.97	14.658
576.30	14.604
576.64	14.354
576.98	14.682
577.31	14.302
577.65	13.855
577.98	14.174
578.32	13.880
578.66	14.172
578.99	14.175
579.33	14.331
579.67	14.133
580.00	14.601
580.34	14.333
580.67	14.536
581.01	14.527
581.35	13.950
581.68	14.209
582.02	13.609
582.35	13.382
582.69	13.815
583.02	14.103
583.36	14.480
583.70	14.635
584.03	14.681
584.37	15.178
584.70	15.152
585.04	14.628
585.37	14.818
585.71	14.732
586.04	14.520
586.38	14.525
586.72	15.023
587.05	14.860
587.39	14.274
587.72	14.738
588.06	14.514
588.39	14.733
588.73	15.136
589.06	15.207
589.40	15.253
589.73	15.558
590.07	15.516
590.40	15.345
590.73	16.198
591.07	16.443
591.40	16.322
591.74	16.407
592.07	16.143
592.41	16.205
592.74	15.243
593.08	14.857
593.41	15.375
593.75	15.053
594.08	15.052
594.41	15.659
594.75	15.342
595.08	15.390
595.42	15.377
595.75	15.705
596.09	15.997
596.42	16.189
596.75	16.758
597.09	16.883
597.42	15.767
597.75	15.696
598.09	16.217
598.42	16.022
598.76	15.890
599.09	14.747
599.42	15.284
599.76	15.813
600.09	15.155
600.42	15.559
600.76	15.250
601.09	15.118
601.42	15.944
601.76	15.522
602.09	15.889
602.42	16.242
602.76	15.961
603.09	15.736
603.42	15.892
603.76	15.739
604.09	15.471
604.42	15.491
604.76	16.702
605.09	16.514
605.42	16.032
605.75	15.977
606.09	15.128
606.42	15.529
606.75	15.968
607.09	16.325
607.42	16.260
607.75	15.021
608.08	15.588
608.42	16.629
608.75	16.276
609.08	16.327
609.41	16.611
609.75	16.532
610.08	16.400
610.41	15.642
610.74	15.799
611.07	16.304
611.41	16.045
611.74	16.792
612.07	16.356
612.40	16.527
612.73	16.684
613.07	17.080
613.40	15.745
613.73	16.413
614.06	16.720
614.39	16.151
614.72	17.316
615.06	16.334
615.39	15.711
615.72	16.513
616.05	16.215
616.38	16.342
616.71	17.458
617.05	17.020
617.38	17.017
617.71	17.357
618.04	17.127
618.37	17.090
618.70	17.548
619.03	18.026
619.36	17.651
619.69	18.310
620.03	18.269
620.36	18.182
620.69	17.534
621.02	19.174
621.35	18.559
621.68	18.614
622.01	18.885
622.34	18.381
622.67	18.859
623.00	17.902
623.33	18.513
623.66	18.299
623.99	18.189
624.32	17.689
624.65	17.514
624.99	17.776
625.32	17.668
625.65	17.506
625.98	19.447
626.31	18.274
626.64	18.531
626.97	18.454
627.30	18.953
627.63	18.868
627.96	18.167
628.29	20.910
628.62	19.213
628.95	20.000
629.28	20.620
629.61	20.440
629.94	19.810
630.26	18.970
630.59	19.161
630.92	20.115
631.25	19.743
