SpectraSuite Data File
++++++++++++++++++++++++++++++++++++
Date: Wed May 13 16:38:29 PDT 2015
User: schluterlab
Dark Spectrum Present: Yes
Reference Spectrum Present: Yes
Number of Sampled Component Spectra: 1
Spectrometers: USB2E3373
Integration Time (usec): 3000 (USB2E3373)
Spectra Averaged: 3 (USB2E3373)
Boxcar Smoothing: 0 (USB2E3373)
Correct for Electrical Dark: No (USB2E3373)
Strobe/Lamp Enabled: No (USB2E3373)
Correct for Detector Non-linearity: No (USB2E3373)
Correct for Stray Light: No (USB2E3373)
Number of Pixels in Processed Spectrum: 2048
>>>>>Begin Processed Spectral Data<<<<<
178.53	0.000
178.91	-1600.000
179.29	-1325.000
179.67	-222.222
180.04	-1325.000
180.42	2800.000
180.80	980.000
181.18	-975.000
181.56	728.571
181.94	0.000
182.31	-585.714
182.69	1700.000
183.07	-487.500
183.45	-455.556
183.83	618.182
184.20	-420.000
184.58	2650.000
184.96	5700.000
185.34	-1120.000
185.72	-637.500
186.09	-2150.000
186.47	2300.000
186.85	2550.000
187.23	5400.000
187.61	-1666.667
187.98	1525.000
188.36	554.545
188.74	518.182
189.12	-880.000
189.49	600.000
189.87	-5600.000
190.25	-1350.000
190.63	442.857
191.00	315.385
191.38	800.000
191.76	-1100.000
192.14	1325.000
192.51	562.500
192.89	816.667
193.27	687.500
193.65	-1025.000
194.02	520.000
194.40	960.000
194.78	550.000
195.15	600.000
195.53	700.000
195.91	-1950.000
196.29	368.750
196.66	363.158
197.04	-350.000
197.42	0.000
197.79	640.000
198.17	-4900.000
198.55	728.571
198.92	837.500
199.30	920.000
199.68	0.000
200.05	366.667
200.43	814.286
200.81	4100.000
201.18	1633.333
201.56	-1866.667
201.94	611.111
202.31	655.556
202.69	383.333
203.07	510.000
203.44	0.000
203.82	1175.000
204.19	828.571
204.57	478.571
204.95	637.500
205.32	1400.000
205.70	554.545
206.08	378.571
206.45	2700.000
206.83	406.250
207.20	1000.000
207.58	900.000
207.96	300.000
208.33	675.000
208.71	-883.333
209.08	728.571
209.46	566.667
209.84	427.273
210.21	-1533.333
210.59	1500.000
210.96	-412.500
211.34	2150.000
211.71	610.000
212.09	850.000
212.46	0.000
212.84	1533.333
213.22	1450.000
213.59	-5200.000
213.97	966.667
214.34	871.429
214.72	554.545
215.09	1040.000
215.47	-1850.000
215.84	-2550.000
216.22	1700.000
216.59	350.000
216.97	1400.000
217.34	500.000
217.72	-800.000
218.09	0.000
218.47	-5500.000
218.84	666.667
219.22	785.714
219.59	1666.667
219.97	-685.714
220.34	1000.000
220.72	-1633.333
221.09	485.714
221.47	1425.000
221.84	-883.333
222.22	0.000
222.59	1225.000
222.97	-2950.000
223.34	1260.000
223.72	446.154
224.09	1160.000
224.46	2100.000
224.84	-5600.000
225.21	-1020.000
225.59	-5200.000
225.96	640.000
226.34	325.000
226.71	2800.000
227.08	662.500
227.46	580.000
227.83	-875.000
228.21	-2250.000
228.58	655.556
228.95	-2300.000
229.33	-1950.000
229.70	1666.667
230.08	771.429
230.45	-920.000
230.82	458.333
231.20	816.667
231.57	771.429
231.95	475.000
232.32	250.000
232.69	481.818
233.07	814.286
233.44	384.615
233.81	-1866.667
234.19	315.789
234.56	408.333
234.93	441.667
235.31	490.909
235.68	438.462
236.05	400.000
236.43	181.818
236.80	284.211
237.17	5200.000
237.55	233.333
237.92	203.571
238.29	247.619
238.67	180.645
239.04	206.897
239.41	177.778
239.79	139.130
240.16	152.381
240.53	143.182
240.91	109.804
241.28	126.000
241.65	102.000
242.02	95.652
242.40	96.774
242.77	113.333
243.14	89.247
243.51	101.124
243.89	100.000
244.26	81.111
244.63	89.247
245.00	75.532
245.38	73.267
245.75	71.963
246.12	64.220
246.49	77.372
246.87	82.400
247.24	73.077
247.61	69.286
247.98	62.092
248.36	64.189
248.73	62.420
249.10	58.599
249.47	52.542
249.84	59.893
250.22	52.941
250.59	56.213
250.96	53.535
251.33	54.976
251.70	56.931
252.08	53.810
252.45	47.982
252.82	52.609
253.19	49.787
253.56	46.275
253.94	51.867
254.31	50.781
254.68	49.231
255.05	52.030
255.42	48.374
255.79	47.426
256.16	49.458
256.54	43.463
256.91	49.466
257.28	40.647
257.65	46.865
258.02	45.963
258.39	47.634
258.76	44.482
259.14	44.940
259.51	46.809
259.88	42.547
260.25	46.828
260.62	43.931
260.99	41.304
261.36	45.045
261.73	43.266
262.10	41.570
262.47	43.662
262.85	41.226
263.22	39.601
263.59	46.154
263.96	38.736
264.33	43.342
264.70	42.895
265.07	42.967
265.44	40.152
265.81	39.659
266.18	42.211
266.55	41.707
266.92	39.803
267.29	40.278
267.66	38.761
268.03	38.864
268.40	41.589
268.77	36.993
269.14	40.090
269.51	38.600
269.88	40.793
270.25	37.923
270.62	41.124
270.99	40.000
271.36	39.914
271.73	40.187
272.10	35.217
272.47	38.495
272.84	38.961
273.21	38.365
273.58	36.463
273.95	34.172
274.32	36.570
274.69	38.330
275.06	37.402
275.43	39.149
275.80	38.677
276.17	36.456
276.54	36.590
276.91	38.538
277.28	36.133
277.65	36.557
278.02	35.404
278.39	38.086
278.76	35.273
279.13	37.547
279.50	35.754
279.87	37.052
280.23	36.926
280.60	35.590
280.97	35.120
281.34	36.637
281.71	36.727
282.08	37.812
282.45	35.636
282.82	35.346
283.19	33.155
283.56	36.316
283.92	35.702
284.29	34.744
284.66	35.753
285.03	34.720
285.40	35.387
285.77	35.522
286.14	31.952
286.51	35.500
286.87	32.821
287.24	37.622
287.61	33.547
287.98	32.468
288.35	32.805
288.72	34.268
289.08	33.490
289.45	32.290
289.82	32.358
290.19	31.240
290.56	33.231
290.93	31.571
291.29	32.822
291.66	30.826
292.03	31.977
292.40	32.452
292.77	30.769
293.13	31.045
293.50	31.341
293.87	31.259
294.24	30.370
294.60	30.859
294.97	29.797
295.34	30.183
295.71	31.676
296.08	29.202
296.44	30.399
296.81	30.251
297.18	31.978
297.55	28.496
297.91	30.739
298.28	30.254
298.65	31.201
299.02	30.567
299.38	30.677
299.75	29.111
300.12	27.969
300.48	28.750
300.85	27.497
301.22	30.573
301.59	27.778
301.95	30.101
302.32	31.065
302.69	30.227
303.05	30.303
303.42	29.383
303.79	27.973
304.15	28.671
304.52	28.389
304.89	27.991
305.25	27.146
305.62	28.879
305.99	30.224
306.35	29.754
306.72	28.812
307.09	30.078
307.45	29.955
307.82	27.790
308.19	29.029
308.55	29.234
308.92	29.860
309.29	28.933
309.65	29.905
310.02	28.964
310.38	30.000
310.75	30.834
311.12	29.990
311.48	30.721
311.85	30.608
312.22	30.385
312.58	31.185
312.95	31.890
313.31	28.932
313.68	31.185
314.05	32.643
314.41	31.055
314.78	30.715
315.14	31.778
315.51	31.823
315.87	33.069
316.24	31.579
316.61	31.969
316.97	33.268
317.34	33.072
317.70	33.939
318.07	34.552
318.43	34.834
318.80	34.958
319.16	33.710
319.53	33.490
319.89	35.714
320.26	35.900
320.62	35.317
320.99	37.071
321.35	35.960
321.72	37.372
322.08	37.315
322.45	39.303
322.81	38.857
323.18	39.017
323.54	38.683
323.91	40.283
324.27	40.440
324.64	39.795
325.00	41.298
325.37	42.766
325.73	44.794
326.10	43.689
326.46	44.265
326.83	45.384
327.19	44.663
327.56	45.732
327.92	46.019
328.29	47.205
328.65	47.514
329.01	45.307
329.38	47.271
329.74	47.553
330.11	48.256
330.47	49.311
330.84	48.897
331.20	48.452
331.56	47.064
331.93	48.426
332.29	48.181
332.66	46.460
333.02	47.623
333.38	48.419
333.75	48.841
334.11	50.623
334.48	49.601
334.84	51.471
335.20	49.545
335.57	48.504
335.93	47.946
336.29	51.374
336.66	49.594
337.02	48.869
337.38	50.185
337.75	49.376
338.11	50.492
338.47	50.184
338.84	50.137
339.20	49.358
339.56	50.547
339.93	50.091
340.29	50.000
340.65	49.733
341.02	49.651
341.38	50.712
341.74	50.000
342.11	50.568
342.47	50.749
342.83	50.599
343.20	51.342
343.56	50.126
343.92	50.877
344.28	50.085
344.65	50.559
345.01	49.158
345.37	49.914
345.73	51.100
346.10	51.066
346.46	50.593
346.82	50.659
347.19	50.543
347.55	48.358
347.91	50.485
348.27	49.795
348.63	52.592
349.00	50.728
349.36	50.903
349.72	49.479
350.08	50.162
350.45	53.377
350.81	51.015
351.17	50.000
351.53	49.959
351.89	51.320
352.26	49.803
352.62	51.083
352.98	51.702
353.34	50.534
353.70	50.491
354.07	49.919
354.43	51.032
354.79	49.960
355.15	51.397
355.51	52.758
355.87	52.571
356.24	50.081
356.60	50.361
356.96	51.971
357.32	51.594
357.68	53.307
358.04	49.565
358.40	52.098
358.77	51.643
359.13	50.829
359.49	51.137
359.85	51.349
360.21	53.509
360.57	53.619
360.93	52.923
361.29	52.457
361.66	50.851
362.02	53.582
362.38	52.548
362.74	52.455
363.10	51.962
363.46	52.971
363.82	53.590
364.18	53.010
364.54	53.789
364.90	51.771
365.26	53.971
365.62	53.689
365.98	53.178
366.35	51.862
366.71	54.302
367.07	54.261
367.43	53.774
367.79	53.034
368.15	54.454
368.51	53.052
368.87	54.390
369.23	54.353
369.59	54.960
369.95	54.044
370.31	53.917
370.67	52.464
371.03	54.906
371.39	54.155
371.75	55.147
372.11	54.054
372.47	55.718
372.83	55.043
373.19	53.179
373.55	56.245
373.91	57.658
374.27	54.227
374.63	55.345
374.99	55.791
375.35	54.990
375.71	55.449
376.07	56.036
376.42	55.502
376.78	56.064
377.14	55.427
377.50	57.550
377.86	56.316
378.22	56.764
378.58	55.639
378.94	56.065
379.30	56.298
379.66	57.170
380.02	56.634
380.38	54.766
380.74	57.143
381.09	57.274
381.45	56.238
381.81	57.187
382.17	56.688
382.53	56.855
382.89	56.852
383.25	57.598
383.61	57.497
383.97	57.974
384.32	57.268
384.68	56.629
385.04	57.591
385.40	57.214
385.76	57.187
386.12	57.966
386.48	57.772
386.83	59.718
387.19	59.246
387.55	57.205
387.91	57.618
388.27	57.388
388.62	58.820
388.98	57.862
389.34	56.571
389.70	56.714
390.06	58.555
390.42	58.042
390.77	56.870
391.13	58.264
391.49	58.122
391.85	58.052
392.20	56.467
392.56	57.513
392.92	56.975
393.28	56.331
393.64	56.115
393.99	56.017
394.35	56.700
394.71	56.023
395.07	55.265
395.42	57.602
395.78	56.489
396.14	55.245
396.50	57.581
396.85	58.169
397.21	55.117
397.57	56.355
397.92	56.911
398.28	54.765
398.64	55.914
399.00	55.456
399.35	54.089
399.71	55.729
400.07	54.583
400.42	55.092
400.78	55.066
401.14	55.061
401.49	54.985
401.85	54.325
402.21	53.653
402.57	52.745
402.92	54.666
403.28	54.341
403.63	54.455
403.99	55.159
404.35	53.697
404.70	53.717
405.06	52.533
405.42	54.835
405.77	52.514
406.13	52.314
406.49	53.341
406.84	52.333
407.20	53.842
407.55	54.116
407.91	54.067
408.27	53.797
408.62	52.679
408.98	52.512
409.34	53.752
409.69	52.968
410.05	54.027
410.40	51.376
410.76	51.673
411.11	51.870
411.47	51.118
411.83	52.596
412.18	52.443
412.54	51.930
412.89	51.627
413.25	51.653
413.60	52.934
413.96	50.880
414.31	52.309
414.67	51.331
415.03	52.583
415.38	51.740
415.74	50.804
416.09	52.841
416.45	51.539
416.80	52.809
417.16	52.614
417.51	53.683
417.87	52.216
418.22	52.871
418.58	51.453
418.93	52.088
419.29	51.878
419.64	53.149
420.00	52.378
420.35	52.812
420.71	53.377
421.06	52.327
421.42	52.105
421.77	51.962
422.12	52.667
422.48	52.402
422.83	53.698
423.19	52.762
423.54	52.989
423.90	53.739
424.25	52.429
424.61	52.798
424.96	54.519
425.31	52.436
425.67	51.910
426.02	52.571
426.38	54.823
426.73	54.242
427.09	52.888
427.44	54.399
427.79	53.191
428.15	54.583
428.50	53.833
428.85	54.350
429.21	53.838
429.56	54.640
429.92	53.850
430.27	53.873
430.62	53.763
430.98	54.229
431.33	52.887
431.68	53.508
432.04	53.088
432.39	54.369
432.74	54.578
433.10	54.443
433.45	55.510
433.80	55.044
434.16	54.434
434.51	55.211
434.86	54.960
435.22	54.753
435.57	55.866
435.92	55.881
436.28	56.168
436.63	54.194
436.98	54.551
437.34	56.052
437.69	56.534
438.04	55.143
438.39	55.701
438.75	55.317
439.10	56.034
439.45	55.608
439.81	55.831
440.16	55.449
440.51	55.185
440.86	55.530
441.22	55.840
441.57	55.998
441.92	55.322
442.27	55.328
442.63	54.818
442.98	56.169
443.33	55.707
443.68	54.930
444.03	56.467
444.39	55.112
444.74	55.465
445.09	55.256
445.44	55.331
445.79	54.280
446.15	54.844
446.50	54.820
446.85	55.087
447.20	54.105
447.55	56.784
447.91	55.764
448.26	55.760
448.61	55.907
448.96	55.759
449.31	56.468
449.66	54.811
450.02	54.485
450.37	55.952
450.72	55.725
451.07	55.210
451.42	54.833
451.77	55.255
452.12	54.503
452.47	53.918
452.83	55.478
453.18	53.729
453.53	55.597
453.88	55.346
454.23	55.947
454.58	56.390
454.93	55.499
455.28	55.050
455.63	55.583
455.98	55.119
456.34	54.837
456.69	55.354
457.04	55.975
457.39	54.004
457.74	55.601
458.09	54.744
458.44	55.701
458.79	53.362
459.14	54.740
459.49	54.583
459.84	54.017
460.19	55.156
460.54	53.299
460.89	54.745
461.24	55.859
461.59	54.736
461.94	54.624
462.29	54.421
462.64	53.989
462.99	53.155
463.34	55.667
463.69	54.597
464.04	53.217
464.39	52.812
464.74	52.585
465.09	52.835
465.44	52.521
465.79	53.412
466.14	52.764
466.49	51.168
466.84	53.065
467.19	52.505
467.54	54.312
467.89	52.581
468.24	52.182
468.59	52.930
468.94	52.596
469.29	54.434
469.64	54.016
469.99	53.857
470.34	53.038
470.68	53.520
471.03	52.857
471.38	53.440
471.73	51.965
472.08	53.882
472.43	51.570
472.78	52.995
473.13	52.760
473.48	52.434
473.83	52.500
474.17	52.645
474.52	51.489
474.87	52.656
475.22	52.989
475.57	51.263
475.92	51.142
476.27	50.902
476.61	51.351
476.96	51.842
477.31	50.131
477.66	52.243
478.01	51.228
478.36	51.930
478.70	50.363
479.05	51.810
479.40	50.563
479.75	51.195
480.10	50.447
480.45	49.833
480.79	49.403
481.14	50.489
481.49	51.210
481.84	49.383
482.19	50.114
482.53	49.495
482.88	49.837
483.23	50.421
483.58	49.773
483.92	50.141
484.27	48.715
484.62	48.836
484.97	49.153
485.31	51.370
485.66	50.320
486.01	48.324
486.36	45.875
486.70	44.381
487.05	45.309
487.40	46.016
487.75	46.522
488.09	47.225
488.44	46.664
488.79	48.825
489.13	48.319
489.48	48.736
489.83	48.425
490.17	48.575
490.52	48.494
490.87	48.847
491.22	48.522
491.56	47.335
491.91	47.324
492.26	47.956
492.60	47.788
492.95	46.819
493.30	47.243
493.64	47.783
493.99	46.611
494.34	47.132
494.68	48.260
495.03	47.979
495.37	47.324
495.72	48.148
496.07	48.028
496.41	45.442
496.76	47.010
497.11	46.150
497.45	47.136
497.80	46.593
498.14	46.473
498.49	46.878
498.84	47.507
499.18	46.333
499.53	46.296
499.87	46.552
500.22	46.161
500.56	45.631
500.91	45.529
501.26	46.847
501.60	47.129
501.95	45.921
502.29	46.204
502.64	46.136
502.98	46.283
503.33	45.384
503.67	46.125
504.02	45.416
504.36	45.344
504.71	45.188
505.06	45.687
505.40	45.989
505.75	44.359
506.09	44.704
506.44	46.325
506.78	45.494
507.13	45.280
507.47	45.808
507.82	46.049
508.16	46.251
508.51	46.169
508.85	45.084
509.19	45.969
509.54	45.102
509.88	44.977
510.23	45.347
510.57	46.594
510.92	45.262
511.26	44.142
511.61	45.280
511.95	44.415
512.30	44.539
512.64	45.083
512.98	44.909
513.33	45.717
513.67	44.130
514.02	44.589
514.36	46.040
514.70	44.660
515.05	44.785
515.39	44.420
515.74	44.651
516.08	44.494
516.42	45.228
516.77	45.318
517.11	44.284
517.46	44.752
517.80	45.877
518.14	43.775
518.49	44.632
518.83	43.523
519.17	44.111
519.52	43.577
519.86	43.639
520.20	44.277
520.55	45.123
520.89	45.134
521.23	44.150
521.58	45.498
521.92	44.029
522.26	43.624
522.61	44.673
522.95	44.629
523.29	43.579
523.64	44.329
523.98	44.670
524.32	44.029
524.66	43.416
525.01	43.627
525.35	43.928
525.69	42.857
526.04	43.240
526.38	43.258
526.72	42.454
527.06	43.252
527.41	43.131
527.75	44.180
528.09	43.610
528.43	43.977
528.78	43.823
529.12	43.091
529.46	43.417
529.80	43.441
530.15	42.928
530.49	41.046
530.83	43.101
531.17	43.603
531.51	43.126
531.86	42.774
532.20	43.807
532.54	41.832
532.88	42.747
533.22	41.974
533.57	41.914
533.91	42.023
534.25	41.434
534.59	41.367
534.93	40.988
535.27	41.400
535.62	41.453
535.96	43.126
536.30	41.767
536.64	40.824
536.98	42.070
537.32	41.409
537.66	42.867
538.01	42.001
538.35	42.211
538.69	43.012
539.03	40.221
539.37	40.256
539.71	40.441
540.05	40.915
540.39	42.591
540.73	40.362
541.07	41.077
541.42	40.574
541.76	41.484
542.10	41.138
542.44	41.854
542.78	42.227
543.12	40.051
543.46	41.311
543.80	41.314
544.14	41.207
544.48	42.286
544.82	40.667
545.16	41.444
545.50	40.810
545.84	40.927
546.18	40.606
546.52	40.124
546.86	40.825
547.20	41.672
547.54	40.681
547.88	41.327
548.22	40.224
548.56	40.818
548.90	40.013
549.24	40.067
549.58	40.655
549.92	40.797
550.26	41.264
550.60	39.281
550.94	41.127
551.28	39.503
551.62	41.050
551.96	40.772
552.30	41.365
552.64	41.515
552.98	39.661
553.32	39.919
553.66	41.104
554.00	41.181
554.34	39.476
554.68	41.059
555.02	40.480
555.36	40.014
555.69	39.107
556.03	40.310
556.37	39.291
556.71	38.745
557.05	40.616
557.39	39.888
557.73	39.238
558.07	40.609
558.41	40.014
558.75	39.824
559.08	39.374
559.42	41.572
559.76	40.809
560.10	38.258
560.44	38.365
560.78	37.791
561.12	40.106
561.45	40.091
561.79	37.772
562.13	38.900
562.47	38.525
562.81	39.331
563.15	37.659
563.48	38.329
563.82	38.943
564.16	39.176
564.50	38.867
564.84	37.927
565.17	38.932
565.51	39.042
565.85	38.452
566.19	37.570
566.52	38.569
566.86	37.312
567.20	39.151
567.54	37.900
567.88	37.425
568.21	38.095
568.55	36.603
568.89	36.479
569.23	36.720
569.56	36.397
569.90	35.925
570.24	34.840
570.57	35.192
570.91	35.165
571.25	34.682
571.59	34.433
571.92	34.274
572.26	34.633
572.60	34.535
572.93	33.703
573.27	34.516
573.61	34.645
573.95	34.729
574.28	33.744
574.62	33.431
574.96	33.238
575.29	33.220
575.63	33.714
575.97	33.403
576.30	34.148
576.64	33.434
576.98	33.593
577.31	33.018
577.65	33.333
577.98	33.092
578.32	32.685
578.66	32.851
578.99	32.618
579.33	33.430
579.67	33.033
580.00	33.014
580.34	33.721
580.67	33.349
581.01	33.686
581.35	33.054
581.68	33.271
582.02	31.905
582.35	32.875
582.69	32.291
583.02	32.182
583.36	32.903
583.70	32.892
584.03	33.777
584.37	34.018
584.70	33.516
585.04	33.072
585.37	33.178
585.71	32.848
586.04	33.027
586.38	33.177
586.72	33.886
587.05	33.089
587.39	32.876
587.72	33.419
588.06	33.485
588.39	33.114
588.73	32.942
589.06	33.687
589.40	34.141
589.73	34.530
590.07	33.345
590.40	33.760
590.73	35.324
591.07	35.043
591.40	34.795
591.74	34.892
592.07	34.948
592.41	34.353
592.74	33.820
593.08	33.977
593.41	33.344
593.75	32.480
594.08	32.752
594.41	34.217
594.75	33.974
595.08	32.999
595.42	33.870
595.75	33.298
596.09	33.759
596.42	34.499
596.75	33.854
597.09	34.892
597.42	33.938
597.75	34.756
598.09	33.261
598.42	33.763
598.76	33.320
599.09	32.535
599.42	32.824
599.76	33.346
600.09	33.479
600.42	32.907
600.76	32.643
601.09	32.787
601.42	33.181
601.76	32.638
602.09	32.688
602.42	33.320
602.76	34.663
603.09	33.635
603.42	33.503
603.76	33.155
604.09	32.571
604.42	33.306
604.76	33.615
605.09	33.246
605.42	33.305
605.75	33.899
606.09	33.103
606.42	33.388
606.75	32.684
607.09	32.817
607.42	32.649
607.75	32.785
608.08	32.696
608.42	32.990
608.75	32.867
609.08	32.192
609.41	33.413
609.75	32.158
610.08	33.035
610.41	32.821
610.74	33.586
611.07	33.745
611.41	33.562
611.74	34.842
612.07	33.799
612.40	34.260
612.73	34.053
613.07	33.351
613.40	34.281
613.73	33.193
614.06	33.172
614.39	33.351
614.72	34.158
615.06	33.141
615.39	33.493
615.72	33.027
616.05	32.855
616.38	33.908
616.71	33.789
617.05	34.335
617.38	33.674
617.71	34.114
618.04	34.495
618.37	34.122
618.70	33.603
619.03	34.079
619.36	34.759
619.69	33.521
620.03	34.547
620.36	35.027
620.69	34.795
621.02	35.398
621.35	35.161
621.68	34.969
622.01	35.139
622.34	35.477
622.67	34.068
623.00	33.749
623.33	33.738
623.66	34.739
623.99	35.052
624.32	33.666
624.65	33.545
624.99	34.207
625.32	34.178
625.65	35.011
625.98	35.434
626.31	35.381
626.64	35.020
626.97	36.492
627.30	35.245
627.63	35.849
627.96	35.492
628.29	36.133
628.62	36.688
628.95	37.736
629.28	36.588
629.61	36.847
629.94	37.524
630.26	36.130
630.59	34.986
630.92	35.153
