SpectraSuite Data File
++++++++++++++++++++++++++++++++++++
Date: Wed May 13 16:15:37 PDT 2015
User: schluterlab
Dark Spectrum Present: Yes
Reference Spectrum Present: Yes
Number of Sampled Component Spectra: 1
Spectrometers: USB2E3373
Integration Time (usec): 3000 (USB2E3373)
Spectra Averaged: 3 (USB2E3373)
Boxcar Smoothing: 0 (USB2E3373)
Correct for Electrical Dark: No (USB2E3373)
Strobe/Lamp Enabled: No (USB2E3373)
Correct for Detector Non-linearity: No (USB2E3373)
Correct for Stray Light: No (USB2E3373)
Number of Pixels in Processed Spectrum: 2048
>>>>>Begin Processed Spectral Data<<<<<
178.53	0.000
178.91	-975.000
179.29	-825.000
179.67	-183.333
180.04	-1075.000
180.42	2000.000
180.80	880.000
181.18	-900.000
181.56	471.429
181.94	0.000
182.31	-628.571
182.69	1433.333
183.07	-350.000
183.45	-366.667
183.83	372.727
184.20	-310.000
184.58	1550.000
184.96	4700.000
185.34	-580.000
185.72	-412.500
186.09	-1850.000
186.47	2200.000
186.85	1750.000
187.23	3800.000
187.61	-1500.000
187.98	1050.000
188.36	509.091
188.74	336.364
189.12	-680.000
189.49	460.000
189.87	-4000.000
190.25	-975.000
190.63	350.000
191.00	369.231
191.38	866.667
191.76	-675.000
192.14	1050.000
192.51	450.000
192.89	650.000
193.27	475.000
193.65	-775.000
194.02	510.000
194.40	680.000
194.78	410.000
195.15	508.333
195.53	550.000
195.91	-1450.000
196.29	275.000
196.66	273.684
197.04	-360.000
197.42	0.000
197.79	490.000
198.17	-4700.000
198.55	671.429
198.92	400.000
199.30	560.000
199.68	0.000
200.05	294.444
200.43	685.714
200.81	2500.000
201.18	1566.667
201.56	-1133.333
201.94	533.333
202.31	477.778
202.69	350.000
203.07	530.000
203.44	0.000
203.82	1025.000
204.19	671.429
204.57	350.000
204.95	587.500
205.32	1133.333
205.70	427.273
206.08	300.000
206.45	1800.000
206.83	256.250
207.20	633.333
207.58	800.000
207.96	261.111
208.33	675.000
208.71	-666.667
209.08	742.857
209.46	500.000
209.84	409.091
210.21	-900.000
210.59	1175.000
210.96	-387.500
211.34	2300.000
211.71	390.000
212.09	550.000
212.46	0.000
212.84	1433.333
213.22	1250.000
213.59	-4800.000
213.97	733.333
214.34	828.571
214.72	554.545
215.09	960.000
215.47	-1800.000
215.84	-2500.000
216.22	1366.667
216.59	371.429
216.97	1225.000
217.34	381.818
217.72	-633.333
218.09	0.000
218.47	-3300.000
218.84	422.222
219.22	600.000
219.59	1100.000
219.97	-471.429
220.34	760.000
220.72	-1366.667
221.09	400.000
221.47	1250.000
221.84	-800.000
222.22	0.000
222.59	1125.000
222.97	-2150.000
223.34	840.000
223.72	307.692
224.09	780.000
224.46	2100.000
224.84	-3500.000
225.21	-800.000
225.59	-3700.000
225.96	500.000
226.34	220.000
226.71	2150.000
227.08	550.000
227.46	420.000
227.83	-875.000
228.21	-1550.000
228.58	488.889
228.95	-1700.000
229.33	-1700.000
229.70	1333.333
230.08	671.429
230.45	-640.000
230.82	266.667
231.20	616.667
231.57	600.000
231.95	408.333
232.32	177.273
232.69	327.273
233.07	557.143
233.44	323.077
233.81	-1166.667
234.19	247.368
234.56	400.000
234.93	341.667
235.31	418.182
235.68	284.615
236.05	350.000
236.43	178.788
236.80	242.105
237.17	4500.000
237.55	228.571
237.92	217.857
238.29	223.810
238.67	187.097
239.04	224.138
239.41	172.222
239.79	126.087
240.16	183.333
240.53	161.364
240.91	109.804
241.28	134.000
241.65	156.000
242.02	120.290
242.40	124.194
242.77	131.667
243.14	91.398
243.51	101.124
243.89	96.471
244.26	93.333
244.63	108.602
245.00	101.064
245.38	89.109
245.75	85.047
246.12	88.073
246.49	88.321
246.87	87.200
247.24	82.308
247.61	83.571
247.98	81.046
248.36	81.081
248.73	79.618
249.10	87.898
249.47	72.316
249.84	85.027
250.22	72.727
250.59	76.331
250.96	79.798
251.33	74.408
251.70	78.218
252.08	73.333
252.45	72.197
252.82	70.435
253.19	69.787
253.56	70.980
253.94	71.784
254.31	67.188
254.68	73.462
255.05	73.063
255.42	69.512
255.79	68.015
256.16	75.090
256.54	71.731
256.91	66.548
257.28	66.547
257.65	66.667
258.02	66.770
258.39	67.508
258.76	67.893
259.14	69.048
259.51	65.957
259.88	63.043
260.25	70.997
260.62	66.763
260.99	67.081
261.36	69.069
261.73	67.335
262.10	68.023
262.47	63.662
262.85	64.067
263.22	60.969
263.59	64.387
263.96	60.440
264.33	63.708
264.70	65.526
265.07	65.473
265.44	63.636
265.81	62.044
266.18	63.568
266.55	63.415
266.92	63.636
267.29	62.963
267.66	60.321
268.03	62.045
268.40	62.850
268.77	61.098
269.14	61.036
269.51	62.528
269.88	64.802
270.25	60.948
270.62	61.348
270.99	61.505
271.36	59.227
271.73	60.981
272.10	61.739
272.47	62.796
272.84	59.957
273.21	60.797
273.58	57.424
273.95	58.910
274.32	59.298
274.69	60.600
275.06	57.283
275.43	62.128
275.80	58.717
276.17	57.434
276.54	60.707
276.91	59.091
277.28	56.445
277.65	59.381
278.02	58.799
278.39	58.984
278.76	58.727
279.13	57.170
279.50	57.542
279.87	58.167
280.23	58.683
280.60	58.607
280.97	58.780
281.34	56.814
281.71	58.000
282.08	59.501
282.45	56.545
282.82	57.549
283.19	56.328
283.56	55.439
283.92	56.684
284.29	57.143
284.66	56.080
285.03	52.441
285.40	53.169
285.77	55.556
286.14	55.268
286.51	55.167
286.87	54.872
287.24	54.560
287.61	52.648
287.98	54.221
288.35	49.762
288.72	51.246
289.08	52.582
289.45	52.389
289.82	51.707
290.19	50.706
290.56	51.608
290.93	50.000
291.29	50.767
291.66	48.968
292.03	50.436
292.40	48.605
292.77	47.041
293.13	48.358
293.50	47.085
293.87	47.852
294.24	45.778
294.60	46.870
294.97	45.203
295.34	46.121
295.71	46.875
296.08	45.157
296.44	44.842
296.81	43.065
297.18	47.019
297.55	43.140
297.91	43.668
298.28	45.382
298.65	42.689
299.02	44.137
299.38	44.356
299.75	39.892
300.12	43.040
300.48	44.000
300.85	42.663
301.22	40.637
301.59	43.434
301.95	41.058
302.32	41.977
302.69	40.980
303.05	40.242
303.42	40.741
303.79	39.524
304.15	39.277
304.52	40.209
304.89	39.489
305.25	40.371
305.62	39.524
305.99	40.378
306.35	39.597
306.72	41.256
307.09	37.736
307.45	42.117
307.82	37.500
308.19	39.183
308.55	40.992
308.92	39.420
309.29	37.698
309.65	38.388
310.02	38.055
310.38	39.247
310.75	39.599
311.12	38.588
311.48	40.439
311.85	38.679
312.22	39.230
312.58	37.734
312.95	40.971
313.31	37.184
313.68	40.437
314.05	40.138
314.41	40.000
314.78	40.483
315.14	39.424
315.51	38.929
315.87	39.802
316.24	39.126
316.61	39.181
316.97	39.824
317.34	40.509
317.70	40.535
318.07	39.269
318.43	40.117
318.80	40.394
319.16	40.678
319.53	39.024
319.89	41.143
320.26	41.800
320.62	41.865
320.99	39.394
321.35	40.808
321.72	41.992
322.08	42.547
322.45	43.284
322.81	41.764
323.18	43.545
323.54	41.651
323.91	43.208
324.27	43.786
324.64	42.964
325.00	42.020
325.37	44.950
325.73	44.255
326.10	44.484
326.46	43.817
326.83	45.643
327.19	44.577
327.56	45.383
327.92	45.757
328.29	46.495
328.65	45.672
329.01	44.043
329.38	45.513
329.74	47.184
330.11	46.937
330.47	46.006
330.84	47.059
331.20	46.448
331.56	46.147
331.93	47.963
332.29	46.229
332.66	48.584
333.02	45.795
333.38	48.690
333.75	48.841
334.11	48.043
334.48	47.560
334.84	48.437
335.20	48.091
335.57	46.147
335.93	45.625
336.29	47.894
336.66	48.602
337.02	47.059
337.38	49.537
337.75	47.148
338.11	47.538
338.47	49.263
338.84	47.754
339.20	45.596
339.56	50.730
339.93	48.455
340.29	48.913
340.65	47.237
341.02	48.342
341.38	48.577
341.74	47.193
342.11	49.432
342.47	48.987
342.83	48.031
343.20	48.139
343.56	46.167
343.92	48.684
344.28	48.384
344.65	47.635
345.01	45.875
345.37	46.998
345.73	47.208
346.10	47.229
346.46	46.780
346.82	47.282
347.19	46.951
347.55	46.634
347.91	47.249
348.27	47.987
348.63	47.575
349.00	46.602
349.36	45.977
349.72	47.554
350.08	46.353
350.45	48.902
350.81	47.197
351.17	46.840
351.53	46.355
351.89	46.287
352.26	48.066
352.62	46.993
352.98	46.353
353.34	47.165
353.70	46.890
354.07	47.661
354.43	46.508
354.79	46.661
355.15	46.848
355.51	47.962
355.87	48.327
356.24	47.231
356.60	47.073
356.96	46.500
357.32	48.487
357.68	47.008
358.04	47.902
358.40	47.348
358.77	47.340
359.13	45.383
359.49	47.137
359.85	46.984
360.21	46.411
360.57	49.650
360.93	47.385
361.29	47.090
361.66	47.136
362.02	47.687
362.38	46.692
362.74	48.140
363.10	47.298
363.46	46.442
363.82	47.997
364.18	46.696
364.54	47.177
364.90	48.513
365.26	47.353
365.62	47.626
365.98	47.626
366.35	47.135
366.71	47.650
367.07	47.633
367.43	49.057
367.79	48.965
368.15	48.204
368.51	47.456
368.87	48.894
369.23	49.232
369.59	49.312
369.95	49.632
370.31	49.288
370.67	48.188
371.03	49.513
371.39	48.907
371.75	49.485
372.11	48.293
372.47	50.073
372.83	50.072
373.19	48.410
373.55	49.963
373.91	49.853
374.27	46.942
374.63	50.255
374.99	50.565
375.35	49.546
375.71	50.583
376.07	50.137
376.42	51.032
376.78	50.431
377.14	49.389
377.50	49.470
377.86	50.133
378.22	50.948
378.58	49.373
378.94	51.226
379.30	51.145
379.66	50.825
380.02	50.921
380.38	50.091
380.74	51.981
381.09	50.611
381.45	51.506
381.81	51.290
382.17	52.803
382.53	51.447
382.89	52.222
383.25	53.346
383.61	53.903
383.97	50.782
384.32	51.903
384.68	52.478
385.04	53.042
385.40	52.322
385.76	53.256
386.12	52.461
386.48	53.304
386.83	54.073
387.19	54.731
387.55	54.484
387.91	53.386
388.27	53.403
388.62	53.473
388.98	53.624
389.34	54.756
389.70	54.813
390.06	54.880
390.42	54.994
390.77	55.089
391.13	55.903
391.49	55.964
391.85	54.106
392.20	54.763
392.56	54.987
392.92	55.327
393.28	55.148
393.64	55.815
393.99	54.673
394.35	55.831
394.71	53.764
395.07	54.206
395.42	55.686
395.78	54.453
396.14	55.121
396.50	56.203
396.85	55.245
397.21	55.919
397.57	55.735
397.92	56.671
398.28	55.157
398.64	54.898
399.00	54.337
399.35	56.007
399.71	55.729
400.07	56.535
400.42	57.055
400.78	56.393
401.14	56.585
401.49	56.537
401.85	56.019
402.21	55.329
402.57	55.830
402.92	56.494
403.28	57.527
403.63	56.621
403.99	56.752
404.35	56.485
404.70	56.775
405.06	56.436
405.42	57.580
405.77	55.657
406.13	54.910
406.49	57.008
406.84	56.881
407.20	56.797
407.55	58.264
407.91	59.133
408.27	58.073
408.62	57.014
408.98	57.414
409.34	57.503
409.69	58.065
410.05	57.187
410.40	57.125
410.76	58.363
411.11	57.117
411.47	56.166
411.83	58.033
412.18	57.205
412.54	58.344
412.89	58.855
413.25	56.612
413.60	58.369
413.96	56.588
414.31	57.837
414.67	57.731
415.03	58.344
415.38	58.698
415.74	58.842
416.09	60.483
416.45	58.300
416.80	58.559
417.16	58.981
417.51	59.390
417.87	58.317
418.22	58.423
418.58	57.327
418.93	59.214
419.29	59.007
419.64	59.320
420.00	58.232
420.35	58.203
420.71	59.175
421.06	58.652
421.42	59.181
421.77	58.800
422.12	58.113
422.48	58.662
422.83	58.824
423.19	58.011
423.54	58.793
423.90	58.841
424.25	58.124
424.61	58.810
424.96	58.892
425.31	59.192
425.67	57.416
426.02	58.914
426.38	60.073
426.73	57.109
427.09	59.878
427.44	58.884
427.79	59.172
428.15	59.167
428.50	59.391
428.85	60.369
429.21	59.580
429.56	59.046
429.92	58.530
430.27	57.696
430.62	58.986
430.98	59.834
431.33	58.402
431.68	59.319
432.04	58.253
432.39	59.737
432.74	58.767
433.10	60.045
433.45	60.816
433.80	60.310
434.16	58.761
434.51	59.158
434.86	59.578
435.22	60.478
435.57	60.669
435.92	58.982
436.28	61.744
436.63	61.038
436.98	59.989
437.34	60.525
437.69	61.844
438.04	61.720
438.39	60.776
438.75	62.057
439.10	61.285
439.45	60.035
439.81	61.208
440.16	60.418
440.51	61.863
440.86	61.494
441.22	62.403
441.57	61.306
441.92	61.720
442.27	61.195
442.63	61.190
442.98	63.042
443.33	60.707
443.68	61.125
444.03	61.152
444.39	60.857
444.74	61.797
445.09	61.617
445.44	60.962
445.79	60.168
446.15	61.196
446.50	61.282
446.85	60.946
447.20	62.162
447.55	63.149
447.91	61.942
448.26	61.213
448.61	61.560
448.96	61.517
449.31	62.992
449.66	61.002
450.02	62.507
450.37	61.961
450.72	62.211
451.07	61.548
451.42	61.641
451.77	63.417
452.12	61.490
452.47	63.806
452.83	64.161
453.18	61.675
453.53	63.451
453.88	60.721
454.23	62.941
454.58	63.780
454.93	64.526
455.28	63.404
455.63	64.138
455.98	64.345
456.34	64.008
456.69	62.930
457.04	64.768
457.39	63.063
457.74	63.146
458.09	64.405
458.44	63.170
458.79	60.900
459.14	64.503
459.49	63.748
459.84	62.604
460.19	62.404
460.54	60.880
460.89	63.522
461.24	63.024
461.59	64.323
461.94	62.762
462.29	63.798
462.64	62.923
462.99	63.565
463.34	63.933
463.69	64.103
464.04	63.652
464.39	62.435
464.74	63.518
465.09	63.510
465.44	62.216
465.79	63.367
466.14	62.562
466.49	62.236
466.84	63.923
467.19	61.376
467.54	63.813
467.89	63.685
468.24	62.536
468.59	64.225
468.94	62.981
469.29	64.460
469.64	66.198
469.99	64.208
470.34	64.003
470.68	66.451
471.03	64.286
471.38	65.810
471.73	65.090
472.08	65.461
472.43	65.829
472.78	64.648
473.13	65.212
473.48	64.482
473.83	64.024
474.17	64.157
474.52	64.950
474.87	64.156
475.22	65.815
475.57	64.213
475.92	62.400
476.27	63.529
476.61	65.030
476.96	64.376
477.31	63.789
477.66	64.606
478.01	62.781
478.36	64.675
478.70	64.849
479.05	64.643
479.40	65.046
479.75	64.616
480.10	65.010
480.45	63.208
480.79	63.067
481.14	64.481
481.49	64.215
481.84	63.603
482.19	64.789
482.53	63.899
482.88	65.007
483.23	64.486
483.58	64.513
483.92	64.574
484.27	62.832
484.62	64.310
484.97	63.145
485.31	65.719
485.66	63.250
486.01	60.593
486.36	58.137
486.70	56.918
487.05	58.841
487.40	60.853
487.75	61.309
488.09	62.845
488.44	62.408
488.79	63.834
489.13	64.477
489.48	64.641
489.83	64.998
490.17	64.840
490.52	64.438
490.87	64.722
491.22	64.075
491.56	64.146
491.91	64.542
492.26	63.757
492.60	64.700
492.95	64.359
493.30	64.346
493.64	65.376
493.99	63.835
494.34	64.709
494.68	64.927
495.03	64.803
495.37	63.658
495.72	66.179
496.07	66.543
496.41	62.743
496.76	64.204
497.11	64.025
497.45	65.021
497.80	64.347
498.14	65.411
498.49	66.098
498.84	64.717
499.18	65.048
499.53	65.337
499.87	65.005
500.22	64.814
500.56	66.456
500.91	65.769
501.26	65.908
501.60	66.350
501.95	65.032
502.29	65.042
502.64	65.410
502.98	65.124
503.33	64.488
503.67	65.012
504.02	65.295
504.36	64.483
504.71	65.657
505.06	65.590
505.40	66.018
505.75	63.983
506.09	66.375
506.44	65.910
506.78	66.926
507.13	67.239
507.47	65.758
507.82	66.515
508.16	67.275
508.51	66.870
508.85	65.392
509.19	67.194
509.54	66.480
509.88	65.842
510.23	67.249
510.57	68.215
510.92	67.840
511.26	66.701
511.61	67.324
511.95	65.866
512.30	67.285
512.64	67.061
512.98	67.738
513.33	67.398
513.67	66.862
514.02	66.504
514.36	68.542
514.70	68.733
515.05	68.433
515.39	67.471
515.74	68.468
516.08	68.865
516.42	68.479
516.77	69.175
517.11	67.536
517.46	68.567
517.80	70.441
518.14	68.327
518.49	69.487
518.83	68.693
519.17	68.533
519.52	69.553
519.86	69.082
520.20	68.150
520.55	70.138
520.89	70.681
521.23	70.989
521.58	69.928
521.92	70.729
522.26	70.348
522.61	71.651
522.95	70.227
523.29	69.629
523.64	70.793
523.98	71.719
524.32	70.627
524.66	71.197
525.01	70.588
525.35	70.818
525.69	69.889
526.04	69.844
526.38	69.555
526.72	69.448
527.06	70.873
527.41	68.193
527.75	71.961
528.09	71.419
528.43	70.300
528.78	69.637
529.12	70.545
529.46	69.504
529.80	71.535
530.15	70.405
530.49	69.785
530.83	70.316
531.17	73.042
531.51	73.217
531.86	70.710
532.20	72.034
532.54	72.197
532.88	70.154
533.22	69.457
533.57	70.185
533.91	68.934
534.25	69.806
534.59	69.982
534.93	69.601
535.27	70.006
535.62	70.391
535.96	71.689
536.30	70.375
536.64	71.024
536.98	70.737
537.32	70.573
537.66	72.133
538.01	72.284
538.35	69.489
538.69	72.687
539.03	68.681
539.37	70.479
539.71	70.253
540.05	70.654
540.39	71.561
540.73	69.793
541.07	71.123
541.42	71.755
541.76	70.839
542.10	70.699
542.44	70.464
542.78	71.607
543.12	69.930
543.46	70.689
543.80	69.876
544.14	69.833
544.48	70.921
544.82	67.992
545.16	71.698
545.50	69.087
545.84	69.288
546.18	71.246
546.52	72.815
546.86	72.027
547.20	70.937
547.54	70.608
547.88	72.321
548.22	69.054
548.56	70.063
548.90	69.334
549.24	70.236
549.58	71.896
549.92	71.016
550.26	73.935
550.60	70.816
550.94	70.563
551.28	71.617
551.62	72.035
551.96	70.386
552.30	71.195
552.64	70.453
552.98	71.254
553.32	71.814
553.66	69.598
554.00	71.380
554.34	69.841
554.68	72.246
555.02	71.157
555.36	70.912
555.69	70.636
556.03	69.650
556.37	72.237
556.71	69.509
557.05	69.328
557.39	69.979
557.73	71.771
558.07	72.879
558.41	70.550
558.75	71.859
559.08	72.782
559.42	73.772
559.76	71.471
560.10	71.163
560.44	69.881
560.78	68.862
561.12	69.657
561.45	70.535
561.79	70.732
562.13	71.496
562.47	71.926
562.81	72.524
563.15	69.967
563.48	70.557
563.82	70.254
564.16	69.392
564.50	71.094
564.84	69.848
565.17	70.077
565.51	71.438
565.85	69.734
566.19	68.566
566.52	71.184
566.86	68.535
567.20	70.401
567.54	69.578
567.88	67.463
568.21	68.201
568.55	67.947
568.89	67.267
569.23	66.176
569.56	65.506
569.90	64.189
570.24	65.160
570.57	63.924
570.91	63.348
571.25	62.878
571.59	62.739
571.92	62.500
572.26	62.536
572.60	62.793
572.93	62.249
573.27	62.260
573.61	63.121
573.95	62.946
574.28	62.060
574.62	62.366
574.96	60.908
575.29	61.057
575.63	61.458
575.97	60.817
576.30	62.347
576.64	61.562
576.98	61.619
577.31	62.639
577.65	62.172
577.98	61.681
578.32	59.929
578.66	60.650
578.99	61.356
579.33	60.470
579.67	60.861
580.00	62.023
580.34	61.723
580.67	61.640
581.01	61.727
581.35	61.403
581.68	61.986
582.02	60.504
582.35	60.416
582.69	60.110
583.02	61.017
583.36	61.379
583.70	62.088
584.03	62.356
584.37	62.767
584.70	63.088
585.04	61.619
585.37	61.486
585.71	60.926
586.04	61.029
586.38	61.573
586.72	62.662
587.05	61.559
587.39	61.530
587.72	61.788
588.06	62.540
588.39	61.509
588.73	61.778
589.06	63.260
589.40	63.737
589.73	64.168
590.07	62.776
590.40	62.769
590.73	64.169
591.07	64.469
591.40	65.373
591.74	65.238
592.07	64.442
592.41	64.159
592.74	62.959
593.08	62.525
593.41	62.354
593.75	61.149
594.08	62.353
594.41	62.001
594.75	62.773
595.08	63.099
595.42	62.942
595.75	62.429
596.09	63.500
596.42	62.986
596.75	63.782
597.09	64.675
597.42	62.858
597.75	64.726
598.09	64.565
598.42	63.187
598.76	63.113
599.09	62.562
599.42	62.373
599.76	62.518
600.09	61.530
600.42	61.249
600.76	61.786
601.09	61.494
601.42	63.584
601.76	61.139
602.09	63.241
602.42	62.858
602.76	63.603
603.09	63.572
603.42	63.920
603.76	62.348
604.09	62.582
604.42	62.699
604.76	63.433
605.09	63.084
605.42	62.933
605.75	63.535
606.09	62.220
606.42	62.852
606.75	63.127
607.09	61.992
607.42	62.430
607.75	61.646
608.08	61.832
608.42	62.842
608.75	62.759
609.08	62.581
609.41	61.447
609.75	62.935
610.08	64.185
610.41	63.780
610.74	63.576
611.07	64.723
611.41	63.494
611.74	64.304
612.07	64.441
612.40	64.586
612.73	63.579
613.07	64.709
613.40	64.929
613.73	63.241
614.06	63.763
614.39	62.349
614.72	63.000
615.06	64.181
615.39	64.490
615.72	63.344
616.05	63.424
616.38	64.703
616.71	65.321
617.05	65.371
617.38	66.085
617.71	65.465
618.04	66.587
618.37	63.749
618.70	65.152
619.03	66.776
619.36	66.191
619.69	66.972
620.03	68.613
620.36	66.444
620.69	66.370
621.02	66.667
621.35	66.797
621.68	66.511
622.01	69.427
622.34	68.911
622.67	69.202
623.00	66.178
623.33	66.905
623.66	66.262
623.99	69.219
624.32	65.692
624.65	65.466
624.99	65.297
625.32	66.184
625.65	67.168
625.98	67.487
626.31	68.896
626.64	68.490
626.97	69.742
627.30	67.830
627.63	69.155
627.96	69.470
628.29	69.729
628.62	70.814
628.95	72.642
629.28	70.438
629.61	70.119
629.94	71.238
630.26	70.925
630.59	67.207
630.92	68.103
