SpectraSuite Data File
++++++++++++++++++++++++++++++++++++
Date: Wed May 13 16:40:45 PDT 2015
User: schluterlab
Dark Spectrum Present: Yes
Reference Spectrum Present: Yes
Number of Sampled Component Spectra: 1
Spectrometers: USB2E3373
Integration Time (usec): 3000 (USB2E3373)
Spectra Averaged: 3 (USB2E3373)
Boxcar Smoothing: 0 (USB2E3373)
Correct for Electrical Dark: No (USB2E3373)
Strobe/Lamp Enabled: No (USB2E3373)
Correct for Detector Non-linearity: No (USB2E3373)
Correct for Stray Light: No (USB2E3373)
Number of Pixels in Processed Spectrum: 2048
>>>>>Begin Processed Spectral Data<<<<<
178.53	0.000
178.91	-1150.000
179.29	-1075.000
179.67	-177.778
180.04	-1625.000
180.42	2500.000
180.80	1000.000
181.18	-925.000
181.56	728.571
181.94	0.000
182.31	-657.143
182.69	2133.333
183.07	-712.500
183.45	-466.667
183.83	590.909
184.20	-460.000
184.58	2150.000
184.96	5200.000
185.34	-880.000
185.72	-550.000
186.09	-2550.000
186.47	2450.000
186.85	2600.000
187.23	5200.000
187.61	-2166.667
187.98	1575.000
188.36	518.182
188.74	563.636
189.12	-980.000
189.49	640.000
189.87	-4700.000
190.25	-1200.000
190.63	478.571
191.00	492.308
191.38	1000.000
191.76	-1200.000
192.14	1525.000
192.51	687.500
192.89	1083.333
193.27	725.000
193.65	-1250.000
194.02	490.000
194.40	1020.000
194.78	560.000
195.15	541.667
195.53	610.000
195.91	-2300.000
196.29	350.000
196.66	321.053
197.04	-410.000
197.42	0.000
197.79	720.000
198.17	-5600.000
198.55	714.286
198.92	675.000
199.30	960.000
199.68	0.000
200.05	294.444
200.43	771.429
200.81	5200.000
201.18	2100.000
201.56	-1600.000
201.94	633.333
202.31	600.000
202.69	525.000
203.07	620.000
203.44	0.000
203.82	1350.000
204.19	800.000
204.57	421.429
204.95	662.500
205.32	1433.333
205.70	545.455
206.08	485.714
206.45	2800.000
206.83	356.250
207.20	1133.333
207.58	940.000
207.96	338.889
208.33	800.000
208.71	-783.333
209.08	757.143
209.46	633.333
209.84	472.727
210.21	-1466.667
210.59	1500.000
210.96	-437.500
211.34	3300.000
211.71	590.000
212.09	850.000
212.46	0.000
212.84	1833.333
213.22	1375.000
213.59	-4200.000
213.97	850.000
214.34	828.571
214.72	545.455
215.09	1040.000
215.47	-2400.000
215.84	-3000.000
216.22	1533.333
216.59	435.714
216.97	1450.000
217.34	454.545
217.72	-750.000
218.09	0.000
218.47	-6200.000
218.84	644.444
219.22	885.714
219.59	1866.667
219.97	-657.143
220.34	1060.000
220.72	-1466.667
221.09	407.143
221.47	1625.000
221.84	-1100.000
222.22	0.000
222.59	1725.000
222.97	-2250.000
223.34	1360.000
223.72	446.154
224.09	1080.000
224.46	2400.000
224.84	-5100.000
225.21	-1120.000
225.59	-4800.000
225.96	670.000
226.34	310.000
226.71	3050.000
227.08	687.500
227.46	620.000
227.83	-1250.000
228.21	-2450.000
228.58	633.333
228.95	-2600.000
229.33	-2400.000
229.70	2000.000
230.08	928.571
230.45	-860.000
230.82	483.333
231.20	900.000
231.57	785.714
231.95	541.667
232.32	236.364
232.69	418.182
233.07	700.000
233.44	361.538
233.81	-1900.000
234.19	331.579
234.56	508.333
234.93	458.333
235.31	454.545
235.68	353.846
236.05	392.857
236.43	193.939
236.80	284.211
237.17	4700.000
237.55	323.810
237.92	189.286
238.29	280.952
238.67	209.677
239.04	217.241
239.41	180.556
239.79	145.652
240.16	178.571
240.53	159.091
240.91	158.824
241.28	138.000
241.65	132.000
242.02	115.942
242.40	127.419
242.77	125.000
243.14	87.097
243.51	96.629
243.89	96.471
244.26	83.333
244.63	96.774
245.00	110.638
245.38	88.119
245.75	91.589
246.12	94.495
246.49	85.401
246.87	78.400
247.24	88.462
247.61	73.571
247.98	69.935
248.36	66.892
248.73	68.790
249.10	73.885
249.47	67.797
249.84	66.845
250.22	66.310
250.59	66.272
250.96	69.697
251.33	65.403
251.70	62.376
252.08	60.476
252.45	58.744
252.82	62.609
253.19	63.404
253.56	62.745
253.94	66.390
254.31	59.766
254.68	62.692
255.05	56.827
255.42	60.569
255.79	58.088
256.16	58.845
256.54	56.890
256.91	57.651
257.28	54.317
257.65	52.805
258.02	54.037
258.39	55.205
258.76	53.846
259.14	54.762
259.51	50.456
259.88	56.211
260.25	54.079
260.62	51.156
260.99	50.932
261.36	54.054
261.73	52.436
262.10	51.744
262.47	52.676
262.85	49.861
263.22	48.718
263.59	56.410
263.96	51.923
264.33	50.653
264.70	51.316
265.07	54.220
265.44	48.990
265.81	45.499
266.18	49.497
266.55	45.854
266.92	50.614
267.29	51.620
267.66	49.083
268.03	48.636
268.40	50.234
268.77	49.165
269.14	48.649
269.51	46.275
269.88	52.681
270.25	48.758
270.62	50.337
270.99	49.462
271.36	47.854
271.73	49.299
272.10	48.696
272.47	51.398
272.84	46.970
273.21	47.799
273.58	45.633
273.95	46.960
274.32	46.281
274.69	47.537
275.06	44.685
275.43	49.787
275.80	46.493
276.17	46.232
276.54	49.688
276.91	45.257
277.28	46.875
277.65	45.841
278.02	46.377
278.39	43.164
278.76	47.273
279.13	45.849
279.50	45.065
279.87	45.219
280.23	47.705
280.60	44.294
280.97	44.547
281.34	45.310
281.71	44.727
282.08	44.530
282.45	41.455
282.82	44.405
283.19	44.207
283.56	42.456
283.92	44.162
284.29	43.210
284.66	44.102
285.03	43.400
285.40	41.549
285.77	42.929
286.14	41.969
286.51	42.667
286.87	42.906
287.24	41.205
287.61	39.968
287.98	43.182
288.35	39.778
288.72	40.343
289.08	41.941
289.45	41.680
289.82	41.463
290.19	37.677
290.56	38.132
290.93	40.785
291.29	39.571
291.66	39.381
292.03	40.552
292.40	38.767
292.77	36.243
293.13	38.507
293.50	36.880
293.87	37.926
294.24	36.889
294.60	35.953
294.97	36.919
295.34	37.094
295.71	36.364
296.08	34.046
296.44	34.525
296.81	34.742
297.18	35.908
297.55	32.586
297.91	32.586
298.28	35.877
298.65	34.204
299.02	34.914
299.38	33.732
299.75	32.345
300.12	33.333
300.48	33.000
300.85	34.649
301.22	32.739
301.59	32.071
301.95	33.123
302.32	31.836
302.69	31.780
303.05	30.788
303.42	31.728
303.79	32.390
304.15	31.119
304.52	29.316
304.89	30.894
305.25	29.466
305.62	31.484
305.99	31.169
306.35	29.978
306.72	30.269
307.09	31.743
307.45	31.982
307.82	28.460
308.19	30.905
308.55	30.313
308.92	29.323
309.29	28.405
309.65	30.011
310.02	28.964
310.38	30.323
310.75	31.679
311.12	28.557
311.48	31.139
311.85	30.084
312.22	29.761
312.58	29.626
312.95	29.356
313.31	28.835
313.68	32.225
314.05	30.966
314.41	30.151
314.78	30.715
315.14	29.096
315.51	30.587
315.87	31.881
316.24	29.593
316.61	29.337
316.97	30.724
317.34	31.018
317.70	31.549
318.07	32.435
318.43	32.681
318.80	30.928
319.16	33.333
319.53	31.989
319.89	32.571
320.26	35.700
320.62	34.722
320.99	33.636
321.35	35.758
321.72	36.858
322.08	35.439
322.45	37.612
322.81	38.469
323.18	36.513
323.54	37.291
323.91	38.679
324.27	39.962
324.64	39.515
325.00	40.307
325.37	41.674
325.73	42.549
326.10	43.160
326.46	43.190
326.83	45.470
327.19	45.431
327.56	46.603
327.92	48.119
328.29	48.891
328.65	49.355
329.01	49.819
329.38	50.694
329.74	50.508
330.11	51.461
330.47	52.342
330.84	52.206
331.20	52.732
331.56	52.752
331.93	54.537
332.29	51.819
332.66	54.425
333.02	54.296
333.38	56.007
333.75	54.278
334.11	55.694
334.48	55.191
334.84	55.882
335.20	56.545
335.57	54.850
335.93	54.286
336.29	55.220
336.66	56.267
337.02	55.928
337.38	56.852
337.75	55.526
338.11	55.327
338.47	57.919
338.84	58.937
339.20	57.248
339.56	59.307
339.93	56.545
340.29	57.337
340.65	58.021
341.02	58.115
341.38	57.473
341.74	56.754
342.11	57.642
342.47	60.441
342.83	56.935
343.20	58.355
343.56	58.972
343.92	58.772
344.28	57.653
344.65	60.705
345.01	56.650
345.37	57.118
345.73	60.321
346.10	59.250
346.46	56.610
346.82	58.320
347.19	57.895
347.55	58.210
347.91	57.848
348.27	59.326
348.63	57.441
349.00	57.362
349.36	59.113
349.72	57.177
350.08	57.861
350.45	58.991
350.81	58.570
351.17	59.481
351.53	59.296
351.89	58.581
352.26	58.327
352.62	59.503
352.98	58.509
353.34	58.998
353.70	58.265
354.07	58.468
354.43	57.540
354.79	58.166
355.15	57.143
355.51	59.153
355.87	58.939
356.24	59.528
356.60	58.220
356.96	58.246
357.32	59.526
357.68	60.157
358.04	58.591
358.40	59.620
358.77	58.294
359.13	59.037
359.49	58.431
359.85	59.206
360.21	59.888
360.57	60.934
360.93	59.154
361.29	59.033
361.66	58.591
362.02	58.582
362.38	61.217
362.74	59.747
363.10	59.141
363.46	59.721
363.82	60.544
364.18	59.325
364.54	60.327
364.90	59.844
365.26	60.368
365.62	60.263
365.98	60.482
366.35	58.166
366.71	59.798
367.07	60.961
367.43	61.974
367.79	61.956
368.15	61.422
368.51	61.192
368.87	60.528
369.23	62.180
369.59	61.043
369.95	59.779
370.31	60.897
370.67	59.710
371.03	62.247
371.39	60.350
371.75	61.765
372.11	59.957
372.47	62.903
372.83	63.329
373.19	61.199
373.55	63.636
373.91	63.770
374.27	60.962
374.63	62.255
374.99	62.712
375.35	62.317
375.71	62.097
376.07	63.237
376.42	63.824
376.78	62.624
377.14	62.822
377.50	63.642
377.86	62.035
378.22	63.590
378.58	61.090
378.94	63.231
379.30	63.868
379.66	63.896
380.02	62.654
380.38	63.570
380.74	63.926
381.09	64.181
381.45	64.966
381.81	63.391
382.17	65.350
382.53	64.277
382.89	64.506
383.25	64.853
383.61	66.171
383.97	64.353
384.32	63.880
384.68	65.304
385.04	65.519
385.40	64.768
385.76	65.111
386.12	66.580
386.48	65.953
386.83	66.581
387.19	66.110
387.55	65.615
387.91	65.236
388.27	65.481
388.62	65.765
388.98	66.278
389.34	65.957
389.70	64.929
390.06	66.096
390.42	66.213
390.77	66.603
391.13	66.050
391.49	67.703
391.85	66.264
392.20	64.416
392.56	66.162
392.92	67.039
393.28	66.450
393.64	66.127
393.99	64.325
394.35	66.191
394.71	64.994
395.07	66.106
395.42	65.637
395.78	65.967
396.14	65.363
396.50	66.604
396.85	66.688
397.21	65.475
397.57	66.212
397.92	65.745
398.28	64.798
398.64	65.114
399.00	64.410
399.35	64.862
399.71	64.236
400.07	64.755
400.42	66.258
400.78	64.656
401.14	64.634
401.49	66.269
401.85	64.973
402.21	63.832
402.57	64.281
402.92	65.385
403.28	65.959
403.63	65.161
403.99	65.860
404.35	65.758
404.70	64.029
405.06	64.531
405.42	66.563
405.77	63.371
406.13	64.447
406.49	64.104
406.84	62.552
407.20	63.357
407.55	65.922
407.91	65.200
408.27	65.922
408.62	63.636
408.98	65.074
409.34	64.822
409.69	65.613
410.05	64.312
410.40	63.853
410.76	64.217
411.11	64.234
411.47	63.259
411.83	64.508
412.18	64.255
412.54	64.072
412.89	63.735
413.25	63.872
413.60	64.237
413.96	62.599
414.31	63.183
414.67	63.561
415.03	63.775
415.38	63.402
415.74	64.244
416.09	64.272
416.45	64.926
416.80	63.186
417.16	64.343
417.51	65.030
417.87	62.171
418.22	63.344
418.58	63.589
418.93	63.882
419.29	64.418
419.64	63.728
420.00	63.049
420.35	62.667
420.71	63.658
421.06	63.962
421.42	62.982
421.77	63.621
422.12	62.605
422.48	62.277
422.83	63.716
423.19	62.044
423.54	62.739
423.90	63.768
424.25	62.702
424.61	61.905
424.96	63.848
425.31	62.846
425.67	61.461
426.02	62.057
426.38	64.164
426.73	63.136
427.09	62.918
427.44	62.737
427.79	62.105
428.15	65.000
428.50	62.785
428.85	63.886
429.21	63.998
429.56	63.090
429.92	63.312
430.27	62.363
430.62	61.956
430.98	62.273
431.33	61.804
431.68	62.094
432.04	61.608
432.39	63.906
432.74	63.674
433.10	63.724
433.45	64.490
433.80	64.080
434.16	61.806
434.51	63.368
434.86	64.481
435.22	63.535
435.57	63.587
435.92	62.493
436.28	64.176
436.63	62.472
436.98	62.679
437.34	65.236
437.69	64.702
438.04	62.001
438.39	63.224
438.75	63.277
439.10	63.017
439.45	63.046
439.81	63.625
440.16	62.676
440.51	63.620
440.86	63.868
441.22	64.683
441.57	63.535
441.92	64.125
442.27	63.832
442.63	62.243
442.98	64.676
443.33	63.859
443.68	63.191
444.03	62.469
444.39	61.879
444.74	63.258
445.09	62.102
445.44	62.220
445.79	62.494
446.15	62.308
446.50	63.759
446.85	62.898
447.20	62.213
447.55	64.657
447.91	63.045
448.26	62.493
448.61	62.973
448.96	63.621
449.31	64.286
449.66	63.196
450.02	62.563
450.37	62.642
450.72	62.437
451.07	63.254
451.42	61.641
451.77	64.122
452.12	60.855
452.47	62.749
452.83	62.646
453.18	62.775
453.53	64.007
453.88	62.965
454.23	62.343
454.58	63.658
454.93	64.654
455.28	62.905
455.63	63.289
455.98	64.405
456.34	63.191
456.69	64.433
457.04	63.653
457.39	62.244
457.74	63.204
458.09	62.335
458.44	63.740
458.79	61.876
459.14	62.641
459.49	64.448
459.84	61.662
460.19	61.815
460.54	60.880
460.89	62.150
461.24	62.113
461.59	62.638
461.94	61.776
462.29	61.958
462.64	61.774
462.99	61.288
463.34	64.067
463.69	61.851
464.04	61.913
464.39	62.319
464.74	61.676
465.09	61.701
465.44	61.053
465.79	60.906
466.14	59.770
466.49	60.845
466.84	61.004
467.19	60.772
467.54	61.812
467.89	60.864
468.24	61.547
468.59	61.722
468.94	59.927
469.29	62.725
469.64	63.253
469.99	62.855
470.34	62.616
470.68	62.284
471.03	61.361
471.38	63.447
471.73	61.692
472.08	62.895
472.43	59.987
472.78	61.356
473.13	60.398
473.48	60.112
473.83	60.732
474.17	60.921
474.52	62.035
474.87	61.062
475.22	60.650
475.57	59.377
475.92	58.842
476.27	59.752
476.61	60.673
476.96	60.803
477.31	58.399
477.66	60.449
478.01	59.435
478.36	60.233
478.70	59.294
479.05	59.531
479.40	59.775
479.75	60.498
480.10	59.294
480.45	58.877
480.79	58.624
481.14	59.491
481.49	59.421
481.84	59.259
482.19	59.064
482.53	58.394
482.88	59.516
483.23	59.439
483.58	58.917
483.92	59.794
484.27	57.473
484.62	58.750
484.97	57.706
485.31	59.932
485.66	58.653
486.01	56.153
486.36	53.029
486.70	52.031
487.05	53.406
487.40	55.490
487.75	55.531
488.09	55.687
488.44	55.971
488.79	57.758
489.13	57.066
489.48	58.401
489.83	57.790
490.17	59.228
490.52	56.909
490.87	57.214
491.22	57.526
491.56	55.854
491.91	57.096
492.26	57.235
492.60	56.866
492.95	57.109
493.30	56.729
493.64	57.350
493.99	57.289
494.34	57.077
494.68	57.418
495.03	57.707
495.37	56.584
495.72	58.382
496.07	57.541
496.41	56.150
496.76	56.464
497.11	56.731
497.45	56.730
497.80	58.013
498.14	57.295
498.49	56.829
498.84	56.759
499.18	56.381
499.53	56.933
499.87	56.990
500.22	56.382
500.56	57.330
500.91	56.202
501.26	55.856
501.60	57.238
501.95	55.729
502.29	55.904
502.64	57.076
502.98	56.381
503.33	54.845
503.67	55.452
504.02	55.987
504.36	56.060
504.71	56.229
505.06	55.470
505.40	56.587
505.75	55.497
506.09	55.442
506.44	56.586
506.78	55.723
507.13	56.588
507.47	56.667
507.82	56.535
508.16	56.383
508.51	57.484
508.85	56.504
509.19	56.122
509.54	55.765
509.88	55.126
510.23	55.578
510.57	56.966
510.92	55.101
511.26	56.475
511.61	55.705
511.95	54.593
512.30	55.885
512.64	55.830
512.98	56.592
513.33	55.193
513.67	56.083
514.02	54.113
514.36	56.363
514.70	57.554
515.05	55.382
515.39	56.702
515.74	56.194
516.08	55.562
516.42	55.438
516.77	56.410
517.11	55.660
517.46	55.926
517.80	56.969
518.14	55.704
518.49	55.951
518.83	54.602
519.17	56.293
519.52	55.857
519.86	56.361
520.20	56.127
520.55	56.373
520.89	57.238
521.23	57.358
521.58	57.323
521.92	56.950
522.26	54.484
522.61	56.262
522.95	54.758
523.29	54.900
523.64	56.280
523.98	56.007
524.32	55.308
524.66	55.562
525.01	55.760
525.35	56.134
525.69	55.665
526.04	55.202
526.38	55.644
526.72	54.601
527.06	56.685
527.41	53.713
527.75	56.270
528.09	56.198
528.43	55.577
528.78	54.948
529.12	54.667
529.46	55.971
529.80	54.394
530.15	53.707
530.49	53.969
530.83	55.633
531.17	56.332
531.51	56.096
531.86	55.032
532.20	56.063
532.54	54.004
532.88	54.878
533.22	52.967
533.57	53.704
533.91	52.920
534.25	53.159
534.59	55.339
534.93	52.469
535.27	53.470
535.62	53.419
535.96	53.672
536.30	53.783
536.64	53.123
536.98	54.147
537.32	52.600
537.66	54.533
538.01	56.090
538.35	53.458
538.69	54.818
539.03	54.061
539.37	52.204
539.71	52.949
540.05	53.203
540.39	54.551
540.73	51.811
541.07	53.147
541.42	54.599
541.76	54.710
542.10	54.722
542.44	53.444
542.78	54.018
543.12	52.335
543.46	53.049
543.80	53.871
544.14	53.402
544.48	52.889
544.82	52.854
545.16	52.635
545.50	52.699
545.84	52.554
546.18	53.670
546.52	53.407
546.86	53.333
547.20	54.147
547.54	52.104
547.88	53.444
548.22	51.432
548.56	52.453
548.90	52.177
549.24	53.199
549.58	52.933
549.92	51.786
550.26	53.551
550.60	53.250
550.94	52.465
551.28	53.914
551.62	53.990
551.96	53.544
552.30	51.809
552.64	51.859
552.98	53.220
553.32	51.180
553.66	52.693
554.00	51.887
554.34	52.105
554.68	53.362
555.02	53.103
555.36	52.053
555.69	50.744
556.03	51.413
556.37	51.705
556.71	52.251
557.05	52.241
557.39	53.044
557.73	51.094
558.07	53.662
558.41	52.388
558.75	52.682
559.08	53.542
559.42	54.119
559.76	52.500
560.10	52.391
560.44	51.712
560.78	50.765
561.12	50.528
561.45	51.108
561.79	50.494
562.13	50.838
562.47	51.639
562.81	51.185
563.15	50.836
563.48	50.464
563.82	50.881
564.16	50.621
564.50	51.432
564.84	50.063
565.17	50.515
565.51	50.096
565.85	50.761
566.19	48.403
566.52	51.298
566.86	49.186
567.20	51.120
567.54	50.457
567.88	50.027
568.21	49.683
568.55	49.191
568.89	48.833
569.23	49.198
569.56	47.328
569.90	47.057
570.24	46.573
570.57	46.039
570.91	45.701
571.25	46.016
571.59	45.125
571.92	45.421
572.26	45.321
572.60	44.925
572.93	45.037
573.27	45.075
573.61	45.812
573.95	45.220
574.28	44.799
574.62	44.388
574.96	43.943
575.29	44.035
575.63	43.674
575.97	44.468
576.30	44.822
576.64	45.186
576.98	44.628
577.31	43.993
577.65	43.388
577.98	43.989
578.32	42.673
578.66	42.788
578.99	44.008
579.33	43.670
579.67	43.153
580.00	43.754
580.34	43.996
580.67	42.921
581.01	43.490
581.35	43.506
581.68	43.798
582.02	42.855
582.35	42.785
582.69	43.112
583.02	42.666
583.36	43.832
583.70	43.581
584.03	43.913
584.37	44.111
584.70	44.540
585.04	44.349
585.37	43.546
585.71	42.881
586.04	42.740
586.38	43.783
586.72	44.131
587.05	42.950
587.39	43.404
587.72	43.932
588.06	43.997
588.39	43.347
588.73	43.737
589.06	44.126
589.40	44.074
589.73	44.562
590.07	44.626
590.40	43.588
590.73	45.433
591.07	45.869
591.40	44.749
591.74	46.017
592.07	45.724
592.41	45.267
592.74	45.618
593.08	43.604
593.41	44.353
593.75	43.036
594.08	43.279
594.41	44.221
594.75	43.512
595.08	43.414
595.42	43.398
595.75	43.340
596.09	43.973
596.42	44.794
596.75	44.069
597.09	45.628
597.42	44.351
597.75	44.028
598.09	45.000
598.42	44.330
598.76	44.629
599.09	43.330
599.42	43.086
599.76	42.862
600.09	43.206
600.42	43.024
600.76	42.750
601.09	43.097
601.42	43.455
601.76	43.188
602.09	43.676
602.42	44.068
602.76	43.813
603.09	44.138
603.42	44.006
603.76	43.788
604.09	42.691
604.42	43.335
604.76	44.074
605.09	44.037
605.42	43.523
605.75	44.288
606.09	43.188
606.42	43.604
606.75	43.011
607.09	43.072
607.42	43.902
607.75	42.785
608.08	42.987
608.42	44.285
608.75	43.147
609.08	43.756
609.41	44.027
609.75	43.449
610.08	44.109
610.41	43.669
610.74	43.945
611.07	45.158
611.41	43.916
611.74	44.646
612.07	45.135
612.40	44.491
612.73	43.737
613.07	45.259
613.40	44.708
613.73	43.891
614.06	44.892
614.39	44.101
614.72	43.526
615.06	44.853
615.39	44.055
615.72	43.865
616.05	42.318
616.38	44.247
616.71	46.021
617.05	45.053
617.38	45.400
617.71	45.405
618.04	45.853
618.37	44.471
618.70	44.306
619.03	46.382
619.36	46.232
619.69	44.859
620.03	45.948
620.36	45.789
620.69	45.479
621.02	45.428
621.35	45.106
621.68	45.171
622.01	45.975
622.34	46.293
622.67	46.692
623.00	45.268
623.33	45.247
623.66	45.604
623.99	45.066
624.32	44.936
624.65	45.904
624.99	45.113
625.32	45.981
625.65	45.830
625.98	45.273
626.31	44.323
626.64	45.551
626.97	46.966
627.30	47.132
627.63	46.678
627.96	46.762
628.29	48.031
628.62	47.210
628.95	49.057
629.28	47.263
629.61	48.488
629.94	47.333
630.26	47.760
630.59	48.236
