SpectraSuite Data File
++++++++++++++++++++++++++++++++++++
Date: Wed May 13 16:17:38 PDT 2015
User: schluterlab
Dark Spectrum Present: Yes
Reference Spectrum Present: Yes
Number of Sampled Component Spectra: 1
Spectrometers: USB2E3373
Integration Time (usec): 3000 (USB2E3373)
Spectra Averaged: 3 (USB2E3373)
Boxcar Smoothing: 0 (USB2E3373)
Correct for Electrical Dark: No (USB2E3373)
Strobe/Lamp Enabled: No (USB2E3373)
Correct for Detector Non-linearity: No (USB2E3373)
Correct for Stray Light: No (USB2E3373)
Number of Pixels in Processed Spectrum: 2048
>>>>>Begin Processed Spectral Data<<<<<
178.53	0.000
178.91	-1050.000
179.29	-975.000
179.67	-150.000
180.04	-1025.000
180.42	2250.000
180.80	720.000
181.18	-725.000
181.56	385.714
181.94	0.000
182.31	-628.571
182.69	1266.667
183.07	-325.000
183.45	-355.556
183.83	463.636
184.20	-340.000
184.58	1750.000
184.96	4600.000
185.34	-660.000
185.72	-462.500
186.09	-1700.000
186.47	2450.000
186.85	1800.000
187.23	3900.000
187.61	-1266.667
187.98	975.000
188.36	490.909
188.74	436.364
189.12	-800.000
189.49	470.000
189.87	-3700.000
190.25	-875.000
190.63	464.286
191.00	315.385
191.38	683.333
191.76	-1275.000
192.14	1300.000
192.51	637.500
192.89	616.667
193.27	525.000
193.65	-875.000
194.02	420.000
194.40	760.000
194.78	430.000
195.15	383.333
195.53	630.000
195.91	-2250.000
196.29	250.000
196.66	236.842
197.04	-290.000
197.42	0.000
197.79	440.000
198.17	-4000.000
198.55	514.286
198.92	612.500
199.30	800.000
199.68	0.000
200.05	205.556
200.43	671.429
200.81	3700.000
201.18	1233.333
201.56	-933.333
201.94	433.333
202.31	477.778
202.69	333.333
203.07	480.000
203.44	0.000
203.82	1000.000
204.19	657.143
204.57	342.857
204.95	512.500
205.32	1300.000
205.70	381.818
206.08	285.714
206.45	2200.000
206.83	300.000
207.20	683.333
207.58	600.000
207.96	277.778
208.33	712.500
208.71	-750.000
209.08	600.000
209.46	422.222
209.84	400.000
210.21	-1200.000
210.59	1250.000
210.96	-300.000
211.34	2100.000
211.71	490.000
212.09	650.000
212.46	0.000
212.84	1466.667
213.22	1000.000
213.59	-3700.000
213.97	650.000
214.34	628.571
214.72	472.727
215.09	800.000
215.47	-1750.000
215.84	-2050.000
216.22	1400.000
216.59	364.286
216.97	1125.000
217.34	336.364
217.72	-566.667
218.09	0.000
218.47	-3900.000
218.84	522.222
219.22	728.571
219.59	1300.000
219.97	-500.000
220.34	820.000
220.72	-1400.000
221.09	257.143
221.47	1250.000
221.84	-850.000
222.22	0.000
222.59	925.000
222.97	-2150.000
223.34	800.000
223.72	400.000
224.09	1020.000
224.46	1450.000
224.84	-4000.000
225.21	-880.000
225.59	-4700.000
225.96	560.000
226.34	250.000
226.71	1900.000
227.08	575.000
227.46	480.000
227.83	-750.000
228.21	-2050.000
228.58	466.667
228.95	-1800.000
229.33	-2000.000
229.70	1166.667
230.08	585.714
230.45	-780.000
230.82	283.333
231.20	733.333
231.57	557.143
231.95	383.333
232.32	200.000
232.69	336.364
233.07	614.286
233.44	300.000
233.81	-1066.667
234.19	168.421
234.56	366.667
234.93	250.000
235.31	418.182
235.68	269.231
236.05	271.429
236.43	109.091
236.80	200.000
237.17	3800.000
237.55	166.667
237.92	175.000
238.29	185.714
238.67	119.355
239.04	168.966
239.41	100.000
239.79	97.826
240.16	109.524
240.53	90.909
240.91	66.667
241.28	72.000
241.65	64.000
242.02	60.870
242.40	75.806
242.77	51.667
243.14	55.914
243.51	51.685
243.89	54.118
244.26	45.556
244.63	37.634
245.00	42.553
245.38	46.535
245.75	39.252
246.12	28.440
246.49	37.956
246.87	40.000
247.24	33.077
247.61	35.714
247.98	34.641
248.36	27.027
248.73	22.930
249.10	24.841
249.47	24.859
249.84	24.599
250.22	20.321
250.59	21.893
250.96	21.717
251.33	20.853
251.70	23.762
252.08	24.286
252.45	20.628
252.82	20.000
253.19	24.255
253.56	21.961
253.94	22.822
254.31	16.406
254.68	21.154
255.05	18.081
255.42	15.854
255.79	19.118
256.16	18.773
256.54	14.134
256.91	17.794
257.28	11.151
257.65	14.521
258.02	14.907
258.39	14.511
258.76	15.385
259.14	15.179
259.51	13.678
259.88	10.248
260.25	15.710
260.62	17.919
260.99	12.422
261.36	16.517
261.73	11.461
262.10	8.721
262.47	14.085
262.85	10.306
263.22	8.832
263.59	15.100
263.96	11.538
264.33	9.661
264.70	12.105
265.07	10.997
265.44	10.606
265.81	10.462
266.18	11.558
266.55	10.244
266.92	9.582
267.29	11.574
267.66	9.633
268.03	9.318
268.40	10.514
268.77	9.547
269.14	10.135
269.51	10.158
269.88	8.392
270.25	9.481
270.62	8.764
270.99	11.398
271.36	9.227
271.73	7.944
272.10	9.348
272.47	10.753
272.84	10.173
273.21	11.111
273.58	9.389
273.95	8.595
274.32	9.298
274.69	10.921
275.06	7.480
275.43	7.872
275.80	8.818
276.17	9.572
276.54	9.356
276.91	7.708
277.28	8.594
277.65	9.865
278.02	7.660
278.39	8.398
278.76	9.091
279.13	9.434
279.50	9.125
279.87	9.562
280.23	6.986
280.60	7.930
280.97	8.318
281.34	8.673
281.71	8.545
282.08	8.445
282.45	8.182
282.82	9.059
283.19	7.487
283.56	7.895
283.92	8.799
284.29	7.055
284.66	7.985
285.03	7.233
285.40	8.275
285.77	7.239
286.14	7.772
286.51	8.833
286.87	9.573
287.24	9.121
287.61	9.310
287.98	9.091
288.35	6.815
288.72	8.567
289.08	7.668
289.45	6.919
289.82	7.154
290.19	6.122
290.56	5.513
290.93	6.647
291.29	6.902
291.66	7.965
292.03	9.593
292.40	9.838
292.77	7.101
293.13	8.657
293.50	7.143
293.87	5.926
294.24	5.778
294.60	6.114
294.97	7.122
295.34	6.770
295.71	8.949
296.08	5.128
296.44	6.465
296.81	6.077
297.18	7.588
297.55	3.826
297.91	6.464
298.28	6.426
298.65	8.747
299.02	6.456
299.38	5.843
299.75	4.313
300.12	6.897
300.48	6.625
300.85	6.042
301.22	6.752
301.59	6.061
301.95	6.423
302.32	6.547
302.69	6.691
303.05	5.576
303.42	6.173
303.79	5.210
304.15	5.245
304.52	5.214
304.89	5.923
305.25	4.988
305.62	5.663
305.99	6.257
306.35	6.376
306.72	6.726
307.09	6.326
307.45	6.419
307.82	5.357
308.19	7.395
308.55	6.580
308.92	6.337
309.29	6.125
309.65	5.514
310.02	6.871
310.38	7.312
310.75	5.913
311.12	6.755
311.48	7.524
311.85	8.071
312.22	6.452
312.58	6.133
312.95	7.075
313.31	5.437
313.68	7.796
314.05	9.270
314.41	6.935
314.78	7.654
315.14	6.356
315.51	7.621
315.87	7.525
316.24	7.944
316.61	6.725
316.97	6.947
317.34	6.751
317.70	7.361
318.07	8.373
318.43	8.023
318.80	8.060
319.16	9.228
319.53	8.818
319.89	8.476
320.26	10.600
320.62	9.127
320.99	8.990
321.35	9.394
321.72	9.548
322.08	10.365
322.45	11.343
322.81	10.756
323.18	10.790
323.54	11.503
323.91	11.981
324.27	11.472
324.64	10.065
325.00	10.911
325.37	12.648
325.73	12.208
326.10	12.180
326.46	10.753
326.83	13.201
327.19	13.493
327.56	13.240
327.92	13.561
328.29	13.310
328.65	14.733
329.01	14.801
329.38	14.801
329.74	14.220
330.11	15.080
330.47	15.611
330.84	16.176
331.20	15.209
331.56	14.495
331.93	15.093
332.29	15.794
332.66	15.929
333.02	14.717
333.38	16.350
333.75	16.488
334.11	16.103
334.48	16.415
334.84	16.912
335.20	16.455
335.57	15.866
335.93	14.554
336.29	15.293
336.66	15.960
337.02	15.837
337.38	15.926
337.75	15.330
338.11	16.204
338.47	15.746
338.84	16.224
339.20	14.954
339.56	16.515
339.93	16.182
340.29	15.308
340.65	16.043
341.02	16.667
341.38	16.192
341.74	16.404
342.11	16.157
342.47	16.740
342.83	16.610
343.20	16.710
343.56	15.333
343.92	15.965
344.28	16.156
344.65	15.735
345.01	15.404
345.37	15.266
345.73	16.074
346.10	15.857
346.46	16.186
346.82	15.486
347.19	14.703
347.55	14.943
347.91	15.049
348.27	15.119
348.63	15.385
349.00	15.453
349.36	14.286
349.72	15.557
350.08	14.019
350.45	14.890
350.81	15.516
351.17	14.992
351.53	14.742
351.89	15.759
352.26	15.943
352.62	14.755
352.98	14.749
353.34	15.201
353.70	13.502
354.07	15.081
354.43	14.603
354.79	14.562
355.15	14.445
355.51	15.188
355.87	14.776
356.24	14.414
356.60	14.354
356.96	14.159
357.32	15.454
357.68	14.646
358.04	14.727
358.40	14.964
358.77	14.632
359.13	14.049
359.49	14.824
359.85	13.889
360.21	14.195
360.57	14.864
360.93	14.538
361.29	13.908
361.66	13.854
362.02	14.179
362.38	14.753
362.74	14.509
363.10	13.620
363.46	14.160
363.82	14.286
364.18	15.198
364.54	15.527
364.90	14.873
365.26	14.044
365.62	15.486
365.98	14.390
366.35	13.968
366.71	14.823
367.07	13.838
367.43	15.239
367.79	15.061
368.15	15.445
368.51	13.445
368.87	14.276
369.23	14.484
369.59	14.337
369.95	14.779
370.31	15.100
370.67	14.203
371.03	14.981
371.39	15.087
371.75	14.044
372.11	14.651
372.47	15.029
372.83	15.346
373.19	14.306
373.55	14.265
373.91	15.758
374.27	14.433
374.63	14.545
374.99	16.102
375.35	13.957
375.71	14.736
376.07	15.021
376.42	14.512
376.78	13.917
377.14	15.943
377.50	15.033
377.86	14.561
378.22	14.791
378.58	13.910
378.94	14.016
379.30	14.758
379.66	14.721
380.02	14.558
380.38	13.843
380.74	14.946
381.09	15.037
381.45	14.813
381.81	15.541
382.17	13.885
382.53	14.717
382.89	15.494
383.25	14.884
383.61	14.684
383.97	14.822
384.32	15.097
384.68	15.861
385.04	14.505
385.40	15.542
385.76	14.558
386.12	14.637
386.48	15.167
386.83	14.945
387.19	15.337
387.55	15.028
387.91	15.236
388.27	14.899
388.62	16.472
388.98	14.312
389.34	15.895
389.70	14.899
390.06	15.463
390.42	14.656
390.77	15.267
391.13	15.507
391.49	15.609
391.85	14.322
392.20	14.637
392.56	14.962
392.92	15.421
393.28	13.787
393.64	14.329
393.99	14.722
394.35	14.950
394.71	14.806
395.07	15.514
395.42	14.586
395.78	15.076
396.14	15.705
396.50	15.038
396.85	15.067
397.21	15.043
397.57	15.499
397.92	14.724
398.28	13.733
398.64	14.994
399.00	14.661
399.35	14.044
399.71	14.525
400.07	14.843
400.42	14.969
400.78	15.259
401.14	14.695
401.49	14.866
401.85	14.640
402.21	13.473
402.57	13.880
402.92	14.628
403.28	13.991
403.63	14.356
403.99	13.567
404.35	14.485
404.70	13.609
405.06	14.269
405.42	14.535
405.77	13.543
406.13	13.995
406.49	14.488
406.84	13.703
407.20	13.416
407.55	15.444
407.91	13.333
408.27	14.550
408.62	13.787
408.98	13.603
409.34	13.469
409.69	14.129
410.05	13.817
410.40	14.067
410.76	14.098
411.11	14.294
411.47	14.121
411.83	13.806
412.18	13.234
412.54	13.574
412.89	14.096
413.25	13.518
413.60	13.465
413.96	13.540
414.31	13.730
414.67	14.575
415.03	14.106
415.38	13.660
415.74	13.826
416.09	13.847
416.45	13.788
416.80	12.426
417.16	14.812
417.51	13.869
417.87	13.231
418.22	14.132
418.58	13.428
418.93	13.882
419.29	14.640
419.64	13.287
420.00	13.963
420.35	13.855
420.71	14.465
421.06	13.365
421.42	13.743
421.77	13.901
422.12	12.858
422.48	13.168
422.83	13.687
423.19	13.370
423.54	13.175
423.90	14.203
424.25	13.289
424.61	13.274
424.96	13.819
425.31	14.286
425.67	13.315
426.02	13.771
426.38	14.286
426.73	13.400
427.09	13.435
427.44	14.204
427.79	13.341
428.15	14.226
428.50	13.341
428.85	13.707
429.21	13.308
429.56	13.841
429.92	13.035
430.27	14.002
430.62	12.750
430.98	13.492
431.33	13.402
431.68	13.822
432.04	13.898
432.39	13.992
432.74	13.645
433.10	14.035
433.45	13.469
433.80	13.137
434.16	13.622
434.51	13.526
434.86	13.227
435.22	13.174
435.57	13.921
435.92	13.985
436.28	14.472
436.63	14.625
436.98	13.394
437.34	14.132
437.69	14.469
438.04	13.772
438.39	13.552
438.75	14.701
439.10	14.190
439.45	15.112
439.81	13.656
440.16	14.173
440.51	14.236
440.86	13.897
441.22	13.849
441.57	13.960
441.92	13.715
442.27	13.402
442.63	13.533
442.98	14.141
443.33	14.239
443.68	13.733
444.03	13.958
444.39	12.756
444.74	13.853
445.09	14.286
445.44	14.106
445.79	14.151
446.15	14.558
446.50	13.732
446.85	13.720
447.20	13.819
447.55	14.294
447.91	13.789
448.26	14.135
448.61	13.680
448.96	13.732
449.31	14.342
449.66	14.012
450.02	13.816
450.37	13.662
450.72	14.044
451.07	13.528
451.42	14.164
451.77	14.210
452.12	13.972
452.47	14.428
452.83	14.161
453.18	14.670
453.53	14.471
453.88	14.176
454.23	14.345
454.58	14.173
454.93	15.702
455.28	13.653
455.63	14.138
455.98	14.405
456.34	14.133
456.69	14.527
457.04	14.675
457.39	13.968
457.74	14.452
458.09	14.779
458.44	14.253
458.79	13.829
459.14	13.883
459.49	13.660
459.84	13.961
460.19	13.966
460.54	14.294
460.89	14.482
461.24	14.086
461.59	14.991
461.94	14.858
462.29	15.074
462.64	14.359
462.99	13.858
463.34	14.933
463.69	14.509
464.04	14.203
464.39	14.145
464.74	14.557
465.09	14.536
465.44	13.795
465.79	13.758
466.14	14.176
466.49	14.627
466.84	14.011
467.19	14.363
467.54	14.250
467.89	13.806
468.24	13.787
468.59	14.286
468.94	13.806
469.29	14.589
469.64	15.462
469.99	14.208
470.34	14.531
470.68	14.871
471.03	13.946
471.38	14.315
471.73	13.791
472.08	15.724
472.43	14.322
472.78	14.615
473.13	14.763
473.48	14.170
473.83	14.939
474.17	14.188
474.52	14.206
474.87	14.828
475.22	13.871
475.57	13.864
475.92	13.595
476.27	13.923
476.61	13.955
476.96	14.239
477.31	13.972
477.66	14.278
478.01	13.853
478.36	14.543
478.70	13.499
479.05	14.217
479.40	13.869
479.75	13.828
480.10	13.469
480.45	13.089
480.79	13.426
481.14	13.845
481.49	14.333
481.84	14.220
482.19	13.448
482.53	13.394
482.88	13.867
483.23	13.411
483.58	14.058
483.92	14.105
484.27	12.767
484.62	12.888
484.97	13.007
485.31	13.253
485.66	12.660
486.01	11.717
486.36	11.505
486.70	11.347
487.05	11.795
487.40	12.487
487.75	12.541
488.09	12.951
488.44	12.842
488.79	13.599
489.13	13.751
489.48	13.051
489.83	13.034
490.17	13.591
490.52	13.685
490.87	13.116
491.22	13.461
491.56	13.030
491.91	13.076
492.26	13.000
492.60	13.364
492.95	12.582
493.30	13.224
493.64	12.879
493.99	12.767
494.34	12.627
494.68	13.599
495.03	13.440
495.37	13.867
495.72	13.938
496.07	13.596
496.41	13.186
496.76	13.017
497.11	12.832
497.45	12.902
497.80	12.812
498.14	12.850
498.49	12.585
498.84	13.327
499.18	13.095
499.53	13.343
499.87	13.001
500.22	13.424
500.56	13.883
500.91	13.798
501.26	13.608
501.60	13.384
501.95	12.649
502.29	13.496
502.64	13.315
502.98	13.277
503.33	12.751
503.67	12.947
504.02	12.488
504.36	12.962
504.71	13.434
505.06	12.819
505.40	13.418
505.75	13.211
506.09	13.168
506.44	13.123
506.78	12.859
507.13	12.468
507.47	13.283
507.82	13.171
508.16	13.475
508.51	13.293
508.85	13.009
509.19	13.163
509.54	12.806
509.88	13.035
510.23	12.596
510.57	13.622
510.92	13.465
511.26	13.515
511.61	13.485
511.95	12.891
512.30	12.566
512.64	13.864
512.98	13.719
513.33	13.490
513.67	12.967
514.02	12.716
514.36	13.326
514.70	12.507
515.05	13.051
515.39	13.797
515.74	12.782
516.08	13.918
516.42	13.541
516.77	14.158
517.11	11.987
517.46	14.052
517.80	13.473
518.14	13.086
518.49	14.119
518.83	13.580
519.17	13.337
519.52	13.130
519.86	14.489
520.20	13.526
520.55	13.405
520.89	13.504
521.23	13.752
521.58	13.145
521.92	13.962
522.26	12.447
522.61	13.458
522.95	13.505
523.29	13.512
523.64	13.415
523.98	12.939
524.32	13.269
524.66	14.131
525.01	13.051
525.35	12.701
525.69	13.485
526.04	12.960
526.38	12.691
526.72	13.436
527.06	13.245
527.41	12.871
527.75	13.633
528.09	13.873
528.43	13.767
528.78	13.460
529.12	13.030
529.46	13.901
529.80	13.304
530.15	13.769
530.49	12.985
530.83	13.165
531.17	13.969
531.51	14.332
531.86	12.968
532.20	14.407
532.54	13.837
532.88	13.030
533.22	13.616
533.57	13.827
533.91	12.884
534.25	12.940
534.59	13.728
534.93	12.255
535.27	12.975
535.62	13.248
535.96	13.497
536.30	12.842
536.64	13.458
536.98	12.409
537.32	13.101
537.66	12.867
538.01	13.430
538.35	13.639
538.69	13.976
539.03	12.995
539.37	12.843
539.71	12.314
540.05	12.810
540.39	12.824
540.73	12.743
541.07	14.147
541.42	13.307
541.76	13.613
542.10	12.743
542.44	12.119
542.78	13.307
543.12	12.796
543.46	13.377
543.80	13.338
544.14	12.580
544.48	13.333
544.82	13.085
545.16	13.338
545.50	13.046
545.84	12.298
546.18	13.064
546.52	13.421
546.86	12.509
547.20	12.812
547.54	13.226
547.88	13.265
548.22	12.453
548.56	12.579
548.90	12.228
549.24	12.121
549.58	13.438
549.92	13.049
550.26	12.500
550.60	13.485
550.94	12.183
551.28	12.802
551.62	13.372
551.96	12.561
552.30	13.584
552.64	13.793
552.98	12.746
553.32	12.879
553.66	13.020
554.00	13.658
554.34	13.182
554.68	12.876
555.02	12.553
555.36	13.013
555.69	12.043
556.03	12.921
556.37	12.619
556.71	12.756
557.05	12.885
557.39	13.366
557.73	12.562
558.07	12.763
558.41	12.663
558.75	13.299
559.08	13.050
559.42	12.245
559.76	13.529
560.10	12.634
560.44	13.138
560.78	11.510
561.12	12.533
561.45	13.233
561.79	12.657
562.13	12.140
562.47	12.500
562.81	12.831
563.15	12.375
563.48	12.732
563.82	12.133
564.16	11.969
564.50	11.458
564.84	12.010
565.17	11.969
565.51	11.821
565.85	12.310
566.19	11.897
566.52	12.033
566.86	12.598
567.20	12.087
567.54	12.272
567.88	11.027
568.21	11.640
568.55	11.881
568.89	11.625
569.23	11.230
569.56	10.729
569.90	10.868
570.24	10.154
570.57	10.099
570.91	10.472
571.25	10.037
571.59	10.515
571.92	9.793
572.26	10.456
572.60	10.511
572.93	10.255
573.27	10.382
573.61	10.553
573.95	10.594
574.28	9.799
574.62	9.742
574.96	9.892
575.29	9.918
575.63	9.832
575.97	9.711
576.30	10.250
576.64	10.184
576.98	9.844
577.31	9.681
577.65	10.098
577.98	9.429
578.32	9.452
578.66	9.895
578.99	9.564
579.33	9.877
579.67	9.681
580.00	9.830
580.34	9.729
580.67	9.809
581.01	10.142
581.35	9.470
581.68	9.262
582.02	9.393
582.35	9.349
582.69	9.551
583.02	9.688
583.36	9.684
583.70	10.040
584.03	10.162
584.37	10.540
584.70	9.979
585.04	10.005
585.37	10.368
585.71	9.845
586.04	10.051
586.38	10.214
586.72	10.356
587.05	9.780
587.39	9.578
587.72	9.997
588.06	9.578
588.39	10.069
588.73	9.856
589.06	10.377
589.40	10.337
589.73	9.926
590.07	10.320
590.40	9.719
590.73	10.148
591.07	10.704
591.40	10.628
591.74	10.649
592.07	10.689
592.41	10.955
592.74	9.925
593.08	10.127
593.41	10.376
593.75	9.307
594.08	9.588
594.41	10.428
594.75	10.129
595.08	10.558
595.42	10.263
595.75	9.509
596.09	10.402
596.42	10.570
596.75	10.848
597.09	11.818
597.42	10.118
597.75	10.177
598.09	10.609
598.42	10.309
598.76	10.134
599.09	9.540
599.42	10.189
599.76	9.810
600.09	10.055
600.42	9.533
600.76	10.357
601.09	9.982
601.42	10.008
601.76	10.133
602.09	10.237
602.42	9.992
602.76	10.036
603.09	9.913
603.42	10.465
603.76	9.794
604.09	9.965
604.42	9.702
604.76	10.755
605.09	10.310
605.42	10.432
605.75	10.141
606.09	10.126
606.42	9.931
606.75	10.369
607.09	10.423
607.42	10.184
607.75	10.380
608.08	9.857
608.42	10.489
608.75	10.550
609.08	9.621
609.41	10.281
609.75	9.814
610.08	10.745
610.41	9.916
610.74	9.839
611.07	10.326
611.41	10.550
611.74	11.664
612.07	10.818
612.40	10.965
612.73	10.632
613.07	11.207
613.40	10.795
613.73	10.488
614.06	10.323
614.39	10.750
614.72	10.368
615.06	10.767
615.39	9.926
615.72	10.583
616.05	9.995
616.38	11.062
616.71	10.273
617.05	10.483
617.38	10.583
617.71	10.991
618.04	10.757
618.37	10.763
618.70	10.205
619.03	11.447
619.36	10.998
619.69	11.197
620.03	11.745
620.36	10.829
620.69	12.466
621.02	11.283
621.35	11.355
621.68	11.293
622.01	11.146
622.34	10.590
622.67	12.243
623.00	10.638
623.33	12.009
623.66	11.651
623.99	10.236
624.32	11.198
624.65	11.794
624.99	10.623
625.32	11.803
625.65	10.744
625.98	11.453
626.31	12.131
626.64	11.918
626.97	11.471
627.30	10.640
627.63	13.208
627.96	11.606
628.29	11.811
628.62	12.443
628.95	12.642
629.28	12.318
629.61	12.924
629.94	10.476
630.26	12.011
630.59	11.535
630.92	11.782
631.25	12.142
631.58	12.713
631.91	12.576
632.24	10.127
632.57	13.221
632.90	13.158
633.23	12.528
633.56	13.898
633.89	14.043
634.22	13.734
634.55	12.899
634.88	12.335
635.20	12.664
635.53	13.735
