SpectraSuite Data File
++++++++++++++++++++++++++++++++++++
Date: Wed May 13 16:37:11 PDT 2015
User: schluterlab
Dark Spectrum Present: Yes
Reference Spectrum Present: Yes
Number of Sampled Component Spectra: 1
Spectrometers: USB2E3373
Integration Time (usec): 3000 (USB2E3373)
Spectra Averaged: 3 (USB2E3373)
Boxcar Smoothing: 0 (USB2E3373)
Correct for Electrical Dark: No (USB2E3373)
Strobe/Lamp Enabled: No (USB2E3373)
Correct for Detector Non-linearity: No (USB2E3373)
Correct for Stray Light: No (USB2E3373)
Number of Pixels in Processed Spectrum: 2048
>>>>>Begin Processed Spectral Data<<<<<
178.53	0.000
178.91	-1325.000
179.29	-1325.000
179.67	-277.778
180.04	-1150.000
180.42	2700.000
180.80	900.000
181.18	-950.000
181.56	671.429
181.94	0.000
182.31	-571.429
182.69	2000.000
183.07	-575.000
183.45	-555.556
183.83	554.545
184.20	-380.000
184.58	1950.000
184.96	4700.000
185.34	-960.000
185.72	-662.500
186.09	-1900.000
186.47	2600.000
186.85	2600.000
187.23	5100.000
187.61	-1633.333
187.98	1150.000
188.36	490.909
188.74	572.727
189.12	-820.000
189.49	520.000
189.87	-4300.000
190.25	-1325.000
190.63	350.000
191.00	423.077
191.38	900.000
191.76	-1125.000
192.14	1250.000
192.51	600.000
192.89	883.333
193.27	687.500
193.65	-1125.000
194.02	560.000
194.40	1020.000
194.78	420.000
195.15	516.667
195.53	630.000
195.91	-2050.000
196.29	375.000
196.66	336.842
197.04	-440.000
197.42	0.000
197.79	620.000
198.17	-4200.000
198.55	671.429
198.92	737.500
199.30	780.000
199.68	0.000
200.05	322.222
200.43	657.143
200.81	4800.000
201.18	1466.667
201.56	-1666.667
201.94	488.889
202.31	655.556
202.69	391.667
203.07	620.000
203.44	0.000
203.82	1150.000
204.19	871.429
204.57	442.857
204.95	675.000
205.32	1833.333
205.70	463.636
206.08	414.286
206.45	2750.000
206.83	418.750
207.20	916.667
207.58	700.000
207.96	327.778
208.33	775.000
208.71	-683.333
209.08	828.571
209.46	588.889
209.84	527.273
210.21	-1600.000
210.59	1300.000
210.96	-562.500
211.34	2700.000
211.71	630.000
212.09	816.667
212.46	0.000
212.84	1600.000
213.22	1275.000
213.59	-4600.000
213.97	800.000
214.34	814.286
214.72	618.182
215.09	1040.000
215.47	-2450.000
215.84	-2450.000
216.22	1433.333
216.59	371.429
216.97	1325.000
217.34	509.091
217.72	-633.333
218.09	0.000
218.47	-4700.000
218.84	588.889
219.22	685.714
219.59	1533.333
219.97	-628.571
220.34	940.000
220.72	-1900.000
221.09	457.143
221.47	1475.000
221.84	-933.333
222.22	0.000
222.59	1425.000
222.97	-2250.000
223.34	1140.000
223.72	400.000
224.09	1060.000
224.46	2300.000
224.84	-5100.000
225.21	-860.000
225.59	-5300.000
225.96	680.000
226.34	315.000
226.71	2200.000
227.08	675.000
227.46	520.000
227.83	-1350.000
228.21	-2150.000
228.58	488.889
228.95	-2600.000
229.33	-2500.000
229.70	1733.333
230.08	785.714
230.45	-820.000
230.82	458.333
231.20	733.333
231.57	628.571
231.95	341.667
232.32	300.000
232.69	427.273
233.07	700.000
233.44	353.846
233.81	-1733.333
234.19	273.684
234.56	333.333
234.93	366.667
235.31	400.000
235.68	338.462
236.05	378.571
236.43	178.788
236.80	236.842
237.17	3600.000
237.55	200.000
237.92	232.143
238.29	180.952
238.67	158.065
239.04	168.966
239.41	119.444
239.79	91.304
240.16	138.095
240.53	122.727
240.91	80.392
241.28	98.000
241.65	88.000
242.02	73.913
242.40	79.032
242.77	66.667
243.14	66.667
243.51	66.292
243.89	69.412
244.26	63.333
244.63	53.763
245.00	57.447
245.38	51.485
245.75	43.925
246.12	49.541
246.49	54.015
246.87	48.000
247.24	46.154
247.61	37.857
247.98	43.791
248.36	32.432
248.73	32.484
249.10	39.490
249.47	33.333
249.84	37.968
250.22	35.829
250.59	30.178
250.96	32.828
251.33	36.019
251.70	34.653
252.08	27.619
252.45	27.354
252.82	28.261
253.19	25.532
253.56	28.235
253.94	24.066
254.31	27.344
254.68	30.385
255.05	26.568
255.42	24.390
255.79	26.103
256.16	28.159
256.54	22.968
256.91	25.979
257.28	22.302
257.65	23.762
258.02	21.429
258.39	22.082
258.76	19.732
259.14	24.405
259.51	19.757
259.88	22.671
260.25	22.961
260.62	20.809
260.99	21.118
261.36	20.721
261.73	18.911
262.10	20.930
262.47	20.563
262.85	22.284
263.22	19.658
263.59	19.373
263.96	20.604
264.33	18.277
264.70	20.526
265.07	18.414
265.44	18.182
265.81	17.275
266.18	18.342
266.55	17.073
266.92	16.953
267.29	19.907
267.66	18.349
268.03	17.955
268.40	17.757
268.77	19.093
269.14	18.243
269.51	18.284
269.88	17.716
270.25	18.059
270.62	17.079
270.99	18.710
271.36	16.738
271.73	16.822
272.10	17.609
272.47	18.065
272.84	18.398
273.21	16.771
273.58	14.410
273.95	16.562
274.32	15.083
274.69	18.415
275.06	15.157
275.43	14.894
275.80	15.832
276.17	15.479
276.54	16.008
276.91	15.020
277.28	16.406
277.65	16.441
278.02	16.770
278.39	16.797
278.76	16.364
279.13	15.283
279.50	16.760
279.87	14.343
280.23	15.968
280.60	12.186
280.97	16.451
281.34	17.168
281.71	16.182
282.08	15.355
282.45	14.727
282.82	13.854
283.19	13.191
283.56	15.088
283.92	14.721
284.29	13.404
284.66	15.789
285.03	14.105
285.40	14.261
285.77	13.636
286.14	13.472
286.51	14.167
286.87	15.385
287.24	16.287
287.61	14.125
287.98	13.149
288.35	12.361
288.72	13.396
289.08	13.459
289.45	13.180
289.82	12.358
290.19	11.617
290.56	13.783
290.93	11.178
291.29	13.344
291.66	14.159
292.03	14.390
292.40	15.125
292.77	13.314
293.13	13.433
293.50	12.391
293.87	13.185
294.24	13.481
294.60	12.373
294.97	12.355
295.34	13.399
295.71	12.358
296.08	11.538
296.44	12.105
296.81	11.361
297.18	13.008
297.55	9.235
297.91	10.818
298.28	11.914
298.65	13.316
299.02	13.043
299.38	12.085
299.75	10.108
300.12	9.451
300.48	11.500
300.85	9.741
301.22	9.936
301.59	10.480
301.95	11.335
302.32	11.553
302.69	10.394
303.05	11.515
303.42	10.370
303.79	10.419
304.15	10.256
304.52	11.008
304.89	10.801
305.25	10.789
305.62	11.099
305.99	10.744
306.35	11.521
306.72	10.987
307.09	11.432
307.45	12.162
307.82	10.268
308.19	11.038
308.55	10.680
308.92	10.419
309.29	9.187
309.65	10.180
310.02	11.839
310.38	10.108
310.75	10.137
311.12	10.235
311.48	10.867
311.85	10.692
312.22	9.990
312.58	11.331
312.95	11.299
313.31	10.291
313.68	10.707
314.05	12.426
314.41	11.960
314.78	11.984
315.14	11.122
315.51	11.740
315.87	11.089
316.24	11.619
316.61	11.014
316.97	11.937
317.34	10.372
317.70	12.811
318.07	12.416
318.43	12.133
318.80	12.840
319.16	11.111
319.53	10.788
319.89	12.381
320.26	13.300
320.62	13.194
320.99	13.232
321.35	14.444
321.72	12.834
322.08	14.314
322.45	14.030
322.81	14.729
323.18	13.584
323.54	14.564
323.91	14.623
324.27	13.193
324.64	13.234
325.00	13.436
325.37	15.196
325.73	15.081
326.10	15.181
326.46	14.516
326.83	15.789
327.19	14.774
327.56	14.286
327.92	14.961
328.29	15.528
328.65	16.851
329.01	14.350
329.38	15.634
329.74	13.943
330.11	13.949
330.47	15.794
330.84	15.717
331.20	15.301
331.56	15.505
331.93	14.444
332.29	14.641
332.66	15.752
333.02	14.625
333.38	14.544
333.75	16.132
334.11	16.815
334.48	14.818
334.84	15.809
335.20	15.000
335.57	14.506
335.93	13.661
336.29	14.927
336.66	15.870
337.02	14.027
337.38	14.722
337.75	14.260
338.11	14.951
338.47	13.996
338.84	15.490
339.20	14.220
339.56	14.781
339.93	15.091
340.29	14.040
340.65	14.973
341.02	15.445
341.38	15.125
341.74	13.509
342.11	15.022
342.47	14.626
342.83	14.384
343.20	14.113
343.56	13.564
343.92	14.298
344.28	15.391
344.65	14.359
345.01	13.889
345.37	13.379
345.73	14.890
346.10	14.919
346.46	14.237
346.82	14.745
347.19	13.701
347.55	14.943
347.91	14.644
348.27	14.051
348.63	14.214
349.00	13.754
349.36	13.793
349.72	14.354
350.08	13.938
350.45	14.890
350.81	14.541
351.17	14.992
351.53	13.759
351.89	14.191
352.26	14.444
352.62	14.755
352.98	13.857
353.34	14.297
353.70	13.502
354.07	14.274
354.43	14.206
354.79	14.481
355.15	14.046
355.51	15.667
355.87	14.286
356.24	14.088
356.60	13.553
356.96	13.596
357.32	14.227
357.68	14.409
358.04	14.093
358.40	14.806
358.77	15.180
359.13	14.207
359.49	14.118
359.85	13.175
360.21	14.274
360.57	15.097
360.93	14.308
361.29	14.815
361.66	14.164
362.02	14.627
362.38	14.297
362.74	14.286
363.10	14.582
363.46	13.206
363.82	13.908
364.18	15.786
364.54	15.825
364.90	14.802
365.26	14.926
365.62	14.536
365.98	14.974
366.35	14.183
366.71	15.112
367.07	14.130
367.43	15.239
367.79	14.847
368.15	15.589
368.51	14.317
368.87	15.061
369.23	15.874
369.59	15.206
369.95	15.221
370.31	16.026
370.67	15.652
371.03	17.004
371.39	15.743
371.75	15.221
372.11	15.789
372.47	16.129
372.83	16.499
373.19	14.740
373.55	16.038
373.91	17.158
374.27	16.426
374.63	15.782
374.99	16.525
375.35	16.399
375.71	16.107
376.07	18.176
376.42	16.988
376.78	18.025
377.14	17.096
377.50	18.609
377.86	16.556
378.22	17.320
378.58	17.043
378.94	18.102
379.30	17.048
379.66	17.576
380.02	18.120
380.38	17.790
380.74	19.088
381.09	19.621
381.45	19.791
381.81	19.656
382.17	19.236
382.53	19.057
382.89	19.815
383.25	20.013
383.61	20.074
383.97	20.575
384.32	20.586
384.68	20.012
385.04	20.283
385.40	20.867
385.76	21.069
386.12	21.373
386.48	21.586
386.83	22.643
387.19	22.325
387.55	22.387
387.91	22.189
388.27	21.827
388.62	21.819
388.98	22.973
389.34	22.528
389.70	22.256
390.06	22.624
390.42	23.087
390.77	22.583
391.13	22.974
391.49	23.223
391.85	22.915
392.20	22.524
392.56	23.485
392.92	23.955
393.28	22.249
393.64	23.321
393.99	24.435
394.35	24.069
394.71	23.588
395.07	22.991
395.42	24.413
395.78	24.237
396.14	23.712
396.50	23.684
396.85	24.539
397.21	24.106
397.57	24.179
397.92	24.038
398.28	23.318
398.64	24.134
399.00	23.839
399.35	24.083
399.71	24.711
400.07	24.719
400.42	24.294
400.78	24.367
401.14	24.024
401.49	23.821
401.85	24.440
402.21	24.371
402.57	23.627
402.92	24.023
403.28	24.047
403.63	24.505
403.99	23.949
404.35	24.242
404.70	23.801
405.06	24.054
405.42	24.454
405.77	23.314
406.13	22.912
406.49	24.660
406.84	24.040
407.20	23.109
407.55	24.186
407.91	25.267
408.27	24.825
408.62	24.503
408.98	24.326
409.34	24.539
409.69	23.806
410.05	24.411
410.40	24.281
410.76	24.194
411.11	23.824
411.47	24.920
411.83	25.473
412.18	23.748
412.54	24.408
412.89	23.855
413.25	23.731
413.60	24.830
413.96	22.951
414.31	23.876
414.67	24.778
415.03	23.642
415.38	24.098
415.74	24.116
416.09	24.559
416.45	24.766
416.80	23.992
417.16	25.402
417.51	24.618
417.87	23.764
418.22	24.858
418.58	24.467
418.93	24.201
419.29	24.952
419.64	24.622
420.00	24.146
420.35	24.406
420.71	24.746
421.06	23.747
421.42	23.918
421.77	24.496
422.12	23.133
422.48	23.583
422.83	24.636
423.19	24.530
423.54	24.492
423.90	24.638
424.25	24.344
424.61	24.226
424.96	24.723
425.31	23.920
425.67	23.202
426.02	24.800
426.38	24.359
426.73	24.810
427.09	24.620
427.44	24.784
427.79	24.324
428.15	24.405
428.50	24.225
428.85	24.911
429.21	24.572
429.56	24.002
429.92	24.006
430.27	24.230
430.62	23.656
430.98	24.027
431.33	23.763
431.68	24.188
432.04	24.068
432.39	24.101
432.74	24.596
433.10	25.071
433.45	24.898
433.80	25.166
434.16	24.306
434.51	24.000
434.86	24.800
435.22	24.792
435.57	24.863
435.92	24.108
436.28	25.801
436.63	24.779
436.98	24.213
437.34	24.210
437.69	24.854
438.04	25.689
438.39	24.657
438.75	26.148
439.10	25.307
439.45	25.443
439.81	24.169
440.16	24.675
440.51	25.015
440.86	25.420
441.22	25.695
441.57	25.425
441.92	24.616
442.27	24.596
442.63	24.539
442.98	25.746
443.33	24.674
443.68	24.935
444.03	25.573
444.39	24.148
444.74	25.866
445.09	25.337
445.44	25.150
445.79	23.850
446.15	25.675
446.50	25.902
446.85	24.101
447.20	25.293
447.55	26.075
447.91	24.545
448.26	26.099
448.61	25.890
448.96	25.692
449.31	26.097
449.66	26.111
450.02	25.348
450.37	25.567
450.72	25.550
451.07	25.838
451.42	24.498
451.77	26.835
452.12	25.866
452.47	26.057
452.83	25.058
453.18	25.733
453.53	25.727
453.88	25.871
454.23	26.001
454.58	26.469
454.93	26.383
455.28	25.686
455.63	25.243
455.98	25.774
456.34	26.193
456.69	26.675
457.04	26.254
457.39	25.365
457.74	25.421
458.09	25.244
458.44	25.713
458.79	24.458
459.14	25.621
459.49	26.153
459.84	25.983
460.19	25.987
460.54	25.000
460.89	24.575
461.24	25.744
461.59	26.438
461.94	25.216
462.29	26.409
462.64	25.909
462.99	25.895
463.34	26.600
463.69	26.016
464.04	26.203
464.39	25.797
464.74	25.015
465.09	25.392
465.44	25.706
465.79	24.664
466.14	25.616
466.49	25.695
466.84	25.861
467.19	25.106
467.54	25.375
467.89	25.210
468.24	26.585
468.59	26.007
468.94	25.290
469.29	26.350
469.64	26.975
469.99	25.034
470.34	25.231
470.68	26.221
471.03	26.531
471.38	27.033
471.73	26.249
472.08	25.724
472.43	26.319
472.78	25.741
473.13	25.225
473.48	25.281
473.83	25.488
474.17	25.576
474.52	25.806
474.87	25.803
475.22	25.421
475.57	25.524
475.92	25.013
476.27	24.746
476.61	24.931
476.96	24.299
477.31	24.594
477.66	25.000
478.01	25.405
478.36	24.907
478.70	24.559
479.05	25.186
479.40	25.077
479.75	24.657
480.10	24.453
480.45	23.703
480.79	23.698
481.14	24.560
481.49	25.012
481.84	25.057
482.19	25.080
482.53	24.128
482.88	24.942
483.23	23.879
483.58	24.431
483.92	24.883
484.27	23.399
484.62	23.793
484.97	23.335
485.31	23.973
485.66	23.328
486.01	21.665
486.36	21.060
486.70	20.425
487.05	21.313
487.40	21.885
487.75	22.618
488.09	23.264
488.44	23.249
488.79	23.544
489.13	24.141
489.48	23.206
489.83	23.651
490.17	23.455
490.52	23.561
490.87	23.926
491.22	23.874
491.56	23.462
491.91	23.546
492.26	22.967
492.60	24.240
492.95	23.246
493.30	22.664
493.64	24.078
493.99	23.538
494.34	24.098
494.68	24.588
495.03	24.154
495.37	23.499
495.72	23.197
496.07	23.991
496.41	23.274
496.76	23.395
497.11	23.323
497.45	23.428
497.80	23.273
498.14	23.961
498.49	24.146
498.84	23.730
499.18	23.238
499.53	23.314
499.87	23.346
500.22	22.327
500.56	24.417
500.91	23.077
501.26	23.423
501.60	22.829
501.95	23.144
502.29	23.711
502.64	24.115
502.98	23.095
503.33	23.172
503.67	23.016
504.02	23.340
504.36	22.883
504.71	23.742
505.06	23.277
505.40	23.335
505.75	23.047
506.09	23.712
506.44	23.187
506.78	23.721
507.13	23.826
507.47	23.737
507.82	24.215
508.16	23.303
508.51	23.643
508.85	23.386
509.19	23.724
509.54	23.827
509.88	23.390
510.23	24.473
510.57	23.271
510.92	23.822
511.26	22.867
511.61	23.807
511.95	23.225
512.30	23.012
512.64	23.321
512.98	24.544
513.33	23.287
513.67	23.159
514.02	23.160
514.36	24.413
514.70	24.018
515.05	23.369
515.39	24.061
515.74	23.480
516.08	24.259
516.42	23.807
516.77	24.415
517.11	23.529
517.46	24.774
517.80	24.564
518.14	23.219
518.49	24.679
518.83	24.205
519.17	23.788
519.52	24.052
519.86	23.959
520.20	25.087
520.55	25.135
520.89	25.243
521.23	24.427
521.58	24.430
521.92	24.679
522.26	23.246
522.61	24.922
522.95	24.187
523.29	24.467
523.64	24.634
523.98	24.214
524.32	23.643
524.66	24.534
525.01	23.039
525.35	24.969
525.69	23.830
526.04	23.676
526.38	23.246
526.72	24.049
527.06	23.352
527.41	23.082
527.75	24.566
528.09	24.213
528.43	23.773
528.78	24.155
529.12	23.152
529.46	23.454
529.80	23.762
530.15	24.112
530.49	23.138
530.83	24.304
531.17	23.890
531.51	25.162
531.86	24.516
532.20	24.511
532.54	23.831
532.88	24.390
533.22	23.048
533.57	24.074
533.91	23.721
534.25	22.783
534.59	22.880
534.93	22.606
535.27	23.597
535.62	24.115
535.96	24.608
536.30	23.458
536.64	23.954
536.98	24.950
537.32	23.831
537.66	23.467
538.01	24.687
538.35	23.335
538.69	23.995
539.03	22.937
539.37	22.620
539.71	22.294
540.05	23.137
540.39	23.389
540.73	23.351
541.07	23.816
541.42	22.896
541.76	24.000
542.10	23.480
542.44	22.318
542.78	23.452
543.12	22.073
543.46	23.148
543.80	23.422
544.14	23.042
544.48	22.667
544.82	22.514
545.16	22.772
545.50	22.815
545.84	22.715
546.18	22.626
546.52	22.230
546.86	23.024
547.20	23.264
547.54	22.979
547.88	23.342
548.22	22.790
548.56	22.453
548.90	22.471
549.24	22.626
549.58	22.101
549.92	22.802
550.26	23.793
550.60	22.614
550.94	23.592
551.28	22.458
551.62	23.724
551.96	22.175
552.30	22.662
552.64	22.853
552.98	22.847
553.32	22.792
553.66	22.495
554.00	22.512
554.34	23.119
554.68	23.462
555.02	22.990
555.36	23.034
555.69	22.869
556.03	22.544
556.37	22.306
556.71	21.965
557.05	23.529
557.39	23.023
557.73	23.430
558.07	23.930
558.41	22.865
558.75	22.998
559.08	21.999
559.42	23.432
559.76	23.456
560.10	22.413
560.44	22.851
560.78	21.823
561.12	22.889
561.45	22.295
561.79	21.490
562.13	22.267
562.47	21.926
562.81	22.455
563.15	21.605
563.48	22.613
563.82	22.179
564.16	22.041
564.50	20.833
564.84	21.871
565.17	21.686
565.51	21.981
565.85	20.178
566.19	21.728
566.52	22.039
566.86	20.735
567.20	22.170
567.54	21.632
567.88	20.804
568.21	21.534
568.55	20.930
568.89	20.525
569.23	20.098
569.56	19.231
569.90	19.509
570.24	18.730
570.57	18.769
570.91	18.843
571.25	18.530
571.59	18.645
571.92	18.030
572.26	18.082
572.60	19.039
572.93	18.591
573.27	18.841
573.61	18.900
573.95	18.450
574.28	17.487
574.62	18.367
574.96	17.921
575.29	17.653
575.63	17.785
575.97	17.730
576.30	18.348
576.64	18.347
576.98	18.036
577.31	17.745
577.65	17.828
577.98	17.652
578.32	17.355
578.66	17.526
578.99	17.667
579.33	17.720
579.67	17.855
580.00	17.574
580.34	17.893
580.67	18.199
581.01	17.855
581.35	17.877
581.68	17.389
582.02	17.282
582.35	17.161
582.69	17.226
583.02	17.409
583.36	18.008
583.70	18.407
584.03	18.051
584.37	18.472
584.70	18.495
585.04	18.371
585.37	17.917
585.71	18.092
586.04	18.265
586.38	18.417
586.72	18.365
587.05	18.283
587.39	18.127
587.72	18.294
588.06	18.223
588.39	18.436
588.73	18.510
589.06	18.822
589.40	19.293
589.73	19.219
590.07	18.790
590.40	18.634
590.73	19.984
591.07	19.617
591.40	19.907
591.74	20.260
592.07	19.852
592.41	19.967
592.74	18.539
593.08	18.688
593.41	18.855
593.75	18.613
594.08	18.471
594.41	19.229
594.75	19.076
595.08	18.898
595.42	18.844
595.75	18.981
596.09	19.189
596.42	20.039
596.75	19.629
597.09	20.260
597.42	19.266
597.75	19.491
598.09	19.304
598.42	19.588
598.76	19.133
599.09	19.004
599.42	18.632
599.76	19.217
600.09	18.725
600.42	18.408
600.76	18.679
601.09	18.506
601.42	18.836
601.76	19.013
602.09	19.051
602.42	19.347
602.76	19.025
603.09	19.079
603.42	18.704
603.76	18.521
604.09	18.651
604.42	19.242
604.76	20.076
605.09	19.878
605.42	19.282
605.75	19.288
606.09	19.195
606.42	18.717
606.75	19.577
607.09	19.464
607.42	18.057
607.75	18.734
608.08	18.845
608.42	20.036
608.75	18.711
609.08	19.519
609.41	19.515
609.75	18.961
610.08	19.274
610.41	19.553
610.74	19.205
611.07	19.615
611.41	19.480
611.74	19.759
612.07	19.824
612.40	20.304
612.73	18.632
613.07	20.582
613.40	20.221
613.73	19.507
614.06	19.892
614.39	19.297
614.72	20.053
615.06	19.958
615.39	19.002
615.72	19.785
616.05	18.926
616.38	19.344
616.71	20.606
617.05	20.789
617.38	20.265
617.71	20.240
618.04	20.613
618.37	20.816
618.70	20.286
619.03	21.184
619.36	20.434
619.69	21.338
620.03	21.909
620.36	21.190
620.69	20.959
621.02	22.714
621.35	21.378
621.68	21.262
622.01	21.285
622.34	22.163
622.67	20.684
623.00	20.616
623.33	21.301
623.66	20.872
623.99	21.576
624.32	21.541
624.65	21.822
624.99	19.688
625.32	20.203
625.65	21.262
625.98	22.291
626.31	21.773
626.64	21.878
626.97	21.446
627.30	20.781
627.63	22.149
627.96	21.110
628.29	22.922
628.62	23.971
628.95	23.679
629.28	23.449
629.61	22.731
629.94	21.810
630.26	22.688
630.59	21.735
630.92	22.989
631.25	23.100
