SpectraSuite Data File
++++++++++++++++++++++++++++++++++++
Date: Wed May 13 16:30:27 PDT 2015
User: schluterlab
Dark Spectrum Present: Yes
Reference Spectrum Present: Yes
Number of Sampled Component Spectra: 1
Spectrometers: USB2E3373
Integration Time (usec): 3000 (USB2E3373)
Spectra Averaged: 3 (USB2E3373)
Boxcar Smoothing: 0 (USB2E3373)
Correct for Electrical Dark: No (USB2E3373)
Strobe/Lamp Enabled: No (USB2E3373)
Correct for Detector Non-linearity: No (USB2E3373)
Correct for Stray Light: No (USB2E3373)
Number of Pixels in Processed Spectrum: 2048
>>>>>Begin Processed Spectral Data<<<<<
178.53	0.000
178.91	-1050.000
179.29	-1075.000
179.67	-194.444
180.04	-925.000
180.42	2150.000
180.80	1100.000
181.18	-1175.000
181.56	685.714
181.94	0.000
182.31	-742.857
182.69	1666.667
183.07	-475.000
183.45	-388.889
183.83	518.182
184.20	-250.000
184.58	2050.000
184.96	5000.000
185.34	-740.000
185.72	-562.500
186.09	-1600.000
186.47	2100.000
186.85	2450.000
187.23	4000.000
187.61	-1600.000
187.98	1100.000
188.36	445.455
188.74	518.182
189.12	-900.000
189.49	500.000
189.87	-4000.000
190.25	-1425.000
190.63	400.000
191.00	446.154
191.38	766.667
191.76	-1175.000
192.14	1350.000
192.51	462.500
192.89	966.667
193.27	600.000
193.65	-1125.000
194.02	560.000
194.40	920.000
194.78	440.000
195.15	525.000
195.53	650.000
195.91	-2050.000
196.29	312.500
196.66	315.789
197.04	-340.000
197.42	0.000
197.79	640.000
198.17	-4300.000
198.55	500.000
198.92	537.500
199.30	820.000
199.68	0.000
200.05	327.778
200.43	671.429
200.81	4400.000
201.18	1566.667
201.56	-1566.667
201.94	555.556
202.31	577.778
202.69	350.000
203.07	490.000
203.44	0.000
203.82	1175.000
204.19	571.429
204.57	335.714
204.95	712.500
205.32	1566.667
205.70	472.727
206.08	428.571
206.45	2250.000
206.83	300.000
207.20	816.667
207.58	880.000
207.96	327.778
208.33	725.000
208.71	-766.667
209.08	828.571
209.46	522.222
209.84	536.364
210.21	-1033.333
210.59	1275.000
210.96	-450.000
211.34	2350.000
211.71	520.000
212.09	766.667
212.46	0.000
212.84	1700.000
213.22	1450.000
213.59	-3500.000
213.97	833.333
214.34	671.429
214.72	481.818
215.09	960.000
215.47	-1950.000
215.84	-2300.000
216.22	1533.333
216.59	350.000
216.97	1275.000
217.34	454.545
217.72	-633.333
218.09	0.000
218.47	-4200.000
218.84	622.222
219.22	714.286
219.59	1300.000
219.97	-557.143
220.34	980.000
220.72	-1700.000
221.09	350.000
221.47	1450.000
221.84	-816.667
222.22	0.000
222.59	1050.000
222.97	-2250.000
223.34	1080.000
223.72	361.538
224.09	940.000
224.46	2500.000
224.84	-4900.000
225.21	-880.000
225.59	-4400.000
225.96	600.000
226.34	315.000
226.71	2050.000
227.08	637.500
227.46	530.000
227.83	-1100.000
228.21	-2000.000
228.58	566.667
228.95	-2600.000
229.33	-1750.000
229.70	1433.333
230.08	814.286
230.45	-800.000
230.82	458.333
231.20	766.667
231.57	671.429
231.95	466.667
232.32	227.273
232.69	390.909
233.07	657.143
233.44	407.692
233.81	-1600.000
234.19	310.526
234.56	458.333
234.93	466.667
235.31	363.636
235.68	400.000
236.05	335.714
236.43	181.818
236.80	289.474
237.17	5000.000
237.55	228.571
237.92	246.429
238.29	290.476
238.67	229.032
239.04	206.897
239.41	152.778
239.79	152.174
240.16	173.810
240.53	136.364
240.91	133.333
241.28	152.000
241.65	154.000
242.02	126.087
242.40	125.806
242.77	136.667
243.14	103.226
243.51	124.719
243.89	103.529
244.26	95.556
244.63	93.548
245.00	102.128
245.38	102.970
245.75	87.850
246.12	88.073
246.49	83.942
246.87	94.400
247.24	93.077
247.61	87.857
247.98	84.967
248.36	77.703
248.73	80.892
249.10	84.713
249.47	80.791
249.84	74.332
250.22	79.679
250.59	79.290
250.96	71.212
251.33	72.986
251.70	72.772
252.08	71.905
252.45	69.507
252.82	71.304
253.19	72.340
253.56	74.510
253.94	72.614
254.31	71.094
254.68	77.692
255.05	71.956
255.42	71.951
255.79	72.426
256.16	67.870
256.54	67.491
256.91	68.683
257.28	70.144
257.65	65.017
258.02	66.149
258.39	60.883
258.76	64.883
259.14	66.071
259.51	62.918
259.88	63.975
260.25	67.372
260.62	66.185
260.99	63.975
261.36	66.066
261.73	67.049
262.10	66.860
262.47	60.845
262.85	65.738
263.22	60.399
263.59	66.097
263.96	60.714
264.33	59.008
264.70	63.947
265.07	61.637
265.44	58.333
265.81	61.800
266.18	60.553
266.55	61.707
266.92	62.162
267.29	58.796
267.66	62.615
268.03	56.591
268.40	62.617
268.77	62.768
269.14	61.261
269.51	60.948
269.88	62.704
270.25	58.465
270.62	58.202
270.99	58.495
271.36	59.227
271.73	62.850
272.10	59.130
272.47	60.000
272.84	57.576
273.21	58.281
273.58	57.860
273.95	56.394
274.32	56.198
274.69	60.814
275.06	56.890
275.43	58.936
275.80	57.715
276.17	58.045
276.54	58.004
276.91	58.300
277.28	57.617
277.65	55.513
278.02	59.627
278.39	56.836
278.76	55.091
279.13	57.358
279.50	53.259
279.87	55.976
280.23	57.485
280.60	58.027
280.97	56.562
281.34	54.690
281.71	54.000
282.08	58.925
282.45	50.182
282.82	54.352
283.19	54.724
283.56	55.439
283.92	53.976
284.29	51.852
284.66	54.265
285.03	53.707
285.40	54.049
285.77	50.842
286.14	52.159
286.51	54.333
286.87	52.821
287.24	53.094
287.61	52.006
287.98	51.461
288.35	50.079
288.72	49.377
289.08	51.017
289.45	53.707
289.82	51.707
290.19	49.765
290.56	47.933
290.93	48.489
291.29	49.080
291.66	48.968
292.03	48.401
292.40	49.339
292.77	45.710
293.13	46.418
293.50	45.044
293.87	46.370
294.24	42.222
294.60	44.687
294.97	44.041
295.34	44.852
295.71	43.892
296.08	44.302
296.44	44.979
296.81	41.744
297.18	43.360
297.55	41.953
297.91	42.084
298.28	44.311
298.65	42.167
299.02	40.580
299.38	42.762
299.75	40.296
300.12	40.868
300.48	40.625
300.85	40.074
301.22	41.656
301.59	40.783
301.95	39.798
302.32	41.335
302.69	40.502
303.05	39.758
303.42	38.642
303.79	39.411
304.15	38.695
304.52	39.513
304.89	40.418
305.25	38.399
305.62	39.071
305.99	39.433
306.35	39.709
306.72	39.910
307.09	39.623
307.45	39.865
307.82	37.723
308.19	37.417
308.55	38.188
308.92	36.950
309.29	36.959
309.65	36.903
310.02	38.584
310.38	37.097
310.75	37.487
311.12	36.950
311.48	38.349
311.85	37.736
312.22	38.502
312.58	37.318
312.95	38.543
313.31	35.243
313.68	36.071
314.05	38.757
314.41	36.683
314.78	37.059
315.14	37.140
315.51	37.796
315.87	36.535
316.24	37.239
316.61	36.160
316.97	37.476
317.34	36.986
317.70	36.616
318.07	36.670
318.43	36.791
318.80	36.645
319.16	36.158
319.53	34.803
319.89	36.095
320.26	38.100
320.62	37.401
320.99	37.273
321.35	38.384
321.72	36.653
322.08	36.723
322.45	38.308
322.81	39.438
323.18	37.669
323.54	37.106
323.91	37.358
324.27	35.182
324.64	35.601
325.00	35.798
325.37	37.398
325.73	37.074
326.10	36.011
326.46	35.842
326.83	37.015
327.19	35.781
327.56	35.627
327.92	36.833
328.29	36.114
328.65	35.543
329.01	36.372
329.38	35.245
329.74	35.549
330.11	35.627
330.47	34.986
330.84	36.489
331.20	35.428
331.56	35.321
331.93	35.741
332.29	33.452
332.66	35.310
333.02	34.461
333.38	35.772
333.75	34.848
334.11	34.786
334.48	33.895
334.84	35.662
335.20	35.273
335.57	35.086
335.93	33.929
336.29	34.524
336.66	34.445
337.02	33.394
337.38	33.981
337.75	33.601
338.11	34.109
338.47	34.530
338.84	35.289
339.20	33.761
339.56	34.307
339.93	34.364
340.29	33.333
340.65	33.957
341.02	33.857
341.38	33.630
341.74	34.123
342.11	34.236
342.47	34.185
342.83	33.134
343.20	33.333
343.56	32.013
343.92	32.544
344.28	32.908
344.65	34.308
345.01	32.071
345.37	33.276
345.73	34.264
346.10	33.589
346.46	32.627
346.82	32.784
347.19	32.080
347.55	31.938
347.91	33.414
348.27	32.210
348.63	32.441
349.00	32.362
349.36	32.020
349.72	31.195
350.08	31.686
350.45	33.523
350.81	32.169
351.17	31.199
351.53	32.351
351.89	32.673
352.26	31.886
352.62	32.237
352.98	32.982
353.34	32.539
353.70	31.178
354.07	32.097
354.43	31.349
354.79	32.100
355.15	30.726
355.51	31.974
355.87	32.000
356.24	31.026
356.60	30.473
356.96	32.422
357.32	30.335
357.68	31.417
358.04	31.908
358.40	30.721
358.77	30.751
359.13	29.597
359.49	30.902
359.85	30.952
360.21	30.383
360.57	30.506
360.93	31.308
361.29	30.763
361.66	29.954
362.02	30.672
362.38	31.407
362.74	31.250
363.10	30.126
363.46	29.494
363.82	30.990
364.18	29.956
364.54	30.535
364.90	30.737
365.26	30.000
365.62	30.387
365.98	29.949
366.35	28.582
366.71	30.441
367.07	30.299
367.43	30.261
367.79	30.835
368.15	30.603
368.51	29.869
368.87	29.979
369.23	30.944
369.59	30.702
369.95	28.750
370.31	30.271
370.67	29.058
371.03	31.536
371.39	29.810
371.75	30.515
372.11	29.232
372.47	29.839
372.83	30.692
373.19	29.480
373.55	29.638
373.91	30.118
374.27	28.385
374.63	29.818
374.99	29.661
375.35	29.518
375.71	29.404
376.07	29.081
376.42	30.193
376.78	30.550
377.14	29.851
377.50	29.470
377.86	28.391
378.22	30.278
378.58	29.386
378.94	29.164
379.30	28.753
379.66	30.838
380.02	29.238
380.38	29.144
380.74	30.012
381.09	29.462
381.45	29.687
381.81	29.791
382.17	30.127
382.53	29.937
382.89	29.568
383.25	30.519
383.61	29.554
383.97	29.706
384.32	30.006
384.68	29.182
385.04	29.564
385.40	28.731
385.76	29.423
386.12	29.469
386.48	29.264
386.83	30.340
387.19	31.045
387.55	29.190
387.91	29.141
388.27	29.430
388.62	30.117
388.98	28.133
389.34	30.288
389.70	29.859
390.06	30.672
390.42	29.377
390.77	29.962
391.13	29.611
391.49	29.505
391.85	29.790
392.20	28.265
392.56	28.977
392.92	29.135
393.28	28.757
393.64	29.916
393.99	29.444
394.35	28.536
394.71	29.611
395.07	29.159
395.42	29.048
395.78	29.580
396.14	29.361
396.50	30.388
396.85	29.116
397.21	29.408
397.57	29.882
397.92	29.327
398.28	28.700
398.64	29.510
399.00	28.875
399.35	28.765
399.71	29.051
400.07	29.332
400.42	29.571
400.78	29.614
401.14	28.232
401.49	28.836
401.85	27.526
402.21	28.563
402.57	28.994
402.92	30.202
403.28	29.981
403.63	29.146
403.99	29.045
404.35	29.636
404.70	28.417
405.06	29.179
405.42	30.256
405.77	28.229
406.13	28.160
406.49	28.977
406.84	29.297
407.20	27.955
407.55	28.015
407.91	29.200
408.27	28.143
408.62	29.440
408.98	28.676
409.34	29.213
409.69	28.323
410.05	29.058
410.40	28.930
410.76	28.495
411.11	28.709
411.47	28.371
411.83	28.528
412.18	28.695
412.54	29.265
412.89	29.096
413.25	28.453
413.60	29.339
413.96	28.537
414.31	28.736
414.67	28.771
415.03	28.477
415.38	29.188
415.74	28.810
416.09	30.176
416.45	28.447
416.80	28.883
417.16	29.223
417.51	29.794
417.87	26.975
418.22	29.716
418.58	28.793
418.93	28.624
419.29	28.199
419.64	28.715
420.00	27.866
420.35	28.522
420.71	28.631
421.06	28.162
421.42	28.480
421.77	28.812
422.12	27.681
422.48	27.901
422.83	28.946
423.19	28.729
423.54	27.568
423.90	28.522
424.25	27.806
424.61	28.452
424.96	28.921
425.31	28.073
425.67	27.079
426.02	28.571
426.38	28.205
426.73	27.560
427.09	28.328
427.44	28.407
427.79	27.602
428.15	27.619
428.50	27.853
428.85	27.950
429.21	27.554
429.56	28.409
429.92	27.781
430.27	28.054
430.62	26.472
430.98	27.815
431.33	26.804
431.68	28.639
432.04	27.370
432.39	28.212
432.74	28.486
433.10	27.957
433.45	28.571
433.80	27.439
434.16	28.312
434.51	27.105
434.86	28.221
435.22	27.793
435.57	27.660
435.92	27.794
436.28	28.173
436.63	28.753
436.98	27.705
437.34	28.623
437.69	27.946
438.04	27.712
438.39	28.119
438.75	28.239
439.10	27.598
439.45	28.453
439.81	28.459
440.16	27.216
440.51	28.061
440.86	28.373
441.22	27.753
441.57	27.654
441.92	27.636
442.27	27.772
442.63	27.909
442.98	28.451
443.33	28.587
443.68	28.343
444.03	28.014
444.39	27.702
444.74	28.517
445.09	27.439
445.44	27.665
445.79	27.363
446.15	27.528
446.50	27.518
446.85	27.801
447.20	27.843
447.55	28.811
447.91	27.523
448.26	28.269
448.61	28.321
448.96	28.516
449.31	28.009
449.66	28.756
450.02	27.354
450.37	27.721
450.72	27.524
451.07	27.605
451.42	28.085
451.77	27.775
452.12	28.580
452.47	27.923
452.83	28.205
453.18	28.484
453.53	28.262
453.88	27.171
454.23	28.093
454.58	28.346
454.93	29.053
455.28	27.057
455.63	27.791
455.98	28.214
456.34	27.450
456.69	28.428
457.04	27.988
457.39	27.177
457.74	27.800
458.09	26.567
458.44	27.651
458.79	27.278
459.14	27.991
459.49	27.087
459.84	26.925
460.19	27.755
460.54	27.025
460.89	28.470
461.24	27.505
461.59	28.588
461.94	27.744
462.29	28.190
462.64	27.696
462.99	26.805
463.34	27.600
463.69	27.455
464.04	27.826
464.39	26.609
464.74	27.807
465.09	27.624
465.44	26.759
465.79	27.293
466.14	27.039
466.49	26.418
466.84	26.970
467.19	27.097
467.54	27.312
467.89	26.831
468.24	27.225
468.59	27.167
468.94	27.673
469.29	26.864
469.64	27.309
469.99	27.334
470.34	26.882
470.68	27.802
471.03	27.347
471.38	28.006
471.73	28.181
472.08	27.500
472.43	26.759
472.78	27.189
473.13	26.829
473.48	27.341
473.83	27.256
474.17	26.136
474.52	27.233
474.87	28.021
475.22	27.626
475.57	26.437
475.92	26.819
476.27	26.719
476.61	26.420
476.96	26.388
477.31	26.164
477.66	27.024
478.01	26.242
478.36	26.494
478.70	25.649
479.05	26.890
479.40	26.151
479.75	26.640
480.10	25.895
480.45	26.035
480.79	26.183
481.14	26.272
481.49	26.341
481.84	26.155
482.19	26.579
482.53	26.147
482.88	25.361
483.23	25.981
483.58	26.024
483.92	26.148
484.27	25.708
484.62	25.819
484.97	25.305
485.31	27.329
485.66	25.492
486.01	24.926
486.36	24.073
486.70	23.939
487.05	24.515
487.40	25.511
487.75	25.712
488.09	26.539
488.44	26.284
488.79	27.667
489.13	26.891
489.48	25.856
489.83	26.155
490.17	25.778
490.52	25.554
490.87	25.102
491.22	25.148
491.56	25.057
491.91	25.268
492.26	25.264
492.60	24.470
492.95	25.491
493.30	24.766
493.64	25.058
493.99	24.513
494.34	25.069
494.68	25.229
495.03	25.564
495.37	25.407
495.72	24.708
496.07	25.568
496.41	24.425
496.76	24.978
497.11	24.674
497.45	25.151
497.80	25.624
498.14	25.700
498.49	24.780
498.84	25.407
499.18	25.476
499.53	25.546
499.87	25.443
500.22	24.918
500.56	26.699
500.91	24.856
501.26	25.130
501.60	25.486
501.95	25.069
502.29	25.867
502.64	25.093
502.98	24.965
503.33	24.360
503.67	24.826
504.02	24.696
504.36	24.286
504.71	24.573
505.06	25.157
505.40	25.523
505.75	24.928
506.09	24.879
506.44	24.371
506.78	24.744
507.13	25.593
507.47	24.848
507.82	25.633
508.16	25.481
508.51	25.622
508.85	24.230
509.19	24.796
509.54	24.898
509.88	24.730
510.23	25.039
510.57	26.161
510.92	25.531
511.26	25.077
511.61	24.844
511.95	24.165
512.30	24.602
512.64	25.255
512.98	25.295
513.33	25.268
513.67	24.386
514.02	24.621
514.36	24.140
514.70	24.903
515.05	24.707
515.39	24.958
515.74	24.887
516.08	25.098
516.42	25.194
516.77	24.916
517.11	24.306
517.46	24.718
517.80	25.377
518.14	24.841
518.49	25.321
518.83	24.659
519.17	24.480
519.52	24.278
519.86	24.529
520.20	24.335
520.55	24.596
520.89	25.182
521.23	25.513
521.58	24.670
521.92	24.679
522.26	24.588
522.61	24.611
522.95	24.739
523.29	24.833
523.64	24.451
523.98	24.399
524.32	24.849
524.66	25.015
525.01	24.203
525.35	23.730
525.69	24.200
526.04	24.611
526.38	24.161
526.72	24.479
527.06	25.361
527.41	24.567
527.75	24.695
528.09	24.663
528.43	25.175
528.78	24.524
529.12	24.424
529.46	24.801
529.80	25.557
530.15	24.984
530.49	24.554
530.83	24.747
531.17	24.804
531.51	26.394
531.86	24.968
532.20	24.967
532.54	24.279
532.88	24.583
533.22	24.110
533.57	25.000
533.91	24.443
534.25	24.301
534.59	24.893
534.93	24.450
535.27	24.562
535.62	24.969
535.96	25.549
536.30	24.666
536.64	25.241
536.98	25.747
537.32	25.016
537.66	24.667
538.01	25.148
538.35	25.469
538.69	25.846
539.03	24.691
539.37	23.834
539.71	24.109
540.05	24.052
540.39	24.585
540.73	24.127
541.07	26.282
541.42	24.984
541.76	25.742
542.10	25.291
542.44	24.901
542.78	25.626
543.12	24.440
543.46	24.918
543.80	24.398
544.14	24.134
544.48	25.143
544.82	24.310
545.16	24.723
545.50	24.229
545.84	24.328
546.18	24.579
546.52	25.052
546.86	24.948
547.20	24.747
547.54	25.651
547.88	25.446
548.22	23.910
548.56	24.528
548.90	24.264
549.24	24.444
549.58	24.352
549.92	24.725
550.26	23.651
550.60	24.481
550.94	24.507
551.28	23.482
551.62	24.946
551.96	24.702
552.30	25.461
552.64	24.544
552.98	24.610
553.32	25.287
553.66	24.676
554.00	25.463
554.34	23.879
554.68	25.250
555.02	24.753
555.36	24.008
555.69	24.357
556.03	24.159
556.37	24.693
556.71	23.874
557.05	25.140
557.39	24.913
557.73	24.982
558.07	24.801
558.41	24.819
558.75	24.541
559.08	25.429
559.42	24.036
559.76	23.603
560.10	24.268
560.44	24.598
560.78	24.085
561.12	23.747
561.45	24.707
561.79	24.061
562.13	24.547
562.47	24.863
562.81	25.244
563.15	24.816
563.48	25.066
563.82	24.788
564.16	24.526
564.50	23.763
564.84	23.262
565.17	24.067
565.51	25.367
565.85	24.492
566.19	24.358
566.52	23.496
566.86	25.256
567.20	24.410
567.54	24.258
567.88	23.737
568.21	24.868
568.55	25.025
568.89	24.368
569.23	24.332
569.56	24.130
569.90	24.415
570.24	24.614
570.57	24.685
570.91	23.917
571.25	23.965
571.59	24.742
571.92	23.848
572.26	24.726
572.60	24.505
572.93	24.138
573.27	24.579
573.61	24.484
573.95	24.599
574.28	23.693
574.62	24.198
574.96	23.919
575.29	24.006
575.63	24.390
575.97	24.212
576.30	24.349
576.64	24.362
576.98	24.356
577.31	24.076
577.65	24.408
577.98	24.125
578.32	24.146
578.66	23.941
578.99	24.583
579.33	24.740
579.67	24.471
580.00	24.814
580.34	24.917
580.67	24.486
581.01	24.668
581.35	24.320
581.68	24.084
582.02	23.719
582.35	23.834
582.69	24.446
583.02	24.545
583.36	24.787
583.70	25.350
584.03	25.209
584.37	25.138
584.70	25.287
585.04	24.755
585.37	24.697
585.71	24.812
586.04	24.402
586.38	24.791
586.72	24.662
587.05	24.586
587.39	24.274
587.72	24.736
588.06	24.413
588.39	24.993
588.73	24.963
589.06	25.210
589.40	25.253
589.73	25.273
590.07	24.804
590.40	24.735
590.73	25.371
591.07	24.827
591.40	25.390
591.74	26.104
592.07	25.436
592.41	25.176
592.74	24.757
593.08	24.350
593.41	24.075
593.75	23.641
594.08	24.338
594.41	24.638
594.75	24.843
595.08	25.197
595.42	24.764
595.75	25.036
596.09	25.310
596.42	24.872
596.75	24.989
597.09	25.714
597.42	24.283
597.75	25.097
598.09	25.000
598.42	24.527
598.76	24.483
599.09	23.831
599.42	23.253
599.76	24.012
600.09	23.862
600.42	23.630
600.76	23.643
601.09	24.080
601.42	25.038
601.76	24.782
602.09	24.941
602.42	24.682
602.76	24.990
603.09	24.666
603.42	25.459
603.76	24.809
604.09	24.506
604.42	24.745
604.76	25.011
605.09	24.771
605.42	24.284
605.75	24.586
606.09	24.807
606.42	24.561
606.75	24.015
607.09	24.655
607.42	24.904
607.75	24.557
608.08	24.056
608.42	25.370
608.75	24.391
609.08	24.514
609.41	24.560
609.75	24.869
610.08	24.599
610.41	24.302
610.74	24.929
611.07	25.099
611.41	25.908
611.74	24.585
612.07	25.259
612.40	25.289
612.73	25.000
613.07	25.323
613.40	25.171
613.73	24.174
614.06	24.570
614.39	24.279
614.72	24.526
615.06	24.160
615.39	24.628
615.72	24.335
616.05	24.296
616.38	24.736
616.71	24.762
617.05	25.383
617.38	24.293
617.71	24.625
618.04	25.421
618.37	24.364
618.70	25.513
619.03	25.329
619.36	24.304
619.69	23.944
620.03	25.755
620.36	25.602
620.69	25.000
621.02	25.295
621.35	24.745
621.68	24.688
622.01	24.149
622.34	24.206
622.67	24.639
623.00	24.358
623.33	24.446
623.66	25.232
623.99	25.184
624.32	24.893
624.65	24.435
624.99	24.008
625.32	24.041
625.65	24.343
625.98	25.211
626.31	25.272
626.64	25.224
626.97	24.439
627.30	24.522
627.63	24.528
627.96	25.988
628.29	26.509
628.62	25.252
628.95	25.472
629.28	24.179
629.61	25.848
629.94	25.333
630.26	24.023
630.59	24.500
630.92	24.138
