SpectraSuite Data File
++++++++++++++++++++++++++++++++++++
Date: Wed May 13 16:29:18 PDT 2015
User: schluterlab
Dark Spectrum Present: Yes
Reference Spectrum Present: Yes
Number of Sampled Component Spectra: 1
Spectrometers: USB2E3373
Integration Time (usec): 3000 (USB2E3373)
Spectra Averaged: 3 (USB2E3373)
Boxcar Smoothing: 0 (USB2E3373)
Correct for Electrical Dark: No (USB2E3373)
Strobe/Lamp Enabled: No (USB2E3373)
Correct for Detector Non-linearity: No (USB2E3373)
Correct for Stray Light: No (USB2E3373)
Number of Pixels in Processed Spectrum: 2048
>>>>>Begin Processed Spectral Data<<<<<
178.53	0.000
178.91	-1475.000
179.29	-1175.000
179.67	-244.444
180.04	-1125.000
180.42	2400.000
180.80	1060.000
181.18	-1025.000
181.56	700.000
181.94	0.000
182.31	-628.571
182.69	1800.000
183.07	-512.500
183.45	-611.111
183.83	463.636
184.20	-410.000
184.58	1750.000
184.96	5200.000
185.34	-700.000
185.72	-487.500
186.09	-2550.000
186.47	2700.000
186.85	2550.000
187.23	4700.000
187.61	-1600.000
187.98	1300.000
188.36	481.818
188.74	363.636
189.12	-1000.000
189.49	480.000
189.87	-3500.000
190.25	-1025.000
190.63	492.857
191.00	353.846
191.38	850.000
191.76	-1250.000
192.14	1250.000
192.51	500.000
192.89	1033.333
193.27	512.500
193.65	-1325.000
194.02	550.000
194.40	840.000
194.78	500.000
195.15	458.333
195.53	510.000
195.91	-1800.000
196.29	306.250
196.66	257.895
197.04	-290.000
197.42	0.000
197.79	520.000
198.17	-4800.000
198.55	657.143
198.92	625.000
199.30	920.000
199.68	0.000
200.05	311.111
200.43	785.714
200.81	4800.000
201.18	1500.000
201.56	-1500.000
201.94	500.000
202.31	533.333
202.69	383.333
203.07	560.000
203.44	0.000
203.82	1200.000
204.19	742.857
204.57	428.571
204.95	575.000
205.32	1500.000
205.70	463.636
206.08	357.143
206.45	2200.000
206.83	293.750
207.20	900.000
207.58	680.000
207.96	255.556
208.33	587.500
208.71	-850.000
209.08	685.714
209.46	477.778
209.84	500.000
210.21	-1600.000
210.59	1475.000
210.96	-437.500
211.34	2250.000
211.71	500.000
212.09	700.000
212.46	0.000
212.84	1733.333
213.22	1000.000
213.59	-5200.000
213.97	683.333
214.34	685.714
214.72	509.091
215.09	860.000
215.47	-1950.000
215.84	-2500.000
216.22	1733.333
216.59	328.571
216.97	1025.000
217.34	436.364
217.72	-750.000
218.09	0.000
218.47	-4200.000
218.84	577.778
219.22	685.714
219.59	1733.333
219.97	-628.571
220.34	940.000
220.72	-1800.000
221.09	421.429
221.47	1225.000
221.84	-716.667
222.22	0.000
222.59	1250.000
222.97	-2350.000
223.34	1180.000
223.72	338.462
224.09	1180.000
224.46	2250.000
224.84	-5000.000
225.21	-960.000
225.59	-3600.000
225.96	580.000
226.34	275.000
226.71	2400.000
227.08	612.500
227.46	470.000
227.83	-1000.000
228.21	-2100.000
228.58	555.556
228.95	-2200.000
229.33	-2000.000
229.70	1600.000
230.08	600.000
230.45	-580.000
230.82	433.333
231.20	850.000
231.57	600.000
231.95	383.333
232.32	236.364
232.69	354.545
233.07	628.571
233.44	330.769
233.81	-1333.333
234.19	247.368
234.56	366.667
234.93	383.333
235.31	363.636
235.68	238.462
236.05	271.429
236.43	157.576
236.80	242.105
237.17	4200.000
237.55	185.714
237.92	185.714
238.29	228.571
238.67	122.581
239.04	200.000
239.41	127.778
239.79	104.348
240.16	111.905
240.53	113.636
240.91	78.431
241.28	74.000
241.65	92.000
242.02	76.812
242.40	70.968
242.77	63.333
243.14	53.763
243.51	62.921
243.89	62.353
244.26	47.778
244.63	38.710
245.00	45.745
245.38	42.574
245.75	41.121
246.12	38.532
246.49	37.956
246.87	44.800
247.24	40.000
247.61	32.857
247.98	32.026
248.36	33.108
248.73	28.025
249.10	30.573
249.47	27.119
249.84	27.807
250.22	24.064
250.59	28.402
250.96	26.263
251.33	21.801
251.70	30.198
252.08	20.952
252.45	18.834
252.82	18.696
253.19	22.128
253.56	22.745
253.94	20.332
254.31	16.016
254.68	19.615
255.05	18.819
255.42	15.447
255.79	18.382
256.16	20.578
256.54	14.841
256.91	18.861
257.28	8.993
257.65	21.122
258.02	17.702
258.39	15.457
258.76	12.040
259.14	17.857
259.51	15.198
259.88	14.596
260.25	16.314
260.62	13.295
260.99	13.975
261.36	14.414
261.73	15.186
262.10	14.535
262.47	15.211
262.85	11.978
263.22	12.536
263.59	16.524
263.96	11.264
264.33	11.749
264.70	11.579
265.07	13.811
265.44	11.616
265.81	12.409
266.18	13.317
266.55	12.927
266.92	12.776
267.29	12.731
267.66	13.303
268.03	11.136
268.40	10.047
268.77	10.263
269.14	11.261
269.51	11.287
269.88	12.354
270.25	13.093
270.62	13.258
270.99	13.548
271.36	10.515
271.73	9.112
272.10	10.652
272.47	12.473
272.84	9.957
273.21	12.998
273.58	7.642
273.95	10.482
274.32	9.504
274.69	8.779
275.06	10.630
275.43	9.149
275.80	10.421
276.17	8.554
276.54	9.148
276.91	10.870
277.28	9.570
277.65	9.671
278.02	7.660
278.39	12.891
278.76	10.727
279.13	10.189
279.50	9.683
279.87	8.765
280.23	11.577
280.60	8.124
280.97	7.579
281.34	10.973
281.71	8.727
282.08	9.597
282.45	9.455
282.82	7.638
283.19	6.417
283.56	9.298
283.92	10.152
284.29	8.466
284.66	9.256
285.03	7.957
285.40	9.507
285.77	8.418
286.14	8.117
286.51	8.500
286.87	9.060
287.24	9.772
287.61	8.347
287.98	9.578
288.35	7.448
288.72	9.190
289.08	6.416
289.45	8.731
289.82	8.618
290.19	8.948
290.56	7.810
290.93	6.647
291.29	7.975
291.66	8.702
292.03	10.320
292.40	8.223
292.77	8.136
293.13	8.209
293.50	7.289
293.87	6.963
294.24	5.926
294.60	6.987
294.97	7.122
295.34	9.168
295.71	10.227
296.08	6.838
296.44	7.428
296.81	6.605
297.18	7.724
297.55	4.881
297.91	6.069
298.28	6.961
298.65	8.094
299.02	7.905
299.38	7.570
299.75	4.043
300.12	5.364
300.48	7.500
300.85	6.165
301.22	6.242
301.59	5.177
301.95	6.675
302.32	6.418
302.69	6.571
303.05	5.333
303.42	5.556
303.79	7.588
304.15	5.828
304.52	5.794
304.89	6.388
305.25	4.988
305.62	6.229
305.99	7.438
306.35	6.935
306.72	5.605
307.09	6.659
307.45	8.671
307.82	5.915
308.19	7.064
308.55	7.551
308.92	6.767
309.29	6.336
309.65	6.257
310.02	6.660
310.38	6.344
310.75	6.758
311.12	6.653
311.48	6.792
311.85	7.442
312.22	7.492
312.58	6.653
312.95	6.864
313.31	7.282
313.68	7.380
314.05	8.185
314.41	6.834
314.78	7.553
315.14	7.448
315.51	8.033
315.87	8.614
316.24	7.547
316.61	8.382
316.97	7.828
317.34	8.317
317.70	9.082
318.07	9.913
318.43	9.198
318.80	9.560
319.16	10.075
319.53	10.413
319.89	11.048
320.26	10.500
320.62	11.508
320.99	11.414
321.35	12.020
321.72	11.910
322.08	13.228
322.45	14.229
322.81	14.535
323.18	13.776
323.54	14.657
323.91	15.094
324.27	14.627
324.64	15.284
325.00	15.149
325.37	17.743
325.73	17.235
326.10	17.917
326.46	18.280
326.83	18.723
327.19	19.214
327.56	19.599
327.92	19.335
328.29	20.497
328.65	21.363
329.01	21.480
329.38	21.462
329.74	21.791
330.11	22.526
330.47	23.691
330.84	23.713
331.20	23.862
331.56	23.853
331.93	24.537
332.29	24.224
332.66	25.398
333.02	24.406
333.38	25.655
333.75	26.114
334.11	25.890
334.48	25.377
334.84	27.022
335.20	25.636
335.57	23.481
335.93	25.179
336.29	25.549
336.66	24.887
337.02	25.520
337.38	28.056
337.75	25.579
338.11	25.067
338.47	25.967
338.84	27.039
339.20	25.963
339.56	27.646
339.93	26.182
340.29	26.902
340.65	25.847
341.02	26.789
341.38	27.313
341.74	25.614
342.11	25.939
342.47	26.520
342.83	25.856
343.20	26.494
343.56	26.201
343.92	26.491
344.28	26.956
344.65	26.999
345.01	26.010
345.37	24.700
345.73	26.819
346.10	26.684
346.46	25.932
346.82	26.194
347.19	25.480
347.55	25.698
347.91	26.294
348.27	26.541
348.63	25.167
349.00	25.566
349.36	24.877
349.72	26.544
350.08	25.284
350.45	26.282
350.81	25.426
351.17	25.608
351.53	25.553
351.89	25.083
352.26	26.283
352.62	26.223
352.98	26.094
353.34	25.883
353.70	25.041
354.07	24.597
354.43	25.952
354.79	25.181
355.15	24.741
355.51	25.979
355.87	26.367
356.24	25.489
356.60	25.180
356.96	25.825
357.32	25.266
357.68	25.906
358.04	25.495
358.40	25.495
358.77	25.196
359.13	24.625
359.49	25.882
359.85	24.206
360.21	24.960
360.57	25.214
360.93	25.000
361.29	24.792
361.66	25.000
362.02	24.776
362.38	25.627
362.74	25.298
363.10	24.574
363.46	25.092
363.82	25.699
364.18	25.918
364.54	26.672
364.90	26.416
365.26	24.706
365.62	26.662
365.98	25.128
366.35	24.499
366.71	25.235
367.07	25.200
367.43	26.343
367.79	26.267
368.15	26.078
368.51	25.145
368.87	25.625
369.23	24.872
369.59	26.285
369.95	24.338
370.31	26.781
370.67	24.855
371.03	26.742
371.39	26.895
371.75	26.397
372.11	25.249
372.47	26.686
372.83	26.657
373.19	25.795
373.55	26.312
373.91	26.583
374.27	25.979
374.63	25.745
374.99	26.412
375.35	25.960
375.71	26.388
376.07	26.132
376.42	25.516
376.78	26.972
377.14	26.459
377.50	27.020
377.86	26.130
378.22	26.296
378.58	25.752
378.94	26.084
379.30	26.399
379.66	27.602
380.02	26.781
380.38	26.655
380.74	26.531
381.09	26.589
381.45	26.613
381.81	27.150
382.17	26.688
382.53	26.101
382.89	27.222
383.25	27.205
383.61	27.509
383.97	26.079
384.32	27.324
384.68	26.580
385.04	27.658
385.40	26.006
385.76	27.457
386.12	27.073
386.48	27.879
386.83	28.223
387.19	27.953
387.55	27.149
387.91	27.267
388.27	26.180
388.62	27.781
388.98	26.781
389.34	27.847
389.70	27.284
390.06	28.327
390.42	27.626
390.77	27.290
391.13	27.632
391.49	27.855
391.85	26.989
392.20	26.877
392.56	27.588
392.92	26.957
393.28	26.509
393.64	27.398
393.99	27.001
394.35	26.985
394.71	26.662
395.07	26.355
395.42	27.750
395.78	26.908
396.14	27.436
396.50	28.133
396.85	28.163
397.21	27.127
397.57	26.534
397.92	26.923
398.28	25.785
398.64	27.121
399.00	26.413
399.35	26.340
399.71	27.025
400.07	26.493
400.42	27.362
400.78	26.598
401.14	26.768
401.49	26.448
401.85	27.042
402.21	25.689
402.57	26.033
402.92	26.608
403.28	27.108
403.63	26.547
403.99	26.242
404.35	26.788
404.70	26.319
405.06	26.209
405.42	27.511
405.77	25.714
406.13	26.524
406.49	26.730
406.84	26.698
407.20	25.768
407.55	26.867
407.91	26.733
408.27	26.165
408.62	26.249
408.98	25.306
409.34	26.384
409.69	26.129
410.05	25.403
410.40	25.749
410.76	25.209
411.11	25.271
411.47	25.240
411.83	25.290
412.18	25.232
412.54	25.903
412.89	26.145
413.25	24.852
413.60	25.880
413.96	25.865
414.31	26.428
414.67	25.919
415.03	24.901
415.38	26.095
415.74	24.887
416.09	25.669
416.45	25.636
416.80	26.570
417.16	26.206
417.51	25.083
417.87	25.177
418.22	25.489
418.58	26.662
418.93	26.720
419.29	25.398
419.64	26.008
420.00	25.671
420.35	24.812
420.71	25.941
421.06	24.940
421.42	25.146
421.77	25.168
422.12	25.604
422.48	24.177
422.83	25.335
423.19	25.525
423.54	25.189
423.90	25.623
424.25	25.181
424.61	24.940
424.96	25.481
425.31	26.024
425.67	24.831
426.02	24.971
426.38	25.763
426.73	24.751
427.09	26.079
427.44	25.359
427.79	25.014
428.15	25.655
428.50	26.273
428.85	25.328
429.21	24.351
429.56	25.402
429.92	24.962
430.27	24.975
430.62	24.475
430.98	25.065
431.33	24.485
431.68	24.974
432.04	25.240
432.39	25.700
432.74	25.314
433.10	25.184
433.45	25.190
433.80	25.111
434.16	25.588
434.51	24.895
434.86	26.055
435.22	25.236
435.57	25.653
435.92	25.102
436.28	25.148
436.63	25.773
436.98	24.957
437.34	25.820
437.69	25.904
438.04	25.464
438.39	25.612
438.75	25.915
439.10	25.922
439.45	26.328
439.81	26.344
440.16	25.409
440.51	25.718
440.86	26.694
441.22	26.029
441.57	25.212
441.92	25.128
442.27	25.780
442.63	25.803
442.98	26.704
443.33	26.196
443.68	25.607
444.03	25.817
444.39	24.781
444.74	26.245
445.09	26.092
445.44	25.642
445.79	26.027
446.15	25.781
446.50	25.740
446.85	26.002
447.20	25.803
447.55	26.298
447.91	25.869
448.26	26.377
448.61	26.230
448.96	26.412
449.31	25.872
449.66	26.505
450.02	25.404
450.37	25.113
450.72	25.776
451.07	25.350
451.42	25.289
451.77	27.011
452.12	25.924
452.47	25.435
452.83	26.515
453.18	25.978
453.53	26.469
453.88	26.698
454.23	26.240
454.58	26.590
454.93	27.463
455.28	26.434
455.63	25.971
455.98	27.619
456.34	27.638
456.69	27.176
457.04	26.316
457.39	26.651
457.74	27.162
458.09	27.200
458.44	26.169
458.79	26.193
459.14	27.596
459.49	26.503
459.84	25.817
460.19	25.751
460.54	26.331
460.89	26.934
461.24	27.080
461.59	26.903
461.94	26.942
462.29	26.884
462.64	25.782
462.99	26.350
463.34	27.533
463.69	27.330
464.04	27.014
464.39	26.957
464.74	26.263
465.09	26.478
465.44	26.260
465.79	26.063
466.14	26.382
466.49	26.140
466.84	25.978
467.19	26.976
467.54	26.375
467.89	25.630
468.24	26.294
468.59	27.045
468.94	25.412
469.29	26.928
469.64	27.711
469.99	26.658
470.34	26.882
470.68	27.155
471.03	27.211
471.38	27.380
471.73	26.049
472.08	28.026
472.43	26.570
472.78	26.136
473.13	26.637
473.48	27.091
473.83	26.707
474.17	26.073
474.52	27.047
474.87	26.912
475.22	26.756
475.57	25.900
475.92	26.872
476.27	26.212
476.61	25.152
476.96	25.948
477.31	26.269
477.66	26.586
478.01	25.353
478.36	26.600
478.70	25.909
479.05	27.103
479.40	25.691
479.75	26.233
480.10	25.547
480.45	25.369
480.79	25.036
481.14	26.125
481.49	25.866
481.84	25.560
482.19	25.170
482.53	25.826
482.88	25.686
483.23	25.841
483.58	26.024
483.92	25.726
484.27	24.793
484.62	24.914
484.97	25.148
485.31	25.377
485.66	24.902
486.01	23.250
486.36	22.672
486.70	22.273
487.05	22.846
487.40	23.698
487.75	23.713
488.09	24.628
488.44	24.483
488.79	25.244
489.13	25.516
489.48	25.122
489.83	25.291
490.17	25.515
490.52	25.376
490.87	25.192
491.22	24.875
491.56	25.103
491.91	25.454
492.26	25.172
492.60	25.991
492.95	24.275
493.30	24.720
493.64	25.572
493.99	25.766
494.34	25.208
494.68	25.275
495.03	25.423
495.37	25.035
495.72	24.903
496.07	25.615
496.41	24.823
496.76	25.154
497.11	25.214
497.45	25.291
497.80	25.336
498.14	24.638
498.49	25.317
498.84	24.928
499.18	25.190
499.53	25.119
499.87	25.489
500.22	25.341
500.56	25.243
500.91	25.144
501.26	24.609
501.60	26.483
501.95	24.565
502.29	25.305
502.64	25.186
502.98	25.058
503.33	24.771
503.67	25.244
504.02	24.977
504.36	24.942
504.71	25.208
505.06	25.831
505.40	25.571
505.75	24.301
506.09	25.267
506.44	25.062
506.78	24.988
507.13	26.047
507.47	25.101
507.82	25.127
508.16	25.937
508.51	25.672
508.85	25.074
509.19	25.510
509.54	26.378
509.88	25.296
510.23	25.141
510.57	25.387
510.92	25.738
511.26	25.642
511.61	25.259
511.95	24.374
512.30	25.716
512.64	24.987
512.98	26.206
513.33	26.178
513.67	25.827
514.02	25.216
514.36	26.106
514.70	25.567
515.05	25.042
515.39	25.463
515.74	26.408
516.08	26.216
516.42	25.916
516.77	26.198
517.11	25.194
517.46	26.242
517.80	26.423
518.14	25.072
518.49	26.313
518.83	25.341
519.17	25.289
519.52	25.976
519.86	25.670
520.20	26.127
520.55	26.511
520.89	26.521
521.23	25.995
521.58	25.870
521.92	26.332
522.26	25.686
522.61	25.109
522.95	25.967
523.29	25.563
523.64	25.610
523.98	26.617
524.32	25.694
524.66	25.616
525.01	26.287
525.35	26.084
525.69	25.862
526.04	25.670
526.38	26.052
526.72	25.215
527.06	26.428
527.41	24.938
527.75	26.045
528.09	25.883
528.43	26.322
528.78	25.814
529.12	25.152
529.46	25.413
529.80	25.681
530.15	25.732
530.49	25.292
530.83	25.316
531.17	25.718
531.51	26.913
531.86	26.774
532.20	26.271
532.54	26.265
532.88	26.187
533.22	25.234
533.57	25.247
533.91	25.166
534.25	25.152
534.59	25.442
534.93	25.164
535.27	24.925
535.62	26.129
535.96	25.487
536.30	25.556
536.64	24.984
536.98	26.543
537.32	25.543
537.66	25.867
538.01	25.938
538.35	25.404
538.69	26.101
539.03	24.821
539.37	24.920
539.71	24.174
540.05	26.013
540.39	26.578
540.73	25.550
541.07	26.931
541.42	26.223
541.76	26.258
542.10	25.873
542.44	24.503
542.78	25.889
543.12	24.312
543.46	25.508
543.80	25.634
544.14	24.454
544.48	25.270
544.82	24.375
545.16	25.504
545.50	24.614
545.84	25.000
546.18	24.848
546.52	25.327
546.86	25.430
547.20	26.096
547.54	25.451
547.88	25.702
548.22	24.907
548.56	24.906
548.90	24.648
549.24	24.983
549.58	25.580
549.92	25.481
550.26	26.491
550.60	25.380
550.94	26.197
551.28	24.799
551.62	24.659
551.96	24.632
552.30	25.324
552.64	25.828
552.98	25.288
553.32	24.747
553.66	25.153
554.00	25.669
554.34	24.155
554.68	25.393
555.02	24.753
555.36	25.539
555.69	24.425
556.03	25.505
556.37	25.102
556.71	24.079
557.05	24.230
557.39	25.332
557.73	24.559
558.07	25.381
558.41	25.687
558.75	24.467
559.08	25.280
559.42	26.077
559.76	25.882
560.10	24.839
560.44	24.319
560.78	22.954
561.12	23.945
561.45	24.576
561.79	24.456
562.13	24.078
562.47	25.000
562.81	24.547
563.15	24.548
563.48	24.934
563.82	24.788
564.16	24.330
564.50	23.437
564.84	24.779
565.17	24.260
565.51	24.089
565.85	24.175
566.19	23.795
566.52	25.396
566.86	23.629
567.20	24.587
567.54	23.858
567.88	23.140
568.21	24.074
568.55	23.407
568.89	22.763
569.23	23.084
569.56	22.308
569.90	21.283
570.24	22.390
570.57	21.897
570.91	21.170
571.25	20.476
571.59	21.325
571.92	21.256
572.26	21.519
572.60	21.321
572.93	20.750
573.27	21.739
573.61	20.798
573.95	21.034
574.28	20.578
574.62	20.603
574.96	20.573
575.29	20.005
575.63	20.300
575.97	20.698
576.30	20.844
576.64	20.900
576.98	20.613
577.31	20.148
577.65	20.109
577.98	20.446
578.32	20.075
578.66	20.189
578.99	19.973
579.33	20.528
579.67	19.971
580.00	20.235
580.34	20.147
580.67	20.657
581.01	20.823
581.35	20.270
581.68	20.365
582.02	19.591
582.35	19.439
582.69	19.613
583.02	19.941
583.36	19.968
583.70	20.729
584.03	21.029
584.37	20.711
584.70	20.716
585.04	20.695
585.37	20.061
585.71	20.089
586.04	19.957
586.38	20.350
586.72	20.878
587.05	20.619
587.39	20.211
587.72	20.381
588.06	20.304
588.39	20.933
588.73	20.417
589.06	21.097
589.40	20.976
589.73	21.436
590.07	21.281
590.40	20.460
590.73	21.311
591.07	22.222
591.40	22.353
591.74	22.165
592.07	22.077
592.41	21.042
592.74	21.461
593.08	20.187
593.41	20.626
593.75	20.456
594.08	21.220
594.41	20.855
594.75	20.665
595.08	20.437
595.42	21.646
595.75	20.442
596.09	21.517
596.42	21.532
596.75	21.697
597.09	22.294
597.42	20.868
597.75	21.734
598.09	21.609
598.42	21.048
598.76	20.997
599.09	20.144
599.42	20.342
599.76	21.010
600.09	20.474
600.42	20.562
600.76	19.929
601.09	20.364
601.42	20.814
601.76	20.797
602.09	20.870
602.42	21.298
602.76	21.080
603.09	21.479
603.42	21.476
603.76	20.122
604.09	19.775
604.42	20.832
604.76	21.510
605.09	20.839
605.42	20.522
605.75	21.026
606.09	20.537
606.42	20.678
606.75	20.821
607.09	21.683
607.42	21.438
607.75	21.224
608.08	20.408
608.42	21.874
608.75	20.875
609.08	21.045
609.41	21.371
609.75	21.105
610.08	21.206
610.41	21.043
610.74	20.624
611.07	21.789
611.41	21.590
611.74	22.574
612.07	21.325
612.40	23.242
612.73	20.842
613.07	22.683
613.40	22.275
613.73	21.342
614.06	21.398
614.39	22.286
614.72	21.158
615.06	20.956
615.39	21.921
615.72	21.319
616.05	21.637
616.38	21.568
616.71	21.734
617.05	22.615
617.38	22.189
617.71	21.922
618.04	23.017
618.37	22.354
618.70	22.153
619.03	23.092
619.36	23.422
619.69	22.887
620.03	23.489
620.36	23.262
620.69	22.808
621.02	23.673
621.35	23.571
621.68	22.508
622.01	22.523
622.34	22.693
622.67	23.878
623.00	22.817
623.33	22.516
623.66	22.659
623.99	23.711
624.32	22.896
624.65	22.669
624.99	22.805
625.32	22.448
625.65	23.666
625.98	23.367
626.31	22.784
626.64	23.510
626.97	24.106
627.30	23.774
627.63	23.708
627.96	23.633
628.29	23.097
628.62	25.343
628.95	25.566
629.28	24.635
629.61	23.556
629.94	25.524
630.26	24.023
630.59	25.071
630.92	24.425
631.25	24.679
631.58	24.525
631.91	25.254
632.24	23.840
632.57	24.974
632.90	25.219
633.23	25.951
633.56	26.667
