SpectraSuite Data File
++++++++++++++++++++++++++++++++++++
Date: Wed May 13 16:38:13 PDT 2015
User: schluterlab
Dark Spectrum Present: Yes
Reference Spectrum Present: Yes
Number of Sampled Component Spectra: 1
Spectrometers: USB2E3373
Integration Time (usec): 3000 (USB2E3373)
Spectra Averaged: 3 (USB2E3373)
Boxcar Smoothing: 0 (USB2E3373)
Correct for Electrical Dark: No (USB2E3373)
Strobe/Lamp Enabled: No (USB2E3373)
Correct for Detector Non-linearity: No (USB2E3373)
Correct for Stray Light: No (USB2E3373)
Number of Pixels in Processed Spectrum: 2048
>>>>>Begin Processed Spectral Data<<<<<
178.53	0.000
178.91	-1525.000
179.29	-1375.000
179.67	-261.111
180.04	-1350.000
180.42	2600.000
180.80	1160.000
181.18	-1150.000
181.56	671.429
181.94	0.000
182.31	-785.714
182.69	1700.000
183.07	-637.500
183.45	-544.444
183.83	536.364
184.20	-500.000
184.58	2050.000
184.96	5400.000
185.34	-980.000
185.72	-700.000
186.09	-2150.000
186.47	2700.000
186.85	2900.000
187.23	5500.000
187.61	-1700.000
187.98	1100.000
188.36	600.000
188.74	518.182
189.12	-940.000
189.49	560.000
189.87	-5100.000
190.25	-1375.000
190.63	407.143
191.00	400.000
191.38	850.000
191.76	-1125.000
192.14	1575.000
192.51	525.000
192.89	1000.000
193.27	500.000
193.65	-1175.000
194.02	620.000
194.40	1000.000
194.78	550.000
195.15	475.000
195.53	690.000
195.91	-2600.000
196.29	387.500
196.66	305.263
197.04	-420.000
197.42	0.000
197.79	650.000
198.17	-4500.000
198.55	885.714
198.92	662.500
199.30	800.000
199.68	0.000
200.05	327.778
200.43	785.714
200.81	4400.000
201.18	1966.667
201.56	-1600.000
201.94	455.556
202.31	611.111
202.69	433.333
203.07	510.000
203.44	0.000
203.82	1150.000
204.19	728.571
204.57	428.571
204.95	562.500
205.32	1466.667
205.70	527.273
206.08	435.714
206.45	2800.000
206.83	387.500
207.20	783.333
207.58	880.000
207.96	288.889
208.33	775.000
208.71	-883.333
209.08	900.000
209.46	655.556
209.84	509.091
210.21	-1666.667
210.59	1375.000
210.96	-450.000
211.34	2500.000
211.71	530.000
212.09	750.000
212.46	0.000
212.84	1400.000
213.22	1375.000
213.59	-4300.000
213.97	783.333
214.34	828.571
214.72	581.818
215.09	880.000
215.47	-2500.000
215.84	-3000.000
216.22	1566.667
216.59	500.000
216.97	1200.000
217.34	518.182
217.72	-816.667
218.09	0.000
218.47	-5100.000
218.84	611.111
219.22	828.571
219.59	1800.000
219.97	-714.286
220.34	980.000
220.72	-1766.667
221.09	392.857
221.47	1475.000
221.84	-916.667
222.22	0.000
222.59	1450.000
222.97	-2450.000
223.34	1060.000
223.72	453.846
224.09	1040.000
224.46	2600.000
224.84	-3700.000
225.21	-920.000
225.59	-5000.000
225.96	640.000
226.34	290.000
226.71	2950.000
227.08	687.500
227.46	610.000
227.83	-1100.000
228.21	-1950.000
228.58	588.889
228.95	-2550.000
229.33	-2850.000
229.70	1633.333
230.08	628.571
230.45	-800.000
230.82	441.667
231.20	916.667
231.57	685.714
231.95	475.000
232.32	277.273
232.69	418.182
233.07	700.000
233.44	446.154
233.81	-1966.667
234.19	305.263
234.56	458.333
234.93	325.000
235.31	427.273
235.68	346.154
236.05	314.286
236.43	166.667
236.80	231.579
237.17	4100.000
237.55	242.857
237.92	182.143
238.29	233.333
238.67	148.387
239.04	206.897
239.41	130.556
239.79	89.130
240.16	135.714
240.53	115.909
240.91	80.392
241.28	90.000
241.65	92.000
242.02	82.609
242.40	59.677
242.77	70.000
243.14	66.667
243.51	64.045
243.89	57.647
244.26	47.778
244.63	44.086
245.00	58.511
245.38	49.505
245.75	41.121
246.12	42.202
246.49	56.934
246.87	50.400
247.24	37.692
247.61	41.429
247.98	35.294
248.36	27.027
248.73	23.567
249.10	38.217
249.47	32.768
249.84	29.947
250.22	28.342
250.59	25.444
250.96	27.273
251.33	28.910
251.70	26.733
252.08	24.286
252.45	25.112
252.82	19.565
253.19	24.255
253.56	19.216
253.94	23.237
254.31	23.437
254.68	24.615
255.05	19.557
255.42	19.919
255.79	19.485
256.16	22.744
256.54	15.901
256.91	18.149
257.28	14.748
257.65	20.132
258.02	21.429
258.39	16.404
258.76	16.388
259.14	17.857
259.51	14.286
259.88	18.634
260.25	19.637
260.62	14.740
260.99	13.975
261.36	16.216
261.73	14.327
262.10	12.500
262.47	15.775
262.85	17.270
263.22	13.960
263.59	15.100
263.96	14.011
264.33	13.055
264.70	14.737
265.07	14.834
265.44	14.141
265.81	13.139
266.18	12.814
266.55	14.634
266.92	12.531
267.29	15.972
267.66	13.761
268.03	12.045
268.40	12.617
268.77	15.036
269.14	11.937
269.51	15.124
269.88	13.287
270.25	12.415
270.62	9.888
270.99	13.548
271.36	13.305
271.73	11.682
272.10	9.783
272.47	13.118
272.84	12.771
273.21	13.417
273.58	10.917
273.95	10.482
274.32	9.091
274.69	11.563
275.06	10.827
275.43	12.766
275.80	11.623
276.17	10.998
276.54	10.187
276.91	12.253
277.28	11.328
277.65	10.251
278.02	10.145
278.39	12.109
278.76	11.273
279.13	10.566
279.50	12.663
279.87	9.163
280.23	11.178
280.60	9.865
280.97	9.797
281.34	11.504
281.71	9.636
282.08	12.092
282.45	8.909
282.82	11.368
283.19	10.160
283.56	8.246
283.92	10.998
284.29	9.877
284.66	8.711
285.03	7.052
285.40	9.331
285.77	8.418
286.14	8.636
286.51	11.333
286.87	9.402
287.24	9.446
287.61	8.828
287.98	9.416
288.35	8.558
288.72	9.034
289.08	9.233
289.45	7.743
289.82	9.919
290.19	7.378
290.56	8.576
290.93	8.157
291.29	8.282
291.66	7.965
292.03	9.884
292.40	10.866
292.77	7.101
293.13	9.701
293.50	8.017
293.87	8.593
294.24	7.407
294.60	6.259
294.97	6.831
295.34	8.181
295.71	7.955
296.08	8.547
296.44	7.978
296.81	7.398
297.18	8.808
297.55	5.013
297.91	6.992
298.28	8.032
298.65	10.052
299.02	8.564
299.38	6.773
299.75	5.795
300.12	6.897
300.48	7.125
300.85	7.275
301.22	5.096
301.59	7.955
301.95	7.683
302.32	6.675
302.69	7.527
303.05	6.667
303.42	7.654
303.79	6.342
304.15	6.177
304.52	5.330
304.89	6.039
305.25	7.309
305.62	7.588
305.99	6.966
306.35	6.264
306.72	6.614
307.09	6.326
307.45	7.770
307.82	5.915
308.19	6.512
308.55	6.904
308.92	7.519
309.29	6.758
309.65	6.787
310.02	7.400
310.38	6.129
310.75	6.864
311.12	6.244
311.48	6.270
311.85	7.233
312.22	8.117
312.58	6.965
312.95	6.864
313.31	6.311
313.68	6.965
314.05	8.185
314.41	7.538
314.78	6.647
315.14	6.554
315.51	7.415
315.87	7.426
316.24	6.753
316.61	7.407
316.97	8.023
317.34	6.849
317.70	7.935
318.07	8.085
318.43	8.219
318.80	9.653
319.16	7.721
319.53	8.161
319.89	8.762
320.26	9.900
320.62	9.127
320.99	10.101
321.35	10.000
321.72	9.651
322.08	9.773
322.45	11.542
322.81	10.756
323.18	11.946
323.54	10.761
323.91	11.415
324.27	10.803
324.64	9.879
325.00	10.550
325.37	11.647
325.73	12.747
326.10	11.915
326.46	10.753
326.83	11.993
327.19	12.297
327.56	10.801
327.92	13.036
328.29	13.043
328.65	11.418
329.01	12.455
329.38	11.193
329.74	13.019
330.11	12.158
330.47	12.764
330.84	13.143
331.20	12.477
331.56	13.578
331.93	12.222
332.29	12.777
332.66	13.186
333.02	12.614
333.38	13.279
333.75	13.815
334.11	13.523
334.48	13.576
334.84	12.960
335.20	13.545
335.57	12.965
335.93	11.964
336.29	13.004
336.66	12.444
337.02	12.489
337.38	12.963
337.75	12.567
338.11	12.444
338.47	12.431
338.84	12.924
339.20	10.826
339.56	13.686
339.93	13.182
340.29	13.406
340.65	13.369
341.02	13.351
341.38	13.879
341.74	13.333
342.11	12.664
342.47	13.480
342.83	13.014
343.20	13.939
343.56	12.805
343.92	13.596
344.28	12.925
344.65	12.812
345.01	12.795
345.37	12.521
345.73	13.029
346.10	12.702
346.46	13.051
346.82	13.097
347.19	12.197
347.55	12.069
347.91	12.540
348.27	14.051
348.63	13.043
349.00	12.540
349.36	12.151
349.72	13.633
350.08	12.804
350.45	12.775
350.81	13.485
351.17	13.371
351.53	12.613
351.89	11.634
352.26	13.102
352.62	13.873
352.98	12.480
353.34	14.626
353.70	11.457
354.07	11.774
354.43	13.175
354.79	12.309
355.15	13.408
355.51	13.030
355.87	13.469
356.24	13.518
356.60	12.350
356.96	13.274
357.32	12.837
357.68	13.228
358.04	13.698
358.40	13.698
358.77	14.319
359.13	12.628
359.49	13.882
359.85	12.937
360.21	12.520
360.57	14.475
360.93	12.692
361.29	13.681
361.66	12.771
362.02	13.955
362.38	13.384
362.74	13.095
363.10	13.101
363.46	13.646
363.82	13.530
364.18	13.803
364.54	14.933
364.90	14.235
365.26	13.529
365.62	14.025
365.98	13.952
366.35	12.321
366.71	14.317
367.07	12.600
367.43	13.062
367.79	14.989
368.15	14.511
368.51	13.663
368.87	13.419
369.23	13.460
369.59	14.193
369.95	13.309
370.31	14.601
370.67	13.768
371.03	15.206
371.39	14.723
371.75	14.412
372.11	13.585
372.47	14.736
372.83	15.346
373.19	14.595
373.55	15.004
373.91	15.979
374.27	14.433
374.63	14.618
374.99	15.749
375.35	15.003
375.71	15.627
376.07	15.775
376.42	15.543
376.78	15.905
377.14	15.332
377.50	15.828
377.86	15.492
378.22	15.550
378.58	14.850
378.94	14.833
379.30	15.076
379.66	15.736
380.02	15.725
380.38	15.726
380.74	16.687
381.09	15.831
381.45	16.472
381.81	16.339
382.17	16.879
382.53	16.667
382.89	16.481
383.25	16.573
383.61	17.100
383.97	16.823
384.32	16.220
384.68	17.162
385.04	16.472
385.40	16.718
385.76	17.752
386.12	17.422
386.48	17.495
386.83	18.024
387.19	17.873
387.55	17.130
387.91	17.533
388.27	16.677
388.62	18.254
388.98	17.199
389.34	18.273
389.70	17.106
390.06	18.504
390.42	17.899
390.77	18.321
391.13	17.741
391.49	17.893
391.85	17.696
392.20	17.981
392.56	18.119
392.92	17.657
393.28	17.160
393.64	18.705
393.99	18.693
394.35	18.734
394.71	18.068
395.07	18.069
395.42	18.603
395.78	18.003
396.14	18.870
396.50	19.674
396.85	19.135
397.21	18.126
397.57	18.413
397.92	19.291
398.28	18.049
398.64	18.220
399.00	18.523
399.35	18.500
399.71	18.576
400.07	18.510
400.42	19.202
400.78	19.542
401.14	18.841
401.49	18.627
401.85	18.633
402.21	18.922
402.57	18.384
402.92	19.168
403.28	18.988
403.63	18.379
403.99	18.599
404.35	19.091
404.70	18.285
405.06	18.754
405.42	18.777
405.77	18.743
406.13	18.397
406.49	19.219
406.84	19.846
407.20	17.967
407.55	19.209
407.91	19.000
408.27	18.507
408.62	19.085
408.98	18.566
409.34	19.004
409.69	19.355
410.05	18.463
410.40	18.899
410.76	19.116
411.11	19.602
411.47	19.042
411.83	19.670
412.18	18.924
412.54	18.742
412.89	18.976
413.25	19.362
413.60	19.209
413.96	19.915
414.31	19.259
414.67	19.075
415.03	19.073
415.38	20.361
415.74	19.871
416.09	20.444
416.45	18.942
416.80	18.837
417.16	20.241
417.51	19.841
417.87	19.011
418.22	19.748
418.58	20.788
418.93	19.410
419.29	19.351
419.64	19.395
420.00	19.512
420.35	18.899
420.71	19.307
421.06	19.153
421.42	20.000
421.77	19.170
422.12	18.417
422.48	18.133
422.83	19.511
423.19	18.619
423.54	19.965
423.90	19.826
424.25	20.212
424.61	18.750
424.96	19.650
425.31	19.324
425.67	19.326
426.02	19.314
426.38	19.780
426.73	19.310
427.09	19.635
427.44	19.264
427.79	18.516
428.15	20.119
428.50	19.895
428.85	19.547
429.21	18.995
429.56	18.922
429.92	18.923
430.27	18.918
430.62	18.945
430.98	19.460
431.33	18.660
431.68	19.267
432.04	18.743
432.39	19.532
432.74	19.988
433.10	19.525
433.45	19.242
433.80	19.290
434.16	19.551
434.51	18.789
434.86	20.182
435.22	19.511
435.57	20.243
435.92	19.193
436.28	20.285
436.63	19.923
436.98	19.805
437.34	18.962
437.69	19.253
438.04	20.180
438.39	19.522
438.75	19.930
439.10	20.279
439.45	20.012
439.81	19.758
440.16	20.610
440.51	20.152
440.86	19.803
441.22	19.410
441.57	19.745
441.92	19.652
442.27	19.806
442.63	19.273
442.98	20.169
443.33	19.293
443.68	19.824
444.03	18.643
444.39	17.770
444.74	19.426
445.09	19.623
445.44	19.464
445.79	19.594
446.15	19.322
446.50	19.332
446.85	19.579
447.20	19.021
447.55	19.710
447.91	19.084
448.26	20.089
448.61	19.559
448.96	20.100
449.31	18.898
449.66	19.696
450.02	18.886
450.37	19.388
450.72	19.515
451.07	19.927
451.42	19.514
451.77	19.319
452.12	19.804
452.47	19.714
452.83	19.930
453.18	19.560
453.53	19.728
453.88	19.905
454.23	20.084
454.58	20.957
454.93	20.343
455.28	20.449
455.63	19.296
455.98	20.595
456.34	19.347
456.69	19.787
457.04	20.248
457.39	18.469
457.74	19.501
458.09	19.724
458.44	19.669
458.79	18.492
459.14	20.034
459.49	19.148
459.84	18.449
460.19	19.387
460.54	19.097
460.89	19.309
461.24	19.976
461.59	20.163
461.94	18.866
462.29	19.881
462.64	18.953
462.99	19.649
463.34	21.267
463.69	20.263
464.04	19.826
464.39	19.478
464.74	18.954
465.09	18.697
465.44	19.003
465.79	18.624
466.14	19.485
466.49	18.409
466.84	19.556
467.19	19.916
467.54	20.250
467.89	19.628
468.24	19.023
468.59	20.024
468.94	19.426
469.29	19.859
469.64	20.616
469.99	19.689
470.34	19.221
470.68	19.397
471.03	19.728
471.38	19.597
471.73	19.520
472.08	20.855
472.43	19.661
472.78	19.684
473.13	19.448
473.48	19.101
473.83	19.756
474.17	18.979
474.52	19.479
474.87	19.556
475.22	19.559
475.57	18.431
475.92	19.543
476.27	18.546
476.61	19.195
476.96	18.747
477.31	18.681
477.66	18.764
478.01	18.662
478.36	19.619
478.70	19.107
479.05	19.276
479.40	18.066
479.75	19.217
480.10	18.837
480.45	18.753
480.79	18.060
481.14	18.640
481.49	18.367
481.84	17.924
482.19	18.083
482.53	19.083
482.88	18.381
483.23	18.832
483.58	18.471
483.92	18.791
484.27	17.342
484.62	17.371
484.97	17.540
485.31	17.979
485.66	16.790
486.01	15.899
486.36	15.179
486.70	15.245
487.05	15.832
487.40	15.909
487.75	16.457
488.09	16.894
488.44	17.078
488.79	17.468
489.13	18.144
489.48	17.863
489.83	18.170
490.17	18.106
490.52	17.892
490.87	17.051
491.22	17.417
491.56	18.041
491.91	17.822
492.26	17.547
492.60	18.203
492.95	17.119
493.30	17.850
493.64	17.732
493.99	17.595
494.34	17.761
494.68	18.773
495.03	18.139
495.37	18.008
495.72	18.080
496.07	17.448
496.41	17.832
496.76	17.414
497.11	17.199
497.45	17.606
497.80	17.946
498.14	18.454
498.49	17.220
498.84	18.552
499.18	17.810
499.53	17.901
499.87	17.195
500.22	17.946
500.56	18.641
500.91	17.740
501.26	18.065
501.60	18.178
501.95	18.103
502.29	18.276
502.64	18.250
502.98	17.251
503.33	17.733
503.67	17.958
504.02	17.820
504.36	17.127
504.71	17.098
505.06	17.976
505.40	17.550
505.75	17.888
506.09	17.979
506.44	17.908
506.78	17.730
507.13	18.173
507.47	18.333
507.82	18.896
508.16	17.680
508.51	18.113
508.85	18.123
509.19	17.500
509.54	18.112
509.88	18.032
510.23	17.841
510.57	18.111
510.92	18.177
511.26	18.294
511.61	17.583
511.95	17.954
512.30	17.869
512.64	17.894
512.98	18.917
513.33	17.880
513.67	17.503
514.02	17.965
514.36	18.187
514.70	18.484
515.05	17.178
515.39	18.508
515.74	18.074
516.08	18.558
516.42	18.923
516.77	18.952
517.11	17.925
517.46	18.679
517.80	18.699
518.14	18.124
518.49	19.078
518.83	18.580
519.17	18.707
519.52	17.940
519.86	18.369
520.20	19.711
520.55	19.090
520.89	19.221
521.23	19.300
521.58	18.908
521.92	19.045
522.26	18.121
522.61	19.065
522.95	18.355
523.29	18.198
523.64	18.841
523.98	19.717
524.32	18.577
524.66	19.182
525.01	18.811
525.35	18.835
525.69	17.549
526.04	18.692
526.38	18.975
526.72	19.448
527.06	18.895
527.41	18.626
527.75	19.228
528.09	18.561
528.43	19.312
528.78	18.808
529.12	18.848
529.46	19.228
529.80	18.502
530.15	18.754
530.49	18.646
530.83	18.734
531.17	18.930
531.51	19.650
531.86	18.710
532.20	19.231
532.54	19.218
532.88	19.705
533.22	18.426
533.57	19.321
533.91	18.483
534.25	18.469
534.59	18.121
534.93	17.668
535.27	17.683
535.62	19.292
535.96	18.519
536.30	18.373
536.64	18.480
536.98	19.177
537.32	18.499
537.66	18.533
538.01	19.092
538.35	18.423
538.69	19.272
539.03	18.064
539.37	17.891
539.71	18.017
540.05	17.908
540.39	18.140
540.73	18.176
541.07	19.403
541.42	19.113
541.76	19.226
542.10	19.017
542.44	18.609
542.78	19.104
543.12	16.699
543.46	18.295
543.80	18.933
544.14	17.394
544.48	18.540
544.82	18.089
545.16	17.697
545.50	17.802
545.84	18.481
546.18	18.249
546.52	18.032
546.86	18.076
547.20	18.206
547.54	19.238
547.88	18.559
548.22	18.306
548.56	17.547
548.90	16.901
549.24	18.316
549.58	18.622
549.92	18.613
550.26	20.099
550.60	19.018
550.94	19.085
551.28	17.630
551.62	18.692
551.96	17.895
552.30	18.908
552.64	18.729
552.98	17.966
553.32	19.016
553.66	18.337
554.00	17.845
554.34	17.805
554.68	18.741
555.02	18.477
555.36	18.441
555.69	17.794
556.03	18.035
556.37	18.349
556.71	17.531
557.05	18.137
557.39	18.684
557.73	18.066
558.07	18.347
558.41	18.307
558.75	18.369
559.08	17.972
559.42	17.838
559.76	19.191
560.10	17.987
560.44	18.029
560.78	17.365
561.12	16.887
561.45	18.253
561.79	17.007
562.13	17.639
562.47	18.852
562.81	17.434
563.15	17.458
563.48	17.639
563.82	16.634
564.16	17.266
564.50	17.253
564.84	18.142
565.17	17.310
565.51	17.444
565.85	17.703
566.19	16.969
566.52	17.479
566.86	16.516
567.20	17.748
567.54	17.123
567.88	16.350
568.21	17.831
568.55	16.582
568.89	15.661
569.23	15.419
569.56	15.344
569.90	15.472
570.24	15.178
570.57	15.199
570.91	14.641
571.25	14.947
571.59	14.728
571.92	14.343
572.26	14.500
572.60	15.075
572.93	14.123
573.27	14.907
573.61	14.322
573.95	14.470
574.28	13.945
574.62	13.751
574.96	14.122
575.29	14.113
575.63	14.151
575.97	14.059
576.30	14.259
576.64	13.798
576.98	13.952
577.31	13.748
577.65	14.007
577.98	14.274
578.32	13.423
578.66	13.774
578.99	13.650
579.33	13.822
579.67	13.622
580.00	13.762
580.34	14.191
580.67	13.827
581.01	14.144
581.35	13.847
581.68	13.744
582.02	13.364
582.35	13.255
582.69	13.493
583.02	13.622
583.36	13.696
583.70	14.011
584.03	13.871
584.37	14.730
584.70	13.845
585.04	14.335
585.37	13.700
585.71	13.910
586.04	13.916
586.38	14.263
586.72	14.416
587.05	13.556
587.39	13.404
587.72	14.043
588.06	13.981
588.39	14.294
588.73	13.992
589.06	14.459
589.40	14.848
589.73	14.185
590.07	14.164
590.40	14.140
590.73	14.481
591.07	15.303
591.40	15.099
591.74	15.887
592.07	15.227
592.41	14.924
592.74	14.569
593.08	14.357
593.41	13.793
593.75	13.585
594.08	14.381
594.41	14.457
594.75	13.863
595.08	14.281
595.42	14.116
595.75	13.640
596.09	14.420
596.42	14.578
596.75	14.605
597.09	15.498
597.42	14.376
597.75	14.661
598.09	14.913
598.42	15.163
598.76	14.147
599.09	13.949
599.42	13.755
599.76	14.056
600.09	13.443
600.42	13.769
600.76	13.643
601.09	14.171
601.42	13.737
601.76	13.928
602.09	14.585
602.42	14.172
602.76	14.873
603.09	14.713
603.42	14.447
603.76	14.634
604.09	14.114
604.42	14.594
604.76	14.382
605.09	14.504
605.42	14.365
605.75	14.197
606.09	14.233
606.42	14.017
606.75	14.102
607.09	14.860
607.42	14.377
607.75	14.304
608.08	14.459
608.42	15.374
608.75	13.886
609.08	13.969
609.41	15.183
609.75	14.340
610.08	14.797
610.41	14.199
610.74	14.333
611.07	14.625
611.41	14.720
611.74	15.586
612.07	14.803
612.40	15.058
612.73	15.263
613.07	15.302
613.40	15.534
613.73	15.207
614.06	15.215
614.39	14.683
614.72	14.737
615.06	15.494
615.39	13.800
615.72	14.724
616.05	14.195
616.38	15.175
616.71	14.905
617.05	16.431
617.38	15.454
617.71	15.435
618.04	15.865
618.37	15.198
618.70	15.557
619.03	16.184
619.36	16.701
619.69	16.268
620.03	15.865
620.36	15.241
620.69	16.575
621.02	15.560
621.35	15.740
621.68	17.290
622.01	16.254
622.34	16.188
622.67	15.513
623.00	15.407
623.33	15.511
623.66	16.440
623.99	15.464
624.32	16.476
624.65	15.537
624.99	15.085
625.32	15.496
625.65	16.003
625.98	15.911
626.31	16.796
626.64	16.408
626.97	17.041
627.30	15.129
627.63	17.145
627.96	17.914
628.29	16.710
628.62	16.560
628.95	18.208
629.28	16.332
629.61	17.140
629.94	17.524
630.26	18.208
630.59	17.636
630.92	17.337
631.25	17.177
631.58	17.317
631.91	17.546
632.24	17.827
632.57	17.733
632.90	17.434
633.23	17.562
