SpectraSuite Data File
++++++++++++++++++++++++++++++++++++
Date: Wed May 13 16:49:42 PDT 2015
User: schluterlab
Dark Spectrum Present: Yes
Reference Spectrum Present: Yes
Number of Sampled Component Spectra: 1
Spectrometers: USB2E3373
Integration Time (usec): 3000 (USB2E3373)
Spectra Averaged: 3 (USB2E3373)
Boxcar Smoothing: 0 (USB2E3373)
Correct for Electrical Dark: No (USB2E3373)
Strobe/Lamp Enabled: No (USB2E3373)
Correct for Detector Non-linearity: No (USB2E3373)
Correct for Stray Light: No (USB2E3373)
Number of Pixels in Processed Spectrum: 2048
>>>>>Begin Processed Spectral Data<<<<<
178.53	0.000
178.91	-1100.000
179.29	-1200.000
179.67	-222.222
180.04	-975.000
180.42	2450.000
180.80	1020.000
181.18	-1150.000
181.56	514.286
181.94	0.000
182.31	-657.143
182.69	1500.000
183.07	-587.500
183.45	-511.111
183.83	509.091
184.20	-390.000
184.58	2350.000
184.96	5600.000
185.34	-760.000
185.72	-525.000
186.09	-2600.000
186.47	2800.000
186.85	1850.000
187.23	4500.000
187.61	-1700.000
187.98	1500.000
188.36	563.636
188.74	554.545
189.12	-900.000
189.49	570.000
189.87	-5200.000
190.25	-1400.000
190.63	371.429
191.00	376.923
191.38	816.667
191.76	-1050.000
192.14	1375.000
192.51	687.500
192.89	916.667
193.27	412.500
193.65	-1200.000
194.02	490.000
194.40	880.000
194.78	470.000
195.15	450.000
195.53	610.000
195.91	-1950.000
196.29	362.500
196.66	289.474
197.04	-360.000
197.42	0.000
197.79	680.000
198.17	-4600.000
198.55	685.714
198.92	675.000
199.30	840.000
199.68	0.000
200.05	355.556
200.43	757.143
200.81	4500.000
201.18	1500.000
201.56	-1400.000
201.94	533.333
202.31	633.333
202.69	425.000
203.07	440.000
203.44	0.000
203.82	1250.000
204.19	685.714
204.57	442.857
204.95	750.000
205.32	1700.000
205.70	600.000
206.08	421.429
206.45	2500.000
206.83	368.750
207.20	850.000
207.58	780.000
207.96	322.222
208.33	712.500
208.71	-883.333
209.08	757.143
209.46	622.222
209.84	500.000
210.21	-1466.667
210.59	1125.000
210.96	-387.500
211.34	2850.000
211.71	640.000
212.09	550.000
212.46	0.000
212.84	1633.333
213.22	1375.000
213.59	-4000.000
213.97	816.667
214.34	885.714
214.72	618.182
215.09	920.000
215.47	-2300.000
215.84	-2150.000
216.22	1766.667
216.59	371.429
216.97	1300.000
217.34	472.727
217.72	-850.000
218.09	0.000
218.47	-4300.000
218.84	611.111
219.22	857.143
219.59	1666.667
219.97	-485.714
220.34	1000.000
220.72	-1766.667
221.09	442.857
221.47	1300.000
221.84	-933.333
222.22	0.000
222.59	1425.000
222.97	-2750.000
223.34	1080.000
223.72	400.000
224.09	1080.000
224.46	2150.000
224.84	-4800.000
225.21	-1020.000
225.59	-6000.000
225.96	590.000
226.34	335.000
226.71	2550.000
227.08	600.000
227.46	530.000
227.83	-975.000
228.21	-2000.000
228.58	766.667
228.95	-2550.000
229.33	-2000.000
229.70	1366.667
230.08	757.143
230.45	-780.000
230.82	483.333
231.20	633.333
231.57	628.571
231.95	425.000
232.32	259.091
232.69	372.727
233.07	471.429
233.44	346.154
233.81	-1566.667
234.19	273.684
234.56	516.667
234.93	300.000
235.31	472.727
235.68	423.077
236.05	335.714
236.43	181.818
236.80	278.947
237.17	5000.000
237.55	242.857
237.92	214.286
238.29	242.857
238.67	177.419
239.04	196.552
239.41	180.556
239.79	128.261
240.16	140.476
240.53	143.182
240.91	115.686
241.28	100.000
241.65	110.000
242.02	97.101
242.40	106.452
242.77	85.000
243.14	70.968
243.51	86.517
243.89	88.235
244.26	85.556
244.63	78.495
245.00	79.787
245.38	71.287
245.75	67.290
246.12	58.716
246.49	68.613
246.87	67.200
247.24	72.308
247.61	60.714
247.98	58.824
248.36	60.135
248.73	56.051
249.10	61.146
249.47	54.802
249.84	50.802
250.22	50.802
250.59	55.030
250.96	56.566
251.33	53.555
251.70	47.525
252.08	48.571
252.45	47.982
252.82	47.826
253.19	49.787
253.56	47.059
253.94	52.282
254.31	43.359
254.68	50.769
255.05	46.494
255.42	46.748
255.79	45.221
256.16	46.931
256.54	43.463
256.91	40.925
257.28	40.288
257.65	40.264
258.02	43.478
258.39	43.218
258.76	46.823
259.14	42.560
259.51	40.426
259.88	41.925
260.25	44.109
260.62	37.861
260.99	42.857
261.36	42.943
261.73	38.109
262.10	40.116
262.47	41.690
262.85	37.883
263.22	39.601
263.59	41.880
263.96	39.011
264.33	41.775
264.70	37.632
265.07	38.619
265.44	41.414
265.81	36.010
266.18	38.693
266.55	37.805
266.92	41.769
267.29	38.889
267.66	34.633
268.03	36.591
268.40	38.551
268.77	36.754
269.14	37.838
269.51	35.892
269.88	38.462
270.25	37.020
270.62	35.730
270.99	39.570
271.36	37.768
271.73	40.888
272.10	36.739
272.47	37.419
272.84	36.580
273.21	37.736
273.58	35.808
273.95	36.688
274.32	34.298
274.69	36.831
275.06	32.087
275.43	36.383
275.80	35.671
276.17	35.845
276.54	36.175
276.91	35.375
277.28	32.812
277.65	34.816
278.02	35.197
278.39	37.695
278.76	33.636
279.13	36.038
279.50	34.823
279.87	33.267
280.23	33.333
280.60	35.397
280.97	35.305
281.34	35.752
281.71	36.364
282.08	35.317
282.45	33.273
282.82	34.458
283.19	32.442
283.56	32.456
283.92	33.672
284.29	34.568
284.66	33.212
285.03	33.635
285.40	32.570
285.77	32.828
286.14	33.333
286.51	34.333
286.87	31.795
287.24	31.922
287.61	33.387
287.98	31.169
288.35	29.160
288.72	30.997
289.08	31.768
289.45	31.466
289.82	31.545
290.19	28.257
290.56	31.547
290.93	30.514
291.29	31.902
291.66	29.941
292.03	31.541
292.40	31.278
292.77	30.030
293.13	29.403
293.50	29.300
293.87	29.630
294.24	29.185
294.60	28.675
294.97	28.343
295.34	30.324
295.71	29.972
296.08	27.350
296.44	27.510
296.81	27.609
297.18	28.320
297.55	27.177
297.91	27.704
298.28	28.380
298.65	29.896
299.02	29.117
299.38	26.428
299.75	26.954
300.12	28.608
300.48	28.250
300.85	27.497
301.22	28.280
301.59	26.263
301.95	28.841
302.32	28.498
302.69	27.718
303.05	27.758
303.42	26.543
303.79	27.407
304.15	25.874
304.52	28.273
304.89	26.829
305.25	26.218
305.62	26.954
305.99	28.453
306.35	26.286
306.72	27.691
307.09	27.525
307.45	28.378
307.82	26.674
308.19	29.691
308.55	28.047
308.92	28.034
309.29	27.244
309.65	28.526
310.02	27.590
310.38	27.527
310.75	29.145
311.12	29.069
311.48	29.049
311.85	30.294
312.22	29.553
312.58	27.963
312.95	29.250
313.31	29.417
313.68	31.393
314.05	31.657
314.41	32.161
314.78	30.916
315.14	30.785
315.51	32.338
315.87	32.475
316.24	31.480
316.61	31.676
316.97	32.192
317.34	32.094
317.70	32.887
318.07	33.109
318.43	34.247
318.80	34.677
319.16	33.804
319.53	34.803
319.89	36.190
320.26	36.200
320.62	35.714
320.99	36.566
321.35	35.960
321.72	38.296
322.08	38.500
322.45	41.095
322.81	39.632
323.18	40.462
323.54	38.497
323.91	39.340
324.27	40.918
324.64	42.498
325.00	42.290
325.37	43.403
325.73	44.255
326.10	42.630
326.46	42.921
326.83	44.780
327.19	43.638
327.56	45.557
327.92	46.544
328.29	45.519
328.65	45.488
329.01	47.112
329.38	46.531
329.74	46.445
330.11	48.351
330.47	45.822
330.84	47.335
331.20	47.177
331.56	47.431
331.93	47.500
332.29	46.495
332.66	47.434
333.02	47.075
333.38	48.329
333.75	48.485
334.11	47.153
334.48	46.229
334.84	47.518
335.20	47.818
335.57	47.507
335.93	46.964
336.29	49.451
336.66	46.709
337.02	47.240
337.38	48.889
337.75	46.524
338.11	47.449
338.47	47.606
338.84	48.854
339.20	47.064
339.56	48.723
339.93	47.273
340.29	48.007
340.65	47.326
341.02	47.906
341.38	47.687
341.74	47.544
342.11	48.210
342.47	48.458
342.83	47.089
343.20	48.745
343.56	46.251
343.92	47.193
344.28	47.194
344.65	48.925
345.01	46.801
345.37	46.141
345.73	46.954
346.10	47.826
346.46	47.881
346.82	48.023
347.19	47.619
347.55	47.126
347.91	48.382
348.27	48.644
348.63	47.826
349.00	47.816
349.36	47.865
349.72	47.474
350.08	48.055
350.45	48.251
350.81	46.385
351.17	48.460
351.53	48.731
351.89	45.792
352.26	47.435
352.62	48.677
352.98	48.217
353.34	48.316
353.70	47.791
354.07	47.419
354.43	48.254
354.79	45.696
355.15	46.369
355.51	48.601
355.87	47.755
356.24	48.046
356.60	46.913
356.96	48.029
357.32	47.506
357.68	47.480
358.04	48.298
358.40	48.456
358.77	47.418
359.13	47.830
359.49	47.608
359.85	48.254
360.21	48.804
360.57	48.249
360.93	47.923
361.29	48.073
361.66	48.375
362.02	49.030
362.38	48.289
362.74	48.735
363.10	47.668
363.46	47.689
363.82	47.392
364.18	47.357
364.54	50.669
364.90	48.867
365.26	48.309
365.62	50.256
365.98	49.306
366.35	49.284
366.71	48.590
367.07	49.162
367.43	50.435
367.79	49.465
368.15	52.011
368.51	49.346
368.87	49.964
369.23	50.329
369.59	51.557
369.95	50.588
370.31	50.712
370.67	49.348
371.03	50.637
371.39	51.166
371.75	49.926
372.11	49.147
372.47	50.513
372.83	51.657
373.19	50.289
373.55	51.885
373.91	52.798
374.27	50.447
374.63	51.273
374.99	50.141
375.35	50.523
375.71	51.131
376.07	50.960
376.42	51.651
376.78	51.557
377.14	52.035
377.50	54.570
377.86	50.731
378.22	52.971
378.58	51.128
378.94	51.728
379.30	53.244
379.66	53.173
380.02	52.150
380.38	51.123
380.74	53.902
381.09	52.323
381.45	53.165
381.81	53.194
382.17	53.503
382.53	52.893
382.89	54.259
383.25	53.283
383.61	54.461
383.97	54.159
384.32	53.026
384.68	53.346
385.04	53.780
385.40	53.746
385.76	54.300
386.12	54.016
386.48	55.255
386.83	55.292
387.19	54.793
387.55	55.473
387.91	53.628
388.27	54.506
388.62	54.149
388.98	54.054
389.34	54.944
389.70	53.464
390.06	55.577
390.42	55.837
390.77	54.389
391.13	55.648
391.49	55.647
391.85	54.997
392.20	55.079
392.56	55.808
392.92	55.032
393.28	53.964
393.64	54.856
393.99	54.734
394.35	55.707
394.71	54.705
395.07	54.579
395.42	54.944
395.78	53.880
396.14	54.624
396.50	55.075
396.85	55.690
397.21	55.240
397.57	54.309
397.92	54.627
398.28	53.307
398.64	54.600
399.00	54.113
399.35	53.243
399.71	53.819
400.07	53.873
400.42	55.153
400.78	54.524
401.14	53.354
401.49	54.448
401.85	53.418
402.21	53.234
402.57	52.869
402.92	54.414
403.28	55.465
403.63	53.032
403.99	53.567
404.35	53.333
404.70	53.657
405.06	52.883
405.42	53.525
405.77	52.400
406.13	52.483
406.49	53.164
406.84	52.983
407.20	53.310
407.55	53.350
407.91	54.267
408.27	53.861
408.62	52.860
408.98	52.451
409.34	52.337
409.69	54.065
410.05	53.532
410.40	52.599
410.76	52.449
411.11	51.025
411.47	53.546
411.83	52.718
412.18	51.886
412.54	53.113
412.89	52.229
413.25	52.834
413.60	52.069
413.96	51.305
414.31	51.640
414.67	51.077
415.03	52.318
415.38	52.706
415.74	52.026
416.09	53.886
416.45	52.075
416.80	54.065
417.16	52.547
417.51	52.289
417.87	52.665
418.22	52.555
418.58	52.356
418.93	52.457
419.29	52.005
419.64	52.708
420.00	51.402
420.35	51.304
420.71	52.779
421.06	52.506
421.42	52.749
421.77	52.803
422.12	51.713
422.48	51.592
422.83	53.407
423.19	52.210
423.54	52.293
423.90	52.174
424.25	51.759
424.61	52.262
424.96	52.945
425.31	52.658
425.67	50.449
426.02	50.800
426.38	53.480
426.73	51.375
427.09	53.009
427.44	52.559
427.79	53.249
428.15	52.619
428.50	51.492
428.85	52.443
429.21	51.960
429.56	52.359
429.92	51.787
430.27	52.135
430.62	52.227
430.98	51.998
431.33	51.804
431.68	51.152
432.04	51.118
432.39	52.770
432.74	53.441
433.10	52.971
433.45	53.120
433.80	52.051
434.16	52.991
434.51	52.789
434.86	52.680
435.22	53.696
435.57	53.374
435.92	52.721
436.28	54.567
436.63	52.649
436.98	52.490
437.34	52.952
437.69	53.034
438.04	53.513
438.39	52.179
438.75	53.806
439.10	51.285
439.45	52.420
439.81	53.716
440.16	52.230
440.51	52.724
440.86	52.577
441.22	53.281
441.57	52.601
441.92	53.531
442.27	52.368
442.63	51.711
442.98	52.845
443.33	52.228
443.68	53.175
444.03	53.441
444.39	51.996
444.74	53.409
445.09	53.531
445.44	52.816
445.79	52.499
446.15	52.038
446.50	52.019
446.85	52.107
447.20	52.575
447.55	53.713
447.91	53.282
448.26	52.532
448.61	52.855
448.96	53.931
449.31	53.037
449.66	51.885
450.02	52.702
450.37	52.608
450.72	52.792
451.07	52.529
451.42	51.611
451.77	52.378
452.12	52.714
452.47	53.420
452.83	52.389
453.18	52.567
453.53	53.989
453.88	52.747
454.23	52.241
454.58	52.635
454.93	54.228
455.28	52.618
455.63	53.216
455.98	53.810
456.34	52.889
456.69	52.912
457.04	52.693
457.39	51.841
457.74	51.828
458.09	51.236
458.44	53.136
458.79	50.813
459.14	52.709
459.49	51.605
459.84	52.022
460.19	50.383
460.54	50.231
460.89	51.892
461.24	52.641
461.59	51.830
461.94	52.035
462.29	53.056
462.64	51.946
462.99	50.813
463.34	52.667
463.69	52.595
464.04	51.652
464.39	52.174
464.74	51.575
465.09	52.895
465.44	50.859
465.79	51.454
466.14	50.684
466.49	50.445
466.84	50.438
467.19	50.513
467.54	51.062
467.89	50.540
468.24	51.483
468.59	51.526
468.94	51.191
469.29	50.964
469.64	51.539
469.99	50.609
470.34	50.991
470.68	51.796
471.03	50.952
471.38	51.008
471.73	50.833
472.08	51.184
472.43	51.131
472.78	49.704
473.13	51.476
473.48	51.373
473.83	51.463
474.17	49.533
474.52	50.682
474.87	50.146
475.22	50.261
475.57	49.866
475.92	49.549
476.27	48.985
476.61	48.980
476.96	49.588
477.31	48.980
477.66	49.836
478.01	48.197
478.36	50.185
478.70	48.546
479.05	50.000
479.40	50.102
479.75	49.924
480.10	48.608
480.45	48.691
480.79	48.686
481.14	49.022
481.49	48.837
481.84	48.468
482.19	49.205
482.53	48.578
482.88	47.883
483.23	48.785
483.58	48.726
483.92	49.391
484.27	46.754
484.62	48.405
484.97	47.497
485.31	48.459
485.66	47.591
486.01	46.573
486.36	44.699
486.70	43.302
487.05	44.655
487.40	45.710
487.75	46.084
488.09	46.830
488.44	47.198
488.79	47.920
489.13	48.128
489.48	48.654
489.83	46.526
490.17	48.005
490.52	47.564
490.87	46.992
491.22	46.521
491.56	46.697
491.91	45.975
492.26	46.624
492.60	46.267
492.95	45.837
493.30	46.636
493.64	46.710
493.99	47.075
494.34	46.161
494.68	46.749
495.03	46.992
495.37	46.208
495.72	46.637
496.07	47.378
496.41	45.354
496.76	46.482
497.11	46.105
497.45	46.251
497.80	45.873
498.14	45.845
498.49	45.463
498.84	46.117
499.18	46.381
499.53	45.679
499.87	45.527
500.22	45.690
500.56	46.408
500.91	45.625
501.26	46.420
501.60	46.464
501.95	45.875
502.29	46.392
502.64	46.369
502.98	45.676
503.33	43.967
503.67	46.125
504.02	44.855
504.36	45.484
504.71	45.628
505.06	45.157
505.40	45.552
505.75	44.600
506.09	45.141
506.44	46.177
506.78	45.007
507.13	45.129
507.47	45.909
507.82	46.403
508.16	44.833
508.51	45.307
508.85	44.489
509.19	44.541
509.54	44.796
509.88	43.483
510.23	44.679
510.57	45.408
510.92	45.106
511.26	45.067
511.61	45.488
511.95	44.520
512.30	43.637
512.64	44.761
512.98	45.338
513.33	44.165
513.67	43.970
514.02	44.913
514.36	44.894
514.70	44.051
515.05	44.004
515.39	45.149
515.74	44.257
516.08	44.830
516.42	44.617
516.77	43.701
517.11	44.284
517.46	44.695
517.80	45.645
518.14	44.239
518.49	44.224
518.83	44.886
519.17	44.573
519.52	44.029
519.86	43.354
520.20	43.873
520.55	45.063
520.89	44.343
521.23	43.969
521.58	44.478
521.92	44.029
522.26	42.953
522.61	44.050
522.95	44.751
523.29	43.944
523.64	44.085
523.98	44.301
524.32	44.753
524.66	43.115
525.01	43.750
525.35	42.379
525.69	43.534
526.04	43.240
526.38	44.234
526.72	41.902
527.06	43.503
527.41	41.337
527.75	44.051
528.09	42.582
528.43	44.041
528.78	44.007
529.12	43.212
529.46	43.478
529.80	43.936
530.15	42.804
530.49	42.277
530.83	42.342
531.17	44.256
531.51	43.385
531.86	43.677
532.20	44.980
532.54	42.985
532.88	43.261
533.22	41.099
533.57	41.975
533.91	42.264
534.25	42.041
534.59	41.794
534.93	41.701
535.27	42.667
535.62	41.819
535.96	42.310
536.30	41.831
536.64	42.627
536.98	41.938
537.32	42.923
537.66	42.200
538.01	41.870
538.35	42.405
538.69	43.204
539.03	40.871
539.37	40.511
539.71	40.570
540.05	42.418
540.39	41.262
540.73	41.591
541.07	42.051
541.42	41.813
541.76	43.097
542.10	41.462
542.44	41.722
542.78	42.227
543.12	41.267
543.46	42.033
543.80	42.160
544.14	41.335
544.48	41.524
544.82	41.758
545.16	41.509
545.50	41.260
545.84	41.062
546.18	41.481
546.52	41.776
546.86	42.199
547.20	41.875
547.54	41.617
547.88	41.071
548.22	40.100
548.56	40.755
548.90	39.437
549.24	40.000
549.58	41.405
549.92	40.797
550.26	41.406
550.60	40.456
550.94	40.070
551.28	40.088
551.62	41.050
551.96	40.491
552.30	41.092
552.64	40.162
552.98	40.068
553.32	40.459
553.66	41.309
554.00	40.631
554.34	39.614
554.68	40.200
555.02	40.832
555.36	41.267
555.69	39.716
556.03	40.377
556.37	39.836
556.71	40.177
557.05	41.176
557.39	40.098
557.73	38.885
558.07	41.262
558.41	40.232
558.75	39.971
559.08	39.970
559.42	41.345
559.76	40.515
560.10	39.615
560.44	40.531
560.78	38.656
561.12	39.512
561.45	40.026
561.79	38.629
562.13	38.967
562.47	38.730
562.81	39.609
563.15	39.064
563.48	39.324
563.82	39.074
564.16	38.653
564.50	39.128
564.84	38.496
565.17	38.932
565.51	39.744
565.85	38.388
566.19	38.635
566.52	38.759
566.86	38.698
567.20	38.090
567.54	38.128
567.88	37.317
568.21	38.677
568.55	37.968
568.89	38.813
569.23	38.369
569.56	37.004
569.90	37.170
570.24	37.101
570.57	36.654
570.91	36.102
571.25	35.917
571.59	36.318
571.92	36.233
572.26	35.875
572.60	35.766
572.93	35.652
573.27	36.232
573.61	36.097
573.95	35.943
574.28	35.503
574.62	35.253
574.96	35.484
575.29	35.451
575.63	35.213
575.97	35.460
576.30	35.714
576.64	35.658
576.98	35.902
577.31	35.351
577.65	35.266
577.98	34.620
578.32	34.432
578.66	34.738
578.99	35.334
579.33	34.979
579.67	34.444
580.00	35.411
580.34	35.453
580.67	35.169
581.01	34.967
581.35	35.222
581.68	34.982
582.02	34.354
582.35	34.539
582.69	34.224
583.02	34.421
583.36	35.393
583.70	35.664
584.03	35.162
584.37	35.731
584.70	35.371
585.04	35.005
585.37	34.856
585.71	35.174
586.04	34.719
586.38	35.632
586.72	36.150
587.05	34.990
587.39	34.274
587.72	35.249
588.06	35.406
588.39	35.199
588.73	35.142
589.06	36.117
589.40	36.330
589.73	36.184
590.07	35.623
590.40	35.404
590.73	35.636
591.07	36.182
591.40	35.976
591.74	36.190
592.07	35.558
592.41	36.172
592.74	35.019
593.08	34.577
593.41	34.609
593.75	33.760
594.08	34.663
594.41	35.136
594.75	35.046
595.08	35.612
595.42	35.552
595.75	35.078
596.09	35.674
596.42	35.756
596.75	36.513
597.09	36.840
597.42	34.781
597.75	35.791
598.09	35.826
598.42	35.223
598.76	34.495
599.09	34.968
599.42	34.898
599.76	34.261
600.09	33.916
600.42	34.587
600.76	34.571
601.09	34.244
601.42	34.361
601.76	34.839
602.09	34.822
602.42	35.549
602.76	35.590
603.09	35.208
603.42	35.338
603.76	34.794
604.09	34.975
604.42	35.304
604.76	36.103
605.09	35.168
605.42	34.630
605.75	35.099
606.09	35.421
606.42	34.941
606.75	34.260
607.09	35.077
607.42	35.088
607.75	34.768
608.08	35.215
608.42	35.231
608.75	34.581
609.08	34.644
609.41	35.507
609.75	34.683
610.08	35.627
610.41	34.590
610.74	34.863
611.07	35.030
611.41	34.691
611.74	35.294
612.07	35.145
612.40	36.464
612.73	34.789
613.07	35.722
613.40	35.598
613.73	34.872
614.06	35.806
614.39	34.767
614.72	35.474
615.06	35.189
615.39	34.342
615.72	33.691
616.05	34.556
616.38	34.686
616.71	34.976
617.05	35.748
617.38	36.140
617.71	35.495
618.04	36.238
618.37	34.713
618.70	35.843
619.03	35.789
619.36	35.709
619.69	36.690
620.03	36.332
620.36	35.963
620.69	36.027
621.02	35.767
621.35	35.630
621.68	35.981
622.01	35.372
622.34	36.460
622.67	36.274
623.00	34.776
623.33	35.525
623.66	36.455
623.99	34.978
624.32	35.521
624.65	36.299
624.99	35.411
625.32	36.278
625.65	36.138
625.98	36.972
626.31	36.236
626.64	36.571
626.97	36.908
627.30	36.908
627.63	36.013
627.96	37.006
628.29	36.920
628.62	36.505
628.95	37.830
629.28	36.131
629.61	38.222
629.94	36.190
630.26	36.702
630.59	37.655
630.92	36.494
