SpectraSuite Data File
++++++++++++++++++++++++++++++++++++
Date: Wed May 13 16:19:17 PDT 2015
User: schluterlab
Dark Spectrum Present: Yes
Reference Spectrum Present: Yes
Number of Sampled Component Spectra: 1
Spectrometers: USB2E3373
Integration Time (usec): 3000 (USB2E3373)
Spectra Averaged: 3 (USB2E3373)
Boxcar Smoothing: 0 (USB2E3373)
Correct for Electrical Dark: No (USB2E3373)
Strobe/Lamp Enabled: No (USB2E3373)
Correct for Detector Non-linearity: No (USB2E3373)
Correct for Stray Light: No (USB2E3373)
Number of Pixels in Processed Spectrum: 2048
>>>>>Begin Processed Spectral Data<<<<<
178.53	0.000
178.91	-1175.000
179.29	-950.000
179.67	-227.778
180.04	-1175.000
180.42	2100.000
180.80	940.000
181.18	-950.000
181.56	542.857
181.94	0.000
182.31	-600.000
182.69	1233.333
183.07	-487.500
183.45	-400.000
183.83	527.273
184.20	-280.000
184.58	1800.000
184.96	4100.000
185.34	-660.000
185.72	-462.500
186.09	-2250.000
186.47	2350.000
186.85	2250.000
187.23	4100.000
187.61	-1300.000
187.98	1200.000
188.36	545.455
188.74	454.545
189.12	-780.000
189.49	520.000
189.87	-3200.000
190.25	-950.000
190.63	342.857
191.00	338.462
191.38	750.000
191.76	-875.000
192.14	1200.000
192.51	550.000
192.89	733.333
193.27	600.000
193.65	-1100.000
194.02	410.000
194.40	700.000
194.78	490.000
195.15	358.333
195.53	550.000
195.91	-1250.000
196.29	312.500
196.66	257.895
197.04	-320.000
197.42	0.000
197.79	500.000
198.17	-3600.000
198.55	514.286
198.92	575.000
199.30	840.000
199.68	0.000
200.05	311.111
200.43	485.714
200.81	4700.000
201.18	1433.333
201.56	-1133.333
201.94	488.889
202.31	455.556
202.69	300.000
203.07	490.000
203.44	0.000
203.82	1050.000
204.19	814.286
204.57	385.714
204.95	562.500
205.32	1233.333
205.70	400.000
206.08	385.714
206.45	2150.000
206.83	306.250
207.20	650.000
207.58	520.000
207.96	305.556
208.33	650.000
208.71	-700.000
209.08	700.000
209.46	511.111
209.84	354.545
210.21	-833.333
210.59	1325.000
210.96	-437.500
211.34	1850.000
211.71	450.000
212.09	566.667
212.46	0.000
212.84	1300.000
213.22	975.000
213.59	-3900.000
213.97	816.667
214.34	600.000
214.72	518.182
215.09	880.000
215.47	-1950.000
215.84	-1750.000
216.22	1666.667
216.59	342.857
216.97	1050.000
217.34	400.000
217.72	-583.333
218.09	0.000
218.47	-4800.000
218.84	477.778
219.22	671.429
219.59	1566.667
219.97	-542.857
220.34	860.000
220.72	-1200.000
221.09	357.143
221.47	1325.000
221.84	-683.333
222.22	0.000
222.59	1125.000
222.97	-2200.000
223.34	900.000
223.72	369.231
224.09	980.000
224.46	1950.000
224.84	-4400.000
225.21	-620.000
225.59	-4100.000
225.96	450.000
226.34	290.000
226.71	2100.000
227.08	500.000
227.46	470.000
227.83	-800.000
228.21	-2000.000
228.58	544.444
228.95	-1550.000
229.33	-1950.000
229.70	1166.667
230.08	700.000
230.45	-700.000
230.82	350.000
231.20	600.000
231.57	457.143
231.95	433.333
232.32	222.727
232.69	354.545
233.07	600.000
233.44	292.308
233.81	-1666.667
234.19	310.526
234.56	408.333
234.93	291.667
235.31	400.000
235.68	338.462
236.05	250.000
236.43	139.394
236.80	205.263
237.17	3300.000
237.55	190.476
237.92	178.571
238.29	261.905
238.67	119.355
239.04	120.690
239.41	108.333
239.79	89.130
240.16	97.619
240.53	113.636
240.91	72.549
241.28	74.000
241.65	78.000
242.02	69.565
242.40	66.129
242.77	65.000
243.14	59.140
243.51	56.180
243.89	54.118
244.26	32.222
244.63	47.312
245.00	32.979
245.38	32.673
245.75	37.383
246.12	24.771
246.49	39.416
246.87	40.800
247.24	33.077
247.61	25.000
247.98	22.222
248.36	28.378
248.73	26.115
249.10	28.025
249.47	25.424
249.84	24.064
250.22	19.786
250.59	21.893
250.96	27.778
251.33	26.066
251.70	25.743
252.08	24.762
252.45	21.076
252.82	19.565
253.19	17.021
253.56	21.961
253.94	21.162
254.31	20.313
254.68	20.000
255.05	14.760
255.42	13.008
255.79	14.706
256.16	16.245
256.54	12.014
256.91	11.744
257.28	16.906
257.65	13.531
258.02	13.354
258.39	16.404
258.76	10.368
259.14	15.476
259.51	10.942
259.88	9.317
260.25	9.970
260.62	12.428
260.99	11.180
261.36	14.715
261.73	12.034
262.10	12.500
262.47	16.338
262.85	10.864
263.22	9.687
263.59	10.826
263.96	13.187
264.33	12.010
264.70	12.895
265.07	13.043
265.44	11.111
265.81	9.489
266.18	11.809
266.55	10.732
266.92	9.828
267.29	14.352
267.66	10.092
268.03	10.455
268.40	8.645
268.77	6.921
269.14	7.432
269.51	12.867
269.88	9.790
270.25	10.835
270.62	9.438
270.99	11.828
271.36	10.944
271.73	10.047
272.10	9.783
272.47	12.473
272.84	10.173
273.21	11.530
273.58	7.860
273.95	9.015
274.32	7.438
274.69	9.850
275.06	7.283
275.43	8.511
275.80	7.214
276.17	7.332
276.54	9.563
276.91	10.277
277.28	7.813
277.65	8.317
278.02	6.625
278.39	9.570
278.76	8.909
279.13	10.377
279.50	9.125
279.87	8.566
280.23	6.587
280.60	7.350
280.97	6.839
281.34	9.912
281.71	11.091
282.08	8.829
282.45	5.273
282.82	8.526
283.19	6.952
283.56	8.421
283.92	9.137
284.29	7.231
284.66	7.260
285.03	5.425
285.40	8.099
285.77	6.734
286.14	6.218
286.51	9.167
286.87	6.838
287.24	8.469
287.61	7.865
287.98	9.253
288.35	6.656
288.72	8.723
289.08	8.451
289.45	5.766
289.82	6.179
290.19	5.651
290.56	6.738
290.93	6.495
291.29	6.748
291.66	6.047
292.03	8.721
292.40	9.398
292.77	5.769
293.13	7.910
293.50	6.706
293.87	6.519
294.24	4.741
294.60	4.949
294.97	7.994
295.34	7.334
295.71	6.960
296.08	5.556
296.44	6.602
296.81	4.756
297.18	7.859
297.55	3.298
297.91	4.617
298.28	6.292
298.65	7.180
299.02	5.665
299.38	5.710
299.75	5.660
300.12	6.769
300.48	5.000
300.85	6.165
301.22	4.713
301.59	4.672
301.95	5.919
302.32	5.392
302.69	7.527
303.05	4.848
303.42	4.321
303.79	6.116
304.15	5.012
304.52	4.751
304.89	5.343
305.25	5.220
305.62	6.002
305.99	5.785
306.35	5.593
306.72	4.484
307.09	5.882
307.45	6.644
307.82	4.464
308.19	5.629
308.55	6.149
308.92	5.371
309.29	4.435
309.65	3.606
310.02	6.131
310.38	5.376
310.75	5.069
311.12	5.118
311.48	6.061
311.85	6.499
312.22	4.058
312.58	4.678
312.95	5.597
313.31	5.340
313.68	4.782
314.05	6.805
314.41	5.729
314.78	5.035
315.14	5.164
315.51	5.252
315.87	5.446
316.24	4.866
316.61	4.386
316.97	4.599
317.34	4.599
317.70	5.832
318.07	6.352
318.43	4.110
318.80	5.811
319.16	5.179
319.53	4.034
319.89	5.905
320.26	5.600
320.62	5.853
320.99	5.455
321.35	4.747
321.72	6.468
322.08	5.331
322.45	6.965
322.81	6.686
323.18	5.684
323.54	5.288
323.91	6.887
324.27	4.971
324.64	4.660
325.00	5.320
325.37	6.369
325.73	6.643
326.10	5.384
326.46	4.570
326.83	5.522
327.19	5.551
327.56	4.791
327.92	5.599
328.29	5.679
328.65	5.341
329.01	5.415
329.38	4.903
329.74	4.432
330.11	4.995
330.47	6.520
330.84	6.710
331.20	3.461
331.56	5.688
331.93	5.093
332.29	5.945
332.66	5.929
333.02	5.027
333.38	6.323
333.75	6.239
334.11	5.694
334.48	5.146
334.84	5.882
335.20	5.727
335.57	5.077
335.93	5.089
336.29	5.311
336.66	5.500
337.02	4.525
337.38	5.370
337.75	4.545
338.11	5.819
338.47	5.157
338.84	4.858
339.20	5.046
339.56	5.657
339.93	4.091
340.29	5.072
340.65	4.991
341.02	6.021
341.38	4.982
341.74	5.000
342.11	4.716
342.47	5.022
342.83	5.993
343.20	5.628
343.56	5.055
343.92	4.386
344.28	5.187
344.65	6.019
345.01	4.293
345.37	3.945
345.73	5.076
346.10	5.627
346.46	4.831
346.82	5.437
347.19	4.511
347.55	5.008
347.91	5.340
348.27	5.341
348.63	5.017
349.00	4.854
349.36	5.419
349.72	5.213
350.08	4.943
350.45	5.452
350.81	5.524
351.17	5.429
351.53	4.668
351.89	3.960
352.26	5.841
352.62	5.934
352.98	4.943
353.34	5.094
353.70	3.928
354.07	4.516
354.43	4.524
354.79	4.505
355.15	4.070
355.51	4.796
355.87	5.143
356.24	4.235
356.60	3.849
356.96	5.149
357.32	4.824
357.68	5.669
358.04	5.384
358.40	5.542
358.77	5.321
359.13	4.499
359.49	4.549
359.85	3.651
360.21	3.907
360.57	4.747
360.93	5.308
361.29	4.233
361.66	4.025
362.02	5.522
362.38	4.791
362.74	4.315
363.10	4.071
363.46	3.962
363.82	4.233
364.18	4.699
364.54	5.201
364.90	4.816
365.26	5.000
365.62	4.237
365.98	3.725
366.35	3.725
366.71	4.772
367.07	4.516
367.43	4.644
367.79	4.711
368.15	5.819
368.51	3.634
368.87	5.496
369.23	4.755
369.59	5.286
369.95	4.191
370.31	4.843
370.67	4.493
371.03	4.944
371.39	4.592
371.75	5.000
372.11	5.050
372.47	5.352
372.83	5.259
373.19	3.974
373.55	4.730
373.91	5.228
374.27	4.399
374.63	3.927
374.99	5.085
375.35	4.327
375.71	4.798
376.07	5.487
376.42	4.539
376.78	5.832
377.14	4.545
377.50	4.371
377.86	4.322
378.22	4.994
378.58	4.135
378.94	4.274
379.30	3.372
379.66	4.505
380.02	4.545
380.38	4.007
380.74	4.982
381.09	4.768
381.45	4.856
381.81	4.975
382.17	5.605
382.53	4.591
382.89	5.062
383.25	4.878
383.61	4.275
383.97	5.691
384.32	5.552
384.68	5.576
385.04	4.733
385.40	5.201
385.76	5.467
386.12	4.987
386.48	5.664
386.83	5.709
387.19	6.246
387.55	4.947
387.91	5.381
388.27	4.660
388.62	5.716
388.98	5.590
389.34	6.008
389.70	6.254
390.06	6.020
390.42	5.966
390.77	5.089
391.13	5.743
391.49	6.599
391.85	5.983
392.20	4.795
392.56	5.429
392.92	6.298
393.28	5.089
393.64	6.115
393.99	6.536
394.35	6.390
394.71	6.462
395.07	5.919
395.42	6.613
395.78	6.679
396.14	6.083
396.50	6.516
396.85	6.612
397.21	6.350
397.57	5.890
397.92	6.671
398.28	5.381
398.64	6.153
399.00	6.379
399.35	5.753
399.71	6.076
400.07	6.860
400.42	6.626
400.78	6.393
401.14	5.549
401.49	7.104
401.85	5.747
402.21	6.048
402.57	5.614
402.92	6.431
403.28	6.433
403.63	6.188
403.99	6.051
404.35	6.242
404.70	5.935
405.06	6.057
405.42	6.675
405.77	5.486
406.13	5.530
406.49	6.446
406.84	7.029
407.20	6.265
407.55	6.126
407.91	6.400
408.27	5.616
408.62	6.261
408.98	6.005
409.34	6.458
409.69	7.032
410.05	6.691
410.40	6.544
410.76	6.213
411.11	6.755
411.47	6.262
411.83	7.636
412.18	5.751
412.54	6.227
412.89	6.747
413.25	6.966
413.60	6.485
413.96	6.315
414.31	6.622
414.67	6.527
415.03	5.894
415.38	7.023
415.74	7.331
416.09	6.793
416.45	7.162
416.80	6.081
417.16	7.574
417.51	7.167
417.87	6.358
418.22	7.066
418.58	6.585
418.93	6.880
419.29	6.620
419.64	7.431
420.00	7.378
420.35	7.014
420.71	6.754
421.06	6.384
421.42	6.374
421.77	6.670
422.12	5.390
422.48	5.666
422.83	6.698
423.19	6.243
423.54	6.210
423.90	6.899
424.25	6.756
424.61	6.429
424.96	6.531
425.31	6.977
425.67	5.674
426.02	6.343
426.38	6.532
426.73	5.968
427.09	6.201
427.44	6.210
427.79	6.268
428.15	7.143
428.50	7.314
428.85	6.615
429.21	6.571
429.56	5.651
429.92	6.190
430.27	5.909
430.62	5.991
430.98	6.539
431.33	6.186
431.68	6.545
432.04	6.603
432.39	6.396
432.74	6.164
433.10	6.452
433.45	6.356
433.80	5.820
434.16	7.479
434.51	6.368
434.86	6.613
435.22	6.281
435.57	6.140
435.92	5.383
436.28	6.702
436.63	7.285
436.98	6.525
437.34	7.215
437.69	7.118
438.04	6.015
438.39	6.806
438.75	6.334
439.10	6.313
439.45	6.966
439.81	6.344
440.16	6.663
440.51	6.385
440.86	6.833
441.22	6.229
441.57	6.529
441.92	5.988
442.27	6.297
442.63	6.319
442.98	6.704
443.33	6.957
443.68	5.782
444.03	6.345
444.39	6.037
444.74	6.223
445.09	6.523
445.44	6.178
445.79	6.680
446.15	6.935
446.50	6.085
446.85	6.886
447.20	6.323
447.55	5.863
447.91	6.564
448.26	6.733
448.61	6.444
448.96	7.143
449.31	6.580
449.66	6.866
450.02	5.738
450.37	6.066
450.72	6.204
451.07	5.972
451.42	6.444
451.77	6.812
452.12	6.640
452.47	6.841
452.83	6.294
453.18	6.418
453.53	6.308
453.88	6.261
454.23	6.455
454.58	6.663
454.93	7.374
455.28	5.923
455.63	7.100
455.98	7.262
456.34	6.784
456.69	7.076
457.04	5.944
457.39	6.195
457.74	6.442
458.09	6.383
458.44	6.043
458.79	5.965
459.14	6.603
459.49	6.538
459.84	6.260
460.19	6.305
460.54	6.655
460.89	6.528
461.24	6.375
461.59	7.844
461.94	7.213
462.29	7.003
462.64	6.445
462.99	6.441
463.34	7.333
463.69	6.567
464.04	7.478
464.39	7.362
464.74	6.536
465.09	6.092
465.44	6.260
465.79	5.649
466.14	6.623
466.49	6.007
466.84	6.305
467.19	6.276
467.54	6.750
467.89	7.023
468.24	6.108
468.59	7.204
468.94	7.086
469.29	6.555
469.64	6.560
469.99	7.104
470.34	6.539
470.68	6.753
471.03	6.054
471.38	7.366
471.73	7.062
472.08	7.105
472.43	6.721
472.78	6.781
473.13	6.932
473.48	6.866
473.83	6.585
474.17	6.534
474.52	7.320
474.87	7.064
475.22	6.907
475.57	6.448
475.92	5.629
476.27	6.821
476.61	6.288
476.96	5.992
477.31	5.756
477.66	6.072
478.01	6.012
478.36	6.240
478.70	5.815
479.05	5.964
479.40	6.192
479.75	6.304
480.10	5.815
480.45	5.426
480.79	5.733
481.14	6.262
481.49	6.075
481.84	5.853
482.19	6.224
482.53	6.239
482.88	6.235
483.23	6.121
483.58	6.597
483.92	6.186
484.27	5.490
484.62	5.819
484.97	6.031
485.31	5.548
485.66	5.064
486.01	4.587
486.36	4.302
486.70	4.301
487.05	4.804
487.40	4.801
487.75	4.847
488.09	4.853
488.44	4.736
488.79	5.570
489.13	6.035
489.48	5.261
489.83	4.877
490.17	6.050
490.52	5.624
490.87	5.744
491.22	5.548
491.56	5.011
491.91	5.910
492.26	5.696
492.60	6.452
492.95	5.239
493.30	5.607
493.64	5.740
493.99	6.175
494.34	5.735
494.68	6.456
495.03	5.780
495.37	5.956
495.72	5.653
496.07	6.404
496.41	5.885
496.76	6.332
497.11	6.033
497.45	6.055
497.80	5.998
498.14	5.556
498.49	5.951
498.84	6.376
499.18	5.571
499.53	5.698
499.87	5.266
500.22	5.747
500.56	5.631
500.91	5.529
501.26	6.496
501.60	6.360
501.95	5.683
502.29	6.326
502.64	5.493
502.98	5.891
503.33	5.484
503.67	5.800
504.02	4.864
504.36	6.504
504.71	5.618
505.06	6.169
505.40	5.785
505.75	6.220
506.09	5.539
506.44	5.772
506.78	5.796
507.13	5.704
507.47	6.010
507.82	6.991
508.16	6.231
508.51	6.240
508.85	6.058
509.19	5.867
509.54	5.969
509.88	5.822
510.23	6.992
510.57	6.295
510.92	6.007
511.26	6.578
511.61	6.691
511.95	5.846
512.30	5.620
512.64	6.072
512.98	6.484
513.33	6.799
513.67	6.137
514.02	5.952
514.36	6.335
514.70	6.087
515.05	5.912
515.39	6.618
515.74	6.419
516.08	7.099
516.42	6.715
516.77	6.800
517.11	6.049
517.46	6.095
517.80	6.272
518.14	6.601
518.49	6.476
518.83	7.330
519.17	6.697
519.52	6.565
519.86	6.674
520.20	6.994
520.55	6.882
520.89	6.752
521.23	7.419
521.58	7.083
521.92	6.797
522.26	6.406
522.61	6.667
522.95	6.937
523.29	6.330
523.64	6.585
523.98	7.024
524.32	7.238
524.66	6.795
525.01	7.047
525.35	7.187
525.69	6.527
526.04	6.729
526.38	7.322
526.72	7.301
527.06	6.968
527.41	5.446
527.75	7.395
528.09	6.551
528.43	7.138
528.78	6.822
529.12	6.242
529.46	7.348
529.80	7.302
530.15	7.913
530.49	6.523
530.83	7.911
531.17	7.507
531.51	8.495
531.86	7.613
532.20	7.888
532.54	7.751
532.88	7.317
533.22	6.059
533.57	6.914
533.91	6.803
534.25	7.169
534.59	7.383
534.93	6.187
535.27	6.639
535.62	6.960
535.96	8.223
536.30	7.311
536.64	7.598
536.98	6.835
537.32	6.715
537.66	6.867
538.01	6.912
538.35	7.240
538.69	7.658
539.03	7.018
539.37	6.262
539.71	6.222
540.05	6.144
540.39	6.645
540.73	7.697
541.07	7.398
541.42	7.371
541.76	7.226
542.10	7.050
542.44	6.887
542.78	7.115
543.12	6.398
543.46	7.738
543.80	7.742
544.14	7.125
544.48	7.429
544.82	6.350
545.16	7.222
545.50	6.620
545.84	5.914
546.18	6.330
546.52	7.158
546.86	7.010
547.20	7.889
547.54	6.814
547.88	7.398
548.22	7.659
548.56	7.358
548.90	6.786
549.24	5.859
549.58	7.231
549.92	7.418
550.26	7.386
550.60	6.846
550.94	7.183
551.28	6.072
551.62	7.764
551.96	7.088
552.30	7.167
552.64	7.167
552.98	7.932
553.32	7.755
553.66	8.180
554.00	7.550
554.34	6.970
554.68	7.296
555.02	6.982
555.36	7.516
555.69	7.375
556.03	7.470
556.37	7.367
556.71	6.958
557.05	7.353
557.39	7.698
557.73	7.339
558.07	6.309
558.41	7.236
558.75	7.715
559.08	7.383
559.42	6.803
559.76	7.206
560.10	6.781
560.44	7.617
560.78	7.186
561.12	6.662
561.45	7.953
561.79	7.053
562.13	7.042
562.47	7.719
562.81	6.695
563.15	7.023
563.48	7.427
563.82	6.915
564.16	6.017
564.50	5.404
564.84	7.332
565.17	6.821
565.51	7.029
565.85	7.234
566.19	6.763
566.52	6.270
566.86	6.269
567.20	6.840
567.54	5.993
567.88	6.192
568.21	6.667
568.55	6.218
568.89	5.593
569.23	5.927
569.56	5.385
569.90	5.811
570.24	5.274
570.57	5.168
570.91	4.654
571.25	5.312
571.59	5.272
571.92	4.724
572.26	5.459
572.60	5.165
572.93	4.948
573.27	5.413
573.61	5.360
573.95	5.116
574.28	4.975
574.62	4.956
574.96	4.683
575.29	4.801
575.63	5.005
575.97	4.816
576.30	5.045
576.64	5.130
576.98	4.861
577.31	4.621
577.65	4.734
577.98	4.604
578.32	4.587
578.66	4.717
578.99	4.588
579.33	4.624
579.67	4.451
580.00	4.819
580.34	4.794
580.67	4.774
581.01	5.127
581.35	4.582
581.68	4.966
582.02	4.181
582.35	4.557
582.69	4.832
583.02	4.227
583.36	4.611
583.70	4.995
584.03	5.042
584.37	5.112
584.70	4.833
585.04	4.990
585.37	5.009
585.71	5.169
586.04	4.760
586.38	4.859
586.72	5.137
587.05	5.379
587.39	4.776
587.72	5.050
588.06	4.776
588.39	5.185
588.73	4.752
589.06	5.329
589.40	5.185
589.73	5.174
590.07	5.587
590.40	5.261
590.73	5.347
591.07	6.024
591.40	5.863
591.74	6.017
592.07	6.065
592.41	5.539
592.74	5.281
593.08	5.430
593.41	5.315
593.75	5.028
594.08	5.028
594.41	5.585
594.75	5.360
595.08	5.977
595.42	5.394
595.75	5.235
596.09	5.295
596.42	5.933
596.75	5.488
597.09	6.537
597.42	5.649
597.75	5.821
598.09	5.478
598.42	5.842
598.76	5.270
599.09	5.321
599.42	5.167
599.76	5.527
600.09	5.464
600.42	5.186
600.76	5.000
601.09	4.845
601.42	5.670
601.76	5.693
602.09	5.652
602.42	5.693
602.76	6.046
603.09	5.547
603.42	5.662
603.76	5.755
604.09	5.157
604.42	5.463
604.76	5.947
605.09	5.592
605.42	5.515
605.75	5.919
606.09	4.880
606.42	5.599
606.75	5.143
607.09	5.818
607.42	5.648
607.75	5.274
608.08	5.384
608.42	6.679
608.75	5.816
609.08	5.643
609.41	5.807
609.75	6.003
610.08	5.891
610.41	5.493
610.74	5.724
611.07	6.275
611.41	5.937
611.74	6.586
612.07	5.590
612.40	5.929
612.73	6.053
613.07	6.412
613.40	6.688
613.73	5.978
614.06	6.129
614.39	6.293
614.72	6.368
615.06	6.303
615.39	5.998
615.72	6.033
616.05	6.007
616.38	6.615
616.71	6.235
617.05	7.244
617.38	6.073
617.71	5.586
618.04	6.370
618.37	6.505
618.70	6.596
619.03	7.434
619.36	6.449
619.69	6.761
620.03	7.486
620.36	7.353
620.69	6.849
621.02	7.375
621.35	6.969
621.68	7.087
622.01	6.966
622.34	7.413
622.67	6.920
623.00	6.676
623.33	7.291
623.66	7.076
623.99	6.996
624.32	6.491
624.65	7.486
624.99	6.232
625.32	6.879
625.65	6.762
625.98	7.456
626.31	6.843
626.64	7.265
626.97	6.816
627.30	6.318
627.63	8.121
627.96	7.738
628.29	7.787
628.62	7.594
628.95	8.396
629.28	8.120
629.61	8.524
629.94	7.429
630.26	8.484
630.59	6.864
630.92	7.471
631.25	8.490
631.58	8.408
631.91	8.114
632.24	7.278
632.57	8.919
632.90	8.553
633.23	8.501
633.56	8.927
633.89	9.060
634.22	8.513
634.55	8.639
634.88	9.701
635.20	9.677
635.53	9.157
635.86	8.045
636.19	9.294
636.52	8.074
636.85	7.675
637.18	9.101
637.51	9.574
637.83	7.522
638.16	8.440
638.49	8.816
638.82	8.723
639.15	10.375
639.48	10.474
639.81	9.383
640.13	9.505
640.46	9.262
640.79	8.587
641.12	9.629
641.45	9.777
641.77	7.953
642.10	10.088
642.43	8.258
642.76	11.146
643.09	9.969
643.41	9.408
643.74	11.420
644.07	8.994
644.40	12.730
644.73	10.866
645.05	12.203
645.38	9.637
645.71	10.145
646.04	11.462
646.36	11.018
646.69	11.706
647.02	10.884
647.35	10.825
647.67	10.265
648.00	10.732
648.33	10.231
648.66	10.758
648.98	10.795
649.31	9.865
649.64	10.463
649.96	10.432
650.29	11.216
650.62	9.709
650.94	13.452
651.27	11.318
651.60	12.313
651.92	10.064
652.25	10.261
652.58	10.436
652.90	12.164
653.23	9.553
653.56	10.394
653.88	11.727
654.21	12.006
654.54	10.561
