SpectraSuite Data File
++++++++++++++++++++++++++++++++++++
Date: Wed May 13 16:29:25 PDT 2015
User: schluterlab
Dark Spectrum Present: Yes
Reference Spectrum Present: Yes
Number of Sampled Component Spectra: 1
Spectrometers: USB2E3373
Integration Time (usec): 3000 (USB2E3373)
Spectra Averaged: 3 (USB2E3373)
Boxcar Smoothing: 0 (USB2E3373)
Correct for Electrical Dark: No (USB2E3373)
Strobe/Lamp Enabled: No (USB2E3373)
Correct for Detector Non-linearity: No (USB2E3373)
Correct for Stray Light: No (USB2E3373)
Number of Pixels in Processed Spectrum: 2048
>>>>>Begin Processed Spectral Data<<<<<
178.53	0.000
178.91	-925.000
179.29	-1150.000
179.67	-155.556
180.04	-1225.000
180.42	2550.000
180.80	860.000
181.18	-925.000
181.56	700.000
181.94	0.000
182.31	-657.143
182.69	1633.333
183.07	-425.000
183.45	-433.333
183.83	400.000
184.20	-330.000
184.58	2350.000
184.96	5000.000
185.34	-760.000
185.72	-475.000
186.09	-2000.000
186.47	2700.000
186.85	2000.000
187.23	3900.000
187.61	-1433.333
187.98	1475.000
188.36	627.273
188.74	427.273
189.12	-800.000
189.49	580.000
189.87	-4500.000
190.25	-1100.000
190.63	407.143
191.00	469.231
191.38	733.333
191.76	-825.000
192.14	1225.000
192.51	662.500
192.89	1016.667
193.27	575.000
193.65	-900.000
194.02	480.000
194.40	800.000
194.78	560.000
195.15	475.000
195.53	580.000
195.91	-2300.000
196.29	318.750
196.66	257.895
197.04	-260.000
197.42	0.000
197.79	540.000
198.17	-4100.000
198.55	657.143
198.92	650.000
199.30	800.000
199.68	0.000
200.05	311.111
200.43	728.571
200.81	3000.000
201.18	1466.667
201.56	-1333.333
201.94	600.000
202.31	600.000
202.69	416.667
203.07	490.000
203.44	0.000
203.82	1325.000
204.19	600.000
204.57	392.857
204.95	587.500
205.32	1533.333
205.70	400.000
206.08	364.286
206.45	2450.000
206.83	350.000
207.20	783.333
207.58	520.000
207.96	333.333
208.33	575.000
208.71	-816.667
209.08	771.429
209.46	388.889
209.84	400.000
210.21	-1366.667
210.59	1175.000
210.96	-562.500
211.34	2450.000
211.71	520.000
212.09	800.000
212.46	0.000
212.84	1566.667
213.22	1225.000
213.59	-4800.000
213.97	733.333
214.34	785.714
214.72	527.273
215.09	940.000
215.47	-1900.000
215.84	-2450.000
216.22	2000.000
216.59	357.143
216.97	825.000
217.34	381.818
217.72	-566.667
218.09	0.000
218.47	-5200.000
218.84	633.333
219.22	714.286
219.59	1600.000
219.97	-457.143
220.34	880.000
220.72	-1566.667
221.09	314.286
221.47	1400.000
221.84	-816.667
222.22	0.000
222.59	1350.000
222.97	-2700.000
223.34	1140.000
223.72	407.692
224.09	980.000
224.46	1550.000
224.84	-3900.000
225.21	-980.000
225.59	-3800.000
225.96	540.000
226.34	210.000
226.71	2450.000
227.08	637.500
227.46	500.000
227.83	-750.000
228.21	-1950.000
228.58	544.444
228.95	-2350.000
229.33	-2100.000
229.70	1500.000
230.08	771.429
230.45	-740.000
230.82	458.333
231.20	816.667
231.57	657.143
231.95	391.667
232.32	186.364
232.69	427.273
233.07	657.143
233.44	392.308
233.81	-1400.000
234.19	268.421
234.56	475.000
234.93	358.333
235.31	327.273
235.68	300.000
236.05	371.429
236.43	145.455
236.80	236.842
237.17	3800.000
237.55	190.476
237.92	167.857
238.29	242.857
238.67	132.258
239.04	175.862
239.41	113.889
239.79	97.826
240.16	128.571
240.53	109.091
240.91	58.824
241.28	90.000
241.65	78.000
242.02	73.913
242.40	74.194
242.77	58.333
243.14	52.688
243.51	64.045
243.89	64.706
244.26	53.333
244.63	41.935
245.00	36.170
245.38	47.525
245.75	30.841
246.12	34.862
246.49	45.255
246.87	46.400
247.24	41.538
247.61	35.000
247.98	33.987
248.36	25.676
248.73	30.573
249.10	28.025
249.47	26.554
249.84	32.620
250.22	23.529
250.59	27.219
250.96	30.303
251.33	22.275
251.70	28.218
252.08	19.048
252.45	16.592
252.82	16.087
253.19	22.979
253.56	20.392
253.94	24.481
254.31	19.531
254.68	18.462
255.05	21.033
255.42	15.041
255.79	18.382
256.16	17.329
256.54	16.254
256.91	19.573
257.28	14.029
257.65	15.512
258.02	18.323
258.39	13.880
258.76	13.043
259.14	11.607
259.51	16.413
259.88	13.665
260.25	18.731
260.62	14.740
260.99	13.975
261.36	18.919
261.73	14.327
262.10	14.826
262.47	12.958
262.85	13.370
263.22	12.536
263.59	14.530
263.96	12.637
264.33	12.794
264.70	13.684
265.07	12.788
265.44	11.111
265.81	10.706
266.18	13.568
266.55	11.220
266.92	12.285
267.29	11.806
267.66	15.367
268.03	12.955
268.40	10.748
268.77	7.876
269.14	9.685
269.51	13.318
269.88	11.888
270.25	11.738
270.62	13.034
270.99	14.624
271.36	10.300
271.73	9.579
272.10	10.435
272.47	12.903
272.84	9.740
273.21	12.579
273.58	10.044
273.95	9.224
274.32	9.917
274.69	9.422
275.06	10.236
275.43	10.426
275.80	12.425
276.17	9.572
276.54	11.435
276.91	10.672
277.28	9.570
277.65	11.219
278.02	9.731
278.39	11.328
278.76	11.091
279.13	12.453
279.50	9.683
279.87	10.159
280.23	10.379
280.60	9.671
280.97	9.797
281.34	10.088
281.71	11.455
282.08	11.516
282.45	9.273
282.82	8.526
283.19	8.378
283.56	9.474
283.92	10.660
284.29	8.113
284.66	9.074
285.03	7.233
285.40	8.099
285.77	10.774
286.14	8.463
286.51	9.667
286.87	8.889
287.24	9.609
287.61	8.026
287.98	8.604
288.35	9.033
288.72	9.502
289.08	9.390
289.45	7.414
289.82	9.431
290.19	6.279
290.56	7.351
290.93	7.704
291.29	6.902
291.66	8.555
292.03	10.756
292.40	9.104
292.77	6.213
293.13	8.955
293.50	8.746
293.87	8.148
294.24	7.704
294.60	6.550
294.97	7.558
295.34	8.604
295.71	8.381
296.08	7.550
296.44	6.052
296.81	7.133
297.18	8.130
297.55	6.332
297.91	7.124
298.28	7.363
298.65	8.747
299.02	6.983
299.38	8.499
299.75	4.178
300.12	6.386
300.48	6.125
300.85	6.289
301.22	6.879
301.59	5.934
301.95	7.935
302.32	5.905
302.69	6.691
303.05	6.667
303.42	5.556
303.79	6.116
304.15	6.760
304.52	5.214
304.89	6.852
305.25	6.729
305.62	7.248
305.99	7.792
306.35	6.152
306.72	6.614
307.09	8.657
307.45	6.644
307.82	5.692
308.19	6.843
308.55	7.335
308.92	6.660
309.29	6.019
309.65	6.363
310.02	8.351
310.38	6.559
310.75	6.336
311.12	7.165
311.48	6.897
311.85	7.233
312.22	7.388
312.58	7.069
312.95	6.969
313.31	6.019
313.68	7.796
314.05	9.665
314.41	9.246
314.78	7.351
315.14	8.342
315.51	8.548
315.87	9.604
316.24	8.342
316.61	8.577
316.97	8.904
317.34	7.730
317.70	8.795
318.07	10.010
318.43	9.589
318.80	11.059
319.16	11.488
319.53	10.882
319.89	11.714
320.26	13.400
320.62	14.286
320.99	14.141
321.35	13.333
321.72	15.195
322.08	15.202
322.45	17.413
322.81	16.085
323.18	17.437
323.54	17.811
323.91	18.491
324.27	18.356
324.64	18.453
325.00	19.206
325.37	22.657
325.73	21.993
326.10	22.330
326.46	22.670
326.83	23.986
327.19	23.911
327.56	25.523
327.92	26.422
328.29	27.418
328.65	27.993
329.01	27.978
329.38	29.047
329.74	30.379
330.11	30.443
330.47	29.844
330.84	30.974
331.20	32.149
331.56	31.468
331.93	32.500
332.29	30.967
332.66	32.566
333.02	31.901
333.38	32.972
333.75	34.135
334.11	33.274
334.48	32.653
334.84	33.548
335.20	34.182
335.57	34.814
335.93	34.196
336.29	34.707
336.66	33.814
337.02	33.394
337.38	35.741
337.75	34.759
338.11	34.915
338.47	35.912
338.84	35.105
339.20	34.312
339.56	36.770
339.93	35.727
340.29	35.507
340.65	34.225
341.02	35.428
341.38	36.121
341.74	36.404
342.11	35.109
342.47	37.004
342.83	36.901
343.20	36.190
343.56	34.878
343.92	34.737
344.28	35.374
344.65	36.973
345.01	35.185
345.37	36.364
345.73	36.887
346.10	36.317
346.46	35.593
346.82	34.926
347.19	35.088
347.55	35.140
347.91	37.136
348.27	35.826
348.63	36.204
349.00	36.408
349.36	34.483
349.72	35.204
350.08	34.279
350.45	36.697
350.81	35.256
351.17	36.143
351.53	35.627
351.89	35.149
352.26	37.727
352.62	35.525
352.98	35.413
353.34	37.223
353.70	35.434
354.07	36.613
354.43	35.794
354.79	35.720
355.15	36.233
355.51	36.291
355.87	35.184
356.24	36.319
356.60	36.327
356.96	36.203
357.32	36.795
357.68	36.850
358.04	35.709
358.40	36.738
358.77	36.620
359.13	35.991
359.49	35.608
359.85	35.635
360.21	35.088
360.57	37.198
360.93	37.538
361.29	36.735
361.66	35.836
362.02	35.746
362.38	36.958
362.74	37.277
363.10	36.788
363.46	36.831
363.82	36.508
364.18	37.078
364.54	37.519
364.90	38.102
365.26	37.206
365.62	38.422
365.98	36.523
366.35	36.103
366.71	38.033
367.07	38.674
367.43	38.534
367.79	37.901
368.15	37.787
368.51	37.791
368.87	37.830
369.23	38.259
369.59	38.885
369.95	38.088
370.31	37.108
370.67	36.812
371.03	38.577
371.39	37.901
371.75	38.015
372.11	38.549
372.47	39.589
372.83	40.346
373.19	38.656
373.55	38.211
373.91	39.543
374.27	38.144
374.63	39.855
374.99	40.325
375.35	39.079
375.71	39.342
376.07	40.261
376.42	39.477
376.78	39.894
377.14	39.620
377.50	40.795
377.86	39.362
378.22	40.202
378.58	39.474
378.94	39.158
379.30	39.758
379.66	40.482
380.02	40.479
380.38	39.344
380.74	40.696
381.09	40.403
381.45	41.242
381.81	40.663
382.17	41.656
382.53	41.195
382.89	41.667
383.25	40.775
383.61	41.760
383.97	41.401
384.32	40.424
384.68	41.326
385.04	41.242
385.40	40.062
385.76	40.602
386.12	41.516
386.48	40.906
386.83	41.950
387.19	41.744
387.55	41.373
387.91	40.810
388.27	42.673
388.62	41.549
388.98	40.172
389.34	42.365
389.70	40.834
390.06	41.762
390.42	41.505
390.77	41.603
391.13	41.991
391.49	41.497
391.85	42.139
392.20	41.009
392.56	42.614
392.92	41.260
393.28	40.533
393.64	40.228
393.99	41.478
394.35	40.385
394.71	40.903
395.07	40.062
395.42	41.656
395.78	41.412
396.14	40.658
396.50	40.852
396.85	42.721
397.21	40.999
397.57	42.095
397.92	41.466
398.28	40.751
398.64	41.219
399.00	40.459
399.35	40.891
399.71	40.799
400.07	41.041
400.42	41.472
400.78	41.315
401.14	41.341
401.49	41.313
401.85	40.835
402.21	41.317
402.57	39.358
402.92	40.227
403.28	40.537
403.63	39.418
403.99	41.210
404.35	40.000
404.70	40.588
405.06	40.361
405.42	40.799
405.77	39.714
406.13	40.068
406.49	39.385
406.84	39.161
407.20	39.007
407.55	39.885
407.91	40.333
408.27	40.651
408.62	39.494
408.98	39.706
409.34	40.037
409.69	40.903
410.05	40.644
410.40	39.633
410.76	39.188
411.11	39.204
411.47	38.466
411.83	38.852
412.18	38.404
412.54	39.913
412.89	38.614
413.25	38.194
413.60	40.148
413.96	39.405
414.31	38.882
414.67	39.544
415.03	39.735
415.38	38.789
415.74	39.293
416.09	39.321
416.45	39.357
416.80	38.665
417.16	38.606
417.51	39.151
417.87	38.857
418.22	39.621
418.58	40.090
418.93	38.882
419.29	38.256
419.64	39.421
420.00	39.268
420.35	38.783
420.71	39.211
421.06	39.499
421.42	39.474
421.77	39.462
422.12	38.462
422.48	37.507
422.83	39.429
423.19	38.232
423.54	39.002
423.90	39.014
424.25	39.028
424.61	38.631
424.96	39.417
425.31	38.870
425.67	38.315
426.02	39.029
426.38	39.560
426.73	38.209
427.09	38.784
427.44	39.620
427.79	39.448
428.15	38.869
428.50	39.789
428.85	38.796
429.21	38.266
429.56	38.932
429.92	38.148
430.27	37.736
430.62	38.198
430.98	38.817
431.33	38.299
431.68	38.115
432.04	37.380
432.39	39.577
432.74	39.258
433.10	38.653
433.45	38.367
433.80	39.080
434.16	38.088
434.51	38.579
434.86	39.396
435.22	39.188
435.57	39.392
435.92	37.917
436.28	39.739
436.63	39.018
436.98	39.267
437.34	38.223
437.69	39.848
438.04	39.404
438.39	38.507
438.75	38.815
439.10	39.721
439.45	38.312
439.81	39.396
440.16	39.695
440.51	39.895
440.86	39.143
441.22	39.989
441.57	39.384
441.92	39.816
442.27	39.128
442.63	38.810
442.98	40.169
443.33	38.478
443.68	38.462
444.03	39.190
444.39	38.608
444.74	39.448
445.09	38.652
445.44	39.803
445.79	38.397
446.15	39.121
446.50	38.665
446.85	39.157
447.20	39.419
447.55	39.643
447.91	39.272
448.26	39.065
448.61	39.796
448.96	39.258
449.31	39.426
449.66	38.886
450.02	38.162
450.37	38.832
450.72	39.763
451.07	39.122
451.42	38.419
451.77	39.284
452.12	38.106
452.47	39.055
452.83	39.918
453.18	38.631
453.53	39.641
453.88	38.748
454.23	39.689
454.58	39.310
454.93	39.733
455.28	38.653
455.63	39.442
455.98	40.417
456.34	38.505
456.69	39.386
457.04	39.690
457.39	39.275
457.74	38.944
458.09	38.585
458.44	39.681
458.79	38.449
459.14	39.447
459.49	38.646
459.84	37.839
460.19	39.246
460.54	37.905
460.89	38.289
461.24	38.676
461.59	39.570
461.94	38.286
462.29	39.466
462.64	39.183
462.99	37.736
463.34	39.267
463.69	39.087
464.04	38.435
464.39	37.797
464.74	38.324
465.09	38.480
465.44	38.837
465.79	37.584
466.14	38.041
466.49	37.764
466.84	39.113
467.19	37.477
467.54	39.312
467.89	38.655
468.24	38.627
468.59	37.668
468.94	37.080
469.29	38.496
469.64	38.153
469.99	37.889
470.34	36.988
470.68	38.578
471.03	37.891
471.38	39.541
471.73	37.508
472.08	38.092
472.43	37.688
472.78	37.722
473.13	36.714
473.48	38.202
473.83	38.293
474.17	38.208
474.52	37.159
474.87	38.004
475.22	35.752
475.57	36.808
475.92	36.962
476.27	36.753
476.61	37.397
476.96	36.394
477.31	37.258
477.66	37.418
478.01	36.121
478.36	37.969
478.70	37.072
479.05	37.700
479.40	36.029
479.75	37.265
480.10	36.879
480.45	36.887
480.79	36.598
481.14	36.155
481.49	36.782
481.84	36.763
482.19	36.711
482.53	37.339
482.88	37.180
483.23	36.168
483.58	36.169
483.92	36.410
484.27	35.294
484.62	36.509
484.97	35.357
485.31	37.637
485.66	36.726
486.01	35.851
486.36	34.160
486.70	33.547
487.05	33.401
487.40	34.295
487.75	34.173
488.09	35.396
488.44	35.490
488.79	36.166
489.13	36.516
489.48	35.644
489.83	34.873
490.17	35.598
490.52	34.854
490.87	35.911
491.22	35.334
491.56	34.715
491.91	34.807
492.26	34.405
492.60	35.069
492.95	35.407
493.30	35.047
493.64	34.484
493.99	34.355
494.34	35.939
494.68	35.165
495.03	35.902
495.37	34.248
495.72	35.965
496.07	35.777
496.41	34.956
496.76	35.048
497.11	34.669
497.45	34.746
497.80	34.693
498.14	35.072
498.49	34.683
498.84	34.803
499.18	35.095
499.53	34.520
499.87	34.902
500.22	34.244
500.56	35.388
500.91	34.471
501.26	35.372
501.60	35.216
501.95	34.418
502.29	35.380
502.64	34.683
502.98	34.736
503.33	34.324
503.67	34.432
504.02	33.817
504.36	34.300
504.71	34.831
505.06	35.036
505.40	33.884
505.75	34.185
506.09	34.014
506.44	34.139
506.78	34.730
507.13	34.629
507.47	34.444
507.82	34.904
508.16	34.802
508.51	33.993
508.85	33.565
509.19	33.776
509.54	33.929
509.88	33.952
510.23	34.653
510.57	34.727
510.92	34.076
511.26	33.607
511.61	33.299
511.95	33.768
512.30	32.662
512.64	33.530
512.98	34.137
513.33	34.261
513.67	33.511
514.02	33.550
514.36	34.899
514.70	34.366
515.05	34.077
515.39	33.707
515.74	34.065
516.08	34.265
516.42	34.240
516.77	34.058
517.11	32.852
517.46	33.409
517.80	32.985
518.14	32.310
518.49	33.897
518.83	33.352
519.17	33.776
519.52	33.164
519.86	33.600
520.20	33.179
520.55	35.069
520.89	33.029
521.23	33.715
521.58	33.854
521.92	33.374
522.26	33.801
522.61	34.019
522.95	33.579
523.29	33.049
523.64	32.866
523.98	33.087
524.32	33.172
524.66	33.373
525.01	32.414
525.35	33.024
525.69	33.621
526.04	32.835
526.38	33.679
526.72	32.393
527.06	33.584
527.41	31.312
527.75	34.212
528.09	32.755
528.43	32.696
528.78	32.698
529.12	33.091
529.46	33.619
529.80	33.168
530.15	33.894
530.49	32.677
530.83	33.481
531.17	34.530
531.51	33.268
531.86	32.645
532.20	33.051
532.54	32.479
532.88	32.349
533.22	32.230
533.57	32.901
533.91	33.052
534.25	32.625
534.59	33.374
534.93	32.600
535.27	32.529
535.62	31.807
535.96	33.145
536.30	32.867
536.64	32.968
536.98	32.382
537.32	31.402
537.66	32.600
538.01	32.851
538.35	33.032
538.69	33.823
539.03	33.008
539.37	32.652
539.71	31.627
540.05	32.876
540.39	32.359
540.73	32.536
541.07	33.355
541.42	31.898
541.76	33.290
542.10	32.665
542.44	32.252
542.78	33.136
543.12	31.798
543.46	32.721
543.80	33.051
544.14	32.221
544.48	32.635
544.82	31.815
545.16	32.921
545.50	33.033
545.84	32.191
546.18	32.323
546.52	32.140
546.86	32.715
547.20	32.771
547.54	33.200
547.88	32.972
548.22	32.254
548.56	32.075
548.90	31.306
549.24	32.727
549.58	33.151
549.92	32.143
550.26	33.665
550.60	32.642
550.94	33.169
551.28	31.675
551.62	32.998
551.96	31.719
552.30	32.696
552.64	32.387
552.98	32.746
553.32	32.232
553.66	32.175
554.00	32.739
554.34	32.436
554.68	33.119
555.02	32.370
555.36	32.568
555.69	31.394
556.03	31.696
556.37	31.924
556.71	30.423
557.05	32.003
557.39	31.631
557.73	32.392
558.07	32.125
558.41	31.621
558.75	32.329
559.08	33.408
559.42	33.182
559.76	31.397
560.10	31.478
560.44	31.586
560.78	31.071
561.12	31.926
561.45	32.203
561.79	32.301
562.13	32.260
562.47	32.377
562.81	32.566
563.15	31.973
563.48	32.294
563.82	32.094
564.16	32.963
564.50	31.901
564.84	30.847
565.17	31.660
565.51	32.396
565.85	31.789
566.19	30.933
566.52	32.236
566.86	31.344
567.20	32.488
567.54	32.135
567.88	30.310
568.21	31.640
568.55	31.446
568.89	32.588
569.23	31.328
569.56	31.215
569.90	31.321
570.24	31.360
570.57	30.568
570.91	29.929
571.25	30.698
571.59	30.751
571.92	30.645
572.26	30.416
572.60	30.120
572.93	30.285
573.27	30.908
573.61	30.039
573.95	30.284
574.28	30.050
574.62	30.199
574.96	30.490
575.29	30.068
575.63	29.853
575.97	29.758
576.30	30.351
576.64	29.846
576.98	30.457
577.31	30.545
577.65	30.793
577.98	30.177
578.32	29.984
578.66	29.874
578.99	30.062
579.33	30.380
579.67	29.263
580.00	30.328
580.34	29.948
580.67	30.064
581.01	30.335
581.35	30.477
581.68	30.482
582.02	29.858
582.35	29.711
582.69	29.771
583.02	29.902
583.36	29.652
583.70	30.420
584.03	30.434
584.37	31.067
584.70	30.747
585.04	30.161
585.37	30.382
585.71	30.616
586.04	30.080
586.38	30.904
586.72	30.820
587.05	30.345
587.39	30.686
587.72	30.018
588.06	29.989
588.39	29.822
588.73	29.950
589.06	30.913
589.40	30.707
589.73	31.362
590.07	30.107
590.40	29.850
590.73	30.640
591.07	31.583
591.40	30.578
591.74	31.861
592.07	31.501
592.41	31.129
592.74	30.674
593.08	30.913
593.41	30.370
593.75	29.606
594.08	29.769
594.41	29.834
594.75	30.351
595.08	30.565
595.42	30.473
595.75	30.520
596.09	30.642
596.42	31.041
596.75	29.717
597.09	31.385
597.42	29.511
597.75	31.350
598.09	30.783
598.42	31.014
598.76	30.969
599.09	29.989
599.42	30.131
599.76	30.124
600.09	30.383
600.42	30.460
600.76	29.929
601.09	29.362
601.42	30.289
601.76	30.550
602.09	30.632
602.42	31.250
602.76	30.713
603.09	30.724
603.42	30.808
603.76	29.764
604.09	30.012
604.42	29.433
604.76	31.253
605.09	30.494
605.42	30.269
605.75	30.464
606.09	30.256
606.42	30.241
606.75	30.776
607.09	30.222
607.42	30.252
607.75	30.253
608.08	30.395
608.42	30.793
608.75	30.027
609.08	30.435
609.41	30.129
609.75	29.871
610.08	30.820
610.41	29.935
610.74	30.653
611.07	30.632
611.41	30.324
611.74	31.272
612.07	30.435
612.40	31.322
612.73	31.789
613.07	31.196
613.40	31.016
613.73	29.470
614.06	30.484
614.39	31.044
614.72	31.263
615.06	29.779
615.39	30.998
615.72	30.368
616.05	30.569
616.38	30.517
616.71	31.948
617.05	31.213
617.38	30.547
617.71	31.712
618.04	31.911
618.37	30.633
618.70	31.487
619.03	30.658
619.36	31.161
619.69	31.761
620.03	32.005
620.36	30.147
620.69	31.781
621.02	32.965
621.35	31.010
621.68	30.062
622.01	30.495
622.34	31.392
622.67	32.776
623.00	30.814
623.33	31.808
623.66	31.308
623.99	31.738
624.32	31.740
624.65	31.427
624.99	30.595
625.32	31.427
625.65	31.029
625.98	31.360
626.31	32.659
626.64	32.163
626.97	32.003
627.30	31.920
627.63	31.829
627.96	32.717
628.29	31.321
628.62	32.205
628.95	34.340
629.28	32.299
629.61	31.897
629.94	31.810
630.26	32.316
630.59	31.459
630.92	31.801
631.25	31.688
631.58	31.732
631.91	31.339
632.24	31.435
632.57	31.689
632.90	33.772
633.23	31.544
633.56	32.542
