SpectraSuite Data File
++++++++++++++++++++++++++++++++++++
Date: Wed May 13 16:09:26 PDT 2015
User: schluterlab
Dark Spectrum Present: Yes
Reference Spectrum Present: Yes
Number of Sampled Component Spectra: 1
Spectrometers: USB2E3373
Integration Time (usec): 3000 (USB2E3373)
Spectra Averaged: 3 (USB2E3373)
Boxcar Smoothing: 0 (USB2E3373)
Correct for Electrical Dark: No (USB2E3373)
Strobe/Lamp Enabled: No (USB2E3373)
Correct for Detector Non-linearity: No (USB2E3373)
Correct for Stray Light: No (USB2E3373)
Number of Pixels in Processed Spectrum: 2048
>>>>>Begin Processed Spectral Data<<<<<
178.53	0.000
178.91	-1125.000
179.29	-975.000
179.67	-155.556
180.04	-975.000
180.42	1800.000
180.80	780.000
181.18	-700.000
181.56	400.000
181.94	0.000
182.31	-485.714
182.69	1233.333
183.07	-475.000
183.45	-344.444
183.83	400.000
184.20	-260.000
184.58	1150.000
184.96	4200.000
185.34	-700.000
185.72	-362.500
186.09	-1150.000
186.47	1750.000
186.85	2150.000
187.23	3200.000
187.61	-1433.333
187.98	1000.000
188.36	436.364
188.74	372.727
189.12	-780.000
189.49	440.000
189.87	-2700.000
190.25	-750.000
190.63	307.143
191.00	353.846
191.38	683.333
191.76	-625.000
192.14	975.000
192.51	425.000
192.89	833.333
193.27	487.500
193.65	-775.000
194.02	400.000
194.40	480.000
194.78	330.000
195.15	341.667
195.53	520.000
195.91	-1300.000
196.29	268.750
196.66	226.316
197.04	-250.000
197.42	0.000
197.79	480.000
198.17	-3400.000
198.55	442.857
198.92	450.000
199.30	560.000
199.68	0.000
200.05	216.667
200.43	557.143
200.81	3100.000
201.18	1466.667
201.56	-966.667
201.94	433.333
202.31	500.000
202.69	308.333
203.07	440.000
203.44	0.000
203.82	925.000
204.19	485.714
204.57	300.000
204.95	487.500
205.32	866.667
205.70	427.273
206.08	271.429
206.45	2250.000
206.83	250.000
207.20	733.333
207.58	620.000
207.96	261.111
208.33	512.500
208.71	-400.000
209.08	585.714
209.46	455.556
209.84	445.455
210.21	-1000.000
210.59	1100.000
210.96	-250.000
211.34	1350.000
211.71	430.000
212.09	583.333
212.46	0.000
212.84	1600.000
213.22	975.000
213.59	-3400.000
213.97	716.667
214.34	471.429
214.72	427.273
215.09	820.000
215.47	-1450.000
215.84	-1650.000
216.22	1200.000
216.59	271.429
216.97	1050.000
217.34	300.000
217.72	-566.667
218.09	0.000
218.47	-3400.000
218.84	422.222
219.22	457.143
219.59	1133.333
219.97	-400.000
220.34	680.000
220.72	-1066.667
221.09	300.000
221.47	1250.000
221.84	-666.667
222.22	0.000
222.59	1150.000
222.97	-1850.000
223.34	800.000
223.72	284.615
224.09	860.000
224.46	1950.000
224.84	-3600.000
225.21	-580.000
225.59	-3700.000
225.96	410.000
226.34	200.000
226.71	2250.000
227.08	475.000
227.46	460.000
227.83	-675.000
228.21	-1500.000
228.58	522.222
228.95	-1950.000
229.33	-1450.000
229.70	1200.000
230.08	571.429
230.45	-540.000
230.82	325.000
231.20	600.000
231.57	414.286
231.95	358.333
232.32	177.273
232.69	345.455
233.07	571.429
233.44	276.923
233.81	-1000.000
234.19	226.316
234.56	391.667
234.93	308.333
235.31	409.091
235.68	276.923
236.05	257.143
236.43	142.424
236.80	215.789
237.17	4200.000
237.55	214.286
237.92	214.286
238.29	190.476
238.67	141.935
239.04	158.621
239.41	116.667
239.79	106.522
240.16	126.190
240.53	134.091
240.91	121.569
241.28	118.000
241.65	96.000
242.02	86.957
242.40	109.677
242.77	93.333
243.14	76.344
243.51	82.022
243.89	76.471
244.26	71.111
244.63	78.495
245.00	77.660
245.38	74.257
245.75	65.421
246.12	56.881
246.49	74.453
246.87	72.000
247.24	75.385
247.61	65.000
247.98	64.706
248.36	61.486
248.73	61.146
249.10	66.879
249.47	68.927
249.84	60.963
250.22	61.497
250.59	60.355
250.96	60.606
251.33	61.137
251.70	56.931
252.08	55.714
252.45	54.709
252.82	53.478
253.19	52.766
253.56	55.294
253.94	51.452
254.31	57.031
254.68	56.538
255.05	57.934
255.42	54.878
255.79	55.882
256.16	50.542
256.54	47.703
256.91	53.025
257.28	51.799
257.65	46.205
258.02	48.137
258.39	52.997
258.76	50.502
259.14	48.512
259.51	48.632
259.88	48.137
260.25	51.057
260.62	48.555
260.99	50.932
261.36	52.252
261.73	52.436
262.10	47.965
262.47	51.831
262.85	49.025
263.22	45.869
263.59	52.137
263.96	46.703
264.33	49.608
264.70	48.684
265.07	49.105
265.44	48.232
265.81	46.229
266.18	49.749
266.55	46.341
266.92	49.877
267.29	49.537
267.66	41.972
268.03	44.545
268.40	46.495
268.77	46.301
269.14	45.495
269.51	47.856
269.88	47.786
270.25	47.630
270.62	46.292
270.99	47.957
271.36	46.996
271.73	46.262
272.10	48.261
272.47	48.387
272.84	46.320
273.21	45.493
273.58	44.978
273.95	44.654
274.32	43.182
274.69	47.537
275.06	45.669
275.43	46.383
275.80	42.285
276.17	42.770
276.54	44.075
276.91	44.071
277.28	44.922
277.65	43.133
278.02	43.685
278.39	47.461
278.76	43.636
279.13	44.340
279.50	42.831
279.87	42.430
280.23	43.713
280.60	43.907
280.97	43.068
281.34	41.062
281.71	42.545
282.08	45.681
282.45	41.818
282.82	42.451
283.19	40.642
283.56	44.561
283.92	43.824
284.29	43.210
284.66	40.653
285.03	41.591
285.40	40.317
285.77	42.929
286.14	40.933
286.51	44.333
286.87	44.444
287.24	43.160
287.61	40.289
287.98	40.584
288.35	39.461
288.72	38.162
289.08	40.219
289.45	38.550
289.82	40.325
290.19	38.619
290.56	38.744
290.93	38.066
291.29	38.804
291.66	38.791
292.03	38.953
292.40	40.675
292.77	35.207
293.13	37.313
293.50	36.006
293.87	35.259
294.24	34.370
294.60	35.080
294.97	35.610
295.34	36.389
295.71	35.369
296.08	34.615
296.44	34.938
296.81	33.818
297.18	36.450
297.55	31.662
297.91	33.113
298.28	33.199
298.65	35.248
299.02	33.202
299.38	31.474
299.75	30.189
300.12	32.184
300.48	30.375
300.85	32.306
301.22	31.338
301.59	31.439
301.95	33.375
302.32	33.633
302.69	31.183
303.05	32.970
303.42	30.864
303.79	31.597
304.15	29.837
304.52	30.012
304.89	29.617
305.25	29.698
305.62	30.125
305.99	29.634
306.35	29.418
306.72	29.036
307.09	30.855
307.45	30.405
307.82	28.237
308.19	30.464
308.55	31.392
308.92	30.505
309.29	28.617
309.65	29.374
310.02	28.858
310.38	30.108
310.75	30.095
311.12	29.376
311.48	29.781
311.85	30.503
312.22	29.657
312.58	28.794
312.95	30.729
313.31	28.738
313.68	30.146
314.05	29.586
314.41	29.045
314.78	28.600
315.14	29.096
315.51	29.763
315.87	28.515
316.24	28.898
316.61	26.901
316.97	28.180
317.34	27.104
317.70	29.924
318.07	29.066
318.43	28.865
318.80	29.147
319.16	29.284
319.53	27.674
319.89	29.238
320.26	29.600
320.62	28.373
320.99	28.990
321.35	30.606
321.72	28.645
322.08	28.529
322.45	29.154
322.81	28.585
323.18	29.769
323.54	28.757
323.91	28.585
324.27	28.585
324.64	28.518
325.00	27.953
325.37	28.753
325.73	29.533
326.10	28.508
326.46	28.405
326.83	28.991
327.19	28.096
327.56	28.049
327.92	27.822
328.29	28.394
328.65	27.440
329.01	28.159
329.38	28.030
329.74	27.239
330.11	28.464
330.47	28.558
330.84	28.217
331.20	27.231
331.56	26.972
331.93	27.407
332.29	27.329
332.66	27.965
333.02	27.239
333.38	27.281
333.75	27.005
334.11	26.246
334.48	27.862
334.84	27.390
335.20	27.000
335.57	26.383
335.93	26.250
336.29	26.190
336.66	27.412
337.02	28.054
337.38	26.944
337.75	25.579
338.11	26.052
338.47	26.059
338.84	26.673
339.20	26.055
339.56	26.825
339.93	25.818
340.29	25.906
340.65	27.362
341.02	27.312
341.38	26.246
341.74	26.667
342.11	26.550
342.47	26.784
342.83	25.514
343.20	25.541
343.56	26.959
343.92	25.351
344.28	25.935
344.65	26.827
345.01	25.337
345.37	26.158
345.73	26.650
346.10	26.257
346.46	25.593
346.82	24.794
347.19	24.561
347.55	25.862
347.91	24.919
348.27	25.390
348.63	25.585
349.00	25.566
349.36	25.452
349.72	25.100
350.08	25.932
350.45	25.224
350.81	25.345
351.17	25.365
351.53	25.061
351.89	23.102
352.26	25.493
352.62	25.180
352.98	25.689
353.34	24.733
353.70	24.714
354.07	24.919
354.43	25.159
354.79	24.457
355.15	24.980
355.51	25.659
355.87	24.571
356.24	25.896
356.60	23.336
356.96	25.020
357.32	24.121
357.68	24.488
358.04	24.149
358.40	25.337
358.77	24.648
359.13	23.994
359.49	23.922
359.85	22.778
360.21	22.967
360.57	24.202
360.93	24.385
361.29	24.565
361.66	24.071
362.02	24.030
362.38	24.259
362.74	23.437
363.10	23.686
363.46	24.138
363.82	23.961
364.18	23.789
364.54	24.443
364.90	25.212
365.26	24.118
365.62	23.813
365.98	23.156
366.35	22.708
366.71	24.223
367.07	24.181
367.43	24.746
367.79	24.554
368.15	24.713
368.51	22.892
368.87	23.840
369.23	23.921
369.59	25.127
369.95	23.603
370.31	23.718
370.67	24.275
371.03	25.843
371.39	23.761
371.75	24.926
372.11	23.613
372.47	23.900
372.83	24.135
373.19	23.049
373.55	24.021
373.91	25.110
374.27	22.749
374.63	24.364
374.99	24.011
375.35	22.889
375.71	22.961
376.07	23.320
376.42	24.140
376.78	24.453
377.14	23.338
377.50	24.636
377.86	23.870
378.22	23.135
378.58	23.622
378.94	24.136
379.30	23.473
379.66	23.921
380.02	23.833
380.38	23.862
380.74	24.070
381.09	24.144
381.45	24.032
381.81	24.140
382.17	23.822
382.53	23.270
382.89	24.444
383.25	23.390
383.61	23.420
383.97	23.390
384.32	24.205
384.68	23.606
385.04	23.725
385.40	24.087
385.76	24.693
386.12	23.187
386.48	24.040
386.83	24.759
387.19	24.675
387.55	23.995
387.91	24.244
388.27	24.034
388.62	24.647
388.98	24.509
389.34	25.094
389.70	23.728
390.06	24.778
390.42	24.449
390.77	24.237
391.13	24.378
391.49	24.937
391.85	24.507
392.20	22.713
392.56	24.621
392.92	24.779
393.28	23.905
393.64	25.000
393.99	24.924
394.35	24.566
394.71	24.341
395.07	23.925
395.42	24.969
395.78	24.046
396.14	23.774
396.50	26.128
396.85	25.048
397.21	24.168
397.57	24.737
397.92	24.279
398.28	23.823
398.64	24.851
399.00	24.007
399.35	24.478
399.71	23.264
400.07	25.251
400.42	25.031
400.78	25.151
401.14	24.695
401.49	24.836
401.85	23.835
402.21	23.533
402.57	24.553
402.92	24.275
403.28	24.735
403.63	23.391
403.99	23.822
404.35	23.273
404.70	24.640
405.06	24.287
405.42	25.078
405.77	24.057
406.13	24.492
406.49	25.251
406.84	24.276
407.20	24.350
407.55	24.761
407.91	25.133
408.27	23.995
408.62	23.781
408.98	23.958
409.34	24.231
409.69	24.903
410.05	24.040
410.40	24.281
410.76	24.313
411.11	23.462
411.47	24.537
411.83	24.007
412.18	23.933
412.54	23.848
412.89	24.518
413.25	23.790
413.60	23.965
413.96	23.679
414.31	23.451
414.67	24.018
415.03	24.040
415.38	24.034
415.74	23.794
416.09	25.800
416.45	23.963
416.80	24.256
417.16	24.330
417.51	25.017
417.87	23.699
418.22	24.290
418.58	23.499
418.93	24.017
419.29	23.616
419.64	24.181
420.00	24.756
420.35	24.580
420.71	23.790
421.06	23.449
421.42	23.918
421.77	23.823
422.12	23.807
422.48	23.637
422.83	24.287
423.19	22.983
423.54	24.840
423.90	24.000
424.25	24.065
424.61	23.929
424.96	24.023
425.31	23.643
425.67	23.315
426.02	23.771
426.38	23.687
426.73	23.640
427.09	23.587
427.44	23.347
427.79	24.209
428.15	24.464
428.50	23.757
428.85	24.911
429.21	23.965
429.56	24.106
429.92	23.754
430.27	22.790
430.62	23.093
430.98	22.937
431.33	23.299
431.68	23.770
432.04	23.003
432.39	23.587
432.74	24.177
433.10	23.939
433.45	24.548
433.80	23.392
434.16	23.504
434.51	23.737
434.86	23.261
435.22	23.457
435.57	24.134
435.92	23.113
436.28	23.962
436.63	23.675
436.98	23.526
437.34	24.150
437.69	24.154
438.04	24.058
438.39	24.179
438.75	24.346
439.10	22.961
439.45	24.380
439.81	22.840
440.16	23.094
440.51	24.136
440.86	24.435
441.22	23.471
441.57	23.779
441.92	23.490
442.27	24.273
442.63	23.328
442.98	24.451
443.33	24.185
443.68	23.438
444.03	23.572
444.39	23.077
444.74	23.810
445.09	23.720
445.44	24.166
445.79	23.751
446.15	23.928
446.50	23.802
446.85	23.124
447.20	23.406
447.55	22.948
447.91	23.993
448.26	23.984
448.61	24.534
448.96	23.920
449.31	23.903
449.66	24.198
450.02	23.398
450.37	23.696
450.72	24.591
451.07	23.096
451.42	22.614
451.77	24.016
452.12	23.672
452.47	23.881
452.83	23.834
453.18	23.044
453.53	23.686
453.88	23.449
454.23	23.969
454.58	24.470
454.93	24.094
455.28	23.815
455.63	24.211
455.98	24.464
456.34	23.995
456.69	24.358
457.04	24.334
457.39	23.904
457.74	24.144
458.09	23.979
458.44	23.147
458.79	22.831
459.14	24.323
459.49	23.351
459.84	24.100
460.19	23.335
460.54	23.148
460.89	24.520
461.24	24.104
461.59	24.521
461.94	24.106
462.29	23.976
462.64	23.101
462.99	23.617
463.34	23.933
463.69	24.953
464.04	23.942
464.39	24.174
464.74	22.935
465.09	23.341
465.44	23.601
465.79	23.546
466.14	23.591
466.49	23.359
466.84	23.292
467.19	24.140
467.54	24.125
467.89	23.709
468.24	24.375
468.59	24.054
468.94	23.213
469.29	23.201
469.64	24.967
469.99	24.222
470.34	23.844
470.68	24.138
471.03	23.878
471.38	24.739
471.73	23.784
472.08	24.211
472.43	23.367
472.78	24.226
473.13	24.647
473.48	23.783
473.83	23.720
474.17	23.460
474.52	23.945
474.87	23.818
475.22	23.854
475.57	22.891
475.92	23.473
476.27	23.506
476.61	23.552
476.96	23.035
477.31	23.339
477.66	23.578
478.01	23.053
478.36	23.691
478.70	23.001
479.05	23.110
479.40	22.979
479.75	23.284
480.10	23.012
480.45	23.513
480.79	23.125
481.14	23.777
481.49	22.971
481.84	23.868
482.19	23.080
482.53	23.028
482.88	23.174
483.23	23.551
483.58	23.021
483.92	23.758
484.27	22.397
484.62	23.578
484.97	22.625
485.31	23.870
485.66	23.427
486.01	22.937
486.36	21.173
486.70	20.736
487.05	21.110
487.40	21.297
487.75	21.769
488.09	22.111
488.44	22.148
488.79	22.387
489.13	22.383
489.48	22.961
489.83	22.918
490.17	22.929
490.52	22.409
490.87	22.659
491.22	22.647
491.56	21.913
491.91	22.569
492.26	22.049
492.60	22.765
492.95	22.311
493.30	23.178
493.64	22.632
493.99	22.470
494.34	22.803
494.68	23.397
495.03	23.637
495.37	22.476
495.72	22.710
496.07	22.784
496.41	22.212
496.76	22.471
497.11	22.647
497.45	22.403
497.80	23.464
498.14	22.367
498.49	23.024
498.84	22.915
499.18	22.524
499.53	22.792
499.87	23.253
500.22	22.610
500.56	23.398
500.91	22.596
501.26	23.471
501.60	22.924
501.95	22.594
502.29	22.868
502.64	23.510
502.98	22.581
503.33	22.029
503.67	22.552
504.02	22.638
504.36	22.415
504.71	22.960
505.06	22.747
505.40	22.071
505.75	22.517
506.09	22.741
506.44	23.088
506.78	23.186
507.13	23.423
507.47	23.687
507.82	22.999
508.16	22.796
508.51	22.882
508.85	23.039
509.19	23.316
509.54	22.347
509.88	22.823
510.23	22.314
510.57	23.168
510.92	23.252
511.26	23.433
511.61	22.873
511.95	22.443
512.30	22.322
512.64	22.354
512.98	23.526
513.33	22.966
513.67	22.465
514.02	22.078
514.36	23.484
514.70	22.911
515.05	23.201
515.39	23.275
515.74	22.917
516.08	22.862
516.42	23.196
516.77	23.188
517.11	23.418
517.46	23.138
517.80	22.822
518.14	22.119
518.49	23.804
518.83	23.011
519.17	23.441
519.52	22.920
519.86	22.761
520.20	22.717
520.55	23.639
520.89	24.148
521.23	23.945
521.58	23.169
521.92	24.066
522.26	23.063
522.61	23.489
522.95	22.406
523.29	23.007
523.64	23.354
523.98	23.783
524.32	23.221
524.66	24.173
525.01	23.529
525.35	23.234
525.69	22.783
526.04	22.928
526.38	22.941
526.72	23.558
527.06	23.478
527.41	21.968
527.75	23.794
528.09	23.892
528.43	24.028
528.78	22.987
529.12	23.455
529.46	23.331
529.80	22.834
530.15	24.673
530.49	22.400
530.83	24.494
531.17	25.000
531.51	24.449
531.86	24.387
532.20	24.055
532.54	23.382
532.88	22.914
533.22	23.610
533.57	23.642
533.91	23.841
534.25	23.329
534.59	23.246
534.93	22.130
535.27	23.174
535.62	24.176
535.96	23.603
536.30	22.505
536.64	24.018
536.98	23.358
537.32	24.226
537.66	23.533
538.01	23.371
538.35	24.111
538.69	24.250
539.03	23.132
539.37	22.300
539.71	23.007
540.05	23.595
540.39	23.322
540.73	23.027
541.07	24.400
541.42	22.962
541.76	23.161
542.10	23.351
542.44	23.709
542.78	24.111
543.12	23.033
543.46	23.541
543.80	23.487
544.14	23.299
544.48	23.302
544.82	23.284
545.16	24.203
545.50	22.815
545.84	22.984
546.18	23.771
546.52	23.400
546.86	23.505
547.20	23.803
547.54	23.113
547.88	24.107
548.22	23.848
548.56	23.208
548.90	22.023
549.24	22.626
549.58	23.874
549.92	23.352
550.26	23.935
550.60	22.268
550.94	23.099
551.28	22.165
551.62	23.940
551.96	23.930
552.30	24.300
552.64	24.003
552.98	22.847
553.32	23.466
553.66	23.926
554.00	23.816
554.34	23.671
554.68	24.034
555.02	22.779
555.36	23.730
555.69	23.613
556.03	22.678
556.37	23.329
556.71	22.715
557.05	24.230
557.39	23.723
557.73	22.512
558.07	24.656
558.41	23.372
558.75	23.806
559.08	23.415
559.42	23.205
559.76	23.676
560.10	23.126
560.44	22.502
560.78	23.287
561.12	23.021
561.45	25.033
561.79	23.336
562.13	22.871
562.47	23.634
562.81	23.710
563.15	22.676
563.48	22.745
563.82	23.222
564.16	23.414
564.50	22.786
564.84	23.325
565.17	22.973
565.51	23.578
565.85	23.223
566.19	22.855
566.52	22.293
566.86	23.388
567.20	23.408
567.54	22.774
567.88	22.325
568.21	23.757
568.55	22.851
568.89	22.763
569.23	22.504
569.56	22.267
569.90	22.755
570.24	22.461
570.57	22.033
570.91	21.461
571.25	21.464
571.59	22.032
571.92	21.457
572.26	21.433
572.60	21.562
572.93	21.709
573.27	21.887
573.61	21.803
573.95	22.119
574.28	21.307
574.62	21.599
574.96	21.027
575.29	20.829
575.63	21.824
575.97	21.297
576.30	21.721
576.64	21.355
576.98	21.609
577.31	21.488
577.65	21.368
577.98	21.070
578.32	21.326
578.66	21.111
578.99	21.023
579.33	21.157
579.67	20.968
580.00	21.530
580.34	21.405
580.67	21.106
581.01	21.408
581.35	21.559
581.68	21.499
582.02	20.833
582.35	21.121
582.69	21.262
583.02	20.506
583.36	21.098
583.70	21.179
584.03	21.238
584.37	21.634
584.70	21.813
585.04	21.429
585.37	21.295
585.71	21.664
586.04	21.285
586.38	21.578
586.72	21.486
587.05	21.299
587.39	20.976
587.72	21.077
588.06	21.211
588.39	21.838
588.73	21.326
589.06	22.063
589.40	22.155
589.73	22.105
590.07	21.993
590.40	21.008
590.73	21.546
591.07	22.873
591.40	22.227
591.74	22.771
592.07	22.208
592.41	22.943
592.74	21.610
593.08	21.586
593.41	21.607
593.75	20.893
594.08	21.488
594.41	22.163
594.75	21.738
595.08	21.654
595.42	21.821
595.75	21.368
596.09	22.005
596.42	22.161
596.75	22.246
597.09	22.078
597.42	22.091
597.75	21.863
598.09	21.826
598.42	21.607
598.76	22.051
599.09	21.893
599.42	21.507
599.76	21.596
600.09	20.838
600.42	21.329
600.76	20.893
601.09	21.821
601.42	21.766
601.76	21.632
602.09	21.660
602.42	22.134
602.76	22.330
603.09	22.069
603.42	22.452
603.76	21.303
604.09	21.598
604.42	21.484
604.76	21.805
605.09	21.188
605.42	21.975
605.75	22.558
606.09	22.041
606.42	22.109
606.75	21.983
607.09	21.892
607.42	21.823
607.75	21.561
608.08	21.841
608.42	22.143
608.75	22.137
609.08	21.184
609.41	21.704
609.75	21.772
610.08	21.489
610.41	21.927
610.74	21.902
611.07	21.986
611.41	21.933
611.74	22.725
612.07	22.464
612.40	22.298
612.73	21.737
613.07	22.683
613.40	21.854
613.73	22.077
614.06	22.849
614.39	21.657
614.72	22.316
615.06	22.374
615.39	21.231
615.72	21.319
616.05	21.531
616.38	22.513
616.71	22.981
617.05	22.968
617.38	22.008
617.71	22.282
618.04	22.536
618.37	22.295
618.70	22.838
619.03	23.618
619.36	22.539
619.69	22.606
620.03	23.558
620.36	23.195
620.69	23.493
621.02	22.198
621.35	22.944
621.68	22.196
622.01	23.375
622.34	23.298
622.67	22.586
623.00	23.258
623.33	22.588
623.66	23.588
623.99	22.680
624.32	22.468
624.65	22.811
624.99	22.734
625.32	22.013
625.65	22.915
625.98	23.367
626.31	22.862
626.64	23.510
626.97	23.275
627.30	22.693
627.63	22.313
627.96	23.886
628.29	23.272
628.62	23.879
628.95	24.528
629.28	22.810
629.61	23.648
629.94	24.095
630.26	23.642
630.59	22.212
630.92	23.659
631.25	22.211
