SpectraSuite Data File
++++++++++++++++++++++++++++++++++++
Date: Wed May 13 16:03:58 PDT 2015
User: schluterlab
Dark Spectrum Present: Yes
Reference Spectrum Present: Yes
Number of Sampled Component Spectra: 1
Spectrometers: USB2E3373
Integration Time (usec): 3000 (USB2E3373)
Spectra Averaged: 3 (USB2E3373)
Boxcar Smoothing: 0 (USB2E3373)
Correct for Electrical Dark: No (USB2E3373)
Strobe/Lamp Enabled: No (USB2E3373)
Correct for Detector Non-linearity: No (USB2E3373)
Correct for Stray Light: No (USB2E3373)
Number of Pixels in Processed Spectrum: 2048
>>>>>Begin Processed Spectral Data<<<<<
178.53	0.000
178.91	-700.000
179.29	-550.000
179.67	-100.000
180.04	-775.000
180.42	1300.000
180.80	660.000
181.18	-500.000
181.56	214.286
181.94	0.000
182.31	-271.429
182.69	800.000
183.07	-250.000
183.45	-177.778
183.83	245.455
184.20	-170.000
184.58	1350.000
184.96	3200.000
185.34	-300.000
185.72	-187.500
186.09	-1000.000
186.47	1700.000
186.85	800.000
187.23	2200.000
187.61	-633.333
187.98	575.000
188.36	309.091
188.74	300.000
189.12	-160.000
189.49	220.000
189.87	-2100.000
190.25	-625.000
190.63	192.857
191.00	146.154
191.38	466.667
191.76	-550.000
192.14	575.000
192.51	475.000
192.89	483.333
193.27	200.000
193.65	-575.000
194.02	310.000
194.40	360.000
194.78	300.000
195.15	216.667
195.53	370.000
195.91	-800.000
196.29	231.250
196.66	200.000
197.04	-130.000
197.42	0.000
197.79	420.000
198.17	-2100.000
198.55	157.143
198.92	350.000
199.30	500.000
199.68	0.000
200.05	188.889
200.43	400.000
200.81	2300.000
201.18	733.333
201.56	-733.333
201.94	333.333
202.31	411.111
202.69	216.667
203.07	320.000
203.44	0.000
203.82	725.000
204.19	385.714
204.57	300.000
204.95	212.500
205.32	600.000
205.70	354.545
206.08	171.429
206.45	1450.000
206.83	187.500
207.20	433.333
207.58	240.000
207.96	155.556
208.33	375.000
208.71	-216.667
209.08	528.571
209.46	422.222
209.84	318.182
210.21	-633.333
210.59	750.000
210.96	-250.000
211.34	1200.000
211.71	340.000
212.09	416.667
212.46	0.000
212.84	800.000
213.22	700.000
213.59	-2200.000
213.97	500.000
214.34	257.143
214.72	336.364
215.09	420.000
215.47	-1400.000
215.84	-1450.000
216.22	1000.000
216.59	257.143
216.97	550.000
217.34	181.818
217.72	-366.667
218.09	0.000
218.47	-2500.000
218.84	344.444
219.22	528.571
219.59	833.333
219.97	-228.571
220.34	480.000
220.72	-966.667
221.09	228.571
221.47	725.000
221.84	-266.667
222.22	0.000
222.59	725.000
222.97	-1600.000
223.34	520.000
223.72	230.769
224.09	520.000
224.46	1200.000
224.84	-1400.000
225.21	-580.000
225.59	-800.000
225.96	260.000
226.34	170.000
226.71	1650.000
227.08	312.500
227.46	260.000
227.83	-150.000
228.21	-950.000
228.58	300.000
228.95	-1400.000
229.33	-1300.000
229.70	1000.000
230.08	428.571
230.45	-240.000
230.82	216.667
231.20	266.667
231.57	314.286
231.95	208.333
232.32	122.727
232.69	90.909
233.07	442.857
233.44	230.769
233.81	-1066.667
234.19	178.947
234.56	300.000
234.93	191.667
235.31	263.636
235.68	115.385
236.05	164.286
236.43	87.879
236.80	157.895
237.17	1900.000
237.55	85.714
237.92	89.286
238.29	119.048
238.67	122.581
239.04	72.414
239.41	94.444
239.79	54.348
240.16	90.476
240.53	56.818
240.91	64.706
241.28	80.000
241.65	50.000
242.02	62.319
242.40	41.935
242.77	51.667
243.14	56.989
243.51	53.933
243.89	38.824
244.26	27.778
244.63	39.785
245.00	29.787
245.38	48.515
245.75	35.514
246.12	32.110
246.49	37.956
246.87	45.600
247.24	40.769
247.61	34.286
247.98	37.908
248.36	33.108
248.73	26.115
249.10	35.669
249.47	29.944
249.84	33.155
250.22	34.225
250.59	23.669
250.96	32.828
251.33	29.858
251.70	27.228
252.08	31.429
252.45	26.906
252.82	27.826
253.19	26.383
253.56	27.843
253.94	28.216
254.31	28.906
254.68	30.000
255.05	31.734
255.42	27.642
255.79	25.735
256.16	27.076
256.54	26.148
256.91	24.911
257.28	24.101
257.65	22.112
258.02	26.708
258.39	23.975
258.76	23.411
259.14	24.107
259.51	26.140
259.88	20.497
260.25	21.148
260.62	21.098
260.99	22.671
261.36	19.520
261.73	25.215
262.10	23.256
262.47	22.817
262.85	22.284
263.22	20.798
263.59	23.647
263.96	24.176
264.33	24.804
264.70	24.211
265.07	19.693
265.44	22.475
265.81	19.221
266.18	24.121
266.55	22.439
266.92	22.604
267.29	18.287
267.66	20.872
268.03	22.045
268.40	22.196
268.77	21.241
269.14	22.297
269.51	22.799
269.88	20.047
270.25	21.670
270.62	21.798
270.99	22.796
271.36	20.386
271.73	22.196
272.10	19.348
272.47	21.290
272.84	18.831
273.21	25.157
273.58	18.777
273.95	21.174
274.32	16.736
274.69	20.128
275.06	18.504
275.43	20.851
275.80	20.641
276.17	19.348
276.54	22.037
276.91	20.751
277.28	17.578
277.65	20.696
278.02	16.770
278.39	21.875
278.76	21.273
279.13	20.189
279.50	20.298
279.87	19.124
280.23	20.359
280.60	21.470
280.97	18.854
281.34	20.177
281.71	22.364
282.08	22.841
282.45	22.000
282.82	18.650
283.19	18.717
283.56	21.053
283.92	21.827
284.29	19.400
284.66	18.875
285.03	18.807
285.40	17.782
285.77	19.697
286.14	19.862
286.51	20.000
286.87	18.974
287.24	20.033
287.61	19.101
287.98	17.045
288.35	18.859
288.72	17.757
289.08	17.214
289.45	19.275
289.82	17.561
290.19	16.013
290.56	16.386
290.93	18.278
291.29	18.252
291.66	16.372
292.03	17.587
292.40	19.090
292.77	15.976
293.13	17.463
293.50	17.201
293.87	16.000
294.24	17.037
294.60	15.866
294.97	16.279
295.34	17.348
295.71	17.045
296.08	14.957
296.44	15.406
296.81	14.927
297.18	15.854
297.55	12.665
297.91	15.699
298.28	16.198
298.65	16.710
299.02	15.020
299.38	14.475
299.75	13.208
300.12	14.049
300.48	15.250
300.85	14.057
301.22	14.395
301.59	14.899
301.95	13.854
302.32	13.222
302.69	14.098
303.05	14.909
303.42	13.827
303.79	13.024
304.15	12.587
304.52	12.630
304.89	14.170
305.25	14.153
305.62	14.496
305.99	14.640
306.35	14.653
306.72	14.574
307.09	13.541
307.45	15.541
307.82	11.830
308.19	14.459
308.55	14.563
308.92	12.997
309.29	14.361
309.65	12.407
310.02	12.896
310.38	13.118
310.75	13.305
311.12	14.023
311.48	13.480
311.85	12.579
312.22	13.840
312.58	13.306
312.95	14.150
313.31	12.913
313.68	12.578
314.05	15.878
314.41	14.472
314.78	13.797
315.14	14.201
315.51	13.079
315.87	13.960
316.24	11.817
316.61	12.671
316.97	13.796
317.34	12.035
317.70	13.384
318.07	13.282
318.43	12.720
318.80	13.964
319.16	13.653
319.53	13.039
319.89	13.619
320.26	14.400
320.62	13.591
320.99	14.545
321.35	13.232
321.72	13.244
322.08	14.215
322.45	14.229
322.81	14.438
323.18	13.969
323.54	14.471
323.91	13.396
324.27	13.862
324.64	13.234
325.00	13.616
325.37	13.558
325.73	14.722
326.10	14.210
326.46	13.262
326.83	13.460
327.19	14.176
327.56	12.979
327.92	14.436
328.29	13.665
328.65	13.720
329.01	12.996
329.38	12.488
329.74	13.850
330.11	13.384
330.47	13.131
330.84	14.430
331.20	13.115
331.56	13.853
331.93	12.593
332.29	13.310
332.66	15.221
333.02	12.249
333.38	12.466
333.75	13.547
334.11	13.345
334.48	13.753
334.84	14.062
335.20	14.091
335.57	12.511
335.93	11.786
336.29	12.821
336.66	13.075
337.02	12.308
337.38	13.148
337.75	12.478
338.11	13.160
338.47	12.431
338.84	14.299
339.20	12.294
339.56	13.504
339.93	13.273
340.29	12.862
340.65	11.943
341.02	14.311
341.38	11.922
341.74	12.281
342.11	13.537
342.47	13.304
342.83	12.586
343.20	13.680
343.56	12.721
343.92	12.456
344.28	12.925
344.65	13.500
345.01	11.364
345.37	11.578
345.73	13.283
346.10	12.532
346.46	12.288
346.82	13.015
347.19	12.531
347.55	12.890
347.91	13.026
348.27	12.325
348.63	13.545
349.00	11.893
349.36	12.315
349.72	11.468
350.08	12.318
350.45	12.693
350.81	12.266
351.17	11.831
351.53	12.531
351.89	11.386
352.26	13.260
352.62	13.152
352.98	11.831
353.34	12.325
353.70	12.520
354.07	12.419
354.43	12.619
354.79	11.826
355.15	12.131
355.51	12.230
355.87	12.571
356.24	12.134
356.60	10.906
356.96	11.746
357.32	12.183
357.68	11.811
358.04	12.035
358.40	12.193
358.77	12.207
359.13	10.576
359.49	12.392
359.85	10.794
360.21	12.041
360.57	12.374
360.93	11.923
361.29	12.094
361.66	11.146
362.02	12.090
362.38	12.167
362.74	12.351
363.10	10.807
363.46	11.299
363.82	10.884
364.18	13.142
364.54	12.259
364.90	12.394
365.26	11.176
365.62	12.491
365.98	11.687
366.35	11.390
366.71	12.292
367.07	12.017
367.43	11.466
367.79	11.920
368.15	12.572
368.51	11.410
368.87	11.920
369.23	12.143
369.59	12.093
369.95	10.735
370.31	11.895
370.67	11.232
371.03	12.135
371.39	12.026
371.75	11.471
372.11	11.664
372.47	12.023
372.83	12.896
373.19	12.283
373.55	10.421
373.91	12.592
374.27	11.615
374.63	10.836
374.99	11.864
375.35	11.305
375.71	11.789
376.07	11.523
376.42	11.486
376.78	11.928
377.14	11.669
377.50	11.325
377.86	11.702
378.22	11.441
378.58	12.093
378.94	11.565
379.30	11.132
379.66	11.802
380.02	10.995
380.38	11.354
380.74	11.585
381.09	11.369
381.45	11.494
381.81	12.285
382.17	11.146
382.53	11.761
382.89	11.790
383.25	10.131
383.61	12.144
383.97	10.944
384.32	11.478
384.68	10.595
385.04	11.432
385.40	11.331
385.76	11.916
386.12	11.917
386.48	11.517
386.83	11.674
387.19	12.492
387.55	12.678
387.91	11.669
388.27	11.281
388.62	12.047
388.98	10.442
389.34	12.328
389.70	12.140
390.06	12.674
390.42	11.803
390.77	12.277
391.13	11.678
391.49	12.817
391.85	11.012
392.20	10.915
392.56	11.111
392.92	11.948
393.28	11.065
393.64	11.691
393.99	11.607
394.35	11.352
394.71	11.606
395.07	11.402
395.42	11.434
395.78	12.532
396.14	11.794
396.50	12.845
396.85	11.952
397.21	11.406
397.57	12.399
397.92	12.019
398.28	11.043
398.64	12.306
399.00	12.031
399.35	10.829
399.71	11.458
400.07	11.413
400.42	11.963
400.78	11.761
401.14	11.463
401.49	11.343
401.85	11.555
402.21	11.856
402.57	11.845
402.92	12.295
403.28	11.868
403.63	11.200
403.99	11.720
404.35	11.576
404.70	11.511
405.06	11.765
405.42	10.605
405.77	11.429
406.13	11.512
406.49	11.886
406.84	11.695
407.20	10.106
407.55	12.189
407.91	11.867
408.27	11.104
408.62	11.921
408.98	11.336
409.34	11.193
409.69	11.548
410.05	11.276
410.40	11.682
410.76	11.231
411.11	12.244
411.47	11.949
411.83	11.729
412.18	10.266
412.54	10.772
412.89	12.410
413.25	10.980
413.60	11.797
413.96	11.415
414.31	11.179
414.67	11.343
415.03	11.126
415.38	11.920
415.74	11.447
416.09	12.084
416.45	10.977
416.80	12.029
417.16	12.466
417.51	12.541
417.87	11.175
418.22	12.050
418.58	13.299
418.93	11.916
419.29	11.394
419.64	12.028
420.00	11.951
420.35	12.000
420.71	12.851
421.06	11.337
421.42	11.228
421.77	11.715
422.12	11.061
422.48	10.955
422.83	11.299
423.19	11.657
423.54	11.608
423.90	12.232
424.25	11.725
424.61	12.024
424.96	11.195
425.31	11.739
425.67	11.461
426.02	11.371
426.38	11.722
426.73	11.352
427.09	11.368
427.44	11.213
427.79	11.156
428.15	11.964
428.50	11.352
428.85	12.217
429.21	11.375
429.56	11.301
429.92	10.871
430.27	11.470
430.62	11.572
430.98	11.572
431.33	11.082
431.68	11.728
432.04	11.395
432.39	11.422
432.74	12.208
433.10	11.998
433.45	12.187
433.80	11.308
434.16	10.684
434.51	11.789
434.86	11.859
435.22	10.895
435.57	11.185
435.92	12.171
436.28	12.574
436.63	11.810
436.98	11.048
437.34	11.688
437.69	12.077
438.04	12.029
438.39	12.119
438.75	11.737
439.10	12.682
439.45	12.279
439.81	11.118
440.16	11.745
440.51	12.185
440.86	12.102
441.22	11.568
441.57	11.253
441.92	11.310
442.27	11.841
442.63	11.638
442.98	12.113
443.33	11.304
443.68	11.564
444.03	12.396
444.39	11.246
444.74	11.364
445.09	11.968
445.44	11.646
445.79	11.578
446.15	11.911
446.50	11.955
446.85	11.871
447.20	11.525
447.55	11.390
447.91	12.245
448.26	11.909
448.61	11.475
448.96	12.569
449.31	12.430
449.66	12.099
450.02	11.142
450.37	12.018
450.72	11.506
451.07	12.310
451.42	11.672
451.77	12.331
452.12	12.009
452.47	12.687
452.83	11.597
453.18	12.164
453.53	11.750
453.88	11.695
454.23	12.194
454.58	13.749
454.93	12.524
455.28	11.783
455.63	12.197
455.98	13.333
456.34	12.249
456.69	11.584
457.04	12.446
457.39	12.390
457.74	11.666
458.09	12.191
458.44	12.600
458.79	11.497
459.14	12.415
459.49	12.551
459.84	11.247
460.19	12.021
460.54	11.806
460.89	11.849
461.24	12.568
461.59	13.248
461.94	12.577
462.29	12.582
462.64	12.444
462.99	11.581
463.34	12.800
463.69	12.758
464.04	12.290
464.39	11.652
464.74	12.537
465.09	12.364
465.44	12.022
465.79	12.025
466.14	12.096
466.49	11.735
466.84	11.967
467.19	12.311
467.54	12.063
467.89	12.605
468.24	11.635
468.59	11.722
468.94	12.645
469.29	11.825
469.64	13.521
469.99	12.449
470.34	12.682
470.68	12.931
471.03	11.361
471.38	12.439
471.73	12.858
472.08	13.026
472.43	11.809
472.78	12.113
473.13	12.516
473.48	13.046
473.83	12.256
474.17	12.694
474.52	12.717
474.87	13.018
475.22	11.666
475.57	11.768
475.92	11.577
476.27	12.007
476.61	12.686
476.96	11.655
477.31	12.193
477.66	12.254
478.01	11.866
478.36	12.427
478.70	11.890
479.05	12.993
479.40	11.873
479.75	12.049
480.10	12.376
480.45	11.709
480.79	11.371
481.14	11.986
481.49	11.913
481.84	12.254
482.19	12.267
482.53	11.651
482.88	12.238
483.23	11.963
483.58	12.284
483.92	12.277
484.27	10.980
484.62	11.552
484.97	11.667
485.31	11.815
485.66	10.693
486.01	10.041
486.36	9.926
486.70	9.791
487.05	10.465
487.40	10.878
487.75	11.008
488.09	11.313
488.44	11.341
488.79	11.537
489.13	11.879
489.48	11.297
489.83	11.480
490.17	12.100
490.52	11.692
490.87	11.986
491.22	12.187
491.56	11.663
491.91	11.773
492.26	11.346
492.60	11.797
492.95	11.880
493.30	12.290
493.64	11.619
493.99	12.396
494.34	12.072
494.68	12.317
495.03	11.513
495.37	12.192
495.72	11.891
496.07	12.622
496.41	11.726
496.76	12.093
497.11	11.842
497.45	12.203
497.80	12.668
498.14	11.932
498.49	11.756
498.84	12.416
499.18	11.952
499.53	11.681
499.87	12.302
500.22	12.058
500.56	12.476
500.91	12.163
501.26	11.949
501.60	12.197
501.95	12.328
502.29	13.261
502.64	12.197
502.98	11.875
503.33	11.609
503.67	12.204
504.02	11.880
504.36	12.541
504.71	12.702
505.06	12.530
505.40	12.251
505.75	12.199
506.09	12.585
506.44	12.037
506.78	12.323
507.13	12.014
507.47	12.677
507.82	12.665
508.16	12.766
508.51	12.684
508.85	12.512
509.19	12.602
509.54	13.010
509.88	12.056
510.23	11.979
510.57	12.848
510.92	12.532
511.26	12.744
511.61	13.019
511.95	12.578
512.30	12.301
512.64	13.111
512.98	12.969
513.33	12.955
513.67	12.060
514.02	11.905
514.36	12.780
514.70	13.558
515.05	12.047
515.39	13.853
515.74	12.894
516.08	13.471
516.42	13.818
516.77	13.434
517.11	12.930
517.46	13.657
517.80	13.473
518.14	12.507
518.49	12.719
518.83	13.352
519.17	13.222
519.52	13.016
519.86	13.234
520.20	13.873
520.55	13.285
520.89	13.260
521.23	13.088
521.58	13.385
521.92	13.656
522.26	13.240
522.61	13.645
522.95	13.321
523.29	13.147
523.64	13.354
523.98	13.740
524.32	13.269
524.66	14.251
525.01	13.664
525.35	13.011
525.69	12.931
526.04	13.583
526.38	13.057
526.72	13.988
527.06	13.434
527.41	12.871
527.75	14.084
528.09	13.166
528.43	13.512
528.78	14.014
529.12	13.212
529.46	13.778
529.80	14.356
530.15	13.894
530.49	13.231
530.83	14.051
531.17	14.034
531.51	14.332
531.86	13.484
532.20	13.755
532.54	14.478
532.88	14.827
533.22	14.054
533.57	12.469
533.91	12.523
534.25	13.487
534.59	13.423
534.93	13.504
535.27	13.458
535.62	13.431
535.96	14.124
536.30	13.096
536.64	13.393
536.98	14.134
537.32	13.167
537.66	13.067
538.01	13.825
538.35	13.769
538.69	14.231
539.03	12.930
539.37	13.035
539.71	12.443
540.05	13.333
540.39	13.223
540.73	13.325
541.07	14.017
541.42	13.568
541.76	13.742
542.10	13.713
542.44	12.715
542.78	13.505
543.12	12.668
543.46	13.967
543.80	13.403
544.14	13.094
544.48	13.206
544.82	13.406
545.16	13.468
545.50	12.596
545.84	13.575
546.18	13.805
546.52	14.384
546.86	12.784
547.20	13.351
547.54	14.629
547.88	14.605
548.22	13.076
548.56	13.648
548.90	13.380
549.24	12.997
549.58	13.643
549.92	13.187
550.26	13.636
550.60	13.900
550.94	13.944
551.28	13.241
551.62	13.803
551.96	13.333
552.30	14.676
552.64	13.725
552.98	14.102
553.32	13.149
553.66	14.724
554.00	13.727
554.34	14.010
554.68	14.020
555.02	13.893
555.36	14.196
555.69	13.261
556.03	13.392
556.37	13.506
556.71	13.302
557.05	14.566
557.39	13.296
557.73	12.985
558.07	14.866
558.41	14.110
558.75	14.107
559.08	14.467
559.42	13.681
559.76	13.015
560.10	13.919
560.44	14.116
560.78	12.841
561.12	14.050
561.45	14.016
561.79	13.579
562.13	14.420
562.47	13.046
562.81	13.877
563.15	12.910
563.48	13.528
563.82	13.242
564.16	12.296
564.50	12.500
564.84	13.211
565.17	13.320
565.51	13.610
565.85	12.944
566.19	13.087
566.52	12.730
566.86	12.899
567.20	13.620
567.54	13.071
567.88	12.710
568.21	12.910
568.55	12.740
568.89	12.451
569.23	11.676
569.56	11.741
569.90	11.962
570.24	11.661
570.57	11.255
570.91	10.730
571.25	10.902
571.59	11.046
571.92	10.916
572.26	11.179
572.60	11.321
572.93	11.034
573.27	10.766
573.61	10.832
573.95	10.956
574.28	10.829
574.62	10.471
574.96	10.490
575.29	10.475
575.63	10.620
575.97	10.362
576.30	10.834
576.64	10.842
576.98	10.404
577.31	10.236
577.65	10.445
577.98	10.133
578.32	9.829
578.66	10.398
578.99	10.340
579.33	10.627
579.67	10.460
580.00	10.501
580.34	10.821
580.67	10.659
581.01	10.996
581.35	10.166
581.68	10.266
582.02	10.005
582.35	10.036
582.69	10.063
583.02	10.379
583.36	10.491
583.70	10.889
584.03	10.502
584.37	10.988
584.70	10.711
585.04	10.519
585.37	10.834
585.71	11.137
586.04	10.751
586.38	10.815
586.72	10.964
587.05	10.595
587.39	10.185
587.72	10.358
588.06	10.592
588.39	10.754
588.73	10.912
589.06	11.000
589.40	11.616
589.73	11.299
590.07	11.210
590.40	11.984
590.73	11.905
591.07	11.844
591.40	12.400
591.74	11.948
592.07	12.478
592.41	11.616
592.74	11.311
593.08	10.893
593.41	10.914
593.75	11.087
594.08	11.230
594.41	11.170
594.75	11.275
595.08	11.954
595.42	11.839
595.75	10.684
596.09	11.904
596.42	12.024
596.75	12.495
597.09	12.035
597.42	11.509
597.75	11.298
598.09	11.130
598.42	11.813
598.76	11.107
599.09	11.212
599.42	11.172
599.76	11.640
600.09	11.002
600.42	11.249
600.76	10.750
601.09	10.820
601.42	11.225
601.76	11.044
602.09	11.146
602.42	11.863
602.76	11.971
603.09	11.408
603.42	11.636
603.76	11.395
604.09	10.663
604.42	11.537
604.76	12.315
605.09	11.271
605.42	11.586
605.75	11.921
606.09	11.387
606.42	11.402
606.75	11.240
607.09	11.176
607.42	11.810
607.75	11.308
608.08	11.376
608.42	11.430
608.75	12.038
609.08	11.563
609.41	12.280
609.75	11.863
610.08	12.677
610.41	10.940
610.74	11.164
611.07	11.413
611.41	11.138
611.74	11.966
612.07	12.319
612.40	12.277
612.73	12.632
613.07	12.554
613.40	12.164
613.73	11.327
614.06	12.097
614.39	12.113
614.72	11.684
615.06	11.975
615.39	11.571
615.72	11.196
616.05	12.015
616.38	11.895
616.71	12.767
617.05	12.898
617.38	12.026
617.71	12.492
618.04	12.320
618.37	12.064
618.70	12.757
619.03	13.026
619.36	11.745
619.69	12.817
620.03	13.255
620.36	13.703
620.69	13.288
621.02	14.159
621.35	12.921
621.68	12.928
622.01	13.235
622.34	13.616
622.67	13.764
623.00	12.179
623.33	13.438
623.66	13.581
623.99	13.328
624.32	12.696
624.65	12.853
624.99	12.819
625.32	12.527
625.65	12.547
625.98	13.374
626.31	13.142
626.64	14.122
626.97	13.716
627.30	12.968
627.63	14.602
627.96	13.625
628.29	13.473
628.62	15.005
628.95	14.906
629.28	14.964
629.61	14.390
629.94	14.571
630.26	14.204
630.59	14.299
630.92	13.985
631.25	15.104
631.58	14.515
631.91	13.489
