SpectraSuite Data File
++++++++++++++++++++++++++++++++++++
Date: Wed May 13 16:11:55 PDT 2015
User: schluterlab
Dark Spectrum Present: Yes
Reference Spectrum Present: Yes
Number of Sampled Component Spectra: 1
Spectrometers: USB2E3373
Integration Time (usec): 3000 (USB2E3373)
Spectra Averaged: 3 (USB2E3373)
Boxcar Smoothing: 0 (USB2E3373)
Correct for Electrical Dark: No (USB2E3373)
Strobe/Lamp Enabled: No (USB2E3373)
Correct for Detector Non-linearity: No (USB2E3373)
Correct for Stray Light: No (USB2E3373)
Number of Pixels in Processed Spectrum: 2048
>>>>>Begin Processed Spectral Data<<<<<
178.53	0.000
178.91	-900.000
179.29	-1125.000
179.67	-183.333
180.04	-825.000
180.42	2200.000
180.80	840.000
181.18	-1025.000
181.56	600.000
181.94	0.000
182.31	-457.143
182.69	1100.000
183.07	-400.000
183.45	-388.889
183.83	500.000
184.20	-280.000
184.58	1550.000
184.96	4600.000
185.34	-680.000
185.72	-437.500
186.09	-1300.000
186.47	1900.000
186.85	1800.000
187.23	3200.000
187.61	-1066.667
187.98	825.000
188.36	472.727
188.74	409.091
189.12	-740.000
189.49	420.000
189.87	-3600.000
190.25	-750.000
190.63	392.857
191.00	315.385
191.38	733.333
191.76	-775.000
192.14	1200.000
192.51	562.500
192.89	700.000
193.27	387.500
193.65	-850.000
194.02	420.000
194.40	740.000
194.78	420.000
195.15	425.000
195.53	510.000
195.91	-1400.000
196.29	312.500
196.66	226.316
197.04	-250.000
197.42	0.000
197.79	470.000
198.17	-3000.000
198.55	571.429
198.92	425.000
199.30	760.000
199.68	0.000
200.05	283.333
200.43	657.143
200.81	3400.000
201.18	1200.000
201.56	-1333.333
201.94	433.333
202.31	422.222
202.69	350.000
203.07	430.000
203.44	0.000
203.82	1125.000
204.19	671.429
204.57	314.286
204.95	462.500
205.32	1066.667
205.70	472.727
206.08	285.714
206.45	2050.000
206.83	306.250
207.20	566.667
207.58	520.000
207.96	255.556
208.33	612.500
208.71	-816.667
209.08	585.714
209.46	366.667
209.84	363.636
210.21	-1200.000
210.59	900.000
210.96	-350.000
211.34	1800.000
211.71	470.000
212.09	683.333
212.46	0.000
212.84	1266.667
213.22	1225.000
213.59	-3300.000
213.97	583.333
214.34	500.000
214.72	463.636
215.09	900.000
215.47	-1650.000
215.84	-2250.000
216.22	1333.333
216.59	307.143
216.97	825.000
217.34	427.273
217.72	-700.000
218.09	0.000
218.47	-3200.000
218.84	455.556
219.22	528.571
219.59	1233.333
219.97	-357.143
220.34	960.000
220.72	-1200.000
221.09	442.857
221.47	1325.000
221.84	-733.333
222.22	0.000
222.59	1100.000
222.97	-2100.000
223.34	660.000
223.72	315.385
224.09	720.000
224.46	1550.000
224.84	-4100.000
225.21	-820.000
225.59	-3400.000
225.96	440.000
226.34	265.000
226.71	1850.000
227.08	525.000
227.46	450.000
227.83	-800.000
228.21	-1850.000
228.58	455.556
228.95	-2050.000
229.33	-1500.000
229.70	1366.667
230.08	528.571
230.45	-660.000
230.82	333.333
231.20	783.333
231.57	371.429
231.95	425.000
232.32	172.727
232.69	218.182
233.07	500.000
233.44	307.692
233.81	-1133.333
234.19	273.684
234.56	358.333
234.93	358.333
235.31	318.182
235.68	246.154
236.05	285.714
236.43	154.545
236.80	189.474
237.17	3600.000
237.55	219.048
237.92	192.857
238.29	209.524
238.67	122.581
239.04	151.724
239.41	122.222
239.79	110.870
240.16	100.000
240.53	134.091
240.91	84.314
241.28	92.000
241.65	100.000
242.02	84.058
242.40	80.645
242.77	75.000
243.14	77.419
243.51	69.663
243.89	69.412
244.26	68.889
244.63	67.742
245.00	63.830
245.38	64.356
245.75	58.879
246.12	48.624
246.49	59.124
246.87	64.000
247.24	57.692
247.61	48.571
247.98	47.712
248.36	41.216
248.73	47.134
249.10	57.325
249.47	46.328
249.84	46.524
250.22	43.850
250.59	48.521
250.96	42.424
251.33	43.602
251.70	45.545
252.08	47.143
252.45	42.601
252.82	42.174
253.19	42.979
253.56	41.569
253.94	40.249
254.31	42.187
254.68	42.308
255.05	37.269
255.42	39.431
255.79	39.338
256.16	42.599
256.54	35.689
256.91	39.858
257.28	36.331
257.65	36.304
258.02	36.646
258.39	35.331
258.76	35.786
259.14	34.524
259.51	35.866
259.88	34.472
260.25	33.233
260.62	32.948
260.99	35.093
261.36	36.937
261.73	36.676
262.10	35.756
262.47	36.901
262.85	33.705
263.22	31.624
263.59	39.601
263.96	36.813
264.33	32.637
264.70	35.789
265.07	33.760
265.44	36.364
265.81	32.117
266.18	33.920
266.55	31.951
266.92	36.118
267.29	30.324
267.66	31.881
268.03	31.364
268.40	32.944
268.77	28.878
269.14	31.532
269.51	32.054
269.88	32.634
270.25	30.248
270.62	31.910
270.99	34.409
271.36	32.403
271.73	31.542
272.10	31.522
272.47	33.763
272.84	30.303
273.21	33.333
273.58	30.131
273.95	30.818
274.32	29.132
274.69	32.120
275.06	29.134
275.43	29.149
275.80	30.862
276.17	29.735
276.54	33.056
276.91	27.668
277.28	30.273
277.65	32.108
278.02	29.607
278.39	31.445
278.76	29.818
279.13	29.245
279.50	30.912
279.87	31.275
280.23	30.539
280.60	29.207
280.97	29.945
281.34	30.442
281.71	30.182
282.08	30.710
282.45	27.455
282.82	29.130
283.19	29.412
283.56	29.123
283.92	31.641
284.29	28.395
284.66	31.216
285.03	29.476
285.40	28.697
285.77	27.946
286.14	28.152
286.51	30.000
286.87	30.085
287.24	30.456
287.61	29.053
287.98	30.032
288.35	26.941
288.72	30.530
289.08	28.169
289.45	30.807
289.82	29.268
290.19	27.316
290.56	28.484
290.93	25.982
291.29	28.834
291.66	28.614
292.03	29.651
292.40	29.369
292.77	26.479
293.13	27.910
293.50	27.259
293.87	28.741
294.24	26.370
294.60	27.365
294.97	27.471
295.34	28.068
295.71	27.273
296.08	27.493
296.44	27.235
296.81	26.816
297.18	29.404
297.55	25.594
297.91	27.177
298.28	29.050
298.65	28.590
299.02	27.931
299.38	25.631
299.75	24.933
300.12	27.203
300.48	28.625
300.85	27.374
301.22	27.261
301.59	26.515
301.95	28.212
302.32	27.856
302.69	27.121
303.05	25.576
303.42	28.519
303.79	26.501
304.15	27.389
304.52	25.145
304.89	26.249
305.25	26.334
305.62	27.520
305.99	28.453
306.35	28.635
306.72	28.363
307.09	29.301
307.45	29.054
307.82	27.232
308.19	28.146
308.55	29.773
308.92	29.646
309.29	27.983
309.65	28.102
310.02	28.541
310.38	28.925
310.75	28.511
311.12	29.683
311.48	28.422
311.85	30.818
312.22	30.073
312.58	28.170
312.95	29.778
313.31	28.058
313.68	30.665
314.05	30.375
314.41	30.553
314.78	30.514
315.14	29.394
315.51	30.896
315.87	29.703
316.24	30.189
316.61	30.019
316.97	30.528
317.34	30.528
317.70	31.358
318.07	32.435
318.43	32.094
318.80	30.740
319.16	31.450
319.53	31.989
319.89	33.143
320.26	32.000
320.62	32.738
320.99	32.626
321.35	33.131
321.72	33.881
322.08	33.761
322.45	35.821
322.81	35.465
323.18	34.875
323.54	34.416
323.91	35.094
324.27	35.373
324.64	35.415
325.00	35.257
325.37	35.123
325.73	36.894
326.10	37.423
326.46	35.215
326.83	37.532
327.19	36.806
327.56	38.066
327.92	38.495
328.29	38.332
328.65	38.950
329.01	37.726
329.38	37.835
329.74	37.950
330.11	39.208
330.47	37.466
330.84	39.798
331.20	38.525
331.56	38.532
331.93	39.352
332.29	36.735
332.66	39.027
333.02	38.300
333.38	38.392
333.75	38.503
334.11	39.324
334.48	39.308
334.84	39.430
335.20	38.182
335.57	37.081
335.93	37.500
336.29	38.187
336.66	37.782
337.02	38.009
337.38	38.241
337.75	36.720
338.11	38.317
338.47	38.029
338.84	39.322
339.20	36.330
339.56	38.869
339.93	37.909
340.29	37.772
340.65	38.324
341.02	37.696
341.38	39.591
341.74	39.386
342.11	39.825
342.47	38.150
342.83	37.928
343.20	38.355
343.56	37.911
343.92	37.632
344.28	38.010
344.65	37.145
345.01	36.785
345.37	36.707
345.73	36.041
346.10	37.170
346.46	37.542
346.82	37.891
347.19	35.923
347.55	36.289
347.91	37.298
348.27	38.044
348.63	36.873
349.00	36.893
349.36	36.617
349.72	36.969
350.08	35.981
350.45	38.568
350.81	36.556
351.17	37.115
351.53	35.627
351.89	36.221
352.26	36.622
352.62	36.728
352.98	36.305
353.34	37.798
353.70	35.843
354.07	36.371
354.43	36.111
354.79	36.605
355.15	37.989
355.51	39.249
355.87	37.469
356.24	36.971
356.60	35.846
356.96	36.846
357.32	38.675
357.68	37.480
358.04	37.846
358.40	37.926
358.77	37.246
359.13	37.253
359.49	36.706
359.85	36.429
360.21	36.045
360.57	37.977
360.93	38.000
361.29	38.473
361.66	37.616
362.02	37.910
362.38	38.631
362.74	37.426
363.10	36.269
363.46	37.417
363.82	37.944
364.18	37.298
364.54	37.890
364.90	39.235
365.26	38.309
365.62	37.253
365.98	37.327
366.35	37.034
366.71	37.383
367.07	37.873
367.43	38.462
367.79	38.615
368.15	38.218
368.51	37.936
368.87	38.044
369.23	38.990
369.59	39.537
369.95	38.971
370.31	39.031
370.67	37.029
371.03	38.876
371.39	38.994
371.75	38.824
372.11	38.407
372.47	39.663
372.83	40.634
373.19	38.945
373.55	40.429
373.91	39.912
374.27	37.869
374.63	39.273
374.99	38.771
375.35	39.079
375.71	39.616
376.07	39.781
376.42	39.890
376.78	39.165
377.14	39.552
377.50	40.132
377.86	38.963
378.22	39.886
378.58	39.599
378.94	39.975
379.30	39.186
379.66	40.292
380.02	40.356
380.38	40.498
380.74	40.996
381.09	40.403
381.45	41.119
381.81	41.216
382.17	42.166
382.53	42.013
382.89	42.469
383.25	41.588
383.61	41.636
383.97	40.150
384.32	40.362
384.68	42.007
385.04	41.487
385.40	42.043
385.76	41.769
386.12	42.422
386.48	42.291
386.83	43.489
387.19	43.228
387.55	42.795
387.91	42.684
388.27	42.367
388.62	43.577
388.98	42.076
389.34	43.054
389.70	43.409
390.06	42.839
390.42	41.958
390.77	43.257
391.13	42.565
391.49	42.766
391.85	42.393
392.20	43.028
392.56	41.730
392.92	42.025
393.28	41.953
393.64	42.866
393.99	41.356
394.35	43.672
394.71	43.852
395.07	41.682
395.42	43.263
395.78	43.066
396.14	42.955
396.50	43.170
396.85	42.721
397.21	43.403
397.57	43.087
397.92	43.269
398.28	42.657
398.64	42.413
399.00	43.089
399.35	42.640
399.71	42.014
400.07	42.756
400.42	43.374
400.78	42.159
401.14	42.195
401.49	42.567
401.85	42.468
402.21	41.976
402.57	41.703
402.92	43.632
403.28	42.411
403.63	41.213
403.99	42.675
404.35	42.606
404.70	43.345
405.06	42.807
405.42	43.294
405.77	41.771
406.13	41.648
406.49	42.637
406.84	41.642
407.20	41.844
407.55	41.672
407.91	43.133
408.27	41.481
408.62	41.541
408.98	42.096
409.34	40.836
409.69	41.871
410.05	41.450
410.40	42.202
410.76	42.115
411.11	41.677
411.47	41.917
411.83	41.112
412.18	41.249
412.54	41.594
412.89	41.687
413.25	41.558
413.60	41.198
413.96	40.194
414.31	41.981
414.67	42.902
415.03	42.318
415.38	40.915
415.74	42.379
416.09	40.431
416.45	40.964
416.80	41.309
417.16	42.158
417.51	43.132
417.87	41.811
418.22	42.965
418.58	41.898
418.93	42.076
419.29	42.330
419.64	43.136
420.00	41.951
420.35	41.217
420.71	42.020
421.06	41.468
421.42	40.468
421.77	42.209
422.12	40.371
422.48	42.148
422.83	42.050
423.19	41.602
423.54	42.194
423.90	41.797
424.25	42.267
424.61	40.833
424.96	43.207
425.31	41.362
425.67	40.000
426.02	41.829
426.38	43.712
426.73	41.077
427.09	43.222
427.44	42.496
427.79	42.036
428.15	43.155
428.50	42.247
428.85	43.266
429.21	42.849
429.56	43.027
429.92	42.325
430.27	42.403
430.62	41.577
430.98	42.449
431.33	42.010
431.68	42.513
432.04	41.960
432.39	42.319
432.74	42.370
433.10	42.501
433.45	44.023
433.80	43.182
434.16	43.002
434.51	42.368
434.86	42.816
435.22	43.079
435.57	43.708
435.92	42.715
436.28	44.128
436.63	43.433
436.98	42.473
437.34	42.218
437.69	43.816
438.04	43.283
438.39	44.000
438.75	43.521
439.10	42.346
439.45	43.447
439.81	44.109
440.16	43.027
440.51	43.820
440.86	44.586
441.22	43.326
441.57	43.206
441.92	43.193
442.27	43.595
442.63	42.970
442.98	43.887
443.33	42.554
443.68	42.901
444.03	43.631
444.39	42.308
444.74	43.344
445.09	43.288
445.44	43.029
445.79	42.652
446.15	43.356
446.50	42.649
446.85	42.395
447.20	42.376
447.55	45.449
447.91	44.236
448.26	43.740
448.61	44.319
448.96	44.906
449.31	44.882
449.66	43.613
450.02	43.008
450.37	42.063
450.72	43.204
451.07	43.023
451.42	43.222
451.77	43.159
452.12	42.206
452.47	44.527
452.83	44.056
453.18	42.848
453.53	43.414
453.88	42.882
454.23	44.232
454.58	44.579
454.93	44.247
455.28	43.142
455.63	44.721
455.98	43.512
456.34	44.095
456.69	44.646
457.04	44.644
457.39	44.711
457.74	44.631
458.09	44.336
458.44	43.786
458.79	42.950
459.14	43.792
459.49	43.666
459.84	43.878
460.19	43.901
460.54	42.940
460.89	43.555
461.24	43.473
461.59	43.696
461.94	43.342
462.29	45.045
462.64	43.906
462.99	42.615
463.34	44.067
463.69	44.215
464.04	43.826
464.39	43.420
464.74	43.672
465.09	43.305
465.44	42.881
465.79	42.841
466.14	42.036
466.49	42.937
466.84	42.907
467.19	43.030
467.54	44.750
467.89	42.677
468.24	42.757
468.59	43.773
468.94	43.433
469.29	42.995
469.64	44.244
469.99	43.572
470.34	42.999
470.68	43.319
471.03	43.333
471.38	44.267
471.73	45.436
472.08	42.829
472.43	43.279
472.78	43.450
473.13	43.582
473.48	42.759
473.83	43.049
474.17	43.684
474.52	43.300
474.87	43.900
475.22	44.631
475.57	43.095
475.92	41.848
476.27	41.263
476.61	42.912
476.96	42.826
477.31	42.543
477.66	43.107
478.01	42.656
478.36	43.310
478.70	42.939
479.05	43.237
479.40	42.938
479.75	42.247
480.10	42.893
480.45	41.504
480.79	41.519
481.14	42.025
481.49	41.908
481.84	42.433
482.19	42.208
482.53	42.156
482.88	41.647
483.23	43.271
483.58	41.765
483.92	43.112
484.27	40.915
484.62	41.983
484.97	41.703
485.31	41.849
485.66	40.659
486.01	37.933
486.36	36.980
486.70	36.201
487.05	37.077
487.40	38.968
487.75	39.266
488.09	39.945
488.44	40.460
488.79	41.049
489.13	41.482
489.48	41.762
489.83	40.613
490.17	42.613
490.52	41.585
490.87	42.017
491.22	41.382
491.56	40.137
491.91	41.508
492.26	40.882
492.60	41.060
492.95	40.973
493.30	41.028
493.64	40.784
493.99	41.504
494.34	41.304
494.68	42.125
495.03	41.729
495.37	41.275
495.72	41.374
496.07	42.181
496.41	41.018
496.76	40.897
497.11	40.387
497.45	40.568
497.80	40.979
498.14	41.836
498.49	40.829
498.84	40.892
499.18	40.286
499.53	41.358
499.87	42.032
500.22	39.849
500.56	42.039
500.91	41.202
501.26	41.062
501.60	41.386
501.95	40.009
502.29	41.143
502.64	40.875
502.98	41.982
503.33	39.625
503.67	40.000
504.02	41.441
504.36	40.431
504.71	41.475
505.06	40.289
505.40	40.447
505.75	40.694
506.09	40.816
506.44	41.046
506.78	40.526
507.13	41.747
507.47	41.717
507.82	40.983
508.16	41.692
508.51	41.451
508.85	40.318
509.19	40.561
509.54	40.357
509.88	40.804
510.23	40.874
510.57	41.538
510.92	41.119
511.26	41.727
511.61	41.131
511.95	40.344
512.30	40.827
512.64	41.913
512.98	41.854
513.33	41.328
513.67	41.089
514.02	40.747
514.36	41.125
514.70	42.335
515.05	41.272
515.39	41.335
515.74	41.948
516.08	41.811
516.42	42.120
516.77	41.862
517.11	41.787
517.46	41.648
517.80	42.044
518.14	40.822
518.49	41.890
518.83	40.852
519.17	42.321
519.52	41.143
519.86	41.358
520.20	41.156
520.55	43.268
520.89	42.944
521.23	42.280
521.58	41.657
521.92	41.947
522.26	40.207
522.61	42.617
522.95	40.945
523.29	41.692
523.64	41.585
523.98	42.391
524.32	41.737
524.66	41.732
525.01	41.115
525.35	41.574
525.69	41.441
526.04	41.620
526.38	42.282
526.72	41.227
527.06	41.368
527.41	40.099
527.75	41.286
528.09	43.353
528.43	41.428
528.78	41.795
529.12	40.061
529.46	41.641
529.80	41.770
530.15	41.184
530.49	40.308
530.83	42.089
531.17	42.624
531.51	42.542
531.86	41.290
532.20	41.982
532.54	42.857
532.88	41.463
533.22	39.475
533.57	40.741
533.91	39.795
534.25	40.036
534.59	41.367
534.93	39.084
535.27	39.771
535.62	40.232
535.96	41.306
536.30	40.432
536.64	40.631
536.98	41.407
537.32	39.961
537.66	41.133
538.01	41.409
538.35	40.918
538.69	40.715
539.03	40.481
539.37	40.192
539.71	38.561
540.05	39.869
540.39	40.997
540.73	39.457
541.07	40.688
541.42	39.922
541.76	39.742
542.10	40.750
542.44	41.060
542.78	40.843
543.12	40.179
543.46	40.066
543.80	40.078
544.14	39.281
544.48	39.111
544.82	39.769
545.16	40.599
545.50	39.267
545.84	40.524
546.18	39.798
546.52	39.642
546.86	40.137
547.20	39.649
547.54	39.947
547.88	39.605
548.22	38.543
548.56	39.057
548.90	38.476
549.24	37.441
549.58	39.427
549.92	39.492
550.26	42.045
550.60	39.212
550.94	39.155
551.28	39.064
551.62	40.690
551.96	39.860
552.30	40.478
552.64	39.959
552.98	39.729
553.32	39.380
553.66	39.127
554.00	39.808
554.34	38.923
554.68	40.987
555.02	39.069
555.36	40.501
555.69	38.430
556.03	38.493
556.37	38.608
556.71	38.813
557.05	39.076
557.39	38.698
557.73	39.944
558.07	40.319
558.41	39.291
558.75	39.383
559.08	39.970
559.42	39.909
559.76	40.809
560.10	38.473
560.44	39.064
560.78	38.257
561.12	38.786
561.45	38.722
561.79	37.376
562.13	37.894
562.47	38.388
562.81	39.331
563.15	38.462
563.48	38.528
563.82	39.400
564.16	37.868
564.50	37.695
564.84	37.990
565.17	38.031
565.51	39.617
565.85	37.944
566.19	37.508
566.52	36.859
566.86	36.769
567.20	36.792
567.54	37.329
567.88	36.122
568.21	36.772
568.55	36.400
568.89	35.506
569.23	35.517
569.56	34.737
569.90	34.113
570.24	34.159
570.57	32.914
570.91	32.902
571.25	33.230
571.59	32.754
571.92	32.604
572.26	32.582
572.60	32.793
572.93	32.594
573.27	33.067
573.61	32.915
573.95	32.532
574.28	31.935
574.62	31.341
574.96	32.043
575.29	31.693
575.63	31.377
575.97	31.763
576.30	32.156
576.64	31.564
576.98	31.794
577.31	31.955
577.65	31.574
577.98	31.464
578.32	30.302
578.66	31.090
578.99	31.134
579.33	31.663
579.67	31.720
580.00	31.575
580.34	31.775
580.67	31.458
581.01	31.819
581.35	31.356
581.68	31.337
582.02	30.296
582.35	30.723
582.69	30.889
583.02	30.718
583.36	31.335
583.70	31.943
584.03	32.393
584.37	32.912
584.70	32.524
585.04	31.800
585.37	31.570
585.71	31.532
586.04	31.819
586.38	32.732
586.72	32.809
587.05	31.242
587.39	31.794
587.72	32.157
588.06	31.564
588.39	31.934
588.73	32.092
589.06	33.032
589.40	33.232
589.73	33.650
590.07	32.776
590.40	32.992
590.73	33.724
591.07	34.595
591.40	34.205
591.74	33.290
592.07	34.119
592.41	33.940
592.74	33.221
593.08	32.745
593.41	32.332
593.75	32.011
594.08	32.048
594.41	32.025
594.75	32.495
595.08	32.928
595.42	33.170
595.75	32.692
596.09	33.346
596.42	33.045
596.75	33.854
597.09	34.892
597.42	32.420
597.75	33.031
598.09	34.000
598.42	33.162
598.76	33.604
599.09	32.611
599.42	31.623
599.76	31.662
600.09	31.949
600.42	31.592
600.76	31.643
601.09	31.876
601.42	32.230
601.76	32.068
602.09	33.123
602.42	33.439
602.76	32.608
603.09	33.045
603.42	32.800
603.76	31.479
604.09	32.377
604.42	32.817
604.76	33.066
605.09	33.202
605.42	32.322
605.75	33.278
606.09	32.656
606.42	32.652
606.75	32.684
607.09	32.105
607.42	33.291
607.75	31.899
608.08	32.349
608.42	32.855
608.75	32.462
609.08	31.730
609.41	32.366
609.75	33.540
610.08	33.365
610.41	33.101
610.74	33.396
611.07	33.646
611.41	33.710
611.74	34.691
612.07	33.799
612.40	34.103
612.73	33.368
613.07	33.782
613.40	34.071
613.73	33.246
614.06	34.140
614.39	33.036
614.72	34.158
615.06	33.403
615.39	33.386
615.72	33.538
616.05	32.855
616.38	33.741
616.71	33.610
617.05	34.393
617.38	34.696
617.71	34.054
618.04	35.156
618.37	34.122
618.70	35.159
619.03	35.132
619.36	34.148
619.69	36.197
620.03	35.783
620.36	35.094
620.69	35.068
621.02	36.726
621.35	36.413
621.68	34.969
622.01	35.913
622.34	36.384
622.67	35.894
623.00	34.776
623.33	34.167
623.66	35.811
623.99	35.346
624.32	35.235
624.65	34.322
624.99	34.207
625.32	34.902
625.65	36.138
625.98	36.280
626.31	36.236
626.64	36.245
626.97	36.492
627.30	36.492
627.63	37.244
627.96	36.501
628.29	35.258
628.62	39.158
628.95	39.528
629.28	38.595
629.61	37.122
629.94	37.524
630.26	38.036
630.59	37.846
630.92	36.398
631.25	36.723
