SpectraSuite Data File
++++++++++++++++++++++++++++++++++++
Date: Wed May 13 16:01:28 PDT 2015
User: schluterlab
Dark Spectrum Present: Yes
Reference Spectrum Present: Yes
Number of Sampled Component Spectra: 1
Spectrometers: USB2E3373
Integration Time (usec): 3000 (USB2E3373)
Spectra Averaged: 3 (USB2E3373)
Boxcar Smoothing: 0 (USB2E3373)
Correct for Electrical Dark: No (USB2E3373)
Strobe/Lamp Enabled: No (USB2E3373)
Correct for Detector Non-linearity: No (USB2E3373)
Correct for Stray Light: No (USB2E3373)
Number of Pixels in Processed Spectrum: 2048
>>>>>Begin Processed Spectral Data<<<<<
178.53	0.000
178.91	-275.000
179.29	-600.000
179.67	-50.000
180.04	-425.000
180.42	1150.000
180.80	100.000
181.18	-175.000
181.56	185.714
181.94	0.000
182.31	-200.000
182.69	966.667
183.07	-100.000
183.45	-144.444
183.83	209.091
184.20	-100.000
184.58	550.000
184.96	2600.000
185.34	-60.000
185.72	-237.500
186.09	-450.000
186.47	850.000
186.85	950.000
187.23	1500.000
187.61	-833.333
187.98	550.000
188.36	236.364
188.74	181.818
189.12	-340.000
189.49	140.000
189.87	-2600.000
190.25	-350.000
190.63	114.286
191.00	200.000
191.38	83.333
191.76	-450.000
192.14	325.000
192.51	237.500
192.89	350.000
193.27	150.000
193.65	-0.000
194.02	140.000
194.40	220.000
194.78	240.000
195.15	266.667
195.53	380.000
195.91	-350.000
196.29	112.500
196.66	121.053
197.04	-60.000
197.42	0.000
197.79	220.000
198.17	-1700.000
198.55	157.143
198.92	237.500
199.30	340.000
199.68	0.000
200.05	194.444
200.43	457.143
200.81	1400.000
201.18	366.667
201.56	-333.333
201.94	111.111
202.31	177.778
202.69	166.667
203.07	230.000
203.44	0.000
203.82	200.000
204.19	142.857
204.57	185.714
204.95	150.000
205.32	466.667
205.70	136.364
206.08	192.857
206.45	900.000
206.83	143.750
207.20	266.667
207.58	100.000
207.96	133.333
208.33	362.500
208.71	-183.333
209.08	242.857
209.46	233.333
209.84	227.273
210.21	-566.667
210.59	550.000
210.96	-150.000
211.34	800.000
211.71	220.000
212.09	216.667
212.46	0.000
212.84	500.000
213.22	750.000
213.59	-2000.000
213.97	316.667
214.34	371.429
214.72	281.818
215.09	280.000
215.47	-500.000
215.84	-550.000
216.22	633.333
216.59	192.857
216.97	250.000
217.34	136.364
217.72	-183.333
218.09	0.000
218.47	-1500.000
218.84	244.444
219.22	228.571
219.59	766.667
219.97	-214.286
220.34	380.000
220.72	-700.000
221.09	178.571
221.47	925.000
221.84	-266.667
222.22	0.000
222.59	525.000
222.97	-800.000
223.34	520.000
223.72	161.538
224.09	300.000
224.46	750.000
224.84	-2200.000
225.21	-460.000
225.59	-1100.000
225.96	330.000
226.34	140.000
226.71	700.000
227.08	262.500
227.46	220.000
227.83	-225.000
228.21	-550.000
228.58	311.111
228.95	-850.000
229.33	-800.000
229.70	500.000
230.08	314.286
230.45	-240.000
230.82	133.333
231.20	316.667
231.57	128.571
231.95	116.667
232.32	86.364
232.69	200.000
233.07	300.000
233.44	146.154
233.81	-700.000
234.19	152.632
234.56	150.000
234.93	183.333
235.31	172.727
235.68	123.077
236.05	142.857
236.43	103.030
236.80	147.368
237.17	1600.000
237.55	109.524
237.92	114.286
238.29	161.905
238.67	119.355
239.04	103.448
239.41	105.556
239.79	93.478
240.16	78.571
240.53	100.000
240.91	98.039
241.28	110.000
241.65	112.000
242.02	86.957
242.40	75.806
242.77	105.000
243.14	65.591
243.51	83.146
243.89	82.353
244.26	67.778
244.63	67.742
245.00	74.468
245.38	77.228
245.75	67.290
246.12	76.147
246.49	73.723
246.87	80.800
247.24	73.077
247.61	72.143
247.98	73.856
248.36	67.568
248.73	78.344
249.10	74.522
249.47	72.316
249.84	64.171
250.22	65.775
250.59	73.964
250.96	71.717
251.33	68.246
251.70	70.792
252.08	70.000
252.45	66.368
252.82	66.087
253.19	75.745
253.56	68.627
253.94	70.124
254.31	67.578
254.68	68.462
255.05	65.314
255.42	69.512
255.79	66.176
256.16	71.119
256.54	63.604
256.91	69.751
257.28	64.388
257.65	66.007
258.02	63.354
258.39	61.514
258.76	65.552
259.14	66.964
259.51	64.438
259.88	64.596
260.25	70.091
260.62	59.827
260.99	65.528
261.36	66.967
261.73	65.330
262.10	71.221
262.47	67.887
262.85	65.181
263.22	64.672
263.59	66.667
263.96	61.538
264.33	62.924
264.70	64.474
265.07	64.450
265.44	61.616
265.81	59.611
266.18	66.332
266.55	65.854
266.92	63.882
267.29	61.343
267.66	65.138
268.03	63.409
268.40	63.551
268.77	64.439
269.14	61.036
269.51	59.142
269.88	62.005
270.25	61.400
270.62	62.472
270.99	62.366
271.36	62.446
271.73	66.355
272.10	62.609
272.47	64.946
272.84	60.606
273.21	60.797
273.58	59.607
273.95	59.119
274.32	59.504
274.69	61.670
275.06	59.449
275.43	63.617
275.80	63.928
276.17	61.914
276.54	61.746
276.91	63.043
277.28	58.594
277.65	60.542
278.02	62.112
278.39	59.375
278.76	57.273
279.13	57.547
279.50	59.218
279.87	57.968
280.23	62.675
280.60	59.768
280.97	58.226
281.34	59.115
281.71	62.000
282.08	59.885
282.45	56.182
282.82	59.680
283.19	56.328
283.56	57.018
283.92	61.083
284.29	55.556
284.66	56.261
285.03	56.239
285.40	56.338
285.77	57.912
286.14	57.686
286.51	58.167
286.87	56.581
287.24	55.049
287.61	53.291
287.98	56.656
288.35	54.834
288.72	54.829
289.08	54.304
289.45	53.707
289.82	53.171
290.19	52.747
290.56	51.761
290.93	52.870
291.29	54.448
291.66	51.917
292.03	52.326
292.40	50.808
292.77	51.183
293.13	51.791
293.50	50.437
293.87	49.778
294.24	48.444
294.60	48.180
294.97	48.256
295.34	47.109
295.71	48.011
296.08	45.157
296.44	48.693
296.81	47.160
297.18	47.561
297.55	44.723
297.91	43.931
298.28	46.988
298.65	46.214
299.02	44.796
299.38	46.614
299.75	42.453
300.12	43.550
300.48	44.250
300.85	43.280
301.22	44.204
301.59	44.192
301.95	45.466
302.32	42.747
302.69	41.935
303.05	42.909
303.42	41.605
303.79	42.582
304.15	41.608
304.52	42.063
304.89	41.463
305.25	42.343
305.62	42.129
305.99	42.857
306.35	41.275
306.72	41.368
307.09	41.953
307.45	41.667
307.82	39.732
308.19	39.956
308.55	39.914
308.92	39.742
309.29	39.599
309.65	40.085
310.02	40.381
310.38	39.247
310.75	40.444
311.12	39.099
311.48	39.394
311.85	40.881
312.22	40.687
312.58	39.501
312.95	40.866
313.31	39.320
313.68	41.580
314.05	40.533
314.41	39.497
314.78	40.181
315.14	39.523
315.51	38.311
315.87	38.713
316.24	39.424
316.61	37.914
316.97	38.454
317.34	37.867
317.70	40.249
318.07	39.269
318.43	40.313
318.80	39.363
319.16	38.418
319.53	36.773
319.89	39.238
320.26	40.100
320.62	39.583
320.99	37.576
321.35	38.485
321.72	37.988
322.08	39.487
322.45	39.104
322.81	39.341
323.18	38.632
323.54	38.590
323.91	38.679
324.27	37.476
324.64	37.651
325.00	36.880
325.37	37.489
325.73	36.894
326.10	36.717
326.46	37.186
326.83	37.791
327.19	38.258
327.56	37.979
327.92	37.620
328.29	38.421
328.65	36.372
329.01	36.552
329.38	37.188
329.74	37.304
330.11	36.758
330.47	37.649
330.84	36.765
331.20	37.067
331.56	36.055
331.93	36.852
332.29	34.605
332.66	36.372
333.02	36.380
333.38	35.592
333.75	35.740
334.11	35.498
334.48	35.226
334.84	36.765
335.20	35.636
335.57	36.265
335.93	34.911
336.29	35.256
336.66	35.437
337.02	34.570
337.38	36.204
337.75	35.561
338.11	34.557
338.47	35.543
338.84	35.289
339.20	34.037
339.56	36.314
339.93	35.727
340.29	34.783
340.65	34.581
341.02	35.602
341.38	34.431
341.74	34.298
342.11	34.934
342.47	35.330
342.83	34.418
343.20	35.758
343.56	34.794
343.92	34.123
344.28	34.609
344.65	35.684
345.01	33.670
345.37	34.220
345.73	33.841
346.10	34.953
346.46	35.678
346.82	34.102
347.19	33.751
347.55	33.662
347.91	34.709
348.27	34.265
348.63	34.365
349.00	33.657
349.36	32.923
349.72	33.841
350.08	32.739
350.45	32.791
350.81	33.631
351.17	33.225
351.53	34.644
351.89	32.673
352.26	33.702
352.62	33.119
352.98	32.901
353.34	33.279
353.70	32.733
354.07	33.629
354.43	32.778
354.79	32.180
355.15	31.684
355.51	33.493
355.87	33.714
356.24	34.202
356.60	33.440
356.96	32.582
357.32	34.015
357.68	32.520
358.04	31.908
358.40	32.462
358.77	32.316
359.13	31.807
359.49	33.725
359.85	31.190
360.21	31.419
360.57	33.074
360.93	33.154
361.29	32.577
361.66	31.037
362.02	32.537
362.38	32.319
362.74	32.217
363.10	31.310
363.46	32.942
363.82	31.141
364.18	31.645
364.54	32.615
364.90	33.286
365.26	32.353
365.62	32.359
365.98	31.264
366.35	30.946
366.71	32.610
367.07	31.755
367.43	32.148
367.79	31.763
368.15	32.543
368.51	31.323
368.87	31.834
369.23	30.505
369.59	32.295
369.95	31.176
370.31	30.484
370.67	30.652
371.03	31.461
371.39	32.070
371.75	31.838
372.11	29.801
372.47	32.698
372.83	31.988
373.19	32.081
373.55	31.707
373.91	32.180
374.27	30.859
374.63	31.055
374.99	32.274
375.35	30.914
375.71	30.226
376.07	31.276
376.42	30.743
376.78	31.345
377.14	31.479
377.50	31.391
377.86	30.319
378.22	31.669
378.58	30.890
378.94	30.421
379.30	30.407
379.66	31.536
380.02	30.774
380.38	31.087
380.74	31.633
381.09	30.807
381.45	32.022
381.81	30.651
382.17	32.166
382.53	31.384
382.89	31.420
383.25	30.644
383.61	31.413
383.97	31.582
384.32	31.878
384.68	30.917
385.04	30.854
385.40	30.402
385.76	29.668
386.12	31.606
386.48	31.340
386.83	31.815
387.19	32.344
387.55	31.787
387.91	30.472
388.27	31.147
388.62	30.916
388.98	31.020
389.34	31.227
389.70	30.227
390.06	31.242
390.42	31.453
390.77	30.789
391.13	31.461
391.49	30.647
391.85	29.726
392.20	28.959
392.56	30.997
392.92	30.547
393.28	29.941
393.64	30.935
393.99	30.299
394.35	30.459
394.71	30.991
395.07	29.533
395.42	30.408
395.78	30.534
396.14	30.602
396.50	30.890
396.85	29.816
397.21	30.210
397.57	30.440
397.92	31.130
398.28	30.605
398.64	30.824
399.00	30.722
399.35	31.021
399.71	30.613
400.07	30.928
400.42	31.288
400.78	30.398
401.14	30.366
401.49	30.687
401.85	30.974
402.21	29.461
402.57	30.043
402.92	30.643
403.28	31.168
403.63	29.827
403.99	30.764
404.35	29.818
404.70	30.036
405.06	29.354
405.42	30.505
405.77	29.543
406.13	30.248
406.49	30.278
406.84	28.884
407.20	28.310
407.55	29.802
407.91	30.267
408.27	29.547
408.62	28.838
408.98	29.473
409.34	28.905
409.69	29.806
410.05	28.748
410.40	29.786
410.76	29.630
411.11	29.071
411.47	28.818
411.83	30.238
412.18	29.561
412.54	29.141
412.89	29.157
413.25	29.811
413.60	28.783
413.96	28.719
414.31	28.676
414.67	30.482
415.03	28.609
415.38	29.446
415.74	29.518
416.09	29.850
416.45	28.849
416.80	28.949
417.16	29.826
417.51	29.728
417.87	29.030
418.22	29.653
418.58	30.730
418.93	28.870
419.29	29.281
419.64	29.345
420.00	29.329
420.35	29.449
420.71	30.424
421.06	29.415
421.42	29.708
421.77	29.765
422.12	28.523
422.48	29.574
422.83	29.586
423.19	29.392
423.54	28.613
423.90	29.507
424.25	29.146
424.61	29.286
424.96	29.738
425.31	30.343
425.67	28.034
426.02	28.800
426.38	28.877
426.73	29.549
427.09	28.207
427.44	29.385
427.79	28.292
428.15	29.643
428.50	29.081
428.85	29.440
429.21	28.769
429.56	29.082
429.92	28.938
430.27	28.997
430.62	28.674
430.98	29.580
431.33	28.557
431.68	29.791
432.04	28.754
432.39	28.784
432.74	29.204
433.10	28.862
433.45	30.029
433.80	29.379
434.16	29.594
434.51	28.895
434.86	29.532
435.22	29.739
435.57	29.362
435.92	28.496
436.28	29.953
436.63	29.360
436.98	29.536
437.34	30.054
437.69	29.522
438.04	29.848
438.39	28.776
438.75	29.808
439.10	29.665
439.45	29.811
439.81	28.097
440.16	29.136
440.51	29.877
440.86	29.415
441.22	28.587
441.57	28.875
441.92	30.041
442.27	30.463
442.63	29.437
442.98	29.690
443.33	28.587
443.68	28.859
444.03	28.795
444.39	29.114
444.74	29.491
445.09	29.919
445.44	29.306
445.79	29.292
446.15	29.381
446.50	28.864
446.85	28.623
447.20	29.016
447.55	29.760
447.91	29.785
448.26	28.937
448.61	28.434
448.96	29.236
449.31	30.877
449.66	29.375
450.02	29.081
450.37	29.025
450.72	29.667
451.07	29.738
451.42	28.571
451.77	29.947
452.12	28.464
452.47	28.420
452.83	28.963
453.18	28.117
453.53	29.190
453.88	28.706
454.23	28.930
454.58	29.861
454.93	29.371
455.28	28.180
455.63	28.216
455.98	29.762
456.34	28.769
456.69	28.366
457.04	28.421
457.39	28.521
457.74	28.439
458.09	29.155
458.44	28.506
458.79	27.874
459.14	29.233
459.49	29.130
459.84	28.587
460.19	28.108
460.54	28.299
460.89	29.073
461.24	29.083
461.59	29.750
461.94	28.113
462.29	28.546
462.64	29.036
462.99	27.586
463.34	29.133
463.69	28.831
464.04	28.638
464.39	28.058
464.74	29.709
465.09	28.106
465.44	28.033
465.79	27.852
466.14	28.845
466.49	27.586
466.84	29.130
467.19	28.002
467.54	29.125
467.89	27.731
468.24	28.272
468.59	28.510
468.94	27.856
469.29	28.663
469.64	28.648
469.99	28.620
470.34	27.939
470.68	28.664
471.03	28.844
471.38	28.214
471.73	28.781
472.08	29.474
472.43	28.392
472.78	28.111
473.13	27.599
473.48	28.090
473.83	27.317
474.17	27.754
474.52	28.846
474.87	28.897
475.22	28.265
475.57	28.318
475.92	27.934
476.27	27.903
476.61	28.351
476.96	27.488
477.31	28.205
477.66	28.665
478.01	27.653
478.36	28.027
478.70	27.674
479.05	27.103
479.40	28.659
479.75	27.911
480.10	27.435
480.45	27.225
480.79	27.998
481.14	27.838
481.49	28.144
481.84	28.395
482.19	27.533
482.53	27.752
482.88	27.920
483.23	27.243
483.58	27.889
483.92	27.976
484.27	26.667
484.62	27.457
484.97	27.473
485.31	28.801
485.66	28.392
486.01	28.740
486.36	28.505
486.70	27.709
487.05	27.673
487.40	28.677
487.75	27.547
488.09	28.480
488.44	27.618
488.79	27.740
489.13	27.196
489.48	27.365
489.83	28.183
490.17	27.883
490.52	26.262
490.87	27.363
491.22	27.467
491.56	26.560
491.91	26.943
492.26	26.826
492.60	26.866
492.95	26.380
493.30	26.916
493.64	27.485
493.99	26.416
494.34	27.428
494.68	27.289
495.03	27.350
495.37	27.175
495.72	26.998
496.07	27.332
496.41	27.257
496.76	26.561
497.11	26.970
497.45	27.201
497.80	26.823
498.14	26.908
498.49	26.634
498.84	26.702
499.18	27.381
499.53	27.303
499.87	26.841
500.22	25.954
500.56	27.621
500.91	26.154
501.26	26.174
501.60	27.527
501.95	26.810
502.29	27.132
502.64	27.188
502.98	26.975
503.33	27.011
503.67	26.868
504.02	26.614
504.36	26.954
504.71	27.064
505.06	26.843
505.40	27.127
505.75	26.663
506.09	26.725
506.44	27.035
506.78	27.228
507.13	27.309
507.47	26.414
507.82	26.900
508.16	26.697
508.51	26.687
508.85	27.061
509.19	26.786
509.54	27.041
509.88	26.275
510.23	27.558
510.57	27.348
510.92	27.240
511.26	26.927
511.61	27.697
511.95	26.148
512.30	26.299
512.64	26.437
512.98	26.849
513.33	27.355
513.67	26.467
514.02	25.974
514.36	26.816
514.70	27.227
515.05	26.548
515.39	25.743
515.74	26.802
516.08	27.893
516.42	26.693
516.77	26.812
517.11	26.471
517.46	27.314
517.80	26.829
518.14	25.825
518.49	27.071
518.83	26.875
519.17	27.540
519.52	26.542
519.86	26.697
520.20	26.879
520.55	26.990
520.89	26.460
521.23	27.382
521.58	26.230
521.92	27.495
522.26	26.052
522.61	26.978
522.95	25.844
523.29	26.354
523.64	26.646
523.98	27.480
524.32	26.960
524.66	26.939
525.01	26.900
525.35	26.828
525.69	26.232
526.04	26.231
526.38	26.358
526.72	26.196
527.06	26.993
527.41	25.928
527.75	27.010
528.09	26.846
528.43	26.386
528.78	27.289
529.12	25.576
529.46	27.312
529.80	27.042
530.15	26.729
530.49	25.969
530.83	26.709
531.17	26.501
531.51	27.237
531.86	26.774
532.20	27.771
532.54	27.546
532.88	25.995
533.22	26.921
533.57	27.099
533.91	26.490
534.25	27.400
534.59	26.724
534.93	27.305
535.27	26.976
535.62	27.411
535.96	27.684
536.30	26.319
536.64	26.658
536.98	26.211
537.32	26.004
537.66	27.533
538.01	27.189
538.35	26.891
538.69	27.951
539.03	26.381
539.37	26.262
539.71	25.470
540.05	26.275
540.39	27.575
540.73	26.261
541.07	28.228
541.42	27.332
541.76	28.387
542.10	26.391
542.44	26.755
542.78	26.877
543.12	26.871
543.46	27.475
543.80	26.090
544.14	26.316
544.48	26.349
544.82	26.363
545.16	27.001
545.50	27.763
545.84	27.083
546.18	27.609
546.52	26.222
546.86	27.354
547.20	26.365
547.54	27.455
547.88	28.316
548.22	26.837
548.56	27.296
548.90	26.825
549.24	26.599
549.58	27.080
549.92	27.541
550.26	26.989
550.60	25.726
550.94	28.169
551.28	24.653
551.62	27.175
551.96	26.667
552.30	27.440
552.64	27.721
552.98	28.000
553.32	27.579
553.66	26.994
554.00	28.071
554.34	25.604
554.68	26.967
555.02	26.234
555.36	27.488
555.69	26.319
556.03	27.120
556.37	27.626
556.71	26.398
557.05	27.311
557.39	27.712
557.73	27.100
558.07	27.049
558.41	26.266
558.75	26.892
559.08	26.324
559.42	26.984
559.76	28.235
560.10	26.695
560.44	27.044
560.78	25.749
561.12	26.847
561.45	27.705
561.79	26.500
562.13	26.895
562.47	27.049
562.81	28.033
563.15	27.692
563.48	26.790
563.82	27.593
564.16	27.011
564.50	26.953
564.84	26.802
565.17	27.542
565.51	27.348
565.85	27.411
566.19	27.364
566.52	27.422
566.86	26.823
567.20	27.830
567.54	27.112
567.88	27.159
568.21	28.095
568.55	28.311
568.89	27.821
569.23	27.763
569.56	27.490
569.90	28.415
570.24	28.310
570.57	28.562
570.91	27.828
571.25	28.536
571.59	28.041
571.92	28.427
572.26	28.307
572.60	28.228
572.93	28.306
573.27	29.045
573.61	28.197
573.95	28.708
574.28	28.492
574.62	28.353
574.96	28.578
575.29	28.128
575.63	28.328
575.97	28.274
576.30	27.854
576.64	28.784
576.98	28.391
577.31	28.604
577.65	28.491
577.98	28.890
578.32	28.197
578.66	28.386
578.99	27.916
579.33	28.395
579.67	28.047
580.00	28.243
580.34	28.643
580.67	28.126
581.01	29.031
581.35	29.372
581.68	29.031
582.02	28.739
582.35	28.626
582.69	28.975
583.02	28.479
583.36	28.637
583.70	29.046
584.03	28.422
584.37	29.117
584.70	28.448
585.04	29.036
585.37	28.844
585.71	28.642
586.04	28.993
586.38	28.840
586.72	29.163
587.05	28.362
587.39	28.311
587.72	28.936
588.06	28.842
588.39	28.779
588.73	28.777
589.06	29.012
589.40	28.653
589.73	28.370
590.07	28.826
590.40	29.156
590.73	28.142
591.07	28.653
591.40	28.553
591.74	29.004
592.07	28.447
592.41	28.607
592.74	28.390
593.08	28.814
593.41	29.041
593.75	27.983
594.08	28.327
594.41	28.420
594.75	28.614
595.08	28.991
595.42	28.336
595.75	28.775
596.09	29.027
596.42	28.684
596.75	28.240
597.09	29.004
597.42	27.656
597.75	28.719
598.09	28.739
598.42	28.565
598.76	28.456
599.09	28.354
599.42	27.948
599.76	28.624
600.09	28.342
600.42	27.867
600.76	28.286
601.09	28.015
601.42	28.082
601.76	28.121
602.09	28.261
602.42	28.662
602.76	28.577
603.09	28.403
603.42	28.778
603.76	28.163
604.09	28.848
604.42	28.985
604.76	29.397
605.09	28.178
605.42	28.046
605.75	27.939
606.09	28.264
606.42	29.056
606.75	28.909
607.09	28.589
607.42	28.327
607.75	27.848
608.08	27.442
608.42	28.463
608.75	28.088
609.08	27.706
609.41	27.606
609.75	27.346
610.08	28.794
610.41	27.374
610.74	27.578
611.07	27.717
611.41	28.018
611.74	27.803
612.07	28.261
612.40	28.069
612.73	28.211
613.07	28.664
613.40	28.331
613.73	27.635
614.06	28.065
614.39	27.478
614.72	27.632
615.06	27.626
615.39	27.707
615.72	26.892
616.05	27.485
616.38	27.460
616.71	27.316
617.05	27.032
617.38	26.999
617.71	27.868
618.04	28.305
618.37	27.262
618.70	27.131
619.03	27.895
619.36	27.359
619.69	26.197
620.03	28.434
620.36	28.075
620.69	28.219
621.02	26.475
621.35	26.390
621.68	26.402
622.01	27.012
622.34	26.475
622.67	27.072
623.00	27.366
623.33	26.733
623.66	27.591
623.99	27.541
624.32	25.892
624.65	26.554
624.99	26.558
625.32	26.865
625.65	26.822
625.98	26.826
626.31	27.994
626.64	26.122
626.97	27.431
627.30	25.935
627.63	25.759
627.96	25.988
628.29	25.459
628.62	25.801
628.95	26.792
629.28	26.734
629.61	27.039
629.94	25.810
630.26	25.643
630.59	27.073
630.92	24.904
631.25	24.679
631.58	26.326
631.91	25.862
632.24	26.160
