SpectraSuite Data File
++++++++++++++++++++++++++++++++++++
Date: Wed May 13 16:51:32 PDT 2015
User: schluterlab
Dark Spectrum Present: Yes
Reference Spectrum Present: Yes
Number of Sampled Component Spectra: 1
Spectrometers: USB2E3373
Integration Time (usec): 3000 (USB2E3373)
Spectra Averaged: 3 (USB2E3373)
Boxcar Smoothing: 0 (USB2E3373)
Correct for Electrical Dark: No (USB2E3373)
Strobe/Lamp Enabled: No (USB2E3373)
Correct for Detector Non-linearity: No (USB2E3373)
Correct for Stray Light: No (USB2E3373)
Number of Pixels in Processed Spectrum: 2048
>>>>>Begin Processed Spectral Data<<<<<
178.53	0.000
178.91	-1350.000
179.29	-1300.000
179.67	-216.667
180.04	-1325.000
180.42	2400.000
180.80	1020.000
181.18	-1050.000
181.56	700.000
181.94	0.000
182.31	-657.143
182.69	2066.667
183.07	-537.500
183.45	-577.778
183.83	545.455
184.20	-400.000
184.58	2800.000
184.96	5400.000
185.34	-800.000
185.72	-625.000
186.09	-2100.000
186.47	2400.000
186.85	2450.000
187.23	5800.000
187.61	-1800.000
187.98	1400.000
188.36	590.909
188.74	581.818
189.12	-940.000
189.49	570.000
189.87	-5900.000
190.25	-1200.000
190.63	414.286
191.00	423.077
191.38	750.000
191.76	-1225.000
192.14	1600.000
192.51	650.000
192.89	916.667
193.27	637.500
193.65	-1250.000
194.02	540.000
194.40	900.000
194.78	540.000
195.15	433.333
195.53	620.000
195.91	-2100.000
196.29	337.500
196.66	300.000
197.04	-370.000
197.42	0.000
197.79	680.000
198.17	-5000.000
198.55	657.143
198.92	587.500
199.30	640.000
199.68	0.000
200.05	311.111
200.43	828.571
200.81	3900.000
201.18	1766.667
201.56	-1766.667
201.94	577.778
202.31	566.667
202.69	408.333
203.07	540.000
203.44	0.000
203.82	1300.000
204.19	671.429
204.57	485.714
204.95	587.500
205.32	1600.000
205.70	563.636
206.08	371.429
206.45	2450.000
206.83	312.500
207.20	866.667
207.58	900.000
207.96	333.333
208.33	725.000
208.71	-866.667
209.08	757.143
209.46	711.111
209.84	436.364
210.21	-1500.000
210.59	1400.000
210.96	-512.500
211.34	2350.000
211.71	530.000
212.09	883.333
212.46	0.000
212.84	1500.000
213.22	1400.000
213.59	-4600.000
213.97	850.000
214.34	728.571
214.72	500.000
215.09	1060.000
215.47	-2700.000
215.84	-2900.000
216.22	1766.667
216.59	435.714
216.97	1575.000
217.34	427.273
217.72	-816.667
218.09	0.000
218.47	-4400.000
218.84	588.889
219.22	742.857
219.59	1966.667
219.97	-628.571
220.34	1100.000
220.72	-1800.000
221.09	442.857
221.47	1350.000
221.84	-800.000
222.22	0.000
222.59	1325.000
222.97	-2600.000
223.34	1060.000
223.72	430.769
224.09	1080.000
224.46	2250.000
224.84	-4300.000
225.21	-840.000
225.59	-4300.000
225.96	630.000
226.34	280.000
226.71	2700.000
227.08	675.000
227.46	560.000
227.83	-1025.000
228.21	-2000.000
228.58	544.444
228.95	-2200.000
229.33	-2600.000
229.70	1533.333
230.08	728.571
230.45	-920.000
230.82	391.667
231.20	866.667
231.57	642.857
231.95	475.000
232.32	254.545
232.69	363.636
233.07	800.000
233.44	369.231
233.81	-1466.667
234.19	331.579
234.56	433.333
234.93	333.333
235.31	481.818
235.68	361.538
236.05	364.286
236.43	169.697
236.80	263.158
237.17	4700.000
237.55	252.381
237.92	203.571
238.29	261.905
238.67	170.968
239.04	193.103
239.41	150.000
239.79	139.130
240.16	154.762
240.53	134.091
240.91	96.078
241.28	126.000
241.65	88.000
242.02	82.609
242.40	93.548
242.77	91.667
243.14	75.269
243.51	82.022
243.89	70.588
244.26	61.111
244.63	75.269
245.00	65.957
245.38	58.416
245.75	57.944
246.12	56.881
246.49	63.504
246.87	65.600
247.24	56.923
247.61	44.286
247.98	56.209
248.36	47.297
248.73	47.134
249.10	47.771
249.47	51.412
249.84	43.316
250.22	37.968
250.59	49.704
250.96	51.010
251.33	45.024
251.70	47.030
252.08	38.095
252.45	39.462
252.82	42.609
253.19	41.277
253.56	36.863
253.94	42.739
254.31	41.406
254.68	35.385
255.05	38.745
255.42	36.585
255.79	34.926
256.16	35.740
256.54	35.689
256.91	34.164
257.28	33.094
257.65	32.013
258.02	36.646
258.39	33.754
258.76	36.455
259.14	31.845
259.51	34.650
259.88	34.161
260.25	34.139
260.62	28.035
260.99	27.950
261.36	33.934
261.73	29.799
262.10	32.267
262.47	33.803
262.85	29.526
263.22	31.054
263.59	29.915
263.96	33.242
264.33	30.026
264.70	31.579
265.07	28.133
265.44	31.061
265.81	25.304
266.18	28.643
266.55	29.024
266.92	30.221
267.29	29.861
267.66	28.670
268.03	29.545
268.40	28.738
268.77	26.969
269.14	29.955
269.51	29.120
269.88	28.671
270.25	28.668
270.62	26.292
270.99	30.968
271.36	27.468
271.73	28.037
272.10	26.087
272.47	28.817
272.84	26.623
273.21	28.302
273.58	25.546
273.95	26.415
274.32	29.339
274.69	28.694
275.06	26.772
275.43	30.638
275.80	30.261
276.17	26.680
276.54	28.067
276.91	27.273
277.28	25.000
277.65	27.079
278.02	28.571
278.39	26.758
278.76	24.545
279.13	28.113
279.50	25.512
279.87	26.892
280.23	27.345
280.60	24.371
280.97	24.399
281.34	25.487
281.71	25.455
282.08	27.255
282.45	24.727
282.82	25.755
283.19	22.816
283.56	27.018
283.92	25.212
284.29	24.339
284.66	25.045
285.03	22.785
285.40	24.120
285.77	24.411
286.14	23.489
286.51	24.500
286.87	22.393
287.24	25.081
287.61	23.435
287.98	24.188
288.35	22.662
288.72	21.963
289.08	24.100
289.45	25.041
289.82	22.927
290.19	22.606
290.56	24.349
290.93	19.940
291.29	22.086
291.66	23.746
292.03	23.983
292.40	22.173
292.77	20.858
293.13	21.642
293.50	21.574
293.87	21.037
294.24	20.000
294.60	20.378
294.97	21.948
295.34	21.439
295.71	21.165
296.08	20.513
296.44	21.183
296.81	19.419
297.18	21.003
297.55	18.206
297.91	19.657
298.28	20.884
298.65	20.235
299.02	20.290
299.38	19.256
299.75	18.329
300.12	19.413
300.48	18.375
300.85	19.482
301.22	20.127
301.59	18.687
301.95	20.403
302.32	19.512
302.69	20.311
303.05	18.061
303.42	17.901
303.79	18.686
304.15	18.298
304.52	17.497
304.89	18.351
305.25	19.026
305.62	18.460
305.99	19.008
306.35	18.121
306.72	19.843
307.09	18.424
307.45	18.806
307.82	17.857
308.19	20.199
308.55	18.986
308.92	18.153
309.29	17.529
309.65	18.664
310.02	18.605
310.38	18.172
310.75	18.902
311.12	19.447
311.48	19.854
311.85	18.973
312.22	20.395
312.58	18.711
312.95	20.275
313.31	19.515
313.68	19.958
314.05	21.400
314.41	21.910
314.78	21.450
315.14	20.655
315.51	22.554
315.87	21.881
316.24	22.443
316.61	21.248
316.97	21.037
317.34	21.624
317.70	23.231
318.07	22.907
318.43	24.266
318.80	23.243
319.16	24.482
319.53	24.109
319.89	25.524
320.26	25.700
320.62	26.190
320.99	26.667
321.35	26.869
321.72	28.029
322.08	28.332
322.45	28.060
322.81	28.585
323.18	29.191
323.54	28.386
323.91	29.151
324.27	29.637
324.64	29.543
325.00	30.658
325.37	30.209
325.73	32.226
326.10	31.862
326.46	31.631
326.83	34.167
327.19	32.878
327.56	33.101
327.92	34.121
328.29	34.605
328.65	33.057
329.01	34.116
329.38	34.783
329.74	35.457
330.11	35.438
330.47	35.170
330.84	35.202
331.20	34.244
331.56	35.780
331.93	35.278
332.29	35.049
332.66	36.106
333.02	35.740
333.38	36.495
333.75	35.829
334.11	36.833
334.48	35.315
334.84	35.846
335.20	35.545
335.57	35.721
335.93	35.625
336.29	35.714
336.66	36.880
337.02	35.747
337.38	36.111
337.75	35.205
338.11	36.079
338.47	35.359
338.84	38.313
339.20	36.330
339.56	35.949
339.93	36.455
340.29	36.957
340.65	36.096
341.02	37.435
341.38	36.299
341.74	35.614
342.11	36.594
342.47	37.004
342.83	35.959
343.20	37.489
343.56	36.647
343.92	36.667
344.28	35.544
344.65	37.231
345.01	35.859
345.37	35.334
345.73	37.394
346.10	35.976
346.46	36.186
346.82	37.562
347.19	34.921
347.55	35.468
347.91	36.084
348.27	37.305
348.63	36.455
349.00	35.518
349.36	35.878
349.72	36.327
350.08	35.251
350.45	35.232
350.81	35.662
351.17	35.008
351.53	34.808
351.89	34.818
352.26	36.069
352.62	35.605
352.98	35.981
353.34	35.579
353.70	34.779
354.07	35.645
354.43	34.841
354.79	35.157
355.15	34.717
355.51	36.531
355.87	36.816
356.24	36.645
356.60	34.964
356.96	36.122
357.32	36.631
357.68	36.063
358.04	35.313
358.40	36.659
358.77	36.150
359.13	34.570
359.49	36.078
359.85	35.556
360.21	35.646
360.57	36.498
360.93	36.000
361.29	34.996
361.66	35.449
362.02	36.119
362.38	37.719
362.74	36.310
363.10	35.529
363.46	36.537
363.82	34.996
364.18	34.655
364.54	37.073
364.90	36.190
365.26	36.618
365.62	36.231
365.98	35.427
366.35	36.032
366.71	36.009
367.07	37.218
367.43	38.244
367.79	36.617
368.15	38.218
368.51	35.756
368.87	37.259
369.23	37.381
369.59	36.495
369.95	36.250
370.31	37.037
370.67	36.594
371.03	37.004
371.39	37.609
371.75	36.176
372.11	36.344
372.47	36.584
372.83	37.536
373.19	36.199
373.55	37.029
373.91	37.997
374.27	36.838
374.63	36.727
374.99	37.924
375.35	37.404
375.71	36.806
376.07	38.134
376.42	37.552
376.78	37.707
377.14	37.992
377.50	38.742
377.86	37.766
378.22	36.789
378.58	36.842
378.94	37.524
379.30	38.104
379.66	38.008
380.02	38.759
380.38	37.037
380.74	38.655
381.09	38.998
381.45	39.275
381.81	40.295
382.17	38.854
382.53	38.994
382.89	39.012
383.25	39.212
383.61	39.281
383.97	38.837
384.32	38.366
384.68	38.786
385.04	39.459
385.40	38.266
385.76	37.654
386.12	39.702
386.48	38.892
386.83	39.705
387.19	40.074
387.55	38.714
387.91	39.238
388.27	39.240
388.62	40.012
388.98	37.531
389.34	39.549
389.70	38.749
390.06	39.354
390.42	39.948
390.77	40.076
391.13	39.949
391.49	40.355
391.85	38.701
392.20	39.054
392.56	40.720
392.92	40.612
393.28	39.527
393.64	39.808
393.99	39.524
394.35	39.578
394.71	40.213
395.07	39.439
395.42	39.061
395.78	40.076
396.14	39.417
396.50	40.476
396.85	40.305
397.21	38.533
397.57	38.934
397.92	39.363
398.28	39.406
398.64	40.084
399.00	39.675
399.35	38.409
399.71	39.120
400.07	38.734
400.42	40.123
400.78	39.626
401.14	38.841
401.49	38.806
401.85	39.504
402.21	38.323
402.57	38.495
402.92	39.155
403.28	39.101
403.63	38.057
403.99	38.408
404.35	39.152
404.70	38.189
405.06	38.206
405.42	38.740
405.77	38.743
406.13	39.616
406.49	38.971
406.84	37.685
407.20	37.530
407.55	38.034
407.91	38.867
408.27	40.523
408.62	38.110
408.98	39.032
409.34	39.053
409.69	38.581
410.05	39.033
410.40	38.838
410.76	39.665
411.11	37.394
411.47	36.741
411.83	38.913
412.18	38.157
412.54	39.228
412.89	38.072
413.25	38.371
413.60	38.975
413.96	36.916
414.31	37.485
414.67	37.769
415.03	37.616
415.38	37.951
415.74	39.035
416.09	39.647
416.45	38.019
416.80	37.673
417.16	39.142
417.51	38.620
417.87	38.664
418.22	38.360
418.58	37.895
418.93	37.838
419.29	38.638
419.64	38.854
420.00	38.476
420.35	37.681
420.71	39.091
421.06	38.126
421.42	38.596
421.77	38.229
422.12	38.012
422.48	37.669
422.83	38.090
423.19	37.956
423.54	38.654
423.90	37.971
424.25	37.912
424.61	37.679
424.96	37.493
425.31	38.151
425.67	36.461
426.02	37.257
426.38	38.339
426.73	37.039
427.09	37.568
427.44	37.608
427.79	37.148
428.15	39.107
428.50	37.741
428.85	38.200
429.21	37.880
429.56	37.584
429.92	37.594
430.27	37.637
430.62	37.020
430.98	37.364
431.33	36.907
431.68	36.963
432.04	37.593
432.39	38.549
432.74	37.882
433.10	37.408
433.45	37.726
433.80	37.916
434.16	38.034
434.51	37.368
434.86	39.054
435.22	37.910
435.57	37.751
435.92	37.156
436.28	37.841
436.63	38.466
436.98	37.894
437.34	37.746
437.69	38.273
438.04	37.943
438.39	38.866
438.75	38.640
439.10	38.715
439.45	37.603
439.81	38.066
440.16	38.566
440.51	37.434
440.86	39.027
441.22	36.707
441.57	37.261
441.92	38.229
442.27	37.836
442.63	37.599
442.98	38.423
443.33	37.120
443.68	37.274
444.03	37.433
444.39	36.806
444.74	38.095
445.09	36.927
445.44	37.780
445.79	37.605
446.15	37.851
446.50	37.372
446.85	37.564
447.20	37.430
447.55	38.303
447.91	37.617
448.26	37.841
448.61	37.535
448.96	38.317
449.31	38.808
449.66	36.804
450.02	37.047
450.37	37.472
450.72	37.902
451.07	38.208
451.42	37.204
451.77	37.581
452.12	37.818
452.47	37.189
452.83	37.179
453.18	37.347
453.53	38.095
453.88	36.621
454.23	37.179
454.58	37.916
454.93	39.733
455.28	37.843
455.63	37.803
455.98	38.036
456.34	37.940
456.69	38.259
457.04	38.019
457.39	37.463
457.74	37.377
458.09	37.953
458.44	37.115
458.79	36.280
459.14	37.302
459.49	37.186
459.84	36.953
460.19	36.240
460.54	36.285
460.89	37.137
461.24	38.494
461.59	38.698
461.94	37.731
462.29	38.279
462.64	37.077
462.99	36.239
463.34	38.333
463.69	38.024
464.04	38.319
464.39	36.580
464.74	36.898
465.09	36.369
465.44	36.233
465.79	36.633
466.14	36.891
466.49	35.484
466.84	36.427
467.19	36.995
467.54	38.500
467.89	36.675
468.24	36.824
468.59	36.264
468.94	36.347
469.29	36.183
469.64	37.550
469.99	37.348
470.34	35.799
470.68	37.141
471.03	36.939
471.38	37.596
471.73	36.909
472.08	37.303
472.43	35.050
472.78	36.537
473.13	36.329
473.48	36.704
473.83	36.585
474.17	36.403
474.52	37.407
474.87	36.836
475.22	35.984
475.57	36.056
475.92	35.263
476.27	35.344
476.61	34.584
476.96	35.899
477.31	35.165
477.66	35.722
478.01	34.762
478.36	36.224
478.70	35.202
479.05	35.783
479.40	35.722
479.75	35.994
480.10	35.139
480.45	34.507
480.79	34.257
481.14	35.225
481.49	34.599
481.84	35.208
482.19	34.984
482.53	34.450
482.88	34.853
483.23	34.907
483.58	35.077
483.92	35.192
484.27	33.508
484.62	35.086
484.97	34.490
485.31	34.897
485.66	34.882
486.01	33.732
486.36	32.533
486.70	31.223
487.05	31.935
487.40	32.584
487.75	32.530
488.09	33.667
488.44	32.789
488.79	33.237
489.13	34.110
489.48	33.483
489.83	34.312
490.17	33.976
490.52	34.145
490.87	33.198
491.22	33.151
491.56	33.394
491.91	33.178
492.26	33.578
492.60	33.272
492.95	33.770
493.30	32.991
493.64	33.971
493.99	33.148
494.34	33.626
494.68	33.791
495.03	34.164
495.37	33.737
495.72	34.113
496.07	34.292
496.41	33.274
496.76	32.894
497.11	33.498
497.45	33.256
497.80	33.157
498.14	32.850
498.49	33.561
498.84	34.180
499.18	33.095
499.53	32.953
499.87	32.945
500.22	33.114
500.56	33.932
500.91	32.596
501.26	33.096
501.60	33.507
501.95	33.181
502.29	33.505
502.64	33.287
502.98	32.305
503.33	32.358
503.67	32.715
504.02	32.320
504.36	33.177
504.71	33.122
505.06	32.819
505.40	33.058
505.75	31.967
506.09	32.119
506.44	33.794
506.78	32.781
507.13	32.458
507.47	32.374
507.82	32.877
508.16	33.637
508.51	32.623
508.85	32.274
509.19	31.888
509.54	32.296
509.88	31.633
510.23	33.111
510.57	33.695
510.92	32.367
511.26	32.014
511.61	32.624
511.95	31.524
512.30	31.972
512.64	32.348
512.98	32.744
513.33	31.692
513.67	31.323
514.02	31.656
514.36	32.332
514.70	32.208
515.05	31.567
515.39	32.417
515.74	31.869
516.08	32.532
516.42	31.853
516.77	32.163
517.11	32.131
517.46	31.659
517.80	32.695
518.14	31.094
518.49	32.905
518.83	31.307
519.17	32.102
519.52	31.975
519.86	31.261
520.20	31.850
520.55	32.077
520.89	32.786
521.23	32.388
521.58	31.873
521.92	31.966
522.26	30.872
522.61	32.586
522.95	31.308
523.29	32.075
523.64	32.500
523.98	32.039
524.32	31.242
524.66	31.569
525.01	31.556
525.35	31.784
525.69	30.911
526.04	31.713
526.38	30.933
526.72	31.779
527.06	32.894
527.41	29.455
527.75	31.190
528.09	31.599
528.43	31.485
528.78	31.285
529.12	29.697
529.46	31.170
529.80	31.436
530.15	31.215
530.49	31.015
530.83	31.456
531.17	31.266
531.51	32.425
531.86	32.000
532.20	32.073
532.54	31.006
532.88	30.745
533.22	30.606
533.57	30.864
533.91	29.922
534.25	30.923
534.59	31.117
534.93	30.458
535.27	30.718
535.62	30.952
535.96	30.885
536.30	30.833
536.64	30.200
536.98	31.055
537.32	31.797
537.66	30.800
538.01	31.073
538.35	30.769
538.69	31.461
539.03	30.604
539.37	30.160
539.71	29.618
540.05	30.065
540.39	31.163
540.73	29.107
541.07	30.694
541.42	30.398
541.76	30.065
542.10	29.884
542.44	30.265
542.78	31.357
543.12	29.175
543.46	31.607
543.80	30.839
544.14	29.525
544.48	31.048
544.82	29.506
545.16	31.100
545.50	30.141
545.84	29.906
546.18	30.236
546.52	30.007
546.86	30.790
547.20	30.614
547.54	29.860
547.88	30.230
548.22	29.514
548.56	30.314
548.90	28.873
549.24	28.552
549.58	29.945
549.92	29.258
550.26	30.256
550.60	30.498
550.94	29.648
551.28	29.773
551.62	29.978
551.96	29.544
552.30	30.239
552.64	29.682
552.98	30.102
553.32	29.670
553.66	29.993
554.00	29.375
554.34	28.571
554.68	29.113
555.02	30.113
555.36	28.253
555.69	28.620
556.03	28.129
556.37	28.308
556.71	28.854
557.05	28.922
557.39	28.831
557.73	29.217
558.07	29.079
558.41	30.101
558.75	29.243
559.08	28.710
559.42	29.025
559.76	29.191
560.10	28.480
560.44	29.350
560.78	28.609
561.12	28.694
561.45	28.879
561.79	27.818
562.13	28.504
562.47	27.801
562.81	28.382
563.15	27.692
563.48	28.846
563.82	28.637
564.16	29.366
564.50	27.279
564.84	27.686
565.17	28.378
565.51	27.540
565.85	28.363
566.19	26.738
566.52	29.006
566.86	26.884
567.20	28.833
567.54	27.854
567.88	27.268
568.21	27.619
568.55	27.806
568.89	28.405
569.23	27.317
569.56	27.530
569.90	27.396
570.24	26.875
570.57	26.658
570.91	26.503
571.25	26.158
571.59	26.421
571.92	26.037
572.26	25.910
572.60	26.246
572.93	26.027
573.27	26.264
573.61	25.935
573.95	26.047
574.28	25.528
574.62	25.243
574.96	25.329
575.29	25.315
575.63	25.330
575.97	24.863
576.30	25.332
576.64	25.651
576.98	25.352
577.31	25.716
577.65	25.776
577.98	25.111
578.32	25.040
578.66	24.885
578.99	24.926
579.33	25.006
579.67	24.593
580.00	24.766
580.34	25.439
580.67	25.195
581.01	25.343
581.35	25.179
581.68	25.367
582.02	25.101
582.35	24.810
582.69	24.749
583.02	24.880
583.36	24.718
583.70	24.825
584.03	25.000
584.37	25.718
584.70	25.261
585.04	25.660
585.37	24.790
585.71	25.070
586.04	25.127
586.38	25.183
586.72	24.938
587.05	24.803
587.39	24.776
587.72	25.200
588.06	25.107
588.39	25.103
588.73	25.022
589.06	25.709
589.40	25.185
589.73	25.449
590.07	25.231
590.40	25.210
590.73	25.527
591.07	25.967
591.40	25.474
591.74	26.450
592.07	25.305
592.41	25.300
592.74	25.356
593.08	25.450
593.41	25.214
593.75	24.797
594.08	24.573
594.41	24.850
594.75	24.843
595.08	25.125
595.42	25.429
595.75	25.036
596.09	25.272
596.42	25.855
596.75	25.791
597.09	26.234
597.42	24.073
597.75	25.140
598.09	24.957
598.42	25.172
598.76	25.415
599.09	25.048
599.42	24.709
599.76	24.268
600.09	24.335
600.42	24.543
600.76	25.179
601.09	24.481
601.42	24.543
601.76	25.237
602.09	25.257
602.42	24.682
602.76	25.554
603.09	24.902
603.42	24.834
603.76	24.466
604.09	24.467
604.42	25.561
604.76	24.926
605.09	24.159
605.42	24.327
605.75	24.710
606.09	24.644
606.42	24.397
606.75	24.471
607.09	24.236
607.42	24.775
607.75	24.262
608.08	25.185
608.42	24.204
608.75	24.301
609.08	24.468
609.41	24.655
609.75	25.155
610.08	24.882
610.41	23.976
610.74	24.693
611.07	25.692
611.41	25.613
611.74	25.138
612.07	25.621
612.40	26.233
612.73	25.737
613.07	25.162
613.40	25.803
613.73	25.013
614.06	25.215
614.39	25.013
614.72	26.000
615.06	24.580
615.39	24.310
615.72	24.284
616.05	24.136
616.38	24.569
616.71	25.831
617.05	25.383
617.38	24.534
617.71	25.045
618.04	26.022
618.37	24.837
618.70	25.389
619.03	25.461
619.36	25.390
619.69	25.845
620.03	25.481
620.36	25.936
620.69	26.164
621.02	25.811
621.35	25.998
621.68	23.676
622.01	25.464
622.34	25.946
622.67	26.616
623.00	26.192
623.33	24.803
623.66	25.232
623.99	25.700
624.32	26.462
624.65	25.565
624.99	25.212
625.32	25.706
625.65	25.244
625.98	25.596
626.31	25.739
626.64	25.796
626.97	25.270
627.30	25.686
627.63	25.431
627.96	25.820
628.29	24.672
628.62	27.264
628.95	28.491
629.28	26.186
629.61	26.856
629.94	26.381
630.26	25.548
630.59	26.406
630.92	27.203
