SpectraSuite Data File
++++++++++++++++++++++++++++++++++++
Date: Wed May 13 16:51:17 PDT 2015
User: schluterlab
Dark Spectrum Present: Yes
Reference Spectrum Present: Yes
Number of Sampled Component Spectra: 1
Spectrometers: USB2E3373
Integration Time (usec): 3000 (USB2E3373)
Spectra Averaged: 3 (USB2E3373)
Boxcar Smoothing: 0 (USB2E3373)
Correct for Electrical Dark: No (USB2E3373)
Strobe/Lamp Enabled: No (USB2E3373)
Correct for Detector Non-linearity: No (USB2E3373)
Correct for Stray Light: No (USB2E3373)
Number of Pixels in Processed Spectrum: 2048
>>>>>Begin Processed Spectral Data<<<<<
178.53	0.000
178.91	-1125.000
179.29	-1375.000
179.67	-227.778
180.04	-1350.000
180.42	2250.000
180.80	980.000
181.18	-975.000
181.56	614.286
181.94	0.000
182.31	-714.286
182.69	1800.000
183.07	-512.500
183.45	-444.444
183.83	518.182
184.20	-470.000
184.58	2000.000
184.96	5300.000
185.34	-840.000
185.72	-700.000
186.09	-1750.000
186.47	2550.000
186.85	2250.000
187.23	5600.000
187.61	-1633.333
187.98	1325.000
188.36	554.545
188.74	427.273
189.12	-880.000
189.49	520.000
189.87	-4800.000
190.25	-1250.000
190.63	385.714
191.00	407.692
191.38	883.333
191.76	-1300.000
192.14	1350.000
192.51	525.000
192.89	816.667
193.27	500.000
193.65	-1075.000
194.02	530.000
194.40	860.000
194.78	550.000
195.15	500.000
195.53	530.000
195.91	-1700.000
196.29	331.250
196.66	331.579
197.04	-370.000
197.42	0.000
197.79	600.000
198.17	-4700.000
198.55	771.429
198.92	675.000
199.30	840.000
199.68	0.000
200.05	333.333
200.43	728.571
200.81	4300.000
201.18	1466.667
201.56	-1566.667
201.94	511.111
202.31	600.000
202.69	466.667
203.07	520.000
203.44	0.000
203.82	1300.000
204.19	985.714
204.57	357.143
204.95	562.500
205.32	1500.000
205.70	509.091
206.08	371.429
206.45	2600.000
206.83	368.750
207.20	933.333
207.58	1080.000
207.96	322.222
208.33	750.000
208.71	-850.000
209.08	700.000
209.46	633.333
209.84	381.818
210.21	-1366.667
210.59	1400.000
210.96	-525.000
211.34	2750.000
211.71	600.000
212.09	833.333
212.46	0.000
212.84	1466.667
213.22	1325.000
213.59	-3400.000
213.97	783.333
214.34	685.714
214.72	654.545
215.09	1140.000
215.47	-2200.000
215.84	-2500.000
216.22	1600.000
216.59	392.857
216.97	1250.000
217.34	381.818
217.72	-700.000
218.09	0.000
218.47	-4900.000
218.84	688.889
219.22	771.429
219.59	1366.667
219.97	-600.000
220.34	860.000
220.72	-1766.667
221.09	421.429
221.47	1375.000
221.84	-966.667
222.22	0.000
222.59	1150.000
222.97	-2500.000
223.34	1240.000
223.72	392.308
224.09	1020.000
224.46	2150.000
224.84	-3900.000
225.21	-900.000
225.59	-3900.000
225.96	590.000
226.34	290.000
226.71	2600.000
227.08	687.500
227.46	500.000
227.83	-1050.000
228.21	-2650.000
228.58	533.333
228.95	-2000.000
229.33	-2100.000
229.70	1666.667
230.08	757.143
230.45	-820.000
230.82	458.333
231.20	850.000
231.57	657.143
231.95	475.000
232.32	222.727
232.69	309.091
233.07	600.000
233.44	361.538
233.81	-1666.667
234.19	315.789
234.56	425.000
234.93	375.000
235.31	427.273
235.68	315.385
236.05	335.714
236.43	187.879
236.80	273.684
237.17	3700.000
237.55	219.048
237.92	185.714
238.29	228.571
238.67	129.032
239.04	175.862
239.41	133.333
239.79	108.696
240.16	116.667
240.53	97.727
240.91	90.196
241.28	88.000
241.65	96.000
242.02	88.406
242.40	67.742
242.77	75.000
243.14	59.140
243.51	66.292
243.89	50.588
244.26	45.556
244.63	48.387
245.00	54.255
245.38	43.564
245.75	44.860
246.12	41.284
246.49	48.175
246.87	42.400
247.24	41.538
247.61	43.571
247.98	32.680
248.36	29.054
248.73	29.936
249.10	34.395
249.47	28.814
249.84	34.225
250.22	28.342
250.59	28.994
250.96	26.263
251.33	25.118
251.70	26.238
252.08	22.381
252.45	21.076
252.82	21.739
253.19	19.149
253.56	27.059
253.94	26.556
254.31	20.313
254.68	23.077
255.05	22.140
255.42	21.138
255.79	23.162
256.16	22.383
256.54	16.961
256.91	19.217
257.28	15.827
257.65	21.122
258.02	17.081
258.39	21.451
258.76	16.054
259.14	19.940
259.51	17.021
259.88	15.528
260.25	18.127
260.62	15.607
260.99	18.012
261.36	20.721
261.73	14.900
262.10	14.826
262.47	17.183
262.85	15.320
263.22	11.396
263.59	18.519
263.96	15.659
264.33	15.927
264.70	14.737
265.07	14.834
265.44	16.162
265.81	13.869
266.18	15.829
266.55	14.634
266.92	13.759
267.29	12.500
267.66	14.908
268.03	12.273
268.40	12.617
268.77	11.695
269.14	11.712
269.51	14.898
269.88	13.520
270.25	11.964
270.62	14.157
270.99	14.624
271.36	14.592
271.73	13.785
272.10	11.739
272.47	13.118
272.84	12.554
273.21	12.369
273.58	10.480
273.95	10.482
274.32	11.570
274.69	12.420
275.06	12.205
275.43	15.745
275.80	11.824
276.17	12.831
276.54	12.474
276.91	12.055
277.28	13.086
277.65	13.153
278.02	10.766
278.39	13.477
278.76	13.455
279.13	11.509
279.50	12.477
279.87	10.159
280.23	10.978
280.60	10.638
280.97	11.830
281.34	10.796
281.71	14.545
282.08	12.092
282.45	10.364
282.82	12.433
283.19	9.982
283.56	12.281
283.92	12.183
284.29	8.995
284.66	10.345
285.03	8.680
285.40	9.507
285.77	10.606
286.14	9.326
286.51	9.833
286.87	8.718
287.24	11.889
287.61	9.631
287.98	10.714
288.35	10.143
288.72	10.436
289.08	11.581
289.45	10.049
289.82	10.081
290.19	9.262
290.56	10.720
290.93	8.308
291.29	10.276
291.66	9.440
292.03	12.064
292.40	9.838
292.77	8.876
293.13	8.955
293.50	11.516
293.87	10.370
294.24	9.037
294.60	8.297
294.97	9.448
295.34	10.014
295.71	10.085
296.08	9.544
296.44	8.391
296.81	8.719
297.18	11.518
297.55	5.937
297.91	9.103
298.28	10.442
298.65	7.963
299.02	10.277
299.38	8.101
299.75	6.334
300.12	7.024
300.48	8.250
300.85	8.755
301.22	8.408
301.59	8.333
301.95	9.194
302.32	7.959
302.69	8.841
303.05	8.242
303.42	7.160
303.79	7.928
304.15	7.459
304.52	7.532
304.89	8.362
305.25	8.353
305.62	9.740
305.99	8.501
306.35	8.613
306.72	7.960
307.09	8.102
307.45	7.883
307.82	6.696
308.19	8.609
308.55	8.091
308.92	7.197
309.29	6.230
309.65	6.999
310.02	7.294
310.38	7.742
310.75	7.497
311.12	8.291
311.48	6.688
311.85	7.757
312.22	8.429
312.58	8.524
312.95	7.920
313.31	7.476
313.68	7.277
314.05	9.862
314.41	8.744
314.78	7.049
315.14	9.037
315.51	7.724
315.87	8.416
316.24	8.242
316.61	7.895
316.97	7.143
317.34	6.751
317.70	8.700
318.07	9.047
318.43	8.611
318.80	8.529
319.16	8.945
319.53	9.006
319.89	9.429
320.26	9.400
320.62	9.921
320.99	8.182
321.35	8.485
321.72	9.343
322.08	10.267
322.45	11.244
322.81	10.465
323.18	10.308
323.54	10.853
323.91	10.472
324.27	11.281
324.64	10.065
325.00	9.739
325.37	12.193
325.73	11.939
326.10	11.297
326.46	11.738
326.83	12.338
327.19	11.102
327.56	12.108
327.92	13.036
328.29	13.132
328.65	13.076
329.01	14.531
329.38	12.858
329.74	13.389
330.11	13.478
330.47	13.774
330.84	13.971
331.20	14.390
331.56	15.596
331.93	14.259
332.29	15.084
332.66	15.398
333.02	15.174
333.38	14.544
333.75	16.756
334.11	15.747
334.48	14.374
334.84	15.257
335.20	16.000
335.57	13.871
335.93	14.643
336.29	14.744
336.66	14.518
337.02	15.475
337.38	15.556
337.75	14.884
338.11	15.667
338.47	15.470
338.84	15.399
339.20	15.138
339.56	16.880
339.93	15.727
340.29	15.036
340.65	15.062
341.02	15.009
341.38	16.014
341.74	15.263
342.11	16.070
342.47	16.211
342.83	15.497
343.20	17.229
343.56	15.501
343.92	14.912
344.28	16.412
344.65	16.165
345.01	15.825
345.37	14.666
345.73	15.736
346.10	15.345
346.46	15.763
346.82	15.239
347.19	15.372
347.55	14.532
347.91	16.262
348.27	16.927
348.63	16.555
349.00	15.858
349.36	16.256
349.72	15.237
350.08	15.559
350.45	16.192
350.81	15.841
351.17	15.802
351.53	15.561
351.89	15.099
352.26	16.259
352.62	15.798
352.98	16.532
353.34	15.694
353.70	14.975
354.07	15.887
354.43	16.032
354.79	15.849
355.15	16.281
355.51	16.867
355.87	16.163
356.24	17.264
356.60	15.557
356.96	16.814
357.32	15.781
357.68	15.984
358.04	16.073
358.40	16.310
358.77	16.432
359.13	15.706
359.49	15.216
359.85	15.397
360.21	15.391
360.57	16.654
360.93	17.077
361.29	16.024
361.66	15.635
362.02	16.866
362.38	15.970
362.74	15.997
363.10	15.988
363.46	15.040
363.82	16.780
364.18	15.565
364.54	16.270
364.90	16.572
365.26	16.471
365.62	16.654
365.98	15.486
366.35	16.189
366.71	16.920
367.07	17.407
367.43	17.925
367.79	16.988
368.15	17.098
368.51	16.206
368.87	17.345
369.23	16.606
369.59	16.872
369.95	16.618
370.31	16.311
370.67	17.464
371.03	17.228
371.39	18.003
371.75	17.132
372.11	16.003
372.47	18.328
372.83	18.444
373.19	17.486
373.55	17.073
373.91	17.452
374.27	18.007
374.63	17.018
374.99	17.797
375.35	17.516
375.71	18.163
376.07	18.176
376.42	16.713
376.78	18.158
377.14	17.232
377.50	19.404
377.86	17.686
378.22	18.584
378.58	17.732
378.94	17.725
379.30	17.430
379.66	18.147
380.02	18.366
380.38	17.911
380.74	19.268
381.09	17.971
381.45	18.623
381.81	18.919
382.17	18.471
382.53	18.176
382.89	19.568
383.25	18.261
383.61	19.269
383.97	18.637
384.32	18.715
384.68	18.959
385.04	18.623
385.40	18.576
385.76	18.428
386.12	19.106
386.48	19.257
386.83	20.269
387.19	20.099
387.55	19.481
387.91	19.891
388.27	19.252
388.62	19.545
388.98	19.103
389.34	20.651
389.70	19.129
390.06	19.962
390.42	19.326
390.77	19.720
391.13	19.272
391.49	20.178
391.85	19.542
392.20	19.621
392.56	19.886
392.92	19.835
393.28	18.521
393.64	20.144
393.99	19.914
394.35	19.727
394.71	19.887
395.07	19.190
395.42	19.468
395.78	19.402
396.14	20.795
396.50	20.050
396.85	20.216
397.21	19.914
397.57	19.281
397.92	20.913
398.28	18.946
398.64	20.131
399.00	19.474
399.35	18.443
399.71	18.866
400.07	19.811
400.42	20.368
400.78	20.326
401.14	19.085
401.49	19.940
401.85	18.693
402.21	18.503
402.57	19.556
402.92	18.979
403.28	19.238
403.63	20.359
403.99	19.363
404.35	19.212
404.70	19.245
405.06	19.103
405.42	19.588
405.77	19.257
406.13	18.454
406.49	19.870
406.84	18.842
407.20	18.913
407.55	19.400
407.91	20.000
408.27	19.017
408.62	19.386
408.98	19.240
409.34	18.512
409.69	18.903
410.05	19.083
410.40	19.388
410.76	18.578
411.11	19.361
411.47	18.275
411.83	19.487
412.18	18.120
412.54	18.929
412.89	19.217
413.25	18.890
413.60	19.148
413.96	18.944
414.31	18.408
414.67	20.152
415.03	20.000
415.38	19.652
415.74	19.678
416.09	19.203
416.45	19.009
416.80	19.564
417.16	19.839
417.51	19.708
417.87	19.268
418.22	20.189
418.58	19.819
418.93	20.025
419.29	19.924
419.64	20.592
420.00	19.634
420.35	19.536
420.71	19.725
421.06	19.869
421.42	19.766
421.77	20.123
422.12	19.090
422.48	19.266
422.83	19.336
423.19	20.221
423.54	19.617
423.90	19.362
424.25	20.268
424.61	20.357
424.96	20.000
425.31	20.653
425.67	19.494
426.02	19.829
426.38	20.696
426.73	19.778
427.09	20.790
427.44	20.414
427.79	19.724
428.15	20.774
428.50	20.363
428.85	21.216
429.21	20.320
429.56	19.855
429.92	20.382
430.27	19.662
430.62	19.355
430.98	19.875
431.33	20.619
431.68	20.628
432.04	19.862
432.39	21.017
432.74	21.125
433.10	20.939
433.45	20.991
433.80	20.843
434.16	20.566
434.51	21.000
434.86	21.836
435.22	21.123
435.57	20.243
435.92	21.475
436.28	21.590
436.63	21.909
436.98	21.408
437.34	21.765
437.69	22.812
438.04	21.922
438.39	21.433
438.75	21.092
439.10	21.117
439.45	21.960
439.81	21.269
440.16	21.909
440.51	21.734
440.86	21.714
441.22	21.468
441.57	22.134
441.92	21.801
442.27	22.121
442.63	21.696
442.98	22.592
443.33	22.065
443.68	21.683
444.03	22.255
444.39	20.935
444.74	21.753
445.09	21.941
445.44	22.034
445.79	21.277
446.15	22.499
446.50	22.725
446.85	21.994
447.20	22.285
447.55	22.390
447.91	22.008
448.26	22.371
448.61	22.555
448.96	23.200
449.31	23.791
449.66	22.566
450.02	21.727
450.37	22.846
450.72	22.786
451.07	22.121
451.42	22.614
451.77	23.018
452.12	22.806
452.47	23.010
452.83	22.145
453.18	23.350
453.53	22.944
453.88	22.268
454.23	23.072
454.58	23.259
454.93	24.094
455.28	23.067
455.63	23.362
455.98	23.631
456.34	23.178
456.69	23.607
457.04	22.415
457.39	22.852
457.74	23.215
458.09	23.462
458.44	23.147
458.79	21.475
459.14	23.081
459.49	23.234
459.84	22.493
460.19	22.687
460.54	22.569
460.89	23.313
461.24	23.558
461.59	23.998
461.94	23.305
462.29	23.145
462.64	23.676
462.99	23.032
463.34	23.400
463.69	22.952
464.04	23.130
464.39	23.072
464.74	23.113
465.09	22.376
465.44	22.770
465.79	22.987
466.14	22.715
466.49	22.859
466.84	23.001
467.19	23.597
467.54	23.312
467.89	22.509
468.24	23.735
468.59	23.504
468.94	22.419
469.29	23.779
469.64	24.431
469.99	24.087
470.34	23.844
470.68	23.779
471.03	24.286
471.38	24.114
471.73	24.717
472.08	25.461
472.43	23.492
472.78	23.963
473.13	24.005
473.48	24.594
473.83	23.232
474.17	22.838
474.52	24.628
474.87	23.759
475.22	23.738
475.57	22.569
475.92	23.048
476.27	23.450
476.61	23.552
476.96	23.529
477.31	23.391
477.66	24.070
478.01	23.680
478.36	23.638
478.70	22.638
479.05	23.269
479.40	23.797
479.75	23.081
480.10	23.459
480.45	22.275
480.79	23.029
481.14	23.141
481.49	23.019
481.84	23.914
482.19	23.398
482.53	22.569
482.88	23.220
483.23	22.944
483.58	23.794
483.92	23.336
484.27	22.048
484.62	22.284
484.97	21.797
485.31	22.740
485.66	21.829
486.01	20.081
486.36	19.529
486.70	19.198
487.05	20.410
487.40	20.889
487.75	20.893
488.09	21.444
488.44	21.848
488.79	23.183
489.13	23.911
489.48	22.512
489.83	22.702
490.17	23.674
490.52	22.276
490.87	23.021
491.22	22.374
491.56	22.688
491.91	22.662
492.26	22.508
492.60	22.350
492.95	22.591
493.30	22.103
493.64	22.305
493.99	22.331
494.34	22.988
494.68	23.489
495.03	23.026
495.37	22.383
495.72	23.099
496.07	23.341
496.41	21.681
496.76	22.383
497.11	22.783
497.45	23.055
497.80	23.417
498.14	22.560
498.49	23.220
498.84	23.011
499.18	22.810
499.53	22.887
499.87	22.507
500.22	22.939
500.56	23.204
500.91	23.125
501.26	22.760
501.60	23.493
501.95	22.777
502.29	22.962
502.64	23.277
502.98	23.796
503.33	22.623
503.67	22.181
504.02	22.825
504.36	22.742
504.71	22.814
505.06	23.084
505.40	22.946
505.75	22.806
506.09	23.178
506.44	23.286
506.78	22.698
507.13	23.423
507.47	23.131
507.82	22.847
508.16	24.164
508.51	23.744
508.85	22.691
509.19	23.367
509.54	22.500
509.88	23.390
510.23	23.239
510.57	23.787
510.92	23.097
511.26	23.535
511.61	23.807
511.95	23.643
512.30	23.065
512.64	23.858
512.98	23.955
513.33	22.912
513.67	23.586
514.02	23.160
514.36	23.430
514.70	23.464
515.05	23.592
515.39	24.061
515.74	22.917
516.08	23.868
516.42	24.584
516.77	23.913
517.11	23.474
517.46	23.928
517.80	24.390
518.14	23.567
518.49	23.687
518.83	23.864
519.17	23.788
519.52	23.486
519.86	24.073
520.20	24.277
520.55	24.835
520.89	24.270
521.23	25.151
521.58	24.490
521.92	24.372
522.26	23.673
522.61	24.922
522.95	24.432
523.29	24.407
523.64	23.902
523.98	24.522
524.32	24.306
524.66	24.654
525.01	24.142
525.35	23.792
525.69	23.953
526.04	24.299
526.38	24.100
526.72	24.110
527.06	23.478
527.41	23.515
527.75	24.244
528.09	23.828
528.43	24.665
528.78	23.663
529.12	23.758
529.46	23.882
529.80	24.814
530.15	25.171
530.49	23.385
530.83	24.557
531.17	26.044
531.51	25.097
531.86	24.839
532.20	24.446
532.54	24.664
532.88	24.583
533.22	24.360
533.57	24.136
533.91	23.721
534.25	23.269
534.59	24.710
534.93	23.795
535.27	23.838
535.62	23.565
535.96	24.419
536.30	24.730
536.64	23.696
536.98	24.950
537.32	25.214
537.66	24.733
538.01	24.556
538.35	24.758
538.69	24.761
539.03	25.211
539.37	23.450
539.71	22.878
540.05	24.510
540.39	24.385
540.73	23.221
541.07	24.335
541.42	23.744
541.76	24.903
542.10	24.321
542.44	23.775
542.78	24.440
543.12	24.504
543.46	23.934
543.80	24.008
544.14	23.363
544.48	24.063
544.82	23.926
545.16	24.268
545.50	22.365
545.84	24.194
546.18	23.502
546.52	24.639
546.86	24.742
547.20	25.017
547.54	23.580
547.88	24.681
548.22	22.914
548.56	23.774
548.90	23.047
549.24	23.704
549.58	24.625
549.92	23.626
550.26	24.858
550.60	24.758
550.94	23.732
551.28	23.189
551.62	24.083
551.96	23.860
552.30	24.505
552.64	25.152
552.98	24.542
553.32	24.275
553.66	25.562
554.00	23.953
554.34	23.464
554.68	25.250
555.02	24.401
555.36	24.774
555.69	23.207
556.03	24.428
556.37	24.693
556.71	24.216
557.05	24.020
557.39	24.563
557.73	24.982
558.07	24.656
558.41	23.372
558.75	24.614
559.08	24.758
559.42	24.943
559.76	25.515
560.10	24.411
560.44	23.620
560.78	23.952
561.12	23.879
561.45	24.576
561.79	23.863
562.13	24.681
562.47	24.522
562.81	22.664
563.15	23.278
563.48	24.072
563.82	23.810
564.16	23.545
564.50	23.112
564.84	24.273
565.17	24.131
565.51	23.834
565.85	23.604
566.19	22.981
566.52	23.369
566.86	22.785
567.20	23.998
567.54	22.831
567.88	23.031
568.21	23.598
568.55	22.245
568.89	22.276
569.23	22.103
569.56	21.741
569.90	21.245
570.24	21.708
570.57	20.605
570.91	20.459
571.25	20.846
571.59	20.501
571.92	20.824
572.26	20.133
572.60	20.511
572.93	20.420
573.27	20.201
573.61	20.408
573.95	19.948
574.28	19.824
574.62	19.995
574.96	19.522
575.29	19.762
575.63	19.868
575.97	20.515
576.30	20.473
576.64	19.965
576.98	19.908
577.31	19.616
577.65	20.065
577.98	19.401
578.32	19.063
578.66	19.413
578.99	19.585
579.33	19.753
579.67	19.363
580.00	19.731
580.34	19.767
580.67	19.948
581.01	20.058
581.35	19.554
581.68	19.174
582.02	18.681
582.35	19.259
582.69	19.481
583.02	19.523
583.36	19.783
583.70	20.480
584.03	20.376
584.37	20.659
584.70	20.141
585.04	20.230
585.37	20.107
585.71	19.925
586.04	19.497
586.38	20.533
586.72	20.492
587.05	20.239
587.39	19.683
587.72	19.918
588.06	19.477
588.39	20.055
588.73	20.329
589.06	21.377
589.40	20.673
589.73	21.190
590.07	20.534
590.40	20.643
590.73	21.116
591.07	21.775
591.40	21.468
591.74	21.818
592.07	21.204
592.41	21.538
592.74	20.599
593.08	20.819
593.41	20.405
593.75	19.925
594.08	20.416
594.41	20.749
594.75	20.776
595.08	20.401
595.42	20.876
595.75	20.726
596.09	20.466
596.42	21.729
596.75	21.739
597.09	22.468
597.42	20.658
597.75	21.475
598.09	21.043
598.42	20.790
598.76	20.470
599.09	20.372
599.42	19.723
599.76	20.644
600.09	20.474
600.42	20.343
600.76	19.929
601.09	20.546
601.42	21.081
601.76	20.987
602.09	20.791
602.42	21.019
602.76	21.322
603.09	20.535
603.42	20.890
603.76	20.503
604.09	20.977
604.42	21.402
604.76	21.383
605.09	21.057
605.42	20.949
605.75	21.440
606.09	20.537
606.42	20.801
606.75	20.780
607.09	21.180
607.42	20.496
607.75	20.717
608.08	20.842
608.42	21.425
608.75	22.002
609.08	21.138
609.41	21.371
609.75	20.962
610.08	21.395
610.41	21.136
610.74	20.861
611.07	22.085
611.41	21.688
611.74	21.921
612.07	21.894
612.40	21.931
612.73	22.263
613.07	23.330
613.40	22.012
613.73	21.814
614.06	21.720
614.39	22.444
614.72	22.158
615.06	22.584
615.39	21.550
615.72	21.370
616.05	21.478
616.38	21.123
616.71	21.734
617.05	21.967
617.38	22.008
617.71	22.102
618.04	23.197
618.37	22.413
618.70	22.340
619.03	23.224
619.36	23.286
619.69	23.169
620.03	23.283
620.36	23.262
620.69	22.808
621.02	24.041
621.35	22.944
621.68	22.975
622.01	23.375
622.34	23.147
622.67	23.498
623.00	23.698
623.33	22.945
623.66	23.016
623.99	22.901
624.32	22.397
624.65	22.458
624.99	22.309
625.32	23.389
625.65	23.967
625.98	23.520
626.31	24.106
626.64	24.163
626.97	23.525
627.30	23.691
627.63	24.610
627.96	25.231
628.29	24.847
628.62	24.977
628.95	25.566
629.28	25.000
629.61	26.489
629.94	25.524
630.26	24.595
630.59	25.834
630.92	25.192
631.25	25.864
631.58	25.726
631.91	26.065
632.24	23.840
632.57	25.289
632.90	25.000
