SpectraSuite Data File
++++++++++++++++++++++++++++++++++++
Date: Wed May 13 16:11:20 PDT 2015
User: schluterlab
Dark Spectrum Present: Yes
Reference Spectrum Present: Yes
Number of Sampled Component Spectra: 1
Spectrometers: USB2E3373
Integration Time (usec): 3000 (USB2E3373)
Spectra Averaged: 3 (USB2E3373)
Boxcar Smoothing: 0 (USB2E3373)
Correct for Electrical Dark: No (USB2E3373)
Strobe/Lamp Enabled: No (USB2E3373)
Correct for Detector Non-linearity: No (USB2E3373)
Correct for Stray Light: No (USB2E3373)
Number of Pixels in Processed Spectrum: 2048
>>>>>Begin Processed Spectral Data<<<<<
178.53	0.000
178.91	-1125.000
179.29	-875.000
179.67	-150.000
180.04	-900.000
180.42	1650.000
180.80	860.000
181.18	-850.000
181.56	557.143
181.94	0.000
182.31	-528.571
182.69	1200.000
183.07	-325.000
183.45	-388.889
183.83	445.455
184.20	-260.000
184.58	2050.000
184.96	3700.000
185.34	-660.000
185.72	-400.000
186.09	-1600.000
186.47	1800.000
186.85	1300.000
187.23	3500.000
187.61	-966.667
187.98	925.000
188.36	409.091
188.74	381.818
189.12	-700.000
189.49	450.000
189.87	-2500.000
190.25	-1000.000
190.63	300.000
191.00	300.000
191.38	583.333
191.76	-975.000
192.14	1125.000
192.51	537.500
192.89	716.667
193.27	500.000
193.65	-875.000
194.02	310.000
194.40	660.000
194.78	470.000
195.15	450.000
195.53	520.000
195.91	-1250.000
196.29	312.500
196.66	289.474
197.04	-290.000
197.42	0.000
197.79	490.000
198.17	-3500.000
198.55	457.143
198.92	475.000
199.30	800.000
199.68	0.000
200.05	222.222
200.43	557.143
200.81	3600.000
201.18	1100.000
201.56	-1033.333
201.94	377.778
202.31	477.778
202.69	275.000
203.07	390.000
203.44	0.000
203.82	950.000
204.19	542.857
204.57	350.000
204.95	525.000
205.32	866.667
205.70	418.182
206.08	271.429
206.45	2050.000
206.83	243.750
207.20	700.000
207.58	500.000
207.96	211.111
208.33	500.000
208.71	-683.333
209.08	657.143
209.46	444.444
209.84	345.455
210.21	-1133.333
210.59	1100.000
210.96	-262.500
211.34	1750.000
211.71	410.000
212.09	566.667
212.46	0.000
212.84	1466.667
213.22	1000.000
213.59	-4300.000
213.97	666.667
214.34	600.000
214.72	463.636
215.09	740.000
215.47	-1800.000
215.84	-1550.000
216.22	1133.333
216.59	292.857
216.97	750.000
217.34	372.727
217.72	-700.000
218.09	0.000
218.47	-3800.000
218.84	644.444
219.22	514.286
219.59	1200.000
219.97	-485.714
220.34	820.000
220.72	-1066.667
221.09	257.143
221.47	1150.000
221.84	-616.667
222.22	0.000
222.59	1025.000
222.97	-2250.000
223.34	980.000
223.72	415.385
224.09	960.000
224.46	1700.000
224.84	-3500.000
225.21	-700.000
225.59	-3000.000
225.96	500.000
226.34	205.000
226.71	1700.000
227.08	512.500
227.46	360.000
227.83	-800.000
228.21	-1400.000
228.58	511.111
228.95	-1350.000
229.33	-1650.000
229.70	1433.333
230.08	600.000
230.45	-560.000
230.82	400.000
231.20	533.333
231.57	514.286
231.95	325.000
232.32	177.273
232.69	236.364
233.07	514.286
233.44	269.231
233.81	-1466.667
234.19	215.789
234.56	333.333
234.93	266.667
235.31	290.909
235.68	246.154
236.05	257.143
236.43	103.030
236.80	173.684
237.17	2400.000
237.55	142.857
237.92	128.571
238.29	161.905
238.67	93.548
239.04	151.724
239.41	91.667
239.79	95.652
240.16	95.238
240.53	102.273
240.91	68.627
241.28	70.000
241.65	56.000
242.02	79.710
242.40	56.452
242.77	38.333
243.14	54.839
243.51	50.562
243.89	49.412
244.26	38.889
244.63	38.710
245.00	39.362
245.38	33.663
245.75	33.645
246.12	30.275
246.49	37.956
246.87	34.400
247.24	28.462
247.61	29.286
247.98	25.490
248.36	18.243
248.73	22.293
249.10	29.936
249.47	23.729
249.84	21.925
250.22	19.786
250.59	14.793
250.96	23.232
251.33	23.223
251.70	23.762
252.08	20.000
252.45	18.834
252.82	19.130
253.19	19.149
253.56	19.608
253.94	17.842
254.31	19.531
254.68	16.154
255.05	16.236
255.42	16.260
255.79	13.235
256.16	16.968
256.54	9.894
256.91	16.014
257.28	10.432
257.65	15.182
258.02	16.460
258.39	12.303
258.76	14.381
259.14	16.071
259.51	12.766
259.88	11.491
260.25	12.689
260.62	13.584
260.99	9.938
261.36	15.315
261.73	10.888
262.10	8.140
262.47	12.676
262.85	14.206
263.22	9.117
263.59	12.821
263.96	12.088
264.33	12.794
264.70	10.000
265.07	13.299
265.44	9.343
265.81	10.219
266.18	11.558
266.55	11.463
266.92	9.828
267.29	13.426
267.66	8.716
268.03	10.682
268.40	8.178
268.77	10.979
269.14	9.685
269.51	9.932
269.88	6.993
270.25	11.512
270.62	9.663
270.99	12.043
271.36	11.588
271.73	9.579
272.10	8.261
272.47	12.688
272.84	12.771
273.21	12.369
273.58	8.515
273.95	10.063
274.32	8.471
274.69	9.636
275.06	8.268
275.43	8.936
275.80	10.020
276.17	9.165
276.54	10.187
276.91	9.486
277.28	8.984
277.65	10.832
278.02	7.039
278.39	8.398
278.76	8.545
279.13	9.245
279.50	8.752
279.87	7.769
280.23	8.982
280.60	7.157
280.97	8.318
281.34	10.088
281.71	8.000
282.08	8.061
282.45	7.455
282.82	7.282
283.19	6.061
283.56	10.175
283.92	8.460
284.29	6.526
284.66	7.804
285.03	7.052
285.40	6.866
285.77	8.418
286.14	5.527
286.51	8.167
286.87	8.376
287.24	9.283
287.61	6.581
287.98	7.792
288.35	8.241
288.72	9.813
289.08	7.355
289.45	7.578
289.82	7.642
290.19	7.221
290.56	7.657
290.93	6.344
291.29	6.902
291.66	6.785
292.03	10.174
292.40	8.811
292.77	6.805
293.13	7.164
293.50	9.184
293.87	6.667
294.24	7.111
294.60	6.841
294.97	6.831
295.34	7.757
295.71	8.523
296.08	6.125
296.44	7.015
296.81	6.605
297.18	9.756
297.55	6.201
297.91	5.673
298.28	6.961
298.65	6.789
299.02	6.851
299.38	5.710
299.75	5.256
300.12	5.364
300.48	6.500
300.85	7.398
301.22	6.242
301.59	5.051
301.95	6.045
302.32	5.648
302.69	6.093
303.05	5.939
303.42	4.815
303.79	6.795
304.15	5.361
304.52	5.562
304.89	5.575
305.25	6.032
305.62	6.908
305.99	5.549
306.35	5.593
306.72	5.493
307.09	5.993
307.45	6.757
307.82	5.357
308.19	5.960
308.55	5.717
308.92	5.908
309.29	4.963
309.65	5.196
310.02	5.180
310.38	6.452
310.75	5.385
311.12	5.937
311.48	5.120
311.85	6.289
312.22	5.411
312.58	5.094
312.95	6.019
313.31	6.019
313.68	6.965
314.05	7.199
314.41	5.628
314.78	5.841
315.14	6.157
315.51	5.355
315.87	6.337
316.24	5.362
316.61	5.361
316.97	4.990
317.34	4.599
317.70	5.736
318.07	5.582
318.43	6.360
318.80	5.717
319.16	5.838
319.53	5.253
319.89	6.667
320.26	5.500
320.62	6.151
320.99	6.869
321.35	6.566
321.72	6.057
322.08	6.022
322.45	6.070
322.81	6.686
323.18	6.455
323.54	5.659
323.91	6.604
324.27	4.876
324.64	4.846
325.00	5.681
325.37	5.551
325.73	6.643
326.10	5.560
326.46	5.376
326.83	6.212
327.19	5.038
327.56	5.052
327.92	5.512
328.29	5.413
328.65	6.538
329.01	5.957
329.38	4.625
329.74	5.817
330.11	4.807
330.47	6.703
330.84	7.077
331.20	5.191
331.56	5.596
331.93	5.463
332.29	5.590
332.66	6.460
333.02	5.210
333.38	6.143
333.75	6.061
334.11	5.249
334.48	5.235
334.84	5.882
335.20	5.455
335.57	5.077
335.93	4.643
336.29	4.670
336.66	5.771
337.02	3.891
337.38	5.833
337.75	5.080
338.11	5.282
338.47	4.236
338.84	5.408
339.20	4.679
339.56	6.661
339.93	4.636
340.29	5.163
340.65	5.169
341.02	5.759
341.38	5.783
341.74	5.000
342.11	5.153
342.47	5.374
342.83	5.137
343.20	5.455
343.56	5.476
343.92	5.175
344.28	5.187
344.65	5.245
345.01	4.630
345.37	4.374
345.73	4.653
346.10	5.030
346.46	5.000
346.82	4.942
347.19	3.843
347.55	4.598
347.91	5.178
348.27	5.012
348.63	5.100
349.00	4.693
349.36	4.187
349.72	5.132
350.08	4.052
350.45	5.696
350.81	4.712
351.17	5.024
351.53	4.423
351.89	3.795
352.26	5.525
352.62	4.812
352.98	4.376
353.34	5.670
353.70	4.255
354.07	5.242
354.43	5.397
354.79	4.183
355.15	4.629
355.51	4.636
355.87	5.224
356.24	5.130
356.60	4.892
356.96	4.586
357.32	4.824
357.68	5.197
358.04	5.067
358.40	5.938
358.77	5.477
359.13	4.736
359.49	4.784
359.85	2.460
360.21	4.545
360.57	4.669
360.93	4.769
361.29	5.064
361.66	4.025
362.02	5.149
362.38	4.563
362.74	4.390
363.10	3.405
363.46	4.329
363.82	4.384
364.18	5.360
364.54	4.681
364.90	4.391
365.26	4.926
365.62	5.625
365.98	3.652
366.35	4.011
366.71	4.700
367.07	4.953
367.43	3.919
367.79	5.567
368.15	6.106
368.51	3.779
368.87	4.425
369.23	3.731
369.59	4.562
369.95	4.191
370.31	4.202
370.67	5.507
371.03	5.243
371.39	4.883
371.75	4.632
372.11	4.908
372.47	4.912
372.83	4.899
373.19	4.335
373.55	5.026
373.91	5.523
374.27	4.467
374.63	4.073
374.99	4.944
375.35	4.187
375.71	4.866
376.07	4.527
376.42	4.539
376.78	5.036
377.14	4.003
377.50	4.834
377.86	4.455
378.22	5.373
378.58	4.135
378.94	4.148
379.30	4.389
379.66	4.569
380.02	5.037
380.38	4.918
380.74	5.282
381.09	4.829
381.45	5.163
381.81	5.651
382.17	5.287
382.53	5.283
382.89	4.753
383.25	5.003
383.61	5.700
383.97	4.753
384.32	5.053
384.68	4.771
385.04	5.532
385.40	4.396
385.76	4.791
386.12	5.440
386.48	5.664
386.83	5.581
387.19	6.061
387.55	5.628
387.91	5.441
388.27	4.598
388.62	5.839
388.98	5.037
389.34	5.444
389.70	5.763
390.06	5.513
390.42	5.253
390.77	5.980
391.13	5.361
391.49	6.155
391.85	5.220
392.20	4.732
392.56	5.682
392.92	5.650
393.28	4.970
393.64	5.695
393.99	6.109
394.35	5.645
394.71	6.023
395.07	5.981
395.42	4.944
395.78	5.471
396.14	6.331
396.50	6.266
396.85	5.785
397.21	6.104
397.57	5.456
397.92	5.950
398.28	5.437
398.64	6.153
399.00	6.547
399.35	6.091
399.71	6.192
400.07	5.795
400.42	6.871
400.78	6.755
401.14	5.366
401.49	5.194
401.85	5.626
402.21	5.749
402.57	5.737
402.92	6.242
403.28	6.121
403.63	5.507
403.99	5.669
404.35	6.061
404.70	6.715
405.06	5.475
405.42	5.989
405.77	5.086
406.13	6.208
406.49	5.441
406.84	6.261
407.20	5.615
407.55	6.445
407.91	6.067
408.27	5.935
408.62	6.201
408.98	5.576
409.34	5.904
409.69	5.355
410.05	5.824
410.40	5.505
410.76	5.257
411.11	6.031
411.47	5.751
411.83	6.048
412.18	6.061
412.54	5.604
412.89	6.566
413.25	6.021
413.60	5.868
413.96	5.464
414.31	5.772
414.67	6.527
415.03	5.430
415.38	6.250
415.74	5.852
416.09	6.270
416.45	6.359
416.80	5.354
417.16	6.434
417.51	6.702
417.87	5.845
418.22	6.057
418.58	6.327
418.93	6.388
419.29	6.047
419.64	6.297
420.00	6.098
420.35	6.667
420.71	5.918
421.06	6.802
421.42	5.906
421.77	6.558
422.12	5.783
422.48	5.181
422.83	6.232
423.19	5.691
423.54	6.036
423.90	6.435
424.25	6.030
424.61	6.012
424.96	6.122
425.31	5.925
425.67	5.562
426.02	6.057
426.38	6.105
426.73	6.144
427.09	5.714
427.44	6.210
427.79	6.671
428.15	6.131
428.50	5.793
428.85	7.151
429.21	5.577
429.56	5.806
429.92	6.241
430.27	6.405
430.62	5.376
430.98	6.227
431.33	6.340
431.68	6.021
432.04	5.804
432.39	6.910
432.74	6.643
433.10	6.225
433.45	6.414
433.80	5.654
434.16	6.464
434.51	5.842
434.86	6.613
435.22	6.115
435.57	6.383
435.92	5.851
436.28	5.753
436.63	7.009
436.98	6.068
437.34	6.500
437.69	6.126
438.04	5.677
438.39	6.388
438.75	6.740
439.10	6.257
439.45	6.671
439.81	5.982
440.16	5.929
440.51	6.327
440.86	5.848
441.22	5.673
441.57	5.786
441.92	6.499
442.27	5.920
442.63	6.161
442.98	6.873
443.33	6.413
443.68	6.144
444.03	6.003
444.39	5.209
444.74	6.277
445.09	6.577
445.44	5.741
445.79	6.779
446.15	6.564
446.50	6.031
446.85	6.012
447.20	6.323
447.55	6.198
447.91	6.509
448.26	6.288
448.61	6.275
448.96	6.755
449.31	5.906
449.66	6.021
450.02	5.905
450.37	5.612
450.72	5.753
451.07	6.033
451.42	5.775
451.77	6.635
452.12	6.178
452.47	6.716
452.83	6.294
453.18	6.051
453.53	6.803
453.88	6.143
454.23	6.276
454.58	6.663
454.93	6.357
455.28	6.796
455.63	6.675
455.98	7.262
456.34	6.344
456.69	7.013
457.04	6.502
457.39	5.669
457.74	6.036
458.09	6.038
458.44	6.328
458.79	5.803
459.14	6.490
459.49	6.772
459.84	5.485
460.19	6.659
460.54	6.076
460.89	6.418
461.24	6.618
461.59	7.263
461.94	6.227
462.29	6.944
462.64	5.552
462.99	6.636
463.34	7.000
463.69	6.129
464.04	6.783
464.39	6.957
464.74	7.130
465.09	5.971
465.44	6.537
465.79	5.705
466.14	6.842
466.49	6.174
466.84	6.188
467.19	7.302
467.54	6.750
467.89	6.062
468.24	6.283
468.59	7.204
468.94	7.147
469.29	5.848
469.64	7.631
469.99	6.901
470.34	6.209
470.68	7.399
471.03	6.327
471.38	7.227
471.73	6.729
472.08	7.368
472.43	6.407
472.78	6.912
473.13	7.574
473.48	6.492
473.83	6.463
474.17	5.974
474.52	6.886
474.87	7.064
475.22	6.152
475.57	6.179
475.92	6.320
476.27	6.257
476.61	6.453
476.96	6.927
477.31	5.965
477.66	6.346
478.01	5.907
478.36	6.187
478.70	5.763
479.05	6.603
479.40	5.988
479.75	6.304
480.10	5.815
480.45	6.330
480.79	5.686
481.14	5.773
481.49	6.075
481.84	6.036
482.19	5.679
482.53	5.550
482.88	6.654
483.23	5.981
483.58	5.960
483.92	5.717
484.27	5.272
484.62	5.819
484.97	5.991
485.31	5.582
485.66	4.966
486.01	4.348
486.36	4.302
486.70	4.301
487.05	4.488
487.40	4.928
487.75	4.737
488.09	5.551
488.44	4.970
488.79	5.642
489.13	5.882
489.48	5.710
489.83	5.611
490.17	6.225
490.52	6.422
490.87	5.518
491.22	5.593
491.56	5.376
491.91	5.724
492.26	5.788
492.60	5.622
492.95	6.034
493.30	5.841
493.64	6.020
493.99	6.035
494.34	6.383
494.68	6.639
495.03	5.592
495.37	5.584
495.72	5.799
496.07	6.125
496.41	5.841
496.76	5.849
497.11	6.168
497.45	5.682
497.80	6.094
498.14	5.749
498.49	5.756
498.84	6.376
499.18	6.000
499.53	6.220
499.87	5.685
500.22	6.359
500.56	6.699
500.91	6.250
501.26	6.354
501.60	6.028
501.95	5.545
502.29	6.514
502.64	6.285
502.98	5.704
503.33	6.079
503.67	5.940
504.02	5.847
504.36	6.270
504.71	6.058
505.06	6.602
505.40	5.688
505.75	6.172
506.09	5.637
506.44	5.673
506.78	6.283
507.13	6.159
507.47	6.515
507.82	7.345
508.16	6.484
508.51	6.697
508.85	6.207
509.19	6.480
509.54	6.735
509.88	6.337
510.23	6.427
510.57	7.276
510.92	6.732
511.26	6.783
511.61	6.691
511.95	6.159
512.30	6.151
512.64	6.179
512.98	7.181
513.33	7.816
513.67	6.457
514.02	6.494
514.36	6.991
514.70	7.582
515.05	6.023
515.39	6.955
515.74	6.982
516.08	7.658
516.42	6.659
516.77	7.804
517.11	6.382
517.46	7.562
517.80	6.969
518.14	6.427
518.49	7.410
518.83	7.955
519.17	7.044
519.52	6.961
519.86	7.074
520.20	7.399
520.55	7.421
520.89	7.482
521.23	7.841
521.58	6.963
521.92	7.532
522.26	6.528
522.61	7.414
522.95	6.568
523.29	6.999
523.64	8.354
523.98	7.394
524.32	7.358
524.66	7.336
525.01	7.659
525.35	7.063
525.69	7.882
526.04	7.788
526.38	8.115
526.72	8.221
527.06	7.407
527.41	6.869
527.75	7.846
528.09	7.450
528.43	7.457
528.78	8.543
529.12	7.152
529.46	7.287
529.80	7.673
530.15	8.287
530.49	7.754
530.83	8.038
531.17	8.029
531.51	8.236
531.86	7.419
532.20	9.322
532.54	8.264
532.88	7.317
533.22	7.745
533.57	7.963
533.91	7.164
534.25	7.959
534.59	7.932
534.93	7.852
535.27	6.940
535.62	7.692
535.96	7.407
536.30	7.374
536.64	7.791
536.98	8.029
537.32	7.307
537.66	7.267
538.01	7.242
538.35	8.533
538.69	8.998
539.03	7.147
539.37	7.284
539.71	7.323
540.05	8.105
540.39	7.110
540.73	7.180
541.07	8.825
541.42	8.350
541.76	7.484
542.10	8.344
542.44	7.020
542.78	8.893
543.12	7.166
543.46	8.459
543.80	8.133
544.14	8.344
544.48	8.000
544.82	7.697
545.16	7.807
545.50	7.841
545.84	7.863
546.18	7.475
546.52	7.983
546.86	7.766
547.20	8.766
547.54	7.548
547.88	8.673
548.22	8.157
548.56	7.736
548.90	7.618
549.24	7.273
549.58	8.799
549.92	8.310
550.26	8.168
550.60	8.506
550.94	7.535
551.28	7.827
551.62	7.692
551.96	7.228
552.30	7.235
552.64	8.519
552.98	8.203
553.32	8.159
553.66	8.521
554.00	8.236
554.34	7.660
554.68	8.298
555.02	8.745
555.36	7.724
555.69	8.051
556.03	7.941
556.37	8.322
556.71	7.572
557.05	7.983
557.39	8.467
557.73	7.692
558.07	7.469
558.41	8.466
558.75	8.376
559.08	8.949
559.42	7.861
559.76	8.309
560.10	7.566
560.44	7.477
560.78	7.585
561.12	7.718
561.45	8.670
561.79	8.174
562.13	7.109
562.47	8.402
562.81	7.880
563.15	7.960
563.48	9.019
563.82	8.154
564.16	7.521
564.50	7.292
564.84	8.154
565.17	7.014
565.51	7.348
565.85	7.424
566.19	8.328
566.52	7.283
566.86	7.474
567.20	7.134
567.54	6.963
567.88	6.192
568.21	8.095
568.55	7.027
568.89	7.053
569.23	6.774
569.56	6.437
569.90	6.189
570.24	5.992
570.57	6.256
570.91	5.656
571.25	5.744
571.59	6.097
571.92	5.530
572.26	6.008
572.60	6.066
572.93	5.667
573.27	6.241
573.61	5.695
573.95	5.685
574.28	5.578
574.62	5.588
574.96	5.591
575.29	5.601
575.63	5.513
575.97	5.624
576.30	5.789
576.64	5.408
576.98	5.275
577.31	5.360
577.65	5.342
577.98	5.267
578.32	5.222
578.66	5.388
578.99	5.364
579.33	5.592
579.67	5.351
580.00	5.155
580.34	5.482
580.67	5.176
581.01	5.487
581.35	5.073
581.68	5.375
582.02	5.038
582.35	5.063
582.69	5.249
583.02	5.231
583.36	5.372
583.70	5.295
584.03	5.799
584.37	5.955
584.70	5.643
585.04	5.773
585.37	5.522
585.71	5.827
586.04	5.460
586.38	5.643
586.72	5.910
587.05	5.515
587.39	5.541
587.72	5.591
588.06	5.470
588.39	5.652
588.73	5.485
589.06	6.139
589.40	6.128
589.73	6.089
590.07	6.014
590.40	6.284
590.73	6.440
591.07	6.431
591.40	6.580
591.74	6.840
592.07	6.850
592.41	6.366
592.74	6.180
593.08	6.163
593.41	5.979
593.75	5.871
594.08	6.001
594.41	6.080
594.75	6.174
595.08	6.228
595.42	6.410
595.75	5.947
596.09	6.722
596.42	6.916
596.75	6.669
597.09	7.186
597.42	6.282
597.75	6.425
598.09	6.696
598.42	6.658
598.76	5.715
599.09	6.119
599.42	6.550
599.76	6.332
600.09	6.266
600.42	5.990
600.76	6.000
601.09	5.938
601.42	5.898
601.76	6.414
602.09	6.245
602.42	6.409
602.76	6.731
603.09	6.452
603.42	6.521
603.76	6.631
604.09	5.855
604.42	6.482
604.76	6.833
605.09	6.204
605.42	6.584
605.75	6.457
606.09	6.181
606.42	6.171
606.75	6.553
607.09	6.907
607.42	5.905
607.75	5.865
608.08	6.209
608.42	7.082
608.75	6.673
609.08	6.198
609.41	6.616
609.75	6.717
610.08	6.927
610.41	6.425
610.74	5.960
611.07	6.472
611.41	6.575
611.74	6.938
612.07	6.832
612.40	6.243
612.73	7.263
613.07	7.058
613.40	7.109
613.73	5.978
614.06	6.559
614.39	7.027
614.72	7.316
615.06	7.300
615.39	7.006
615.72	6.902
616.05	6.433
616.38	7.282
616.71	7.185
617.05	7.833
617.38	6.915
617.71	6.667
618.04	7.031
618.37	6.801
618.70	7.343
619.03	8.026
619.36	7.196
619.69	7.324
620.03	8.448
620.36	8.890
620.69	7.945
621.02	7.743
621.35	8.301
621.68	6.854
622.01	8.591
622.34	8.775
622.67	7.985
623.00	7.410
623.33	7.219
623.66	8.149
623.99	7.953
624.32	7.775
624.65	7.274
624.99	6.586
625.32	7.820
625.65	8.264
625.98	8.148
626.31	9.409
626.64	8.653
626.97	8.645
627.30	7.897
627.63	8.860
627.96	8.074
628.29	8.224
628.62	9.424
628.95	9.434
629.28	9.489
629.61	9.624
629.94	8.571
630.26	8.008
630.59	9.056
630.92	9.483
631.25	8.490
631.58	9.309
631.91	8.316
632.24	9.283
632.57	10.493
632.90	10.197
633.23	10.626
633.56	9.040
633.89	10.079
634.22	9.308
634.55	9.467
634.88	8.623
635.20	11.350
635.53	10.964
635.86	9.530
636.19	9.882
636.52	9.689
636.85	10.309
637.18	9.793
637.51	10.638
637.83	7.645
638.16	9.335
638.49	11.083
638.82	10.493
639.15	9.875
639.48	10.474
639.81	11.260
640.13	10.938
640.46	9.128
640.79	11.625
641.12	8.941
641.45	11.173
641.77	10.309
642.10	10.673
642.43	11.111
642.76	11.610
643.09	12.577
643.41	11.836
643.74	13.117
644.07	12.043
644.40	12.423
644.73	12.126
645.05	12.995
645.38	11.058
645.71	10.628
646.04	12.458
646.36	13.189
646.69	10.535
647.02	12.075
647.35	11.340
647.67	12.566
648.00	13.171
648.33	9.571
648.66	10.909
648.98	12.744
649.31	9.118
649.64	11.510
649.96	9.985
650.29	10.900
650.62	10.032
650.94	12.480
651.27	12.669
651.60	11.481
651.92	11.661
652.25	10.098
652.58	12.305
652.90	12.322
653.23	11.094
653.56	10.866
653.88	12.837
654.21	11.848
