SpectraSuite Data File
++++++++++++++++++++++++++++++++++++
Date: Wed May 13 15:59:57 PDT 2015
User: schluterlab
Dark Spectrum Present: Yes
Reference Spectrum Present: Yes
Number of Sampled Component Spectra: 1
Spectrometers: USB2E3373
Integration Time (usec): 3000 (USB2E3373)
Spectra Averaged: 3 (USB2E3373)
Boxcar Smoothing: 0 (USB2E3373)
Correct for Electrical Dark: No (USB2E3373)
Strobe/Lamp Enabled: No (USB2E3373)
Correct for Detector Non-linearity: No (USB2E3373)
Correct for Stray Light: No (USB2E3373)
Number of Pixels in Processed Spectrum: 2048
>>>>>Begin Processed Spectral Data<<<<<
178.53	0.000
178.91	-150.000
179.29	-325.000
179.67	-33.333
180.04	-500.000
180.42	750.000
180.80	240.000
181.18	-100.000
181.56	100.000
181.94	0.000
182.31	-114.286
182.69	300.000
183.07	-112.500
183.45	-144.444
183.83	181.818
184.20	-10.000
184.58	650.000
184.96	1500.000
185.34	20.000
185.72	-137.500
186.09	-650.000
186.47	800.000
186.85	850.000
187.23	2200.000
187.61	-300.000
187.98	400.000
188.36	200.000
188.74	181.818
189.12	-240.000
189.49	220.000
189.87	-1100.000
190.25	-225.000
190.63	71.429
191.00	169.231
191.38	133.333
191.76	-75.000
192.14	425.000
192.51	162.500
192.89	283.333
193.27	125.000
193.65	-175.000
194.02	150.000
194.40	280.000
194.78	130.000
195.15	191.667
195.53	280.000
195.91	150.000
196.29	93.750
196.66	115.789
197.04	80.000
197.42	0.000
197.79	240.000
198.17	-900.000
198.55	28.571
198.92	275.000
199.30	320.000
199.68	0.000
200.05	138.889
200.43	242.857
200.81	2100.000
201.18	400.000
201.56	-166.667
201.94	177.778
202.31	222.222
202.69	108.333
203.07	190.000
203.44	0.000
203.82	400.000
204.19	128.571
204.57	135.714
204.95	212.500
205.32	233.333
205.70	190.909
206.08	78.571
206.45	350.000
206.83	87.500
207.20	366.667
207.58	-20.000
207.96	72.222
208.33	237.500
208.71	-216.667
209.08	214.286
209.46	122.222
209.84	127.273
210.21	-300.000
210.59	400.000
210.96	-37.500
211.34	850.000
211.71	290.000
212.09	216.667
212.46	0.000
212.84	333.333
213.22	275.000
213.59	-1600.000
213.97	16.667
214.34	200.000
214.72	290.909
215.09	260.000
215.47	-50.000
215.84	-250.000
216.22	266.667
216.59	200.000
216.97	275.000
217.34	72.727
217.72	-50.000
218.09	0.000
218.47	-1100.000
218.84	311.111
219.22	242.857
219.59	366.667
219.97	-142.857
220.34	220.000
220.72	-300.000
221.09	142.857
221.47	600.000
221.84	-300.000
222.22	0.000
222.59	475.000
222.97	-250.000
223.34	380.000
223.72	146.154
224.09	440.000
224.46	400.000
224.84	-1200.000
225.21	-260.000
225.59	-300.000
225.96	250.000
226.34	145.000
226.71	850.000
227.08	250.000
227.46	180.000
227.83	-225.000
228.21	-550.000
228.58	155.556
228.95	-450.000
229.33	-450.000
229.70	500.000
230.08	214.286
230.45	-40.000
230.82	66.667
231.20	166.667
231.57	100.000
231.95	75.000
232.32	77.273
232.69	27.273
233.07	142.857
233.44	92.308
233.81	-400.000
234.19	121.053
234.56	100.000
234.93	75.000
235.31	200.000
235.68	0.000
236.05	92.857
236.43	66.667
236.80	42.105
237.17	900.000
237.55	80.952
237.92	57.143
238.29	42.857
238.67	58.065
239.04	58.621
239.41	50.000
239.79	30.435
240.16	45.238
240.53	31.818
240.91	35.294
241.28	10.000
241.65	42.000
242.02	40.580
242.40	20.968
242.77	26.667
243.14	26.882
243.51	40.449
243.89	36.471
244.26	23.333
244.63	24.731
245.00	18.085
245.38	19.802
245.75	28.972
246.12	25.688
246.49	30.657
246.87	29.600
247.24	28.462
247.61	28.571
247.98	27.451
248.36	18.243
248.73	23.567
249.10	21.019
249.47	24.294
249.84	26.203
250.22	22.460
250.59	20.710
250.96	24.242
251.33	26.540
251.70	22.772
252.08	21.905
252.45	17.489
252.82	16.087
253.19	20.851
253.56	21.176
253.94	23.651
254.31	20.703
254.68	20.769
255.05	19.926
255.42	20.325
255.79	22.059
256.16	23.105
256.54	17.314
256.91	20.996
257.28	14.029
257.65	17.162
258.02	17.391
258.39	17.035
258.76	15.050
259.14	21.726
259.51	18.237
259.88	19.876
260.25	21.148
260.62	17.341
260.99	18.944
261.36	18.919
261.73	19.771
262.10	18.023
262.47	17.746
262.85	18.663
263.22	13.675
263.59	19.373
263.96	18.132
264.33	17.232
264.70	17.632
265.07	19.693
265.44	17.424
265.81	14.599
266.18	17.588
266.55	15.366
266.92	20.885
267.29	17.593
267.66	17.431
268.03	17.955
268.40	17.991
268.77	15.990
269.14	15.766
269.51	18.736
269.88	17.249
270.25	16.253
270.62	17.528
270.99	18.925
271.36	17.811
271.73	14.953
272.10	16.522
272.47	19.570
272.84	18.831
273.21	17.610
273.58	17.031
273.95	15.304
274.32	17.562
274.69	15.632
275.06	15.748
275.43	16.383
275.80	15.431
276.17	13.442
276.54	18.087
276.91	17.391
277.28	16.406
277.65	17.795
278.02	18.012
278.39	18.945
278.76	17.455
279.13	16.604
279.50	18.063
279.87	17.530
280.23	16.966
280.60	15.087
280.97	16.821
281.34	17.345
281.71	18.000
282.08	16.891
282.45	14.364
282.82	18.472
283.19	16.043
283.56	15.088
283.92	17.259
284.29	15.873
284.66	16.515
285.03	14.647
285.40	16.373
285.77	16.330
286.14	14.162
286.51	16.667
286.87	16.068
287.24	15.798
287.61	14.125
287.98	14.773
288.35	14.422
288.72	16.511
289.08	15.493
289.45	13.180
289.82	14.959
290.19	13.972
290.56	14.089
290.93	13.746
291.29	13.497
291.66	14.454
292.03	14.390
292.40	13.803
292.77	14.497
293.13	14.478
293.50	13.557
293.87	13.630
294.24	12.444
294.60	12.955
294.97	13.517
295.34	12.553
295.71	14.915
296.08	12.821
296.44	13.755
296.81	12.153
297.18	14.499
297.55	11.346
297.91	12.929
298.28	14.592
298.65	11.749
299.02	13.966
299.38	12.749
299.75	10.243
300.12	11.877
300.48	13.125
300.85	13.317
301.22	13.121
301.59	9.722
301.95	12.343
302.32	13.350
302.69	12.545
303.05	12.121
303.42	12.469
303.79	13.477
304.15	11.189
304.52	12.167
304.89	11.963
305.25	11.717
305.62	13.137
305.99	13.341
306.35	13.423
306.72	12.780
307.09	14.428
307.45	12.613
307.82	12.500
308.19	12.362
308.55	13.916
308.92	13.212
309.29	12.249
309.65	12.619
310.02	13.636
310.38	13.763
310.75	12.038
311.12	12.282
311.48	13.584
311.85	14.361
312.22	13.736
312.58	13.306
312.95	13.516
313.31	13.786
313.68	14.761
314.05	14.892
314.41	13.869
314.78	13.998
315.14	15.789
315.51	14.521
315.87	14.950
316.24	14.499
316.61	13.548
316.97	14.481
317.34	13.992
317.70	15.201
318.07	14.533
318.43	16.243
318.80	16.120
319.16	15.537
319.53	13.696
319.89	15.238
320.26	15.700
320.62	15.675
320.99	17.071
321.35	16.768
321.72	15.400
322.08	17.177
322.45	17.512
322.81	17.248
323.18	17.823
323.54	18.182
323.91	18.396
324.27	18.069
324.64	17.521
325.00	17.674
325.37	18.380
325.73	19.749
326.10	18.358
326.46	18.190
326.83	19.154
327.19	19.727
327.56	20.122
327.92	19.073
328.29	21.029
328.65	19.982
329.01	20.126
329.38	19.981
329.74	18.006
330.11	20.170
330.47	20.661
330.84	20.680
331.20	19.217
331.56	19.725
331.93	19.815
332.29	19.965
332.66	20.796
333.02	20.110
333.38	20.235
333.75	19.697
334.11	21.619
334.48	20.408
334.84	19.761
335.20	21.273
335.57	20.671
335.93	18.929
336.29	19.597
336.66	20.649
337.02	19.186
337.38	21.296
337.75	20.232
338.11	20.501
338.47	20.534
338.84	20.715
339.20	19.817
339.56	20.620
339.93	20.000
340.29	19.656
340.65	19.073
341.02	19.895
341.38	20.374
341.74	19.737
342.11	19.651
342.47	21.233
342.83	20.719
343.20	20.346
343.56	20.219
343.92	19.211
344.28	19.643
344.65	20.722
345.01	19.613
345.37	18.268
345.73	19.289
346.10	19.864
346.46	21.271
346.82	19.852
347.19	19.799
347.55	19.622
347.91	20.388
348.27	20.214
348.63	18.478
349.00	20.146
349.36	20.033
349.72	19.487
350.08	19.530
350.45	20.993
350.81	19.740
351.17	19.692
351.53	20.147
351.89	18.729
352.26	19.732
352.62	20.048
352.98	20.827
353.34	20.049
353.70	19.722
354.07	19.839
354.43	18.889
354.79	18.665
355.15	19.872
355.51	19.744
355.87	20.653
356.24	19.463
356.60	18.444
356.96	19.952
357.32	20.442
357.68	21.181
358.04	19.952
358.40	20.428
358.77	19.875
359.13	18.627
359.49	20.627
359.85	19.524
360.21	18.979
360.57	21.089
360.93	20.692
361.29	19.577
361.66	19.272
362.02	20.448
362.38	20.304
362.74	21.205
363.10	20.133
363.46	19.736
363.82	20.862
364.18	20.117
364.54	20.282
364.90	20.326
365.26	21.324
365.62	20.891
365.98	19.722
366.35	19.986
366.71	20.390
367.07	19.155
367.43	21.190
367.79	20.557
368.15	22.055
368.51	19.913
368.87	20.557
369.23	20.849
369.59	22.230
369.95	21.103
370.31	21.225
370.67	21.159
371.03	22.397
371.39	21.429
371.75	21.176
372.11	21.693
372.47	20.968
372.83	22.406
373.19	21.821
373.55	22.542
373.91	22.386
374.27	22.199
374.63	22.182
374.99	21.610
375.35	21.842
375.71	21.796
376.07	22.359
376.42	21.527
376.78	22.863
377.14	21.777
377.50	23.179
377.86	22.673
378.22	22.124
378.58	22.932
378.94	22.124
379.30	22.455
379.66	22.081
380.02	22.789
380.38	22.222
380.74	23.349
381.09	22.677
381.45	23.479
381.81	22.543
382.17	23.694
382.53	22.956
382.89	24.321
383.25	22.452
383.61	22.924
383.97	23.139
384.32	23.581
384.68	23.358
385.04	23.540
385.40	23.467
385.76	24.263
386.12	23.640
386.48	23.851
386.83	23.348
387.19	24.861
387.55	24.119
387.91	23.579
388.27	24.096
388.62	24.216
388.98	24.140
389.34	24.155
389.70	24.709
390.06	25.032
390.42	24.125
390.77	23.855
391.13	25.080
391.49	23.858
391.85	24.761
392.20	23.722
392.56	24.684
392.92	23.896
393.28	23.136
393.64	25.300
393.99	24.435
394.35	24.876
394.71	24.279
395.07	24.673
395.42	24.475
395.78	25.509
396.14	25.885
396.50	25.125
396.85	25.683
397.21	25.524
397.57	24.613
397.92	25.120
398.28	24.720
398.64	26.165
399.00	25.126
399.35	25.042
399.71	25.637
400.07	25.606
400.42	26.442
400.78	25.452
401.14	25.671
401.49	25.254
401.85	24.380
402.21	25.449
402.57	24.923
402.92	25.914
403.28	25.047
403.63	25.619
403.99	25.541
404.35	24.970
404.70	25.600
405.06	25.568
405.42	25.390
405.77	24.571
406.13	25.564
406.49	25.547
406.84	24.867
407.20	24.882
407.55	25.463
407.91	26.800
408.27	25.590
408.62	26.189
408.98	25.551
409.34	24.539
409.69	25.484
410.05	26.580
410.40	25.688
410.76	24.791
411.11	25.754
411.47	24.345
411.83	26.023
412.18	25.788
412.54	26.152
412.89	25.060
413.25	25.561
413.60	25.510
413.96	24.954
414.31	26.124
414.67	26.362
415.03	25.894
415.38	26.418
415.74	24.823
416.09	25.865
416.45	25.636
416.80	25.380
417.16	26.810
417.51	26.808
417.87	26.140
418.22	26.625
418.58	25.952
418.93	26.106
419.29	26.416
419.64	26.448
420.00	25.976
420.35	26.435
420.71	27.017
421.06	26.253
421.42	25.029
421.77	25.729
422.12	25.098
422.48	25.958
422.83	25.917
423.19	26.464
423.54	25.421
423.90	25.913
424.25	25.907
424.61	26.845
424.96	26.706
425.31	25.526
425.67	25.955
426.02	25.829
426.38	27.045
426.73	25.922
427.09	26.626
427.44	26.279
427.79	26.452
428.15	26.726
428.50	26.507
428.85	27.116
429.21	25.897
429.56	26.179
429.92	26.371
430.27	26.614
430.62	25.755
430.98	26.466
431.33	26.495
431.68	25.759
432.04	25.772
432.39	26.156
432.74	26.750
433.10	26.825
433.45	26.706
433.80	26.497
434.16	27.137
434.51	26.316
434.86	27.309
435.22	27.126
435.57	26.687
435.92	26.448
436.28	27.165
436.63	27.152
436.98	27.418
437.34	27.490
437.69	27.013
438.04	26.813
438.39	26.507
438.75	27.484
439.10	26.983
439.45	27.745
439.81	27.251
440.16	26.652
440.51	27.299
440.86	27.562
441.22	27.030
441.57	27.919
441.92	26.510
442.27	27.449
442.63	27.646
442.98	28.113
443.33	27.391
443.68	27.207
444.03	26.940
444.39	26.534
444.74	27.273
445.09	27.763
445.44	27.119
445.79	27.857
446.15	27.951
446.50	26.764
446.85	26.567
447.20	28.251
447.55	27.303
447.91	27.965
448.26	27.602
448.61	26.908
448.96	27.243
449.31	28.178
449.66	28.137
450.02	27.298
450.37	27.098
450.72	27.862
451.07	28.397
451.42	26.626
451.77	28.009
452.12	27.136
452.47	26.866
452.83	27.914
453.18	27.384
453.53	27.891
453.88	27.289
454.23	27.794
454.58	28.044
454.93	29.243
455.28	26.559
455.63	27.488
455.98	29.167
456.34	27.638
456.69	28.616
457.04	27.492
457.39	27.820
457.74	27.742
458.09	28.350
458.44	27.879
458.79	27.657
459.14	29.063
459.49	28.079
459.84	27.368
460.19	27.991
460.54	27.836
460.89	28.470
461.24	29.022
461.59	28.762
461.94	29.038
462.29	29.614
462.64	28.526
462.99	27.846
463.34	28.533
463.69	28.205
464.04	28.580
464.39	28.290
464.74	28.639
465.09	28.046
465.44	28.144
465.79	27.517
466.14	27.860
466.49	26.919
466.84	27.788
467.19	28.304
467.54	28.750
467.89	26.951
468.24	27.923
468.59	28.266
468.94	28.100
469.29	28.406
469.64	28.648
469.99	28.417
470.34	29.128
470.68	29.167
471.03	27.415
471.38	28.770
471.73	27.648
472.08	28.684
472.43	28.706
472.78	28.242
473.13	28.691
473.48	28.277
473.83	28.659
474.17	28.002
474.52	28.412
474.87	28.955
475.22	28.787
475.57	27.834
475.92	28.093
476.27	28.467
476.61	28.958
476.96	27.927
477.31	28.676
477.66	28.392
478.01	27.653
478.36	28.609
478.70	28.401
479.05	28.647
479.40	28.199
479.75	28.165
480.10	28.579
480.45	27.749
480.79	27.664
481.14	27.984
481.49	28.429
481.84	28.624
482.19	29.123
482.53	27.752
482.88	28.339
483.23	27.850
483.58	27.889
483.92	28.725
484.27	26.797
484.62	27.672
484.97	27.237
485.31	27.808
485.66	26.500
486.01	25.811
486.36	25.782
486.70	25.220
487.05	26.004
487.40	26.532
487.75	26.205
488.09	27.358
488.44	26.918
488.79	27.342
489.13	28.342
489.48	27.529
489.83	28.010
490.17	28.759
490.52	28.211
490.87	28.313
491.22	27.694
491.56	27.380
491.91	28.990
492.26	27.515
492.60	28.387
492.95	27.689
493.30	28.037
493.64	27.858
493.99	27.484
494.34	28.538
494.68	27.930
495.03	28.947
495.37	27.687
495.72	28.265
496.07	28.724
496.41	27.920
496.76	28.276
497.11	27.735
497.45	28.132
497.80	28.167
498.14	28.116
498.49	28.878
498.84	28.332
499.18	28.143
499.53	28.443
499.87	28.751
500.22	27.744
500.56	28.981
500.91	27.356
501.26	27.881
501.60	29.378
501.95	27.819
502.29	28.725
502.64	28.678
502.98	28.237
503.33	27.514
503.67	28.538
504.02	29.046
504.36	28.732
504.71	27.553
505.06	29.108
505.40	28.148
505.75	28.158
506.09	27.988
506.44	28.712
506.78	29.372
507.13	29.127
507.47	28.788
507.82	29.534
508.16	28.369
508.51	29.427
508.85	28.302
509.19	29.490
509.54	28.980
509.88	28.954
510.23	28.432
510.57	29.412
510.92	29.622
511.26	28.777
511.61	29.305
511.95	28.967
512.30	28.897
512.64	29.124
512.98	28.403
513.33	29.336
513.67	29.242
514.02	28.517
514.36	29.547
514.70	29.164
515.05	28.723
515.39	29.164
515.74	29.336
516.08	30.129
516.42	29.967
516.77	30.713
517.11	29.800
517.46	30.700
517.80	30.488
518.14	29.473
518.49	30.922
518.83	30.625
519.17	29.157
519.52	29.428
519.86	29.663
520.20	30.578
520.55	29.204
520.89	30.657
521.23	30.217
521.58	29.772
521.92	30.435
522.26	30.262
522.61	29.595
522.95	30.080
523.29	29.884
523.64	30.915
523.98	30.191
524.32	29.614
524.66	30.367
525.01	30.208
525.35	29.368
525.69	30.172
526.04	29.720
526.38	29.591
526.72	30.000
527.06	29.567
527.41	28.713
527.75	30.547
528.09	31.792
528.43	31.103
528.78	30.178
529.12	29.515
529.46	30.986
529.80	29.889
530.15	30.654
530.49	28.738
530.83	29.747
531.17	30.287
531.51	31.193
531.86	30.323
532.20	29.857
532.54	30.557
532.88	30.359
533.22	29.232
533.57	29.938
533.91	29.259
534.25	30.316
534.59	28.676
534.93	29.090
535.27	29.209
535.62	29.731
535.96	29.755
536.30	29.498
536.64	30.264
536.98	29.463
537.32	29.164
537.66	29.800
538.01	29.756
538.35	29.864
538.69	29.802
539.03	29.240
539.37	28.690
539.71	28.257
540.05	29.020
540.39	29.435
540.73	29.625
541.07	30.759
541.42	29.941
541.76	29.548
542.10	29.366
542.44	28.477
542.78	29.381
543.12	27.831
543.46	29.770
543.80	29.733
544.14	27.856
544.48	29.079
544.82	28.993
545.16	29.343
545.50	28.856
545.84	29.839
546.18	29.630
546.52	29.043
546.86	29.278
547.20	29.400
547.54	28.190
547.88	28.508
548.22	28.269
548.56	29.057
548.90	28.873
549.24	28.956
549.58	29.127
549.92	29.121
550.26	29.332
550.60	28.769
550.94	29.366
551.28	29.042
551.62	29.547
551.96	28.912
552.30	28.805
552.64	29.006
552.98	29.085
553.32	28.591
553.66	29.243
554.00	29.032
554.34	29.055
554.68	29.399
555.02	28.984
555.36	28.601
555.69	27.673
556.03	27.995
556.37	28.377
556.71	27.626
557.05	28.922
557.39	27.992
557.73	28.723
558.07	28.789
558.41	28.944
558.75	28.508
559.08	28.561
559.42	29.403
559.76	28.676
560.10	28.123
560.44	28.372
560.78	27.478
561.12	27.639
561.45	28.162
561.79	28.016
562.13	27.565
562.47	28.142
562.81	28.033
563.15	28.829
563.48	28.448
563.82	28.571
564.16	27.992
564.50	27.604
564.84	27.307
565.17	28.057
565.51	27.732
565.85	27.284
566.19	27.614
566.52	28.246
566.86	26.944
567.20	28.184
567.54	27.854
567.88	27.159
568.21	27.407
568.55	26.694
568.89	25.973
569.23	25.980
569.56	25.749
569.90	25.472
570.24	25.511
570.57	25.128
570.91	24.240
571.25	24.120
571.59	24.860
571.92	24.338
572.26	24.350
572.60	24.535
572.93	24.048
573.27	23.987
573.61	24.539
573.95	24.393
574.28	24.171
574.62	23.810
574.96	23.871
575.29	23.739
575.63	23.984
575.97	23.510
576.30	23.792
576.64	23.629
576.98	23.602
577.31	23.729
577.65	23.974
577.98	23.402
578.32	23.094
578.66	23.124
578.99	23.533
579.33	23.384
579.67	23.206
580.00	23.520
580.34	23.802
580.67	23.375
581.01	23.656
581.35	23.318
581.68	23.303
582.02	23.037
582.35	22.911
582.69	23.157
583.02	22.913
583.36	23.127
583.70	23.102
584.03	23.276
584.37	24.269
584.70	23.485
585.04	24.046
585.37	23.229
585.71	23.496
586.04	22.904
586.38	23.406
586.72	24.496
587.05	23.472
587.39	22.823
587.72	23.370
588.06	23.319
588.39	23.704
588.73	23.409
589.06	24.120
589.40	24.074
589.73	24.146
590.07	24.057
590.40	23.420
590.73	24.473
591.07	24.461
591.40	23.830
591.74	24.892
592.07	24.171
592.41	23.936
592.74	24.195
593.08	23.718
593.41	23.790
593.75	22.642
594.08	22.896
594.41	23.471
594.75	23.697
595.08	23.658
595.42	24.238
595.75	23.077
596.09	24.221
596.42	24.008
596.75	23.808
597.09	24.286
597.42	23.314
597.75	23.846
598.09	24.348
598.42	24.098
598.76	24.118
599.09	23.337
599.42	23.544
599.76	23.463
600.09	23.534
600.42	23.484
600.76	23.464
601.09	23.461
601.42	23.212
601.76	23.416
602.09	23.162
602.42	24.363
602.76	23.700
603.09	22.935
603.42	23.311
603.76	23.590
604.09	23.110
604.42	23.318
604.76	23.872
605.09	23.329
605.42	23.215
605.75	23.634
606.09	23.546
606.42	23.621
606.75	23.102
607.09	23.608
607.42	23.534
607.75	23.122
608.08	23.100
608.42	23.891
608.75	23.354
609.08	23.034
609.41	24.227
609.75	23.106
610.08	23.751
610.41	22.952
610.74	23.368
611.07	24.061
611.41	23.454
611.74	23.982
612.07	24.689
612.40	24.764
612.73	23.421
613.07	24.461
613.40	24.118
613.73	23.492
614.06	23.602
614.39	23.859
614.72	23.263
615.06	23.477
615.39	23.726
615.72	23.978
616.05	22.807
616.38	23.735
616.71	23.456
617.05	24.971
617.38	24.113
617.71	24.144
618.04	24.099
618.37	23.714
618.70	24.144
619.03	24.868
619.36	24.576
619.69	24.718
620.03	24.519
620.36	25.000
620.69	25.548
621.02	26.106
621.35	23.962
621.68	24.766
622.01	25.619
622.34	24.660
622.67	24.943
623.00	23.918
623.33	24.303
623.66	25.089
623.99	24.153
624.32	24.251
624.65	23.799
624.99	23.088
625.32	24.113
625.65	25.019
625.98	25.135
626.31	25.272
626.64	25.551
626.97	25.935
627.30	25.686
627.63	26.579
627.96	25.484
628.29	25.109
628.62	25.526
628.95	26.698
629.28	26.095
629.61	26.214
629.94	25.429
630.26	25.834
630.59	25.262
630.92	25.575
631.25	25.173
631.58	25.325
631.91	26.775
632.24	24.895
632.57	25.813
632.90	24.890
