SpectraSuite Data File
++++++++++++++++++++++++++++++++++++
Date: Wed May 13 15:58:16 PDT 2015
User: schluterlab
Dark Spectrum Present: Yes
Reference Spectrum Present: Yes
Number of Sampled Component Spectra: 1
Spectrometers: USB2E3373
Integration Time (usec): 3000 (USB2E3373)
Spectra Averaged: 3 (USB2E3373)
Boxcar Smoothing: 0 (USB2E3373)
Correct for Electrical Dark: No (USB2E3373)
Strobe/Lamp Enabled: No (USB2E3373)
Correct for Detector Non-linearity: No (USB2E3373)
Correct for Stray Light: No (USB2E3373)
Number of Pixels in Processed Spectrum: 2048
>>>>>Begin Processed Spectral Data<<<<<
178.53	0.000
178.91	-325.000
179.29	-275.000
179.67	-22.222
180.04	-200.000
180.42	550.000
180.80	280.000
181.18	75.000
181.56	114.286
181.94	0.000
182.31	-14.286
182.69	300.000
183.07	50.000
183.45	-55.556
183.83	100.000
184.20	-10.000
184.58	400.000
184.96	1200.000
185.34	80.000
185.72	-12.500
186.09	-300.000
186.47	650.000
186.85	450.000
187.23	1300.000
187.61	-500.000
187.98	450.000
188.36	163.636
188.74	118.182
189.12	40.000
189.49	150.000
189.87	400.000
190.25	-225.000
190.63	150.000
191.00	200.000
191.38	250.000
191.76	-300.000
192.14	525.000
192.51	225.000
192.89	150.000
193.27	200.000
193.65	-200.000
194.02	130.000
194.40	80.000
194.78	100.000
195.15	116.667
195.53	170.000
195.91	-150.000
196.29	43.750
196.66	52.632
197.04	10.000
197.42	0.000
197.79	230.000
198.17	-1000.000
198.55	128.571
198.92	187.500
199.30	-100.000
199.68	0.000
200.05	55.556
200.43	85.714
200.81	-200.000
201.18	100.000
201.56	-566.667
201.94	44.444
202.31	88.889
202.69	66.667
203.07	150.000
203.44	0.000
203.82	50.000
204.19	42.857
204.57	100.000
204.95	100.000
205.32	-33.333
205.70	54.545
206.08	78.571
206.45	750.000
206.83	106.250
207.20	83.333
207.58	-140.000
207.96	38.889
208.33	275.000
208.71	-66.667
209.08	257.143
209.46	166.667
209.84	81.818
210.21	-100.000
210.59	275.000
210.96	50.000
211.34	-50.000
211.71	70.000
212.09	133.333
212.46	0.000
212.84	300.000
213.22	400.000
213.59	-600.000
213.97	83.333
214.34	71.429
214.72	81.818
215.09	200.000
215.47	-350.000
215.84	-350.000
216.22	133.333
216.59	71.429
216.97	125.000
217.34	136.364
217.72	50.000
218.09	0.000
218.47	-0.000
218.84	88.889
219.22	128.571
219.59	133.333
219.97	-71.429
220.34	20.000
220.72	-100.000
221.09	128.571
221.47	500.000
221.84	-16.667
222.22	0.000
222.59	400.000
222.97	-600.000
223.34	460.000
223.72	38.462
224.09	240.000
224.46	300.000
224.84	-0.000
225.21	-80.000
225.59	400.000
225.96	170.000
226.34	70.000
226.71	600.000
227.08	87.500
227.46	110.000
227.83	25.000
228.21	-600.000
228.58	55.556
228.95	-300.000
229.33	-400.000
229.70	133.333
230.08	228.571
230.45	-20.000
230.82	91.667
231.20	83.333
231.57	-14.286
231.95	125.000
232.32	40.909
232.69	9.091
233.07	-14.286
233.44	0.000
233.81	-100.000
234.19	52.632
234.56	91.667
234.93	8.333
235.31	-9.091
235.68	-23.077
236.05	57.143
236.43	69.697
236.80	26.316
237.17	-600.000
237.55	9.524
237.92	42.857
238.29	28.571
238.67	-16.129
239.04	24.138
239.41	25.000
239.79	8.696
240.16	19.048
240.53	31.818
240.91	11.765
241.28	2.000
241.65	6.000
242.02	24.638
242.40	6.452
242.77	-5.000
243.14	18.280
243.51	22.472
243.89	11.765
244.26	3.333
244.63	6.452
245.00	3.191
245.38	13.861
245.75	8.411
246.12	2.752
246.49	10.949
246.87	16.800
247.24	6.154
247.61	7.857
247.98	1.307
248.36	-0.676
248.73	3.185
249.10	7.006
249.47	6.780
249.84	10.160
250.22	9.626
250.59	7.692
250.96	7.576
251.33	7.583
251.70	6.436
252.08	7.143
252.45	4.484
252.82	4.348
253.19	3.830
253.56	7.451
253.94	4.979
254.31	6.250
254.68	7.692
255.05	6.273
255.42	4.472
255.79	8.088
256.16	8.664
256.54	3.180
256.91	4.982
257.28	1.799
257.65	7.921
258.02	2.174
258.39	2.839
258.76	0.334
259.14	4.167
259.51	6.687
259.88	1.553
260.25	1.813
260.62	4.046
260.99	3.416
261.36	4.505
261.73	1.433
262.10	4.651
262.47	4.507
262.85	1.950
263.22	2.564
263.59	3.989
263.96	1.374
264.33	2.350
264.70	5.000
265.07	5.627
265.44	6.313
265.81	3.406
266.18	2.513
266.55	2.683
266.92	2.457
267.29	6.250
267.66	2.982
268.03	2.955
268.40	4.439
268.77	0.000
269.14	3.604
269.51	3.612
269.88	2.564
270.25	3.612
270.62	3.371
270.99	5.161
271.36	3.648
271.73	2.103
272.10	2.391
272.47	4.946
272.84	4.113
273.21	4.193
273.58	0.873
273.95	2.725
274.32	1.653
274.69	2.998
275.06	2.362
275.43	4.043
275.80	1.202
276.17	3.055
276.54	2.703
276.91	1.779
277.28	3.711
277.65	4.255
278.02	1.449
278.39	5.078
278.76	3.091
279.13	4.340
279.50	2.235
279.87	1.793
280.23	2.994
280.60	3.868
280.97	1.109
281.34	4.956
281.71	3.636
282.08	1.536
282.45	3.636
282.82	4.085
283.19	1.070
283.56	3.860
283.92	4.399
284.29	1.940
284.66	4.900
285.03	2.351
285.40	1.056
285.77	3.367
286.14	3.109
286.51	1.333
286.87	4.103
287.24	2.606
287.61	3.050
287.98	2.597
288.35	3.328
288.72	3.894
289.08	2.817
289.45	1.647
289.82	1.951
290.19	2.041
290.56	2.757
290.93	2.870
291.29	2.607
291.66	4.277
292.03	5.087
292.40	4.112
292.77	2.811
293.13	2.836
293.50	2.624
293.87	2.519
294.24	2.074
294.60	1.019
294.97	3.634
295.34	4.937
295.71	3.835
296.08	3.134
296.44	3.851
296.81	3.303
297.18	4.607
297.55	2.243
297.91	3.034
298.28	4.150
298.65	3.916
299.02	2.503
299.38	3.984
299.75	1.348
300.12	2.682
300.48	3.500
300.85	3.822
301.22	2.803
301.59	1.515
301.95	3.526
302.32	1.926
302.69	4.182
303.05	2.182
303.42	1.852
303.79	3.851
304.15	2.564
304.52	2.086
304.89	2.671
305.25	2.436
305.62	4.530
305.99	2.243
306.35	3.020
306.72	3.812
307.09	3.885
307.45	4.279
307.82	1.897
308.19	4.857
308.55	3.991
308.92	3.545
309.29	3.801
309.65	2.545
310.02	3.277
310.38	4.194
310.75	3.801
311.12	5.629
311.48	3.030
311.85	3.774
312.22	4.162
312.58	3.534
312.95	4.224
313.31	2.816
313.68	3.015
314.05	5.030
314.41	4.322
314.78	3.021
315.14	3.774
315.51	4.531
315.87	4.653
316.24	4.171
316.61	4.288
316.97	2.740
317.34	4.403
317.70	3.920
318.07	3.080
318.43	3.620
318.80	5.248
319.16	5.461
319.53	4.784
319.89	4.095
320.26	6.200
320.62	4.266
320.99	4.646
321.35	4.141
321.72	5.133
322.08	4.738
322.45	5.871
322.81	6.395
323.18	5.877
323.54	5.195
323.91	5.755
324.27	4.302
324.64	4.287
325.00	4.058
325.37	5.278
325.73	6.732
326.10	5.384
326.46	5.108
326.83	6.126
327.19	5.636
327.56	4.704
327.92	6.124
328.29	4.437
328.65	5.801
329.01	5.054
329.38	6.753
329.74	5.633
330.11	4.618
330.47	5.785
330.84	6.801
331.20	5.282
331.56	5.596
331.93	4.907
332.29	5.856
332.66	7.257
333.02	5.484
333.38	5.781
333.75	6.774
334.11	5.694
334.48	5.590
334.84	5.423
335.20	6.273
335.57	5.440
335.93	5.446
336.29	4.029
336.66	5.410
337.02	4.887
337.38	5.463
337.75	4.635
338.11	4.924
338.47	3.775
338.84	4.675
339.20	3.486
339.56	5.839
339.93	5.545
340.29	5.072
340.65	5.348
341.02	5.672
341.38	6.228
341.74	5.263
342.11	5.240
342.47	4.846
342.83	6.164
343.20	5.974
343.56	4.634
343.92	5.000
344.28	5.272
344.65	5.675
345.01	4.461
345.37	4.717
345.73	5.584
346.10	5.030
346.46	5.339
346.82	5.601
347.19	4.344
347.55	4.433
347.91	4.531
348.27	6.245
348.63	5.268
349.00	5.259
349.36	5.419
349.72	4.892
350.08	4.052
350.45	5.533
350.81	6.093
351.17	5.348
351.53	3.604
351.89	4.950
352.26	5.919
352.62	5.373
352.98	5.186
353.34	5.423
353.70	3.601
354.07	5.323
354.43	5.238
354.79	4.827
355.15	5.347
355.51	5.755
355.87	4.980
356.24	4.967
356.60	5.854
356.96	5.229
357.32	4.415
357.68	5.354
358.04	4.751
358.40	5.780
358.77	5.556
359.13	4.341
359.49	5.098
359.85	3.889
360.21	4.466
360.57	6.537
360.93	5.231
361.29	5.971
361.66	5.263
362.02	5.821
362.38	4.791
362.74	5.432
363.10	4.441
363.46	4.769
363.82	5.669
364.18	4.919
364.54	6.166
364.90	5.878
365.26	5.588
365.62	5.844
365.98	5.040
366.35	4.943
366.71	6.218
367.07	4.734
367.43	6.241
367.79	6.281
368.15	6.178
368.51	4.288
368.87	4.497
369.23	4.901
369.59	6.155
369.95	5.000
370.31	6.481
370.67	5.290
371.03	6.367
371.39	6.341
371.75	5.588
372.11	5.690
372.47	6.452
372.83	5.331
373.19	5.275
373.55	5.913
373.91	6.775
374.27	5.842
374.63	4.945
374.99	6.003
375.35	5.304
375.71	5.552
376.07	6.310
376.42	5.227
376.78	6.428
377.14	5.767
377.50	6.556
377.86	5.984
378.22	6.574
378.58	5.451
378.94	5.091
379.30	5.662
379.66	6.472
380.02	6.327
380.38	5.343
380.74	6.543
381.09	6.663
381.45	6.208
381.81	6.327
382.17	6.242
382.53	6.226
382.89	7.099
383.25	5.629
383.61	6.815
383.97	6.692
384.32	6.987
384.68	6.196
385.04	6.269
385.40	5.944
385.76	6.941
386.12	6.801
386.48	6.986
386.83	6.414
387.19	7.854
387.55	6.926
387.91	6.771
388.27	6.499
388.62	7.130
388.98	6.388
389.34	7.947
389.70	6.744
390.06	7.668
390.42	6.809
390.77	7.252
391.13	7.594
391.49	6.916
391.85	6.302
392.20	5.426
392.56	7.008
392.92	7.534
393.28	6.036
393.64	7.434
393.99	7.025
394.35	7.382
394.71	7.215
395.07	7.664
395.42	6.428
395.78	7.443
396.14	7.697
396.50	7.707
396.85	7.184
397.21	7.152
397.57	7.068
397.92	7.212
398.28	7.119
398.64	7.527
399.00	7.163
399.35	6.768
399.71	7.234
400.07	7.274
400.42	7.239
400.78	7.177
401.14	6.341
401.49	6.687
401.85	7.018
402.21	6.287
402.57	6.786
402.92	6.810
403.28	7.495
403.63	6.745
403.99	6.178
404.35	6.727
404.70	7.254
405.06	6.989
405.42	6.862
405.77	6.057
406.13	6.998
406.49	6.742
406.84	7.383
407.20	6.560
407.55	6.637
407.91	6.667
408.27	6.190
408.62	7.285
408.98	6.740
409.34	6.950
409.69	6.129
410.05	6.320
410.40	6.850
410.76	6.511
411.11	6.815
411.47	6.965
411.83	7.147
412.18	6.617
412.54	7.036
412.89	7.410
413.25	7.025
413.60	6.856
413.96	6.740
414.31	6.987
414.67	7.098
415.03	6.623
415.38	7.539
415.74	6.817
416.09	7.315
416.45	6.091
416.80	6.477
417.16	7.306
417.51	7.366
417.87	6.101
418.22	7.508
418.58	7.101
418.93	7.248
419.29	6.811
419.64	7.683
420.00	7.317
420.35	7.072
420.71	7.472
421.06	6.742
421.42	7.544
421.77	7.287
422.12	6.120
422.48	6.098
422.83	6.348
423.19	7.017
423.54	7.429
423.90	7.246
424.25	7.091
424.61	6.964
424.96	6.939
425.31	7.087
425.67	6.685
426.02	7.257
426.38	7.204
426.73	6.788
427.09	6.505
427.44	6.268
427.79	6.843
428.15	7.321
428.50	6.963
428.85	7.151
429.21	6.957
429.56	6.117
429.92	6.794
430.27	6.753
430.62	6.861
430.98	6.746
431.33	7.371
431.68	6.806
432.04	7.561
432.39	6.796
432.74	6.643
433.10	6.225
433.45	7.230
433.80	7.095
434.16	6.517
434.51	6.895
434.86	7.412
435.22	6.893
435.57	6.991
435.92	6.378
436.28	6.584
436.63	7.671
436.98	6.010
437.34	7.096
437.69	7.351
438.04	6.352
438.39	6.806
438.75	6.856
439.10	7.151
439.45	7.025
439.81	6.526
440.16	7.058
440.51	6.737
440.86	6.833
441.22	6.285
441.57	7.059
441.92	6.858
442.27	6.512
442.63	7.372
442.98	6.704
443.33	7.174
443.68	6.970
444.03	7.565
444.39	6.329
444.74	6.818
445.09	7.385
445.44	7.108
445.79	6.878
446.15	7.464
446.50	6.677
446.85	7.091
447.20	6.986
447.55	7.035
447.91	7.115
448.26	7.179
448.61	6.501
448.96	6.977
449.31	7.874
449.66	6.866
450.02	6.518
450.37	6.576
450.72	6.994
451.07	6.399
451.42	6.869
451.77	6.988
452.12	7.275
452.47	7.463
452.83	6.643
453.18	7.396
453.53	7.359
453.88	6.497
454.23	6.934
454.58	7.935
454.93	8.010
455.28	6.234
455.63	6.553
455.98	7.381
456.34	7.412
456.69	6.763
457.04	7.245
457.39	6.604
457.74	7.081
458.09	6.958
458.44	7.127
458.79	7.321
459.14	7.619
459.49	6.713
459.84	6.925
460.19	6.895
460.54	6.481
460.89	7.186
461.24	6.679
461.59	8.077
461.94	7.028
462.29	7.596
462.64	7.020
462.99	6.636
463.34	7.867
463.69	6.504
464.04	7.710
464.39	7.130
464.74	7.071
465.09	6.815
465.44	6.150
465.79	6.935
466.14	6.842
466.49	6.841
466.84	7.180
467.19	6.940
467.54	7.438
467.89	6.663
468.24	7.737
468.59	7.570
468.94	7.453
469.29	7.198
469.64	7.430
469.99	7.442
470.34	6.473
470.68	7.328
471.03	7.619
471.38	6.880
471.73	6.929
472.08	7.303
472.43	6.721
472.78	7.571
473.13	6.868
473.48	7.241
473.83	7.683
474.17	6.285
474.52	7.196
474.87	7.356
475.22	6.732
475.57	6.771
475.92	7.382
476.27	6.877
476.61	7.281
476.96	6.487
477.31	6.436
477.66	7.604
478.01	6.534
478.36	7.456
478.70	6.490
479.05	6.603
479.40	6.704
479.75	7.117
480.10	6.262
480.45	6.521
480.79	6.402
481.14	6.360
481.49	7.451
481.84	7.179
482.19	6.452
482.53	6.468
482.88	6.468
483.23	6.916
483.58	7.279
483.92	7.123
484.27	6.100
484.62	6.595
484.97	6.622
485.31	6.884
485.66	6.563
486.01	6.209
486.36	6.381
486.70	6.259
487.05	6.495
487.40	6.180
487.75	6.462
488.09	6.764
488.44	6.471
488.79	6.908
489.13	6.684
489.48	6.688
489.83	6.215
490.17	6.927
490.52	6.953
490.87	6.422
491.22	7.003
491.56	5.877
491.91	7.166
492.26	6.569
492.60	6.959
492.95	5.847
493.30	6.542
493.64	6.440
493.99	6.453
494.34	6.475
494.68	7.418
495.03	6.814
495.37	6.468
495.72	6.969
496.07	7.193
496.41	6.416
496.76	6.684
497.11	6.168
497.45	6.660
497.80	6.478
498.14	6.377
498.49	6.634
498.84	6.855
499.18	6.524
499.53	6.648
499.87	6.757
500.22	7.065
500.56	7.573
500.91	6.250
501.26	6.923
501.60	6.455
501.95	6.783
502.29	7.404
502.64	6.890
502.98	6.358
503.33	7.084
503.67	6.868
504.02	6.408
504.36	6.458
504.71	7.181
505.06	7.229
505.40	6.855
505.75	6.172
506.09	6.997
506.44	6.956
506.78	6.624
507.13	6.815
507.47	6.970
507.82	6.788
508.16	6.890
508.51	7.712
508.85	6.554
509.19	6.429
509.54	6.327
509.88	6.491
510.23	7.249
510.57	7.224
510.92	6.991
511.26	6.680
511.61	6.743
511.95	6.733
512.30	6.840
512.64	7.200
512.98	6.484
513.33	7.281
513.67	6.457
514.02	6.981
514.36	6.718
514.70	6.696
515.05	6.414
515.39	7.628
515.74	6.757
516.08	7.211
516.42	7.492
516.77	7.525
517.11	7.325
517.46	7.619
517.80	7.027
518.14	6.543
518.49	6.593
518.83	7.557
519.17	7.217
519.52	6.904
519.86	7.131
520.20	6.936
520.55	8.259
520.89	6.569
521.23	7.961
521.58	7.143
521.92	7.777
522.26	6.101
522.61	6.978
522.95	7.551
523.29	6.695
523.64	7.622
523.98	7.579
524.32	6.574
524.66	6.855
525.01	7.353
525.35	7.001
525.69	6.835
526.04	6.978
526.38	7.016
526.72	7.423
527.06	6.905
527.41	6.621
527.75	7.267
528.09	7.386
528.43	6.565
528.78	7.437
529.12	7.091
529.46	8.022
529.80	7.983
530.15	7.352
530.49	6.646
530.83	7.658
531.17	7.572
531.51	8.042
531.86	6.581
532.20	7.757
532.54	7.367
532.88	7.574
533.22	7.058
533.57	7.222
533.91	6.743
534.25	7.351
534.59	7.322
534.93	7.674
535.27	7.544
535.62	7.143
535.96	7.721
536.30	6.294
536.64	7.405
536.98	6.835
537.32	7.176
537.66	7.267
538.01	7.307
538.35	7.498
538.69	9.190
539.03	6.368
539.37	6.390
539.71	5.768
540.05	7.712
540.39	7.309
540.73	6.921
541.07	6.944
541.42	7.045
541.76	7.226
542.10	7.956
542.44	6.887
542.78	7.049
543.12	6.910
543.46	7.016
543.80	7.807
544.14	5.777
544.48	7.175
544.82	6.863
545.16	6.766
545.50	6.941
545.84	6.452
546.18	7.205
546.52	7.983
546.86	6.186
547.20	6.676
547.54	7.348
547.88	8.418
548.22	7.597
548.56	7.233
548.90	7.234
549.24	6.465
549.58	6.548
549.92	6.937
550.26	7.599
550.60	6.570
550.94	6.901
551.28	6.072
551.62	7.261
551.96	5.684
552.30	7.304
552.64	7.032
552.98	7.186
553.32	6.878
553.66	7.907
554.00	7.069
554.34	6.763
554.68	7.725
555.02	6.629
555.36	7.446
555.69	6.766
556.03	7.201
556.37	6.958
556.71	6.617
557.05	7.073
557.39	6.858
557.73	7.198
558.07	7.179
558.41	6.512
558.75	6.686
559.08	6.786
559.42	6.576
559.76	7.132
560.10	6.781
560.44	6.778
560.78	6.454
561.12	7.124
561.45	6.975
561.79	6.658
562.13	6.841
562.47	6.899
562.81	6.834
563.15	6.957
563.48	7.228
563.82	6.654
564.16	6.409
564.50	5.990
564.84	7.016
565.17	6.306
565.51	5.751
565.85	6.853
566.19	6.387
566.52	6.333
566.86	6.631
567.20	7.429
567.54	6.621
567.88	5.866
568.21	6.984
568.55	6.673
568.89	6.907
569.23	6.194
569.56	6.356
569.90	6.453
570.24	5.992
570.57	6.188
570.91	5.559
571.25	6.115
571.59	6.215
571.92	5.732
572.26	6.384
572.60	6.126
572.93	5.937
573.27	6.241
573.61	6.309
573.95	6.331
574.28	6.005
574.62	5.879
574.96	5.854
575.29	5.941
575.63	6.301
575.97	5.962
576.30	6.054
576.64	5.610
576.98	6.101
577.31	6.146
577.65	6.015
577.98	6.112
578.32	6.076
578.66	6.457
578.99	5.661
579.33	6.028
579.67	6.033
580.00	6.090
580.34	6.028
580.67	5.814
581.01	6.206
581.35	5.870
581.68	6.472
582.02	5.930
582.35	5.769
582.69	6.216
583.02	5.817
583.36	6.133
583.70	6.244
584.03	5.982
584.37	6.192
584.70	5.852
585.04	5.920
585.37	6.174
585.71	6.367
586.04	6.137
586.38	5.956
586.72	6.379
587.05	5.623
587.39	5.937
587.72	5.901
588.06	5.950
588.39	6.255
588.73	5.808
589.06	5.765
589.40	5.993
589.73	5.878
590.07	6.085
590.40	5.992
590.73	5.464
591.07	6.390
591.40	6.453
591.74	6.883
592.07	5.803
592.41	6.284
592.74	5.843
593.08	6.129
593.41	6.042
593.75	5.840
594.08	5.766
594.41	6.257
594.75	6.174
595.08	6.013
595.42	6.445
595.75	6.125
596.09	6.797
596.42	6.601
596.75	6.374
597.09	6.494
597.42	5.987
597.75	5.994
598.09	6.739
598.42	6.229
598.76	5.756
599.09	6.195
599.42	6.004
599.76	5.637
600.09	5.974
600.42	5.625
600.76	6.107
601.09	6.157
601.42	5.784
601.76	6.186
602.09	6.047
602.42	6.568
602.76	6.409
603.09	6.019
603.42	5.818
603.76	5.793
604.09	6.088
604.42	5.830
604.76	6.326
605.09	5.505
605.42	6.156
605.75	6.043
606.09	5.531
606.42	6.171
606.75	5.765
607.09	6.362
607.42	5.991
607.75	5.570
608.08	6.166
608.42	6.410
608.75	6.132
609.08	6.522
609.41	6.092
609.75	6.527
610.08	6.692
610.41	5.959
610.74	5.771
611.07	5.879
611.41	5.986
611.74	6.385
612.07	5.745
612.40	6.086
612.73	5.737
613.07	6.250
613.40	6.372
613.73	5.401
614.06	5.538
614.39	6.397
614.72	6.632
615.06	5.777
615.39	5.945
615.72	6.237
616.05	6.061
616.38	5.837
616.71	6.176
617.05	5.771
617.38	5.713
617.71	6.006
618.04	5.769
618.37	5.795
618.70	5.538
619.03	6.382
619.36	6.178
619.69	5.915
620.03	6.387
620.36	6.083
620.69	6.370
621.02	6.785
621.35	5.638
621.68	5.296
622.01	5.573
622.34	6.127
622.67	6.692
623.00	6.163
623.33	6.362
623.66	6.433
623.99	5.228
624.32	6.491
624.65	7.062
624.99	6.020
625.32	5.648
625.65	6.461
625.98	5.919
626.31	6.376
626.64	6.286
626.97	5.902
627.30	4.904
627.63	6.235
627.96	6.392
628.29	5.599
628.62	7.502
628.95	6.509
629.28	6.478
629.61	6.233
629.94	6.190
630.26	6.482
630.59	6.578
630.92	6.513
631.25	5.726
631.58	6.406
631.91	6.187
632.24	6.013
632.57	7.030
632.90	5.373
633.23	6.040
633.56	6.893
633.89	6.116
634.22	6.583
634.55	7.811
634.88	5.509
635.20	7.527
635.53	6.265
635.86	6.064
636.19	6.353
636.52	7.382
636.85	6.415
637.18	6.452
637.51	6.974
637.83	3.946
638.16	7.033
638.49	7.305
638.82	7.585
639.15	6.375
639.48	6.858
639.81	5.764
640.13	5.729
640.46	8.188
640.79	6.341
641.12	3.576
641.45	5.168
641.77	5.155
642.10	7.456
642.43	5.856
642.76	5.418
643.09	7.209
643.41	6.070
643.74	7.870
644.07	5.640
644.40	7.669
644.73	8.031
645.05	7.132
645.38	6.003
645.71	5.797
646.04	6.645
646.36	6.845
646.69	6.856
647.02	7.143
647.35	6.357
647.67	5.310
648.00	6.504
648.33	4.455
648.66	6.818
648.98	7.196
649.31	5.830
649.64	5.979
649.96	6.557
650.29	6.793
650.62	5.502
650.94	7.131
651.27	7.939
651.60	7.488
651.92	7.029
652.25	6.189
652.58	7.009
652.90	7.741
653.23	4.931
653.56	5.669
653.88	6.973
654.21	7.741
654.54	5.941
654.86	6.854
655.19	4.865
655.52	4.483
655.84	4.784
656.17	5.859
656.49	7.773
656.82	7.783
657.15	6.046
657.47	4.379
657.80	3.300
658.13	3.481
658.45	5.281
658.78	5.381
659.10	5.470
659.43	5.616
659.75	6.029
