SpectraSuite Data File
++++++++++++++++++++++++++++++++++++
Date: Wed May 13 16:10:05 PDT 2015
User: schluterlab
Dark Spectrum Present: Yes
Reference Spectrum Present: Yes
Number of Sampled Component Spectra: 1
Spectrometers: USB2E3373
Integration Time (usec): 3000 (USB2E3373)
Spectra Averaged: 3 (USB2E3373)
Boxcar Smoothing: 0 (USB2E3373)
Correct for Electrical Dark: No (USB2E3373)
Strobe/Lamp Enabled: No (USB2E3373)
Correct for Detector Non-linearity: No (USB2E3373)
Correct for Stray Light: No (USB2E3373)
Number of Pixels in Processed Spectrum: 2048
>>>>>Begin Processed Spectral Data<<<<<
178.53	0.000
178.91	-950.000
179.29	-825.000
179.67	-166.667
180.04	-925.000
180.42	1600.000
180.80	700.000
181.18	-675.000
181.56	457.143
181.94	0.000
182.31	-457.143
182.69	1233.333
183.07	-362.500
183.45	-322.222
183.83	409.091
184.20	-190.000
184.58	1700.000
184.96	3700.000
185.34	-520.000
185.72	-462.500
186.09	-1750.000
186.47	1750.000
186.85	1450.000
187.23	4100.000
187.61	-1166.667
187.98	825.000
188.36	454.545
188.74	427.273
189.12	-660.000
189.49	420.000
189.87	-3400.000
190.25	-825.000
190.63	321.429
191.00	346.154
191.38	566.667
191.76	-825.000
192.14	1200.000
192.51	462.500
192.89	783.333
193.27	375.000
193.65	-675.000
194.02	390.000
194.40	740.000
194.78	460.000
195.15	400.000
195.53	570.000
195.91	-1150.000
196.29	262.500
196.66	242.105
197.04	-250.000
197.42	0.000
197.79	470.000
198.17	-3300.000
198.55	428.571
198.92	550.000
199.30	500.000
199.68	0.000
200.05	350.000
200.43	685.714
200.81	2600.000
201.18	1000.000
201.56	-966.667
201.94	433.333
202.31	411.111
202.69	283.333
203.07	380.000
203.44	0.000
203.82	900.000
204.19	614.286
204.57	385.714
204.95	437.500
205.32	1200.000
205.70	400.000
206.08	292.857
206.45	2000.000
206.83	306.250
207.20	716.667
207.58	640.000
207.96	250.000
208.33	562.500
208.71	-650.000
209.08	600.000
209.46	477.778
209.84	336.364
210.21	-1100.000
210.59	1400.000
210.96	-325.000
211.34	1900.000
211.71	500.000
212.09	516.667
212.46	0.000
212.84	1566.667
213.22	1150.000
213.59	-2900.000
213.97	800.000
214.34	585.714
214.72	463.636
215.09	720.000
215.47	-1700.000
215.84	-1950.000
216.22	1300.000
216.59	321.429
216.97	1100.000
217.34	327.273
217.72	-516.667
218.09	0.000
218.47	-4300.000
218.84	511.111
219.22	428.571
219.59	1166.667
219.97	-442.857
220.34	760.000
220.72	-1100.000
221.09	292.857
221.47	1200.000
221.84	-650.000
222.22	0.000
222.59	825.000
222.97	-1950.000
223.34	920.000
223.72	376.923
224.09	900.000
224.46	1050.000
224.84	-4000.000
225.21	-700.000
225.59	-3700.000
225.96	530.000
226.34	250.000
226.71	1850.000
227.08	525.000
227.46	460.000
227.83	-650.000
228.21	-1900.000
228.58	577.778
228.95	-1700.000
229.33	-1700.000
229.70	1233.333
230.08	585.714
230.45	-640.000
230.82	308.333
231.20	466.667
231.57	585.714
231.95	300.000
232.32	213.636
232.69	400.000
233.07	571.429
233.44	261.538
233.81	-1333.333
234.19	205.263
234.56	366.667
234.93	333.333
235.31	336.364
235.68	176.923
236.05	264.286
236.43	145.455
236.80	194.737
237.17	2800.000
237.55	195.238
237.92	150.000
238.29	233.333
238.67	154.839
239.04	120.690
239.41	122.222
239.79	110.870
240.16	116.667
240.53	113.636
240.91	72.549
241.28	76.000
241.65	88.000
242.02	97.101
242.40	67.742
242.77	61.667
243.14	61.290
243.51	66.292
243.89	55.294
244.26	55.556
244.63	62.366
245.00	62.766
245.38	49.505
245.75	39.252
246.12	44.954
246.49	51.825
246.87	56.800
247.24	52.308
247.61	47.143
247.98	47.712
248.36	41.216
248.73	42.038
249.10	50.318
249.47	38.418
249.84	41.176
250.22	42.246
250.59	42.012
250.96	42.929
251.33	39.336
251.70	42.574
252.08	38.571
252.45	35.874
252.82	39.565
253.19	34.468
253.56	38.431
253.94	30.290
254.31	35.156
254.68	40.000
255.05	35.055
255.42	37.398
255.79	37.500
256.16	37.545
256.54	31.095
256.91	36.655
257.28	31.295
257.65	32.673
258.02	34.783
258.39	30.599
258.76	28.763
259.14	33.929
259.51	28.875
259.88	30.745
260.25	33.233
260.62	29.480
260.99	29.503
261.36	32.432
261.73	28.653
262.10	29.942
262.47	32.113
262.85	29.248
263.22	28.775
263.59	32.194
263.96	28.297
264.33	29.765
264.70	32.368
265.07	33.248
265.44	30.556
265.81	30.900
266.18	31.658
266.55	30.244
266.92	29.975
267.29	30.093
267.66	29.817
268.03	30.000
268.40	28.972
268.77	28.162
269.14	29.730
269.51	28.894
269.88	29.837
270.25	27.314
270.62	26.742
270.99	30.323
271.36	29.399
271.73	28.505
272.10	28.913
272.47	29.892
272.84	28.355
273.21	29.560
273.58	26.856
273.95	24.948
274.32	25.620
274.69	27.409
275.06	27.362
275.43	28.511
275.80	28.257
276.17	27.495
276.54	27.859
276.91	26.680
277.28	28.906
277.65	26.306
278.02	27.122
278.39	28.516
278.76	25.636
279.13	28.679
279.50	23.836
279.87	26.693
280.23	27.545
280.60	26.499
280.97	24.584
281.34	27.257
281.71	29.091
282.08	26.296
282.45	25.091
282.82	23.446
283.19	23.886
283.56	25.263
283.92	26.734
284.29	24.868
284.66	26.497
285.03	23.508
285.40	25.352
285.77	25.758
286.14	23.143
286.51	26.167
286.87	25.641
287.24	24.104
287.61	26.324
287.98	23.539
288.35	23.930
288.72	24.922
289.08	25.196
289.45	24.217
289.82	23.902
290.19	22.449
290.56	23.583
290.93	21.601
291.29	22.239
291.66	23.009
292.03	24.419
292.40	24.376
292.77	21.006
293.13	22.388
293.50	21.283
293.87	22.519
294.24	21.333
294.60	20.670
294.97	21.366
295.34	22.990
295.71	22.017
296.08	21.937
296.44	21.045
296.81	18.626
297.18	22.358
297.55	19.393
297.91	21.372
298.28	20.348
298.65	21.149
299.02	19.763
299.38	22.045
299.75	18.733
300.12	19.540
300.48	18.250
300.85	19.605
301.22	20.000
301.59	20.202
301.95	20.403
302.32	20.668
302.69	18.996
303.05	19.879
303.42	19.506
303.79	20.951
304.15	20.047
304.52	17.613
304.89	20.674
305.25	18.677
305.62	20.838
305.99	21.488
306.35	20.917
306.72	20.179
307.09	20.089
307.45	19.932
307.82	18.638
308.19	19.757
308.55	20.712
308.92	18.690
309.29	19.852
309.65	19.830
310.02	20.296
310.38	20.430
310.75	20.803
311.12	20.164
311.48	21.526
311.85	21.698
312.22	21.020
312.58	20.270
312.95	21.331
313.31	19.806
313.68	21.310
314.05	22.485
314.41	21.005
314.78	22.457
315.14	21.351
315.51	21.833
315.87	23.069
316.24	21.450
316.61	21.053
316.97	22.701
317.34	20.841
317.70	22.275
318.07	23.869
318.43	22.896
318.80	23.430
319.16	24.200
319.53	23.265
319.89	23.714
320.26	25.800
320.62	23.611
320.99	25.556
321.35	24.343
321.72	24.641
322.08	24.778
322.45	27.363
322.81	27.713
323.18	26.590
323.54	26.531
323.91	28.868
324.27	27.438
324.64	26.561
325.00	27.863
325.37	28.480
325.73	28.636
326.10	29.126
326.46	28.584
326.83	29.163
327.19	29.718
327.56	31.098
327.92	31.846
328.29	30.346
328.65	30.110
329.01	30.686
329.38	32.285
329.74	32.225
330.11	32.234
330.47	32.048
330.84	34.467
331.20	31.967
331.56	33.028
331.93	32.870
332.29	32.209
332.66	32.655
333.02	33.547
333.38	34.146
333.75	33.155
334.11	32.384
334.48	33.629
334.84	33.364
335.20	34.273
335.57	33.001
335.93	33.661
336.29	33.333
336.66	34.626
337.02	32.851
337.38	33.704
337.75	32.175
338.11	34.736
338.47	33.702
338.84	34.005
339.20	32.202
339.56	35.949
339.93	32.909
340.29	33.514
340.65	33.155
341.02	33.944
341.38	34.342
341.74	32.281
342.11	33.624
342.47	33.480
342.83	33.904
343.20	33.853
343.56	34.288
343.92	32.632
344.28	34.269
344.65	33.792
345.01	32.744
345.37	32.419
345.73	32.826
346.10	33.760
346.46	34.322
346.82	32.702
347.19	32.164
347.55	32.266
347.91	32.686
348.27	32.950
348.63	32.358
349.00	32.039
349.36	33.005
349.72	33.520
350.08	31.280
350.45	32.384
350.81	34.037
351.17	33.144
351.53	31.695
351.89	32.178
352.26	32.123
352.62	34.322
352.98	32.901
353.34	32.210
353.70	30.933
354.07	32.903
354.43	32.540
354.79	32.019
355.15	31.844
355.51	33.253
355.87	33.306
356.24	32.248
356.60	31.997
356.96	32.743
357.32	32.952
357.68	33.150
358.04	31.750
358.40	31.433
358.77	32.707
359.13	31.413
359.49	31.373
359.85	31.349
360.21	32.217
360.57	33.074
360.93	32.000
361.29	32.200
361.66	31.502
362.02	31.567
362.38	32.624
362.74	31.920
363.10	31.236
363.46	30.814
363.82	32.502
364.18	32.305
364.54	31.872
364.90	32.153
365.26	32.206
365.62	32.213
365.98	30.825
366.35	30.229
366.71	32.827
367.07	32.629
367.43	32.656
367.79	33.048
368.15	34.195
368.51	32.049
368.87	32.263
369.23	32.334
369.59	33.020
369.95	32.721
370.31	32.692
370.67	32.029
371.03	32.584
371.39	32.945
371.75	33.529
372.11	32.219
372.47	33.504
372.83	34.726
373.19	32.731
373.55	33.407
373.91	33.211
374.27	31.890
374.63	32.291
374.99	34.110
375.35	33.077
375.71	33.516
376.07	33.676
376.42	34.044
376.78	33.135
377.14	33.446
377.50	34.238
377.86	32.779
378.22	33.818
378.58	32.581
378.94	32.810
379.30	33.270
379.66	33.249
380.02	33.231
380.38	33.698
380.74	33.854
381.09	34.169
381.45	35.157
381.81	35.074
382.17	34.522
382.53	34.151
382.89	34.321
383.25	34.146
383.61	35.006
383.97	34.084
384.32	33.313
384.68	33.953
385.04	34.419
385.40	32.570
385.76	34.152
386.12	34.326
386.48	36.501
386.83	35.920
387.19	36.611
387.55	35.622
387.91	34.039
388.27	34.580
388.62	34.542
388.98	34.398
389.34	35.357
389.70	35.132
390.06	35.805
390.42	35.279
390.77	35.369
391.13	35.418
391.49	34.898
391.85	34.182
392.20	34.385
392.56	35.732
392.92	34.373
393.28	34.852
393.64	34.353
393.99	34.026
394.35	35.670
394.71	33.375
395.07	35.078
395.42	34.672
395.78	34.033
396.14	35.071
396.50	35.840
396.85	35.664
397.21	34.094
397.57	33.912
397.92	34.736
398.28	34.081
398.64	34.289
399.00	34.359
399.35	34.292
399.71	35.012
400.07	34.891
400.42	36.196
400.78	35.103
401.14	35.549
401.49	34.746
401.85	34.180
402.21	33.892
402.57	34.423
402.92	34.931
403.28	35.415
403.63	33.478
403.99	32.739
404.35	33.636
404.70	33.633
405.06	33.489
405.42	33.936
405.77	33.429
406.13	33.465
406.49	33.590
406.84	33.845
407.20	32.861
407.55	34.142
407.91	34.933
408.27	33.886
408.62	33.715
408.98	33.824
409.34	33.149
409.69	33.548
410.05	34.634
410.40	33.150
410.76	32.557
411.11	34.499
411.47	33.419
411.83	33.415
412.18	33.333
412.54	33.313
412.89	33.916
413.25	33.648
413.60	34.280
413.96	33.090
414.31	33.171
414.67	33.967
415.03	34.106
415.38	34.794
415.74	34.534
416.09	34.291
416.45	33.802
416.80	33.377
417.16	35.791
417.51	34.771
417.87	33.654
418.22	32.618
418.58	34.087
418.93	33.600
419.29	34.309
419.64	33.879
420.00	33.171
420.35	34.087
420.71	33.592
421.06	33.592
421.42	33.626
421.77	34.249
422.12	33.520
422.48	32.380
422.83	32.615
423.19	33.702
423.54	32.618
423.90	33.681
424.25	34.059
424.61	33.631
424.96	34.577
425.31	35.271
425.67	32.584
426.02	33.429
426.38	35.043
426.73	33.587
427.09	33.982
427.44	33.870
427.79	34.273
428.15	33.274
428.50	33.879
428.85	34.148
429.21	33.462
429.56	34.266
429.92	33.317
430.27	33.714
430.62	33.282
430.98	33.939
431.33	33.814
431.68	33.822
432.04	33.067
432.39	33.866
432.74	34.411
433.10	34.126
433.45	34.519
433.80	33.259
434.16	34.028
434.51	33.158
434.86	34.493
435.22	34.408
435.57	34.650
435.92	34.172
436.28	34.935
436.63	34.934
436.98	34.803
437.34	35.361
437.69	34.831
438.04	34.907
438.39	34.925
438.75	35.328
439.10	35.028
439.45	34.120
439.81	34.683
440.16	34.952
440.51	34.095
440.86	36.016
441.22	36.207
441.57	34.926
441.92	34.954
442.27	34.930
442.63	34.913
442.98	35.549
443.33	35.000
443.68	34.796
444.03	35.041
444.39	35.151
444.74	36.039
445.09	36.604
445.44	35.539
445.79	35.230
446.15	35.363
446.50	35.272
446.85	35.252
447.20	36.053
447.55	35.623
447.91	36.238
448.26	36.116
448.61	36.009
448.96	35.991
449.31	37.008
449.66	35.903
450.02	35.487
450.37	35.714
450.72	36.605
451.07	36.746
451.42	35.258
451.77	36.054
452.12	36.836
452.47	36.318
452.83	36.480
453.18	35.697
453.53	35.993
453.88	36.562
454.23	37.059
454.58	37.068
454.93	38.334
455.28	36.783
455.63	37.561
455.98	37.440
456.34	37.249
456.69	36.756
457.04	37.276
457.39	36.587
457.74	36.274
458.09	36.285
458.44	36.203
458.79	36.117
459.14	37.020
459.49	36.836
459.84	36.066
460.19	36.064
460.54	36.227
460.89	36.753
461.24	37.826
461.59	37.304
461.94	36.745
462.29	38.279
462.64	37.013
462.99	36.435
463.34	37.600
463.69	37.899
464.04	38.145
464.39	37.507
464.74	37.077
465.09	36.610
465.44	37.618
465.79	36.689
466.14	37.274
466.49	37.208
466.84	37.653
467.19	38.322
467.54	37.375
467.89	36.675
468.24	37.638
468.59	38.645
468.94	37.935
469.29	38.175
469.64	38.554
469.99	38.295
470.34	38.507
470.68	38.506
471.03	38.163
471.38	39.611
471.73	38.041
472.08	39.013
472.43	38.945
472.78	38.315
473.13	37.677
473.48	38.764
473.83	37.134
474.17	37.150
474.52	38.213
474.87	38.646
475.22	38.654
475.57	37.990
475.92	37.653
476.27	37.937
476.61	38.389
476.96	38.043
477.31	37.206
477.66	37.637
478.01	38.160
478.36	38.868
478.70	39.408
479.05	38.232
479.40	38.946
479.75	38.129
480.10	37.575
480.45	37.220
480.79	36.837
481.14	37.280
481.49	38.016
481.84	37.311
482.19	37.801
482.53	37.018
482.88	37.878
483.23	37.991
483.58	37.762
483.92	38.051
484.27	37.037
484.62	37.845
484.97	36.973
485.31	38.527
485.66	36.922
486.01	35.575
486.36	34.193
486.70	33.108
487.05	34.145
487.40	35.546
487.75	36.199
488.09	37.064
488.44	37.191
488.79	37.685
489.13	38.579
489.48	37.561
489.83	36.901
490.17	39.281
490.52	38.353
490.87	37.630
491.22	38.063
491.56	37.722
491.91	38.157
492.26	38.218
492.60	38.111
492.95	36.763
493.30	37.523
493.64	37.891
493.99	38.394
494.34	38.483
494.68	38.416
495.03	38.064
495.37	38.576
495.72	39.522
496.07	38.654
496.41	37.478
496.76	38.083
497.11	37.731
497.45	37.913
497.80	37.620
498.14	38.599
498.49	38.683
498.84	39.741
499.18	38.524
499.53	38.651
499.87	38.630
500.22	38.719
500.56	38.738
500.91	38.077
501.26	38.265
501.60	39.677
501.95	38.359
502.29	40.206
502.64	38.082
502.98	38.382
503.33	38.711
503.67	37.726
504.02	38.821
504.36	39.214
504.71	39.619
505.06	38.747
505.40	39.135
505.75	38.380
506.09	39.310
506.44	40.059
506.78	39.601
507.13	40.737
507.47	38.838
507.82	39.970
508.16	39.868
508.51	39.726
508.85	39.921
509.19	40.867
509.54	39.949
509.88	39.722
510.23	39.692
510.57	40.196
510.92	40.445
511.26	39.671
511.61	40.508
511.95	39.718
512.30	39.555
512.64	39.602
512.98	40.461
513.33	39.668
513.67	39.861
514.02	40.206
514.36	40.634
514.70	41.229
515.05	40.993
515.39	40.998
515.74	40.259
516.08	41.364
516.42	40.899
516.77	42.140
517.11	40.844
517.46	41.422
517.80	42.741
518.14	41.343
518.49	40.898
518.83	41.193
519.17	40.820
519.52	41.143
519.86	41.472
520.20	42.139
520.55	41.831
520.89	42.092
521.23	41.978
521.58	41.777
521.92	42.070
522.26	41.306
522.61	43.676
522.95	41.682
523.29	42.057
523.64	43.415
523.98	42.514
524.32	41.918
524.66	41.732
525.01	42.341
525.35	42.255
525.69	40.333
526.04	42.555
526.38	42.709
526.72	42.147
527.06	42.812
527.41	40.656
527.75	42.958
528.09	43.674
528.43	42.894
528.78	42.163
529.12	41.515
529.46	42.254
529.80	42.450
530.15	43.115
530.49	42.154
530.83	42.785
531.17	43.473
531.51	42.996
531.86	42.065
532.20	43.286
532.54	43.049
532.88	42.683
533.22	40.725
533.57	42.963
533.91	41.481
534.25	42.710
534.59	41.123
534.93	41.701
535.27	42.969
535.62	41.026
535.96	42.687
536.30	43.102
536.64	42.627
536.98	44.127
537.32	42.330
537.66	42.467
538.01	43.910
538.35	42.986
538.69	43.395
539.03	42.170
539.37	40.958
539.71	40.959
540.05	42.157
540.39	43.189
540.73	41.656
541.07	43.219
541.42	43.509
541.76	43.548
542.10	43.208
542.44	42.914
542.78	43.215
543.12	41.011
543.46	43.148
543.80	42.876
544.14	41.784
544.48	43.492
544.82	43.040
545.16	43.852
545.50	41.645
545.84	42.204
546.18	42.828
546.52	43.427
546.86	44.055
547.20	42.684
547.54	42.552
547.88	43.622
548.22	42.279
548.56	42.201
548.90	43.086
549.24	43.098
549.58	41.337
549.92	42.170
550.26	43.608
550.60	42.393
550.94	44.014
551.28	42.356
551.62	44.428
551.96	43.789
552.30	42.799
552.64	44.016
552.98	44.136
553.32	43.358
553.66	43.013
554.00	43.445
554.34	42.926
554.68	43.205
555.02	43.230
555.36	43.285
555.69	42.355
556.03	43.203
556.37	43.042
556.71	41.951
557.05	42.507
557.39	42.477
557.73	43.896
558.07	43.872
558.41	43.054
558.75	44.526
559.08	43.848
559.42	45.351
559.76	43.309
560.10	43.326
560.44	43.256
560.78	42.781
561.12	41.095
561.45	44.068
561.79	42.584
562.13	43.461
562.47	43.306
562.81	42.887
563.15	41.739
563.48	42.706
563.82	42.922
564.16	41.988
564.50	42.773
564.84	41.656
565.17	42.921
565.51	43.195
565.85	42.259
566.19	42.267
566.52	43.192
566.86	41.893
567.20	42.983
567.54	42.637
567.88	41.771
568.21	42.275
568.55	41.911
568.89	41.294
569.23	41.399
569.56	39.838
569.90	40.566
570.24	40.330
570.57	39.544
570.91	38.914
571.25	39.253
571.59	38.910
571.92	39.372
572.26	39.486
572.60	39.309
572.93	39.070
573.27	39.219
573.61	39.950
573.95	40.078
574.28	38.392
574.62	38.605
574.96	38.590
575.29	38.215
575.63	38.389
575.97	39.104
576.30	39.060
576.64	39.222
576.98	38.819
577.31	38.933
577.65	39.175
577.98	38.581
578.32	37.947
578.66	38.365
578.99	38.347
579.33	38.756
579.67	38.531
580.00	39.415
580.34	39.369
580.67	39.045
581.01	39.847
581.35	39.231
581.68	39.167
582.02	37.939
582.35	37.685
582.69	38.014
583.02	39.130
583.36	38.783
583.70	39.486
584.03	39.394
584.37	40.738
584.70	39.995
585.04	39.677
585.37	39.702
585.71	39.215
586.04	39.430
586.38	39.446
586.72	40.044
587.05	39.364
587.39	39.182
587.72	39.346
588.06	39.941
588.39	39.863
588.73	39.718
589.06	40.916
589.40	40.337
589.73	41.464
590.07	41.423
590.40	40.044
590.73	41.764
591.07	42.247
591.40	41.797
591.74	42.468
592.07	41.012
592.41	41.091
592.74	40.787
593.08	39.640
593.41	40.177
593.75	39.007
594.08	39.792
594.41	40.509
594.75	40.628
595.08	40.659
595.42	41.576
595.75	40.741
596.09	41.081
596.42	41.847
596.75	40.734
597.09	41.861
597.42	40.556
597.75	42.087
598.09	40.609
598.42	41.452
598.76	41.305
599.09	39.947
599.42	40.539
599.76	41.508
600.09	39.781
600.42	39.810
600.76	40.429
601.09	40.947
601.42	40.906
601.76	40.645
602.09	41.067
602.42	42.237
602.76	41.717
603.09	41.699
603.42	42.093
603.76	41.159
604.09	41.140
604.42	41.133
604.76	41.755
605.09	41.634
605.42	40.915
605.75	41.432
606.09	40.870
606.42	41.847
606.75	40.481
607.09	41.607
607.42	41.677
607.75	40.970
608.08	41.033
608.42	41.596
608.75	41.749
609.08	41.212
609.41	41.076
609.75	41.401
610.08	42.177
610.41	41.620
610.74	41.533
611.07	41.848
611.41	42.002
611.74	43.238
612.07	43.012
612.40	43.442
612.73	42.105
613.07	43.696
613.40	43.339
613.73	41.846
614.06	43.495
614.39	42.528
614.72	41.947
615.06	42.857
615.39	42.410
615.72	42.178
616.05	41.946
616.38	42.301
616.71	42.993
617.05	42.697
617.38	42.934
617.71	42.943
618.04	43.269
618.37	42.342
618.70	43.684
619.03	45.329
619.36	43.313
619.69	43.732
620.03	45.810
620.36	45.388
620.69	44.863
621.02	44.174
621.35	44.792
621.68	44.782
622.01	45.279
622.34	44.327
622.67	44.791
623.00	44.461
623.33	43.031
623.66	44.818
623.99	44.183
624.32	44.365
624.65	44.562
624.99	43.555
625.32	43.809
625.65	44.778
625.98	45.350
626.31	44.557
626.64	46.367
626.97	45.885
627.30	45.802
627.63	46.349
627.96	44.996
628.29	48.294
628.62	47.301
628.95	47.453
629.28	45.894
629.61	47.754
629.94	47.143
630.26	47.760
630.59	46.806
630.92	47.605
631.25	45.015
