SpectraSuite Data File
++++++++++++++++++++++++++++++++++++
Date: Wed May 13 16:17:22 PDT 2015
User: schluterlab
Dark Spectrum Present: Yes
Reference Spectrum Present: Yes
Number of Sampled Component Spectra: 1
Spectrometers: USB2E3373
Integration Time (usec): 3000 (USB2E3373)
Spectra Averaged: 3 (USB2E3373)
Boxcar Smoothing: 0 (USB2E3373)
Correct for Electrical Dark: No (USB2E3373)
Strobe/Lamp Enabled: No (USB2E3373)
Correct for Detector Non-linearity: No (USB2E3373)
Correct for Stray Light: No (USB2E3373)
Number of Pixels in Processed Spectrum: 2048
>>>>>Begin Processed Spectral Data<<<<<
178.53	0.000
178.91	-975.000
179.29	-1225.000
179.67	-222.222
180.04	-950.000
180.42	1950.000
180.80	860.000
181.18	-975.000
181.56	685.714
181.94	0.000
182.31	-471.429
182.69	1333.333
183.07	-450.000
183.45	-400.000
183.83	463.636
184.20	-280.000
184.58	1750.000
184.96	3900.000
185.34	-500.000
185.72	-487.500
186.09	-2200.000
186.47	2250.000
186.85	2000.000
187.23	4000.000
187.61	-1466.667
187.98	1175.000
188.36	472.727
188.74	381.818
189.12	-700.000
189.49	490.000
189.87	-2400.000
190.25	-900.000
190.63	307.143
191.00	423.077
191.38	616.667
191.76	-825.000
192.14	1075.000
192.51	625.000
192.89	833.333
193.27	537.500
193.65	-950.000
194.02	500.000
194.40	660.000
194.78	420.000
195.15	441.667
195.53	470.000
195.91	-1800.000
196.29	268.750
196.66	242.105
197.04	-240.000
197.42	0.000
197.79	560.000
198.17	-4800.000
198.55	685.714
198.92	675.000
199.30	660.000
199.68	0.000
200.05	261.111
200.43	671.429
200.81	2100.000
201.18	1266.667
201.56	-1200.000
201.94	477.778
202.31	444.444
202.69	341.667
203.07	460.000
203.44	0.000
203.82	900.000
204.19	557.143
204.57	378.571
204.95	562.500
205.32	1133.333
205.70	418.182
206.08	278.571
206.45	1650.000
206.83	281.250
207.20	766.667
207.58	740.000
207.96	222.222
208.33	587.500
208.71	-683.333
209.08	657.143
209.46	455.556
209.84	436.364
210.21	-1133.333
210.59	1275.000
210.96	-187.500
211.34	1800.000
211.71	500.000
212.09	616.667
212.46	0.000
212.84	1366.667
213.22	1075.000
213.59	-4100.000
213.97	616.667
214.34	728.571
214.72	463.636
215.09	900.000
215.47	-1550.000
215.84	-1950.000
216.22	1100.000
216.59	307.143
216.97	1300.000
217.34	345.455
217.72	-450.000
218.09	0.000
218.47	-3800.000
218.84	577.778
219.22	414.286
219.59	933.333
219.97	-600.000
220.34	800.000
220.72	-1266.667
221.09	335.714
221.47	1475.000
221.84	-850.000
222.22	0.000
222.59	1225.000
222.97	-2400.000
223.34	860.000
223.72	315.385
224.09	660.000
224.46	1400.000
224.84	-4100.000
225.21	-900.000
225.59	-3000.000
225.96	520.000
226.34	255.000
226.71	2050.000
227.08	612.500
227.46	470.000
227.83	-1125.000
228.21	-1650.000
228.58	388.889
228.95	-1450.000
229.33	-1950.000
229.70	1466.667
230.08	657.143
230.45	-540.000
230.82	333.333
231.20	750.000
231.57	671.429
231.95	375.000
232.32	200.000
232.69	381.818
233.07	471.429
233.44	200.000
233.81	-1133.333
234.19	236.842
234.56	383.333
234.93	283.333
235.31	409.091
235.68	200.000
236.05	271.429
236.43	130.303
236.80	215.789
237.17	3100.000
237.55	185.714
237.92	167.857
238.29	152.381
238.67	106.452
239.04	158.621
239.41	108.333
239.79	63.043
240.16	90.476
240.53	79.545
240.91	76.471
241.28	100.000
241.65	68.000
242.02	60.870
242.40	51.613
242.77	50.000
243.14	49.462
243.51	53.933
243.89	55.294
244.26	48.889
244.63	39.785
245.00	31.915
245.38	36.634
245.75	40.187
246.12	26.606
246.49	37.956
246.87	39.200
247.24	28.462
247.61	35.714
247.98	26.144
248.36	19.595
248.73	25.478
249.10	26.752
249.47	33.333
249.84	28.877
250.22	19.786
250.59	23.077
250.96	23.737
251.33	25.118
251.70	23.267
252.08	23.333
252.45	20.179
252.82	18.696
253.19	22.128
253.56	19.608
253.94	24.896
254.31	21.094
254.68	20.385
255.05	16.605
255.42	17.886
255.79	15.441
256.16	19.134
256.54	12.721
256.91	16.014
257.28	12.230
257.65	13.201
258.02	12.422
258.39	14.196
258.76	13.378
259.14	15.476
259.51	14.286
259.88	13.354
260.25	13.293
260.62	17.919
260.99	13.043
261.36	12.613
261.73	13.754
262.10	11.337
262.47	13.521
262.85	12.535
263.22	10.826
263.59	16.809
263.96	9.890
264.33	14.621
264.70	9.474
265.07	14.322
265.44	12.879
265.81	12.652
266.18	11.809
266.55	11.220
266.92	10.074
267.29	12.731
267.66	13.532
268.03	12.045
268.40	11.916
268.77	10.501
269.14	12.162
269.51	13.318
269.88	12.121
270.25	11.287
270.62	10.112
270.99	12.688
271.36	11.373
271.73	8.178
272.10	8.478
272.47	10.753
272.84	9.740
273.21	10.901
273.58	10.480
273.95	9.015
274.32	11.364
274.69	9.636
275.06	7.874
275.43	10.851
275.80	8.216
276.17	7.536
276.54	9.148
276.91	11.660
277.28	8.984
277.65	10.251
278.02	9.938
278.39	11.719
278.76	9.091
279.13	12.453
279.50	9.870
279.87	9.163
280.23	7.585
280.60	8.511
280.97	8.503
281.34	10.088
281.71	10.727
282.08	9.213
282.45	9.091
282.82	10.124
283.19	9.447
283.56	10.175
283.92	10.491
284.29	7.055
284.66	8.167
285.03	8.680
285.40	8.099
285.77	8.418
286.14	7.427
286.51	9.333
286.87	8.205
287.24	11.726
287.61	8.668
287.98	7.630
288.35	7.448
288.72	8.723
289.08	8.451
289.45	8.896
289.82	8.943
290.19	6.907
290.56	6.126
290.93	6.647
291.29	8.129
291.66	9.292
292.03	10.320
292.40	9.545
292.77	7.840
293.13	8.507
293.50	8.163
293.87	7.852
294.24	6.519
294.60	6.114
294.97	7.558
295.34	10.014
295.71	8.665
296.08	7.407
296.44	8.253
296.81	5.812
297.18	8.130
297.55	5.409
297.91	7.124
298.28	8.568
298.65	8.877
299.02	8.300
299.38	6.109
299.75	5.391
300.12	7.024
300.48	6.625
300.85	6.905
301.22	6.497
301.59	6.818
301.95	6.675
302.32	6.162
302.69	7.168
303.05	6.303
303.42	6.049
303.79	7.814
304.15	6.760
304.52	5.794
304.89	6.504
305.25	6.265
305.62	8.154
305.99	7.910
306.35	8.166
306.72	6.839
307.09	7.103
307.45	6.982
307.82	6.473
308.19	7.726
308.55	8.198
308.92	6.982
309.29	7.392
309.65	6.151
310.02	7.505
310.38	8.387
310.75	6.653
311.12	7.984
311.48	8.464
311.85	6.918
312.22	8.117
312.58	7.484
312.95	7.075
313.31	6.796
313.68	7.173
314.05	9.862
314.41	7.839
314.78	7.553
315.14	7.646
315.51	8.960
315.87	7.921
316.24	8.838
316.61	8.382
316.97	7.926
317.34	7.926
317.70	10.134
318.07	8.373
318.43	8.708
318.80	10.872
319.16	9.605
319.53	9.756
319.89	11.238
320.26	10.700
320.62	10.516
320.99	9.293
321.35	9.596
321.72	9.343
322.08	9.477
322.45	10.945
322.81	12.306
323.18	12.331
323.54	11.410
323.91	11.981
324.27	11.090
324.64	11.184
325.00	11.271
325.37	12.375
325.73	13.285
326.10	11.915
326.46	11.290
326.83	12.770
327.19	12.980
327.56	12.195
327.92	12.686
328.29	13.221
328.65	13.168
329.01	13.899
329.38	13.599
329.74	12.742
330.11	12.630
330.47	13.774
330.84	13.695
331.20	12.113
331.56	13.761
331.93	12.778
332.29	13.576
332.66	14.336
333.02	13.894
333.38	13.460
333.75	14.617
334.11	14.413
334.48	14.463
334.84	13.971
335.20	14.636
335.57	13.418
335.93	13.393
336.29	13.095
336.66	14.518
337.02	12.308
337.38	13.889
337.75	12.299
338.11	13.429
338.47	12.799
338.84	14.024
339.20	12.844
339.56	14.142
339.93	13.364
340.29	13.225
340.65	13.280
341.02	14.572
341.38	13.790
341.74	12.368
342.11	13.886
342.47	13.656
342.83	13.613
343.20	14.026
343.56	12.637
343.92	13.860
344.28	13.435
344.65	14.015
345.01	13.300
345.37	12.693
345.73	13.536
346.10	13.299
346.46	13.390
346.82	13.674
347.19	13.534
347.55	13.136
347.91	13.107
348.27	13.722
348.63	13.462
349.00	12.136
349.36	13.711
349.72	14.354
350.08	12.561
350.45	13.100
350.81	13.079
351.17	13.938
351.53	13.268
351.89	12.789
352.26	13.970
352.62	13.793
352.98	13.452
353.34	14.051
353.70	13.421
354.07	13.387
354.43	13.333
354.79	13.435
355.15	14.286
355.51	13.909
355.87	13.633
356.24	13.029
356.60	13.553
356.96	13.194
357.32	13.818
357.68	13.622
358.04	13.539
358.40	14.014
358.77	14.789
359.13	12.549
359.49	13.725
359.85	12.540
360.21	12.679
360.57	14.397
360.93	13.000
361.29	13.530
361.66	12.926
362.02	13.209
362.38	14.068
362.74	13.839
363.10	12.435
363.46	13.940
363.82	13.908
364.18	14.097
364.54	14.413
364.90	13.739
365.26	13.088
365.62	14.317
365.98	13.514
366.35	13.754
366.71	14.389
367.07	13.765
367.43	14.586
367.79	14.632
368.15	15.445
368.51	14.172
368.87	14.204
369.23	14.411
369.59	13.541
369.95	14.779
370.31	14.744
370.67	13.623
371.03	15.955
371.39	15.015
371.75	14.559
372.11	13.798
372.47	14.809
372.83	15.274
373.19	14.595
373.55	15.004
373.91	15.317
374.27	14.364
374.63	13.600
374.99	15.184
375.35	14.934
375.71	14.805
376.07	15.775
376.42	15.612
376.78	15.176
377.14	14.586
377.50	15.364
377.86	14.761
378.22	15.360
378.58	14.286
378.94	14.959
379.30	14.695
379.66	16.371
380.02	15.541
380.38	15.422
380.74	16.267
381.09	16.320
381.45	15.673
381.81	16.278
382.17	16.242
382.53	15.597
382.89	15.494
383.25	16.010
383.61	16.605
383.97	16.510
384.32	16.032
384.68	15.366
385.04	16.288
385.40	15.542
385.76	16.585
386.12	16.127
386.48	17.244
386.83	15.972
387.19	17.316
387.55	17.316
387.91	16.082
388.27	15.757
388.62	16.964
388.98	15.602
389.34	16.959
389.70	16.554
390.06	17.364
390.42	16.667
390.77	17.812
391.13	17.103
391.49	17.322
391.85	16.996
392.20	15.584
392.56	16.793
392.92	16.775
393.28	16.272
393.64	16.547
393.99	17.288
394.35	16.377
394.71	17.252
395.07	16.636
395.42	17.182
395.78	16.921
396.14	17.070
396.50	18.170
396.85	18.309
397.21	16.708
397.57	17.235
397.92	17.368
398.28	16.872
398.64	17.324
399.00	17.459
399.35	16.413
399.71	17.072
400.07	17.859
400.42	16.503
400.78	17.672
401.14	16.463
401.49	17.612
401.85	16.576
402.21	17.605
402.57	17.335
402.92	17.087
403.28	18.114
403.63	16.770
403.99	17.580
404.35	16.909
404.70	17.086
405.06	16.890
405.42	18.465
405.77	16.457
406.13	17.156
406.49	17.623
406.84	16.716
407.20	16.135
407.55	17.549
407.91	17.533
408.27	16.592
408.62	16.918
408.98	18.076
409.34	16.851
409.69	17.355
410.05	17.782
410.40	16.820
410.76	17.204
411.11	17.612
411.47	17.125
411.83	16.310
412.18	16.388
412.54	16.936
412.89	17.771
413.25	17.651
413.60	17.851
413.96	16.272
414.31	17.801
414.67	16.920
415.03	17.285
415.38	17.204
415.74	17.492
416.09	17.374
416.45	16.934
416.80	17.317
417.16	17.895
417.51	17.651
417.87	17.341
418.22	18.233
418.58	17.560
418.93	17.568
419.29	17.505
419.64	17.632
420.00	17.500
420.35	17.855
420.71	18.231
421.06	17.363
421.42	17.895
421.77	17.993
422.12	16.676
422.48	16.352
422.83	17.472
423.19	17.182
423.54	17.818
423.90	17.333
424.25	17.141
424.61	17.321
424.96	17.143
425.31	16.722
425.67	16.966
426.02	16.800
426.38	17.705
426.73	17.028
427.09	16.900
427.44	17.251
427.79	17.079
428.15	18.036
428.50	17.613
428.85	17.878
429.21	16.952
429.56	16.589
429.92	17.162
430.27	16.931
430.62	16.641
430.98	17.073
431.33	16.959
431.68	18.115
432.04	17.093
432.39	17.990
432.74	17.834
433.10	17.487
433.45	17.609
433.80	17.129
434.16	17.415
434.51	17.421
434.86	18.187
435.22	17.343
435.57	18.055
435.92	17.437
436.28	17.972
436.63	19.150
436.98	17.687
437.34	18.426
437.69	17.678
438.04	17.650
438.39	17.194
438.75	18.187
439.10	17.374
439.45	18.241
439.81	17.885
440.16	17.335
440.51	17.692
440.86	18.471
441.22	18.298
441.57	18.100
441.92	17.861
442.27	17.653
442.63	17.378
442.98	18.310
443.33	17.554
443.68	17.295
444.03	17.814
444.39	16.943
444.74	17.641
445.09	17.520
445.44	18.043
445.79	17.021
446.15	17.734
446.50	17.771
446.85	17.472
447.20	18.358
447.55	18.370
447.91	18.312
448.26	18.865
448.61	18.485
448.96	18.272
449.31	18.616
449.66	18.177
450.02	17.047
450.37	18.311
450.72	18.274
451.07	17.489
451.42	17.812
451.77	18.849
452.12	18.418
452.47	18.035
452.83	18.648
453.18	18.949
453.53	18.986
453.88	17.956
454.23	18.530
454.58	19.079
454.93	19.135
455.28	18.080
455.63	18.143
455.98	20.417
456.34	18.216
456.69	18.472
457.04	19.071
457.39	18.586
457.74	18.746
458.09	17.941
458.44	18.016
458.79	17.570
459.14	17.946
459.49	18.856
459.84	17.839
460.19	17.089
460.54	18.692
460.89	18.651
461.24	19.186
461.59	18.652
461.94	17.818
462.29	17.864
462.64	18.698
462.99	18.673
463.34	19.267
463.69	19.762
464.04	19.246
464.39	18.551
464.74	18.182
465.09	18.335
465.44	17.452
465.79	18.121
466.14	17.843
466.49	18.687
466.84	19.031
467.19	18.648
467.54	17.813
467.89	19.028
468.24	18.499
468.59	19.658
468.94	18.509
469.29	19.087
469.64	19.411
469.99	18.877
470.34	18.164
470.68	20.330
471.03	19.524
471.38	19.249
471.73	19.853
472.08	19.868
472.43	18.907
472.78	18.433
473.13	19.384
473.48	18.976
473.83	18.841
474.17	18.917
474.52	18.610
474.87	19.615
475.22	18.630
475.57	18.861
475.92	18.747
476.27	18.489
476.61	19.250
476.96	18.197
477.31	18.263
477.66	18.490
478.01	18.453
478.36	19.196
478.70	18.432
479.05	18.477
479.40	19.038
479.75	19.675
480.10	18.638
480.45	18.087
480.79	18.108
481.14	18.738
481.49	19.127
481.84	18.519
482.19	18.628
482.53	18.670
482.88	18.241
483.23	18.738
483.58	18.517
483.92	18.557
484.27	17.560
484.62	18.362
484.97	17.737
485.31	17.945
485.66	17.109
486.01	15.862
486.36	15.437
486.70	15.318
487.05	15.765
487.40	16.905
487.75	17.360
488.09	17.137
488.44	17.178
488.79	18.409
489.13	18.487
489.48	18.067
489.83	18.170
490.17	18.544
490.52	18.379
490.87	18.137
491.22	18.099
491.56	17.175
491.91	18.660
492.26	18.650
492.60	18.018
492.95	17.961
493.30	18.738
493.64	18.245
493.99	18.431
494.34	18.594
494.68	18.544
495.03	18.656
495.37	18.474
495.72	18.957
496.07	18.376
496.41	18.319
496.76	18.821
497.11	18.460
497.45	18.537
497.80	18.906
498.14	17.923
498.49	18.098
498.84	19.607
499.18	18.952
499.53	18.661
499.87	18.313
500.22	19.265
500.56	19.466
500.91	18.413
501.26	18.682
501.60	19.269
501.95	18.286
502.29	19.166
502.64	18.436
502.98	18.934
503.33	18.419
503.67	17.912
504.02	18.803
504.36	19.092
504.71	19.394
505.06	19.036
505.40	18.814
505.75	19.190
506.09	19.096
506.44	19.635
506.78	18.997
507.13	18.879
507.47	19.747
507.82	19.149
508.16	19.807
508.51	19.432
508.85	19.215
509.19	19.592
509.54	19.235
509.88	18.856
510.23	19.126
510.57	20.021
510.92	19.731
511.26	19.579
511.61	19.398
511.95	19.624
512.30	19.353
512.64	18.807
512.98	19.025
513.33	20.182
513.67	19.424
514.02	19.913
514.36	20.098
514.70	19.923
515.05	19.632
515.39	20.022
515.74	20.101
516.08	20.850
516.42	20.533
516.77	21.237
517.11	19.978
517.46	20.824
517.80	20.732
518.14	19.514
518.49	20.653
518.83	20.795
519.17	20.843
519.52	20.034
519.86	20.308
520.20	20.405
520.55	21.484
520.89	20.681
521.23	21.170
521.58	21.309
521.92	21.066
522.26	20.622
522.61	20.748
522.95	21.179
523.29	20.511
523.64	21.159
523.98	21.319
524.32	21.834
524.66	20.866
525.01	21.140
525.35	20.632
525.69	20.936
526.04	21.745
526.38	20.317
526.72	20.491
527.06	21.783
527.41	20.792
527.75	22.058
528.09	21.066
528.43	22.116
528.78	21.266
529.12	20.242
529.46	20.576
529.80	20.916
530.15	21.121
530.49	20.062
530.83	20.886
531.17	21.606
531.51	21.790
531.86	21.677
532.20	21.708
532.54	21.397
532.88	21.117
533.22	20.675
533.57	21.296
533.91	20.409
534.25	20.413
534.59	21.415
534.93	20.642
535.27	19.734
535.62	20.757
535.96	21.343
536.30	19.962
536.64	20.798
536.98	21.301
537.32	20.276
537.66	21.267
538.01	21.461
538.35	21.719
538.69	21.570
539.03	20.078
539.37	20.256
539.71	19.313
540.05	20.261
540.39	20.532
540.73	21.216
541.07	20.960
541.42	21.787
541.76	21.742
542.10	20.893
542.44	20.066
542.78	21.607
543.12	19.962
543.46	21.508
543.80	21.145
544.14	19.961
544.48	21.968
544.82	19.756
545.16	21.210
545.50	20.244
545.84	20.094
546.18	20.202
546.52	20.509
546.86	20.619
547.20	21.106
547.54	20.975
547.88	21.365
548.22	19.365
548.56	20.503
548.90	19.974
549.24	19.865
549.58	20.873
549.92	20.536
550.26	21.023
550.60	20.470
550.94	21.268
551.28	20.410
551.62	21.352
551.96	20.140
552.30	21.229
552.64	22.042
552.98	21.288
553.32	20.499
553.66	20.586
554.00	21.139
554.34	20.704
554.68	21.531
555.02	20.522
555.36	20.598
555.69	20.433
556.03	20.794
556.37	21.351
556.71	21.010
557.05	21.429
557.39	21.344
557.73	20.325
558.07	21.175
558.41	20.984
558.75	20.132
559.08	21.029
559.42	21.542
559.76	21.471
560.10	20.200
560.44	20.685
560.78	19.827
561.12	19.855
561.45	20.665
561.79	20.369
562.13	20.322
562.47	20.697
562.81	21.199
563.15	20.803
563.48	20.690
563.82	19.700
564.16	19.490
564.50	19.987
564.84	19.406
565.17	19.949
565.51	20.192
565.85	20.051
566.19	19.724
566.52	20.013
566.86	19.952
567.20	19.870
567.54	20.205
567.88	18.740
568.21	19.259
568.55	18.857
568.89	18.142
569.23	18.137
569.56	17.490
569.90	17.132
570.24	17.043
570.57	17.375
570.91	16.774
571.25	16.924
571.59	17.143
571.92	16.417
572.26	16.638
572.60	16.697
572.93	16.702
573.27	16.386
573.61	16.360
573.95	16.305
574.28	16.307
574.62	16.011
574.96	15.699
575.29	15.858
575.63	16.057
575.97	15.959
576.30	16.330
576.64	16.300
576.98	15.678
577.31	15.850
577.65	15.440
577.98	15.581
578.32	15.210
578.66	15.409
578.99	15.522
579.33	15.953
579.67	15.617
580.00	15.800
580.34	15.876
580.67	15.788
581.01	15.966
581.35	15.709
581.68	15.492
582.02	15.025
582.35	15.172
582.69	15.160
583.02	15.589
583.36	15.794
583.70	16.184
584.03	16.144
584.37	16.311
584.70	16.223
585.04	16.071
585.37	15.890
585.71	15.954
586.04	15.511
586.38	16.118
586.72	16.653
587.05	15.811
587.39	16.042
587.72	16.001
588.06	15.848
588.39	16.269
588.73	16.779
589.06	16.360
589.40	16.734
589.73	16.473
590.07	17.046
590.40	17.136
590.73	16.237
591.07	17.135
591.40	17.672
591.74	18.355
592.07	17.234
592.41	17.487
592.74	16.255
593.08	16.622
593.41	16.609
593.75	15.740
594.08	15.991
594.41	16.472
594.75	16.747
595.08	16.714
595.42	16.637
595.75	16.204
596.09	16.710
596.42	17.328
596.75	17.349
597.09	17.186
597.42	16.737
597.75	17.206
598.09	17.174
598.42	17.225
598.76	16.700
599.09	16.838
599.42	16.121
599.76	16.691
600.09	16.138
600.42	15.997
600.76	16.357
601.09	16.867
601.42	16.324
601.76	16.281
602.09	17.036
602.42	17.197
602.76	17.050
603.09	16.208
603.42	16.712
603.76	16.006
604.09	16.673
604.42	16.592
604.76	16.997
605.09	16.994
605.42	17.059
605.75	16.887
606.09	15.982
606.42	16.224
606.75	16.591
607.09	16.995
607.42	16.688
607.75	15.781
608.08	16.674
608.42	16.943
608.75	16.592
609.08	17.484
609.41	16.516
609.75	17.199
610.08	17.813
610.41	16.899
610.74	16.367
611.07	17.787
611.41	16.781
611.74	18.150
612.07	16.977
612.40	17.576
612.73	17.684
613.07	17.565
613.40	17.852
613.73	17.200
614.06	17.204
614.39	18.039
614.72	18.211
615.06	17.595
615.39	16.879
615.72	17.229
616.05	16.959
616.38	17.565
616.71	17.755
617.05	18.021
617.38	17.739
617.71	17.237
618.04	18.389
618.37	17.504
618.70	17.797
619.03	18.355
619.36	19.212
619.69	18.803
620.03	19.025
620.36	18.048
620.69	19.247
621.02	19.764
621.35	18.403
621.68	18.069
622.01	18.731
622.34	19.138
622.67	20.000
623.00	18.342
623.33	18.656
623.66	19.871
623.99	19.514
624.32	18.902
624.65	18.150
624.99	18.130
625.32	18.320
625.65	18.933
625.98	19.370
626.31	19.984
626.64	19.020
626.97	20.033
627.30	18.703
627.63	20.263
627.96	20.521
628.29	18.460
628.62	20.586
628.95	21.132
629.28	21.259
629.61	19.707
629.94	21.238
630.26	20.400
630.59	19.542
630.92	20.594
631.25	20.336
631.58	20.220
631.91	20.385
632.24	21.097
632.57	20.986
632.90	20.504
633.23	21.141
633.56	21.921
633.89	22.084
