SpectraSuite Data File
++++++++++++++++++++++++++++++++++++
Date: Wed May 13 16:06:00 PDT 2015
User: schluterlab
Dark Spectrum Present: Yes
Reference Spectrum Present: Yes
Number of Sampled Component Spectra: 1
Spectrometers: USB2E3373
Integration Time (usec): 3000 (USB2E3373)
Spectra Averaged: 3 (USB2E3373)
Boxcar Smoothing: 0 (USB2E3373)
Correct for Electrical Dark: No (USB2E3373)
Strobe/Lamp Enabled: No (USB2E3373)
Correct for Detector Non-linearity: No (USB2E3373)
Correct for Stray Light: No (USB2E3373)
Number of Pixels in Processed Spectrum: 2048
>>>>>Begin Processed Spectral Data<<<<<
178.53	0.000
178.91	-750.000
179.29	-775.000
179.67	-105.556
180.04	-725.000
180.42	1450.000
180.80	660.000
181.18	-450.000
181.56	314.286
181.94	0.000
182.31	-285.714
182.69	833.333
183.07	-437.500
183.45	-244.444
183.83	345.455
184.20	-280.000
184.58	1150.000
184.96	3500.000
185.34	-440.000
185.72	-312.500
186.09	-1350.000
186.47	1700.000
186.85	1700.000
187.23	2900.000
187.61	-1133.333
187.98	925.000
188.36	363.636
188.74	363.636
189.12	-660.000
189.49	440.000
189.87	-2900.000
190.25	-750.000
190.63	192.857
191.00	276.923
191.38	533.333
191.76	-375.000
192.14	775.000
192.51	350.000
192.89	616.667
193.27	287.500
193.65	-600.000
194.02	300.000
194.40	480.000
194.78	290.000
195.15	316.667
195.53	450.000
195.91	-1050.000
196.29	293.750
196.66	173.684
197.04	-80.000
197.42	0.000
197.79	320.000
198.17	-2800.000
198.55	314.286
198.92	387.500
199.30	320.000
199.68	0.000
200.05	227.778
200.43	485.714
200.81	2300.000
201.18	733.333
201.56	-833.333
201.94	266.667
202.31	255.556
202.69	291.667
203.07	340.000
203.44	0.000
203.82	625.000
204.19	442.857
204.57	335.714
204.95	462.500
205.32	866.667
205.70	318.182
206.08	235.714
206.45	1400.000
206.83	262.500
207.20	416.667
207.58	340.000
207.96	166.667
208.33	450.000
208.71	-466.667
209.08	357.143
209.46	366.667
209.84	154.545
210.21	-433.333
210.59	950.000
210.96	-175.000
211.34	1350.000
211.71	370.000
212.09	316.667
212.46	0.000
212.84	966.667
213.22	825.000
213.59	-1900.000
213.97	466.667
214.34	542.857
214.72	381.818
215.09	620.000
215.47	-1100.000
215.84	-1450.000
216.22	800.000
216.59	207.143
216.97	850.000
217.34	300.000
217.72	-366.667
218.09	0.000
218.47	-2600.000
218.84	466.667
219.22	371.429
219.59	1233.333
219.97	-357.143
220.34	560.000
220.72	-966.667
221.09	235.714
221.47	1100.000
221.84	-583.333
222.22	0.000
222.59	800.000
222.97	-1700.000
223.34	620.000
223.72	246.154
224.09	600.000
224.46	1200.000
224.84	-3100.000
225.21	-640.000
225.59	-3300.000
225.96	280.000
226.34	185.000
226.71	1450.000
227.08	400.000
227.46	290.000
227.83	-500.000
228.21	-1050.000
228.58	377.778
228.95	-1150.000
229.33	-1050.000
229.70	933.333
230.08	428.571
230.45	-380.000
230.82	241.667
231.20	500.000
231.57	328.571
231.95	300.000
232.32	168.182
232.69	209.091
233.07	400.000
233.44	161.538
233.81	-566.667
234.19	178.947
234.56	241.667
234.93	200.000
235.31	190.909
235.68	146.154
236.05	228.571
236.43	103.030
236.80	152.632
237.17	2300.000
237.55	133.333
237.92	96.429
238.29	119.048
238.67	64.516
239.04	96.552
239.41	47.222
239.79	41.304
240.16	76.190
240.53	68.182
240.91	66.667
241.28	50.000
241.65	50.000
242.02	44.928
242.40	46.774
242.77	26.667
243.14	41.935
243.51	39.326
243.89	32.941
244.26	24.444
244.63	27.957
245.00	34.043
245.38	15.842
245.75	24.299
246.12	14.679
246.49	26.277
246.87	32.000
247.24	22.308
247.61	16.429
247.98	17.647
248.36	15.541
248.73	23.567
249.10	19.745
249.47	15.254
249.84	19.251
250.22	12.834
250.59	19.527
250.96	16.162
251.33	18.009
251.70	15.347
252.08	14.286
252.45	12.556
252.82	13.913
253.19	16.596
253.56	16.078
253.94	14.108
254.31	11.719
254.68	13.846
255.05	11.439
255.42	6.911
255.79	9.926
256.16	10.469
256.54	8.481
256.91	8.897
257.28	6.115
257.65	10.561
258.02	10.248
258.39	8.202
258.76	10.702
259.14	11.012
259.51	6.991
259.88	6.522
260.25	13.897
260.62	6.647
260.99	9.006
261.36	10.511
261.73	9.456
262.10	8.430
262.47	7.887
262.85	8.078
263.22	2.279
263.59	9.402
263.96	7.967
264.33	7.833
264.70	9.474
265.07	9.207
265.44	6.061
265.81	7.543
266.18	10.050
266.55	5.610
266.92	5.160
267.29	7.176
267.66	7.798
268.03	7.273
268.40	5.607
268.77	6.205
269.14	6.757
269.51	8.352
269.88	7.692
270.25	9.029
270.62	7.191
270.99	10.108
271.36	7.511
271.73	5.374
272.10	6.957
272.47	5.806
272.84	5.628
273.21	9.644
273.58	5.022
273.95	5.451
274.32	5.579
274.69	4.497
275.06	5.906
275.43	6.596
275.80	6.212
276.17	5.906
276.54	8.108
276.91	4.348
277.28	4.688
277.65	8.511
278.02	4.348
278.39	7.617
278.76	7.455
279.13	6.226
279.50	7.821
279.87	4.582
280.23	7.186
280.60	5.803
280.97	4.436
281.34	5.664
281.71	7.455
282.08	7.486
282.45	4.545
282.82	6.217
283.19	4.813
283.56	5.614
283.92	6.091
284.29	5.996
284.66	5.808
285.03	4.521
285.40	5.986
285.77	6.734
286.14	5.354
286.51	6.500
286.87	6.496
287.24	5.049
287.61	5.618
287.98	6.006
288.35	3.803
288.72	4.829
289.08	5.634
289.45	5.107
289.82	5.203
290.19	3.925
290.56	5.819
290.93	4.834
291.29	6.288
291.66	6.490
292.03	6.831
292.40	5.874
292.77	4.438
293.13	6.269
293.50	5.685
293.87	3.704
294.24	4.593
294.60	3.057
294.97	4.651
295.34	5.783
295.71	5.114
296.08	3.989
296.44	5.089
296.81	4.624
297.18	7.859
297.55	4.090
297.91	5.277
298.28	6.693
298.65	6.266
299.02	5.797
299.38	4.648
299.75	4.582
300.12	4.215
300.48	5.125
300.85	5.179
301.22	4.841
301.59	4.545
301.95	6.297
302.32	5.392
302.69	5.615
303.05	5.091
303.42	4.444
303.79	5.549
304.15	4.545
304.52	4.751
304.89	5.343
305.25	4.640
305.62	6.229
305.99	6.139
306.35	5.705
306.72	5.493
307.09	6.437
307.45	6.532
307.82	4.799
308.19	5.960
308.55	6.796
308.92	5.585
309.29	5.597
309.65	5.620
310.02	6.660
310.38	6.022
310.75	5.702
311.12	6.653
311.48	7.210
311.85	6.604
312.22	6.556
312.58	6.341
312.95	5.808
313.31	7.087
313.68	7.277
314.05	8.383
314.41	8.040
314.78	6.747
315.14	6.554
315.51	7.106
315.87	8.218
316.24	7.845
316.61	7.018
316.97	7.241
317.34	6.947
317.70	9.560
318.07	7.988
318.43	7.045
318.80	10.309
319.16	8.945
319.53	7.598
319.89	10.000
320.26	9.800
320.62	9.821
320.99	9.495
321.35	9.192
321.72	10.164
322.08	10.069
322.45	11.841
322.81	11.531
323.18	11.079
323.54	10.946
323.91	11.132
324.27	12.141
324.64	11.184
325.00	10.730
325.37	12.102
325.73	13.824
326.10	13.327
326.46	13.351
326.83	13.805
327.19	13.578
327.56	13.328
327.92	15.223
328.29	15.528
328.65	14.733
329.01	15.704
329.38	15.264
329.74	14.681
330.11	16.023
330.47	17.355
330.84	17.371
331.20	16.576
331.56	15.963
331.93	16.944
332.29	16.504
332.66	18.142
333.02	16.636
333.38	17.886
333.75	17.112
334.11	17.705
334.48	17.569
334.84	17.739
335.20	17.545
335.57	17.407
335.93	16.964
336.29	16.758
336.66	19.387
337.02	17.919
337.38	18.241
337.75	17.914
338.11	18.890
338.47	17.311
338.84	17.690
339.20	17.248
339.56	18.248
339.93	17.818
340.29	18.116
340.65	18.182
341.02	18.150
341.38	18.683
341.74	17.807
342.11	17.205
342.47	18.414
342.83	18.065
343.20	18.182
343.56	18.197
343.92	17.193
344.28	17.772
344.65	18.487
345.01	17.845
345.37	17.667
345.73	18.359
346.10	18.244
346.46	18.475
346.82	18.287
347.19	17.126
347.55	17.159
347.91	18.285
348.27	19.063
348.63	16.722
349.00	17.476
349.36	17.898
349.72	17.402
350.08	16.613
350.45	17.657
350.81	17.709
351.17	17.666
351.53	16.380
351.89	16.997
352.26	17.285
352.62	17.883
352.98	16.613
353.34	17.749
353.70	17.349
354.07	18.065
354.43	17.222
354.79	18.021
355.15	16.999
355.51	18.385
355.87	17.469
356.24	17.590
356.60	15.958
356.96	17.216
357.32	17.171
357.68	16.850
358.04	17.656
358.40	16.785
358.77	17.293
359.13	15.075
359.49	17.255
359.85	15.794
360.21	16.348
360.57	17.432
360.93	17.308
361.29	16.856
361.66	16.563
362.02	18.209
362.38	17.947
362.74	17.634
363.10	16.802
363.46	17.241
363.82	17.158
364.18	17.621
364.54	17.831
364.90	17.493
365.26	16.618
365.62	17.166
365.98	16.728
366.35	15.473
366.71	17.715
367.07	16.533
367.43	17.707
367.79	16.845
368.15	17.816
368.51	16.497
368.87	17.059
369.23	17.191
369.59	17.524
369.95	17.279
370.31	17.806
370.67	16.739
371.03	17.753
371.39	17.857
371.75	16.838
372.11	17.923
372.47	17.522
372.83	17.435
373.19	17.052
373.55	17.147
373.91	17.673
374.27	17.045
374.63	17.091
374.99	17.585
375.35	15.980
375.71	17.546
376.07	17.627
376.42	16.988
376.78	17.296
377.14	16.554
377.50	18.079
377.86	16.689
378.22	18.078
378.58	17.168
378.94	18.102
379.30	17.494
379.66	17.259
380.02	17.015
380.38	17.243
380.74	18.307
381.09	17.848
381.45	18.193
381.81	17.813
382.17	17.771
382.53	17.358
382.89	18.086
383.25	17.011
383.61	17.658
383.97	17.511
384.32	17.093
384.68	17.472
385.04	17.455
385.40	17.957
385.76	17.076
386.12	16.775
386.48	18.062
386.83	18.473
387.19	18.553
387.55	17.625
387.91	17.533
388.27	17.167
388.62	18.685
388.98	17.445
389.34	17.584
389.70	17.535
390.06	16.984
390.42	17.575
390.77	17.494
391.13	17.932
391.49	17.957
391.85	17.823
392.20	16.215
392.56	17.045
392.92	17.187
393.28	16.391
393.64	16.787
393.99	17.349
394.35	17.742
394.71	17.189
395.07	17.383
395.42	17.553
395.78	16.794
396.14	17.132
396.50	17.669
396.85	16.338
397.21	17.263
397.57	17.049
397.92	17.188
398.28	16.760
398.64	17.204
399.00	17.012
399.35	15.736
399.71	16.609
400.07	17.268
400.42	17.117
400.78	17.793
401.14	15.976
401.49	17.015
401.85	16.152
402.21	16.347
402.57	15.793
402.92	16.709
403.28	16.052
403.63	16.646
403.99	15.860
404.35	16.848
404.70	16.187
405.06	16.482
405.42	16.032
405.77	15.829
406.13	16.422
406.49	16.795
406.84	16.657
407.20	16.312
407.55	16.082
407.91	16.800
408.27	16.720
408.62	16.315
408.98	16.483
409.34	16.359
409.69	16.774
410.05	15.799
410.40	16.391
410.76	15.950
411.11	16.285
411.47	15.591
411.83	15.883
412.18	15.708
412.54	16.127
412.89	16.205
413.25	15.821
413.60	16.121
413.96	14.997
414.31	15.796
414.67	16.160
415.03	15.762
415.38	15.657
415.74	16.592
416.09	16.133
416.45	15.529
416.80	15.995
417.16	15.952
417.51	16.058
417.87	15.671
418.22	16.151
418.58	16.139
418.93	16.216
419.29	15.977
419.64	16.877
420.00	15.732
420.35	16.116
420.71	16.677
421.06	16.050
421.42	15.965
421.77	15.919
422.12	15.104
422.48	14.895
422.83	15.958
423.19	16.409
423.54	16.077
423.90	16.058
424.25	16.136
424.61	15.417
424.96	15.918
425.31	15.725
425.67	14.831
426.02	15.257
426.38	17.216
426.73	15.448
427.09	15.258
427.44	15.814
427.79	15.814
428.15	15.833
428.50	15.682
428.85	16.746
429.21	15.406
429.56	15.708
429.92	16.256
430.27	15.343
430.62	15.719
430.98	15.413
431.33	15.979
431.68	15.445
432.04	15.442
432.39	15.648
432.74	16.278
433.10	15.846
433.45	16.152
433.80	16.186
434.16	15.438
434.51	15.684
434.86	15.964
435.22	15.675
435.57	15.988
435.92	15.740
436.28	16.251
436.63	16.832
436.98	16.027
437.34	15.921
437.69	16.394
438.04	15.908
438.39	15.940
438.75	16.676
439.10	15.978
439.45	16.234
439.81	15.952
440.16	16.093
440.51	16.169
440.86	16.908
441.22	15.462
441.57	16.401
441.92	16.888
442.27	16.039
442.63	16.377
442.98	17.296
443.33	17.120
443.68	16.004
444.03	15.617
444.39	16.164
444.74	16.558
445.09	15.957
445.44	16.348
445.79	16.279
446.15	16.305
446.50	16.532
446.85	16.444
447.20	16.777
447.55	16.304
447.91	16.823
448.26	16.639
448.61	16.507
448.96	15.725
449.31	15.973
449.66	15.757
450.02	15.933
450.37	16.213
450.72	16.977
451.07	16.271
451.42	15.562
451.77	16.735
452.12	16.513
452.47	16.915
452.83	17.308
453.18	16.443
453.53	17.440
453.88	15.771
454.23	16.736
454.58	17.929
454.93	18.373
455.28	15.835
455.63	16.930
455.98	18.095
456.34	16.897
456.69	16.468
457.04	17.399
457.39	16.715
457.74	16.889
458.09	17.826
458.44	16.591
458.79	15.835
459.14	16.986
459.49	16.929
459.84	16.565
460.19	16.441
460.54	16.956
460.89	16.566
461.24	16.940
461.59	17.316
461.94	16.400
462.29	17.329
462.64	16.847
462.99	15.290
463.34	17.333
463.69	17.011
464.04	16.928
464.39	16.870
464.74	16.934
465.09	15.802
465.44	16.233
465.79	16.051
466.14	16.201
466.49	16.518
466.84	16.696
467.19	16.838
467.54	16.938
467.89	16.026
468.24	17.045
468.59	16.789
468.94	16.921
469.29	16.452
469.64	18.340
469.99	17.321
470.34	16.909
470.68	17.457
471.03	16.735
471.38	16.748
471.73	17.455
472.08	16.908
472.43	16.709
472.78	16.919
473.13	17.458
473.48	16.979
473.83	16.098
474.17	16.304
474.52	16.439
474.87	17.688
475.22	16.483
475.57	15.852
475.92	16.994
476.27	16.516
476.61	15.996
476.96	17.152
477.31	16.954
477.66	16.302
478.01	15.525
478.36	16.869
478.70	16.199
479.05	16.560
479.40	16.888
479.75	16.980
480.10	15.855
480.45	16.135
480.79	16.054
481.14	15.802
481.49	16.184
481.84	15.821
482.19	16.265
482.53	15.963
482.88	16.519
483.23	16.589
483.58	16.606
483.92	16.589
484.27	15.686
484.62	15.690
484.97	16.121
485.31	16.473
485.66	15.241
486.01	14.554
486.36	14.567
486.70	14.129
487.05	14.479
487.40	14.862
487.75	14.896
488.09	15.529
488.44	14.777
488.79	15.660
489.13	16.425
489.48	15.987
489.83	15.753
490.17	16.352
490.52	15.722
490.87	15.694
491.22	16.053
491.56	16.173
491.91	16.101
492.26	15.985
492.60	16.452
492.95	15.248
493.30	15.140
493.64	15.866
493.99	15.692
494.34	15.726
494.68	16.438
495.03	16.541
495.37	16.007
495.72	15.546
496.07	16.148
496.41	15.133
496.76	15.743
497.11	15.714
497.45	16.069
497.80	16.219
498.14	15.604
498.49	15.756
498.84	16.826
499.18	16.048
499.53	15.100
499.87	16.123
500.22	15.450
500.56	16.456
500.91	16.538
501.26	16.501
501.60	17.038
501.95	15.949
502.29	16.073
502.64	15.829
502.98	15.428
503.33	15.722
503.67	15.731
504.02	15.996
504.36	16.612
504.71	16.268
505.06	16.241
505.40	16.140
505.75	15.526
506.09	15.209
506.44	16.478
506.78	15.928
507.13	15.699
507.47	15.606
507.82	16.413
508.16	15.907
508.51	15.779
508.85	15.690
509.19	16.020
509.54	16.224
509.88	16.744
510.23	15.578
510.57	16.873
510.92	15.277
511.26	16.290
511.61	16.649
511.95	15.658
512.30	16.331
512.64	16.013
512.98	16.077
513.33	17.291
513.67	15.635
514.02	16.288
514.36	16.658
514.70	17.100
515.05	16.453
515.39	16.826
515.74	16.779
516.08	17.049
516.42	17.869
516.77	17.057
517.11	15.816
517.46	16.874
517.80	16.260
518.14	16.561
518.49	16.861
518.83	16.761
519.17	17.032
519.52	16.242
519.86	16.828
520.20	17.168
520.55	17.654
520.89	17.092
521.23	17.551
521.58	17.947
521.92	16.289
522.26	16.168
522.61	17.819
522.95	17.127
523.29	17.407
523.64	16.829
523.98	16.882
524.32	16.285
524.66	17.438
525.01	16.360
525.35	16.853
525.69	17.303
526.04	16.449
526.38	16.534
526.72	16.564
527.06	16.886
527.41	15.842
527.75	17.556
528.09	17.020
528.43	17.081
528.78	16.964
529.12	16.485
529.46	17.514
529.80	17.327
530.15	16.511
530.49	16.000
530.83	17.152
531.17	17.232
531.51	17.250
531.86	17.097
532.20	17.731
532.54	17.425
532.88	17.330
533.22	16.115
533.57	16.543
533.91	16.075
534.25	17.558
534.59	17.511
534.93	16.538
535.27	16.174
535.62	17.033
535.96	16.886
536.30	16.465
536.64	17.193
536.98	16.722
537.32	16.656
537.66	16.467
538.01	17.512
538.35	16.742
538.69	17.805
539.03	16.179
539.37	16.486
539.71	14.776
540.05	16.928
540.39	16.279
540.73	16.882
541.07	17.456
541.42	16.960
541.76	16.516
542.10	17.400
542.44	16.623
542.78	16.996
543.12	15.995
543.46	17.377
543.80	17.241
544.14	16.431
544.48	17.905
544.82	16.613
545.16	16.916
545.50	16.645
545.84	16.868
546.18	17.576
546.52	16.999
546.86	16.564
547.20	18.004
547.54	16.700
547.88	18.367
548.22	16.252
548.56	16.352
548.90	16.261
549.24	15.421
549.58	17.190
549.92	17.033
550.26	17.685
550.60	16.667
550.94	16.690
551.28	17.630
551.62	16.104
551.96	16.211
552.30	17.065
552.64	16.903
552.98	16.000
553.32	16.925
553.66	17.655
554.00	16.884
554.34	15.666
554.68	17.597
555.02	17.137
555.36	17.049
555.69	15.697
556.03	15.814
556.37	16.780
556.71	16.098
557.05	16.106
557.39	17.285
557.73	15.737
558.07	16.824
558.41	15.991
558.75	16.532
559.08	16.928
559.42	16.175
559.76	17.279
560.10	16.131
560.44	16.352
560.78	15.768
561.12	16.095
561.45	17.014
561.79	16.150
562.13	16.164
562.47	16.735
562.81	17.225
563.15	16.187
563.48	17.042
563.82	15.460
564.16	15.697
564.50	15.755
564.84	15.424
565.17	16.345
565.51	16.166
565.85	16.053
566.19	15.592
566.52	17.289
566.86	15.793
567.20	16.274
567.54	16.895
567.88	15.752
568.21	16.402
568.55	15.167
568.89	14.883
569.23	15.374
569.56	15.101
569.90	15.057
570.24	14.496
570.57	14.519
570.91	14.383
571.25	14.392
571.59	14.433
571.92	13.969
572.26	14.385
572.60	14.354
572.93	14.063
573.27	14.256
573.61	14.405
573.95	14.522
574.28	13.593
574.62	14.018
574.96	13.644
575.29	13.603
575.63	13.847
575.97	13.798
576.30	14.180
576.64	14.076
576.98	13.782
577.31	13.748
577.65	13.789
577.98	13.571
578.32	13.384
578.66	13.354
578.99	13.992
579.33	13.653
579.67	13.719
580.00	13.642
580.34	14.072
580.67	13.637
581.01	14.324
581.35	13.663
581.68	13.837
582.02	13.224
582.35	13.273
582.69	13.663
583.02	13.455
583.36	13.788
583.70	13.836
584.03	13.898
584.37	14.387
584.70	14.237
585.04	14.066
585.37	13.886
585.71	14.380
586.04	13.892
586.38	14.420
586.72	14.223
587.05	13.855
587.39	14.063
587.72	14.429
588.06	13.901
588.39	14.321
588.73	14.403
589.06	14.677
589.40	14.276
589.73	14.396
590.07	14.377
590.40	14.066
590.73	14.637
591.07	15.222
591.40	15.352
591.74	16.190
592.07	15.401
592.41	15.337
592.74	14.757
593.08	14.524
593.41	14.268
593.75	13.991
594.08	14.348
594.41	14.316
594.75	14.455
595.08	14.209
595.42	14.571
595.75	14.387
596.09	14.758
596.42	15.128
596.75	14.394
597.09	15.411
597.42	14.207
597.75	14.963
598.09	15.217
598.42	14.433
598.76	14.674
599.09	13.797
599.42	14.374
599.76	14.531
600.09	13.807
600.42	14.317
600.76	13.786
601.09	14.390
601.42	14.536
601.76	14.915
602.09	14.387
602.42	15.088
602.76	14.954
603.09	14.910
603.42	14.838
603.76	14.024
604.09	14.036
604.42	14.350
604.76	14.973
605.09	14.679
605.42	14.322
605.75	14.528
606.09	14.274
606.42	14.548
606.75	14.434
607.09	15.069
607.42	14.420
607.75	14.262
608.08	14.503
608.42	15.150
608.75	14.563
609.08	14.986
609.41	14.898
609.75	14.578
610.08	15.410
610.41	14.804
610.74	14.664
611.07	14.427
611.41	14.769
611.74	15.535
612.07	15.787
612.40	15.268
612.73	15.105
613.07	15.733
613.40	15.324
613.73	14.945
614.06	15.430
614.39	15.312
614.72	15.684
615.06	15.021
615.39	15.393
615.72	14.468
616.05	14.939
616.38	14.953
616.71	15.974
617.05	15.724
617.38	15.334
617.71	15.075
618.04	15.986
618.37	15.021
618.70	15.121
619.03	15.658
619.36	15.682
619.69	15.493
620.03	16.140
620.36	15.642
620.69	16.507
621.02	17.035
621.35	15.583
621.68	16.433
622.01	16.718
622.34	17.020
622.67	15.589
623.00	16.214
623.33	15.797
623.66	15.654
623.99	15.390
624.32	15.335
624.65	15.960
624.99	15.014
625.32	14.555
625.65	16.153
625.98	16.449
626.31	16.252
626.64	16.490
626.97	16.209
627.30	16.791
627.63	18.212
627.96	16.148
628.29	15.748
628.62	16.651
628.95	17.170
629.28	15.876
629.61	17.049
629.94	16.095
630.26	15.634
630.59	16.206
630.92	15.421
631.25	15.992
631.58	16.016
631.91	16.024
632.24	16.667
632.57	17.733
632.90	16.996
633.23	17.785
633.56	16.610
633.89	18.800
634.22	18.502
634.55	18.343
634.88	16.647
635.20	18.757
635.53	17.470
