SpectraSuite Data File
++++++++++++++++++++++++++++++++++++
Date: Wed May 13 16:55:34 PDT 2015
User: schluterlab
Dark Spectrum Present: Yes
Reference Spectrum Present: Yes
Number of Sampled Component Spectra: 1
Spectrometers: USB2E3373
Integration Time (usec): 3000 (USB2E3373)
Spectra Averaged: 3 (USB2E3373)
Boxcar Smoothing: 0 (USB2E3373)
Correct for Electrical Dark: No (USB2E3373)
Strobe/Lamp Enabled: No (USB2E3373)
Correct for Detector Non-linearity: No (USB2E3373)
Correct for Stray Light: No (USB2E3373)
Number of Pixels in Processed Spectrum: 2048
>>>>>Begin Processed Spectral Data<<<<<
178.53	0.000
178.91	-1175.000
179.29	-1450.000
179.67	-250.000
180.04	-1525.000
180.42	2600.000
180.80	1160.000
181.18	-1100.000
181.56	700.000
181.94	0.000
182.31	-714.286
182.69	1666.667
183.07	-512.500
183.45	-477.778
183.83	600.000
184.20	-390.000
184.58	2400.000
184.96	5700.000
185.34	-840.000
185.72	-587.500
186.09	-2650.000
186.47	2800.000
186.85	1900.000
187.23	5000.000
187.61	-1566.667
187.98	1300.000
188.36	545.455
188.74	490.909
189.12	-940.000
189.49	570.000
189.87	-4600.000
190.25	-1350.000
190.63	371.429
191.00	438.462
191.38	916.667
191.76	-1175.000
192.14	1575.000
192.51	650.000
192.89	983.333
193.27	737.500
193.65	-1225.000
194.02	460.000
194.40	1180.000
194.78	560.000
195.15	500.000
195.53	620.000
195.91	-2350.000
196.29	368.750
196.66	321.053
197.04	-390.000
197.42	0.000
197.79	640.000
198.17	-4800.000
198.55	700.000
198.92	737.500
199.30	1140.000
199.68	0.000
200.05	333.333
200.43	885.714
200.81	4100.000
201.18	1600.000
201.56	-1600.000
201.94	533.333
202.31	666.667
202.69	375.000
203.07	510.000
203.44	0.000
203.82	1325.000
204.19	671.429
204.57	400.000
204.95	687.500
205.32	1566.667
205.70	618.182
206.08	385.714
206.45	2850.000
206.83	393.750
207.20	1000.000
207.58	860.000
207.96	372.222
208.33	637.500
208.71	-850.000
209.08	842.857
209.46	488.889
209.84	481.818
210.21	-1533.333
210.59	1325.000
210.96	-500.000
211.34	3000.000
211.71	540.000
212.09	883.333
212.46	0.000
212.84	1566.667
213.22	1500.000
213.59	-4200.000
213.97	816.667
214.34	728.571
214.72	554.545
215.09	1080.000
215.47	-2150.000
215.84	-2500.000
216.22	1900.000
216.59	457.143
216.97	1450.000
217.34	436.364
217.72	-816.667
218.09	0.000
218.47	-5300.000
218.84	611.111
219.22	714.286
219.59	1866.667
219.97	-614.286
220.34	860.000
220.72	-2066.667
221.09	392.857
221.47	1400.000
221.84	-866.667
222.22	0.000
222.59	1275.000
222.97	-2200.000
223.34	1220.000
223.72	453.846
224.09	1040.000
224.46	2300.000
224.84	-4900.000
225.21	-1040.000
225.59	-5200.000
225.96	590.000
226.34	315.000
226.71	2750.000
227.08	712.500
227.46	520.000
227.83	-1225.000
228.21	-2700.000
228.58	655.556
228.95	-2550.000
229.33	-2550.000
229.70	1633.333
230.08	742.857
230.45	-920.000
230.82	533.333
231.20	816.667
231.57	585.714
231.95	541.667
232.32	259.091
232.69	454.545
233.07	728.571
233.44	400.000
233.81	-1866.667
234.19	305.263
234.56	383.333
234.93	475.000
235.31	427.273
235.68	361.538
236.05	407.143
236.43	184.848
236.80	289.474
237.17	4400.000
237.55	304.762
237.92	207.143
238.29	276.190
238.67	190.323
239.04	193.103
239.41	172.222
239.79	123.913
240.16	150.000
240.53	147.727
240.91	113.725
241.28	126.000
241.65	110.000
242.02	115.942
242.40	103.226
242.77	103.333
243.14	88.172
243.51	89.888
243.89	96.471
244.26	84.444
244.63	74.194
245.00	82.979
245.38	81.188
245.75	69.159
246.12	67.890
246.49	78.832
246.87	72.000
247.24	66.154
247.61	60.000
247.98	64.052
248.36	59.459
248.73	65.605
249.10	65.605
249.47	53.107
249.84	57.754
250.22	61.497
250.59	57.988
250.96	53.030
251.33	56.398
251.70	54.455
252.08	59.048
252.45	45.291
252.82	47.391
253.19	48.936
253.56	51.373
253.94	51.037
254.31	49.609
254.68	51.538
255.05	51.661
255.42	44.309
255.79	50.000
256.16	49.097
256.54	48.410
256.91	49.822
257.28	44.964
257.65	47.525
258.02	45.031
258.39	45.110
258.76	46.823
259.14	46.131
259.51	42.249
259.88	46.584
260.25	46.526
260.62	42.775
260.99	45.963
261.36	48.048
261.73	42.980
262.10	41.279
262.47	47.042
262.85	43.175
263.22	41.595
263.59	44.160
263.96	40.385
264.33	43.864
264.70	41.053
265.07	41.176
265.44	43.182
265.81	39.659
266.18	42.462
266.55	40.244
266.92	37.592
267.29	42.593
267.66	40.596
268.03	37.727
268.40	42.290
268.77	41.050
269.14	40.991
269.51	42.664
269.88	41.958
270.25	40.406
270.62	40.899
270.99	42.581
271.36	37.554
271.73	42.523
272.10	39.783
272.47	40.430
272.84	38.745
273.21	41.090
273.58	38.210
273.95	35.849
274.32	38.223
274.69	39.186
275.06	35.630
275.43	39.574
275.80	38.076
276.17	39.104
276.54	41.164
276.91	36.759
277.28	35.742
277.65	40.232
278.02	36.232
278.39	40.820
278.76	35.273
279.13	38.868
279.50	35.940
279.87	39.044
280.23	38.922
280.60	38.104
280.97	38.817
281.34	38.584
281.71	37.091
282.08	38.004
282.45	39.091
282.82	34.813
283.19	36.720
283.56	34.211
283.92	36.210
284.29	33.862
284.66	34.301
285.03	36.166
285.40	33.803
285.77	35.690
286.14	32.988
286.51	35.333
286.87	34.188
287.24	35.668
287.61	34.992
287.98	33.766
288.35	33.122
288.72	34.112
289.08	33.803
289.45	33.937
289.82	34.309
290.19	32.496
290.56	33.997
290.93	33.233
291.29	33.742
291.66	34.513
292.03	33.285
292.40	33.333
292.77	30.917
293.13	31.642
293.50	32.362
293.87	33.037
294.24	30.815
294.60	31.004
294.97	29.651
295.34	29.760
295.71	29.830
296.08	30.199
296.44	29.849
296.81	26.156
297.18	29.268
297.55	27.309
297.91	27.836
298.28	29.853
298.65	28.721
299.02	28.986
299.38	27.357
299.75	28.571
300.12	27.714
300.48	26.625
300.85	27.497
301.22	27.643
301.59	25.631
301.95	26.952
302.32	27.086
302.69	27.957
303.05	26.303
303.42	26.790
303.79	26.048
304.15	27.273
304.52	25.492
304.89	27.875
305.25	25.870
305.62	26.048
305.99	26.092
306.35	25.056
306.72	26.457
307.09	26.415
307.45	26.351
307.82	25.112
308.19	25.497
308.55	25.351
308.92	25.779
309.29	23.865
309.65	25.981
310.02	25.264
310.38	25.376
310.75	25.766
311.12	24.667
311.48	24.660
311.85	26.310
312.22	26.535
312.58	24.844
312.95	25.766
313.31	24.272
313.68	25.780
314.05	24.951
314.41	25.226
314.78	25.176
315.14	23.932
315.51	25.541
315.87	24.851
316.24	25.223
316.61	23.489
316.97	24.364
317.34	24.070
317.70	24.952
318.07	24.735
318.43	25.049
318.80	25.961
319.16	24.953
319.53	24.109
319.89	25.238
320.26	24.600
320.62	24.802
320.99	24.343
321.35	25.253
321.72	24.230
322.08	23.988
322.45	26.169
322.81	25.194
323.18	25.819
323.54	25.417
323.91	24.623
324.27	24.857
324.64	23.952
325.00	23.986
325.37	23.112
325.73	25.494
326.10	23.654
326.46	23.118
326.83	24.418
327.19	24.594
327.56	24.042
327.92	23.710
328.29	23.602
328.65	24.494
329.01	24.549
329.38	25.069
329.74	23.361
330.11	23.940
330.47	24.242
330.84	24.632
331.20	22.860
331.56	23.303
331.93	22.593
332.29	23.602
332.66	23.451
333.02	22.761
333.38	25.203
333.75	25.490
334.11	23.043
334.48	22.360
334.84	23.162
335.20	23.909
335.57	23.844
335.93	22.589
336.29	23.626
336.66	23.445
337.02	23.258
337.38	22.778
337.75	22.995
338.11	23.456
338.47	22.376
338.84	23.648
339.20	21.743
339.56	24.088
339.93	22.273
340.29	23.098
340.65	22.727
341.02	23.298
341.38	23.932
341.74	22.544
342.11	23.319
342.47	22.819
342.83	21.918
343.20	24.069
343.56	22.662
343.92	22.807
344.28	22.279
344.65	23.388
345.01	21.549
345.37	21.955
345.73	24.196
346.10	22.506
346.46	22.627
346.82	22.158
347.19	21.888
347.55	22.906
347.91	22.492
348.27	23.090
348.63	22.157
349.00	21.764
349.36	22.332
349.72	21.572
350.08	21.232
350.45	22.050
350.81	22.502
351.17	21.556
351.53	21.212
351.89	21.535
352.26	21.863
352.62	22.694
352.98	22.204
353.34	22.021
353.70	20.376
354.07	22.258
354.43	22.778
354.79	20.354
355.15	21.868
355.51	21.982
355.87	22.939
356.24	22.394
356.60	21.893
356.96	21.802
357.32	21.913
357.68	21.732
358.04	21.140
358.40	22.644
358.77	21.205
359.13	20.047
359.49	20.314
359.85	20.317
360.21	20.654
360.57	22.568
360.93	22.000
361.29	20.862
361.66	20.975
362.02	22.239
362.38	20.837
362.74	20.833
363.10	20.503
363.46	20.029
363.82	20.333
364.18	20.925
364.54	22.140
364.90	21.813
365.26	21.103
365.62	20.307
365.98	20.307
366.35	19.484
366.71	20.390
367.07	20.029
367.43	20.972
367.79	21.271
368.15	22.342
368.51	19.477
368.87	20.985
369.23	20.702
369.59	21.579
369.95	20.294
370.31	20.085
370.67	20.652
371.03	21.723
371.39	20.773
371.75	20.662
372.11	20.768
372.47	21.701
372.83	21.614
373.19	21.026
373.55	20.769
373.91	21.944
374.27	19.931
374.63	20.655
374.99	20.692
375.35	19.888
375.71	20.631
376.07	21.125
376.42	20.977
376.78	20.941
377.14	20.421
377.50	20.993
377.86	20.080
378.22	20.164
378.58	18.922
378.94	19.673
379.30	20.229
379.66	20.241
380.02	21.622
380.38	19.733
380.74	20.528
381.09	19.560
381.45	20.959
381.81	20.946
382.17	20.191
382.53	20.126
382.89	21.358
383.25	20.263
383.61	20.384
383.97	20.763
384.32	20.337
384.68	20.260
385.04	20.406
385.40	20.000
385.76	19.717
386.12	20.466
386.48	21.082
386.83	20.462
387.19	20.779
387.55	19.852
387.91	20.193
388.27	19.865
388.62	19.238
388.98	19.902
389.34	21.089
389.70	20.478
390.06	20.849
390.42	20.882
390.77	20.547
391.13	20.102
391.49	20.876
391.85	19.669
392.20	19.558
392.56	20.265
392.92	19.953
393.28	19.882
393.64	20.863
393.99	20.953
394.35	20.037
394.71	20.891
395.07	20.561
395.42	20.952
395.78	20.293
396.14	21.105
396.50	20.363
396.85	19.708
397.21	20.592
397.57	20.831
397.92	20.913
398.28	19.563
398.64	19.952
399.00	19.810
399.35	19.346
399.71	20.370
400.07	20.639
400.42	20.613
400.78	21.170
401.14	20.122
401.49	19.701
401.85	19.540
402.21	18.982
402.57	20.049
402.92	19.735
403.28	21.362
403.63	20.359
403.99	20.255
404.35	20.424
404.70	19.604
405.06	20.617
405.42	19.900
405.77	19.771
406.13	20.147
406.49	20.106
406.84	20.555
407.20	19.681
407.55	20.102
407.91	20.000
408.27	19.719
408.62	20.349
408.98	19.485
409.34	20.234
409.69	20.129
410.05	20.756
410.40	19.511
410.76	19.056
411.11	20.265
411.47	19.808
411.83	19.914
412.18	19.419
412.54	19.552
412.89	19.940
413.25	20.071
413.60	20.568
413.96	19.308
414.31	19.745
414.67	20.025
415.03	19.868
415.38	19.652
415.74	19.807
416.09	19.726
416.45	19.813
416.80	19.498
417.16	20.107
417.51	20.239
417.87	19.782
418.22	20.946
418.58	19.884
418.93	20.147
419.29	19.860
419.64	20.340
420.00	20.366
420.35	20.058
420.71	20.203
421.06	19.749
421.42	19.942
421.77	19.226
422.12	19.652
422.48	18.457
422.83	19.918
423.19	20.110
423.54	20.081
423.90	20.522
424.25	20.045
424.61	20.238
424.96	19.708
425.31	19.989
425.67	18.933
426.02	19.886
426.38	19.780
426.73	18.841
427.09	19.574
427.44	19.321
427.79	19.551
428.15	20.000
428.50	19.602
428.85	20.024
429.21	18.829
429.56	19.336
429.92	18.822
430.27	19.315
430.62	19.252
430.98	19.097
431.33	19.536
431.68	19.319
432.04	19.010
432.39	19.246
432.74	19.868
433.10	20.204
433.45	20.583
433.80	19.678
434.16	19.498
434.51	19.000
434.86	20.068
435.22	19.177
435.57	19.757
435.92	19.134
436.28	20.047
436.63	19.923
436.98	18.489
437.34	19.738
437.69	19.720
438.04	19.224
438.39	18.567
438.75	19.175
439.10	19.609
439.45	19.599
439.81	18.429
440.16	19.424
440.51	19.625
440.86	19.572
441.22	18.743
441.57	18.631
441.92	19.754
442.27	18.891
442.63	19.221
442.98	19.549
443.33	19.239
443.68	19.050
444.03	18.887
444.39	18.647
444.74	19.589
445.09	19.353
445.44	18.917
445.79	19.000
446.15	19.746
446.50	19.763
446.85	19.013
447.20	18.868
447.55	19.375
447.91	19.360
448.26	19.254
448.61	19.333
448.96	19.269
449.31	19.291
449.66	19.809
450.02	18.050
450.37	18.934
450.72	18.895
451.07	18.647
451.42	18.967
451.77	20.082
452.12	19.804
452.47	19.279
452.83	19.406
453.18	19.377
453.53	19.728
453.88	19.197
454.23	18.589
454.58	19.564
454.93	20.470
455.28	19.264
455.63	18.811
455.98	20.119
456.34	19.221
456.69	20.288
457.04	19.071
457.39	18.936
457.74	18.862
458.09	20.184
458.44	19.384
458.79	18.113
459.14	19.131
459.49	19.323
459.84	19.003
460.19	17.914
460.54	18.634
460.89	18.925
461.24	18.822
461.59	20.105
461.94	19.297
462.29	19.407
462.64	19.336
462.99	19.584
463.34	19.867
463.69	18.449
464.04	18.899
464.39	19.420
464.74	19.251
465.09	18.637
465.44	18.947
465.79	18.456
466.14	18.117
466.49	19.077
466.84	19.323
467.19	19.493
467.54	19.437
467.89	19.148
468.24	19.663
468.59	19.475
468.94	18.693
469.29	19.409
469.64	19.277
469.99	19.012
470.34	19.155
470.68	19.397
471.03	19.660
471.38	19.180
471.73	19.387
472.08	19.013
472.43	20.163
472.78	18.367
473.13	18.485
473.48	19.351
473.83	19.390
474.17	18.855
474.52	18.921
474.87	19.498
475.22	19.037
475.57	18.270
475.92	18.906
476.27	18.602
476.61	18.974
476.96	18.582
477.31	18.367
477.66	18.600
478.01	18.557
478.36	18.826
478.70	18.380
479.05	18.637
479.40	19.038
479.75	18.760
480.10	18.091
480.45	18.229
480.79	17.726
481.14	18.444
481.49	18.652
481.84	18.061
482.19	17.765
482.53	18.440
482.88	19.265
483.23	17.944
483.58	18.471
483.92	18.276
484.27	17.952
484.62	17.845
484.97	17.856
485.31	17.979
485.66	17.404
486.01	16.618
486.36	15.582
486.70	15.538
487.05	16.419
487.40	16.650
487.75	16.813
488.09	17.592
488.44	17.712
488.79	18.228
489.13	18.564
489.48	17.741
489.83	16.918
490.17	18.676
490.52	18.202
490.87	18.137
491.22	17.553
491.56	16.993
491.91	17.915
492.26	17.501
492.60	17.650
492.95	17.774
493.30	17.710
493.64	17.685
493.99	17.874
494.34	17.021
494.68	17.857
495.03	18.186
495.37	17.357
495.72	18.031
496.07	18.608
496.41	17.389
496.76	18.338
497.11	17.920
497.45	18.258
497.80	17.610
498.14	17.778
498.49	17.707
498.84	18.696
499.18	17.619
499.53	17.664
499.87	18.173
500.22	17.240
500.56	18.786
500.91	16.875
501.26	18.303
501.60	18.035
501.95	17.553
502.29	17.526
502.64	17.691
502.98	18.373
503.33	16.819
503.67	17.958
504.02	17.259
504.36	17.595
504.71	17.538
505.06	17.639
505.40	17.501
505.75	17.792
506.09	17.396
506.44	18.007
506.78	17.681
507.13	17.466
507.47	17.778
507.82	18.744
508.16	18.389
508.51	18.721
508.85	17.875
509.19	17.449
509.54	17.704
509.88	17.517
510.23	17.995
510.57	18.215
510.92	17.866
511.26	18.088
511.61	18.050
511.95	18.163
512.30	17.497
512.64	17.786
512.98	18.221
513.33	17.398
513.67	17.930
514.02	17.424
514.36	17.313
514.70	17.598
515.05	18.182
515.39	18.284
515.74	18.356
516.08	18.390
516.42	18.313
516.77	19.231
517.11	17.814
517.46	17.777
517.80	18.235
518.14	17.834
518.49	18.145
518.83	18.068
519.17	18.360
519.52	18.223
519.86	18.654
520.20	18.382
520.55	17.774
520.89	17.883
521.23	19.119
521.58	18.307
521.92	17.820
522.26	17.694
522.61	18.006
522.95	17.618
523.29	18.077
523.64	18.537
523.98	18.176
524.32	17.853
524.66	18.280
525.01	18.382
525.35	18.030
525.69	18.165
526.04	18.069
526.38	18.914
526.72	18.589
527.06	18.016
527.41	17.017
527.75	18.521
528.09	18.561
528.43	18.356
528.78	19.545
529.12	17.515
529.46	18.555
529.80	17.760
530.15	19.003
530.49	17.969
530.83	18.671
531.17	19.060
531.51	19.131
531.86	19.097
532.20	19.883
532.54	19.539
532.88	18.614
533.22	17.739
533.57	18.765
533.91	18.122
534.25	18.287
534.59	18.487
534.93	18.203
535.27	18.165
535.62	18.498
535.96	18.770
536.30	18.309
536.64	18.287
536.98	18.315
537.32	17.841
537.66	18.067
538.01	18.762
538.35	18.681
538.69	19.400
539.03	17.999
539.37	16.997
539.71	16.980
540.05	17.843
540.39	18.538
540.73	17.917
541.07	19.079
541.42	18.526
541.76	18.968
542.10	19.340
542.44	18.344
542.78	18.445
543.12	17.722
543.46	18.557
543.80	18.087
544.14	17.651
544.48	19.111
544.82	18.345
545.16	17.957
545.50	18.380
545.84	18.280
546.18	17.441
546.52	19.133
546.86	17.938
547.20	18.813
547.54	18.504
547.88	19.069
548.22	18.369
548.56	18.616
548.90	17.542
549.24	17.104
549.58	18.622
549.92	18.475
550.26	19.815
550.60	18.188
550.94	19.155
551.28	18.508
551.62	19.051
551.96	17.965
552.30	19.249
552.64	18.458
552.98	18.237
553.32	19.218
553.66	18.882
554.00	19.355
554.34	18.219
554.68	19.313
555.02	17.983
555.36	18.024
555.69	17.253
556.03	18.439
556.37	18.076
556.71	18.486
557.05	18.137
557.39	18.195
557.73	18.843
558.07	18.564
558.41	18.379
558.75	19.251
559.08	19.239
559.42	18.670
559.76	18.824
560.10	18.915
560.44	19.147
560.78	17.432
561.12	17.942
561.45	18.253
561.79	18.062
562.13	19.852
562.47	18.169
562.81	19.107
563.15	17.793
563.48	18.833
563.82	18.069
564.16	17.070
564.50	17.969
564.84	18.015
565.17	18.082
565.51	18.786
565.85	18.401
566.19	17.909
566.52	19.063
566.86	17.782
567.20	18.101
567.54	18.322
567.88	17.490
568.21	17.884
568.55	17.796
568.89	17.267
569.23	17.201
569.56	16.680
569.90	16.755
570.24	17.223
570.57	16.797
570.91	16.742
571.25	16.461
571.59	16.701
571.92	16.820
572.26	17.100
572.60	16.847
572.93	16.582
573.27	17.007
573.61	16.834
573.95	16.512
574.28	16.357
574.62	16.399
574.96	15.962
575.29	16.295
575.63	16.743
575.97	16.610
576.30	16.968
576.64	16.073
576.98	16.359
577.31	16.335
577.65	16.287
577.98	16.305
578.32	16.322
578.66	16.038
578.99	16.617
579.33	16.146
579.67	15.982
580.00	16.567
580.34	16.398
580.67	16.095
581.01	16.865
581.35	16.118
581.68	16.496
582.02	16.162
582.35	15.986
582.69	15.861
583.02	16.175
583.36	16.694
583.70	16.933
584.03	16.823
584.37	17.365
584.70	16.876
585.04	16.389
585.37	16.473
585.71	16.400
586.04	16.622
586.38	16.954
586.72	16.984
587.05	16.952
587.39	16.491
587.72	16.954
588.06	16.089
588.39	16.818
588.73	16.720
589.06	17.077
589.40	17.037
589.73	17.459
590.07	17.687
590.40	16.843
590.73	17.916
591.07	17.867
591.40	17.124
591.74	18.052
592.07	17.627
592.41	17.652
592.74	17.715
593.08	16.889
593.41	16.197
593.75	15.959
594.08	16.661
594.41	17.073
594.75	17.116
595.08	17.215
595.42	17.478
595.75	17.664
596.09	17.274
596.42	17.446
596.75	18.362
597.09	18.139
597.42	17.369
597.75	17.292
598.09	17.000
598.42	16.796
598.76	17.025
599.09	16.306
599.42	16.812
599.76	16.947
600.09	16.393
600.42	16.545
600.76	17.071
601.09	16.721
601.42	16.971
601.76	17.154
602.09	16.482
602.42	17.436
602.76	17.977
603.09	17.073
603.42	17.649
603.76	16.806
604.09	17.138
604.42	16.714
604.76	17.798
605.09	17.213
605.42	17.016
605.75	17.260
606.09	16.917
606.42	17.573
606.75	17.254
607.09	17.539
607.42	17.544
607.75	17.215
608.08	16.848
608.42	17.660
608.75	17.448
609.08	17.715
609.41	17.182
609.75	16.818
610.08	17.861
610.41	16.946
610.74	17.360
611.07	17.144
611.41	17.174
611.74	18.100
612.07	17.495
612.40	17.786
612.73	17.211
613.07	18.642
613.40	18.325
613.73	17.095
614.06	18.333
614.39	16.990
614.72	17.316
615.06	17.542
615.39	17.834
615.72	17.689
616.05	17.863
616.38	17.954
616.71	18.112
617.05	18.669
617.38	17.619
617.71	17.778
618.04	18.029
618.37	18.037
618.70	19.104
619.03	18.224
619.36	18.534
619.69	18.944
620.03	18.887
620.36	18.516
620.69	18.082
621.02	19.395
621.35	18.324
621.68	17.835
622.01	19.659
622.34	19.062
622.67	17.414
623.00	17.975
623.33	16.941
623.66	18.799
623.99	18.262
624.32	17.689
624.65	17.302
624.99	17.564
625.32	18.103
625.65	19.083
625.98	18.832
626.31	19.129
626.64	18.531
626.97	19.036
627.30	18.038
627.63	19.852
627.96	19.008
628.29	19.160
628.62	19.396
628.95	20.566
629.28	18.613
629.61	18.882
629.94	20.286
630.26	18.970
630.59	19.733
