SpectraSuite Data File
++++++++++++++++++++++++++++++++++++
Date: Wed May 13 16:40:11 PDT 2015
User: schluterlab
Dark Spectrum Present: Yes
Reference Spectrum Present: Yes
Number of Sampled Component Spectra: 1
Spectrometers: USB2E3373
Integration Time (usec): 3000 (USB2E3373)
Spectra Averaged: 3 (USB2E3373)
Boxcar Smoothing: 0 (USB2E3373)
Correct for Electrical Dark: No (USB2E3373)
Strobe/Lamp Enabled: No (USB2E3373)
Correct for Detector Non-linearity: No (USB2E3373)
Correct for Stray Light: No (USB2E3373)
Number of Pixels in Processed Spectrum: 2048
>>>>>Begin Processed Spectral Data<<<<<
178.53	0.000
178.91	-1425.000
179.29	-1350.000
179.67	-238.889
180.04	-1475.000
180.42	2250.000
180.80	840.000
181.18	-1225.000
181.56	628.571
181.94	0.000
182.31	-571.429
182.69	2000.000
183.07	-537.500
183.45	-488.889
183.83	554.545
184.20	-440.000
184.58	2450.000
184.96	5100.000
185.34	-920.000
185.72	-612.500
186.09	-3000.000
186.47	2550.000
186.85	2100.000
187.23	4900.000
187.61	-1533.333
187.98	1200.000
188.36	581.818
188.74	545.455
189.12	-960.000
189.49	620.000
189.87	-4800.000
190.25	-1150.000
190.63	464.286
191.00	453.846
191.38	950.000
191.76	-1200.000
192.14	1300.000
192.51	575.000
192.89	916.667
193.27	575.000
193.65	-1250.000
194.02	520.000
194.40	900.000
194.78	490.000
195.15	500.000
195.53	590.000
195.91	-2200.000
196.29	400.000
196.66	331.579
197.04	-360.000
197.42	0.000
197.79	590.000
198.17	-5100.000
198.55	614.286
198.92	712.500
199.30	880.000
199.68	0.000
200.05	333.333
200.43	757.143
200.81	5200.000
201.18	1600.000
201.56	-1900.000
201.94	544.444
202.31	555.556
202.69	441.667
203.07	640.000
203.44	0.000
203.82	1125.000
204.19	685.714
204.57	464.286
204.95	700.000
205.32	1833.333
205.70	536.364
206.08	342.857
206.45	2100.000
206.83	350.000
207.20	900.000
207.58	820.000
207.96	322.222
208.33	750.000
208.71	-800.000
209.08	814.286
209.46	611.111
209.84	481.818
210.21	-1766.667
210.59	1550.000
210.96	-525.000
211.34	2650.000
211.71	590.000
212.09	716.667
212.46	0.000
212.84	1833.333
213.22	1250.000
213.59	-4800.000
213.97	900.000
214.34	728.571
214.72	618.182
215.09	1360.000
215.47	-2050.000
215.84	-2500.000
216.22	1700.000
216.59	385.714
216.97	1000.000
217.34	436.364
217.72	-816.667
218.09	0.000
218.47	-4600.000
218.84	666.667
219.22	585.714
219.59	1533.333
219.97	-714.286
220.34	920.000
220.72	-2000.000
221.09	400.000
221.47	1375.000
221.84	-1066.667
222.22	0.000
222.59	1525.000
222.97	-2350.000
223.34	1060.000
223.72	400.000
224.09	1300.000
224.46	2400.000
224.84	-5300.000
225.21	-1120.000
225.59	-5300.000
225.96	530.000
226.34	300.000
226.71	2850.000
227.08	575.000
227.46	540.000
227.83	-900.000
228.21	-2150.000
228.58	533.333
228.95	-2050.000
229.33	-2250.000
229.70	1500.000
230.08	628.571
230.45	-680.000
230.82	491.667
231.20	900.000
231.57	685.714
231.95	533.333
232.32	236.364
232.69	390.909
233.07	685.714
233.44	392.308
233.81	-1633.333
234.19	315.789
234.56	458.333
234.93	450.000
235.31	409.091
235.68	446.154
236.05	385.714
236.43	157.576
236.80	278.947
237.17	4400.000
237.55	247.619
237.92	171.429
238.29	261.905
238.67	190.323
239.04	244.828
239.41	158.333
239.79	134.783
240.16	145.238
240.53	150.000
240.91	98.039
241.28	130.000
241.65	124.000
242.02	100.000
242.40	106.452
242.77	110.000
243.14	76.344
243.51	87.640
243.89	87.059
244.26	74.444
244.63	72.043
245.00	69.149
245.38	74.257
245.75	74.766
246.12	64.220
246.49	72.993
246.87	67.200
247.24	70.769
247.61	57.857
247.98	58.170
248.36	51.351
248.73	54.140
249.10	52.229
249.47	55.367
249.84	50.802
250.22	52.941
250.59	55.621
250.96	49.495
251.33	51.185
251.70	50.495
252.08	45.714
252.45	46.188
252.82	42.609
253.19	47.660
253.56	45.490
253.94	47.718
254.31	39.844
254.68	47.308
255.05	46.494
255.42	41.870
255.79	45.221
256.16	42.599
256.54	40.636
256.91	39.858
257.28	36.331
257.65	40.594
258.02	37.888
258.39	36.278
258.76	35.786
259.14	39.286
259.51	37.082
259.88	38.199
260.25	38.066
260.62	37.572
260.99	37.267
261.36	41.141
261.73	35.530
262.10	38.372
262.47	39.718
262.85	37.326
263.22	36.752
263.59	37.037
263.96	34.615
264.33	38.642
264.70	37.105
265.07	37.340
265.44	35.101
265.81	35.280
266.18	36.683
266.55	33.659
266.92	35.627
267.29	34.722
267.66	33.257
268.03	35.000
268.40	34.579
268.77	32.697
269.14	34.234
269.51	32.731
269.88	34.033
270.25	34.989
270.62	33.483
270.99	33.763
271.36	34.549
271.73	33.178
272.10	31.739
272.47	33.548
272.84	31.818
273.21	35.010
273.58	32.533
273.95	31.656
274.32	30.372
274.69	29.122
275.06	31.299
275.43	34.894
275.80	31.864
276.17	31.976
276.54	33.264
276.91	31.225
277.28	29.688
277.65	30.561
278.02	31.263
278.39	32.422
278.76	30.727
279.13	32.642
279.50	32.216
279.87	30.080
280.23	32.335
280.60	29.981
280.97	28.096
281.34	30.265
281.71	31.818
282.08	30.326
282.45	30.182
282.82	31.616
283.19	28.699
283.56	31.228
283.92	29.272
284.29	28.219
284.66	28.312
285.03	28.752
285.40	30.810
285.77	28.620
286.14	28.152
286.51	28.500
286.87	29.060
287.24	29.642
287.61	29.695
287.98	28.409
288.35	28.209
288.72	27.103
289.08	28.951
289.45	27.842
289.82	27.480
290.19	26.217
290.56	23.890
290.93	25.831
291.29	26.380
291.66	24.926
292.03	26.744
292.40	26.285
292.77	24.112
293.13	24.328
293.50	24.198
293.87	26.667
294.24	22.370
294.60	22.853
294.97	26.017
295.34	26.093
295.71	24.148
296.08	23.504
296.44	23.521
296.81	23.910
297.18	26.016
297.55	21.504
297.91	23.615
298.28	22.758
298.65	25.587
299.02	22.793
299.38	21.647
299.75	21.159
300.12	21.711
300.48	21.375
300.85	22.072
301.22	23.185
301.59	21.338
301.95	22.166
302.32	21.181
302.69	22.103
303.05	21.333
303.42	20.247
303.79	20.159
304.15	19.580
304.52	20.046
304.89	20.790
305.25	19.606
305.62	20.045
305.99	21.133
306.35	19.239
306.72	20.179
307.09	19.867
307.45	21.734
307.82	18.415
308.19	20.640
308.55	20.065
308.92	19.334
309.29	19.641
309.65	18.664
310.02	19.133
310.38	19.032
310.75	19.430
311.12	21.085
311.48	20.376
311.85	19.602
312.22	20.395
312.58	19.127
312.95	20.169
313.31	18.058
313.68	19.543
314.05	21.400
314.41	18.693
314.78	18.933
315.14	19.861
315.51	19.670
315.87	20.000
316.24	19.464
316.61	19.591
316.97	18.493
317.34	17.808
317.70	19.790
318.07	19.153
318.43	19.374
318.80	18.463
319.16	18.832
319.53	18.011
319.89	19.905
320.26	19.800
320.62	20.635
320.99	20.606
321.35	18.384
321.72	18.686
322.08	19.348
322.45	20.199
322.81	20.252
323.18	20.424
323.54	19.109
323.91	19.151
324.27	18.547
324.64	18.826
325.00	19.116
325.37	17.743
325.73	19.569
326.10	19.506
326.46	18.190
326.83	19.413
327.19	18.275
327.56	19.164
327.92	17.848
328.29	18.811
328.65	19.337
329.01	18.863
329.38	17.576
329.74	18.006
330.11	18.662
330.47	19.100
330.84	18.750
331.20	18.215
331.56	18.991
331.93	19.352
332.29	19.343
332.66	19.292
333.02	18.099
333.38	18.880
333.75	19.162
334.11	18.594
334.48	18.545
334.84	19.761
335.20	18.818
335.57	18.132
335.93	16.786
336.29	18.223
336.66	18.485
337.02	18.100
337.38	18.426
337.75	16.845
338.11	18.263
338.47	17.311
338.84	18.057
339.20	16.606
339.56	18.796
339.93	16.545
340.29	18.931
340.65	18.271
341.02	17.714
341.38	18.238
341.74	17.719
342.11	18.603
342.47	18.590
342.83	18.322
343.20	18.355
343.56	16.596
343.92	18.158
344.28	17.857
344.65	18.143
345.01	16.582
345.37	17.153
345.73	17.090
346.10	17.477
346.46	17.627
346.82	17.133
347.19	17.377
347.55	16.338
347.91	17.718
348.27	17.420
348.63	17.391
349.00	17.071
349.36	16.995
349.72	17.963
350.08	17.180
350.45	17.575
350.81	17.059
351.17	17.342
351.53	16.462
351.89	16.007
352.26	17.601
352.62	17.883
352.98	16.532
353.34	15.776
353.70	15.876
354.07	16.935
354.43	17.143
354.79	16.171
355.15	15.962
355.51	16.627
355.87	16.653
356.24	17.182
356.60	16.359
356.96	17.056
357.32	16.517
357.68	17.008
358.04	16.073
358.40	17.736
358.77	16.197
359.13	15.470
359.49	17.020
359.85	15.397
360.21	15.550
360.57	17.432
360.93	15.923
361.29	15.268
361.66	15.248
362.02	17.015
362.38	16.578
362.74	15.848
363.10	15.248
363.46	15.847
363.82	15.344
364.18	17.034
364.54	16.939
364.90	16.360
365.26	15.588
365.62	16.654
365.98	15.924
366.35	15.688
366.71	16.631
367.07	16.606
367.43	15.675
367.79	16.916
368.15	16.954
368.51	14.898
368.87	16.560
369.23	15.655
369.59	16.944
369.95	15.441
370.31	16.809
370.67	16.304
371.03	16.779
371.39	15.598
371.75	16.397
372.11	16.287
372.47	16.349
372.83	16.571
373.19	16.040
373.55	15.817
373.91	17.158
374.27	15.464
374.63	16.218
374.99	16.314
375.35	15.003
375.71	16.107
376.07	15.775
376.42	16.162
376.78	15.772
377.14	16.350
377.50	16.291
377.86	16.090
378.22	15.740
378.58	15.100
378.94	15.211
379.30	15.649
379.66	15.165
380.02	16.278
380.38	15.422
380.74	16.387
381.09	16.626
381.45	16.411
381.81	16.462
382.17	16.178
382.53	15.912
382.89	16.173
383.25	15.885
383.61	16.419
383.97	15.447
384.32	16.906
384.68	15.180
385.04	16.349
385.40	15.975
385.76	16.093
386.12	16.192
386.48	16.551
386.83	16.742
387.19	17.007
387.55	16.079
387.91	16.385
388.27	15.205
388.62	17.025
388.98	16.278
389.34	16.521
389.70	16.002
390.06	16.920
390.42	16.926
390.77	16.794
391.13	16.592
391.49	17.195
391.85	17.187
392.20	15.394
392.56	16.225
392.92	17.187
393.28	15.207
393.64	17.146
393.99	16.921
394.35	17.370
394.71	16.499
395.07	16.636
395.42	16.934
395.78	17.557
396.14	16.760
396.50	17.043
396.85	17.355
397.21	16.584
397.57	16.057
397.92	16.887
398.28	15.527
398.64	17.025
399.00	16.060
399.35	16.638
399.71	16.840
400.07	17.209
400.42	17.423
400.78	16.948
401.14	17.256
401.49	16.836
401.85	16.213
402.21	15.928
402.57	16.348
402.92	16.646
403.28	17.614
403.63	16.275
403.99	16.051
404.35	16.970
404.70	16.667
405.06	15.783
405.42	17.405
405.77	16.629
406.13	16.366
406.49	16.736
406.84	17.247
407.20	16.489
407.55	16.401
407.91	17.400
408.27	16.911
408.62	16.556
408.98	16.422
409.34	16.544
409.69	17.355
410.05	16.357
410.40	16.330
410.76	16.786
411.11	16.405
411.47	16.997
411.83	17.043
412.18	16.079
412.54	16.314
412.89	16.325
413.25	16.470
413.60	17.295
413.96	16.029
414.31	16.707
414.67	17.807
415.03	17.086
415.38	17.139
415.74	17.235
416.09	17.309
416.45	16.867
416.80	17.250
417.16	17.493
417.51	17.054
417.87	16.249
418.22	17.729
418.58	17.753
418.93	17.015
419.29	16.868
419.64	16.688
420.00	16.585
420.35	16.464
420.71	16.796
421.06	16.408
421.42	16.257
421.77	17.265
422.12	16.171
422.48	16.190
422.83	16.191
423.19	16.022
423.54	16.831
423.90	16.870
424.25	17.420
424.61	16.369
424.96	16.210
425.31	16.667
425.67	15.955
426.02	16.457
426.38	17.155
426.73	15.857
427.09	16.170
427.44	17.021
427.79	15.929
428.15	17.024
428.50	16.384
428.85	17.104
429.21	16.731
429.56	16.019
429.92	16.306
430.27	16.435
430.62	15.719
430.98	16.191
431.33	16.289
431.68	16.806
432.04	17.465
432.39	16.276
432.74	17.115
433.10	16.355
433.45	16.910
433.80	15.687
434.16	16.186
434.51	15.316
434.86	16.591
435.22	15.342
435.57	16.717
435.92	16.208
436.28	17.319
436.63	17.494
436.98	16.657
437.34	16.398
437.69	16.919
438.04	16.301
438.39	16.000
438.75	17.083
439.10	16.201
439.45	16.529
439.81	16.435
440.16	15.810
440.51	16.755
440.86	17.255
441.22	16.518
441.57	16.454
441.92	16.274
442.27	16.738
442.63	15.534
442.98	17.183
443.33	16.522
443.68	15.798
444.03	15.861
444.39	15.287
444.74	16.721
445.09	16.388
445.44	16.129
445.79	16.477
446.15	16.781
446.50	16.047
446.85	16.598
447.20	16.063
447.55	16.527
447.91	15.996
448.26	15.971
448.61	16.676
448.96	16.611
449.31	16.648
449.66	16.882
450.02	15.655
450.37	16.553
450.72	15.792
451.07	15.722
451.42	16.474
451.77	16.442
452.12	16.166
452.47	16.667
452.83	16.142
453.18	16.015
453.53	16.883
453.88	15.889
454.23	17.155
454.58	16.475
454.93	16.592
455.28	16.209
455.63	15.898
455.98	17.083
456.34	15.955
456.69	16.594
457.04	16.966
457.39	16.540
457.74	16.599
458.09	16.504
458.44	16.420
458.79	15.727
459.14	16.253
459.49	15.995
459.84	16.731
460.19	16.028
460.54	15.567
460.89	16.072
461.24	15.604
461.59	16.851
461.94	15.660
462.29	16.736
462.64	15.890
462.99	16.461
463.34	16.867
463.69	16.385
464.04	16.812
464.39	16.174
464.74	16.815
465.09	16.043
465.44	15.845
465.79	15.940
466.14	16.475
466.49	16.073
466.84	16.112
467.19	16.355
467.54	16.688
467.89	15.966
468.24	16.696
468.59	16.789
468.94	15.944
469.29	16.581
469.64	17.135
469.99	16.644
470.34	16.182
470.68	16.523
471.03	16.054
471.38	17.443
471.73	16.656
472.08	16.645
472.43	15.704
472.78	16.327
473.13	16.688
473.48	16.042
473.83	15.854
474.17	15.993
474.52	16.501
474.87	16.754
475.22	15.554
475.57	16.067
475.92	16.357
476.27	15.671
476.61	16.327
476.96	14.788
477.31	16.117
477.66	15.864
478.01	15.473
478.36	15.970
478.70	15.265
479.05	15.708
479.40	15.763
479.75	15.760
480.10	15.557
480.45	14.993
480.79	15.289
481.14	15.313
481.49	16.327
481.84	15.364
482.19	15.856
482.53	15.505
482.88	15.682
483.23	15.888
483.58	15.924
483.92	15.698
484.27	14.597
484.62	15.259
484.97	14.860
485.31	15.137
485.66	14.184
486.01	13.467
486.36	12.891
486.70	12.866
487.05	13.532
487.40	13.866
487.75	14.239
488.09	15.256
488.44	15.010
488.79	15.298
489.13	15.661
489.48	15.701
489.83	15.106
490.17	15.037
490.52	15.500
490.87	14.925
491.22	15.598
491.56	14.123
491.91	14.611
492.26	14.332
492.60	15.300
492.95	15.061
493.30	15.093
493.64	15.026
493.99	14.903
494.34	15.264
494.68	15.705
495.03	15.414
495.37	15.356
495.72	15.497
496.07	15.592
496.41	14.248
496.76	15.303
497.11	14.588
497.45	15.417
497.80	15.211
498.14	15.314
498.49	14.732
498.84	15.724
499.18	15.286
499.53	15.195
499.87	15.051
500.22	14.885
500.56	15.485
500.91	15.048
501.26	15.315
501.60	15.093
501.95	14.665
502.29	15.089
502.64	15.223
502.98	14.960
503.33	14.397
503.67	15.081
504.02	15.014
504.36	15.021
504.71	14.704
505.06	14.940
505.40	15.022
505.75	15.043
506.09	14.772
506.44	14.998
506.78	14.954
507.13	15.295
507.47	15.303
507.82	14.894
508.16	15.198
508.51	15.677
508.85	15.094
509.19	15.357
509.54	14.898
509.88	15.404
510.23	15.116
510.57	15.996
510.92	15.432
511.26	15.211
511.61	15.249
511.95	15.084
512.30	14.581
512.64	15.207
512.98	15.756
513.33	15.364
513.67	15.582
514.02	14.719
514.36	15.674
514.70	15.495
515.05	14.891
515.39	15.255
515.74	15.822
516.08	15.595
516.42	15.538
516.77	15.831
517.11	15.261
517.46	15.801
517.80	16.260
518.14	15.692
518.49	16.278
518.83	15.682
519.17	15.473
519.52	15.337
519.86	16.087
520.20	16.243
520.55	16.038
520.89	15.937
521.23	16.224
521.58	16.086
521.92	16.595
522.26	15.497
522.61	16.760
522.95	16.452
523.29	15.764
523.64	16.341
523.98	16.636
524.32	15.199
524.66	16.115
525.01	16.360
525.35	15.985
525.69	15.025
526.04	16.822
526.38	15.802
526.72	15.951
527.06	16.259
527.41	15.161
527.75	16.463
528.09	15.478
528.43	15.997
528.78	16.226
529.12	15.152
529.46	15.799
529.80	15.532
530.15	15.950
530.49	15.569
530.83	15.886
531.17	16.057
531.51	16.991
531.86	16.000
532.20	16.362
532.54	17.168
532.88	15.789
533.22	17.177
533.57	15.988
533.91	15.352
534.25	15.796
534.59	15.863
534.93	14.991
535.27	16.295
535.62	16.484
535.96	16.070
536.30	16.020
536.64	16.227
536.98	16.257
537.32	16.458
537.66	16.267
538.01	16.129
538.35	16.742
538.69	17.486
539.03	15.530
539.37	15.783
539.71	14.647
540.05	16.144
540.39	16.412
540.73	15.783
541.07	16.418
541.42	15.721
541.76	16.774
542.10	16.559
542.44	16.490
542.78	17.260
543.12	16.123
543.46	15.672
543.80	17.176
544.14	15.597
544.48	15.746
544.82	16.613
545.16	15.745
545.50	15.553
545.84	16.062
546.18	16.768
546.52	16.724
546.86	15.601
547.20	16.858
547.54	15.564
547.88	16.773
548.22	16.189
548.56	15.849
548.90	16.261
549.24	15.623
549.58	16.030
549.92	16.209
550.26	16.264
550.60	16.252
550.94	15.986
551.28	15.655
551.62	16.463
551.96	15.930
552.30	15.973
552.64	15.619
552.98	16.339
553.32	16.993
553.66	16.973
554.00	16.335
554.34	16.701
554.68	15.951
555.02	16.643
555.36	15.936
555.69	15.832
556.03	16.622
556.37	15.484
556.71	16.644
557.05	15.826
557.39	15.955
557.73	16.161
558.07	16.389
558.41	16.136
558.75	16.312
559.08	17.524
559.42	17.385
559.76	16.618
560.10	16.702
560.44	15.863
560.78	15.702
561.12	15.765
561.45	16.623
561.79	15.689
562.13	15.761
562.47	16.735
562.81	15.900
563.15	16.990
563.48	17.374
563.82	15.460
564.16	15.173
564.50	15.885
564.84	15.803
565.17	16.088
565.51	16.102
565.85	15.546
566.19	15.466
566.52	15.706
566.86	15.672
567.20	15.507
567.54	16.153
567.88	15.644
568.21	16.190
568.55	15.521
568.89	14.202
569.23	15.107
569.56	14.291
569.90	14.113
570.24	13.994
570.57	14.519
570.91	14.124
571.25	14.021
571.59	14.227
571.92	13.998
572.26	14.067
572.60	14.144
572.93	14.183
573.27	14.286
573.61	13.791
573.95	14.419
574.28	13.920
574.62	13.290
574.96	13.333
575.29	13.846
575.63	13.796
575.97	13.512
576.30	14.339
576.64	13.748
576.98	13.782
577.31	13.632
577.65	13.681
577.98	13.269
578.32	12.947
578.66	13.774
578.99	13.559
579.33	13.387
579.67	13.817
580.00	13.786
580.34	13.645
580.67	13.827
581.01	13.515
581.35	13.541
581.68	13.558
582.02	12.874
582.35	13.128
582.69	13.587
583.02	13.517
583.36	13.742
583.70	14.036
584.03	14.394
584.37	14.071
584.70	13.819
585.04	14.237
585.37	13.979
585.71	13.980
586.04	13.844
586.38	13.819
586.72	14.305
587.05	13.366
587.39	13.456
587.72	13.450
588.06	13.821
588.39	13.772
588.73	13.992
589.06	14.397
589.40	14.983
589.73	14.502
590.07	14.591
590.40	14.688
590.73	14.832
591.07	15.466
591.40	15.057
591.74	16.277
592.07	14.442
592.41	15.089
592.74	14.232
593.08	14.424
593.41	13.508
593.75	13.679
594.08	13.879
594.41	14.175
594.75	14.011
595.08	13.780
595.42	14.081
595.75	14.566
596.09	15.284
596.42	15.285
596.75	15.112
597.09	15.455
597.42	14.334
597.75	14.489
598.09	15.000
598.42	14.476
598.76	14.471
599.09	14.139
599.42	13.901
599.76	14.275
600.09	14.426
600.42	13.769
600.76	13.929
601.09	14.208
601.42	14.003
601.76	14.345
602.09	14.664
602.42	15.008
602.76	14.752
603.09	14.437
603.42	14.955
603.76	14.329
604.09	14.579
604.42	14.921
604.76	15.057
605.09	14.679
605.42	14.451
605.75	14.238
606.09	14.233
606.42	14.671
606.75	14.600
607.09	14.650
607.42	13.992
607.75	14.051
608.08	14.199
608.42	14.881
608.75	14.563
609.08	14.431
609.41	14.850
609.75	14.817
610.08	15.646
610.41	14.199
610.74	14.238
611.07	15.366
611.41	15.064
611.74	16.038
612.07	15.373
612.40	15.373
612.73	14.158
613.07	15.787
613.40	15.850
613.73	14.421
614.06	14.785
614.39	15.155
614.72	15.000
615.06	15.336
615.39	15.180
615.72	14.008
616.05	14.460
616.38	15.231
616.71	15.855
617.05	15.607
617.38	16.176
617.71	15.015
618.04	15.685
618.37	15.198
618.70	15.370
619.03	16.382
619.36	16.158
619.69	16.479
620.03	16.209
620.36	16.176
620.69	16.301
621.02	16.814
621.35	16.601
621.68	15.265
622.01	15.557
622.34	16.490
622.67	16.426
623.00	15.701
623.33	15.225
623.66	15.511
623.99	17.084
624.32	15.335
624.65	15.607
624.99	16.147
625.32	14.772
625.65	15.101
625.98	17.218
626.31	17.263
626.64	17.633
626.97	16.376
627.30	15.711
627.63	16.817
627.96	16.316
628.29	17.060
628.62	15.919
628.95	18.302
629.28	18.157
629.61	18.057
629.94	16.952
630.26	17.064
630.59	18.780
630.92	17.241
