SpectraSuite Data File
++++++++++++++++++++++++++++++++++++
Date: Wed May 13 16:21:39 PDT 2015
User: schluterlab
Dark Spectrum Present: Yes
Reference Spectrum Present: Yes
Number of Sampled Component Spectra: 1
Spectrometers: USB2E3373
Integration Time (usec): 3000 (USB2E3373)
Spectra Averaged: 3 (USB2E3373)
Boxcar Smoothing: 0 (USB2E3373)
Correct for Electrical Dark: No (USB2E3373)
Strobe/Lamp Enabled: No (USB2E3373)
Correct for Detector Non-linearity: No (USB2E3373)
Correct for Stray Light: No (USB2E3373)
Number of Pixels in Processed Spectrum: 2048
>>>>>Begin Processed Spectral Data<<<<<
178.53	0.000
178.91	-1400.000
179.29	-1125.000
179.67	-211.111
180.04	-1275.000
180.42	2550.000
180.80	980.000
181.18	-925.000
181.56	700.000
181.94	0.000
182.31	-657.143
182.69	1500.000
183.07	-475.000
183.45	-388.889
183.83	481.818
184.20	-310.000
184.58	1600.000
184.96	5600.000
185.34	-800.000
185.72	-612.500
186.09	-1950.000
186.47	2250.000
186.85	2500.000
187.23	4700.000
187.61	-1666.667
187.98	1175.000
188.36	500.000
188.74	381.818
189.12	-860.000
189.49	560.000
189.87	-4800.000
190.25	-1300.000
190.63	314.286
191.00	415.385
191.38	766.667
191.76	-1100.000
192.14	1225.000
192.51	500.000
192.89	916.667
193.27	700.000
193.65	-1350.000
194.02	450.000
194.40	960.000
194.78	540.000
195.15	491.667
195.53	520.000
195.91	-1800.000
196.29	343.750
196.66	284.211
197.04	-250.000
197.42	0.000
197.79	520.000
198.17	-5400.000
198.55	542.857
198.92	625.000
199.30	880.000
199.68	0.000
200.05	316.667
200.43	742.857
200.81	3400.000
201.18	1466.667
201.56	-1200.000
201.94	555.556
202.31	633.333
202.69	383.333
203.07	510.000
203.44	0.000
203.82	1050.000
204.19	700.000
204.57	428.571
204.95	687.500
205.32	1600.000
205.70	436.364
206.08	357.143
206.45	2350.000
206.83	300.000
207.20	900.000
207.58	580.000
207.96	288.889
208.33	675.000
208.71	-750.000
209.08	714.286
209.46	566.667
209.84	490.909
210.21	-1366.667
210.59	1275.000
210.96	-337.500
211.34	2200.000
211.71	590.000
212.09	716.667
212.46	0.000
212.84	1500.000
213.22	975.000
213.59	-4700.000
213.97	900.000
214.34	657.143
214.72	509.091
215.09	1040.000
215.47	-1950.000
215.84	-2400.000
216.22	1800.000
216.59	350.000
216.97	1225.000
217.34	454.545
217.72	-633.333
218.09	0.000
218.47	-4300.000
218.84	544.444
219.22	714.286
219.59	1733.333
219.97	-428.571
220.34	760.000
220.72	-1433.333
221.09	342.857
221.47	1325.000
221.84	-750.000
222.22	0.000
222.59	1175.000
222.97	-2500.000
223.34	1000.000
223.72	330.769
224.09	640.000
224.46	2100.000
224.84	-4400.000
225.21	-780.000
225.59	-4500.000
225.96	370.000
226.34	290.000
226.71	2100.000
227.08	350.000
227.46	530.000
227.83	-950.000
228.21	-1850.000
228.58	577.778
228.95	-2000.000
229.33	-1950.000
229.70	1666.667
230.08	614.286
230.45	-640.000
230.82	466.667
231.20	916.667
231.57	514.286
231.95	400.000
232.32	240.909
232.69	400.000
233.07	557.143
233.44	253.846
233.81	-1500.000
234.19	242.105
234.56	416.667
234.93	333.333
235.31	400.000
235.68	276.923
236.05	292.857
236.43	157.576
236.80	173.684
237.17	3700.000
237.55	176.190
237.92	167.857
238.29	200.000
238.67	129.032
239.04	155.172
239.41	130.556
239.79	102.174
240.16	92.857
240.53	100.000
240.91	92.157
241.28	74.000
241.65	72.000
242.02	72.464
242.40	50.000
242.77	75.000
243.14	49.462
243.51	56.180
243.89	47.059
244.26	47.778
244.63	44.086
245.00	43.617
245.38	46.535
245.75	41.121
246.12	36.697
246.49	45.985
246.87	45.600
247.24	41.538
247.61	31.429
247.98	31.373
248.36	27.027
248.73	26.115
249.10	26.115
249.47	24.859
249.84	29.947
250.22	24.599
250.59	20.710
250.96	27.273
251.33	23.697
251.70	28.218
252.08	22.857
252.45	18.834
252.82	19.130
253.19	21.277
253.56	17.647
253.94	20.747
254.31	20.703
254.68	19.231
255.05	15.867
255.42	17.073
255.79	18.382
256.16	17.690
256.54	18.021
256.91	17.438
257.28	16.187
257.65	14.851
258.02	19.565
258.39	17.035
258.76	11.371
259.14	17.857
259.51	14.590
259.88	11.180
260.25	12.689
260.62	15.318
260.99	13.043
261.36	16.517
261.73	12.894
262.10	13.663
262.47	14.366
262.85	13.649
263.22	9.687
263.59	14.530
263.96	12.912
264.33	16.188
264.70	11.316
265.07	15.345
265.44	9.091
265.81	11.192
266.18	11.809
266.55	10.732
266.92	11.057
267.29	12.500
267.66	9.633
268.03	10.682
268.40	10.047
268.77	8.831
269.14	10.811
269.51	13.770
269.88	9.790
270.25	10.384
270.62	11.011
270.99	15.484
271.36	12.017
271.73	9.813
272.10	11.522
272.47	12.258
272.84	12.987
273.21	12.159
273.58	7.205
273.95	9.015
274.32	8.884
274.69	9.850
275.06	9.252
275.43	9.787
275.80	10.822
276.17	7.943
276.54	11.642
276.91	10.079
277.28	9.570
277.65	10.638
278.02	9.110
278.39	9.766
278.76	10.909
279.13	8.113
279.50	9.311
279.87	9.960
280.23	9.381
280.60	7.544
280.97	8.318
281.34	8.319
281.71	10.182
282.08	8.829
282.45	6.909
282.82	9.769
283.19	8.200
283.56	10.526
283.92	10.321
284.29	8.995
284.66	9.256
285.03	9.765
285.40	8.627
285.77	9.596
286.14	7.772
286.51	9.167
286.87	8.547
287.24	10.098
287.61	7.544
287.98	8.442
288.35	7.607
288.72	7.788
289.08	9.077
289.45	6.755
289.82	7.967
290.19	7.849
290.56	8.576
290.93	5.589
291.29	6.288
291.66	7.670
292.03	10.174
292.40	10.279
292.77	6.953
293.13	9.254
293.50	7.434
293.87	7.852
294.24	5.926
294.60	6.259
294.97	5.814
295.34	8.745
295.71	8.097
296.08	5.698
296.44	6.052
296.81	6.341
297.18	8.266
297.55	4.354
297.91	6.201
298.28	8.032
298.65	8.616
299.02	6.719
299.38	6.507
299.75	6.065
300.12	5.492
300.48	6.875
300.85	5.549
301.22	5.987
301.59	6.187
301.95	6.801
302.32	5.648
302.69	6.093
303.05	5.576
303.42	5.679
303.79	6.569
304.15	5.361
304.52	4.519
304.89	5.575
305.25	7.193
305.62	6.569
305.99	6.257
306.35	6.935
306.72	6.502
307.09	6.104
307.45	6.869
307.82	5.022
308.19	5.629
308.55	7.551
308.92	6.445
309.29	5.808
309.65	5.726
310.02	6.131
310.38	5.269
310.75	4.224
311.12	6.653
311.48	5.747
311.85	5.765
312.22	6.660
312.58	4.782
312.95	7.392
313.31	5.825
313.68	5.613
314.05	7.495
314.41	6.734
314.78	5.438
315.14	5.958
315.51	5.973
315.87	7.030
316.24	4.866
316.61	6.238
316.97	6.164
317.34	4.599
317.70	6.023
318.07	6.352
318.43	7.241
318.80	7.310
319.16	6.591
319.53	5.816
319.89	6.476
320.26	6.100
320.62	6.349
320.99	7.980
321.35	7.071
321.72	7.495
322.08	6.910
322.45	6.866
322.81	7.849
323.18	7.514
323.54	8.627
323.91	7.925
324.27	8.031
324.64	7.363
325.00	8.025
325.37	9.554
325.73	8.707
326.10	8.561
326.46	7.258
326.83	9.318
327.19	8.967
327.56	8.885
327.92	10.499
328.29	11.180
328.65	10.221
329.01	10.469
329.38	10.823
329.74	10.619
330.11	11.027
330.47	11.295
330.84	12.224
331.20	10.838
331.56	11.101
331.93	11.389
332.29	11.269
332.66	12.655
333.02	12.249
333.38	12.285
333.75	11.854
334.11	12.544
334.48	12.955
334.84	12.316
335.20	12.818
335.57	12.602
335.93	11.875
336.29	12.912
336.66	12.353
337.02	11.674
337.38	13.056
337.75	11.586
338.11	12.355
338.47	12.799
338.84	12.924
339.20	11.651
339.56	13.686
339.93	11.818
340.29	12.591
340.65	12.299
341.02	14.136
341.38	12.367
341.74	14.298
342.11	12.576
342.47	12.952
342.83	13.014
343.20	13.333
343.56	12.131
343.92	12.105
344.28	13.180
344.65	12.382
345.01	10.943
345.37	11.578
345.73	12.606
346.10	11.594
346.46	12.881
346.82	13.262
347.19	12.281
347.55	12.397
347.91	13.673
348.27	12.490
348.63	13.712
349.00	12.298
349.36	12.972
349.72	12.430
350.08	11.994
350.45	12.531
350.81	12.266
351.17	12.237
351.53	12.203
351.89	11.799
352.26	12.470
352.62	12.751
352.98	11.507
353.34	12.408
353.70	12.275
354.07	12.823
354.43	12.381
354.79	12.228
355.15	12.370
355.51	13.269
355.87	12.735
356.24	12.378
356.60	12.831
356.96	12.148
357.32	11.529
357.68	12.992
358.04	12.114
358.40	13.618
358.77	13.302
359.13	12.076
359.49	11.843
359.85	10.556
360.21	11.563
360.57	13.385
360.93	12.385
361.29	12.472
361.66	12.539
362.02	12.313
362.38	12.624
362.74	11.682
363.10	11.621
363.46	12.032
363.82	12.623
364.18	12.115
364.54	12.036
364.90	12.535
365.26	12.059
365.62	12.783
365.98	12.272
366.35	11.246
366.71	13.521
367.07	13.256
367.43	12.990
367.79	12.777
368.15	13.434
368.51	12.500
368.87	13.419
369.23	12.729
369.59	13.251
369.95	12.794
370.31	12.963
370.67	13.116
371.03	13.858
371.39	13.411
371.75	13.824
372.11	13.087
372.47	14.516
372.83	14.265
373.19	12.717
373.55	13.082
373.91	14.875
374.27	13.127
374.63	13.018
374.99	14.124
375.35	13.050
375.71	13.365
376.07	14.815
376.42	13.205
376.78	14.911
377.14	13.772
377.50	13.775
377.86	13.763
378.22	14.096
378.58	13.221
378.94	14.016
379.30	13.677
379.66	14.086
380.02	14.312
380.38	13.661
380.74	14.766
381.09	14.059
381.45	14.874
381.81	14.742
382.17	14.459
382.53	13.962
382.89	14.506
383.25	14.134
383.61	15.056
383.97	15.760
384.32	15.221
384.68	14.560
385.04	15.120
385.40	14.365
385.76	14.496
386.12	15.479
386.48	15.607
386.83	14.689
387.19	15.708
387.55	15.646
387.91	14.813
388.27	14.592
388.62	15.489
388.98	15.725
389.34	15.770
389.70	16.125
390.06	16.160
390.42	15.045
390.77	16.349
391.13	15.444
391.49	16.624
391.85	14.704
392.20	15.394
392.56	14.836
392.92	15.715
393.28	14.379
393.64	16.127
393.99	15.027
394.35	16.191
394.71	15.496
395.07	15.639
395.42	15.822
395.78	16.221
396.14	15.767
396.50	16.980
396.85	15.957
397.21	15.536
397.57	16.243
397.92	16.466
398.28	15.975
398.64	16.249
399.00	16.340
399.35	15.228
399.71	15.104
400.07	15.671
400.42	16.135
400.78	16.586
401.14	16.220
401.49	16.000
401.85	16.031
402.21	15.210
402.57	15.114
402.92	16.520
403.28	15.990
403.63	16.213
403.99	15.860
404.35	16.545
404.70	15.887
405.06	14.851
405.42	15.658
405.77	15.829
406.13	15.181
406.49	16.203
406.84	16.775
407.20	16.312
407.55	16.465
407.91	16.267
408.27	15.316
408.62	16.797
408.98	16.483
409.34	15.867
409.69	16.645
410.05	15.799
410.40	15.780
410.76	16.428
411.11	16.405
411.47	16.038
411.83	15.944
412.18	15.584
412.54	15.504
412.89	16.145
413.25	16.116
413.60	16.800
413.96	15.665
414.31	16.039
414.67	16.540
415.03	15.762
415.38	16.688
415.74	16.656
416.09	17.113
416.45	16.533
416.80	15.929
417.16	16.957
417.51	16.191
417.87	16.313
418.22	17.413
418.58	16.979
418.93	16.769
419.29	16.295
419.64	17.128
420.00	16.159
420.35	16.464
420.71	17.513
421.06	15.990
421.42	17.018
421.77	16.312
422.12	16.339
422.48	15.057
422.83	17.065
423.19	16.630
423.54	17.237
423.90	16.000
424.25	17.309
424.61	16.250
424.96	16.210
425.31	16.002
425.67	15.169
426.02	16.800
426.38	17.582
426.73	17.086
427.09	17.508
427.44	16.561
427.79	17.424
428.15	17.381
428.50	16.852
428.85	16.925
429.21	17.062
429.56	16.330
429.92	17.061
430.27	16.832
430.62	16.487
430.98	16.399
431.33	17.320
431.68	16.806
432.04	17.093
432.39	17.419
432.74	17.475
433.10	17.714
433.45	18.076
433.80	17.184
434.16	17.254
434.51	17.158
434.86	18.130
435.22	17.510
435.57	17.933
435.92	17.262
436.28	17.794
436.63	19.647
436.98	17.230
437.34	17.472
437.69	18.670
438.04	17.763
438.39	18.030
438.75	18.652
439.10	18.268
439.45	18.595
439.81	18.248
440.16	18.182
440.51	18.981
440.86	17.776
441.22	17.353
441.57	18.577
441.92	18.731
442.27	18.837
442.63	18.483
442.98	19.268
443.33	18.913
443.68	18.534
444.03	18.302
444.39	18.062
444.74	19.210
445.09	18.868
445.44	18.589
445.79	18.803
446.15	19.322
446.50	18.525
446.85	18.345
447.20	18.205
447.55	18.705
447.91	18.919
448.26	18.753
448.61	19.050
448.96	18.882
449.31	19.798
449.66	19.021
450.02	18.273
450.37	18.991
450.72	19.289
451.07	18.038
451.42	18.663
451.77	19.143
452.12	19.284
452.47	19.714
452.83	19.172
453.18	20.293
453.53	20.594
453.88	18.783
454.23	19.068
454.58	20.472
454.93	19.644
455.28	19.514
455.63	19.721
455.98	20.655
456.34	20.415
456.69	20.163
457.04	20.805
457.39	19.404
457.74	19.733
458.09	20.012
458.44	19.498
458.79	19.469
459.14	20.316
459.49	20.724
459.84	20.000
460.19	19.564
460.54	20.139
460.89	19.803
461.24	20.644
461.59	20.860
461.94	21.023
462.29	21.068
462.64	20.038
462.99	20.820
463.34	21.333
463.69	21.451
464.04	20.754
464.39	20.348
464.74	20.559
465.09	20.567
465.44	20.499
465.79	20.246
466.14	20.142
466.49	20.690
466.84	20.665
467.19	21.183
467.54	20.500
467.89	20.168
468.24	20.303
468.59	20.879
468.94	21.197
469.29	21.144
469.64	21.486
469.99	21.651
470.34	21.400
470.68	20.690
471.03	21.497
471.38	22.446
471.73	22.985
472.08	22.632
472.43	22.487
472.78	22.515
473.13	22.144
473.48	21.660
473.83	21.098
474.17	21.220
474.52	22.146
474.87	22.709
475.22	22.171
475.57	22.139
475.92	21.030
476.27	21.139
476.61	22.008
476.96	20.836
477.31	21.664
477.66	22.101
478.01	21.589
478.36	21.840
478.70	21.340
479.05	22.204
479.40	21.904
479.75	22.115
480.10	21.173
480.45	21.418
480.79	21.261
481.14	21.624
481.49	21.974
481.84	22.131
482.19	21.854
482.53	21.422
482.88	21.545
483.23	22.290
483.58	21.611
483.92	21.509
484.27	20.697
484.62	21.983
484.97	21.206
485.31	21.233
485.66	20.624
486.01	19.215
486.36	18.563
486.70	17.917
487.05	18.584
487.40	19.280
487.75	19.797
488.09	19.897
488.44	19.913
488.79	20.362
489.13	20.932
489.48	20.799
489.83	21.666
490.17	22.008
490.52	21.391
490.87	22.026
491.22	21.510
491.56	21.868
491.91	22.708
492.26	22.416
492.60	21.567
492.95	21.983
493.30	21.916
493.64	22.165
493.99	22.423
494.34	22.895
494.68	23.168
495.03	22.462
495.37	22.662
495.72	22.222
496.07	22.923
496.41	21.372
496.76	22.032
497.11	22.152
497.45	22.170
497.80	22.361
498.14	22.850
498.49	22.439
498.84	22.771
499.18	22.476
499.53	22.792
499.87	22.833
500.22	22.751
500.56	22.961
500.91	22.981
501.26	23.518
501.60	23.873
501.95	22.915
502.29	22.915
502.64	23.883
502.98	22.814
503.33	22.806
503.67	22.599
504.02	23.059
504.36	22.929
504.71	22.570
505.06	23.133
505.40	23.189
505.75	22.854
506.09	23.907
506.44	23.483
506.78	23.332
507.13	23.927
507.47	23.838
507.82	23.708
508.16	24.012
508.51	24.049
508.85	23.883
509.19	24.592
509.54	23.571
509.88	23.854
510.23	23.856
510.57	24.923
510.92	24.495
511.26	24.152
511.61	24.326
511.95	24.374
512.30	24.814
512.64	24.073
512.98	24.598
513.33	24.411
513.67	23.906
514.02	23.431
514.36	25.232
514.70	25.125
515.05	24.205
515.39	25.014
515.74	25.788
516.08	25.321
516.42	25.694
516.77	26.867
517.11	25.028
517.46	25.677
517.80	25.668
518.14	25.420
518.49	26.313
518.83	26.023
519.17	26.155
519.52	25.976
519.86	26.526
520.20	26.821
520.55	25.673
520.89	26.034
521.23	27.081
521.58	26.291
521.92	26.822
522.26	26.174
522.61	26.791
522.95	26.335
523.29	27.085
523.64	27.073
523.98	27.603
524.32	26.297
524.66	26.639
525.01	26.348
525.35	27.323
525.69	25.800
526.04	26.168
526.38	27.212
526.72	26.503
527.06	27.244
527.41	26.176
527.75	27.010
528.09	27.489
528.43	27.470
528.78	28.273
529.12	26.303
529.46	27.495
529.80	27.104
530.15	27.539
530.49	26.277
530.83	27.342
531.17	27.937
531.51	28.405
531.86	27.419
532.20	28.357
532.54	27.482
532.88	27.985
533.22	27.171
533.57	26.667
533.91	26.911
534.25	26.549
534.59	26.541
534.93	26.829
535.27	26.373
535.62	26.984
535.96	27.872
536.30	26.764
536.64	27.817
536.98	27.206
537.32	26.860
537.66	28.400
538.01	27.452
538.35	27.796
538.69	28.079
539.03	26.576
539.37	26.390
539.71	26.183
540.05	27.059
540.39	27.309
540.73	26.585
541.07	27.839
541.42	26.680
541.76	28.000
542.10	27.749
542.44	25.894
542.78	27.141
543.12	26.871
543.46	26.885
543.80	27.196
544.14	25.546
544.48	26.667
544.82	26.299
545.16	26.285
545.50	25.321
545.84	27.083
546.18	27.205
546.52	27.805
546.86	27.766
547.20	27.782
547.54	26.587
547.88	27.870
548.22	26.588
548.56	27.044
548.90	27.017
549.24	27.138
549.58	27.694
549.92	26.168
550.26	28.054
550.60	26.833
550.94	27.676
551.28	27.432
551.62	28.109
551.96	27.368
552.30	27.577
552.64	26.775
552.98	27.119
553.32	27.310
553.66	27.471
554.00	27.385
554.34	27.329
554.68	28.112
555.02	26.869
555.36	26.514
555.69	26.116
556.03	27.389
556.37	26.535
556.71	26.944
557.05	27.241
557.39	27.852
557.73	28.299
558.07	27.049
558.41	27.352
558.75	27.553
559.08	27.815
559.42	26.531
559.76	28.088
560.10	27.266
560.44	26.834
560.78	26.347
561.12	25.528
561.45	26.141
561.79	26.104
562.13	26.761
562.47	26.913
562.81	26.499
563.15	26.756
563.48	26.194
563.82	25.506
564.16	25.638
564.50	25.846
564.84	25.411
565.17	25.804
565.51	26.645
565.85	26.142
566.19	25.423
566.52	26.409
566.86	24.955
567.20	25.295
567.54	25.285
567.88	23.846
568.21	24.603
568.55	23.964
568.89	24.125
569.23	23.886
569.56	22.632
569.90	22.830
570.24	21.744
570.57	22.135
570.91	22.043
571.25	21.001
571.59	21.208
571.92	21.515
572.26	20.913
572.60	21.051
572.93	20.960
573.27	21.532
573.61	20.659
573.95	20.879
574.28	20.653
574.62	20.117
574.96	19.904
575.29	19.835
575.63	19.715
575.97	19.813
576.30	19.756
576.64	20.217
576.98	20.005
577.31	19.848
577.65	20.022
577.98	19.723
578.32	19.102
578.66	19.224
578.99	19.676
579.33	19.317
579.67	19.046
580.00	19.755
580.34	19.198
580.67	19.901
581.01	19.856
581.35	19.534
581.68	19.025
582.02	18.576
582.35	19.005
582.69	19.140
583.02	18.874
583.36	19.161
583.70	19.680
584.03	19.671
584.37	19.763
584.70	19.984
585.04	19.154
585.37	19.595
585.71	19.314
586.04	19.353
586.38	19.749
586.72	20.215
587.05	20.049
587.39	19.525
587.72	19.660
588.06	19.210
588.39	19.781
588.73	20.182
589.06	20.349
589.40	20.505
589.73	20.697
590.07	20.498
590.40	20.095
590.73	20.219
591.07	21.042
591.40	20.666
591.74	21.558
592.07	21.204
592.41	21.496
592.74	20.599
593.08	20.686
593.41	19.899
593.75	19.238
594.08	19.477
594.41	20.325
594.75	20.665
595.08	20.544
595.42	20.350
595.75	20.192
596.09	20.015
596.42	20.668
596.75	20.684
597.09	20.736
597.42	20.278
597.75	21.044
598.09	20.565
598.42	20.404
598.76	19.700
599.09	19.840
599.42	19.687
599.76	19.802
600.09	20.291
600.42	19.686
600.76	19.643
601.09	19.709
601.42	19.597
601.76	20.076
602.09	19.091
602.42	19.188
602.76	20.274
603.09	20.181
603.42	20.344
603.76	19.627
604.09	19.271
604.42	19.976
604.76	20.371
605.09	20.183
605.42	20.436
605.75	19.992
606.09	19.479
606.42	19.820
606.75	19.535
607.09	20.260
607.42	19.983
607.75	19.325
608.08	20.104
608.42	20.260
608.75	19.838
609.08	20.259
609.41	20.371
609.75	20.629
610.08	21.159
610.41	19.413
610.74	20.057
611.07	20.702
611.41	20.608
611.74	21.317
612.07	20.342
612.40	20.042
612.73	20.158
613.07	21.336
613.40	20.853
613.73	19.822
614.06	20.269
614.39	20.399
614.72	20.737
615.06	21.166
615.39	19.268
615.72	20.654
616.05	19.351
616.38	20.567
616.71	21.081
617.05	20.966
617.38	20.084
617.71	20.180
618.04	20.613
618.37	20.402
618.70	20.909
619.03	20.658
619.36	21.589
619.69	21.972
620.03	22.596
620.36	22.059
620.69	22.671
621.02	22.566
621.35	22.161
621.68	22.586
622.01	22.678
622.34	22.693
622.67	21.825
623.00	21.497
623.33	21.515
623.66	21.873
623.99	22.018
624.32	21.398
624.65	21.469
624.99	20.609
625.32	21.651
625.65	21.863
625.98	22.829
626.31	22.084
626.64	22.776
626.97	22.860
627.30	22.111
627.63	22.559
627.96	23.633
628.29	23.885
628.62	23.696
628.95	25.472
629.28	24.270
629.61	23.556
629.94	22.952
630.26	22.688
630.59	22.402
630.92	23.084
631.25	23.001
631.58	24.925
631.91	23.225
632.24	23.523
632.57	24.869
632.90	23.136
633.23	25.391
633.56	24.859
633.89	25.934
634.22	23.383
