SpectraSuite Data File
++++++++++++++++++++++++++++++++++++
Date: Wed May 13 16:49:45 PDT 2015
User: schluterlab
Dark Spectrum Present: Yes
Reference Spectrum Present: Yes
Number of Sampled Component Spectra: 1
Spectrometers: USB2E3373
Integration Time (usec): 3000 (USB2E3373)
Spectra Averaged: 3 (USB2E3373)
Boxcar Smoothing: 0 (USB2E3373)
Correct for Electrical Dark: No (USB2E3373)
Strobe/Lamp Enabled: No (USB2E3373)
Correct for Detector Non-linearity: No (USB2E3373)
Correct for Stray Light: No (USB2E3373)
Number of Pixels in Processed Spectrum: 2048
>>>>>Begin Processed Spectral Data<<<<<
178.53	0.000
178.91	-1100.000
179.29	-1250.000
179.67	-222.222
180.04	-1225.000
180.42	2300.000
180.80	1040.000
181.18	-875.000
181.56	757.143
181.94	0.000
182.31	-700.000
182.69	1633.333
183.07	-650.000
183.45	-500.000
183.83	463.636
184.20	-400.000
184.58	2100.000
184.96	5500.000
185.34	-840.000
185.72	-512.500
186.09	-2050.000
186.47	2700.000
186.85	2300.000
187.23	4700.000
187.61	-1500.000
187.98	1200.000
188.36	572.727
188.74	454.545
189.12	-720.000
189.49	570.000
189.87	-4800.000
190.25	-1175.000
190.63	385.714
191.00	423.077
191.38	983.333
191.76	-1300.000
192.14	1325.000
192.51	612.500
192.89	1116.667
193.27	587.500
193.65	-1500.000
194.02	400.000
194.40	960.000
194.78	560.000
195.15	450.000
195.53	650.000
195.91	-1850.000
196.29	331.250
196.66	289.474
197.04	-390.000
197.42	0.000
197.79	610.000
198.17	-4700.000
198.55	657.143
198.92	737.500
199.30	880.000
199.68	0.000
200.05	294.444
200.43	828.571
200.81	3500.000
201.18	1766.667
201.56	-1466.667
201.94	588.889
202.31	466.667
202.69	416.667
203.07	680.000
203.44	0.000
203.82	1175.000
204.19	785.714
204.57	457.143
204.95	712.500
205.32	1600.000
205.70	536.364
206.08	407.143
206.45	2850.000
206.83	356.250
207.20	1000.000
207.58	860.000
207.96	316.667
208.33	762.500
208.71	-783.333
209.08	885.714
209.46	633.333
209.84	463.636
210.21	-1600.000
210.59	1550.000
210.96	-550.000
211.34	2350.000
211.71	540.000
212.09	750.000
212.46	0.000
212.84	1900.000
213.22	1175.000
213.59	-5300.000
213.97	816.667
214.34	742.857
214.72	481.818
215.09	1040.000
215.47	-2600.000
215.84	-2400.000
216.22	1600.000
216.59	364.286
216.97	1475.000
217.34	472.727
217.72	-900.000
218.09	0.000
218.47	-5200.000
218.84	644.444
219.22	842.857
219.59	1500.000
219.97	-614.286
220.34	1180.000
220.72	-1833.333
221.09	421.429
221.47	1250.000
221.84	-850.000
222.22	0.000
222.59	1350.000
222.97	-2250.000
223.34	920.000
223.72	507.692
224.09	920.000
224.46	1950.000
224.84	-5300.000
225.21	-1100.000
225.59	-4700.000
225.96	560.000
226.34	265.000
226.71	2750.000
227.08	537.500
227.46	550.000
227.83	-1450.000
228.21	-2650.000
228.58	644.444
228.95	-2700.000
229.33	-2450.000
229.70	1466.667
230.08	800.000
230.45	-720.000
230.82	500.000
231.20	800.000
231.57	742.857
231.95	416.667
232.32	227.273
232.69	490.909
233.07	800.000
233.44	438.462
233.81	-1700.000
234.19	278.947
234.56	408.333
234.93	441.667
235.31	472.727
235.68	353.846
236.05	421.429
236.43	203.030
236.80	294.737
237.17	4300.000
237.55	238.095
237.92	250.000
238.29	271.429
238.67	222.581
239.04	200.000
239.41	155.556
239.79	141.304
240.16	178.571
240.53	163.636
240.91	137.255
241.28	146.000
241.65	134.000
242.02	126.087
242.40	130.645
242.77	120.000
243.14	93.548
243.51	106.742
243.89	110.588
244.26	104.444
244.63	83.871
245.00	89.362
245.38	86.139
245.75	88.785
246.12	84.404
246.49	86.861
246.87	90.400
247.24	81.538
247.61	85.714
247.98	77.778
248.36	76.351
248.73	71.975
249.10	80.255
249.47	76.271
249.84	71.658
250.22	71.123
250.59	68.639
250.96	70.707
251.33	67.299
251.70	68.812
252.08	64.286
252.45	62.780
252.82	62.174
253.19	61.702
253.56	66.667
253.94	59.751
254.31	62.891
254.68	60.385
255.05	59.041
255.42	65.041
255.79	61.765
256.16	62.094
256.54	57.951
256.91	58.363
257.28	53.597
257.65	58.746
258.02	59.938
258.39	56.151
258.76	57.191
259.14	56.548
259.51	58.359
259.88	53.416
260.25	57.704
260.62	53.468
260.99	60.248
261.36	56.456
261.73	55.014
262.10	52.616
262.47	58.873
262.85	55.432
263.22	56.410
263.59	59.259
263.96	57.143
264.33	55.875
264.70	51.579
265.07	54.476
265.44	51.263
265.81	55.231
266.18	52.261
266.55	54.634
266.92	56.265
267.29	55.556
267.66	52.294
268.03	49.545
268.40	53.972
268.77	51.790
269.14	50.000
269.51	52.596
269.88	50.583
270.25	49.436
270.62	53.708
270.99	51.183
271.36	51.931
271.73	52.570
272.10	52.391
272.47	51.398
272.84	49.567
273.21	52.621
273.58	50.000
273.95	49.895
274.32	47.107
274.69	50.749
275.06	50.394
275.43	52.766
275.80	48.497
276.17	47.251
276.54	51.975
276.91	52.174
277.28	48.828
277.65	49.516
278.02	50.932
278.39	50.781
278.76	49.273
279.13	48.868
279.50	47.858
279.87	49.402
280.23	51.697
280.60	49.903
280.97	48.799
281.34	47.611
281.71	48.182
282.08	49.712
282.45	47.273
282.82	48.668
283.19	47.237
283.56	47.193
283.92	48.393
284.29	48.148
284.66	46.824
285.03	47.920
285.40	44.542
285.77	46.296
286.14	46.632
286.51	45.667
286.87	46.496
287.24	45.440
287.61	44.944
287.98	45.292
288.35	44.057
288.72	42.835
289.08	43.349
289.45	42.834
289.82	44.715
290.19	42.543
290.56	43.798
290.93	41.239
291.29	43.712
291.66	42.035
292.03	43.023
292.40	42.584
292.77	40.237
293.13	42.537
293.50	41.983
293.87	41.630
294.24	40.444
294.60	38.428
294.97	40.407
295.34	41.467
295.71	38.636
296.08	38.604
296.44	39.202
296.81	37.649
297.18	38.753
297.55	36.675
297.91	38.522
298.28	39.491
298.65	39.295
299.02	38.603
299.38	38.513
299.75	36.388
300.12	37.165
300.48	37.250
300.85	37.731
301.22	36.051
301.59	37.879
301.95	39.547
302.32	39.153
302.69	37.873
303.05	39.273
303.42	37.531
303.79	37.712
304.15	35.198
304.52	38.586
304.89	37.050
305.25	36.079
305.62	37.373
305.99	38.135
306.35	36.577
306.72	38.453
307.09	39.734
307.45	37.500
307.82	36.272
308.19	38.962
308.55	39.159
308.92	38.453
309.29	38.015
309.65	36.797
310.02	36.575
310.38	39.785
310.75	39.916
311.12	39.406
311.48	39.080
311.85	39.623
312.22	40.583
312.58	39.709
312.95	40.232
313.31	38.544
313.68	40.541
314.05	41.913
314.41	42.714
314.78	41.390
315.14	39.921
315.51	42.327
315.87	41.881
316.24	41.410
316.61	42.982
316.97	42.466
317.34	41.781
317.70	44.264
318.07	43.407
318.43	46.575
318.80	44.892
319.16	46.045
319.53	43.340
319.89	45.429
320.26	47.400
320.62	47.917
320.99	47.980
321.35	47.879
321.72	48.871
322.08	49.358
322.45	49.652
322.81	49.516
323.18	50.482
323.54	49.258
323.91	52.547
324.27	51.721
324.64	53.681
325.00	54.283
325.37	55.232
325.73	56.373
326.10	54.457
326.46	55.466
326.83	57.204
327.19	55.850
327.56	58.624
327.92	59.318
328.29	59.095
328.65	58.564
329.01	58.845
329.38	59.944
329.74	57.987
330.11	60.886
330.47	59.504
330.84	59.743
331.20	59.563
331.56	59.450
331.93	61.204
332.29	60.071
332.66	59.204
333.02	60.878
333.38	60.885
333.75	61.052
334.11	59.164
334.48	59.095
334.84	58.915
335.20	62.364
335.57	60.018
335.93	60.179
336.29	59.524
336.66	61.317
337.02	60.543
337.38	59.815
337.75	59.358
338.11	60.340
338.47	61.602
338.84	61.228
339.20	60.367
339.56	62.044
339.93	61.545
340.29	60.598
340.65	60.606
341.02	61.693
341.38	62.989
341.74	61.316
342.11	60.524
342.47	60.088
342.83	60.017
343.20	61.991
343.56	58.214
343.92	61.140
344.28	60.714
344.65	61.479
345.01	61.027
345.37	60.206
345.73	60.745
346.10	59.847
346.46	60.085
346.82	59.967
347.19	60.986
347.55	60.181
347.91	61.003
348.27	62.120
348.63	60.201
349.00	59.709
349.36	60.920
349.72	60.144
350.08	59.562
350.45	60.700
350.81	59.870
351.17	60.940
351.53	61.343
351.89	60.066
352.26	60.773
352.62	60.225
352.98	59.562
353.34	61.545
353.70	60.229
354.07	61.129
354.43	59.683
354.79	59.051
355.15	59.936
355.51	60.751
355.87	61.878
356.24	61.808
356.60	61.588
356.96	61.303
357.32	61.079
357.68	62.835
358.04	61.520
358.40	60.649
358.77	61.033
359.13	61.878
359.49	60.235
359.85	62.460
360.21	61.882
360.57	61.012
360.93	63.308
361.29	61.905
361.66	60.449
362.02	62.910
362.38	62.586
362.74	63.467
363.10	63.212
363.46	61.849
363.82	62.963
364.18	61.894
364.54	62.556
364.90	62.181
365.26	63.897
365.62	62.747
365.98	62.747
366.35	61.533
366.71	64.281
367.07	63.948
367.43	63.643
367.79	64.597
368.15	64.009
368.51	63.663
368.87	64.240
369.23	63.862
369.59	65.894
369.95	62.132
370.31	62.607
370.67	63.043
371.03	65.618
371.39	65.452
371.75	65.221
372.11	62.873
372.47	66.056
372.83	66.643
373.19	64.740
373.55	65.484
373.91	66.127
374.27	64.674
374.63	65.818
374.99	65.537
375.35	66.364
375.71	65.661
376.07	66.187
376.42	66.094
376.78	66.865
377.14	65.672
377.50	67.417
377.86	66.356
378.22	66.751
378.58	66.228
378.94	66.939
379.30	68.448
379.66	68.464
380.02	68.366
380.38	65.756
380.74	67.347
381.09	67.787
381.45	68.470
381.81	67.875
382.17	68.408
382.53	66.918
382.89	68.086
383.25	69.168
383.61	69.579
383.97	68.981
384.32	68.372
384.68	68.401
385.04	69.207
385.40	69.350
385.76	69.103
386.12	69.365
386.48	70.548
386.83	71.007
387.19	71.119
387.55	69.450
387.91	70.073
388.27	68.424
388.62	69.146
388.98	69.226
389.34	69.962
389.70	69.528
390.06	70.659
390.42	70.428
390.77	71.183
391.13	71.091
391.49	69.607
391.85	70.910
392.20	70.662
392.56	71.149
392.92	71.277
393.28	70.355
393.64	71.403
393.99	70.373
394.35	71.464
394.71	69.573
395.07	69.283
395.42	71.693
395.78	70.992
396.14	69.522
396.50	71.617
396.85	70.757
397.21	69.667
397.57	69.002
397.92	71.334
398.28	69.395
398.64	70.669
399.00	69.894
399.35	69.656
399.71	70.718
400.07	71.437
400.42	69.571
400.78	71.049
401.14	69.695
401.49	71.104
401.85	69.752
402.21	68.802
402.57	68.908
402.92	70.429
403.28	70.581
403.63	71.658
403.99	70.764
404.35	71.091
404.70	70.144
405.06	69.249
405.42	71.491
405.77	69.657
406.13	68.679
406.49	70.077
406.84	69.581
407.20	68.794
407.55	69.432
407.91	71.467
408.27	69.113
408.62	69.416
408.98	70.037
409.34	70.111
409.69	70.516
410.05	70.136
410.40	69.419
410.76	68.937
411.11	68.335
411.47	69.265
411.83	69.090
412.18	69.697
412.54	70.423
412.89	69.217
413.25	68.713
413.60	69.981
413.96	67.820
414.31	67.801
414.67	69.582
415.03	70.662
415.38	69.652
415.74	68.939
416.09	70.477
416.45	68.876
416.80	69.729
417.16	70.241
417.51	69.409
417.87	69.814
418.22	68.896
418.58	69.722
418.93	69.533
419.29	70.210
419.64	69.458
420.00	68.476
420.35	68.986
420.71	69.157
421.06	67.721
421.42	67.953
421.77	68.722
422.12	69.792
422.48	68.753
422.83	69.656
423.19	68.232
423.54	69.298
423.90	69.043
424.25	69.403
424.61	70.357
424.96	70.671
425.31	68.272
425.67	68.596
426.02	68.114
426.38	70.940
426.73	70.099
427.09	69.605
427.44	68.200
427.79	69.408
428.15	69.821
428.50	68.871
428.85	69.607
429.21	68.857
429.56	69.933
429.92	69.149
430.27	69.215
430.62	67.742
430.98	68.967
431.33	68.196
431.68	68.901
432.04	67.732
432.39	69.674
432.74	68.821
433.10	70.289
433.45	71.545
433.80	70.455
434.16	67.308
434.51	68.895
434.86	69.840
435.22	70.317
435.57	70.152
435.92	69.105
436.28	71.886
436.63	69.426
436.98	68.288
437.34	69.767
437.69	70.245
438.04	69.871
438.39	70.746
438.75	69.611
439.10	69.274
439.45	70.543
439.81	69.003
440.16	69.057
440.51	70.533
440.86	70.295
441.22	70.022
441.57	69.321
441.92	69.191
442.27	68.891
442.63	68.510
442.98	70.366
443.33	68.967
443.68	68.147
444.03	68.765
444.39	68.841
444.74	70.022
445.09	69.596
445.44	69.163
445.79	69.570
446.15	69.031
446.50	69.305
446.85	70.658
447.20	69.505
447.55	70.910
447.91	70.822
448.26	69.338
448.61	70.605
448.96	69.103
449.31	70.754
449.66	68.599
450.02	70.362
450.37	69.388
450.72	69.825
451.07	69.348
451.42	68.997
451.77	69.466
452.12	68.418
452.47	69.900
452.83	71.154
453.18	69.377
453.53	71.058
453.88	69.462
454.23	69.994
454.58	70.503
454.93	71.011
455.28	70.012
455.63	70.934
455.98	69.940
456.34	70.289
456.69	71.634
457.04	72.012
457.39	69.141
457.74	68.833
458.09	68.603
458.44	69.954
458.79	68.601
459.14	70.090
459.49	68.184
459.84	69.141
460.19	68.297
460.54	67.998
460.89	68.459
461.24	70.067
461.59	70.250
461.94	68.372
462.29	69.199
462.64	69.177
462.99	68.510
463.34	69.467
463.69	69.731
464.04	69.333
464.39	67.826
464.74	69.043
465.09	68.637
465.44	67.645
465.79	68.792
466.14	66.393
466.49	67.186
466.84	68.301
467.19	67.592
467.54	67.312
467.89	68.247
468.24	68.703
468.59	69.658
468.94	67.685
469.29	68.895
469.64	70.482
469.99	70.230
470.34	70.476
470.68	70.546
471.03	69.388
471.38	70.118
471.73	68.488
472.08	70.000
472.43	68.844
472.78	68.071
473.13	68.678
473.48	66.479
473.83	68.902
474.17	67.953
474.52	68.672
474.87	68.943
475.22	67.673
475.57	67.276
475.92	67.870
476.27	67.306
476.61	68.174
476.96	67.730
477.31	68.080
477.66	69.037
478.01	67.067
478.36	68.059
478.70	66.926
479.05	67.465
479.40	67.503
479.75	67.361
480.10	66.948
480.45	66.635
480.79	66.269
481.14	67.368
481.49	66.872
481.84	66.118
482.19	65.607
482.53	64.954
482.88	65.798
483.23	66.636
483.58	66.742
483.92	66.120
484.27	64.880
484.62	67.026
484.97	64.446
485.31	67.089
485.66	64.823
486.01	62.472
486.36	59.861
486.70	58.474
487.05	59.450
487.40	62.028
487.75	62.212
488.09	63.573
488.44	63.609
488.79	64.846
489.13	65.737
489.48	64.600
489.83	65.214
490.17	65.629
490.52	64.792
490.87	64.270
491.22	65.121
491.56	64.328
491.91	65.472
492.26	65.136
492.60	64.424
492.95	65.061
493.30	64.159
493.64	64.116
493.99	65.042
494.34	65.495
494.68	65.293
495.03	64.380
495.37	64.588
495.72	66.326
496.07	66.125
496.41	63.673
496.76	64.600
497.11	63.440
497.45	64.462
497.80	64.539
498.14	64.396
498.49	64.976
498.84	65.388
499.18	64.714
499.53	63.960
499.87	64.492
500.22	64.390
500.56	65.437
500.91	64.327
501.26	62.684
501.60	65.069
501.95	63.886
502.29	65.136
502.64	64.711
502.98	64.095
503.33	62.249
503.67	63.619
504.02	63.564
504.36	61.816
504.71	64.680
505.06	64.048
505.40	64.317
505.75	63.404
506.09	62.828
506.44	65.072
506.78	64.394
507.13	64.109
507.47	63.333
507.82	64.286
508.16	63.171
508.51	64.992
508.85	64.101
509.19	65.408
509.54	63.827
509.88	63.215
510.23	64.987
510.57	64.757
510.92	64.060
511.26	63.875
511.61	64.678
511.95	62.578
512.30	64.104
512.64	64.159
512.98	64.416
513.33	65.043
513.67	63.074
514.02	62.662
514.36	63.954
514.70	64.195
515.05	64.529
515.39	64.835
515.74	63.908
516.08	63.890
516.42	64.095
516.77	65.719
517.11	63.596
517.46	64.052
517.80	64.750
518.14	63.463
518.49	66.394
518.83	62.727
519.17	65.069
519.52	63.894
519.86	64.119
520.20	64.277
520.55	65.290
520.89	64.355
521.23	65.501
521.58	63.745
521.92	64.299
522.26	63.392
522.61	65.794
522.95	65.071
523.29	64.273
523.64	63.537
523.98	65.373
524.32	64.536
524.66	64.823
525.01	64.400
525.35	63.755
525.69	63.855
526.04	65.047
526.38	63.270
526.72	62.822
527.06	65.851
527.41	63.738
527.75	64.630
528.09	62.749
528.43	64.818
528.78	64.536
529.12	62.606
529.46	64.544
529.80	64.295
530.15	64.860
530.49	61.969
530.83	62.785
531.17	65.339
531.51	64.981
531.86	63.355
532.20	64.602
532.54	63.357
532.88	63.286
533.22	62.586
533.57	61.543
533.91	61.951
534.25	61.300
534.59	62.660
534.93	61.570
535.27	62.704
535.62	62.210
535.96	63.528
536.30	62.301
536.64	61.172
536.98	62.243
537.32	61.488
537.66	63.933
538.01	64.253
538.35	62.379
538.69	63.561
539.03	61.404
539.37	61.342
539.71	60.337
540.05	60.850
540.39	62.458
540.73	60.026
541.07	61.518
541.42	62.035
541.76	62.065
542.10	61.320
542.44	61.258
542.78	62.055
543.12	60.141
543.46	60.787
543.80	62.264
544.14	60.783
544.48	59.619
544.82	60.680
545.16	60.117
545.50	60.283
545.84	61.492
546.18	61.481
546.52	61.734
546.86	61.100
547.20	63.048
547.54	61.323
547.88	61.288
548.22	59.278
548.56	60.314
548.90	58.707
549.24	60.673
549.58	61.460
549.92	61.538
550.26	62.500
550.60	60.166
550.94	61.408
551.28	61.814
551.62	61.754
551.96	60.281
552.30	61.024
552.64	60.514
552.98	60.949
553.32	59.676
553.66	60.327
554.00	60.810
554.34	60.386
554.68	61.731
555.02	60.296
555.36	60.960
555.69	59.066
556.03	60.700
556.37	60.778
556.71	58.868
557.05	60.084
557.39	60.042
557.73	60.480
558.07	61.204
558.41	61.071
558.75	60.764
559.08	60.925
559.42	61.829
559.76	60.515
560.10	60.528
560.44	59.399
560.78	59.215
561.12	61.214
561.45	58.866
561.79	58.471
562.13	59.088
562.47	60.314
562.81	61.227
563.15	57.592
563.48	60.477
563.82	59.687
564.16	58.535
564.50	59.049
564.84	58.217
565.17	58.559
565.51	60.064
565.85	58.376
566.19	57.483
566.52	58.075
566.86	56.902
567.20	58.196
567.54	57.991
567.88	56.654
568.21	56.508
568.55	56.067
568.89	55.739
569.23	54.724
569.56	53.968
569.90	53.811
570.24	53.104
570.57	52.227
570.91	51.778
571.25	51.143
571.59	50.368
571.92	50.893
572.26	50.751
572.60	51.441
572.93	50.675
573.27	50.902
573.61	51.396
573.95	50.930
574.28	49.849
574.62	50.146
574.96	49.510
575.29	49.030
575.63	49.416
575.97	49.284
576.30	50.505
576.64	49.760
576.98	50.049
577.31	50.139
577.65	49.620
577.98	49.055
578.32	48.193
578.66	48.721
578.99	48.961
579.33	48.971
579.67	49.112
580.00	49.173
580.34	49.478
580.67	48.877
581.01	50.011
581.35	49.233
581.68	48.949
582.02	48.382
582.35	48.192
582.69	47.982
583.02	48.127
583.36	48.628
583.70	49.625
584.03	50.313
584.37	51.462
584.70	49.896
585.04	49.046
585.37	48.928
585.71	48.849
586.04	48.587
586.38	49.425
586.72	50.041
587.05	49.389
587.39	49.024
587.72	49.214
588.06	48.933
588.39	48.944
588.73	49.164
589.06	49.860
589.40	51.616
589.73	50.827
590.07	50.925
590.40	49.689
590.73	51.717
591.07	52.096
591.40	51.961
591.74	52.381
592.07	51.876
592.41	52.005
592.74	50.599
593.08	50.100
593.41	50.269
593.75	48.314
594.08	48.441
594.41	49.770
594.75	50.018
595.08	49.392
595.42	50.333
595.75	50.285
596.09	50.282
596.42	51.198
596.75	51.667
597.09	50.736
597.42	49.536
597.75	51.315
598.09	50.783
598.42	50.773
598.76	50.466
599.09	49.563
599.42	49.090
599.76	49.488
600.09	48.998
600.42	48.758
600.76	48.571
601.09	48.306
601.42	49.734
601.76	50.133
602.09	49.565
602.42	50.478
602.76	50.383
603.09	50.708
603.42	49.785
603.76	49.085
604.09	50.019
604.42	49.735
604.76	50.654
605.09	50.415
605.42	50.235
605.75	49.503
606.09	49.329
606.42	49.612
606.75	50.104
607.09	49.644
607.42	50.449
607.75	48.819
608.08	49.761
608.42	50.202
608.75	49.594
609.08	50.463
609.41	49.357
609.75	49.929
610.08	50.236
610.41	49.767
610.74	50.142
611.07	50.840
611.41	50.491
611.74	50.779
612.07	50.983
612.40	51.364
612.73	51.263
613.07	52.209
613.40	51.395
613.73	49.921
614.06	51.344
614.39	50.655
614.72	49.368
615.06	50.630
615.39	49.947
615.72	50.153
616.05	49.814
616.38	51.306
616.71	52.910
617.05	52.473
617.38	50.451
617.71	52.553
618.04	51.623
618.37	51.981
618.70	52.334
619.03	53.553
619.36	53.157
619.69	52.254
620.03	53.297
620.36	52.473
620.69	53.151
621.02	54.277
621.35	54.503
621.68	53.271
622.01	54.644
622.34	54.766
622.67	55.133
623.00	52.458
623.33	51.608
623.66	53.395
623.99	53.903
624.32	52.568
624.65	53.531
624.99	52.337
625.32	53.440
625.65	52.742
625.98	55.035
626.31	54.044
626.64	54.939
626.97	54.447
627.30	56.110
627.63	53.076
627.96	55.509
628.29	54.768
628.62	56.359
628.95	56.509
629.28	55.566
629.61	57.104
629.94	55.429
630.26	56.244
630.59	55.863
