SpectraSuite Data File
++++++++++++++++++++++++++++++++++++
Date: Wed May 13 16:29:08 PDT 2015
User: schluterlab
Dark Spectrum Present: Yes
Reference Spectrum Present: Yes
Number of Sampled Component Spectra: 1
Spectrometers: USB2E3373
Integration Time (usec): 3000 (USB2E3373)
Spectra Averaged: 3 (USB2E3373)
Boxcar Smoothing: 0 (USB2E3373)
Correct for Electrical Dark: No (USB2E3373)
Strobe/Lamp Enabled: No (USB2E3373)
Correct for Detector Non-linearity: No (USB2E3373)
Correct for Stray Light: No (USB2E3373)
Number of Pixels in Processed Spectrum: 2048
>>>>>Begin Processed Spectral Data<<<<<
178.53	0.000
178.91	-1400.000
179.29	-1050.000
179.67	-250.000
180.04	-1200.000
180.42	2400.000
180.80	720.000
181.18	-975.000
181.56	514.286
181.94	0.000
182.31	-642.857
182.69	1400.000
183.07	-412.500
183.45	-544.444
183.83	536.364
184.20	-400.000
184.58	2400.000
184.96	4100.000
185.34	-880.000
185.72	-525.000
186.09	-1800.000
186.47	2150.000
186.85	1900.000
187.23	4500.000
187.61	-1333.333
187.98	1275.000
188.36	463.636
188.74	545.455
189.12	-840.000
189.49	570.000
189.87	-3800.000
190.25	-1100.000
190.63	335.714
191.00	423.077
191.38	850.000
191.76	-1125.000
192.14	1175.000
192.51	637.500
192.89	800.000
193.27	562.500
193.65	-1200.000
194.02	440.000
194.40	800.000
194.78	440.000
195.15	516.667
195.53	550.000
195.91	-2000.000
196.29	300.000
196.66	257.895
197.04	-320.000
197.42	0.000
197.79	560.000
198.17	-4400.000
198.55	557.143
198.92	612.500
199.30	780.000
199.68	0.000
200.05	322.222
200.43	757.143
200.81	3200.000
201.18	1366.667
201.56	-1633.333
201.94	566.667
202.31	544.444
202.69	433.333
203.07	580.000
203.44	0.000
203.82	1075.000
204.19	700.000
204.57	407.143
204.95	675.000
205.32	1566.667
205.70	509.091
206.08	392.857
206.45	2000.000
206.83	281.250
207.20	733.333
207.58	740.000
207.96	311.111
208.33	600.000
208.71	-616.667
209.08	728.571
209.46	588.889
209.84	409.091
210.21	-1433.333
210.59	1375.000
210.96	-562.500
211.34	2500.000
211.71	510.000
212.09	766.667
212.46	0.000
212.84	1833.333
213.22	1175.000
213.59	-3100.000
213.97	666.667
214.34	871.429
214.72	518.182
215.09	1160.000
215.47	-1650.000
215.84	-3150.000
216.22	1700.000
216.59	342.857
216.97	1075.000
217.34	490.909
217.72	-733.333
218.09	0.000
218.47	-4700.000
218.84	611.111
219.22	842.857
219.59	1500.000
219.97	-471.429
220.34	1000.000
220.72	-1266.667
221.09	450.000
221.47	1250.000
221.84	-866.667
222.22	0.000
222.59	1200.000
222.97	-1850.000
223.34	1020.000
223.72	338.462
224.09	940.000
224.46	1900.000
224.84	-4600.000
225.21	-780.000
225.59	-4800.000
225.96	530.000
226.34	275.000
226.71	2200.000
227.08	687.500
227.46	500.000
227.83	-950.000
228.21	-2100.000
228.58	566.667
228.95	-2300.000
229.33	-1850.000
229.70	1633.333
230.08	714.286
230.45	-640.000
230.82	400.000
231.20	733.333
231.57	642.857
231.95	500.000
232.32	254.545
232.69	409.091
233.07	600.000
233.44	292.308
233.81	-1333.333
234.19	252.632
234.56	383.333
234.93	341.667
235.31	472.727
235.68	307.692
236.05	300.000
236.43	142.424
236.80	242.105
237.17	3600.000
237.55	219.048
237.92	182.143
238.29	223.810
238.67	151.613
239.04	168.966
239.41	130.556
239.79	106.522
240.16	121.429
240.53	100.000
240.91	100.000
241.28	102.000
241.65	76.000
242.02	75.362
242.40	70.968
242.77	88.333
243.14	66.667
243.51	71.910
243.89	63.529
244.26	57.778
244.63	53.763
245.00	44.681
245.38	52.475
245.75	45.794
246.12	37.615
246.49	50.365
246.87	48.000
247.24	43.077
247.61	41.429
247.98	33.333
248.36	36.486
248.73	33.758
249.10	45.223
249.47	33.333
249.84	33.155
250.22	34.759
250.59	29.586
250.96	33.333
251.33	36.019
251.70	35.149
252.08	36.190
252.45	27.803
252.82	27.826
253.19	32.340
253.56	26.667
253.94	28.631
254.31	26.953
254.68	24.231
255.05	28.044
255.42	26.829
255.79	27.941
256.16	27.798
256.54	23.322
256.91	24.555
257.28	18.705
257.65	23.102
258.02	26.398
258.39	22.713
258.76	19.398
259.14	24.405
259.51	24.012
259.88	18.323
260.25	22.054
260.62	22.543
260.99	18.944
261.36	21.922
261.73	23.209
262.10	21.221
262.47	21.690
262.85	19.499
263.22	18.234
263.59	22.222
263.96	20.604
264.33	21.671
264.70	21.579
265.07	18.926
265.44	19.949
265.81	16.058
266.18	18.593
266.55	16.829
266.92	18.919
267.29	20.833
267.66	19.725
268.03	20.682
268.40	18.224
268.77	17.900
269.14	18.243
269.51	19.639
269.88	18.182
270.25	20.767
270.62	17.528
270.99	20.215
271.36	17.167
271.73	18.458
272.10	17.609
272.47	20.645
272.84	17.100
273.21	19.497
273.58	14.629
273.95	17.191
274.32	18.182
274.69	17.345
275.06	13.583
275.43	17.447
275.80	15.631
276.17	14.868
276.54	16.008
276.91	15.217
277.28	17.969
277.65	17.602
278.02	16.563
278.39	19.336
278.76	16.000
279.13	15.849
279.50	16.201
279.87	18.127
280.23	16.367
280.60	14.313
280.97	15.896
281.34	16.460
281.71	18.000
282.08	16.315
282.45	14.000
282.82	14.032
283.19	13.369
283.56	16.491
283.92	15.059
284.29	15.520
284.66	15.426
285.03	13.562
285.40	14.437
285.77	15.488
286.14	13.644
286.51	14.000
286.87	17.265
287.24	13.681
287.61	14.125
287.98	12.987
288.35	13.946
288.72	13.863
289.08	15.180
289.45	12.685
289.82	15.772
290.19	13.501
290.56	14.242
290.93	11.480
291.29	13.650
291.66	11.357
292.03	16.279
292.40	14.244
292.77	12.426
293.13	14.627
293.50	14.140
293.87	12.593
294.24	13.926
294.60	10.480
294.97	12.645
295.34	13.117
295.71	12.216
296.08	13.105
296.44	11.692
296.81	11.493
297.18	14.363
297.55	9.894
297.91	13.061
298.28	12.450
298.65	13.316
299.02	11.858
299.38	11.819
299.75	8.356
300.12	9.195
300.48	11.250
300.85	11.221
301.22	10.318
301.59	11.111
301.95	11.965
302.32	11.682
302.69	12.425
303.05	11.030
303.42	10.370
303.79	10.306
304.15	9.674
304.52	9.154
304.89	9.640
305.25	10.557
305.62	10.985
305.99	11.098
306.35	10.515
306.72	10.314
307.09	10.433
307.45	11.261
307.82	9.487
308.19	10.486
308.55	10.572
308.92	9.560
309.29	9.293
309.65	10.392
310.02	10.359
310.38	10.430
310.75	9.081
311.12	10.440
311.48	10.031
311.85	10.901
312.22	10.406
312.58	9.875
312.95	11.193
313.31	10.680
313.68	9.356
314.05	12.327
314.41	10.151
314.78	9.567
315.14	10.328
315.51	10.814
315.87	11.485
316.24	9.434
316.61	11.111
316.97	9.785
317.34	9.393
317.70	10.038
318.07	10.876
318.43	10.763
318.80	11.434
319.16	10.640
319.53	10.038
319.89	10.952
320.26	10.900
320.62	12.401
320.99	10.606
321.35	11.515
321.72	11.807
322.08	12.043
322.45	13.234
322.81	12.306
323.18	12.524
323.54	12.987
323.91	12.547
324.27	12.141
324.64	10.718
325.00	12.083
325.37	12.921
325.73	13.285
326.10	11.915
326.46	12.276
326.83	13.546
327.19	14.347
327.56	13.328
327.92	13.911
328.29	13.931
328.65	14.088
329.01	13.628
329.38	13.876
329.74	14.866
330.11	13.289
330.47	14.141
330.84	15.809
331.20	13.479
331.56	14.862
331.93	13.981
332.29	13.842
332.66	15.752
333.02	15.356
333.38	14.815
333.75	15.241
334.11	15.125
334.48	15.173
334.84	15.257
335.20	15.364
335.57	13.327
335.93	13.750
336.29	13.370
336.66	14.337
337.02	14.118
337.38	14.815
337.75	14.260
338.11	14.861
338.47	14.365
338.84	14.849
339.20	13.670
339.56	16.606
339.93	14.727
340.29	14.402
340.65	14.082
341.02	15.794
341.38	15.836
341.74	14.561
342.11	14.760
342.47	13.744
342.83	14.555
343.20	16.017
343.56	15.333
343.92	14.474
344.28	15.306
344.65	15.047
345.01	14.815
345.37	13.722
345.73	15.144
346.10	15.516
346.46	15.678
346.82	14.086
347.19	14.871
347.55	15.025
347.91	15.129
348.27	15.859
348.63	15.468
349.00	14.482
349.36	14.450
349.72	15.798
350.08	14.263
350.45	15.541
350.81	14.541
351.17	15.073
351.53	14.988
351.89	14.934
352.26	15.785
352.62	15.477
352.98	14.749
353.34	15.776
353.70	15.057
354.07	15.081
354.43	15.635
354.79	15.044
355.15	15.323
355.51	15.188
355.87	16.408
356.24	15.309
356.60	15.557
356.96	15.366
357.32	15.617
357.68	14.961
358.04	15.123
358.40	15.123
358.77	14.789
359.13	15.233
359.49	15.529
359.85	14.206
360.21	14.912
360.57	17.043
360.93	15.462
361.29	15.268
361.66	15.325
362.02	15.896
362.38	15.513
362.74	15.997
363.10	15.914
363.46	15.187
363.82	15.420
364.18	15.712
364.54	16.122
364.90	16.147
365.26	15.221
365.62	16.070
365.98	15.413
366.35	14.828
366.71	16.197
367.07	15.295
367.43	16.401
367.79	16.131
368.15	17.385
368.51	15.625
368.87	16.203
369.23	16.971
369.59	16.655
369.95	16.250
370.31	16.880
370.67	16.884
371.03	17.603
371.39	17.493
371.75	16.544
372.11	16.358
372.47	16.935
372.83	17.651
373.19	16.835
373.55	17.517
373.91	17.599
374.27	16.151
374.63	17.164
374.99	17.302
375.35	17.516
375.71	17.478
376.07	18.381
376.42	17.469
376.78	18.224
377.14	18.182
377.50	17.947
377.86	17.952
378.22	18.142
378.58	18.108
378.94	17.662
379.30	17.239
379.66	17.766
380.02	18.182
380.38	17.486
380.74	18.908
381.09	19.132
381.45	20.098
381.81	18.980
382.17	19.108
382.53	18.931
382.89	19.259
383.25	19.637
383.61	20.446
383.97	19.637
384.32	18.902
384.68	19.393
385.04	19.914
385.40	19.195
385.76	20.147
386.12	19.689
386.48	21.145
386.83	20.654
387.19	20.841
387.55	20.965
387.91	20.012
388.27	20.233
388.62	21.205
388.98	20.270
389.34	21.777
389.70	20.723
390.06	21.483
390.42	21.336
390.77	22.010
391.13	21.506
391.49	21.637
391.85	21.833
392.20	20.946
392.56	21.717
392.92	21.307
393.28	21.183
393.64	22.422
393.99	21.686
394.35	22.333
394.71	21.644
395.07	22.368
395.42	21.941
395.78	22.964
396.14	22.843
396.50	22.682
396.85	22.123
397.21	21.702
397.57	22.071
397.92	22.115
398.28	22.085
398.64	22.760
399.00	22.384
399.35	21.940
399.71	21.991
400.07	21.821
400.42	23.313
400.78	22.497
401.14	22.744
401.49	22.448
401.85	22.989
402.21	22.216
402.57	22.825
402.92	23.014
403.28	23.423
403.63	23.144
403.99	22.420
404.35	23.939
404.70	22.302
405.06	23.296
405.42	23.518
405.77	22.171
406.13	23.025
406.49	22.708
406.84	23.213
407.20	22.281
407.55	23.803
407.91	23.067
408.27	23.293
408.62	24.202
408.98	22.794
409.34	23.555
409.69	24.387
410.05	22.862
410.40	23.547
410.76	23.297
411.11	23.100
411.47	23.450
411.83	23.763
412.18	23.377
412.54	24.097
412.89	23.795
413.25	23.318
413.60	23.718
413.96	22.951
414.31	24.058
414.67	23.194
415.03	23.576
415.38	23.969
415.74	24.244
416.09	24.820
416.45	23.494
416.80	23.992
417.16	24.196
417.51	24.287
417.87	23.443
418.22	24.038
418.58	23.822
418.93	24.754
419.29	23.997
419.64	24.181
420.00	24.207
420.35	24.522
420.71	24.806
421.06	23.449
421.42	23.918
421.77	24.103
422.12	23.189
422.48	22.828
422.83	24.403
423.19	23.370
423.54	23.738
423.90	23.942
424.25	23.395
424.61	23.631
424.96	24.490
425.31	23.810
425.67	23.315
426.02	23.600
426.38	24.237
426.73	24.517
427.09	24.863
427.44	23.577
427.79	23.577
428.15	24.345
428.50	24.108
428.85	24.434
429.21	23.412
429.56	23.795
429.92	23.704
430.27	23.138
430.62	22.785
430.98	23.508
431.33	22.680
431.68	23.665
432.04	23.642
432.39	23.986
432.74	24.596
433.10	24.278
433.45	24.140
433.80	23.337
434.16	23.825
434.51	24.000
434.86	24.002
435.22	23.235
435.57	23.769
435.92	23.932
436.28	24.496
436.63	25.055
436.98	24.041
437.34	24.150
437.69	24.096
438.04	23.946
438.39	24.358
438.75	24.637
439.10	23.464
439.45	24.085
439.81	23.927
440.16	23.998
440.51	23.609
440.86	24.088
441.22	24.027
441.57	24.628
441.92	24.411
442.27	24.327
442.63	23.381
442.98	24.620
443.33	23.587
443.68	24.058
444.03	23.963
444.39	23.369
444.74	24.188
445.09	24.097
445.44	23.948
445.79	24.592
446.15	24.193
446.50	23.640
446.85	24.152
447.20	24.171
447.55	25.293
447.91	24.986
448.26	23.929
448.61	24.421
448.96	24.695
449.31	24.691
449.66	24.311
450.02	23.788
450.37	24.376
450.72	24.478
451.07	23.705
451.42	23.830
451.77	24.839
452.12	25.000
452.47	24.627
452.83	24.592
453.18	25.061
453.53	25.170
453.88	24.572
454.23	24.567
454.58	25.500
454.93	26.001
455.28	24.190
455.63	25.182
455.98	25.000
456.34	25.440
456.69	25.548
457.04	25.697
457.39	24.781
457.74	23.912
458.09	24.267
458.44	24.686
458.79	23.753
459.14	24.831
459.49	24.985
459.84	23.601
460.19	24.632
460.54	24.653
460.89	24.246
461.24	23.983
461.59	26.264
461.94	23.921
462.29	24.332
462.64	24.888
462.99	24.723
463.34	25.600
463.69	25.516
464.04	25.043
464.39	24.116
464.74	24.718
465.09	24.608
465.44	23.934
465.79	23.881
466.14	23.645
466.49	23.026
466.84	24.577
467.19	24.683
467.54	24.875
467.89	24.610
468.24	23.909
468.59	25.458
468.94	24.191
469.29	25.257
469.64	25.368
469.99	24.493
470.34	24.967
470.68	26.221
471.03	25.918
471.38	24.948
471.73	25.316
472.08	25.592
472.43	25.251
472.78	25.214
473.13	24.005
473.48	24.345
473.83	25.305
474.17	24.767
474.52	25.062
474.87	25.161
475.22	24.318
475.57	24.557
475.92	24.270
476.27	24.126
476.61	24.655
476.96	24.464
477.31	24.333
477.66	25.438
478.01	24.151
478.36	25.225
478.70	24.299
479.05	24.494
479.40	24.514
479.75	24.047
480.10	24.354
480.45	24.465
480.79	23.602
481.14	24.413
481.49	24.822
481.84	24.188
482.19	23.944
482.53	24.358
482.88	24.570
483.23	25.047
483.58	24.477
483.92	23.946
484.27	23.181
484.62	24.009
484.97	23.650
485.31	23.596
485.66	22.984
486.01	21.555
486.36	21.076
486.70	20.626
487.05	21.155
487.40	21.808
487.75	22.125
488.09	22.991
488.44	22.715
488.79	23.255
489.13	23.720
489.48	23.613
489.83	23.953
490.17	24.375
490.52	24.314
490.87	24.830
491.22	24.056
491.56	23.827
491.91	23.732
492.26	23.427
492.60	23.963
492.95	24.041
493.30	24.252
493.64	24.265
493.99	23.723
494.34	24.191
494.68	24.359
495.03	24.577
495.37	23.779
495.72	23.782
496.07	24.594
496.41	23.673
496.76	24.626
497.11	24.223
497.45	24.080
497.80	23.896
498.14	24.348
498.49	24.000
498.84	24.305
499.18	23.571
499.53	24.406
499.87	24.278
500.22	23.693
500.56	24.515
500.91	23.894
501.26	24.419
501.60	25.107
501.95	23.648
502.29	23.993
502.64	24.069
502.98	23.562
503.33	23.995
503.67	23.898
504.02	23.807
504.36	24.427
504.71	24.768
505.06	24.723
505.40	24.453
505.75	24.060
506.09	23.810
506.44	24.174
506.78	23.770
507.13	24.634
507.47	24.545
507.82	24.671
508.16	24.721
508.51	25.774
508.85	24.578
509.19	24.235
509.54	24.745
509.88	24.833
510.23	24.987
510.57	25.748
510.92	24.806
511.26	24.974
511.61	25.415
511.95	24.739
512.30	24.973
512.64	25.040
512.98	25.295
513.33	26.338
513.67	25.720
514.02	25.271
514.36	25.287
514.70	26.342
515.05	24.763
515.39	25.967
515.74	25.507
516.08	26.383
516.42	26.027
516.77	25.530
517.11	26.138
517.46	25.790
517.80	25.900
518.14	25.651
518.49	26.663
518.83	26.250
519.17	25.808
519.52	25.863
519.86	25.956
520.20	26.590
520.55	26.810
520.89	27.007
521.23	27.081
521.58	26.110
521.92	26.454
522.26	25.320
522.61	27.477
522.95	25.967
523.29	26.354
523.64	26.524
523.98	26.494
524.32	26.478
524.66	26.578
525.01	26.654
525.35	26.518
525.69	26.416
526.04	26.168
526.38	26.724
526.72	26.871
527.06	26.742
527.41	25.495
527.75	27.331
528.09	26.846
528.43	27.087
528.78	27.904
529.12	26.061
529.46	27.312
529.80	26.856
530.15	26.854
530.49	25.969
530.83	26.266
531.17	28.003
531.51	27.173
531.86	26.581
532.20	27.445
532.54	27.034
532.88	26.380
533.22	26.733
533.57	26.667
533.91	25.888
534.25	25.759
534.59	26.602
534.93	26.294
535.27	26.433
535.62	26.313
535.96	27.244
536.30	26.128
536.64	26.916
536.98	27.405
537.32	26.794
537.66	27.600
538.01	27.584
538.35	26.503
538.69	27.441
539.03	26.511
539.37	26.326
539.71	25.924
540.05	27.647
540.39	26.777
540.73	25.873
541.07	27.579
541.42	26.027
541.76	27.677
542.10	26.973
542.44	26.821
542.78	26.877
543.12	26.104
543.46	26.033
543.80	26.545
544.14	25.738
544.48	27.619
544.82	26.299
545.16	27.066
545.50	25.964
545.84	26.075
546.18	26.532
546.52	26.841
546.86	25.773
547.20	27.242
547.54	26.987
547.88	28.189
548.22	26.899
548.56	26.918
548.90	26.184
549.24	26.061
549.58	27.422
549.92	26.236
550.26	27.770
550.60	26.902
550.94	26.620
551.28	25.677
551.62	27.534
551.96	26.035
552.30	27.440
552.64	27.586
552.98	27.051
553.32	26.231
553.66	27.403
554.00	27.934
554.34	26.087
554.68	27.754
555.02	26.728
555.36	26.583
555.69	26.319
556.03	26.851
556.37	26.057
556.71	26.467
557.05	27.381
557.39	27.992
557.73	26.394
558.07	27.049
558.41	26.845
558.75	27.039
559.08	28.113
559.42	26.606
559.76	27.132
560.10	26.767
560.44	26.625
560.78	26.214
561.12	25.726
561.45	26.597
561.79	26.170
562.13	26.157
562.47	26.298
562.81	26.778
563.15	26.288
563.48	26.923
563.82	26.093
564.16	25.899
564.50	24.935
564.84	26.233
565.17	25.933
565.51	26.390
565.85	25.888
566.19	25.360
566.52	26.472
566.86	25.799
567.20	25.531
567.54	26.084
567.88	24.280
568.21	25.291
568.55	23.964
568.89	24.514
569.23	23.752
569.56	23.522
569.90	22.528
570.24	22.928
570.57	22.339
570.91	22.624
571.25	21.927
571.59	21.944
571.92	21.573
572.26	22.241
572.60	21.772
572.93	21.289
573.27	22.124
573.61	22.194
573.95	22.041
574.28	21.256
574.62	21.477
574.96	21.004
575.29	20.999
575.63	21.468
575.97	20.828
576.30	21.588
576.64	21.228
576.98	21.439
577.31	20.749
577.65	20.608
577.98	20.969
578.32	20.254
578.66	20.545
578.99	20.840
579.33	20.939
579.67	20.725
580.00	20.930
580.34	20.622
580.67	20.775
581.01	20.846
581.35	21.129
581.68	20.513
582.02	20.308
582.35	20.741
582.69	20.845
583.02	20.611
583.36	20.498
583.70	21.528
584.03	21.343
584.37	21.238
584.70	21.552
585.04	21.257
585.37	20.806
585.71	20.559
586.04	20.971
586.38	21.604
586.72	21.210
587.05	20.538
587.39	20.818
587.72	20.948
588.06	21.211
588.39	21.097
588.73	20.857
589.06	22.156
589.40	22.222
589.73	22.034
590.07	21.388
590.40	21.666
590.73	22.443
591.07	23.158
591.40	22.185
591.74	22.987
592.07	22.469
592.41	22.406
592.74	22.022
593.08	21.952
593.41	21.164
593.75	21.112
594.08	21.220
594.41	21.562
594.75	22.329
595.08	21.510
595.42	21.716
595.75	21.617
596.09	22.005
596.42	22.593
596.75	21.866
597.09	23.203
597.42	21.290
597.75	22.380
598.09	21.913
598.42	21.993
598.76	22.456
599.09	21.627
599.42	21.761
599.76	21.376
600.09	21.275
600.42	21.439
600.76	21.321
601.09	20.984
601.42	21.271
601.76	21.366
602.09	21.897
602.42	21.338
602.76	22.007
603.09	22.187
603.42	21.788
603.76	21.570
604.09	21.365
604.42	21.810
604.76	22.817
605.09	21.581
605.42	21.505
605.75	21.689
606.09	21.919
606.42	21.659
606.75	21.402
607.09	22.101
607.42	21.908
607.75	20.886
608.08	21.928
608.42	22.008
608.75	21.776
609.08	21.832
609.41	21.609
609.75	22.106
610.08	22.196
610.41	21.974
610.74	22.422
611.07	22.974
611.41	22.228
611.74	22.524
612.07	22.619
612.40	21.878
612.73	22.263
613.07	22.845
613.40	22.959
613.73	21.762
614.06	22.151
614.39	22.391
614.72	22.000
615.06	22.847
615.39	22.293
615.72	22.495
616.05	22.169
616.38	22.624
616.71	22.743
617.05	23.793
617.38	23.331
617.71	23.243
618.04	23.077
618.37	22.531
618.70	23.211
619.03	23.618
619.36	23.082
619.69	23.521
620.03	24.931
620.36	23.463
620.69	22.877
621.02	24.336
621.35	23.336
621.68	24.221
622.01	25.387
622.34	24.811
622.67	23.802
623.00	23.331
623.33	23.731
623.66	24.089
623.99	24.742
624.32	23.324
624.65	24.082
624.99	23.584
625.32	23.027
625.65	24.042
625.98	24.827
626.31	25.117
626.64	24.408
626.97	24.938
627.30	24.688
627.63	24.856
627.96	25.820
628.29	25.197
628.62	25.709
628.95	26.509
629.28	26.004
629.61	26.398
629.94	26.381
630.26	25.167
630.59	24.976
630.92	25.670
631.25	25.962
