SpectraSuite Data File
++++++++++++++++++++++++++++++++++++
Date: Wed May 13 15:58:34 PDT 2015
User: schluterlab
Dark Spectrum Present: Yes
Reference Spectrum Present: Yes
Number of Sampled Component Spectra: 1
Spectrometers: USB2E3373
Integration Time (usec): 3000 (USB2E3373)
Spectra Averaged: 3 (USB2E3373)
Boxcar Smoothing: 0 (USB2E3373)
Correct for Electrical Dark: No (USB2E3373)
Strobe/Lamp Enabled: No (USB2E3373)
Correct for Detector Non-linearity: No (USB2E3373)
Correct for Stray Light: No (USB2E3373)
Number of Pixels in Processed Spectrum: 2048
>>>>>Begin Processed Spectral Data<<<<<
178.53	0.000
178.91	-200.000
179.29	-25.000
179.67	50.000
180.04	-275.000
180.42	200.000
180.80	260.000
181.18	-100.000
181.56	100.000
181.94	0.000
182.31	-14.286
182.69	466.667
183.07	-0.000
183.45	-111.111
183.83	172.727
184.20	90.000
184.58	50.000
184.96	1100.000
185.34	-280.000
185.72	-37.500
186.09	-0.000
186.47	350.000
186.85	700.000
187.23	1200.000
187.61	-566.667
187.98	400.000
188.36	145.455
188.74	163.636
189.12	-60.000
189.49	120.000
189.87	-900.000
190.25	-225.000
190.63	85.714
191.00	123.077
191.38	200.000
191.76	-325.000
192.14	475.000
192.51	175.000
192.89	300.000
193.27	100.000
193.65	25.000
194.02	60.000
194.40	0.000
194.78	160.000
195.15	116.667
195.53	220.000
195.91	-400.000
196.29	125.000
196.66	47.368
197.04	80.000
197.42	0.000
197.79	190.000
198.17	-700.000
198.55	57.143
198.92	162.500
199.30	60.000
199.68	0.000
200.05	100.000
200.43	214.286
200.81	500.000
201.18	66.667
201.56	-233.333
201.94	-11.111
202.31	177.778
202.69	50.000
203.07	130.000
203.44	0.000
203.82	200.000
204.19	242.857
204.57	142.857
204.95	212.500
205.32	-166.667
205.70	109.091
206.08	64.286
206.45	800.000
206.83	100.000
207.20	116.667
207.58	20.000
207.96	38.889
208.33	312.500
208.71	-83.333
209.08	200.000
209.46	144.444
209.84	127.273
210.21	-66.667
210.59	350.000
210.96	25.000
211.34	700.000
211.71	190.000
212.09	150.000
212.46	0.000
212.84	333.333
213.22	275.000
213.59	-500.000
213.97	116.667
214.34	171.429
214.72	218.182
215.09	200.000
215.47	-150.000
215.84	-650.000
216.22	233.333
216.59	100.000
216.97	350.000
217.34	127.273
217.72	-83.333
218.09	0.000
218.47	-1300.000
218.84	122.222
219.22	100.000
219.59	166.667
219.97	-28.571
220.34	200.000
220.72	-333.333
221.09	150.000
221.47	475.000
221.84	-133.333
222.22	0.000
222.59	150.000
222.97	-450.000
223.34	400.000
223.72	176.923
224.09	220.000
224.46	150.000
224.84	-1700.000
225.21	-280.000
225.59	-1000.000
225.96	200.000
226.34	125.000
226.71	800.000
227.08	100.000
227.46	100.000
227.83	-100.000
228.21	-200.000
228.58	188.889
228.95	-650.000
229.33	-400.000
229.70	466.667
230.08	128.571
230.45	-80.000
230.82	141.667
231.20	116.667
231.57	57.143
231.95	141.667
232.32	13.636
232.69	90.909
233.07	57.143
233.44	61.538
233.81	-200.000
234.19	73.684
234.56	66.667
234.93	0.000
235.31	118.182
235.68	-7.692
236.05	64.286
236.43	36.364
236.80	57.895
237.17	100.000
237.55	19.048
237.92	78.571
238.29	38.095
238.67	25.806
239.04	31.034
239.41	36.111
239.79	4.348
240.16	50.000
240.53	34.091
240.91	19.608
241.28	28.000
241.65	8.000
242.02	28.986
242.40	24.194
242.77	18.333
243.14	26.882
243.51	41.573
243.89	32.941
244.26	33.333
244.63	13.978
245.00	21.277
245.38	18.812
245.75	18.692
246.12	5.505
246.49	27.737
246.87	20.800
247.24	23.846
247.61	17.857
247.98	24.837
248.36	12.838
248.73	19.108
249.10	22.930
249.47	23.164
249.84	19.251
250.22	19.786
250.59	11.834
250.96	18.687
251.33	20.379
251.70	18.812
252.08	13.333
252.45	17.040
252.82	16.087
253.19	19.574
253.56	19.216
253.94	19.502
254.31	13.672
254.68	20.385
255.05	15.867
255.42	14.228
255.79	19.853
256.16	20.217
256.54	12.367
256.91	17.794
257.28	10.432
257.65	13.861
258.02	18.323
258.39	17.666
258.76	17.057
259.14	15.179
259.51	16.109
259.88	15.528
260.25	16.616
260.62	15.896
260.99	16.149
261.36	16.817
261.73	15.759
262.10	13.372
262.47	14.648
262.85	15.042
263.22	11.111
263.59	15.670
263.96	15.934
264.33	16.188
264.70	15.789
265.07	16.113
265.44	16.919
265.81	13.625
266.18	15.327
266.55	13.902
266.92	12.776
267.29	14.352
267.66	12.385
268.03	15.455
268.40	13.785
268.77	13.604
269.14	12.387
269.51	17.381
269.88	14.452
270.25	16.253
270.62	15.730
270.99	17.634
271.36	14.807
271.73	14.252
272.10	13.913
272.47	17.634
272.84	14.069
273.21	15.094
273.58	11.790
273.95	15.723
274.32	14.463
274.69	14.347
275.06	12.205
275.43	14.468
275.80	13.828
276.17	13.646
276.54	14.553
276.91	14.427
277.28	13.672
277.65	13.540
278.02	12.215
278.39	16.797
278.76	14.727
279.13	15.094
279.50	16.201
279.87	12.948
280.23	14.371
280.60	13.926
280.97	13.309
281.34	16.106
281.71	16.545
282.08	15.355
282.45	12.727
282.82	14.032
283.19	12.121
283.56	14.561
283.92	14.044
284.29	13.580
284.66	16.152
285.03	14.467
285.40	13.204
285.77	13.973
286.14	15.026
286.51	14.167
286.87	13.504
287.24	15.309
287.61	15.570
287.98	15.422
288.35	13.788
288.72	15.421
289.08	14.867
289.45	12.356
289.82	13.659
290.19	14.914
290.56	13.936
290.93	12.387
291.29	14.571
291.66	14.897
292.03	17.006
292.40	14.244
292.77	13.609
293.13	14.776
293.50	14.723
293.87	16.593
294.24	12.889
294.60	13.392
294.97	14.535
295.34	15.515
295.71	15.341
296.08	14.387
296.44	15.131
296.81	14.663
297.18	15.041
297.55	11.873
297.91	14.380
298.28	14.726
298.65	14.883
299.02	14.756
299.38	15.405
299.75	13.073
300.12	14.304
300.48	13.375
300.85	14.303
301.22	14.650
301.59	14.520
301.95	14.106
302.32	14.506
302.69	14.695
303.05	14.424
303.42	14.321
303.79	14.383
304.15	13.986
304.52	14.600
304.89	14.518
305.25	15.313
305.62	15.402
305.99	16.765
306.35	15.548
306.72	15.919
307.09	14.095
307.45	16.779
307.82	14.509
308.19	16.004
308.55	15.426
308.92	16.971
309.29	15.417
309.65	15.164
310.02	14.799
310.38	15.054
310.75	14.995
311.12	15.660
311.48	16.510
311.85	17.191
312.22	15.921
312.58	14.969
312.95	15.734
313.31	15.825
313.68	15.593
314.05	18.343
314.41	16.985
314.78	15.811
315.14	15.293
315.51	16.169
315.87	17.129
316.24	16.385
316.61	15.497
316.97	17.123
317.34	15.753
317.70	17.495
318.07	18.383
318.43	16.634
318.80	17.245
319.16	16.949
319.53	16.135
319.89	17.619
320.26	17.900
320.62	16.964
320.99	18.485
321.35	17.879
321.72	16.735
322.08	18.657
322.45	18.109
322.81	18.895
323.18	18.208
323.54	19.202
323.91	17.642
324.27	19.312
324.64	17.614
325.00	19.387
325.37	21.019
325.73	20.467
326.10	19.506
326.46	18.459
326.83	20.104
327.19	20.068
327.56	20.209
327.92	20.997
328.29	20.852
328.65	19.797
329.01	21.209
329.38	20.444
329.74	19.852
330.11	20.829
330.47	20.294
330.84	22.243
331.20	21.038
331.56	21.284
331.93	21.204
332.29	20.852
332.66	20.708
333.02	21.024
333.38	20.054
333.75	21.301
334.11	19.306
334.48	20.674
334.84	19.761
335.20	21.364
335.57	20.762
335.93	19.732
336.29	20.696
336.66	20.289
337.02	20.181
337.38	19.907
337.75	19.251
338.11	19.517
338.47	20.442
338.84	20.440
339.20	20.367
339.56	22.080
339.93	20.000
340.29	19.112
340.65	20.143
341.02	20.506
341.38	20.819
341.74	19.298
342.11	21.048
342.47	19.912
342.83	20.634
343.20	21.212
343.56	19.461
343.92	20.789
344.28	20.408
344.65	20.636
345.01	19.360
345.37	20.926
345.73	19.797
346.10	19.693
346.46	20.000
346.82	19.357
347.19	18.964
347.55	19.787
347.91	21.117
348.27	20.460
348.63	19.064
349.00	19.741
349.36	19.951
349.72	19.246
350.08	19.449
350.45	20.667
350.81	21.284
351.17	19.287
351.53	19.574
351.89	19.224
352.26	20.916
352.62	20.529
352.98	19.449
353.34	20.953
353.70	19.231
354.07	19.355
354.43	19.524
354.79	20.193
355.15	19.872
355.51	21.023
355.87	20.245
356.24	20.033
356.60	19.647
356.96	19.710
357.32	19.869
357.68	19.370
358.04	20.665
358.40	20.823
358.77	19.953
359.13	19.021
359.49	19.529
359.85	18.492
360.21	19.298
360.57	20.623
360.93	19.923
361.29	19.728
361.66	19.505
362.02	19.254
362.38	20.608
362.74	21.057
363.10	19.541
363.46	20.029
363.82	20.030
364.18	20.044
364.54	21.620
364.90	21.176
365.26	20.735
365.62	20.453
365.98	20.891
366.35	19.914
366.71	20.607
367.07	21.194
367.43	21.335
367.79	21.485
368.15	22.198
368.51	20.930
368.87	22.198
369.23	21.653
369.59	21.579
369.95	21.471
370.31	20.655
370.67	21.667
371.03	20.674
371.39	22.157
371.75	22.059
372.11	21.337
372.47	22.067
372.83	21.902
373.19	21.026
373.55	22.025
373.91	21.281
374.27	22.131
374.63	22.473
374.99	22.458
375.35	22.540
375.71	22.138
376.07	23.045
376.42	22.765
376.78	23.791
377.14	23.338
377.50	23.311
377.86	22.141
378.22	22.882
378.58	22.619
378.94	22.250
379.30	23.219
379.66	24.239
380.02	24.201
380.38	24.165
380.74	24.370
381.09	23.350
381.45	24.278
381.81	24.816
382.17	25.032
382.53	23.774
382.89	25.123
383.25	25.453
383.61	25.279
383.97	25.078
384.32	24.828
384.68	24.969
385.04	25.446
385.40	25.944
385.76	26.413
386.12	26.490
386.48	26.306
386.83	26.940
387.19	27.087
387.55	26.283
387.91	26.481
388.27	26.793
388.62	26.859
388.98	27.273
389.34	27.910
389.70	27.345
390.06	27.060
390.42	27.562
390.77	27.926
391.13	27.441
391.49	28.363
391.85	26.735
392.20	26.309
392.56	28.030
392.92	27.840
393.28	27.101
393.64	28.417
393.99	28.100
394.35	28.784
394.71	28.105
395.07	27.726
395.42	29.481
395.78	28.053
396.14	29.050
396.50	29.010
396.85	28.798
397.21	27.127
397.57	28.952
397.92	29.627
398.28	28.587
398.64	29.510
399.00	29.155
399.35	28.765
399.71	28.067
400.07	29.332
400.42	29.939
400.78	29.614
401.14	28.963
401.49	29.493
401.85	29.159
402.21	28.623
402.57	28.254
402.92	29.067
403.28	30.606
403.63	29.022
403.99	29.745
404.35	29.030
404.70	29.197
405.06	28.072
405.42	31.004
405.77	29.886
406.13	30.530
406.49	29.864
406.84	29.474
407.20	29.019
407.55	30.185
407.91	30.133
408.27	30.249
408.62	29.500
408.98	29.534
409.34	29.705
409.69	30.839
410.05	29.864
410.40	29.786
410.76	29.391
411.11	30.760
411.47	29.712
411.83	30.666
412.18	29.252
412.54	30.573
412.89	29.880
413.25	30.815
413.60	30.451
413.96	30.540
414.31	29.951
414.67	30.355
415.03	31.126
415.38	30.670
415.74	30.225
416.09	30.438
416.45	30.656
416.80	30.271
417.16	31.971
417.51	31.719
417.87	30.893
418.22	31.420
418.58	29.890
418.93	30.221
419.29	31.891
419.64	30.982
420.00	30.854
420.35	31.188
420.71	30.843
421.06	30.907
421.42	31.053
421.77	30.774
422.12	30.882
422.48	30.761
422.83	31.508
423.19	31.823
423.54	31.341
423.90	30.957
424.25	31.267
424.61	31.131
424.96	32.012
425.31	32.004
425.67	30.955
426.02	31.600
426.38	32.784
426.73	31.129
427.09	31.429
427.44	31.512
427.79	31.512
428.15	31.905
428.50	31.597
428.85	32.777
429.21	31.474
429.56	32.037
429.92	31.052
430.27	31.529
430.62	31.695
430.98	32.226
431.33	31.598
431.68	32.356
432.04	31.257
432.39	32.381
432.74	32.376
433.10	32.315
433.45	32.187
433.80	31.430
434.16	31.303
434.51	32.000
434.86	33.466
435.22	32.518
435.57	32.340
435.92	32.768
436.28	33.274
436.63	32.340
436.98	31.826
437.34	32.916
437.69	33.781
438.04	32.097
438.39	32.657
438.75	32.888
439.10	33.687
439.45	32.349
439.81	32.931
440.16	33.145
440.51	33.450
440.86	33.237
441.22	32.147
441.57	31.582
441.92	33.879
442.27	33.854
442.63	32.596
442.98	32.845
443.33	32.880
443.68	32.576
444.03	33.138
444.39	33.155
444.74	32.900
445.09	32.615
445.44	33.188
445.79	32.459
446.15	33.827
446.50	32.956
446.85	33.350
447.20	33.044
447.55	33.389
447.91	33.536
448.26	32.721
448.61	33.804
448.96	33.998
449.31	33.408
449.66	32.864
450.02	33.482
450.37	32.540
450.72	34.123
451.07	33.029
451.42	31.915
451.77	33.353
452.12	33.256
452.47	33.582
452.83	33.392
453.18	33.007
453.53	33.766
453.88	32.546
454.23	33.772
454.58	33.677
454.93	34.139
455.28	33.479
455.63	34.405
455.98	34.583
456.34	33.731
456.69	33.939
457.04	33.622
457.39	33.255
457.74	32.966
458.09	33.468
458.44	33.751
458.79	32.050
459.14	34.086
459.49	33.333
459.84	34.515
460.19	33.648
460.54	33.160
460.89	33.022
461.24	34.730
461.59	35.851
461.94	33.107
462.29	33.353
462.64	34.333
462.99	33.507
463.34	34.467
463.69	33.583
464.04	32.986
464.39	34.145
464.74	34.284
465.09	33.474
465.44	33.573
465.79	34.676
466.14	33.716
466.49	33.537
466.84	33.392
467.19	33.917
467.54	34.250
467.89	32.353
468.24	32.926
468.59	34.371
468.94	32.621
469.29	34.512
469.64	34.337
469.99	33.965
470.34	33.487
470.68	34.411
471.03	33.265
471.38	33.982
471.73	33.045
472.08	34.276
472.43	33.291
472.78	33.706
473.13	34.917
473.48	34.332
473.83	34.573
474.17	33.790
474.52	34.119
474.87	34.793
475.22	33.662
475.57	32.617
475.92	33.139
476.27	33.484
476.61	33.205
476.96	33.370
477.31	33.386
477.66	33.534
478.01	33.664
478.36	34.109
478.70	33.645
479.05	33.174
479.40	33.419
479.75	33.401
480.10	32.753
480.45	33.079
480.79	32.250
481.14	33.464
481.49	33.033
481.84	32.922
482.19	33.439
482.53	33.303
482.88	33.597
483.23	32.617
483.58	32.985
483.92	33.880
484.27	31.852
484.62	32.759
484.97	32.913
485.31	33.082
485.66	31.957
486.01	31.835
486.36	31.582
486.70	31.973
487.05	31.777
487.40	31.895
487.75	32.667
488.09	32.818
488.44	31.988
488.79	32.875
489.13	32.544
489.48	31.974
489.83	32.369
490.17	33.056
490.52	32.019
490.87	32.519
491.22	32.515
491.56	31.344
491.91	32.294
492.26	31.879
492.60	32.396
492.95	32.180
493.30	31.402
493.64	32.524
493.99	32.312
494.34	32.516
494.68	33.196
495.03	32.143
495.37	32.248
495.72	32.846
496.07	32.390
496.41	31.593
496.76	32.014
497.11	32.238
497.45	31.858
497.80	31.862
498.14	31.932
498.49	31.756
498.84	32.071
499.18	32.524
499.53	32.669
499.87	31.966
500.22	32.030
500.56	32.427
500.91	31.538
501.26	31.958
501.60	32.606
501.95	31.393
502.29	32.662
502.64	31.099
502.98	32.305
503.33	31.307
503.67	32.019
504.02	31.431
504.36	31.820
504.71	32.096
505.06	31.952
505.40	30.967
505.75	31.389
506.09	30.904
506.44	31.426
506.78	32.051
507.13	31.752
507.47	31.515
507.82	31.814
508.16	31.155
508.51	32.522
508.85	30.735
509.19	31.735
509.54	31.531
509.88	31.633
510.23	31.311
510.57	32.301
510.92	31.693
511.26	31.398
511.61	31.587
511.95	31.367
512.30	30.700
512.64	31.327
512.98	31.083
513.33	31.317
513.67	31.163
514.02	30.898
514.36	31.404
514.70	31.323
515.05	31.623
515.39	31.800
515.74	30.574
516.08	30.911
516.42	31.521
516.77	31.605
517.11	31.853
517.46	31.377
517.80	32.230
518.14	30.457
518.49	31.505
518.83	30.568
519.17	30.543
519.52	31.070
519.86	31.261
520.20	30.983
520.55	31.478
520.89	31.083
521.23	31.604
521.58	31.393
521.92	30.496
522.26	30.262
522.61	31.028
522.95	29.834
523.29	31.345
523.64	29.817
523.98	31.423
524.32	30.820
524.66	30.247
525.01	30.331
525.35	30.731
525.69	31.034
526.04	30.218
526.38	30.567
526.72	30.675
527.06	31.011
527.41	28.899
527.75	31.383
528.09	30.315
528.43	30.210
528.78	29.932
529.12	30.242
529.46	31.108
529.80	31.745
530.15	31.090
530.49	29.292
530.83	31.203
531.17	31.658
531.51	31.258
531.86	30.194
532.20	31.095
532.54	30.301
532.88	30.167
533.22	29.169
533.57	30.309
533.91	29.621
534.25	29.951
534.59	30.079
534.93	30.101
535.27	29.994
535.62	29.365
535.96	29.755
536.30	29.561
536.64	30.457
536.98	30.392
537.32	29.164
537.66	29.200
538.01	30.020
538.35	29.412
538.69	30.185
539.03	29.435
539.37	28.754
539.71	28.645
540.05	29.281
540.39	29.369
540.73	29.366
541.07	30.045
541.42	29.680
541.76	30.194
542.10	29.366
542.44	29.272
542.78	29.315
543.12	27.447
543.46	28.721
543.80	28.432
544.14	27.535
544.48	28.952
544.82	28.416
545.16	29.083
545.50	28.085
545.84	27.823
546.18	28.418
546.52	28.630
546.86	28.729
547.20	27.579
547.54	28.123
547.88	28.444
548.22	28.394
548.56	28.113
548.90	27.913
549.24	28.148
549.58	28.854
549.92	26.992
550.26	28.125
550.60	27.455
550.94	27.324
551.28	27.286
551.62	27.606
551.96	26.316
552.30	28.123
552.64	28.465
552.98	28.000
553.32	26.837
553.66	28.016
554.00	27.660
554.34	26.294
554.68	27.611
555.02	28.068
555.36	27.349
555.69	26.387
556.03	27.322
556.37	27.694
556.71	27.763
557.05	28.571
557.39	27.362
557.73	27.735
558.07	26.976
558.41	26.628
558.75	26.525
559.08	27.293
559.42	27.211
559.76	27.353
560.10	26.981
560.44	26.904
560.78	27.478
561.12	26.913
561.45	26.728
561.79	26.236
562.13	25.889
562.47	26.503
562.81	27.964
563.15	26.087
563.48	25.928
563.82	27.006
564.16	26.422
564.50	25.326
564.84	25.917
565.17	27.349
565.51	26.518
565.85	27.221
566.19	25.047
566.52	26.536
566.86	25.075
567.20	25.708
567.54	25.400
567.88	25.584
568.21	26.085
568.55	25.228
568.89	25.243
569.23	25.357
569.56	24.980
569.90	25.132
570.24	24.901
570.57	25.400
570.91	24.919
571.25	24.398
571.59	24.713
571.92	24.338
572.26	24.552
572.60	24.474
572.93	24.048
573.27	23.750
573.61	24.679
573.95	24.935
574.28	24.020
574.62	24.198
574.96	23.823
575.29	23.739
575.63	23.882
575.97	23.952
576.30	24.243
576.64	24.059
576.98	24.088
577.31	23.637
577.65	23.648
577.98	23.804
578.32	23.411
578.66	23.438
578.99	23.511
579.33	23.384
579.67	23.376
580.00	23.040
580.34	23.920
580.67	23.470
581.01	23.949
581.35	23.256
581.68	23.749
582.02	23.491
582.35	23.526
582.69	23.536
583.02	23.394
583.36	23.726
583.70	23.402
584.03	23.459
584.37	23.426
584.70	23.720
585.04	23.581
585.37	23.253
585.71	23.332
586.04	22.952
586.38	23.354
586.72	23.612
587.05	22.603
587.39	22.797
587.72	22.855
588.06	22.705
588.39	23.347
588.73	23.115
589.06	23.372
589.40	22.963
589.73	23.724
590.07	23.381
590.40	22.799
590.73	23.380
591.07	24.094
591.40	23.113
591.74	23.810
592.07	22.993
592.41	23.894
592.74	22.846
593.08	23.018
593.41	22.809
593.75	22.267
594.08	22.963
594.41	22.941
594.75	22.662
595.08	23.694
595.42	23.047
595.75	22.863
596.09	23.620
596.42	23.222
596.75	22.330
597.09	23.593
597.42	21.796
597.75	22.812
598.09	22.696
598.42	22.766
598.76	23.105
599.09	22.197
599.42	22.453
599.76	22.511
600.09	22.623
600.42	22.023
600.76	21.571
601.09	22.842
601.42	21.728
601.76	22.125
602.09	22.332
602.42	22.691
602.76	21.927
603.09	21.873
603.42	22.413
603.76	22.332
604.09	21.481
604.42	22.299
604.76	22.522
605.09	22.674
605.42	21.761
605.75	21.647
606.09	21.594
606.42	22.272
606.75	21.485
607.09	21.934
607.42	21.566
607.75	21.139
608.08	22.319
608.42	22.546
608.75	21.416
609.08	22.063
609.41	21.656
609.75	21.296
610.08	21.913
610.41	22.207
610.74	22.044
611.07	22.184
611.41	22.522
611.74	22.775
612.07	21.791
612.40	22.088
612.73	21.368
613.07	21.552
613.40	22.222
613.73	21.395
614.06	21.505
614.39	22.024
614.72	22.526
615.06	22.216
615.39	21.550
615.72	21.166
616.05	21.372
616.38	21.401
616.71	21.734
617.05	22.320
617.38	21.948
617.71	21.441
618.04	21.334
618.37	21.053
618.70	22.651
619.03	21.645
619.36	21.385
619.69	21.620
620.03	22.253
620.36	21.056
620.69	22.808
621.02	20.428
621.35	21.848
621.68	21.184
622.01	22.214
622.34	23.071
622.67	21.597
623.00	21.497
623.33	21.158
623.66	21.301
623.99	22.828
624.32	21.041
624.65	21.610
624.99	21.530
625.32	21.796
625.65	21.938
625.98	22.982
626.31	22.628
626.64	22.122
626.97	21.363
627.30	22.527
627.63	22.149
627.96	22.372
628.29	21.872
628.62	23.056
628.95	23.396
629.28	21.989
629.61	21.723
629.94	22.857
630.26	22.212
630.59	21.544
630.92	22.126
631.25	21.422
631.58	22.322
631.91	22.718
632.24	21.203
632.57	22.875
632.90	20.724
633.23	22.483
633.56	22.599
