SpectraSuite Data File
++++++++++++++++++++++++++++++++++++
Date: Wed May 13 16:05:51 PDT 2015
User: schluterlab
Dark Spectrum Present: Yes
Reference Spectrum Present: Yes
Number of Sampled Component Spectra: 1
Spectrometers: USB2E3373
Integration Time (usec): 3000 (USB2E3373)
Spectra Averaged: 3 (USB2E3373)
Boxcar Smoothing: 0 (USB2E3373)
Correct for Electrical Dark: No (USB2E3373)
Strobe/Lamp Enabled: No (USB2E3373)
Correct for Detector Non-linearity: No (USB2E3373)
Correct for Stray Light: No (USB2E3373)
Number of Pixels in Processed Spectrum: 2048
>>>>>Begin Processed Spectral Data<<<<<
178.53	0.000
178.91	-750.000
179.29	-850.000
179.67	-122.222
180.04	-775.000
180.42	1600.000
180.80	720.000
181.18	-350.000
181.56	442.857
181.94	0.000
182.31	-300.000
182.69	766.667
183.07	-350.000
183.45	-322.222
183.83	272.727
184.20	-160.000
184.58	1400.000
184.96	4100.000
185.34	-420.000
185.72	-325.000
186.09	-950.000
186.47	1400.000
186.85	1350.000
187.23	4100.000
187.61	-900.000
187.98	725.000
188.36	372.727
188.74	281.818
189.12	-380.000
189.49	350.000
189.87	-2600.000
190.25	-1000.000
190.63	300.000
191.00	276.923
191.38	466.667
191.76	-525.000
192.14	825.000
192.51	275.000
192.89	566.667
193.27	312.500
193.65	-500.000
194.02	360.000
194.40	600.000
194.78	200.000
195.15	366.667
195.53	340.000
195.91	-900.000
196.29	231.250
196.66	163.158
197.04	-230.000
197.42	0.000
197.79	380.000
198.17	-2000.000
198.55	428.571
198.92	437.500
199.30	520.000
199.68	0.000
200.05	150.000
200.43	557.143
200.81	2900.000
201.18	966.667
201.56	-833.333
201.94	288.889
202.31	300.000
202.69	216.667
203.07	390.000
203.44	0.000
203.82	825.000
204.19	414.286
204.57	250.000
204.95	437.500
205.32	1033.333
205.70	218.182
206.08	278.571
206.45	1700.000
206.83	250.000
207.20	550.000
207.58	360.000
207.96	233.333
208.33	375.000
208.71	-383.333
209.08	314.286
209.46	366.667
209.84	263.636
210.21	-866.667
210.59	775.000
210.96	-162.500
211.34	1700.000
211.71	360.000
212.09	400.000
212.46	0.000
212.84	1000.000
213.22	750.000
213.59	-2500.000
213.97	433.333
214.34	557.143
214.72	400.000
215.09	560.000
215.47	-1000.000
215.84	-1700.000
216.22	833.333
216.59	185.714
216.97	400.000
217.34	200.000
217.72	-416.667
218.09	0.000
218.47	-2300.000
218.84	366.667
219.22	442.857
219.59	933.333
219.97	-385.714
220.34	700.000
220.72	-833.333
221.09	207.143
221.47	975.000
221.84	-416.667
222.22	0.000
222.59	750.000
222.97	-1500.000
223.34	640.000
223.72	276.923
224.09	680.000
224.46	850.000
224.84	-2600.000
225.21	-580.000
225.59	-2700.000
225.96	460.000
226.34	205.000
226.71	1500.000
227.08	375.000
227.46	270.000
227.83	-575.000
228.21	-1100.000
228.58	388.889
228.95	-1300.000
229.33	-1100.000
229.70	966.667
230.08	528.571
230.45	-520.000
230.82	266.667
231.20	416.667
231.57	400.000
231.95	308.333
232.32	195.455
232.69	190.909
233.07	414.286
233.44	176.923
233.81	-666.667
234.19	173.684
234.56	300.000
234.93	258.333
235.31	236.364
235.68	100.000
236.05	200.000
236.43	103.030
236.80	168.421
237.17	2100.000
237.55	133.333
237.92	110.714
238.29	119.048
238.67	96.774
239.04	134.483
239.41	72.222
239.79	65.217
240.16	78.571
240.53	81.818
240.91	54.902
241.28	48.000
241.65	72.000
242.02	57.971
242.40	43.548
242.77	56.667
243.14	52.688
243.51	51.685
243.89	31.765
244.26	31.111
244.63	43.011
245.00	30.851
245.38	34.653
245.75	33.645
246.12	24.771
246.49	39.416
246.87	40.000
247.24	40.769
247.61	30.000
247.98	32.026
248.36	25.676
248.73	28.662
249.10	29.299
249.47	22.034
249.84	32.620
250.22	26.738
250.59	24.260
250.96	26.768
251.33	27.014
251.70	24.257
252.08	21.905
252.45	22.422
252.82	20.435
253.19	20.000
253.56	22.745
253.94	26.556
254.31	21.094
254.68	21.154
255.05	19.926
255.42	16.260
255.79	21.324
256.16	22.383
256.54	20.848
256.91	19.929
257.28	19.065
257.65	21.782
258.02	19.255
258.39	19.558
258.76	16.388
259.14	19.643
259.51	18.845
259.88	17.702
260.25	19.335
260.62	17.341
260.99	17.702
261.36	19.520
261.73	16.619
262.10	15.116
262.47	18.028
262.85	19.220
263.22	10.826
263.59	16.524
263.96	17.857
264.33	15.927
264.70	15.263
265.07	17.647
265.44	16.414
265.81	14.842
266.18	17.588
266.55	16.829
266.92	19.410
267.29	16.898
267.66	14.908
268.03	16.818
268.40	14.953
268.77	14.320
269.14	15.541
269.51	14.898
269.88	17.716
270.25	16.027
270.62	16.854
270.99	18.495
271.36	15.021
271.73	12.617
272.10	15.000
272.47	14.839
272.84	15.584
273.21	16.352
273.58	13.319
273.95	13.417
274.32	13.017
274.69	14.989
275.06	12.402
275.43	12.766
275.80	13.427
276.17	14.257
276.54	17.256
276.91	13.834
277.28	14.453
277.65	14.120
278.02	14.907
278.39	16.406
278.76	14.909
279.13	15.094
279.50	14.898
279.87	15.139
280.23	13.174
280.60	14.894
280.97	14.603
281.34	15.575
281.71	16.909
282.08	14.203
282.45	12.182
282.82	15.453
283.19	12.656
283.56	12.982
283.92	14.552
284.29	13.051
284.66	12.704
285.03	12.839
285.40	10.915
285.77	13.973
286.14	14.853
286.51	14.500
286.87	14.359
287.24	14.495
287.61	13.965
287.98	13.474
288.35	14.105
288.72	13.863
289.08	13.459
289.45	12.685
289.82	13.171
290.19	12.402
290.56	13.936
290.93	11.782
291.29	13.497
291.66	12.389
292.03	15.552
292.40	14.244
292.77	12.130
293.13	12.985
293.50	12.245
293.87	12.593
294.24	10.370
294.60	11.499
294.97	13.808
295.34	14.104
295.71	12.216
296.08	12.821
296.44	11.967
296.81	11.229
297.18	14.634
297.55	11.346
297.91	12.929
298.28	12.985
298.65	12.663
299.02	13.439
299.38	12.616
299.75	11.321
300.12	11.239
300.48	11.625
300.85	12.454
301.22	12.102
301.59	12.374
301.95	12.972
302.32	12.965
302.69	13.381
303.05	12.970
303.42	12.346
303.79	12.797
304.15	12.238
304.52	11.587
304.89	13.821
305.25	14.269
305.62	14.383
305.99	12.751
306.35	14.094
306.72	13.677
307.09	12.542
307.45	14.302
307.82	11.942
308.19	14.238
308.55	14.995
308.92	12.997
309.29	13.833
309.65	13.892
310.02	14.905
310.38	15.914
310.75	14.256
311.12	15.967
311.48	15.569
311.85	15.409
312.22	15.921
312.58	15.281
312.95	17.212
313.31	15.825
313.68	16.632
314.05	18.639
314.41	17.789
314.78	16.616
315.14	16.485
315.51	16.890
315.87	18.416
316.24	17.478
316.61	16.667
316.97	17.710
317.34	17.319
317.70	18.642
318.07	18.768
318.43	19.374
318.80	20.244
319.16	19.680
319.53	19.700
319.89	20.476
320.26	20.100
320.62	20.337
320.99	21.414
321.35	20.505
321.72	22.895
322.08	21.915
322.45	22.886
322.81	24.128
323.18	22.640
323.54	23.284
323.91	24.340
324.27	23.327
324.64	24.231
325.00	24.436
325.37	26.752
325.73	26.122
326.10	27.273
326.46	26.523
326.83	29.163
327.19	28.266
327.56	28.746
327.92	28.346
328.29	29.015
328.65	29.190
329.01	30.596
329.38	29.140
329.74	31.671
330.11	29.972
330.47	31.313
330.84	30.147
331.20	30.783
331.56	32.569
331.93	30.926
332.29	30.967
332.66	31.681
333.02	30.896
333.38	32.249
333.75	31.996
334.11	30.694
334.48	31.588
334.84	31.250
335.20	32.636
335.57	31.641
335.93	30.268
336.29	32.875
336.66	32.552
337.02	31.403
337.38	32.130
337.75	31.907
338.11	32.856
338.47	31.584
338.84	32.447
339.20	32.752
339.56	33.394
339.93	32.000
340.29	32.246
340.65	32.620
341.02	32.810
341.38	32.740
341.74	32.895
342.11	33.799
342.47	33.040
342.83	33.305
343.20	32.987
343.56	32.013
343.92	33.860
344.28	34.014
344.65	33.362
345.01	32.744
345.37	32.504
345.73	33.164
346.10	33.248
346.46	34.407
346.82	33.278
347.19	32.665
347.55	34.565
347.91	33.738
348.27	34.840
348.63	33.946
349.00	33.576
349.36	34.565
349.72	34.403
350.08	34.684
350.45	34.337
350.81	34.444
351.17	34.036
351.53	34.070
351.89	33.993
352.26	33.860
352.62	35.204
352.98	33.712
353.34	36.237
353.70	34.697
354.07	35.242
354.43	33.571
354.79	34.755
355.15	34.557
355.51	34.532
355.87	36.082
356.24	35.016
356.60	35.445
356.96	35.318
357.32	35.895
357.68	35.197
358.04	36.105
358.40	35.629
358.77	36.072
359.13	35.517
359.49	35.294
359.85	33.492
360.21	36.603
360.57	36.265
360.93	37.308
361.29	36.130
361.66	34.907
362.02	36.194
362.38	37.186
362.74	37.277
363.10	34.863
363.46	36.977
363.82	35.525
364.18	37.078
364.54	36.999
364.90	36.756
365.26	36.176
365.62	37.692
365.98	36.888
366.35	35.673
366.71	36.949
367.07	38.092
367.43	37.663
367.79	38.187
368.15	38.721
368.51	37.064
368.87	38.116
369.23	37.674
369.59	39.030
369.95	38.676
370.31	37.821
370.67	37.826
371.03	39.251
371.39	38.265
371.75	39.926
372.11	37.696
372.47	40.103
372.83	39.481
373.19	37.572
373.55	39.024
373.91	40.133
374.27	38.351
374.63	39.491
374.99	39.407
375.35	39.637
375.71	38.588
376.07	40.535
376.42	39.340
376.78	39.960
377.14	39.417
377.50	40.728
377.86	39.827
378.22	39.823
378.58	39.662
378.94	40.226
379.30	39.949
379.66	41.497
380.02	40.602
380.38	39.526
380.74	40.216
381.09	40.526
381.45	41.610
381.81	41.093
382.17	40.701
382.53	40.692
382.89	42.099
383.25	41.588
383.61	42.255
383.97	41.276
384.32	41.298
384.68	41.202
385.04	42.225
385.40	41.610
385.76	42.629
386.12	42.811
386.48	41.850
386.83	41.950
387.19	42.795
387.55	43.476
387.91	42.684
388.27	42.060
388.62	43.393
388.98	42.383
389.34	42.991
389.70	43.409
390.06	42.839
390.42	42.996
390.77	43.575
391.13	43.586
391.49	43.718
391.85	43.603
392.20	41.830
392.56	43.308
392.92	43.378
393.28	43.491
393.64	43.885
393.99	42.639
394.35	43.672
394.71	43.287
395.07	41.620
395.42	43.820
395.78	42.621
396.14	43.575
396.50	43.421
396.85	44.628
397.21	42.602
397.57	42.839
397.92	43.329
398.28	42.489
398.64	43.070
399.00	43.201
399.35	42.865
399.71	43.345
400.07	43.820
400.42	43.681
400.78	42.823
401.14	43.354
401.49	43.522
401.85	43.073
402.21	42.515
402.57	43.553
402.92	43.758
403.28	44.097
403.63	43.379
403.99	43.248
404.35	43.576
404.70	43.285
405.06	42.632
405.42	43.793
405.77	43.543
406.13	42.269
406.49	43.820
406.84	42.469
407.20	42.435
407.55	43.204
407.91	43.867
408.27	44.097
408.62	42.565
408.98	43.015
409.34	43.419
409.69	44.903
410.05	42.751
410.40	43.914
410.76	42.772
411.11	43.064
411.47	42.173
411.83	43.250
412.18	42.424
412.54	43.711
412.89	42.831
413.25	42.326
413.60	42.804
413.96	43.230
414.31	43.196
414.67	43.726
415.03	42.517
415.38	42.784
415.74	42.958
416.09	43.958
416.45	42.102
416.80	42.763
417.16	43.231
417.51	42.269
417.87	42.068
418.22	42.082
418.58	44.158
418.93	43.305
419.29	43.221
419.64	43.892
420.00	42.927
420.35	42.841
420.71	43.993
421.06	42.780
421.42	42.749
421.77	42.265
422.12	42.953
422.48	41.554
422.83	43.157
423.19	43.425
423.54	42.716
423.90	43.710
424.25	42.323
424.61	43.810
424.96	43.790
425.31	43.189
425.67	42.079
426.02	43.543
426.38	43.895
426.73	43.008
427.09	44.195
427.44	43.531
427.79	42.726
428.15	43.393
428.50	43.827
428.85	43.564
429.21	43.622
429.56	43.494
429.92	42.728
430.27	43.446
430.62	42.396
430.98	42.916
431.33	43.299
431.68	43.717
432.04	42.599
432.39	43.746
432.74	44.464
433.10	44.652
433.45	44.840
433.80	44.180
434.16	43.857
434.51	43.526
434.86	42.303
435.22	43.691
435.57	44.681
435.92	45.114
436.28	44.662
436.63	44.757
436.98	43.904
437.34	45.319
437.69	44.574
438.04	44.969
438.39	43.701
438.75	45.613
439.10	45.140
439.45	44.628
439.81	45.317
440.16	44.325
440.51	44.757
440.86	44.876
441.22	44.271
441.57	45.807
441.92	45.957
442.27	45.156
442.63	44.813
442.98	45.915
443.33	44.402
443.68	44.605
444.03	45.974
444.39	44.012
444.74	45.617
445.09	44.852
445.44	44.943
445.79	44.879
446.15	45.209
446.50	45.127
446.85	45.581
447.20	44.518
447.55	44.500
447.91	45.008
448.26	44.797
448.61	45.393
448.96	45.404
449.31	46.232
449.66	45.301
450.02	45.515
450.37	45.522
450.72	45.742
451.07	45.277
451.42	45.228
451.77	45.390
452.12	45.323
452.47	45.647
452.83	46.096
453.18	45.416
453.53	47.001
453.88	45.777
454.23	46.204
454.58	46.396
454.93	47.552
455.28	45.574
455.63	46.117
455.98	47.024
456.34	46.734
456.69	47.026
457.04	47.678
457.39	45.237
457.74	45.908
458.09	46.176
458.44	46.123
458.79	45.336
459.14	47.009
459.49	45.826
459.84	45.042
460.19	45.669
460.54	44.387
460.89	46.517
461.24	45.598
461.59	46.426
461.94	46.547
462.29	46.469
462.64	44.990
462.99	44.958
463.34	47.400
463.69	46.654
464.04	45.971
464.39	45.333
464.74	45.870
465.09	45.115
465.44	44.598
465.79	45.694
466.14	44.937
466.49	45.050
466.84	44.950
467.19	46.228
467.54	47.062
467.89	45.498
468.24	45.433
468.59	46.154
468.94	46.182
469.29	45.630
469.64	46.586
469.99	47.970
470.34	46.433
470.68	47.989
471.03	46.259
471.38	48.158
471.73	45.436
472.08	47.829
472.43	45.477
472.78	46.412
473.13	46.919
473.48	47.004
473.83	47.317
474.17	45.426
474.52	47.333
474.87	46.877
475.22	46.721
475.57	46.319
475.92	45.088
476.27	45.603
476.61	45.008
476.96	45.959
477.31	46.363
477.66	46.499
478.01	45.374
478.36	46.113
478.70	45.794
479.05	46.592
479.40	45.957
479.75	46.772
480.10	46.322
480.45	44.979
480.79	45.342
481.14	46.086
481.49	45.230
481.84	46.228
482.19	46.070
482.53	45.917
482.88	45.416
483.23	45.607
483.58	46.224
483.92	46.673
484.27	44.793
484.62	44.871
484.97	45.171
485.31	46.062
485.66	44.469
486.01	42.612
486.36	41.057
486.70	40.099
487.05	41.114
487.40	42.160
487.75	42.634
488.09	44.222
488.44	44.229
488.79	45.316
489.13	45.684
489.48	45.922
489.83	44.929
490.17	46.339
490.52	45.306
490.87	45.138
491.22	45.339
491.56	44.282
491.91	45.882
492.26	45.981
492.60	45.714
492.95	44.902
493.30	45.187
493.64	46.104
493.99	45.543
494.34	46.068
494.68	46.245
495.03	46.852
495.37	45.416
495.72	46.296
496.07	46.682
496.41	45.398
496.76	45.163
497.11	45.205
497.45	46.111
497.80	44.914
498.14	46.812
498.49	46.585
498.84	46.405
499.18	45.571
499.53	45.869
499.87	45.294
500.22	46.114
500.56	46.990
500.91	45.529
501.26	46.278
501.60	46.559
501.95	45.509
502.29	47.188
502.64	46.043
502.98	46.283
503.33	45.201
503.67	45.754
504.02	45.884
504.36	46.093
504.71	45.725
505.06	44.964
505.40	46.864
505.75	46.287
506.09	46.599
506.44	46.818
506.78	47.053
507.13	47.855
507.47	47.121
507.82	47.264
508.16	48.126
508.51	47.387
508.85	47.071
509.19	47.857
509.54	47.092
509.88	47.501
510.23	46.581
510.57	48.142
510.92	47.851
511.26	47.071
511.61	47.666
511.95	46.816
512.30	47.932
512.64	47.125
512.98	48.285
513.33	47.966
513.67	47.012
514.02	47.619
514.36	48.061
514.70	49.087
515.05	47.630
515.39	48.626
515.74	48.142
516.08	49.525
516.42	48.890
516.77	50.111
517.11	49.057
517.46	49.210
517.80	50.058
518.14	48.929
518.49	50.350
518.83	50.000
519.17	49.827
519.52	49.349
519.86	49.515
520.20	49.595
520.55	50.928
520.89	51.277
521.23	50.663
521.58	50.480
521.92	51.990
522.26	48.688
522.61	50.654
522.95	50.706
523.29	51.248
523.64	50.549
523.98	51.386
524.32	50.060
524.66	51.233
525.01	50.735
525.35	50.310
525.69	49.569
526.04	50.280
526.38	50.031
526.72	50.368
527.06	51.099
527.41	48.515
527.75	52.605
528.09	51.830
528.43	50.797
528.78	51.199
529.12	48.848
529.46	50.704
529.80	49.814
530.15	50.841
530.49	48.985
530.83	49.747
531.17	52.285
531.51	51.881
531.86	50.258
532.20	51.630
532.54	51.570
532.88	51.284
533.22	49.844
533.57	50.062
533.91	49.729
534.25	49.028
534.59	50.336
534.93	48.899
535.27	49.608
535.62	49.695
535.96	50.785
536.30	49.587
536.64	49.775
536.98	51.161
537.32	49.572
537.66	50.467
538.01	51.547
538.35	50.485
538.69	50.415
539.03	50.422
539.37	49.649
539.71	48.866
540.05	49.869
540.39	49.502
540.73	49.159
541.07	51.265
541.42	49.902
541.76	50.516
542.10	49.935
542.44	49.338
542.78	50.066
543.12	47.857
543.46	49.967
543.80	49.772
544.14	49.551
544.48	50.349
544.82	49.326
545.16	49.902
545.50	50.450
545.84	49.798
546.18	50.909
546.52	51.136
546.86	49.759
547.20	51.719
547.54	49.432
547.88	50.702
548.22	49.253
548.56	49.371
548.90	49.872
549.24	50.303
549.58	50.341
549.92	50.206
550.26	50.781
550.60	48.893
550.94	50.493
551.28	50.037
551.62	51.689
551.96	50.386
552.30	51.672
552.64	50.507
552.98	50.576
553.32	49.629
553.66	49.421
554.00	51.201
554.34	49.965
554.68	51.001
555.02	50.353
555.36	50.104
555.69	50.474
556.03	50.740
556.37	49.864
556.71	49.181
557.05	49.440
557.39	50.385
557.73	50.529
558.07	51.849
558.41	51.085
558.75	51.947
559.08	51.603
559.42	51.323
559.76	50.515
560.10	49.964
560.44	50.175
560.78	51.297
561.12	49.472
561.45	51.239
561.79	47.989
562.13	50.637
562.47	50.478
562.81	51.325
563.15	50.702
563.48	50.066
563.82	49.967
564.16	50.164
564.50	50.130
564.84	49.494
565.17	49.099
565.51	50.160
565.85	49.619
566.19	49.468
566.52	49.398
566.86	48.342
567.20	49.587
567.54	49.543
567.88	48.126
568.21	47.407
568.55	47.371
568.89	46.839
569.23	46.257
569.56	45.344
569.90	45.283
570.24	45.246
570.57	45.087
570.91	42.889
571.25	43.298
571.59	43.387
571.92	43.289
572.26	44.079
572.60	43.063
572.93	43.418
573.27	43.833
573.61	43.439
573.95	43.902
574.28	41.985
574.62	43.076
574.96	42.318
575.29	42.313
575.63	42.886
575.97	42.541
576.30	42.167
576.64	43.012
576.98	43.072
577.31	43.230
577.65	42.693
577.98	42.139
578.32	41.481
578.66	41.887
578.99	42.228
579.33	42.145
579.67	42.180
580.00	43.251
580.34	43.094
580.67	43.110
581.01	43.175
581.35	43.035
581.68	42.961
582.02	41.298
582.35	42.080
582.69	41.690
583.02	42.185
583.36	43.463
583.70	43.207
584.03	43.783
584.37	44.717
584.70	43.887
585.04	43.004
585.37	43.173
585.71	42.975
586.04	42.112
586.38	43.626
586.72	43.993
587.05	43.331
587.39	43.061
587.72	44.087
588.06	43.837
588.39	43.539
588.73	44.295
589.06	44.656
589.40	44.074
589.73	44.808
590.07	45.872
590.40	44.538
590.73	45.511
591.07	46.072
591.40	46.267
591.74	47.316
592.07	45.768
592.41	45.639
592.74	45.019
593.08	45.636
593.41	44.258
593.75	42.879
594.08	44.083
594.41	44.008
594.75	45.397
595.08	45.455
595.42	44.413
595.75	45.442
596.09	45.362
596.42	45.737
596.75	45.927
597.09	46.320
597.42	46.037
597.75	46.701
598.09	45.652
598.42	45.533
598.76	46.007
599.09	44.698
599.42	44.687
599.76	44.876
600.09	44.627
600.42	44.814
600.76	44.214
601.09	44.772
601.42	44.406
601.76	44.934
602.09	45.217
602.42	46.417
602.76	46.554
603.09	46.223
603.42	46.271
603.76	45.312
604.09	45.483
604.42	45.944
604.76	46.057
605.09	45.260
605.42	46.088
605.75	45.695
606.09	45.222
606.42	45.607
606.75	45.541
607.09	45.668
607.42	45.186
607.75	45.401
608.08	45.593
608.42	45.944
608.75	45.446
609.08	45.143
609.41	45.835
609.75	46.832
610.08	47.691
610.41	46.089
610.74	44.939
611.07	46.789
611.41	47.007
611.74	47.511
612.07	46.325
612.40	46.957
612.73	47.684
613.07	48.276
613.40	47.920
613.73	45.831
614.06	45.968
614.39	48.191
614.72	47.316
615.06	47.637
615.39	47.187
615.72	47.495
616.05	47.847
616.38	46.971
616.71	47.684
617.05	48.351
617.38	48.346
617.71	48.108
618.04	48.317
618.37	47.842
618.70	49.160
619.03	49.079
619.36	48.405
619.69	49.577
620.03	49.863
620.36	49.532
620.69	50.685
621.02	50.369
621.35	49.726
621.68	48.754
622.01	50.232
622.34	48.790
622.67	50.570
623.00	50.330
623.33	49.464
623.66	50.679
623.99	49.926
624.32	49.501
624.65	49.294
624.99	49.929
625.32	50.036
625.65	49.887
625.98	50.884
626.31	52.566
626.64	51.184
626.97	53.117
627.30	51.787
627.63	51.846
627.96	51.388
628.29	52.843
628.62	52.333
628.95	53.302
629.28	51.734
629.61	53.162
629.94	53.333
630.26	53.289
630.59	53.289
630.92	50.670
631.25	52.912
631.58	52.052
631.91	52.231
