SpectraSuite Data File
++++++++++++++++++++++++++++++++++++
Date: Wed May 13 16:12:09 PDT 2015
User: schluterlab
Dark Spectrum Present: Yes
Reference Spectrum Present: Yes
Number of Sampled Component Spectra: 1
Spectrometers: USB2E3373
Integration Time (usec): 3000 (USB2E3373)
Spectra Averaged: 3 (USB2E3373)
Boxcar Smoothing: 0 (USB2E3373)
Correct for Electrical Dark: No (USB2E3373)
Strobe/Lamp Enabled: No (USB2E3373)
Correct for Detector Non-linearity: No (USB2E3373)
Correct for Stray Light: No (USB2E3373)
Number of Pixels in Processed Spectrum: 2048
>>>>>Begin Processed Spectral Data<<<<<
178.53	0.000
178.91	-1125.000
179.29	-1025.000
179.67	-172.222
180.04	-850.000
180.42	2450.000
180.80	920.000
181.18	-975.000
181.56	557.143
181.94	0.000
182.31	-557.143
182.69	1266.667
183.07	-525.000
183.45	-377.778
183.83	427.273
184.20	-340.000
184.58	1500.000
184.96	4400.000
185.34	-520.000
185.72	-475.000
186.09	-1800.000
186.47	2350.000
186.85	2200.000
187.23	4300.000
187.61	-1333.333
187.98	1050.000
188.36	454.545
188.74	463.636
189.12	-700.000
189.49	390.000
189.87	-3500.000
190.25	-1100.000
190.63	292.857
191.00	292.308
191.38	633.333
191.76	-725.000
192.14	900.000
192.51	437.500
192.89	916.667
193.27	450.000
193.65	-675.000
194.02	370.000
194.40	680.000
194.78	490.000
195.15	325.000
195.53	540.000
195.91	-1750.000
196.29	281.250
196.66	231.579
197.04	-330.000
197.42	0.000
197.79	550.000
198.17	-3800.000
198.55	585.714
198.92	512.500
199.30	780.000
199.68	0.000
200.05	222.222
200.43	600.000
200.81	3400.000
201.18	1133.333
201.56	-1000.000
201.94	333.333
202.31	344.444
202.69	391.667
203.07	490.000
203.44	0.000
203.82	850.000
204.19	628.571
204.57	350.000
204.95	412.500
205.32	1266.667
205.70	400.000
206.08	292.857
206.45	2050.000
206.83	325.000
207.20	783.333
207.58	520.000
207.96	283.333
208.33	537.500
208.71	-700.000
209.08	728.571
209.46	455.556
209.84	418.182
210.21	-833.333
210.59	1125.000
210.96	-462.500
211.34	2500.000
211.71	490.000
212.09	516.667
212.46	0.000
212.84	1400.000
213.22	775.000
213.59	-2500.000
213.97	666.667
214.34	600.000
214.72	454.545
215.09	800.000
215.47	-1650.000
215.84	-1750.000
216.22	1233.333
216.59	292.857
216.97	775.000
217.34	400.000
217.72	-533.333
218.09	0.000
218.47	-3700.000
218.84	488.889
219.22	485.714
219.59	1300.000
219.97	-571.429
220.34	760.000
220.72	-1600.000
221.09	292.857
221.47	975.000
221.84	-633.333
222.22	0.000
222.59	1175.000
222.97	-2200.000
223.34	1040.000
223.72	307.692
224.09	860.000
224.46	1800.000
224.84	-4500.000
225.21	-640.000
225.59	-4000.000
225.96	420.000
226.34	250.000
226.71	2100.000
227.08	462.500
227.46	390.000
227.83	-800.000
228.21	-1750.000
228.58	444.444
228.95	-1700.000
229.33	-1800.000
229.70	1100.000
230.08	571.429
230.45	-600.000
230.82	300.000
231.20	650.000
231.57	457.143
231.95	375.000
232.32	222.727
232.69	300.000
233.07	542.857
233.44	346.154
233.81	-1333.333
234.19	263.158
234.56	425.000
234.93	350.000
235.31	481.818
235.68	284.615
236.05	342.857
236.43	139.394
236.80	247.368
237.17	3700.000
237.55	223.810
237.92	182.143
238.29	185.714
238.67	132.258
239.04	193.103
239.41	152.778
239.79	117.391
240.16	130.952
240.53	134.091
240.91	123.529
241.28	112.000
241.65	122.000
242.02	95.652
242.40	112.903
242.77	110.000
243.14	91.398
243.51	98.876
243.89	94.118
244.26	83.333
244.63	79.570
245.00	93.617
245.38	83.168
245.75	80.374
246.12	76.147
246.49	73.723
246.87	80.800
247.24	70.769
247.61	80.000
247.98	67.974
248.36	63.514
248.73	71.338
249.10	75.796
249.47	66.667
249.84	65.775
250.22	61.497
250.59	66.864
250.96	66.162
251.33	62.559
251.70	66.832
252.08	60.476
252.45	57.399
252.82	53.043
253.19	60.851
253.56	57.255
253.94	61.411
254.31	58.984
254.68	59.231
255.05	61.255
255.42	58.130
255.79	63.603
256.16	54.513
256.54	53.357
256.91	60.142
257.28	52.518
257.65	58.746
258.02	53.106
258.39	57.729
258.76	56.187
259.14	53.571
259.51	49.848
259.88	53.106
260.25	56.193
260.62	51.734
260.99	55.590
261.36	51.952
261.73	53.009
262.10	53.488
262.47	54.648
262.85	53.760
263.22	49.858
263.59	58.120
263.96	53.571
264.33	55.614
264.70	53.158
265.07	52.174
265.44	53.788
265.81	47.445
266.18	53.518
266.55	49.268
266.92	51.106
267.29	53.009
267.66	50.000
268.03	50.455
268.40	48.598
268.77	49.642
269.14	52.703
269.51	51.467
269.88	54.312
270.25	45.824
270.62	49.663
270.99	50.968
271.36	52.575
271.73	51.402
272.10	50.435
272.47	49.462
272.84	49.134
273.21	49.895
273.58	47.380
273.95	44.235
274.32	48.140
274.69	49.679
275.06	47.441
275.43	48.298
275.80	48.697
276.17	50.305
276.54	48.233
276.91	47.826
277.28	46.484
277.65	46.422
278.02	50.311
278.39	49.023
278.76	45.091
279.13	44.528
279.50	44.693
279.87	46.016
280.23	47.705
280.60	50.097
280.97	45.656
281.34	46.018
281.71	49.636
282.08	48.560
282.45	47.455
282.82	46.714
283.19	45.989
283.56	45.789
283.92	46.701
284.29	45.679
284.66	46.279
285.03	45.208
285.40	42.958
285.77	45.960
286.14	46.632
286.51	45.500
286.87	43.932
287.24	46.091
287.61	43.178
287.98	45.130
288.35	41.204
288.72	41.745
289.08	42.567
289.45	42.339
289.82	43.252
290.19	41.601
290.56	40.582
290.93	38.520
291.29	41.718
291.66	41.445
292.03	41.570
292.40	42.731
292.77	38.905
293.13	41.791
293.50	40.233
293.87	39.556
294.24	39.556
294.60	39.447
294.97	39.244
295.34	39.633
295.71	39.489
296.08	37.179
296.44	37.139
296.81	36.328
297.18	38.211
297.55	36.807
297.91	37.071
298.28	39.625
298.65	37.467
299.02	37.813
299.38	36.388
299.75	36.658
300.12	34.610
300.48	35.625
300.85	35.388
301.22	36.051
301.59	34.470
301.95	37.154
302.32	36.585
302.69	35.603
303.05	36.121
303.42	33.333
303.79	35.561
304.15	34.382
304.52	34.647
304.89	34.727
305.25	32.019
305.62	34.994
305.99	34.120
306.35	33.221
306.72	34.081
307.09	34.406
307.45	34.347
307.82	33.147
308.19	34.658
308.55	33.873
308.92	33.083
309.29	33.580
309.65	32.450
310.02	34.461
310.38	33.011
310.75	34.319
311.12	33.879
311.48	33.438
311.85	33.438
312.22	33.819
312.58	35.239
312.95	33.685
313.31	32.718
313.68	33.472
314.05	34.714
314.41	33.769
314.78	34.945
315.14	33.664
315.51	34.501
315.87	34.059
316.24	33.168
316.61	32.554
316.97	33.659
317.34	32.681
317.70	34.704
318.07	33.494
318.43	32.975
318.80	35.052
319.16	33.898
319.53	32.458
319.89	34.000
320.26	33.000
320.62	34.425
320.99	32.020
321.35	32.828
321.72	33.368
322.08	33.465
322.45	35.124
322.81	34.109
323.18	34.586
323.54	32.468
323.91	31.509
324.27	31.644
324.64	32.432
325.00	32.642
325.37	34.122
325.73	33.932
326.10	33.628
326.46	32.258
326.83	31.838
327.19	31.768
327.56	33.188
327.92	32.983
328.29	33.540
328.65	32.505
329.01	32.581
329.38	31.822
329.74	33.518
330.11	32.139
330.47	33.792
330.84	32.904
331.20	29.781
331.56	31.835
331.93	31.944
332.29	31.766
332.66	32.655
333.02	31.810
333.38	32.520
333.75	30.927
334.11	31.851
334.48	31.588
334.84	31.893
335.20	32.818
335.57	31.369
335.93	30.179
336.29	31.227
336.66	31.289
337.02	29.231
337.38	32.593
337.75	29.947
338.11	30.797
338.47	30.479
338.84	33.089
339.20	29.908
339.56	31.204
339.93	30.455
340.29	30.525
340.65	30.838
341.02	31.937
341.38	31.050
341.74	31.316
342.11	30.655
342.47	31.806
342.83	30.137
343.20	31.429
343.56	30.581
343.92	30.877
344.28	30.442
344.65	30.353
345.01	29.798
345.37	30.360
345.73	29.272
346.10	29.753
346.46	29.831
346.82	28.913
347.19	29.825
347.55	30.213
347.91	30.097
348.27	29.992
348.63	29.431
349.00	29.369
349.36	27.586
349.72	28.949
350.08	29.498
350.45	30.757
350.81	28.838
351.17	29.822
351.53	28.501
351.89	28.135
352.26	28.808
352.62	28.388
352.98	29.092
353.34	29.088
353.70	28.478
354.07	29.839
354.43	28.016
354.79	28.479
355.15	29.210
355.51	29.177
355.87	29.469
356.24	29.397
356.60	28.468
356.96	29.686
357.32	28.945
357.68	29.134
358.04	28.345
358.40	28.820
358.77	29.186
359.13	28.729
359.49	28.000
359.85	26.825
360.21	28.708
360.57	28.171
360.93	29.385
361.29	29.101
361.66	27.477
362.02	28.134
362.38	27.605
362.74	28.646
363.10	26.869
363.46	28.320
363.82	28.647
364.18	28.267
364.54	28.826
364.90	27.550
365.26	27.794
365.62	28.999
365.98	27.392
366.35	27.149
366.71	29.284
367.07	27.822
367.43	27.794
367.79	27.338
368.15	28.520
368.51	28.706
368.87	28.194
369.23	27.652
369.59	28.023
369.95	28.162
370.31	26.852
370.67	27.319
371.03	28.689
371.39	28.499
371.75	28.971
372.11	27.312
372.47	28.592
372.83	28.458
373.19	27.673
373.55	28.086
373.91	28.424
374.27	27.698
374.63	28.000
374.99	28.955
375.35	27.774
375.71	28.033
376.07	27.984
376.42	27.854
376.78	28.429
377.14	27.815
377.50	28.477
377.86	27.527
378.22	26.675
378.58	26.378
378.94	28.410
379.30	27.354
379.66	28.173
380.02	28.686
380.38	26.897
380.74	29.112
381.09	27.445
381.45	28.027
381.81	28.133
382.17	28.408
382.53	28.679
382.89	28.704
383.25	28.518
383.61	28.872
383.97	28.768
384.32	29.133
384.68	28.005
385.04	28.519
385.40	27.988
385.76	28.133
386.12	28.109
386.48	28.634
386.83	28.672
387.19	28.942
387.55	28.386
387.91	27.690
388.27	28.142
388.62	29.010
388.98	28.256
389.34	29.036
389.70	28.510
390.06	29.341
390.42	28.664
390.77	29.262
391.13	29.930
391.49	28.997
391.85	27.880
392.20	28.391
392.56	29.293
392.92	28.723
393.28	27.101
393.64	27.878
393.99	28.039
394.35	28.474
394.71	28.984
395.07	28.162
395.42	29.481
395.78	29.453
396.14	28.119
396.50	29.699
396.85	29.688
397.21	28.422
397.57	28.208
397.92	29.207
398.28	27.691
398.64	28.973
399.00	28.036
399.35	28.201
399.71	28.067
400.07	28.445
400.42	28.037
400.78	28.227
401.14	28.415
401.49	28.657
401.85	27.586
402.21	27.605
402.57	27.699
402.92	28.373
403.28	28.357
403.63	28.342
403.99	27.389
404.35	28.364
404.70	27.338
405.06	26.383
405.42	28.322
405.77	27.257
406.13	27.032
406.49	27.912
406.84	27.998
407.20	27.069
407.55	27.632
407.91	27.600
408.27	27.377
408.62	27.634
408.98	28.002
409.34	28.413
409.69	28.000
410.05	27.385
410.40	27.095
410.76	27.599
411.11	26.960
411.47	27.220
411.83	27.428
412.18	26.778
412.54	26.899
412.89	27.410
413.25	27.450
413.60	27.795
413.96	26.108
414.31	26.914
414.67	26.109
415.03	27.748
415.38	27.320
415.74	27.267
416.09	27.890
416.45	27.175
416.80	26.702
417.16	27.413
417.51	27.140
417.87	26.397
418.22	28.454
418.58	26.921
418.93	26.658
419.29	27.116
419.64	27.204
420.00	27.195
420.35	27.710
420.71	27.496
421.06	26.014
421.42	27.135
421.77	26.626
422.12	25.772
422.48	26.066
422.83	27.315
423.19	26.464
423.54	26.465
423.90	27.652
424.25	28.252
424.61	26.548
424.96	26.647
425.31	26.357
425.67	24.888
426.02	26.400
426.38	27.045
426.73	26.156
427.09	25.957
427.44	27.142
427.79	26.740
428.15	26.607
428.50	26.390
428.85	26.520
429.21	27.057
429.56	25.868
429.92	26.019
430.27	25.670
430.62	26.318
430.98	26.622
431.33	26.753
431.68	27.068
432.04	26.251
432.39	26.728
432.74	27.828
433.10	26.655
433.45	27.289
433.80	26.275
434.16	26.656
434.51	26.000
434.86	26.454
435.22	26.570
435.57	26.444
435.92	26.448
436.28	26.928
436.63	27.373
436.98	26.045
437.34	26.834
437.69	26.954
438.04	26.700
438.39	27.343
438.75	27.310
439.10	26.313
439.45	26.978
439.81	26.465
440.16	26.369
440.51	26.186
440.86	26.809
441.22	26.363
441.57	26.486
441.92	27.687
442.27	26.372
442.63	26.172
442.98	26.535
443.33	26.033
443.68	25.968
444.03	27.477
444.39	26.436
444.74	26.190
445.09	26.631
445.44	25.970
445.79	25.977
446.15	26.257
446.50	25.956
446.85	25.899
447.20	26.415
447.55	26.857
447.91	25.979
448.26	26.711
448.61	26.399
448.96	26.855
449.31	27.278
449.66	26.280
450.02	25.850
450.37	26.190
450.72	25.888
451.07	26.021
451.42	25.836
451.77	27.892
452.12	26.674
452.47	26.306
452.83	26.515
453.18	25.733
453.53	26.592
453.88	25.812
454.23	26.300
454.58	27.317
454.93	27.400
455.28	26.434
455.63	27.367
455.98	27.440
456.34	26.822
456.69	27.239
457.04	26.130
457.39	26.242
457.74	25.769
458.09	26.970
458.44	25.770
458.79	25.976
459.14	26.242
459.49	25.628
459.84	25.817
460.19	25.987
460.54	25.579
460.89	25.782
461.24	26.108
461.59	27.484
461.94	25.586
462.29	26.825
462.64	26.930
462.99	26.805
463.34	27.067
463.69	26.266
464.04	26.145
464.39	26.261
464.74	26.797
465.09	25.935
465.44	25.762
465.79	25.839
466.14	25.889
466.49	25.362
466.84	26.211
467.19	25.890
467.54	27.125
467.89	25.690
468.24	26.353
468.59	26.374
468.94	26.512
469.29	25.900
469.64	27.175
469.99	26.590
470.34	25.892
470.68	27.371
471.03	26.259
471.38	26.338
471.73	25.916
472.08	26.776
472.43	26.759
472.78	26.267
473.13	27.086
473.48	25.468
473.83	26.220
474.17	25.825
474.52	27.357
474.87	26.620
475.22	26.059
475.57	25.900
475.92	25.969
476.27	25.705
476.61	26.145
476.96	25.563
477.31	26.164
477.66	25.930
478.01	25.301
478.36	26.600
478.70	25.545
479.05	26.518
479.40	25.640
479.75	25.674
480.10	25.000
480.45	25.988
480.79	25.561
481.14	25.636
481.49	26.103
481.84	25.606
482.19	26.215
482.53	25.000
482.88	25.593
483.23	25.888
483.58	25.887
483.92	25.820
484.27	24.880
484.62	25.560
484.97	25.187
485.31	26.096
485.66	26.131
486.01	25.276
486.36	23.880
486.70	23.170
487.05	23.568
487.40	23.468
487.75	24.425
488.09	25.144
488.44	24.283
488.79	25.606
489.13	24.866
489.48	25.326
489.83	25.205
490.17	25.778
490.52	24.889
490.87	24.876
491.22	25.057
491.56	24.328
491.91	24.477
492.26	25.356
492.60	24.793
492.95	24.602
493.30	24.907
493.64	24.732
493.99	24.884
494.34	25.254
494.68	24.908
495.03	25.470
495.37	25.174
495.72	25.487
496.07	25.568
496.41	25.088
496.76	25.418
497.11	25.079
497.45	24.825
497.80	25.576
498.14	25.411
498.49	24.732
498.84	24.832
499.18	25.095
499.53	25.404
499.87	25.536
500.22	24.823
500.56	25.825
500.91	24.712
501.26	24.704
501.60	25.914
501.95	24.931
502.29	26.101
502.64	25.279
502.98	24.918
503.33	25.183
503.67	24.919
504.02	24.602
504.36	24.801
504.71	24.426
505.06	25.494
505.40	25.036
505.75	24.446
506.09	24.976
506.44	25.259
506.78	25.280
507.13	24.937
507.47	23.788
507.82	25.177
508.16	25.583
508.51	26.585
508.85	24.826
509.19	25.663
509.54	25.357
509.88	25.811
510.23	24.781
510.57	26.213
510.92	25.272
511.26	25.642
511.61	25.571
511.95	24.739
512.30	24.708
512.64	25.202
512.98	24.973
513.33	25.696
513.67	24.867
514.02	25.054
514.36	25.123
514.70	25.789
515.05	24.707
515.39	25.799
515.74	25.282
516.08	25.769
516.42	25.694
516.77	25.808
517.11	25.527
517.46	26.242
517.80	25.958
518.14	24.899
518.49	26.196
518.83	26.193
519.17	25.924
519.52	25.467
519.86	25.499
520.20	25.723
520.55	26.032
520.89	25.365
521.23	26.719
521.58	25.810
521.92	25.842
522.26	25.442
522.61	26.355
522.95	25.783
523.29	24.285
523.64	25.793
523.98	26.864
524.32	25.573
524.66	25.616
525.01	25.980
525.35	25.341
525.69	25.000
526.04	26.729
526.38	25.869
526.72	25.706
527.06	26.240
527.41	24.567
527.75	25.080
528.09	26.204
528.43	26.450
528.78	26.368
529.12	24.970
529.46	26.393
529.80	26.238
530.15	25.919
530.49	26.215
530.83	25.253
531.17	26.632
531.51	26.978
531.86	26.645
532.20	26.076
532.54	26.329
532.88	26.701
533.22	24.610
533.57	25.926
533.91	25.768
534.25	25.091
534.59	25.686
534.93	25.283
535.27	25.890
535.62	26.068
535.96	25.487
536.30	25.811
536.64	25.499
536.98	26.277
537.32	25.741
537.66	26.667
538.01	25.543
538.35	26.826
538.69	25.909
539.03	25.211
539.37	25.048
539.71	23.331
540.05	26.601
540.39	25.449
540.73	24.774
541.07	25.892
541.42	25.636
541.76	26.194
542.10	25.679
542.44	25.695
542.78	26.877
543.12	25.592
543.46	25.902
543.80	25.634
544.14	24.904
544.48	25.651
544.82	25.273
545.16	25.830
545.50	25.257
545.84	24.731
546.18	26.128
546.52	26.153
546.86	26.392
547.20	26.231
547.54	26.186
547.88	26.786
548.22	25.156
548.56	26.289
548.90	25.032
549.24	24.242
549.58	25.853
549.92	26.580
550.26	26.349
550.60	25.035
550.94	25.775
551.28	25.165
551.62	25.809
551.96	25.404
552.30	26.280
552.64	25.625
552.98	25.559
553.32	25.354
553.66	26.108
554.00	26.012
554.34	25.742
554.68	25.536
555.02	24.894
555.36	26.096
555.69	24.628
556.03	25.303
556.37	26.194
556.71	24.898
557.05	26.611
557.39	24.983
557.73	24.700
558.07	26.033
558.41	25.036
558.75	25.643
559.08	26.100
559.42	25.321
559.76	25.735
560.10	25.839
560.44	24.948
560.78	25.083
561.12	24.538
561.45	26.076
561.79	25.445
562.13	25.352
562.47	25.478
562.81	25.453
563.15	25.017
563.48	25.663
563.82	25.245
564.16	25.376
564.50	24.154
564.84	24.905
565.17	25.290
565.51	25.304
565.85	25.190
566.19	24.859
566.52	25.522
566.86	25.437
567.20	25.767
567.54	25.799
567.88	24.661
568.21	25.397
568.55	24.520
568.89	25.827
569.23	24.599
569.56	25.223
569.90	24.906
570.24	24.614
570.57	24.549
570.91	24.434
571.25	24.521
571.59	24.065
571.92	23.848
572.26	24.263
572.60	24.474
572.93	23.988
573.27	24.490
573.61	24.149
573.95	24.393
574.28	24.472
574.62	23.907
574.96	23.871
575.29	23.909
575.63	23.526
575.97	24.056
576.30	24.642
576.64	24.261
576.98	24.429
577.31	24.307
577.65	24.539
577.98	24.206
578.32	23.431
578.66	23.606
578.99	23.921
579.33	23.917
579.67	23.984
580.00	24.047
580.34	23.991
580.67	23.777
581.01	24.376
581.35	24.627
581.68	24.512
582.02	23.999
582.35	24.014
582.69	23.896
583.02	23.708
583.36	23.749
583.70	24.451
584.03	24.373
584.37	25.059
584.70	24.582
585.04	24.144
585.37	24.394
585.71	24.812
586.04	24.330
586.38	24.478
586.72	23.888
587.05	24.124
587.39	24.274
587.72	23.886
588.06	24.146
588.39	25.075
588.73	24.142
589.06	24.961
589.40	25.084
589.73	24.710
590.07	24.840
590.40	23.895
590.73	24.785
591.07	25.234
591.40	24.378
591.74	25.628
592.07	25.000
592.41	25.506
592.74	24.757
593.08	25.117
593.41	24.707
593.75	24.485
594.08	24.371
594.41	24.355
594.75	24.399
595.08	25.018
595.42	24.904
595.75	24.644
596.09	25.122
596.42	25.069
596.75	24.230
597.09	24.978
597.42	24.958
597.75	25.183
598.09	25.043
598.42	24.656
598.76	25.294
599.09	24.857
599.42	25.218
599.76	24.488
600.09	24.481
600.42	24.836
600.76	24.679
601.09	25.137
601.42	24.467
601.76	24.478
602.09	24.387
602.42	25.000
602.76	25.353
603.09	24.154
603.42	24.834
603.76	24.695
604.09	24.351
604.42	25.031
604.76	25.601
605.09	25.295
605.42	25.139
605.75	25.083
606.09	24.888
606.42	24.642
606.75	24.762
607.09	24.613
607.42	24.476
607.75	24.135
608.08	24.577
608.42	24.877
608.75	24.301
609.08	24.052
609.41	24.131
609.75	24.869
610.08	25.401
610.41	24.814
610.74	24.456
611.07	25.049
611.41	25.123
611.74	25.289
612.07	25.880
612.40	25.446
612.73	24.737
613.07	24.461
613.40	25.961
613.73	25.433
614.06	24.892
614.39	25.957
614.72	25.632
615.06	25.630
615.39	25.106
615.72	24.591
616.05	24.880
616.38	24.402
616.71	25.594
617.05	25.854
617.38	24.293
617.71	24.444
618.04	25.962
618.37	25.370
618.70	25.887
619.03	25.855
619.36	26.341
619.69	25.986
620.03	26.099
620.36	25.735
620.69	26.507
621.02	25.885
621.35	25.059
621.68	24.766
622.01	27.012
622.34	27.156
622.67	25.475
623.00	24.725
623.33	25.089
623.66	25.590
623.99	25.626
624.32	26.676
624.65	25.918
624.99	25.283
625.32	24.330
625.65	26.521
625.98	24.981
626.31	25.272
626.64	27.020
626.97	26.018
627.30	26.933
627.63	26.005
627.96	27.082
628.29	26.597
628.62	25.709
628.95	26.792
629.28	27.828
629.61	26.764
629.94	27.238
630.26	25.834
630.59	25.167
630.92	26.341
631.25	26.357
