SpectraSuite Data File
++++++++++++++++++++++++++++++++++++
Date: Wed May 13 15:59:43 PDT 2015
User: schluterlab
Dark Spectrum Present: Yes
Reference Spectrum Present: Yes
Number of Sampled Component Spectra: 1
Spectrometers: USB2E3373
Integration Time (usec): 3000 (USB2E3373)
Spectra Averaged: 3 (USB2E3373)
Boxcar Smoothing: 0 (USB2E3373)
Correct for Electrical Dark: No (USB2E3373)
Strobe/Lamp Enabled: No (USB2E3373)
Correct for Detector Non-linearity: No (USB2E3373)
Correct for Stray Light: No (USB2E3373)
Number of Pixels in Processed Spectrum: 2048
>>>>>Begin Processed Spectral Data<<<<<
178.53	0.000
178.91	-350.000
179.29	-350.000
179.67	-50.000
180.04	-275.000
180.42	550.000
180.80	180.000
181.18	-0.000
181.56	214.286
181.94	0.000
182.31	-214.286
182.69	633.333
183.07	-125.000
183.45	-77.778
183.83	218.182
184.20	-110.000
184.58	250.000
184.96	1700.000
185.34	-160.000
185.72	-137.500
186.09	-300.000
186.47	750.000
186.85	900.000
187.23	1100.000
187.61	-433.333
187.98	325.000
188.36	254.545
188.74	100.000
189.12	-0.000
189.49	170.000
189.87	-1000.000
190.25	-175.000
190.63	100.000
191.00	153.846
191.38	250.000
191.76	-25.000
192.14	550.000
192.51	137.500
192.89	300.000
193.27	-12.500
193.65	125.000
194.02	110.000
194.40	100.000
194.78	170.000
195.15	108.333
195.53	190.000
195.91	-800.000
196.29	93.750
196.66	63.158
197.04	10.000
197.42	0.000
197.79	180.000
198.17	-1300.000
198.55	128.571
198.92	137.500
199.30	180.000
199.68	0.000
200.05	111.111
200.43	300.000
200.81	900.000
201.18	566.667
201.56	-566.667
201.94	77.778
202.31	211.111
202.69	83.333
203.07	130.000
203.44	0.000
203.82	125.000
204.19	271.429
204.57	157.143
204.95	212.500
205.32	133.333
205.70	127.273
206.08	85.714
206.45	550.000
206.83	50.000
207.20	216.667
207.58	200.000
207.96	105.556
208.33	237.500
208.71	-283.333
209.08	314.286
209.46	177.778
209.84	90.909
210.21	-266.667
210.59	475.000
210.96	-12.500
211.34	300.000
211.71	190.000
212.09	183.333
212.46	0.000
212.84	233.333
213.22	450.000
213.59	-1000.000
213.97	150.000
214.34	228.571
214.72	281.818
215.09	240.000
215.47	-550.000
215.84	-400.000
216.22	666.667
216.59	235.714
216.97	425.000
217.34	127.273
217.72	-100.000
218.09	0.000
218.47	-600.000
218.84	222.222
219.22	171.429
219.59	500.000
219.97	-85.714
220.34	140.000
220.72	-466.667
221.09	92.857
221.47	300.000
221.84	-300.000
222.22	0.000
222.59	425.000
222.97	-900.000
223.34	280.000
223.72	176.923
224.09	340.000
224.46	350.000
224.84	-1200.000
225.21	-300.000
225.59	-200.000
225.96	200.000
226.34	85.000
226.71	950.000
227.08	162.500
227.46	130.000
227.83	-50.000
228.21	-800.000
228.58	111.111
228.95	-400.000
229.33	-100.000
229.70	666.667
230.08	200.000
230.45	-80.000
230.82	50.000
231.20	166.667
231.57	185.714
231.95	166.667
232.32	50.000
232.69	54.545
233.07	42.857
233.44	53.846
233.81	-366.667
234.19	105.263
234.56	58.333
234.93	58.333
235.31	81.818
235.68	53.846
236.05	107.143
236.43	39.394
236.80	73.684
237.17	1600.000
237.55	66.667
237.92	78.571
238.29	66.667
238.67	93.548
239.04	82.759
239.41	63.889
239.79	52.174
240.16	83.333
240.53	77.273
240.91	47.059
241.28	44.000
241.65	54.000
242.02	57.971
242.40	41.935
242.77	65.000
243.14	59.140
243.51	42.697
243.89	45.882
244.26	46.667
244.63	40.860
245.00	37.234
245.38	42.574
245.75	45.794
246.12	39.450
246.49	51.825
246.87	51.200
247.24	50.769
247.61	38.571
247.98	46.405
248.36	41.892
248.73	33.121
249.10	41.401
249.47	40.113
249.84	37.433
250.22	37.968
250.59	39.645
250.96	39.899
251.33	38.863
251.70	38.614
252.08	36.190
252.45	34.529
252.82	35.217
253.19	40.851
253.56	38.431
253.94	39.419
254.31	37.891
254.68	39.615
255.05	37.269
255.42	40.244
255.79	38.603
256.16	38.989
256.54	33.569
256.91	34.520
257.28	34.532
257.65	36.304
258.02	38.509
258.39	36.278
258.76	35.452
259.14	34.524
259.51	37.994
259.88	36.335
260.25	39.275
260.62	36.416
260.99	34.783
261.36	34.535
261.73	36.103
262.10	34.884
262.47	34.930
262.85	36.490
263.22	34.758
263.59	37.037
263.96	33.242
264.33	34.204
264.70	35.526
265.07	35.038
265.44	33.838
265.81	33.577
266.18	36.935
266.55	33.171
266.92	35.872
267.29	34.954
267.66	34.633
268.03	37.500
268.40	34.112
268.77	32.936
269.14	37.838
269.51	37.472
269.88	32.401
270.25	33.634
270.62	36.854
270.99	37.204
271.36	33.476
271.73	36.682
272.10	34.565
272.47	35.484
272.84	33.117
273.21	32.704
273.58	31.878
273.95	31.447
274.32	34.091
274.69	37.687
275.06	29.331
275.43	31.915
275.80	33.267
276.17	34.012
276.54	35.343
276.91	33.004
277.28	32.812
277.65	34.623
278.02	33.333
278.39	33.984
278.76	30.909
279.13	34.528
279.50	33.520
279.87	34.263
280.23	33.134
280.60	32.108
280.97	31.978
281.34	31.150
281.71	31.455
282.08	34.933
282.45	32.000
282.82	30.728
283.19	31.373
283.56	31.404
283.92	34.518
284.29	30.688
284.66	33.757
285.03	30.199
285.40	30.810
285.77	30.808
286.14	31.088
286.51	31.667
286.87	32.479
287.24	31.270
287.61	30.016
287.98	28.896
288.35	31.062
288.72	29.439
289.08	30.829
289.45	29.489
289.82	29.756
290.19	30.455
290.56	29.096
290.93	26.737
291.29	28.528
291.66	26.696
292.03	29.506
292.40	29.662
292.77	28.698
293.13	28.060
293.50	27.551
293.87	28.148
294.24	25.481
294.60	23.581
294.97	26.744
295.34	26.234
295.71	26.420
296.08	25.926
296.44	28.473
296.81	24.439
297.18	26.965
297.55	24.670
297.91	23.879
298.28	25.703
298.65	25.718
299.02	25.823
299.38	25.232
299.75	22.372
300.12	21.967
300.48	23.875
300.85	22.811
301.22	24.968
301.59	23.359
301.95	24.055
302.32	23.492
302.69	23.536
303.05	23.152
303.42	24.815
303.79	22.650
304.15	23.310
304.52	21.900
304.89	21.254
305.25	21.926
305.62	21.744
305.99	24.321
306.35	22.595
306.72	22.085
307.09	23.751
307.45	23.986
307.82	22.098
308.19	22.848
308.55	23.517
308.92	23.201
309.29	21.119
309.65	22.481
310.02	22.199
310.38	21.398
310.75	22.914
311.12	22.723
311.48	22.675
311.85	24.738
312.22	22.581
312.58	21.310
312.95	23.020
313.31	20.971
313.68	22.765
314.05	23.866
314.41	21.809
314.78	21.954
315.14	21.549
315.51	23.275
315.87	22.673
316.24	21.946
316.61	22.515
316.97	21.233
317.34	20.254
317.70	23.327
318.07	22.137
318.43	22.896
318.80	22.118
319.16	23.164
319.53	20.263
319.89	22.095
320.26	23.200
320.62	22.421
320.99	22.020
321.35	21.010
321.72	22.485
322.08	23.495
322.45	22.886
322.81	23.062
323.18	22.254
323.54	22.913
323.91	22.642
324.27	21.606
324.64	21.622
325.00	21.190
325.37	21.656
325.73	22.352
326.10	21.801
326.46	22.312
326.83	22.088
327.19	22.032
327.56	21.167
327.92	20.997
328.29	22.183
328.65	22.007
329.01	21.209
329.38	21.462
329.74	20.776
330.11	21.395
330.47	21.488
330.84	21.232
331.20	21.311
331.56	21.284
331.93	21.574
332.29	21.295
332.66	21.327
333.02	21.024
333.38	21.409
333.75	21.480
334.11	22.064
334.48	20.763
334.84	21.232
335.20	21.000
335.57	20.490
335.93	19.821
336.29	21.886
336.66	21.190
337.02	19.548
337.38	21.296
337.75	20.143
338.11	20.680
338.47	19.613
338.84	20.073
339.20	19.908
339.56	22.263
339.93	20.455
340.29	19.565
340.65	20.053
341.02	20.768
341.38	21.174
341.74	19.211
342.11	20.961
342.47	19.912
342.83	19.777
343.20	20.866
343.56	20.472
343.92	19.825
344.28	21.003
344.65	19.433
345.01	19.276
345.37	20.326
345.73	20.389
346.10	20.205
346.46	19.915
346.82	20.593
347.19	19.632
347.55	18.555
347.91	20.227
348.27	20.707
348.63	20.736
349.00	18.366
349.36	19.787
349.72	19.888
350.08	19.773
350.45	20.342
350.81	20.390
351.17	21.475
351.53	19.984
351.89	18.894
352.26	19.811
352.62	19.727
352.98	19.206
353.34	20.049
353.70	18.903
354.07	18.871
354.43	19.683
354.79	18.745
355.15	19.314
355.51	19.584
355.87	18.776
356.24	19.218
356.60	19.006
356.96	19.308
357.32	19.052
357.68	19.764
358.04	18.606
358.40	19.002
358.77	19.484
359.13	18.074
359.49	18.824
359.85	19.127
360.21	18.660
360.57	19.611
360.93	19.000
361.29	19.350
361.66	17.957
362.02	18.657
362.38	18.859
362.74	19.271
363.10	17.469
363.46	17.975
363.82	18.745
364.18	18.355
364.54	19.316
364.90	19.618
365.26	18.235
365.62	18.919
365.98	18.554
366.35	18.123
366.71	19.089
367.07	18.572
367.43	19.811
367.79	18.986
368.15	18.534
368.51	17.805
368.87	18.701
369.23	19.093
369.59	18.827
369.95	18.309
370.31	18.875
370.67	17.536
371.03	20.225
371.39	19.388
371.75	18.529
372.11	18.706
372.47	18.548
372.83	19.308
373.19	18.497
373.55	18.921
373.91	19.735
374.27	18.625
374.63	17.309
374.99	19.209
375.35	17.516
375.71	18.574
376.07	18.656
376.42	18.157
376.78	18.555
377.14	18.996
377.50	18.411
377.86	19.082
378.22	18.331
378.58	17.544
378.94	18.228
379.30	18.830
379.66	18.718
380.02	18.612
380.38	18.094
380.74	19.388
381.09	18.276
381.45	18.931
381.81	18.612
382.17	18.662
382.53	18.239
382.89	18.827
383.25	18.199
383.61	18.463
383.97	19.637
384.32	18.403
384.68	18.340
385.04	18.623
385.40	18.762
385.76	18.305
386.12	19.365
386.48	19.257
386.83	18.666
387.19	19.109
387.55	18.924
387.91	19.166
388.27	18.639
388.62	18.931
388.98	18.366
389.34	19.274
389.70	19.191
390.06	19.455
390.42	18.807
390.77	18.511
391.13	19.336
391.49	18.528
391.85	19.096
392.20	17.603
392.56	18.434
392.92	19.070
393.28	17.574
393.64	19.065
393.99	19.181
394.35	18.672
394.71	18.632
395.07	17.570
395.42	18.603
395.78	19.020
396.14	18.374
396.50	19.173
396.85	18.881
397.21	18.866
397.57	18.909
397.92	18.089
398.28	18.386
398.64	18.817
399.00	18.019
399.35	18.274
399.71	18.808
400.07	19.160
400.42	19.080
400.78	19.300
401.14	18.780
401.49	18.269
401.85	18.270
402.21	18.802
402.57	18.137
402.92	18.663
403.28	17.926
403.63	18.626
403.99	18.153
404.35	18.242
404.70	18.345
405.06	18.346
405.42	17.966
405.77	18.457
406.13	17.889
406.49	19.397
406.84	18.015
407.20	18.381
407.55	18.060
407.91	17.600
408.27	18.188
408.62	17.700
408.98	18.260
409.34	18.143
409.69	18.903
410.05	18.649
410.40	18.349
410.76	18.519
411.11	18.758
411.47	18.466
411.83	19.059
412.18	18.120
412.54	17.684
412.89	18.193
413.25	18.359
413.60	18.468
413.96	17.547
414.31	18.287
414.67	18.124
415.03	17.682
415.38	18.428
415.74	18.778
416.09	18.027
416.45	18.809
416.80	17.383
417.16	19.169
417.51	19.244
417.87	17.855
418.22	17.792
418.58	17.883
418.93	17.936
419.29	18.141
419.64	18.703
420.00	18.476
420.35	18.377
420.71	18.410
421.06	17.661
421.42	17.895
421.77	18.105
422.12	18.136
422.48	16.945
422.83	17.938
423.19	18.453
423.54	18.166
423.90	18.145
424.25	18.090
424.61	16.726
424.96	18.309
425.31	17.996
425.67	17.865
426.02	17.486
426.38	19.109
426.73	17.671
427.09	17.812
427.44	18.229
427.79	18.171
428.15	17.619
428.50	18.607
428.85	18.594
429.21	18.112
429.56	17.989
429.92	18.369
430.27	17.875
430.62	17.460
430.98	18.371
431.33	17.990
431.68	18.377
432.04	18.317
432.39	18.218
432.74	18.791
433.10	18.676
433.45	18.542
433.80	17.738
434.16	18.643
434.51	18.053
434.86	18.073
435.22	18.677
435.57	18.784
435.92	18.081
436.28	18.268
436.63	18.653
436.98	17.401
437.34	16.875
437.69	18.903
438.04	18.437
438.39	18.149
438.75	19.756
439.10	18.101
439.45	18.418
439.81	18.550
440.16	17.617
440.51	18.629
440.86	18.819
441.22	18.131
441.57	17.941
441.92	17.912
442.27	19.107
442.63	18.167
442.98	19.211
443.33	18.750
443.68	18.431
444.03	18.253
444.39	18.014
444.74	18.398
445.09	18.383
445.44	19.027
445.79	19.198
446.15	18.846
446.50	17.663
446.85	18.705
447.20	18.409
447.55	18.928
447.91	18.533
448.26	18.865
448.61	18.994
448.96	18.992
449.31	19.741
449.66	18.627
450.02	18.329
450.37	18.141
450.72	18.838
451.07	18.464
451.42	18.055
451.77	19.143
452.12	18.764
452.47	18.843
452.83	18.706
453.18	18.460
453.53	19.233
453.88	17.070
454.23	18.051
454.58	18.716
454.93	18.055
455.28	18.267
455.63	19.114
455.98	20.000
456.34	17.776
456.69	18.723
457.04	19.195
457.39	18.469
457.74	19.327
458.09	18.919
458.44	18.814
458.79	19.089
459.14	19.018
459.49	18.622
459.84	19.169
460.19	17.914
460.54	18.229
460.89	18.486
461.24	19.369
461.59	19.465
461.94	18.866
462.29	18.991
462.64	17.741
462.99	17.892
463.34	19.467
463.69	18.824
464.04	19.188
464.39	18.435
464.74	18.241
465.09	18.758
465.44	18.560
465.79	18.680
466.14	18.774
466.49	18.242
466.84	18.739
467.19	18.829
467.54	18.875
467.89	18.007
468.24	19.663
468.59	18.987
468.94	18.326
469.29	18.702
469.64	19.880
469.99	19.283
470.34	17.900
470.68	19.325
471.03	17.823
471.38	19.110
471.73	19.254
472.08	18.684
472.43	19.410
472.78	18.828
473.13	18.742
473.48	19.226
473.83	18.902
474.17	18.855
474.52	18.300
474.87	19.323
475.22	19.095
475.57	18.485
475.92	19.331
476.27	18.940
476.61	18.974
476.96	18.637
477.31	18.629
477.66	19.475
478.01	19.132
478.36	19.672
478.70	18.536
479.05	19.010
479.40	19.601
479.75	18.353
480.10	18.539
480.45	18.467
480.79	18.538
481.14	19.080
481.49	18.130
481.84	18.427
482.19	19.264
482.53	18.578
482.88	19.218
483.23	18.785
483.58	18.926
483.92	18.791
484.27	17.821
484.62	18.664
484.97	18.408
485.31	19.007
485.66	17.748
486.01	17.612
486.36	17.338
486.70	17.606
487.05	18.042
487.40	18.054
487.75	18.154
488.09	18.441
488.44	18.412
488.79	18.698
489.13	18.717
489.48	18.638
489.83	18.817
490.17	19.071
490.52	18.335
490.87	17.910
491.22	18.645
491.56	18.269
491.91	18.613
492.26	17.915
492.60	18.710
492.95	18.428
493.30	18.037
493.64	19.132
493.99	18.477
494.34	18.640
494.68	18.452
495.03	18.891
495.37	18.474
495.72	18.324
496.07	18.933
496.41	18.053
496.76	19.041
497.11	18.865
497.45	18.724
497.80	18.810
498.14	18.068
498.49	17.756
498.84	18.744
499.18	18.619
499.53	18.519
499.87	18.733
500.22	18.653
500.56	19.466
500.91	17.596
501.26	18.682
501.60	18.462
501.95	18.698
502.29	19.072
502.64	18.994
502.98	18.747
503.33	18.327
503.67	19.165
504.02	18.428
504.36	18.999
504.71	18.613
505.06	18.602
505.40	18.911
505.75	17.743
506.09	18.610
506.44	18.007
506.78	18.266
507.13	18.980
507.47	18.535
507.82	19.048
508.16	19.453
508.51	19.381
508.85	18.173
509.19	18.980
509.54	18.469
509.88	18.496
510.23	18.869
510.57	19.195
510.92	18.799
511.26	18.808
511.61	19.606
511.95	18.528
512.30	18.664
512.64	18.592
512.98	19.078
513.33	19.165
513.67	18.463
514.02	18.452
514.36	18.569
514.70	18.594
515.05	19.297
515.39	19.069
515.74	18.863
516.08	19.508
516.42	19.145
516.77	19.454
517.11	18.590
517.46	19.131
517.80	18.641
518.14	18.587
518.49	19.778
518.83	19.375
519.17	19.688
519.52	19.128
519.86	19.338
520.20	19.595
520.55	19.210
520.89	19.891
521.23	19.843
521.58	18.848
521.92	20.147
522.26	18.121
522.61	19.315
522.95	19.521
523.29	18.807
523.64	19.695
523.98	19.347
524.32	19.059
524.66	18.701
525.01	19.056
525.35	18.525
525.69	18.658
526.04	19.252
526.38	19.402
526.72	19.202
527.06	19.021
527.41	18.255
527.75	19.357
528.09	18.626
528.43	18.674
528.78	19.238
529.12	19.394
529.46	19.657
529.80	19.431
530.15	20.187
530.49	18.462
530.83	19.114
531.17	19.974
531.51	19.715
531.86	19.613
532.20	19.883
532.54	20.243
532.88	19.641
533.22	18.676
533.57	19.568
533.91	20.169
534.25	19.198
534.59	19.524
534.93	19.572
535.27	18.648
535.62	19.353
535.96	18.581
536.30	18.500
536.64	19.189
536.98	19.177
537.32	19.421
537.66	19.000
538.01	19.289
538.35	19.005
538.69	19.145
539.03	17.934
539.37	18.978
539.71	18.017
540.05	19.150
540.39	19.867
540.73	19.017
541.07	19.922
541.42	19.178
541.76	19.484
542.10	19.534
542.44	18.940
542.78	19.302
543.12	18.682
543.46	19.803
543.80	19.974
544.14	18.164
544.48	19.746
544.82	18.409
545.16	19.128
545.50	19.344
545.84	18.280
546.18	18.721
546.52	19.064
546.86	19.313
547.20	19.690
547.54	18.971
547.88	20.599
548.22	19.178
548.56	18.742
548.90	18.886
549.24	18.384
549.58	19.304
549.92	19.299
550.26	19.460
550.60	18.465
550.94	19.014
551.28	18.947
551.62	19.626
551.96	18.807
552.30	19.317
552.64	19.202
552.98	18.983
553.32	19.083
553.66	20.382
554.00	19.835
554.34	18.150
554.68	19.456
555.02	18.547
555.36	18.650
555.69	18.471
556.03	19.515
556.37	19.031
556.71	18.486
557.05	19.398
557.39	17.985
557.73	18.490
558.07	18.999
558.41	19.247
558.75	18.883
559.08	19.612
559.42	19.501
559.76	18.015
560.10	19.129
560.44	18.798
560.78	18.829
561.12	18.865
561.45	19.231
561.79	18.985
562.13	18.645
562.47	18.648
562.81	18.340
563.15	18.462
563.48	18.767
563.82	18.069
564.16	19.359
564.50	18.099
564.84	18.521
565.17	19.176
565.51	19.681
565.85	18.528
566.19	18.159
566.52	19.126
566.86	18.324
567.20	19.163
567.54	18.550
567.88	18.848
568.21	18.889
568.55	18.504
568.89	18.191
569.23	18.672
569.56	17.895
569.90	19.057
570.24	18.622
570.57	18.293
570.91	17.485
571.25	17.974
571.59	17.467
571.92	18.289
572.26	17.851
572.60	18.078
572.93	17.781
573.27	18.219
573.61	17.979
573.95	18.140
574.28	18.166
574.62	17.590
574.96	17.276
575.29	17.532
575.63	17.226
575.97	17.339
576.30	18.216
576.64	17.892
576.98	17.623
577.31	17.699
577.65	17.698
577.98	17.933
578.32	17.276
578.66	17.568
578.99	17.827
579.33	17.865
579.67	17.514
580.00	17.646
580.34	17.584
580.67	17.703
581.01	17.922
581.35	17.509
581.68	17.686
582.02	17.439
582.35	17.486
582.69	17.927
583.02	17.284
583.36	17.478
583.70	17.882
584.03	17.947
584.37	17.997
584.70	18.495
585.04	17.857
585.37	18.103
585.71	18.210
586.04	17.927
586.38	17.973
586.72	18.531
587.05	17.550
587.39	17.335
587.72	17.495
588.06	17.823
588.39	18.052
588.73	17.630
589.06	18.105
589.40	18.114
589.73	18.585
590.07	18.719
590.40	17.757
590.73	18.189
591.07	18.641
591.40	18.895
591.74	18.874
592.07	18.237
592.41	18.520
592.74	17.566
593.08	18.055
593.41	18.190
593.75	17.739
594.08	18.069
594.41	17.745
594.75	18.004
595.08	17.717
595.42	18.109
595.75	18.162
596.09	17.987
596.42	18.468
596.75	18.700
597.09	18.788
597.42	17.707
597.75	18.327
598.09	18.522
598.42	18.643
598.76	18.200
599.09	17.636
599.42	17.722
599.76	18.302
600.09	18.251
600.42	18.006
600.76	17.893
601.09	17.741
601.42	18.341
601.76	18.406
602.09	18.221
602.42	18.432
602.76	18.904
603.09	18.332
603.42	18.079
603.76	18.178
604.09	17.875
604.42	18.916
604.76	18.515
605.09	18.785
605.42	18.085
605.75	18.129
606.09	18.259
606.42	17.940
606.75	18.208
607.09	18.585
607.42	18.571
607.75	17.932
608.08	18.411
608.42	18.467
608.75	17.719
609.08	18.085
609.41	18.991
609.75	17.913
610.08	19.321
610.41	18.156
610.74	18.307
611.07	18.676
611.41	18.008
611.74	19.005
612.07	18.478
612.40	17.786
612.73	18.368
613.07	18.588
613.40	18.378
613.73	17.462
614.06	18.118
614.39	17.934
614.72	19.000
615.06	18.908
615.39	18.047
615.72	18.661
616.05	17.544
616.38	18.121
616.71	18.646
617.05	18.198
617.38	18.761
617.71	18.498
618.04	18.870
618.37	18.273
618.70	18.917
619.03	19.934
619.36	18.601
619.69	18.521
620.03	20.055
620.36	19.318
620.69	18.699
621.02	19.174
621.35	18.481
621.68	19.081
622.01	17.570
622.34	18.457
622.67	18.783
623.00	18.635
623.33	17.798
623.66	19.299
623.99	18.925
624.32	17.404
624.65	18.644
624.99	17.918
625.32	19.189
625.65	19.159
625.98	18.294
626.31	19.907
626.64	19.265
626.97	18.371
627.30	18.204
627.63	19.196
627.96	19.008
628.29	19.335
628.62	19.030
628.95	21.792
629.28	20.164
629.61	20.990
629.94	19.619
630.26	19.638
630.59	20.019
630.92	18.008
631.25	18.954
631.58	19.319
631.91	18.154
632.24	19.831
632.57	18.888
632.90	18.640
