SpectraSuite Data File
++++++++++++++++++++++++++++++++++++
Date: Wed May 13 16:56:01 PDT 2015
User: schluterlab
Dark Spectrum Present: Yes
Reference Spectrum Present: Yes
Number of Sampled Component Spectra: 1
Spectrometers: USB2E3373
Integration Time (usec): 3000 (USB2E3373)
Spectra Averaged: 3 (USB2E3373)
Boxcar Smoothing: 0 (USB2E3373)
Correct for Electrical Dark: No (USB2E3373)
Strobe/Lamp Enabled: No (USB2E3373)
Correct for Detector Non-linearity: No (USB2E3373)
Correct for Stray Light: No (USB2E3373)
Number of Pixels in Processed Spectrum: 2048
>>>>>Begin Processed Spectral Data<<<<<
178.53	0.000
178.91	-1500.000
179.29	-1475.000
179.67	-255.556
180.04	-1275.000
180.42	2850.000
180.80	1100.000
181.18	-1050.000
181.56	714.286
181.94	0.000
182.31	-657.143
182.69	1800.000
183.07	-500.000
183.45	-522.222
183.83	581.818
184.20	-420.000
184.58	2550.000
184.96	5600.000
185.34	-820.000
185.72	-612.500
186.09	-2350.000
186.47	2950.000
186.85	2550.000
187.23	5500.000
187.61	-1566.667
187.98	1275.000
188.36	454.545
188.74	509.091
189.12	-1100.000
189.49	600.000
189.87	-5200.000
190.25	-1125.000
190.63	371.429
191.00	407.692
191.38	800.000
191.76	-1275.000
192.14	1450.000
192.51	637.500
192.89	933.333
193.27	512.500
193.65	-1275.000
194.02	510.000
194.40	1020.000
194.78	540.000
195.15	475.000
195.53	670.000
195.91	-2600.000
196.29	406.250
196.66	336.842
197.04	-260.000
197.42	0.000
197.79	520.000
198.17	-4400.000
198.55	742.857
198.92	787.500
199.30	860.000
199.68	0.000
200.05	333.333
200.43	728.571
200.81	4400.000
201.18	1866.667
201.56	-1466.667
201.94	533.333
202.31	577.778
202.69	466.667
203.07	480.000
203.44	0.000
203.82	1400.000
204.19	785.714
204.57	421.429
204.95	675.000
205.32	1266.667
205.70	509.091
206.08	428.571
206.45	2250.000
206.83	375.000
207.20	1050.000
207.58	820.000
207.96	327.778
208.33	737.500
208.71	-866.667
209.08	785.714
209.46	644.444
209.84	381.818
210.21	-1233.333
210.59	1600.000
210.96	-525.000
211.34	1950.000
211.71	600.000
212.09	666.667
212.46	0.000
212.84	1600.000
213.22	1325.000
213.59	-5200.000
213.97	783.333
214.34	714.286
214.72	563.636
215.09	1180.000
215.47	-2400.000
215.84	-2350.000
216.22	1533.333
216.59	428.571
216.97	1225.000
217.34	527.273
217.72	-783.333
218.09	0.000
218.47	-4900.000
218.84	755.556
219.22	757.143
219.59	1733.333
219.97	-614.286
220.34	860.000
220.72	-1966.667
221.09	428.571
221.47	1375.000
221.84	-933.333
222.22	0.000
222.59	1475.000
222.97	-2450.000
223.34	1360.000
223.72	469.231
224.09	1180.000
224.46	2150.000
224.84	-4200.000
225.21	-920.000
225.59	-5100.000
225.96	610.000
226.34	310.000
226.71	2600.000
227.08	650.000
227.46	590.000
227.83	-1350.000
228.21	-2700.000
228.58	622.222
228.95	-2700.000
229.33	-2350.000
229.70	1600.000
230.08	857.143
230.45	-820.000
230.82	400.000
231.20	733.333
231.57	642.857
231.95	416.667
232.32	250.000
232.69	454.545
233.07	700.000
233.44	415.385
233.81	-1933.333
234.19	300.000
234.56	500.000
234.93	308.333
235.31	500.000
235.68	307.692
236.05	378.571
236.43	172.727
236.80	236.842
237.17	4500.000
237.55	228.571
237.92	192.857
238.29	266.667
238.67	164.516
239.04	231.034
239.41	119.444
239.79	108.696
240.16	114.286
240.53	118.182
240.91	76.471
241.28	94.000
241.65	106.000
242.02	102.899
242.40	82.258
242.77	85.000
243.14	68.817
243.51	80.899
243.89	67.059
244.26	62.222
244.63	65.591
245.00	52.128
245.38	49.505
245.75	45.794
246.12	47.706
246.49	55.474
246.87	52.000
247.24	43.846
247.61	45.000
247.98	42.484
248.36	35.135
248.73	41.401
249.10	44.586
249.47	36.723
249.84	43.316
250.22	31.016
250.59	34.320
250.96	32.828
251.33	33.175
251.70	33.663
252.08	30.000
252.45	28.700
252.82	27.826
253.19	30.638
253.56	27.451
253.94	30.705
254.31	28.516
254.68	31.154
255.05	29.520
255.42	28.049
255.79	27.206
256.16	24.188
256.54	24.735
256.91	29.537
257.28	21.223
257.65	29.043
258.02	26.398
258.39	26.183
258.76	18.395
259.14	22.917
259.51	24.620
259.88	20.186
260.25	21.148
260.62	20.809
260.99	24.224
261.36	22.523
261.73	21.777
262.10	19.186
262.47	25.070
262.85	22.841
263.22	19.088
263.59	21.937
263.96	19.231
264.33	19.843
264.70	23.158
265.07	22.762
265.44	19.444
265.81	19.465
266.18	20.101
266.55	20.488
266.92	19.902
267.29	20.833
267.66	21.789
268.03	19.318
268.40	20.327
268.77	15.752
269.14	15.766
269.51	21.445
269.88	19.580
270.25	18.284
270.62	19.326
270.99	20.860
271.36	20.601
271.73	18.224
272.10	18.261
272.47	20.215
272.84	19.913
273.21	20.335
273.58	17.904
273.95	17.400
274.32	19.628
274.69	18.415
275.06	16.732
275.43	18.723
275.80	18.236
276.17	17.108
276.54	16.632
276.91	17.984
277.28	16.406
277.65	16.634
278.02	17.184
278.39	18.750
278.76	18.000
279.13	17.358
279.50	18.808
279.87	18.127
280.23	17.964
280.60	16.828
280.97	16.266
281.34	17.168
281.71	16.727
282.08	16.507
282.45	15.636
282.82	16.341
283.19	14.973
283.56	15.614
283.92	16.751
284.29	14.815
284.66	15.064
285.03	15.552
285.40	16.549
285.77	14.141
286.14	17.617
286.51	17.500
286.87	16.581
287.24	14.332
287.61	13.965
287.98	17.532
288.35	14.422
288.72	14.798
289.08	14.710
289.45	15.980
289.82	16.748
290.19	14.914
290.56	13.783
290.93	13.897
291.29	14.877
291.66	12.094
292.03	15.843
292.40	14.684
292.77	13.905
293.13	14.328
293.50	15.598
293.87	15.259
294.24	14.815
294.60	12.955
294.97	13.663
295.34	14.810
295.71	14.062
296.08	12.678
296.44	13.618
296.81	12.021
297.18	12.466
297.55	10.686
297.91	10.686
298.28	13.387
298.65	14.491
299.02	12.253
299.38	12.882
299.75	11.590
300.12	12.133
300.48	11.750
300.85	13.194
301.22	14.013
301.59	10.480
301.95	11.461
302.32	12.067
302.69	12.903
303.05	11.152
303.42	11.605
303.79	12.118
304.15	10.606
304.52	10.545
304.89	10.685
305.25	10.325
305.62	12.911
305.99	10.980
306.35	12.640
306.72	11.996
307.09	13.984
307.45	13.514
307.82	10.603
308.19	12.252
308.55	12.298
308.92	11.708
309.29	11.299
309.65	10.710
310.02	11.311
310.38	9.892
310.75	11.616
311.12	11.566
311.48	12.226
311.85	11.635
312.22	11.863
312.58	12.162
312.95	13.622
313.31	11.845
313.68	12.266
314.05	14.201
314.41	11.859
314.78	13.494
315.14	13.208
315.51	12.976
315.87	13.168
316.24	13.704
316.61	12.768
316.97	12.916
317.34	11.840
317.70	14.627
318.07	14.918
318.43	13.405
318.80	16.401
319.16	14.972
319.53	14.634
319.89	16.190
320.26	16.200
320.62	16.270
320.99	16.970
321.35	16.566
321.72	17.146
322.08	17.966
322.45	19.403
322.81	19.283
323.18	20.520
323.54	19.852
323.91	20.189
324.27	19.407
324.64	20.969
325.00	20.379
325.37	22.748
325.73	22.621
326.10	20.918
326.46	23.297
326.83	23.555
327.19	24.167
327.56	23.780
327.92	25.284
328.29	25.466
328.65	27.072
329.01	25.812
329.38	26.549
329.74	27.147
330.11	26.390
330.47	27.548
330.84	28.125
331.20	28.142
331.56	27.431
331.93	27.407
332.29	27.595
332.66	28.142
333.02	28.428
333.38	28.726
333.75	28.431
334.11	28.381
334.48	28.926
334.84	28.217
335.20	28.818
335.57	28.105
335.93	28.125
336.29	28.571
336.66	28.584
337.02	28.959
337.38	29.722
337.75	27.629
338.11	28.469
338.47	30.018
338.84	29.881
339.20	29.817
339.56	30.109
339.93	28.636
340.29	28.986
340.65	29.055
341.02	28.534
341.38	30.160
341.74	29.123
342.11	29.694
342.47	29.339
342.83	29.709
343.20	28.658
343.56	28.307
343.92	29.912
344.28	29.252
344.65	29.923
345.01	29.966
345.37	28.216
345.73	28.511
346.10	29.582
346.46	29.153
346.82	28.336
347.19	27.151
347.55	27.586
347.91	28.317
348.27	29.992
348.63	28.846
349.00	28.479
349.36	29.146
349.72	29.030
350.08	27.958
350.45	29.048
350.81	29.082
351.17	29.335
351.53	28.911
351.89	27.805
352.26	28.650
352.62	28.549
352.98	28.282
353.34	29.910
353.70	28.642
354.07	28.710
354.43	28.095
354.79	27.836
355.15	28.811
355.51	29.736
355.87	28.735
356.24	29.642
356.60	27.666
356.96	27.675
357.32	29.027
357.68	29.449
358.04	29.533
358.40	30.008
358.77	29.108
359.13	28.571
359.49	28.157
359.85	27.698
360.21	28.309
360.57	28.794
360.93	28.538
361.29	28.269
361.66	28.173
362.02	28.731
362.38	28.517
362.74	29.390
363.10	28.645
363.46	28.393
363.82	28.647
364.18	28.928
364.54	29.495
364.90	28.612
365.26	29.559
365.62	28.926
365.98	27.757
366.35	28.367
366.71	28.923
367.07	29.570
367.43	28.882
367.79	29.336
368.15	29.310
368.51	28.052
368.87	28.979
369.23	29.554
369.59	29.327
369.95	28.824
370.31	28.276
370.67	29.348
371.03	29.963
371.39	29.446
371.75	28.015
372.11	28.521
372.47	29.619
372.83	30.548
373.19	29.697
373.55	30.007
373.91	29.529
374.27	28.385
374.63	28.509
374.99	29.520
375.35	29.239
375.71	29.061
376.07	30.658
376.42	29.161
376.78	29.357
377.14	30.054
377.50	29.073
377.86	28.657
378.22	29.330
378.58	28.697
378.94	28.913
379.30	29.135
379.66	29.251
380.02	29.914
380.38	28.476
380.74	29.532
381.09	29.034
381.45	30.608
381.81	30.467
382.17	29.809
382.53	28.365
382.89	29.321
383.25	28.393
383.61	29.740
383.97	29.456
384.32	29.195
384.68	29.182
385.04	30.240
385.40	29.102
385.76	29.115
386.12	29.534
386.48	30.334
386.83	30.019
387.19	31.231
387.55	30.860
387.91	29.081
388.27	29.430
388.62	29.748
388.98	29.853
389.34	30.538
389.70	29.123
390.06	29.404
390.42	30.415
390.77	29.707
391.13	31.142
391.49	29.505
391.85	29.153
392.20	28.580
392.56	29.040
392.92	29.076
393.28	29.112
393.64	29.496
393.99	29.505
394.35	30.335
394.71	30.301
395.07	28.972
395.42	29.543
395.78	29.071
396.14	29.485
396.50	29.574
396.85	29.053
397.21	28.730
397.57	30.068
397.92	29.928
398.28	28.924
398.64	29.689
399.00	28.428
399.35	28.483
399.71	28.530
400.07	29.154
400.42	28.466
400.78	29.011
401.14	28.780
401.49	29.552
401.85	28.736
402.21	28.802
402.57	27.884
402.92	29.823
403.28	29.731
403.63	29.270
403.99	28.471
404.35	28.667
404.70	28.837
405.06	28.072
405.42	28.322
405.77	28.171
406.13	28.104
406.49	29.273
406.84	29.238
407.20	27.778
407.55	28.653
407.91	28.867
408.27	28.909
408.62	27.815
408.98	28.125
409.34	28.475
409.69	28.516
410.05	28.377
410.40	28.196
410.76	27.479
411.11	28.468
411.47	27.859
411.83	28.345
412.18	27.767
412.54	28.269
412.89	27.771
413.25	27.686
413.60	27.301
413.96	26.776
414.31	28.129
414.67	28.707
415.03	28.874
415.38	28.479
415.74	27.974
416.09	27.956
416.45	27.979
416.80	28.222
417.16	28.284
417.51	29.197
417.87	27.617
418.22	28.644
418.58	28.664
418.93	27.580
419.29	27.562
419.64	27.834
420.00	27.561
420.35	28.580
420.71	27.914
421.06	26.909
421.42	27.193
421.77	27.354
422.12	26.951
422.48	25.958
422.83	27.897
423.19	28.066
423.54	27.394
423.90	28.116
424.25	27.359
424.61	27.560
424.96	27.522
425.31	27.132
425.67	26.124
426.02	27.371
426.38	27.961
426.73	27.150
427.09	26.626
427.44	27.257
427.79	26.740
428.15	27.857
428.50	26.975
428.85	27.294
429.21	27.775
429.56	26.283
429.92	26.673
430.27	27.061
430.62	25.960
430.98	26.985
431.33	26.392
431.68	26.649
432.04	26.198
432.39	27.013
432.74	27.110
433.10	27.391
433.45	26.997
433.80	27.162
434.16	26.709
434.51	25.579
434.86	26.796
435.22	26.292
435.57	27.356
435.92	27.794
436.28	27.284
436.63	26.932
436.98	26.789
437.34	27.728
437.69	27.713
438.04	25.745
438.39	26.746
438.75	27.193
439.10	26.704
439.45	27.981
439.81	25.921
440.16	25.918
440.51	27.065
440.86	26.404
441.22	25.806
441.57	26.433
441.92	26.305
442.27	26.426
442.63	26.119
442.98	27.155
443.33	25.815
443.68	25.865
444.03	26.110
444.39	25.560
444.74	26.082
445.09	26.631
445.44	26.080
445.79	25.977
446.15	26.522
446.50	25.633
446.85	26.619
447.20	25.854
447.55	26.633
447.91	26.089
448.26	26.322
448.61	25.438
448.96	26.744
449.31	26.997
449.66	25.211
450.02	24.791
450.37	25.567
450.72	26.001
451.07	25.777
451.42	25.532
451.77	26.483
452.12	26.328
452.47	25.498
452.83	25.991
453.18	25.733
453.53	26.531
453.88	25.989
454.23	25.822
454.58	26.348
454.93	26.128
455.28	25.748
455.63	25.607
455.98	26.667
456.34	26.005
456.69	25.736
457.04	26.749
457.39	26.476
457.74	25.363
458.09	26.740
458.44	26.169
458.79	24.132
459.14	26.072
459.49	26.095
459.84	25.208
460.19	24.750
460.54	25.116
460.89	25.233
461.24	25.987
461.59	25.218
461.94	25.462
462.29	26.231
462.64	26.228
462.99	25.504
463.34	26.667
463.69	25.453
464.04	25.623
464.39	24.580
464.74	25.015
465.09	25.090
465.44	25.152
465.79	24.720
466.14	24.959
466.49	24.694
466.84	25.219
467.19	25.468
467.54	25.688
467.89	25.450
468.24	25.189
468.59	25.763
468.94	24.924
469.29	25.578
469.64	26.104
469.99	25.643
470.34	25.231
470.68	25.790
471.03	24.898
471.38	24.948
471.73	25.383
472.08	25.855
472.43	25.942
472.78	24.885
473.13	25.481
473.48	25.780
473.83	25.793
474.17	25.202
474.52	25.558
474.87	25.044
475.22	25.131
475.57	24.825
475.92	23.845
476.27	24.070
476.61	24.600
476.96	23.804
477.31	23.705
477.66	24.289
478.01	23.785
478.36	24.907
478.70	24.714
479.05	24.441
479.40	23.849
479.75	25.114
480.10	23.658
480.45	23.941
480.79	23.459
481.14	23.973
481.49	24.964
481.84	23.503
482.19	24.489
482.53	23.853
482.88	23.732
483.23	23.879
483.58	24.113
483.92	24.321
484.27	22.789
484.62	23.233
484.97	23.059
485.31	23.493
485.66	22.714
486.01	21.426
486.36	21.205
486.70	20.498
487.05	21.132
487.40	21.731
487.75	22.234
488.09	22.809
488.44	22.515
488.79	23.617
489.13	23.759
489.48	23.491
489.83	23.306
490.17	23.016
490.52	22.586
490.87	22.931
491.22	23.420
491.56	22.415
491.91	23.081
492.26	23.427
492.60	23.456
492.95	22.732
493.30	22.944
493.64	23.005
493.99	23.120
494.34	23.173
494.68	23.352
495.03	23.073
495.37	22.755
495.72	22.612
496.07	23.805
496.41	22.168
496.76	22.559
497.11	23.323
497.45	23.521
497.80	23.273
498.14	22.560
498.49	22.293
498.84	22.915
499.18	22.429
499.53	22.507
499.87	22.926
500.22	22.986
500.56	23.786
500.91	22.644
501.26	23.092
501.60	22.781
501.95	22.227
502.29	23.196
502.64	22.393
502.98	22.113
503.33	22.578
503.67	22.691
504.02	22.451
504.36	22.461
504.71	23.156
505.06	23.084
505.40	22.411
505.75	22.420
506.09	21.769
506.44	22.743
506.78	23.234
507.13	22.615
507.47	23.182
507.82	22.948
508.16	22.847
508.51	23.491
508.85	22.939
509.19	22.755
509.54	23.112
509.88	22.411
510.23	22.365
510.57	22.755
510.92	22.475
511.26	23.073
511.61	23.133
511.95	22.129
512.30	22.375
512.64	22.569
512.98	22.562
513.33	22.537
513.67	22.679
514.02	22.565
514.36	23.157
514.70	23.243
515.05	22.978
515.39	23.163
515.74	22.691
516.08	22.694
516.42	22.752
516.77	22.631
517.11	22.420
517.46	23.646
517.80	23.693
518.14	21.946
518.49	23.337
518.83	22.841
519.17	23.037
519.52	22.750
519.86	22.533
520.20	23.179
520.55	23.399
520.89	23.723
521.23	23.643
521.58	23.469
521.92	23.637
522.26	22.636
522.61	23.489
522.95	22.345
523.29	23.007
523.64	23.476
523.98	23.167
524.32	23.341
524.66	22.730
525.01	24.081
525.35	22.119
525.69	22.845
526.04	23.178
526.38	22.941
526.72	22.393
527.06	22.411
527.41	21.597
527.75	23.987
528.09	22.479
528.43	22.945
528.78	23.356
529.12	23.333
529.46	22.964
529.80	22.834
530.15	22.368
530.49	22.338
530.83	23.228
531.17	23.303
531.51	24.060
531.86	23.355
532.20	23.859
532.54	23.703
532.88	22.401
533.22	22.798
533.57	23.333
533.91	22.878
534.25	22.965
534.59	22.758
534.93	22.606
535.27	22.752
535.62	23.321
535.96	22.724
536.30	22.250
536.64	23.310
536.98	23.026
537.32	23.107
537.66	22.867
538.01	22.712
538.35	23.142
538.69	23.548
539.03	22.417
539.37	21.789
539.71	20.868
540.05	22.353
540.39	22.525
540.73	22.704
541.07	23.686
541.42	23.288
541.76	22.452
542.10	23.480
542.44	22.980
542.78	24.440
543.12	22.265
543.46	23.410
543.80	23.032
544.14	22.401
544.48	22.857
544.82	22.450
545.16	22.511
545.50	22.494
545.84	22.110
546.18	22.357
546.52	22.918
546.86	22.268
547.20	22.657
547.54	23.046
547.88	23.724
548.22	22.042
548.56	22.453
548.90	21.511
549.24	22.155
549.58	22.101
549.92	22.665
550.26	23.366
550.60	22.130
550.94	23.169
551.28	21.873
551.62	22.430
551.96	22.316
552.30	22.867
552.64	22.853
552.98	22.576
553.32	22.859
553.66	22.699
554.00	23.473
554.34	22.705
554.68	22.604
555.02	22.214
555.36	22.338
555.69	22.463
556.03	22.678
556.37	22.306
556.71	22.033
557.05	22.479
557.39	22.813
557.73	22.512
558.07	23.133
558.41	22.359
558.75	23.145
559.08	23.415
559.42	21.995
559.76	22.353
560.10	21.984
560.44	22.572
560.78	22.023
561.12	21.966
561.45	22.099
561.79	22.281
562.13	21.730
562.47	21.926
562.81	22.036
563.15	21.806
563.48	22.480
563.82	21.265
564.16	21.779
564.50	21.419
564.84	21.681
565.17	21.300
565.51	21.789
565.85	22.145
566.19	20.789
566.52	21.976
566.86	21.760
567.20	22.465
567.54	20.890
567.88	21.021
568.21	21.799
568.55	20.728
568.89	21.012
569.23	20.276
569.56	20.526
569.90	20.491
570.24	19.232
570.57	19.959
570.91	19.554
571.25	19.179
571.59	19.087
571.92	19.038
572.26	19.555
572.60	19.520
572.93	19.070
573.27	19.580
573.61	19.430
573.95	19.664
574.28	19.271
574.62	19.339
574.96	18.590
575.29	18.623
575.63	19.258
575.97	19.136
576.30	19.437
576.64	19.004
576.98	19.349
577.31	19.016
577.65	19.218
577.98	18.898
578.32	18.288
578.66	18.847
578.99	18.740
579.33	18.688
579.67	18.463
580.00	19.108
580.34	18.842
580.67	19.144
581.01	19.316
581.35	18.675
581.68	18.616
582.02	18.366
582.35	18.336
582.69	18.382
583.02	18.414
583.36	18.930
583.70	19.331
584.03	18.861
584.37	19.236
584.70	19.357
585.04	19.154
585.37	18.733
585.71	18.914
586.04	18.748
586.38	19.279
586.72	19.056
587.05	18.772
587.39	18.918
587.72	19.299
588.06	19.264
588.39	18.656
588.73	18.862
589.06	19.788
589.40	19.394
589.73	19.535
590.07	19.466
590.40	19.474
590.73	20.141
591.07	20.391
591.40	20.413
591.74	20.433
592.07	20.244
592.41	19.967
592.74	19.963
593.08	19.454
593.41	19.203
593.75	18.926
594.08	19.108
594.41	19.583
594.75	19.593
595.08	19.184
595.42	20.035
595.75	19.338
596.09	19.677
596.42	20.354
596.75	19.840
597.09	20.173
597.42	19.224
597.75	19.922
598.09	19.783
598.42	19.459
598.76	19.254
599.09	18.928
599.42	19.250
599.76	19.363
600.09	18.725
600.42	19.102
600.76	18.679
601.09	19.126
601.42	19.406
601.76	18.937
602.09	18.933
602.42	19.427
602.76	19.669
603.09	19.591
603.42	19.446
603.76	19.512
604.09	19.116
604.42	19.649
604.76	20.245
605.09	19.659
605.42	18.982
605.75	18.916
606.09	18.625
606.42	19.003
606.75	19.784
607.09	19.548
607.42	19.512
607.75	19.325
608.08	19.192
608.42	19.722
608.75	19.297
609.08	19.519
609.41	19.800
609.75	19.438
610.08	19.133
610.41	19.088
610.74	20.341
611.07	19.615
611.41	20.658
611.74	20.664
612.07	20.031
612.40	20.094
612.73	19.842
613.07	19.828
613.40	20.116
613.73	19.455
614.06	19.946
614.39	20.399
614.72	20.632
615.06	19.538
615.39	19.958
615.72	19.632
616.05	19.777
616.38	20.623
616.71	21.140
617.05	20.789
617.38	21.106
617.71	20.420
618.04	20.974
618.37	19.338
618.70	20.348
619.03	21.711
619.36	20.706
619.69	21.408
620.03	20.604
620.36	20.856
620.69	21.301
621.02	21.681
621.35	22.240
621.68	21.807
622.01	20.898
622.34	20.499
622.67	20.684
623.00	19.663
623.33	21.372
623.66	20.944
623.99	21.060
624.32	20.471
624.65	20.551
624.99	20.113
625.32	21.289
625.65	21.412
625.98	23.290
626.31	21.384
626.64	21.959
626.97	21.530
627.30	21.613
627.63	21.165
627.96	21.615
628.29	21.347
628.62	22.781
628.95	23.585
629.28	22.354
629.61	22.273
629.94	21.905
630.26	22.688
630.59	22.593
630.92	20.307
