SpectraSuite Data File
++++++++++++++++++++++++++++++++++++
Date: Thu May 14 14:38:25 PDT 2015
User: schluterlab
Dark Spectrum Present: Yes
Reference Spectrum Present: Yes
Number of Sampled Component Spectra: 1
Spectrometers: USB2E3373
Integration Time (usec): 3000 (USB2E3373)
Spectra Averaged: 3 (USB2E3373)
Boxcar Smoothing: 0 (USB2E3373)
Correct for Electrical Dark: No (USB2E3373)
Strobe/Lamp Enabled: No (USB2E3373)
Correct for Detector Non-linearity: No (USB2E3373)
Correct for Stray Light: No (USB2E3373)
Number of Pixels in Processed Spectrum: 2048
>>>>>Begin Processed Spectral Data<<<<<
178.53	0.000
178.91	-257.143
179.29	-300.000
179.67	300.000
180.04	85.714
180.42	-40.000
180.80	-200.000
181.18	700.000
181.56	1500.000
181.94	-450.000
182.31	600.000
182.69	-533.333
183.07	750.000
183.45	-525.000
183.83	166.667
184.20	600.000
184.58	-1900.000
184.96	325.000
185.34	200.000
185.72	280.000
186.09	-11.111
186.47	-400.000
186.85	-240.000
187.23	166.667
187.61	800.000
187.98	-180.000
188.36	-175.000
188.74	225.000
189.12	533.333
189.49	112.500
189.87	162.500
190.25	211.111
190.63	320.000
191.00	44.444
191.38	0.000
191.76	175.000
192.14	283.333
192.51	-600.000
192.89	333.333
193.27	0.000
193.65	157.143
194.02	1000.000
194.40	257.143
194.78	-42.857
195.15	0.000
195.53	200.000
195.91	0.000
196.29	425.000
196.66	107.692
197.04	800.000
197.42	271.429
197.79	900.000
198.17	162.500
198.55	85.714
198.92	177.778
199.30	87.500
199.68	227.273
200.05	128.571
200.43	300.000
200.81	-200.000
201.18	0.000
201.56	-44.444
201.94	0.000
202.31	-666.667
202.69	77.778
203.07	-2300.000
203.44	166.667
203.82	200.000
204.19	91.667
204.57	150.000
204.95	150.000
205.32	800.000
205.70	-500.000
206.08	66.667
206.45	216.667
206.83	-120.000
207.20	183.333
207.58	100.000
207.96	-16.667
208.33	250.000
208.71	-83.333
209.08	416.667
209.46	0.000
209.84	-183.333
210.21	-750.000
210.59	-450.000
210.96	-300.000
211.34	400.000
211.71	62.500
212.09	800.000
212.46	0.000
212.84	150.000
213.22	200.000
213.59	325.000
213.97	220.000
214.34	366.667
214.72	-50.000
215.09	325.000
215.47	0.000
215.84	-85.714
216.22	-100.000
216.59	100.000
216.97	320.000
217.34	250.000
217.72	275.000
218.09	275.000
218.47	175.000
218.84	0.000
219.22	-300.000
219.59	111.765
219.97	80.000
220.34	-450.000
220.72	177.778
221.09	230.769
221.47	233.333
221.84	270.000
222.22	157.143
222.59	0.000
222.97	200.000
223.34	240.000
223.72	900.000
224.09	275.000
224.46	125.000
224.84	360.000
225.21	100.000
225.59	175.000
225.96	175.000
226.34	57.692
226.71	16.667
227.08	650.000
227.46	200.000
227.83	200.000
228.21	142.105
228.58	-125.000
228.95	-450.000
229.33	216.667
229.70	140.000
230.08	110.526
230.45	-120.000
230.82	566.667
231.20	185.714
231.57	91.667
231.95	90.909
232.32	145.455
232.69	145.000
233.07	300.000
233.44	82.353
233.81	70.000
234.19	116.667
234.56	86.364
234.93	86.207
235.31	57.895
235.68	111.111
236.05	70.000
236.43	123.077
236.80	148.000
237.17	92.593
237.55	57.576
237.92	80.000
238.29	58.065
238.67	22.727
239.04	25.000
239.41	28.571
239.79	21.739
240.16	27.778
240.53	32.609
240.91	17.647
241.28	34.426
241.65	28.358
242.02	21.622
242.40	23.077
242.77	22.667
243.14	13.415
243.51	1.316
243.89	10.256
244.26	23.762
244.63	16.667
245.00	19.626
245.38	17.544
245.75	0.000
246.12	12.698
246.49	7.752
246.87	15.000
247.24	15.894
247.61	12.500
247.98	11.409
248.36	11.728
248.73	5.521
249.10	13.661
249.47	14.428
249.84	18.325
250.22	6.736
250.59	13.333
250.96	10.909
251.33	8.163
251.70	8.974
252.08	9.583
252.45	6.557
252.82	9.504
253.19	6.250
253.56	5.703
253.94	5.385
254.31	9.848
254.68	9.790
255.05	9.772
255.42	5.782
255.79	4.531
256.16	9.272
256.54	3.311
256.91	7.541
257.28	6.885
257.65	5.096
258.02	4.425
258.39	5.413
258.76	8.563
259.14	8.046
259.51	8.069
259.88	6.799
260.25	6.944
260.62	6.849
260.99	7.650
261.36	9.115
261.73	5.836
262.10	4.396
262.47	7.775
262.85	8.838
263.22	4.935
263.59	2.368
263.96	7.928
264.33	3.836
264.70	5.679
265.07	6.921
265.44	8.163
265.81	6.250
266.18	5.669
266.55	6.920
266.92	1.822
267.29	7.221
267.66	6.208
268.03	5.459
268.40	5.010
268.77	2.506
269.14	0.661
269.51	5.044
269.88	7.172
270.25	6.237
270.62	6.751
270.99	6.869
271.36	5.743
271.73	5.894
272.10	6.212
272.47	5.210
272.84	7.631
273.21	5.010
273.58	6.452
273.95	4.231
274.32	4.183
274.69	3.675
275.06	5.861
275.43	3.882
275.80	5.467
276.17	3.704
276.54	5.410
276.91	3.936
277.28	5.425
277.65	6.463
278.02	5.515
278.39	6.703
278.76	3.866
279.13	5.142
279.50	6.014
279.87	5.367
280.23	3.169
280.60	4.407
280.97	5.757
281.34	3.735
281.71	6.261
282.08	4.651
282.45	4.583
282.82	4.396
283.19	4.039
283.56	3.279
283.92	5.556
284.29	6.793
284.66	4.598
285.03	1.603
285.40	6.182
285.77	4.489
286.14	5.191
286.51	3.805
286.87	3.791
287.24	4.669
287.61	5.680
287.98	3.776
288.35	3.254
288.72	5.030
289.08	5.710
289.45	4.586
289.82	4.518
290.19	4.167
290.56	5.775
290.93	3.994
291.29	4.270
291.66	5.234
292.03	2.985
292.40	4.354
292.77	3.908
293.13	4.736
293.50	3.548
293.87	4.161
294.24	5.333
294.60	6.068
294.97	2.550
295.34	6.146
295.71	3.657
296.08	3.488
296.44	4.044
296.81	4.750
297.18	4.483
297.55	3.892
297.91	3.203
298.28	3.555
298.65	4.637
299.02	4.841
299.38	4.005
299.75	4.089
300.12	3.009
300.48	3.456
300.85	4.724
301.22	4.922
301.59	2.283
301.95	3.955
302.32	5.444
302.69	3.943
303.05	3.591
303.42	4.545
303.79	4.167
304.15	3.996
304.52	4.968
304.89	4.398
305.25	4.348
305.62	3.762
305.99	4.639
306.35	3.730
306.72	4.654
307.09	3.553
307.45	4.762
307.82	4.339
308.19	4.541
308.55	5.786
308.92	4.382
309.29	4.885
309.65	4.191
310.02	4.059
310.38	3.740
310.75	4.951
311.12	5.753
311.48	3.324
311.85	5.318
312.22	5.598
312.58	5.728
312.95	5.067
313.31	5.691
313.68	6.227
314.05	6.414
314.41	7.559
314.78	6.540
315.14	6.987
315.51	6.833
315.87	7.111
316.24	7.123
316.61	7.549
316.97	7.421
317.34	6.878
317.70	8.384
318.07	6.790
318.43	8.759
318.80	9.281
319.16	9.785
319.53	7.027
319.89	8.677
320.26	9.964
320.62	9.929
320.99	9.603
321.35	10.074
321.72	11.256
322.08	9.919
322.45	10.840
322.81	10.830
323.18	10.796
323.54	10.690
323.91	12.367
324.27	12.306
324.64	13.350
325.00	12.189
325.37	13.268
325.73	13.306
326.10	13.625
326.46	13.599
326.83	15.612
327.19	15.039
327.56	15.020
327.92	14.319
328.29	14.597
328.65	14.154
329.01	15.228
329.38	15.164
329.74	16.952
330.11	17.551
330.47	17.270
330.84	16.624
331.20	18.000
331.56	17.071
331.93	17.657
332.29	17.797
332.66	17.608
333.02	17.420
333.38	17.450
333.75	17.677
334.11	18.682
334.48	18.894
334.84	18.607
335.20	17.045
335.57	20.236
335.93	18.843
336.29	17.887
336.66	18.839
337.02	18.478
337.38	19.983
337.75	19.504
338.11	19.260
338.47	18.693
338.84	19.205
339.20	18.871
339.56	19.522
339.93	18.801
340.29	19.404
340.65	18.573
341.02	20.192
341.38	19.078
341.74	19.209
342.11	19.308
342.47	18.904
342.83	19.243
343.20	19.133
343.56	18.284
343.92	19.055
344.28	19.453
344.65	19.845
345.01	20.203
345.37	19.362
345.73	18.394
346.10	19.579
346.46	18.908
346.82	19.925
347.19	20.092
347.55	19.651
347.91	19.242
348.27	18.892
348.63	19.802
349.00	19.463
349.36	19.628
349.72	18.973
350.08	18.425
350.45	20.989
350.81	19.155
351.17	18.797
351.53	19.939
351.89	20.349
352.26	18.955
352.62	18.955
352.98	18.168
353.34	18.372
353.70	19.183
354.07	19.300
354.43	19.514
354.79	19.297
355.15	19.647
355.51	19.810
355.87	19.372
356.24	19.163
356.60	18.773
356.96	18.755
357.32	17.844
357.68	18.814
358.04	18.189
358.40	19.030
358.77	20.175
359.13	19.202
359.49	19.405
359.85	18.709
360.21	19.440
360.57	18.162
360.93	19.887
361.29	19.018
361.66	18.320
362.02	19.276
362.38	19.677
362.74	19.483
363.10	19.807
363.46	19.114
363.82	19.531
364.18	19.986
364.54	19.848
364.90	19.130
365.26	18.966
365.62	20.267
365.98	19.061
366.35	19.732
366.71	19.796
367.07	19.756
367.43	19.567
367.79	19.708
368.15	20.669
368.51	20.298
368.87	20.183
369.23	20.000
369.59	19.809
369.95	20.014
370.31	20.392
370.67	20.289
371.03	20.291
371.39	19.342
371.75	19.670
372.11	19.444
372.47	20.311
372.83	20.615
373.19	21.348
373.55	19.783
373.91	19.427
374.27	19.793
374.63	20.907
374.99	20.292
375.35	20.455
375.71	20.065
376.07	20.981
376.42	20.655
376.78	21.566
377.14	20.711
377.50	20.430
377.86	20.998
378.22	21.677
378.58	21.165
378.94	20.657
379.30	21.207
379.66	20.988
380.02	21.062
380.38	21.083
380.74	21.521
381.09	21.487
381.45	21.023
381.81	21.136
382.17	21.200
382.53	21.053
382.89	22.009
383.25	21.747
383.61	20.891
383.97	21.201
384.32	22.010
384.68	20.708
385.04	22.094
385.40	22.451
385.76	22.450
386.12	22.023
386.48	21.412
386.83	22.110
387.19	21.958
387.55	21.890
387.91	22.089
388.27	22.575
388.62	22.795
388.98	21.884
389.34	22.687
389.70	22.080
390.06	22.143
390.42	22.169
390.77	23.540
391.13	22.359
391.49	22.585
391.85	22.727
392.20	22.539
392.56	24.040
392.92	23.228
393.28	22.388
393.64	22.179
393.99	21.848
394.35	22.722
394.71	22.874
395.07	21.916
395.42	22.673
395.78	24.132
396.14	23.173
396.50	22.506
396.85	23.256
397.21	22.308
397.57	22.556
397.92	23.310
398.28	22.433
398.64	22.769
399.00	21.990
399.35	22.827
399.71	23.043
400.07	23.133
400.42	22.526
400.78	23.032
401.14	22.823
401.49	23.764
401.85	23.256
402.21	23.754
402.57	23.181
402.92	22.636
403.28	23.009
403.63	22.912
403.99	22.387
404.35	22.399
404.70	23.343
405.06	23.478
405.42	22.717
405.77	23.828
406.13	23.393
406.49	23.423
406.84	23.213
407.20	23.086
407.55	22.592
407.91	23.570
408.27	22.850
408.62	23.386
408.98	23.912
409.34	23.460
409.69	24.289
410.05	22.685
410.40	24.304
410.76	22.995
411.11	24.255
411.47	23.956
411.83	24.045
412.18	25.060
412.54	24.481
412.89	23.807
413.25	23.251
413.60	23.607
413.96	24.417
414.31	24.646
414.67	24.687
415.03	24.492
415.38	23.770
415.74	24.496
416.09	24.553
416.45	24.421
416.80	24.296
417.16	25.160
417.51	25.654
417.87	24.647
418.22	24.611
418.58	23.668
418.93	24.447
419.29	25.586
419.64	25.150
420.00	24.332
420.35	24.256
420.71	24.756
421.06	24.669
421.42	24.828
421.77	24.987
422.12	24.524
422.48	25.192
422.83	25.465
423.19	25.040
423.54	25.000
423.90	25.456
424.25	24.907
424.61	24.684
424.96	25.371
425.31	26.115
425.67	24.906
426.02	24.848
426.38	25.545
426.73	25.279
427.09	26.586
427.44	25.123
427.79	24.986
428.15	24.600
428.50	26.180
428.85	26.005
429.21	26.915
429.56	25.222
429.92	24.865
430.27	26.217
430.62	25.794
430.98	25.627
431.33	25.806
431.68	26.102
432.04	25.800
432.39	26.781
432.74	26.199
433.10	26.825
433.45	25.585
433.80	26.502
434.16	27.066
434.51	27.184
434.86	26.927
435.22	26.674
435.57	26.651
435.92	26.711
436.28	26.962
436.63	27.471
436.98	25.926
437.34	27.339
437.69	27.243
438.04	26.705
438.39	26.651
438.75	26.895
439.10	28.066
439.45	27.446
439.81	27.062
440.16	27.131
440.51	27.313
440.86	26.237
441.22	26.849
441.57	27.621
441.92	27.449
442.27	27.172
442.63	27.422
442.98	28.228
443.33	28.459
443.68	27.899
444.03	27.422
444.39	26.676
444.74	29.045
445.09	26.761
445.44	27.871
445.79	27.634
446.15	27.287
446.50	27.597
446.85	27.189
447.20	27.224
447.55	27.040
447.91	27.853
448.26	27.326
448.61	27.790
448.96	27.843
449.31	27.572
449.66	28.322
450.02	28.217
450.37	28.023
450.72	28.041
451.07	28.417
451.42	28.018
451.77	27.015
452.12	27.709
452.47	28.223
452.83	28.716
453.18	26.970
453.53	28.030
453.88	27.719
454.23	28.475
454.58	27.684
454.93	28.701
455.28	27.995
455.63	28.027
455.98	28.324
456.34	27.739
456.69	28.336
457.04	28.723
457.39	27.217
457.74	27.964
458.09	27.018
458.44	28.017
458.79	27.127
459.14	27.687
459.49	26.825
459.84	28.017
460.19	27.818
460.54	28.336
460.89	28.216
461.24	28.161
461.59	27.061
461.94	26.526
462.29	27.828
462.64	27.580
462.99	29.002
463.34	28.618
463.69	26.729
464.04	28.516
464.39	27.466
464.74	27.537
465.09	27.855
465.44	27.253
465.79	28.556
466.14	27.827
466.49	27.842
466.84	27.548
467.19	28.092
467.54	27.438
467.89	28.103
468.24	27.756
468.59	26.636
468.94	27.040
469.29	26.875
469.64	28.481
469.99	27.342
470.34	27.537
470.68	27.888
471.03	27.898
471.38	27.861
471.73	26.983
472.08	27.411
472.43	27.092
472.78	27.897
473.13	27.876
473.48	28.036
473.83	28.729
474.17	27.315
474.52	27.360
474.87	27.741
475.22	28.056
475.57	26.999
475.92	26.879
476.27	27.529
476.61	27.570
476.96	27.372
477.31	27.327
477.66	27.545
478.01	26.690
478.36	27.368
478.70	26.946
479.05	27.710
479.40	27.641
479.75	26.993
480.10	27.049
480.45	26.664
480.79	26.122
481.14	26.746
481.49	26.988
481.84	27.589
482.19	27.140
482.53	27.460
482.88	27.603
483.23	27.257
483.58	26.725
483.92	26.640
484.27	26.842
484.62	26.073
484.97	26.788
485.31	26.223
485.66	25.385
486.01	24.820
486.36	25.547
486.70	25.996
487.05	26.506
487.40	25.772
487.75	26.565
488.09	26.374
488.44	25.801
488.79	26.509
489.13	26.684
489.48	25.282
489.83	25.835
490.17	25.597
490.52	26.642
490.87	25.973
491.22	25.910
491.56	26.408
491.91	26.210
492.26	25.617
492.60	26.192
492.95	25.845
493.30	26.401
493.64	26.281
493.99	25.746
494.34	25.653
494.68	25.525
495.03	25.947
495.37	26.320
495.72	25.669
496.07	25.635
496.41	25.311
496.76	25.188
497.11	25.817
497.45	24.514
497.80	25.589
498.14	25.170
498.49	25.322
498.84	25.686
499.18	25.731
499.53	25.964
499.87	25.582
500.22	25.378
500.56	24.696
500.91	25.538
501.26	25.909
501.60	25.409
501.95	25.054
502.29	25.186
502.64	24.923
502.98	25.410
503.33	24.795
503.67	24.771
504.02	25.000
504.36	25.380
504.71	25.126
505.06	25.193
505.40	25.091
505.75	25.182
506.09	24.954
506.44	25.580
506.78	25.183
507.13	25.311
507.47	25.296
507.82	24.337
508.16	24.570
508.51	24.519
508.85	24.516
509.19	24.822
509.54	25.408
509.88	24.526
510.23	25.255
510.57	25.133
510.92	24.867
511.26	23.810
511.61	23.998
511.95	24.109
512.30	24.225
512.64	24.388
512.98	24.812
513.33	24.546
513.67	24.630
514.02	25.703
514.36	24.399
514.70	24.948
515.05	23.775
515.39	24.357
515.74	24.496
516.08	24.670
516.42	25.589
516.77	23.712
517.11	23.672
517.46	24.125
517.80	25.441
518.14	23.721
518.49	24.024
518.83	24.375
519.17	23.910
519.52	24.109
519.86	24.076
520.20	23.749
520.55	23.877
520.89	23.874
521.23	23.953
521.58	24.181
521.92	23.569
522.26	23.253
522.61	24.074
522.95	23.818
523.29	23.793
523.64	23.823
523.98	23.617
524.32	23.381
524.66	23.051
525.01	22.140
525.35	23.033
525.69	23.840
526.04	23.020
526.38	23.908
526.72	23.183
527.06	23.167
527.41	23.032
527.75	22.684
528.09	23.318
528.43	23.327
528.78	22.312
529.12	22.534
529.46	22.541
529.80	22.483
530.15	22.957
530.49	21.293
530.83	22.314
531.17	22.700
531.51	22.864
531.86	23.137
532.20	22.805
532.54	22.083
532.88	21.455
533.22	22.510
533.57	21.696
533.91	22.110
534.25	22.329
534.59	21.437
534.93	21.675
535.27	21.408
535.62	21.603
535.96	21.267
536.30	21.387
536.64	22.643
536.98	21.894
537.32	22.037
537.66	21.522
538.01	21.269
538.35	20.585
538.69	20.613
539.03	20.907
539.37	21.849
539.71	21.502
540.05	21.043
540.39	21.455
540.73	20.765
541.07	20.662
541.42	20.496
541.76	21.056
542.10	20.386
542.44	20.219
542.78	20.195
543.12	21.156
543.46	20.513
543.80	20.144
544.14	20.766
544.48	20.626
544.82	20.168
545.16	20.095
545.50	20.551
545.84	20.086
546.18	20.556
546.52	20.637
546.86	20.126
547.20	20.547
547.54	20.474
547.88	20.374
548.22	20.000
548.56	19.251
548.90	19.761
549.24	20.426
549.58	20.189
549.92	19.260
550.26	19.806
550.60	19.336
550.94	20.181
551.28	19.340
551.62	20.553
551.96	20.129
552.30	19.439
552.64	19.913
552.98	19.464
553.32	19.871
553.66	19.936
554.00	20.113
554.34	20.528
554.68	19.432
555.02	19.054
555.36	20.513
555.69	18.450
556.03	19.105
556.37	19.962
556.71	19.721
557.05	19.361
557.39	19.044
557.73	19.022
558.07	19.205
558.41	19.468
558.75	19.202
559.08	19.624
559.42	18.656
559.76	19.199
560.10	18.486
560.44	18.272
560.78	18.812
561.12	19.335
561.45	18.856
561.79	18.681
562.13	19.162
562.47	18.064
562.81	18.354
563.15	19.066
563.48	19.640
563.82	18.077
564.16	18.050
564.50	18.772
564.84	18.584
565.17	18.412
565.51	18.872
565.85	17.993
566.19	17.339
566.52	18.022
566.86	18.166
567.20	16.857
567.54	17.738
567.88	18.349
568.21	18.083
568.55	17.170
568.89	17.839
569.23	17.068
569.56	17.038
569.90	16.964
570.24	16.762
570.57	16.806
570.91	16.075
571.25	16.083
571.59	16.671
571.92	16.338
572.26	16.384
572.60	16.790
572.93	16.671
573.27	16.325
573.61	15.987
573.95	16.412
574.28	16.048
574.62	15.803
574.96	15.615
575.29	16.083
575.63	15.431
575.97	16.168
576.30	15.692
576.64	15.939
576.98	15.604
577.31	15.791
577.65	16.199
577.98	16.039
578.32	15.609
578.66	15.718
578.99	15.564
579.33	16.096
579.67	15.684
580.00	15.711
580.34	15.816
580.67	14.916
581.01	15.448
581.35	15.527
581.68	15.315
582.02	15.472
582.35	15.176
582.69	15.241
583.02	15.436
583.36	15.239
583.70	15.383
584.03	15.215
584.37	15.107
584.70	15.281
585.04	15.601
585.37	15.334
585.71	15.318
586.04	14.883
586.38	15.390
586.72	15.092
587.05	14.863
587.39	15.482
587.72	15.215
588.06	14.773
588.39	15.459
588.73	15.000
589.06	15.745
589.40	15.151
589.73	15.071
590.07	15.418
590.40	15.585
590.73	15.412
591.07	15.748
591.40	15.280
591.74	15.103
592.07	15.997
592.41	15.063
592.74	15.264
593.08	15.318
593.41	15.573
593.75	15.287
594.08	14.905
594.41	15.321
594.75	15.244
595.08	14.738
595.42	14.935
595.75	15.370
596.09	15.080
596.42	15.156
596.75	15.322
597.09	16.040
597.42	15.058
597.75	15.092
598.09	14.722
598.42	16.285
598.76	14.635
599.09	14.703
599.42	14.549
599.76	14.724
600.09	15.015
600.42	14.882
600.76	14.333
601.09	14.371
601.42	14.384
601.76	14.793
602.09	15.261
602.42	14.795
602.76	15.424
603.09	14.941
603.42	15.065
603.76	14.271
604.09	15.366
604.42	14.972
604.76	14.384
605.09	14.160
605.42	14.793
605.75	14.231
606.09	14.222
606.42	14.922
606.75	14.243
607.09	14.900
607.42	14.836
607.75	14.967
608.08	14.680
608.42	14.510
608.75	14.884
609.08	15.110
609.41	14.116
609.75	14.821
610.08	14.424
610.41	14.783
610.74	14.790
611.07	14.876
611.41	15.202
611.74	15.427
612.07	15.054
612.40	14.829
612.73	14.572
613.07	14.572
613.40	14.822
613.73	14.251
614.06	14.720
614.39	15.403
614.72	15.284
615.06	14.100
615.39	14.355
615.72	15.071
616.05	15.104
616.38	15.489
616.71	15.099
617.05	14.430
617.38	15.516
617.71	15.659
618.04	14.247
618.37	14.863
618.70	15.385
619.03	15.591
619.36	14.858
619.69	15.567
620.03	14.940
620.36	15.031
620.69	14.929
621.02	15.420
621.35	16.183
621.68	15.835
622.01	14.804
622.34	14.017
622.67	15.120
623.00	13.428
623.33	14.134
623.66	15.305
623.99	14.681
624.32	15.789
624.65	15.187
624.99	14.434
625.32	15.611
625.65	15.442
625.98	13.831
626.31	15.450
626.64	15.897
626.97	14.404
627.30	14.806
627.63	13.503
627.96	16.742
628.29	14.942
628.62	15.113
628.95	15.425
629.28	15.378
629.61	14.731
629.94	14.393
630.26	14.915
630.59	15.285
630.92	15.671
631.25	16.905
631.58	15.819
631.91	15.276
632.24	15.946
632.57	15.180
632.90	15.045
633.23	15.816
633.56	15.408
633.89	13.946
634.22	15.281
634.55	16.493
634.88	14.610
635.20	16.685
635.53	16.158
635.86	15.168
636.19	17.073
636.52	16.034
636.85	15.526
637.18	15.489
637.51	15.699
