SpectraSuite Data File
++++++++++++++++++++++++++++++++++++
Date: Thu May 14 14:38:38 PDT 2015
User: schluterlab
Dark Spectrum Present: Yes
Reference Spectrum Present: Yes
Number of Sampled Component Spectra: 1
Spectrometers: USB2E3373
Integration Time (usec): 3000 (USB2E3373)
Spectra Averaged: 3 (USB2E3373)
Boxcar Smoothing: 0 (USB2E3373)
Correct for Electrical Dark: No (USB2E3373)
Strobe/Lamp Enabled: No (USB2E3373)
Correct for Detector Non-linearity: No (USB2E3373)
Correct for Stray Light: No (USB2E3373)
Number of Pixels in Processed Spectrum: 2048
>>>>>Begin Processed Spectral Data<<<<<
178.53	0.000
178.91	-71.429
179.29	200.000
179.67	1700.000
180.04	-7.143
180.42	-180.000
180.80	-180.000
181.18	1300.000
181.56	2300.000
181.94	-475.000
182.31	350.000
182.69	-300.000
183.07	500.000
183.45	-200.000
183.83	283.333
184.20	133.333
184.58	-1000.000
184.96	300.000
185.34	211.111
185.72	280.000
186.09	-100.000
186.47	-850.000
186.85	-140.000
187.23	177.778
187.61	500.000
187.98	-300.000
188.36	-325.000
188.74	75.000
189.12	566.667
189.49	137.500
189.87	212.500
190.25	211.111
190.63	420.000
191.00	100.000
191.38	0.000
191.76	50.000
192.14	250.000
192.51	-600.000
192.89	333.333
193.27	0.000
193.65	242.857
194.02	800.000
194.40	257.143
194.78	-128.571
195.15	0.000
195.53	218.182
195.91	0.000
196.29	600.000
196.66	161.538
197.04	1000.000
197.42	42.857
197.79	650.000
198.17	212.500
198.55	214.286
198.92	122.222
199.30	125.000
199.68	172.727
200.05	150.000
200.43	150.000
200.81	-28.571
201.18	0.000
201.56	-55.556
201.94	0.000
202.31	-433.333
202.69	66.667
203.07	-1400.000
203.44	166.667
203.82	425.000
204.19	108.333
204.57	333.333
204.95	225.000
205.32	800.000
205.70	-300.000
206.08	133.333
206.45	300.000
206.83	-240.000
207.20	350.000
207.58	20.000
207.96	150.000
208.33	300.000
208.71	-66.667
209.08	316.667
209.46	0.000
209.84	-83.333
210.21	-850.000
210.59	-200.000
210.96	-166.667
211.34	375.000
211.71	175.000
212.09	1500.000
212.46	0.000
212.84	-200.000
213.22	220.000
213.59	450.000
213.97	150.000
214.34	533.333
214.72	-133.333
215.09	100.000
215.47	0.000
215.84	-242.857
216.22	-50.000
216.59	160.000
216.97	200.000
217.34	625.000
217.72	287.500
218.09	75.000
218.47	300.000
218.84	0.000
219.22	-160.000
219.59	170.588
219.97	120.000
220.34	100.000
220.72	111.111
221.09	184.615
221.47	466.667
221.84	190.000
222.22	185.714
222.59	0.000
222.97	287.500
223.34	240.000
223.72	1900.000
224.09	200.000
224.46	300.000
224.84	300.000
225.21	114.286
225.59	300.000
225.96	250.000
226.34	26.923
226.71	-66.667
227.08	200.000
227.46	80.000
227.83	150.000
228.21	94.737
228.58	-112.500
228.95	-350.000
229.33	100.000
229.70	190.000
230.08	136.842
230.45	-70.000
230.82	400.000
231.20	100.000
231.57	200.000
231.95	145.455
232.32	163.636
232.69	100.000
233.07	350.000
233.44	111.765
233.81	60.000
234.19	127.778
234.56	86.364
234.93	89.655
235.31	78.947
235.68	77.778
236.05	50.000
236.43	103.846
236.80	80.000
237.17	59.259
237.55	63.636
237.92	-40.000
238.29	19.355
238.67	18.182
239.04	30.556
239.41	40.476
239.79	34.783
240.16	22.222
240.53	26.087
240.91	7.843
241.28	22.951
241.65	29.851
242.02	39.189
242.40	32.308
242.77	14.667
243.14	20.732
243.51	6.579
243.89	15.385
244.26	23.762
244.63	23.529
245.00	18.692
245.38	21.930
245.75	16.814
246.12	23.016
246.49	16.279
246.87	13.571
247.24	13.245
247.61	9.868
247.98	12.752
248.36	7.407
248.73	7.975
249.10	10.383
249.47	10.448
249.84	17.801
250.22	9.845
250.59	13.333
250.96	11.364
251.33	7.143
251.70	11.111
252.08	9.583
252.45	8.197
252.82	7.025
253.19	5.469
253.56	8.745
253.94	9.615
254.31	7.955
254.68	10.140
255.05	11.401
255.42	7.483
255.79	9.385
256.16	5.960
256.54	8.609
256.91	9.180
257.28	6.885
257.65	7.325
258.02	1.475
258.39	7.692
258.76	10.703
259.14	9.195
259.51	7.493
259.88	5.382
260.25	7.222
260.62	6.575
260.99	9.016
261.36	6.971
261.73	5.836
262.10	5.769
262.47	5.898
262.85	10.101
263.22	6.494
263.59	0.526
263.96	7.417
264.33	6.650
264.70	6.420
265.07	8.115
265.44	9.751
265.81	6.944
266.18	4.535
266.55	8.482
266.92	5.923
267.29	7.221
267.66	5.322
268.03	8.297
268.40	6.054
268.77	4.784
269.14	3.304
269.51	5.702
269.88	7.787
270.25	4.628
270.62	6.962
270.99	8.687
271.36	5.545
271.73	7.662
272.10	8.216
272.47	4.609
272.84	4.819
273.21	5.411
273.58	6.048
273.95	6.154
274.32	3.992
274.69	6.190
275.06	6.044
275.43	5.176
275.80	6.526
276.17	5.556
276.54	5.597
276.91	4.651
277.28	6.510
277.65	4.668
278.02	6.250
278.39	5.978
278.76	5.097
279.13	5.142
279.50	7.045
279.87	6.619
280.23	3.521
280.60	4.576
280.97	6.414
281.34	3.735
281.71	6.768
282.08	4.651
282.45	4.746
282.82	5.495
283.19	2.908
283.56	4.918
283.92	8.709
284.29	7.583
284.66	6.240
285.03	3.526
285.40	5.100
285.77	4.799
286.14	7.023
286.51	7.154
286.87	4.897
287.24	5.572
287.61	5.232
287.98	5.136
288.35	4.734
288.72	7.101
289.08	7.174
289.45	5.030
289.82	5.572
290.19	4.885
290.56	5.634
290.93	4.708
291.29	5.647
291.66	5.372
292.03	5.834
292.40	5.442
292.77	4.582
293.13	5.413
293.50	4.599
293.87	4.832
294.24	7.067
294.60	6.700
294.97	5.235
295.34	7.170
295.71	4.918
296.08	5.039
296.44	5.882
296.81	4.507
297.18	4.732
297.55	4.835
297.91	5.101
298.28	4.739
298.65	5.707
299.02	3.188
299.38	6.064
299.75	3.855
300.12	4.861
300.48	5.069
300.85	5.287
301.22	5.034
301.59	5.251
301.95	5.311
302.32	5.444
302.69	4.381
303.05	5.114
303.42	5.543
303.79	5.833
304.15	5.258
304.52	5.180
304.89	4.921
305.25	5.694
305.62	5.956
305.99	6.495
306.35	5.847
306.72	5.584
307.09	4.772
307.45	5.901
307.82	5.449
308.19	4.945
308.55	6.365
308.92	4.771
309.29	5.172
309.65	5.653
310.02	4.950
310.38	5.413
310.75	5.631
311.12	5.561
311.48	5.572
311.85	7.312
312.22	6.167
312.58	7.700
312.95	5.641
313.31	6.865
313.68	7.051
314.05	7.498
314.41	7.741
314.78	7.539
315.14	8.530
315.51	7.941
315.87	7.651
316.24	7.489
316.61	8.348
316.97	6.878
317.34	8.377
317.70	8.384
318.07	8.730
318.43	8.844
318.80	9.783
319.16	8.841
319.53	8.141
319.89	8.852
320.26	9.698
320.62	9.574
320.99	10.434
321.35	10.074
321.72	10.791
322.08	10.099
322.45	11.382
322.81	10.379
323.18	10.265
323.54	11.293
323.91	11.121
324.27	12.392
324.64	12.175
325.00	12.355
325.37	13.104
325.73	12.479
326.10	13.301
326.46	13.599
326.83	14.331
327.19	13.543
327.56	14.704
327.92	14.162
328.29	14.194
328.65	13.484
329.01	13.875
329.38	14.912
329.74	16.010
330.11	14.812
330.47	15.586
330.84	16.021
331.20	15.583
331.56	15.771
331.93	15.900
332.29	17.034
332.66	16.196
333.02	16.750
333.38	16.527
333.75	17.256
334.11	17.014
334.48	15.759
334.84	17.332
335.20	16.457
335.57	17.791
335.93	18.430
336.29	16.639
336.66	16.905
337.02	17.057
337.38	18.793
337.75	17.851
338.11	17.157
338.47	17.204
338.84	16.582
339.20	17.860
339.56	17.051
339.93	16.585
340.29	17.794
340.65	15.896
341.02	18.276
341.38	17.785
341.74	18.321
342.11	17.136
342.47	17.712
342.83	18.599
343.20	17.007
343.56	17.883
343.92	17.454
344.28	18.047
344.65	17.287
345.01	17.629
345.37	17.963
345.73	16.913
346.10	17.785
346.46	17.247
346.82	17.228
347.19	18.335
347.55	18.134
347.91	17.831
348.27	17.375
348.63	18.050
349.00	18.270
349.36	17.844
349.72	17.932
350.08	17.162
350.45	17.567
350.81	18.401
351.17	18.421
351.53	18.044
351.89	18.679
352.26	17.388
352.62	18.284
352.98	17.252
353.34	17.700
353.70	18.413
354.07	19.225
354.43	17.920
354.79	17.203
355.15	18.396
355.51	18.348
355.87	17.876
356.24	18.555
356.60	17.369
356.96	18.236
357.32	17.695
357.68	17.862
358.04	17.440
358.40	17.910
358.77	19.225
359.13	17.799
359.49	17.695
359.85	18.709
360.21	18.580
360.57	18.234
360.93	18.336
361.29	18.807
361.66	18.465
362.02	19.276
362.38	18.693
362.74	18.436
363.10	18.707
363.46	19.737
363.82	18.608
364.18	18.227
364.54	19.156
364.90	19.532
365.26	20.138
365.62	19.667
365.98	18.856
366.35	20.268
366.71	18.980
367.07	19.418
367.43	19.698
367.79	19.708
368.15	20.201
368.51	19.418
368.87	19.073
369.23	19.600
369.59	19.877
369.95	20.081
370.31	20.864
370.67	19.670
371.03	19.598
371.39	19.409
371.75	20.083
372.11	20.393
372.47	20.447
372.83	20.681
373.19	20.013
373.55	20.664
373.91	20.041
374.27	20.893
374.63	19.959
374.99	20.889
375.35	21.299
375.71	21.806
376.07	21.498
376.42	21.348
376.78	22.188
377.14	21.335
377.50	21.189
377.86	21.490
378.22	21.138
378.58	21.760
378.94	22.242
379.30	22.027
379.66	22.222
380.02	22.389
380.38	23.214
380.74	22.648
381.09	22.938
381.45	23.239
381.81	23.536
382.17	23.694
382.53	22.515
382.89	23.251
383.25	24.033
383.61	23.032
383.97	23.439
384.32	24.701
384.68	23.434
385.04	24.291
385.40	24.808
385.76	24.619
386.12	23.459
386.48	24.706
386.83	25.864
387.19	24.797
387.55	24.237
387.91	25.000
388.27	25.231
388.62	24.570
388.98	24.817
389.34	25.633
389.70	25.334
390.06	25.400
390.42	25.301
390.77	26.550
391.13	25.587
391.49	25.483
391.85	25.515
392.20	26.690
392.56	26.757
392.92	26.063
393.28	26.036
393.64	26.369
393.99	26.322
394.35	26.752
394.71	26.647
395.07	25.509
395.42	26.785
395.78	27.422
396.14	27.510
396.50	25.772
396.85	26.714
397.21	26.627
397.57	26.090
397.92	27.778
398.28	26.290
398.64	26.201
399.00	26.597
399.35	27.120
399.71	26.576
400.07	27.456
400.42	27.998
400.78	26.794
401.14	27.205
401.49	27.118
401.85	27.093
402.21	27.926
402.57	28.404
402.92	26.832
403.28	26.464
403.63	27.088
403.99	27.494
404.35	26.947
404.70	26.912
405.06	26.793
405.42	26.698
405.77	27.644
406.13	26.796
406.49	27.140
406.84	26.593
407.20	26.831
407.55	27.741
407.91	27.090
408.27	26.443
408.62	26.527
408.98	27.104
409.34	26.158
409.69	27.256
410.05	27.022
410.40	27.494
410.76	26.304
411.11	27.703
411.47	28.256
411.83	27.337
412.18	27.530
412.54	27.801
412.89	27.299
413.25	27.427
413.60	27.513
413.96	26.865
414.31	27.082
414.67	27.490
415.03	26.338
415.38	27.554
415.74	26.145
416.09	27.267
416.45	26.174
416.80	26.805
417.16	27.842
417.51	27.522
417.87	27.897
418.22	27.066
418.58	27.014
418.93	28.231
419.29	26.510
419.64	27.851
420.00	27.478
420.35	27.400
420.71	27.283
421.06	28.120
421.42	27.695
421.77	26.710
422.12	27.378
422.48	26.677
422.83	27.985
423.19	28.276
423.54	27.821
423.90	27.940
424.25	28.107
424.61	27.038
424.96	27.897
425.31	28.185
425.67	27.214
426.02	28.113
426.38	28.129
426.73	27.400
427.09	28.374
427.44	27.799
427.79	28.303
428.15	26.941
428.50	27.921
428.85	27.382
429.21	28.989
429.56	27.394
429.92	27.764
430.27	28.000
430.62	28.481
430.98	27.988
431.33	27.468
431.68	27.155
432.04	28.746
432.39	29.405
432.74	28.253
433.10	28.340
433.45	28.205
433.80	28.541
434.16	28.512
434.51	28.417
434.86	28.176
435.22	28.799
435.57	29.717
435.92	28.492
436.28	29.124
436.63	29.110
436.98	27.912
437.34	28.410
437.69	29.444
438.04	28.080
438.39	28.719
438.75	28.058
439.10	29.123
439.45	29.570
439.81	28.644
440.16	27.668
440.51	28.651
440.86	29.294
441.22	28.510
441.57	29.455
441.92	28.565
442.27	29.394
442.63	29.508
442.98	29.296
443.33	29.353
443.68	29.237
444.03	29.821
444.39	29.450
444.74	29.199
445.09	28.738
445.44	29.715
445.79	30.364
446.15	29.959
446.50	29.509
446.85	30.350
447.20	30.077
447.55	29.707
447.91	29.005
448.26	29.545
448.61	29.277
448.96	30.687
449.31	29.692
449.66	29.085
450.02	30.643
450.37	30.101
450.72	29.171
451.07	30.296
451.42	29.694
451.77	28.683
452.12	29.966
452.47	29.649
452.83	30.462
453.18	30.006
453.53	29.638
453.88	29.266
454.23	29.718
454.58	30.470
454.93	30.036
455.28	30.343
455.63	29.392
455.98	29.888
456.34	30.271
456.69	29.806
457.04	31.265
457.39	30.044
457.74	30.872
458.09	30.203
458.44	30.119
458.79	29.448
459.14	30.572
459.49	30.673
459.84	29.958
460.19	30.261
460.54	29.869
460.89	30.545
461.24	30.172
461.59	29.828
461.94	30.291
462.29	29.731
462.64	30.597
462.99	30.571
463.34	31.862
463.69	30.363
464.04	31.518
464.39	30.381
464.74	29.704
465.09	30.219
465.44	30.311
465.79	30.513
466.14	30.641
466.49	29.947
466.84	30.413
467.19	30.520
467.54	29.612
467.89	29.425
468.24	29.695
468.59	29.531
468.94	29.371
469.29	29.094
469.64	29.943
469.99	30.210
470.34	29.270
470.68	30.622
471.03	29.666
471.38	30.739
471.73	30.819
472.08	31.599
472.43	30.885
472.78	31.108
473.13	29.836
473.48	30.876
473.83	31.457
474.17	29.953
474.52	31.209
474.87	30.233
475.22	30.592
475.57	29.907
475.92	30.264
476.27	30.192
476.61	30.010
476.96	29.771
477.31	30.594
477.66	29.801
478.01	30.198
478.36	29.711
478.70	30.542
479.05	30.521
479.40	30.010
479.75	30.451
480.10	30.649
480.45	29.900
480.79	29.977
481.14	30.101
481.49	29.805
481.84	30.244
482.19	29.806
482.53	30.695
482.88	30.040
483.23	30.502
483.58	30.044
483.92	29.388
484.27	31.245
484.62	30.611
484.97	29.977
485.31	29.426
485.66	28.977
486.01	28.920
486.36	29.068
486.70	29.785
487.05	29.913
487.40	30.067
487.75	29.898
488.09	30.065
488.44	29.470
488.79	30.118
489.13	30.087
489.48	29.903
489.83	30.181
490.17	29.243
490.52	30.378
490.87	29.949
491.22	30.243
491.56	30.290
491.91	29.830
492.26	29.511
492.60	29.515
492.95	30.189
493.30	29.807
493.64	29.785
493.99	30.044
494.34	29.617
494.68	30.278
495.03	30.264
495.37	30.981
495.72	30.159
496.07	29.930
496.41	30.373
496.76	31.109
497.11	30.743
497.45	30.557
497.80	29.942
498.14	29.841
498.49	30.561
498.84	30.393
499.18	30.229
499.53	31.121
499.87	30.813
500.22	29.964
500.56	30.049
500.91	30.892
501.26	30.636
501.60	29.739
501.95	30.829
502.29	30.803
502.64	30.783
502.98	30.328
503.33	29.849
503.67	29.743
504.02	29.685
504.36	31.099
504.71	30.593
505.06	30.559
505.40	30.941
505.75	30.874
506.09	30.571
506.44	30.826
506.78	30.734
507.13	31.166
507.47	30.270
507.82	30.587
508.16	30.880
508.51	30.755
508.85	30.515
509.19	31.265
509.54	31.220
509.88	30.355
510.23	30.792
510.57	31.609
510.92	31.592
511.26	30.399
511.61	29.744
511.95	30.307
512.30	31.364
512.64	30.285
512.98	29.865
513.33	31.149
513.67	30.444
514.02	30.761
514.36	31.509
514.70	30.781
515.05	31.543
515.39	31.076
515.74	32.185
516.08	30.851
516.42	32.025
516.77	31.493
517.11	30.376
517.46	30.859
517.80	31.267
518.14	31.338
518.49	32.213
518.83	31.187
519.17	30.587
519.52	31.499
519.86	32.049
520.20	31.629
520.55	30.887
520.89	32.151
521.23	30.988
521.58	32.881
521.92	32.011
522.26	31.844
522.61	32.465
522.95	32.065
523.29	31.609
523.64	30.493
523.98	32.459
524.32	32.550
524.66	32.043
525.01	31.993
525.35	31.591
525.69	30.452
526.04	31.401
526.38	31.379
526.72	32.814
527.06	31.554
527.41	31.195
527.75	30.938
528.09	31.995
528.43	32.031
528.78	31.387
529.12	31.537
529.46	32.378
529.80	31.922
530.15	31.710
530.49	31.495
530.83	31.759
531.17	31.541
531.51	31.107
531.86	32.933
532.20	32.744
532.54	31.897
532.88	31.636
533.22	32.115
533.57	31.448
533.91	31.257
534.25	30.413
534.59	33.103
534.93	32.088
535.27	32.056
535.62	31.723
535.96	32.016
536.30	31.786
536.64	32.492
536.98	31.611
537.32	32.654
537.66	32.377
538.01	32.205
538.35	32.826
538.69	31.190
539.03	32.189
539.37	32.214
539.71	32.673
540.05	31.835
540.39	32.335
540.73	31.390
541.07	32.495
541.42	31.187
541.76	31.851
542.10	31.906
542.44	30.572
542.78	32.664
543.12	32.062
543.46	32.723
543.80	31.175
544.14	31.957
544.48	32.092
544.82	32.136
545.16	31.902
545.50	31.995
545.84	31.721
546.18	32.963
546.52	32.866
546.86	32.390
547.20	32.188
547.54	31.336
547.88	32.791
548.22	31.520
548.56	31.773
548.90	32.896
549.24	31.733
549.58	33.312
549.92	31.569
550.26	32.427
550.60	31.461
550.94	32.730
551.28	32.409
551.62	32.278
551.96	32.362
552.30	32.441
552.64	32.670
552.98	33.500
553.32	33.312
553.66	33.119
554.00	32.598
554.34	31.467
554.68	32.021
555.02	32.392
555.36	32.610
555.69	30.365
556.03	31.904
556.37	32.603
556.71	32.276
557.05	32.716
557.39	32.250
557.73	31.506
558.07	31.523
558.41	32.292
558.75	32.184
559.08	33.125
559.42	32.510
559.76	33.175
560.10	33.356
560.44	32.322
560.78	32.813
561.12	32.020
561.45	33.394
561.79	31.990
562.13	33.641
562.47	31.073
562.81	32.595
563.15	32.513
563.48	32.256
563.82	32.285
564.16	31.738
564.50	32.956
564.84	32.861
565.17	33.176
565.51	31.991
565.85	32.185
566.19	32.028
566.52	32.183
566.86	31.919
567.20	32.572
567.54	32.501
567.88	31.957
568.21	32.213
568.55	32.998
568.89	32.002
569.23	32.404
569.56	31.653
569.90	31.789
570.24	31.568
570.57	31.623
570.91	30.925
571.25	31.443
571.59	31.283
571.92	30.837
572.26	31.498
572.60	31.040
572.93	30.838
573.27	31.076
573.61	31.419
573.95	31.391
574.28	31.044
574.62	30.719
574.96	30.657
575.29	30.800
575.63	30.099
575.97	30.802
576.30	30.743
576.64	30.804
576.98	30.797
577.31	31.121
577.65	31.180
577.98	30.723
578.32	30.925
578.66	30.682
578.99	30.739
579.33	31.125
579.67	31.346
580.00	30.704
580.34	30.694
580.67	30.671
581.01	31.069
581.35	31.034
581.68	31.180
582.02	31.238
582.35	31.223
582.69	31.475
583.02	31.732
583.36	31.382
583.70	31.925
584.03	30.910
584.37	30.857
584.70	31.149
585.04	31.086
585.37	30.822
585.71	31.305
586.04	31.132
586.38	31.360
586.72	31.336
587.05	31.133
587.39	31.439
587.72	31.531
588.06	31.504
588.39	31.765
588.73	31.534
589.06	31.885
589.40	32.114
589.73	31.973
590.07	32.560
590.40	32.421
590.73	31.919
591.07	33.098
591.40	32.309
591.74	32.671
592.07	32.562
592.41	31.782
592.74	31.913
593.08	32.070
593.41	32.429
593.75	32.213
594.08	32.142
594.41	32.404
594.75	31.850
595.08	32.234
595.42	32.662
595.75	32.096
596.09	31.989
596.42	32.712
596.75	32.767
597.09	33.253
597.42	31.824
597.75	32.262
598.09	31.984
598.42	32.851
598.76	31.448
599.09	32.716
599.42	31.646
599.76	31.859
600.09	32.666
600.42	31.999
600.76	32.332
601.09	32.227
601.42	32.235
601.76	32.552
602.09	32.309
602.42	32.461
602.76	32.214
603.09	32.342
603.42	32.695
603.76	32.171
604.09	32.896
604.42	31.890
604.76	32.154
605.09	32.748
605.42	32.656
605.75	32.423
606.09	32.960
606.42	31.923
606.75	32.196
607.09	31.298
607.42	32.254
607.75	32.395
608.08	32.557
608.42	32.487
608.75	32.297
609.08	32.173
609.41	31.981
609.75	32.946
610.08	34.037
610.41	31.818
610.74	32.521
611.07	32.549
611.41	33.587
611.74	33.672
612.07	32.772
612.40	33.080
612.73	33.594
613.07	33.545
613.40	33.446
613.73	33.847
614.06	33.268
614.39	32.264
614.72	33.236
615.06	32.820
615.39	33.156
615.72	33.270
616.05	33.026
616.38	33.502
616.71	34.169
617.05	32.535
617.38	33.333
617.71	33.963
618.04	34.161
618.37	34.481
618.70	34.729
619.03	33.513
619.36	33.847
619.69	33.953
620.03	34.087
620.36	33.252
620.69	34.115
621.02	34.055
621.35	35.196
621.68	35.069
622.01	33.879
622.34	33.961
622.67	34.364
623.00	32.726
623.33	33.577
623.66	35.344
623.99	34.233
624.32	34.568
624.65	33.269
624.99	34.980
625.32	35.467
625.65	34.187
625.98	33.966
626.31	33.806
626.64	34.799
626.97	33.758
627.30	34.472
627.63	33.533
627.96	36.562
628.29	34.630
628.62	34.677
628.95	35.583
629.28	34.749
629.61	35.269
629.94	34.142
630.26	35.763
630.59	35.147
630.92	34.805
631.25	36.047
631.58	35.687
631.91	35.614
632.24	36.503
632.57	36.812
632.90	34.704
633.23	35.714
633.56	34.898
633.89	35.124
634.22	36.175
634.55	36.221
634.88	35.606
635.20	38.105
635.53	37.514
635.86	36.295
636.19	37.858
636.52	35.759
636.85	35.546
637.18	35.551
637.51	35.699
