SpectraSuite Data File
++++++++++++++++++++++++++++++++++++
Date: Thu May 14 14:38:22 PDT 2015
User: schluterlab
Dark Spectrum Present: Yes
Reference Spectrum Present: Yes
Number of Sampled Component Spectra: 1
Spectrometers: USB2E3373
Integration Time (usec): 3000 (USB2E3373)
Spectra Averaged: 3 (USB2E3373)
Boxcar Smoothing: 0 (USB2E3373)
Correct for Electrical Dark: No (USB2E3373)
Strobe/Lamp Enabled: No (USB2E3373)
Correct for Detector Non-linearity: No (USB2E3373)
Correct for Stray Light: No (USB2E3373)
Number of Pixels in Processed Spectrum: 2048
>>>>>Begin Processed Spectral Data<<<<<
178.53	0.000
178.91	-128.571
179.29	100.000
179.67	1700.000
180.04	64.286
180.42	-170.000
180.80	-80.000
181.18	400.000
181.56	1800.000
181.94	-600.000
182.31	175.000
182.69	-633.333
183.07	950.000
183.45	-400.000
183.83	83.333
184.20	633.333
184.58	-1600.000
184.96	475.000
185.34	166.667
185.72	240.000
186.09	-55.556
186.47	-450.000
186.85	-100.000
187.23	133.333
187.61	1100.000
187.98	-300.000
188.36	-400.000
188.74	500.000
189.12	700.000
189.49	112.500
189.87	75.000
190.25	188.889
190.63	220.000
191.00	188.889
191.38	0.000
191.76	375.000
192.14	266.667
192.51	-1000.000
192.89	450.000
193.27	0.000
193.65	342.857
194.02	700.000
194.40	285.714
194.78	-228.571
195.15	0.000
195.53	218.182
195.91	0.000
196.29	250.000
196.66	107.692
197.04	1000.000
197.42	171.429
197.79	500.000
198.17	75.000
198.55	214.286
198.92	155.556
199.30	212.500
199.68	254.545
200.05	142.857
200.43	650.000
200.81	-42.857
201.18	0.000
201.56	-77.778
201.94	0.000
202.31	-466.667
202.69	100.000
203.07	-2400.000
203.44	100.000
203.82	300.000
204.19	166.667
204.57	250.000
204.95	125.000
205.32	800.000
205.70	-350.000
206.08	300.000
206.45	300.000
206.83	-260.000
207.20	333.333
207.58	120.000
207.96	200.000
208.33	333.333
208.71	-66.667
209.08	216.667
209.46	0.000
209.84	-183.333
210.21	-1000.000
210.59	-750.000
210.96	-233.333
211.34	575.000
211.71	162.500
212.09	1400.000
212.46	0.000
212.84	-0.000
213.22	40.000
213.59	450.000
213.97	150.000
214.34	266.667
214.72	-150.000
215.09	75.000
215.47	0.000
215.84	-214.286
216.22	-250.000
216.59	320.000
216.97	120.000
217.34	450.000
217.72	300.000
218.09	250.000
218.47	500.000
218.84	0.000
219.22	-360.000
219.59	129.412
219.97	85.000
220.34	-450.000
220.72	77.778
221.09	115.385
221.47	433.333
221.84	140.000
222.22	185.714
222.59	0.000
222.97	250.000
223.34	220.000
223.72	1400.000
224.09	400.000
224.46	500.000
224.84	480.000
225.21	171.429
225.59	75.000
225.96	200.000
226.34	73.077
226.71	-50.000
227.08	550.000
227.46	100.000
227.83	400.000
228.21	121.053
228.58	-62.500
228.95	-750.000
229.33	200.000
229.70	110.000
230.08	142.105
230.45	-50.000
230.82	633.333
231.20	142.857
231.57	141.667
231.95	100.000
232.32	200.000
232.69	75.000
233.07	400.000
233.44	70.588
233.81	170.000
234.19	166.667
234.56	90.909
234.93	113.793
235.31	73.684
235.68	127.778
236.05	55.000
236.43	119.231
236.80	92.000
237.17	70.370
237.55	69.697
237.92	130.000
238.29	74.194
238.67	61.364
239.04	55.556
239.41	40.476
239.79	56.522
240.16	59.259
240.53	56.522
240.91	43.137
241.28	45.902
241.65	41.791
242.02	43.243
242.40	24.615
242.77	36.000
243.14	30.488
243.51	19.737
243.89	34.615
244.26	26.733
244.63	35.294
245.00	31.776
245.38	31.579
245.75	17.699
246.12	34.921
246.49	24.031
246.87	23.571
247.24	30.464
247.61	28.947
247.98	23.490
248.36	27.778
248.73	23.313
249.10	22.951
249.47	25.871
249.84	28.796
250.22	22.798
250.59	29.444
250.96	24.545
251.33	22.449
251.70	22.222
252.08	22.083
252.45	25.410
252.82	18.595
253.19	20.703
253.56	24.715
253.94	17.692
254.31	25.000
254.68	26.224
255.05	27.036
255.42	23.129
255.79	17.152
256.16	20.861
256.54	20.530
256.91	23.934
257.28	21.311
257.65	19.108
258.02	20.944
258.39	19.943
258.76	22.324
259.14	24.425
259.51	23.055
259.88	20.113
260.25	20.556
260.62	23.562
260.99	22.678
261.36	22.788
261.73	18.833
262.10	21.429
262.47	22.788
262.85	25.505
263.22	18.442
263.59	18.684
263.96	21.228
264.33	19.182
264.70	22.716
265.07	22.912
265.44	24.036
265.81	19.907
266.18	20.408
266.55	20.089
266.92	20.273
267.29	22.319
267.66	21.064
268.03	20.524
268.40	20.459
268.77	18.451
269.14	18.282
269.51	20.833
269.88	22.131
270.25	21.730
270.62	21.308
270.99	20.000
271.36	21.188
271.73	19.253
272.10	23.447
272.47	20.641
272.84	19.880
273.21	20.441
273.58	21.371
273.95	18.269
274.32	16.540
274.69	17.602
275.06	20.330
275.43	19.409
275.80	20.635
276.17	17.778
276.54	19.776
276.91	18.605
277.28	19.892
277.65	20.287
278.02	19.485
278.39	19.384
278.76	17.399
279.13	18.262
279.50	18.557
279.87	20.036
280.23	15.845
280.60	19.492
280.97	21.217
281.34	17.997
281.71	19.289
282.08	19.435
282.45	19.476
282.82	18.681
283.19	17.771
283.56	19.836
283.92	18.619
284.29	20.221
284.66	20.197
285.03	16.987
285.40	18.393
285.77	18.421
286.14	18.779
286.51	18.721
286.87	17.536
287.24	19.428
287.61	17.190
287.98	18.278
288.35	18.491
288.72	18.343
289.08	17.862
289.45	17.012
289.82	16.265
290.19	18.678
290.56	17.465
290.93	19.401
291.29	16.667
291.66	17.080
292.03	15.061
292.40	16.871
292.77	15.364
293.13	17.050
293.50	15.769
293.87	16.242
294.24	16.933
294.60	16.814
294.97	15.839
295.34	17.542
295.71	16.772
296.08	15.116
296.44	15.319
296.81	15.347
297.18	15.691
297.55	14.033
297.91	14.709
298.28	13.152
298.65	15.339
299.02	15.112
299.38	14.302
299.75	15.070
300.12	15.741
300.48	16.820
300.85	14.623
301.22	14.206
301.59	13.699
301.95	14.350
302.32	15.444
302.69	14.348
303.05	14.581
303.42	15.299
303.79	14.167
304.15	14.090
304.52	13.002
304.89	14.136
305.25	15.217
305.62	14.943
305.99	15.979
306.35	14.315
306.72	14.478
307.09	14.619
307.45	14.700
307.82	14.531
308.19	14.329
308.55	15.333
308.92	15.385
309.29	15.421
309.65	16.277
310.02	15.050
310.38	15.551
310.75	15.922
311.12	16.970
311.48	16.129
311.85	16.809
312.22	15.844
312.58	17.465
312.95	17.113
313.31	17.164
313.68	16.117
314.05	17.977
314.41	17.213
314.78	18.256
315.14	19.238
315.51	20.129
315.87	19.352
316.24	19.087
316.61	20.515
316.97	18.643
317.34	19.400
317.70	21.310
318.07	21.340
318.43	21.854
318.80	21.906
319.16	21.030
319.53	20.823
319.89	21.472
320.26	21.975
320.62	22.518
320.99	23.361
321.35	24.769
321.72	25.488
322.08	24.436
322.45	24.571
322.81	24.549
323.18	25.752
323.54	25.172
323.91	26.423
324.27	25.904
324.64	27.960
325.00	26.617
325.37	27.682
325.73	28.017
326.10	27.737
326.46	28.176
326.83	30.024
327.19	28.110
327.56	28.933
327.92	28.245
328.29	28.548
328.65	29.229
329.01	30.626
329.38	31.340
329.74	31.507
330.11	30.993
330.47	30.581
330.84	29.974
331.20	30.667
331.56	31.196
331.93	31.548
332.29	32.458
332.66	31.728
333.02	32.077
333.38	31.795
333.75	32.155
334.11	32.027
334.48	31.106
334.84	32.795
335.20	31.570
335.57	32.715
335.93	32.397
336.29	32.030
336.66	30.782
337.02	31.856
337.38	32.483
337.75	31.901
338.11	32.801
338.47	32.423
338.84	31.641
339.20	31.171
339.56	30.725
339.93	31.363
340.29	31.481
340.65	31.549
341.02	31.764
341.38	32.013
341.74	32.042
342.11	31.617
342.47	31.056
342.83	31.481
343.20	31.643
343.56	31.676
343.92	31.145
344.28	30.937
344.65	31.938
345.01	30.889
345.37	32.037
345.73	31.411
346.10	30.421
346.46	31.566
346.82	30.412
347.19	30.863
347.55	31.259
347.91	31.204
348.27	30.197
348.63	30.845
349.00	29.381
349.36	30.409
349.72	30.432
350.08	32.021
350.45	30.494
350.81	30.543
351.17	30.827
351.53	31.463
351.89	32.118
352.26	30.896
352.62	30.896
352.98	30.534
353.34	29.500
353.70	29.199
354.07	30.104
354.43	29.765
354.79	30.067
355.15	30.169
355.51	30.702
355.87	29.544
356.24	32.091
356.60	29.638
356.96	29.800
357.32	30.186
357.68	29.429
358.04	29.940
358.40	29.701
358.77	29.825
359.13	28.508
359.49	28.550
359.85	29.297
360.21	29.914
360.57	28.715
360.93	29.478
361.29	29.333
361.66	29.109
362.02	30.063
362.38	29.304
362.74	29.679
363.10	29.642
363.46	29.917
363.82	30.114
364.18	29.979
364.54	30.290
364.90	29.030
365.26	28.621
365.62	30.067
365.98	28.931
366.35	27.987
366.71	28.776
367.07	28.958
367.43	29.416
367.79	29.662
368.15	29.431
368.51	28.620
368.87	28.805
369.23	28.533
369.59	29.645
369.95	29.885
370.31	29.372
370.67	29.574
371.03	29.363
371.39	28.274
371.75	29.642
372.11	29.675
372.47	28.301
372.83	29.385
373.19	29.219
373.55	29.201
373.91	27.948
374.27	28.525
374.63	29.229
374.99	29.576
375.35	29.416
375.71	29.161
376.07	29.051
376.42	28.338
376.78	28.900
377.14	28.946
377.50	28.843
377.86	28.633
378.22	29.341
378.58	28.894
378.94	28.286
379.30	29.701
379.66	29.218
380.02	29.256
380.38	29.551
380.74	29.408
381.09	29.036
381.45	28.693
381.81	29.918
382.17	29.216
382.53	28.538
382.89	28.499
383.25	29.367
383.61	29.167
383.97	28.386
384.32	29.785
384.68	28.132
385.04	29.265
385.40	29.228
385.76	29.132
386.12	28.665
386.48	29.412
386.83	29.380
387.19	28.679
387.55	28.228
387.91	29.167
388.27	28.580
388.62	28.809
388.98	27.919
389.34	29.758
389.70	28.820
390.06	27.946
390.42	27.952
390.77	29.561
391.13	29.167
391.49	28.563
391.85	29.333
392.20	28.292
392.56	29.652
392.92	28.081
393.28	28.745
393.64	27.821
393.99	29.053
394.35	29.498
394.71	28.743
395.07	28.084
395.42	28.555
395.78	29.311
396.14	29.649
396.50	28.800
396.85	28.861
397.21	27.870
397.57	27.856
397.92	28.007
398.28	27.376
398.64	28.146
399.00	27.068
399.35	27.592
399.71	27.554
400.07	28.130
400.42	27.939
400.78	27.951
401.14	28.401
401.49	28.141
401.85	28.140
402.21	28.100
402.57	28.756
402.92	27.660
403.28	27.869
403.63	27.864
403.99	28.325
404.35	27.686
404.70	27.535
405.06	28.152
405.42	28.044
405.77	27.754
406.13	27.661
406.49	27.477
406.84	27.313
407.20	27.949
407.55	27.317
407.91	27.781
408.27	26.855
408.62	27.400
408.98	27.568
409.34	26.979
409.69	27.627
410.05	28.429
410.40	28.016
410.76	27.482
411.11	28.580
411.47	27.948
411.83	27.572
412.18	27.651
412.54	27.564
412.89	26.775
413.25	27.314
413.60	27.226
413.96	27.156
414.31	27.025
414.67	27.251
415.03	27.015
415.38	27.743
415.74	26.695
416.09	27.946
416.45	27.489
416.80	27.111
417.16	27.522
417.51	27.584
417.87	26.793
418.22	26.886
418.58	27.509
418.93	27.416
419.29	27.435
419.64	27.431
420.00	26.766
420.35	27.063
420.71	28.030
421.06	27.545
421.42	26.089
421.77	25.794
422.12	26.797
422.48	26.472
422.83	28.094
423.19	27.374
423.54	27.378
423.90	27.057
424.25	28.000
424.61	28.071
424.96	27.622
425.31	27.813
425.67	26.624
426.02	27.726
426.38	27.153
426.73	27.790
427.09	28.201
427.44	26.543
427.79	27.584
428.15	27.911
428.50	27.360
428.85	27.842
429.21	28.138
429.56	26.999
429.92	26.683
430.27	27.614
430.62	27.064
430.98	26.857
431.33	27.322
431.68	25.862
432.04	27.781
432.39	28.763
432.74	28.196
433.10	28.015
433.45	27.369
433.80	28.004
434.16	27.428
434.51	28.828
434.86	28.230
435.22	28.640
435.57	28.479
435.92	27.880
436.28	28.328
436.63	28.400
436.98	27.375
437.34	28.861
437.69	28.233
438.04	27.499
438.39	28.374
438.75	27.393
439.10	28.171
439.45	28.619
439.81	27.514
440.16	27.828
440.51	28.149
440.86	27.404
441.22	27.974
441.57	28.092
441.92	27.595
442.27	27.677
442.63	28.167
442.98	27.481
443.33	27.196
443.68	28.791
444.03	29.304
444.39	27.462
444.74	27.769
445.09	27.674
445.44	27.819
445.79	28.257
446.15	28.314
446.50	27.494
446.85	27.189
447.20	27.515
447.55	28.452
447.91	28.010
448.26	28.700
448.61	28.533
448.96	29.399
449.31	28.102
449.66	27.451
450.02	28.534
450.37	28.556
450.72	28.687
451.07	27.847
451.42	27.672
451.77	27.515
452.12	28.499
452.47	28.758
452.83	27.984
453.18	27.554
453.53	27.168
453.88	26.615
454.23	28.305
454.58	28.265
454.93	28.155
455.28	28.657
455.63	28.198
455.98	28.436
456.34	27.974
456.69	29.042
457.04	28.664
457.39	27.772
457.74	28.803
458.09	27.457
458.44	28.071
458.79	28.365
459.14	27.478
459.49	27.731
459.84	28.279
460.19	27.540
460.54	28.677
460.89	28.110
461.24	27.989
461.59	28.445
461.94	27.382
462.29	28.779
462.64	27.459
462.99	27.872
463.34	28.228
463.69	28.136
464.04	28.238
464.39	27.578
464.74	27.708
465.09	27.336
465.44	27.843
465.79	26.970
466.14	26.889
466.49	27.368
466.84	26.612
467.19	28.324
467.54	26.322
467.89	27.414
468.24	27.701
468.59	27.215
468.94	26.923
469.29	27.594
469.64	27.527
469.99	28.171
470.34	27.723
470.68	27.956
471.03	27.963
471.38	27.469
471.73	27.438
472.08	27.919
472.43	28.537
472.78	27.834
473.13	27.497
473.48	27.915
473.83	27.800
474.17	27.667
474.52	27.721
474.87	27.021
475.22	28.282
475.57	26.947
475.92	27.028
476.27	27.103
476.61	27.051
476.96	27.112
477.31	26.683
477.66	28.227
478.01	27.046
478.36	26.471
478.70	26.995
479.05	27.607
479.40	27.246
479.75	27.666
480.10	26.575
480.45	26.527
480.79	26.939
481.14	26.884
481.49	26.942
481.84	27.023
482.19	27.140
482.53	26.454
482.88	27.160
483.23	26.856
483.58	26.769
483.92	25.266
484.27	26.672
484.62	26.114
484.97	26.361
485.31	24.956
485.66	24.845
486.01	23.287
486.36	23.848
486.70	24.920
487.05	24.564
487.40	25.168
487.75	25.522
488.09	25.810
488.44	25.925
488.79	26.037
489.13	25.815
489.48	25.709
489.83	25.714
490.17	26.205
490.52	25.821
490.87	26.692
491.22	26.473
491.56	26.621
491.91	25.294
492.26	25.920
492.60	26.323
492.95	26.547
493.30	26.087
493.64	25.712
493.99	26.316
494.34	26.089
494.68	25.696
495.03	27.093
495.37	26.631
495.72	26.122
496.07	26.512
496.41	26.083
496.76	25.980
497.11	25.860
497.45	25.248
497.80	26.299
498.14	24.989
498.49	25.735
498.84	25.868
499.18	26.271
499.53	25.785
499.87	26.198
500.22	25.557
500.56	25.416
500.91	26.682
501.26	26.364
501.60	26.072
501.95	25.141
502.29	26.108
502.64	25.536
502.98	25.280
503.33	25.270
503.67	25.294
504.02	25.131
504.36	26.005
504.71	25.310
505.06	25.603
505.40	24.954
505.75	25.228
506.09	24.954
506.44	25.905
506.78	26.284
507.13	26.602
507.47	25.865
507.82	25.568
508.16	24.665
508.51	25.598
508.85	25.933
509.19	25.533
509.54	26.081
509.88	24.186
510.23	25.304
510.57	25.858
510.92	25.448
511.26	25.301
511.61	24.819
511.95	26.013
512.30	25.899
512.64	25.387
512.98	24.712
513.33	25.403
513.67	26.007
514.02	25.549
514.36	24.859
514.70	25.052
515.05	25.339
515.39	25.092
515.74	25.981
516.08	25.568
516.42	26.792
516.77	25.657
517.11	24.961
517.46	26.034
517.80	26.403
518.14	26.387
518.49	26.085
518.83	25.705
519.17	25.148
519.52	25.629
519.86	25.977
520.20	25.559
520.55	25.630
520.89	25.845
521.23	26.075
521.58	26.215
521.92	25.496
522.26	25.086
522.61	26.100
522.95	26.009
523.29	25.057
523.64	25.897
523.98	26.355
524.32	27.679
524.66	25.270
525.01	25.142
525.35	25.043
525.69	25.348
526.04	24.914
526.38	25.057
526.72	25.144
527.06	25.513
527.41	25.714
527.75	26.366
528.09	26.269
528.43	25.459
528.78	25.318
529.12	25.057
529.46	24.677
529.80	25.515
530.15	24.406
530.49	25.148
530.83	25.561
531.17	25.627
531.51	25.271
531.86	25.661
532.20	25.610
532.54	25.015
532.88	24.848
533.22	24.573
533.57	24.466
533.91	24.299
534.25	24.590
534.59	24.655
534.93	24.618
535.27	24.507
535.62	24.730
535.96	25.102
536.30	24.677
536.64	25.165
536.98	25.400
537.32	26.358
537.66	24.766
538.01	24.411
538.35	24.361
538.69	23.438
539.03	25.506
539.37	24.558
539.71	24.985
540.05	25.540
540.39	24.694
540.73	24.226
541.07	24.831
541.42	24.335
541.76	23.784
542.10	24.427
542.44	23.203
542.78	24.453
543.12	24.434
543.46	23.443
543.80	23.201
544.14	23.818
544.48	24.645
544.82	24.536
545.16	23.733
545.50	23.966
545.84	24.311
546.18	24.938
546.52	24.204
546.86	23.648
547.20	24.237
547.54	24.532
547.88	23.689
548.22	23.450
548.56	23.581
548.90	23.701
549.24	24.863
549.58	24.038
549.92	24.298
550.26	24.401
550.60	25.016
550.94	23.221
551.28	24.224
551.62	24.124
551.96	23.625
552.30	23.709
552.64	24.144
552.98	23.518
553.32	23.666
553.66	23.923
554.00	24.212
554.34	24.324
554.68	23.176
555.02	24.507
555.36	25.181
555.69	23.318
556.03	23.329
556.37	24.781
556.71	24.160
557.05	24.026
557.39	23.026
557.73	23.250
558.07	23.709
558.41	23.920
558.75	24.206
559.08	24.217
559.42	24.417
559.76	24.152
560.10	24.113
560.44	23.219
560.78	23.750
561.12	23.768
561.45	23.175
561.79	23.504
562.13	23.722
562.47	23.181
562.81	23.481
563.15	23.232
563.48	23.058
563.82	23.398
564.16	22.047
564.50	23.302
564.84	23.245
565.17	22.882
565.51	23.360
565.85	22.150
566.19	21.947
566.52	22.996
566.86	22.524
567.20	22.403
567.54	21.880
567.88	22.069
568.21	21.591
568.55	21.871
568.89	21.380
569.23	20.913
569.56	20.672
569.90	20.670
570.24	20.135
570.57	20.045
570.91	19.198
571.25	20.046
571.59	19.482
571.92	19.696
572.26	19.164
572.60	19.492
572.93	19.788
573.27	19.668
573.61	19.402
573.95	19.883
574.28	19.154
574.62	18.645
574.96	18.571
575.29	18.330
575.63	18.965
575.97	19.305
576.30	18.924
576.64	18.898
576.98	18.679
577.31	19.207
577.65	19.026
577.98	18.543
578.32	18.147
578.66	18.658
578.99	18.370
579.33	18.764
579.67	18.971
580.00	18.656
580.34	18.652
580.67	18.513
581.01	18.931
581.35	18.274
581.68	18.225
582.02	18.013
582.35	18.185
582.69	18.183
583.02	18.539
583.36	18.936
583.70	19.132
584.03	19.054
584.37	19.205
584.70	19.120
585.04	18.507
585.37	18.692
585.71	18.382
586.04	18.472
586.38	19.011
586.72	18.175
587.05	18.982
587.39	18.798
587.72	18.900
588.06	18.956
588.39	18.322
588.73	19.074
589.06	18.990
589.40	19.453
589.73	19.184
590.07	19.562
590.40	19.675
590.73	19.017
591.07	20.551
591.40	19.907
591.74	19.754
592.07	19.813
592.41	19.716
592.74	19.205
593.08	18.917
593.41	19.248
593.75	18.879
594.08	19.025
594.41	19.583
594.75	19.163
595.08	19.112
595.42	19.221
595.75	19.018
596.09	19.587
596.42	19.563
596.75	19.722
597.09	20.040
597.42	20.262
597.75	19.718
598.09	19.603
598.42	20.627
598.76	19.220
599.09	19.188
599.42	19.309
599.76	19.082
600.09	19.353
600.42	18.652
600.76	19.188
601.09	19.383
601.42	18.709
601.76	19.172
602.09	19.514
602.42	18.830
602.76	19.004
603.09	19.824
603.42	19.184
603.76	19.239
604.09	19.517
604.42	19.083
604.76	19.673
605.09	19.785
605.42	19.617
605.75	19.269
606.09	19.298
606.42	18.825
606.75	19.415
607.09	18.433
607.42	18.690
607.75	19.852
608.08	19.850
608.42	19.307
608.75	19.527
609.08	19.440
609.41	19.629
609.75	19.688
610.08	19.965
610.41	19.584
610.74	19.664
611.07	20.249
611.41	20.538
611.74	20.508
612.07	20.617
612.40	19.439
612.73	19.804
613.07	20.538
613.40	20.741
613.73	20.125
614.06	20.412
614.39	19.631
614.72	19.796
615.06	19.827
615.39	18.995
615.72	20.095
616.05	20.641
616.38	20.636
616.71	21.003
617.05	19.968
617.38	20.439
617.71	20.734
618.04	20.183
618.37	20.820
618.70	21.154
619.03	20.550
619.36	21.887
619.69	21.140
620.03	20.904
620.36	20.859
620.69	21.221
621.02	21.785
621.35	21.045
621.68	22.343
622.01	22.064
622.34	20.990
622.67	21.856
623.00	20.715
623.33	21.301
623.66	20.947
623.99	21.396
624.32	22.222
624.65	20.914
624.99	21.131
625.32	20.967
625.65	21.038
625.98	21.085
626.31	20.340
626.64	21.832
626.97	22.206
627.30	21.640
627.63	21.605
627.96	21.547
628.29	22.802
628.62	22.418
628.95	22.436
629.28	21.920
629.61	22.811
629.94	22.259
630.26	21.949
630.59	22.107
630.92	23.203
631.25	24.329
631.58	22.976
631.91	22.024
632.24	22.863
632.57	22.201
632.90	22.467
633.23	24.082
