SpectraSuite Data File
++++++++++++++++++++++++++++++++++++
Date: Thu May 14 14:38:17 PDT 2015
User: schluterlab
Dark Spectrum Present: Yes
Reference Spectrum Present: Yes
Number of Sampled Component Spectra: 1
Spectrometers: USB2E3373
Integration Time (usec): 3000 (USB2E3373)
Spectra Averaged: 3 (USB2E3373)
Boxcar Smoothing: 0 (USB2E3373)
Correct for Electrical Dark: No (USB2E3373)
Strobe/Lamp Enabled: No (USB2E3373)
Correct for Detector Non-linearity: No (USB2E3373)
Correct for Stray Light: No (USB2E3373)
Number of Pixels in Processed Spectrum: 2048
>>>>>Begin Processed Spectral Data<<<<<
178.53	0.000
178.91	-271.429
179.29	1100.000
179.67	1200.000
180.04	-14.286
180.42	-110.000
180.80	-180.000
181.18	300.000
181.56	1400.000
181.94	-350.000
182.31	525.000
182.69	-100.000
183.07	550.000
183.45	-275.000
183.83	400.000
184.20	200.000
184.58	-1100.000
184.96	250.000
185.34	66.667
185.72	280.000
186.09	-22.222
186.47	-700.000
186.85	-160.000
187.23	88.889
187.61	700.000
187.98	-380.000
188.36	-425.000
188.74	425.000
189.12	700.000
189.49	125.000
189.87	100.000
190.25	222.222
190.63	460.000
191.00	66.667
191.38	0.000
191.76	150.000
192.14	350.000
192.51	-1150.000
192.89	366.667
193.27	0.000
193.65	242.857
194.02	1000.000
194.40	200.000
194.78	-57.143
195.15	0.000
195.53	136.364
195.91	0.000
196.29	400.000
196.66	161.538
197.04	900.000
197.42	157.143
197.79	750.000
198.17	250.000
198.55	157.143
198.92	288.889
199.30	112.500
199.68	227.273
200.05	150.000
200.43	400.000
200.81	-42.857
201.18	0.000
201.56	-33.333
201.94	0.000
202.31	-166.667
202.69	144.444
203.07	-1400.000
203.44	166.667
203.82	175.000
204.19	75.000
204.57	150.000
204.95	162.500
205.32	1800.000
205.70	-500.000
206.08	316.667
206.45	216.667
206.83	-0.000
207.20	100.000
207.58	60.000
207.96	166.667
208.33	433.333
208.71	-75.000
209.08	466.667
209.46	0.000
209.84	-116.667
210.21	-800.000
210.59	-1100.000
210.96	-400.000
211.34	575.000
211.71	175.000
212.09	1500.000
212.46	0.000
212.84	-600.000
213.22	160.000
213.59	375.000
213.97	300.000
214.34	466.667
214.72	-333.333
215.09	425.000
215.47	0.000
215.84	-128.571
216.22	-0.000
216.59	540.000
216.97	340.000
217.34	275.000
217.72	287.500
218.09	200.000
218.47	350.000
218.84	0.000
219.22	-320.000
219.59	135.294
219.97	105.000
220.34	-650.000
220.72	155.556
221.09	169.231
221.47	433.333
221.84	220.000
222.22	142.857
222.59	0.000
222.97	212.500
223.34	160.000
223.72	1500.000
224.09	225.000
224.46	175.000
224.84	260.000
225.21	0.000
225.59	275.000
225.96	325.000
226.34	111.538
226.71	-266.667
227.08	500.000
227.46	113.333
227.83	300.000
228.21	126.316
228.58	-125.000
228.95	-800.000
229.33	183.333
229.70	190.000
230.08	136.842
230.45	-170.000
230.82	766.667
231.20	128.571
231.57	233.333
231.95	136.364
232.32	163.636
232.69	125.000
233.07	225.000
233.44	129.412
233.81	190.000
234.19	83.333
234.56	136.364
234.93	113.793
235.31	147.368
235.68	100.000
236.05	90.000
236.43	123.077
236.80	140.000
237.17	85.185
237.55	103.030
237.92	60.000
238.29	67.742
238.67	61.364
239.04	83.333
239.41	40.476
239.79	82.609
240.16	51.852
240.53	60.870
240.91	43.137
241.28	62.295
241.65	61.194
242.02	52.703
242.40	56.923
242.77	36.000
243.14	32.927
243.51	28.947
243.89	51.282
244.26	46.535
244.63	49.020
245.00	43.925
245.38	37.719
245.75	30.973
246.12	40.476
246.49	32.558
246.87	42.857
247.24	42.384
247.61	44.079
247.98	37.584
248.36	31.481
248.73	37.423
249.10	33.880
249.47	37.811
249.84	38.743
250.22	31.088
250.59	38.889
250.96	38.636
251.33	38.776
251.70	36.752
252.08	31.250
252.45	34.426
252.82	42.562
253.19	30.859
253.56	33.840
253.94	36.154
254.31	35.985
254.68	41.259
255.05	35.505
255.42	31.633
255.79	35.275
256.16	32.781
256.54	33.113
256.91	32.787
257.28	36.066
257.65	35.032
258.02	32.153
258.39	30.484
258.76	39.450
259.14	32.759
259.51	34.870
259.88	34.561
260.25	33.333
260.62	33.699
260.99	34.699
261.36	32.440
261.73	33.952
262.10	37.637
262.47	30.831
262.85	34.091
263.22	29.870
263.59	29.737
263.96	36.829
264.33	33.504
264.70	32.593
265.07	35.800
265.44	34.467
265.81	33.333
266.18	32.200
266.55	32.366
266.92	32.574
267.29	32.823
267.66	31.042
268.03	32.096
268.40	33.820
268.77	29.841
269.14	32.159
269.51	32.237
269.88	32.172
270.25	32.998
270.62	35.443
270.99	34.141
271.36	30.891
271.73	30.845
272.10	30.461
272.47	31.663
272.84	30.120
273.21	29.058
273.58	33.065
273.95	28.269
274.32	28.137
274.69	30.174
275.06	31.319
275.43	29.020
275.80	33.510
276.17	32.407
276.54	29.851
276.91	32.558
277.28	30.922
277.65	28.187
278.02	29.963
278.39	31.341
278.76	30.053
279.13	29.787
279.50	30.584
279.87	30.233
280.23	27.817
280.60	31.356
280.97	31.414
281.34	29.032
281.71	30.288
282.08	30.731
282.45	27.987
282.82	29.042
283.19	27.625
283.56	27.049
283.92	28.979
284.29	30.964
284.66	30.213
285.03	26.603
285.40	29.675
285.77	28.947
286.14	29.160
286.51	28.615
286.87	27.646
287.24	29.367
287.61	28.102
287.98	27.795
288.35	28.550
288.72	27.515
289.08	28.111
289.45	27.071
289.82	26.657
290.19	29.454
290.56	26.197
290.93	25.535
291.29	27.548
291.66	27.135
292.03	26.052
292.40	26.939
292.77	27.628
293.13	24.628
293.50	26.018
293.87	27.383
294.24	28.000
294.60	23.135
294.97	24.564
295.34	26.248
295.71	22.825
296.08	24.548
296.44	23.529
296.81	24.604
297.18	23.039
297.55	24.292
297.91	23.725
298.28	22.275
298.65	23.306
299.02	22.550
299.38	22.883
299.75	22.664
300.12	22.222
300.48	22.696
300.85	23.622
301.22	23.826
301.59	21.689
301.95	22.938
302.32	23.444
302.69	22.344
303.05	22.960
303.42	21.951
303.79	21.562
304.15	22.292
304.52	22.304
304.89	23.037
305.25	23.913
305.62	23.197
305.99	22.474
306.35	21.472
306.72	23.475
307.09	21.421
307.45	22.360
307.82	22.503
308.19	21.998
308.55	22.372
308.92	22.298
309.29	21.743
309.65	21.150
310.02	21.584
310.38	23.327
310.75	23.204
311.12	22.052
311.48	22.874
311.85	22.317
312.22	22.581
312.58	21.878
312.95	23.709
313.31	23.397
313.68	22.802
314.05	24.842
314.41	23.315
314.78	24.251
315.14	22.777
315.51	23.084
315.87	24.752
316.24	24.201
316.61	24.512
316.97	24.615
317.34	23.633
317.70	24.891
318.07	24.515
318.43	26.190
318.80	26.505
319.16	23.691
319.53	23.222
319.89	24.540
320.26	25.178
320.62	23.936
320.99	25.577
321.35	26.063
321.72	26.791
322.08	25.969
322.45	26.378
322.81	25.812
323.18	26.637
323.54	25.948
323.91	27.580
324.27	26.850
324.64	27.540
325.00	26.700
325.37	27.109
325.73	27.851
326.10	27.737
326.46	28.420
326.83	28.983
327.19	28.268
327.56	29.802
327.92	27.144
328.29	28.790
328.65	28.308
329.01	28.596
329.38	29.823
329.74	31.079
330.11	30.308
330.47	27.801
330.84	29.027
331.20	29.583
331.56	30.156
331.93	31.297
332.29	29.576
332.66	30.066
333.02	30.486
333.38	29.782
333.75	30.387
334.11	31.193
334.48	31.601
334.84	30.416
335.20	30.395
335.57	30.607
335.93	30.579
336.29	29.867
336.66	29.941
337.02	30.351
337.38	31.548
337.75	29.835
338.11	31.034
338.47	30.935
338.84	30.372
339.20	30.581
339.56	29.984
339.93	30.213
340.29	31.481
340.65	30.657
341.02	30.327
341.38	31.770
341.74	29.944
342.11	30.491
342.47	29.547
342.83	31.159
343.20	31.562
343.56	31.195
343.92	31.385
344.28	30.469
344.65	31.395
345.01	29.797
345.37	31.260
345.73	30.242
346.10	31.201
346.46	30.380
346.82	31.161
347.19	31.016
347.55	31.715
347.91	29.866
348.27	29.514
348.63	29.551
349.00	30.276
349.36	30.037
349.72	31.027
350.08	29.643
350.45	30.190
350.81	30.317
351.17	31.654
351.53	31.387
351.89	31.663
352.26	31.194
352.62	31.119
352.98	30.534
353.34	30.097
353.70	30.508
354.07	30.775
354.43	30.524
354.79	30.516
355.15	31.714
355.51	31.652
355.87	31.189
356.24	31.255
356.60	31.264
356.96	31.060
357.32	30.706
357.68	30.088
358.04	30.614
358.40	30.821
358.77	32.675
359.13	31.167
359.49	31.004
359.85	31.690
360.21	31.420
360.57	30.581
360.93	31.312
361.29	31.368
361.66	31.571
362.02	31.802
362.38	31.131
362.74	31.844
363.10	31.706
363.46	32.825
363.82	32.599
364.18	31.386
364.54	32.019
364.90	32.107
365.26	30.759
365.62	31.733
365.98	31.995
366.35	32.349
366.71	33.333
367.07	32.138
367.43	31.779
367.79	32.847
368.15	32.575
368.51	33.559
368.87	32.136
369.23	33.267
369.59	34.085
369.95	33.401
370.31	33.288
370.67	32.531
371.03	32.548
371.39	32.975
371.75	33.769
372.11	32.385
372.47	32.363
372.83	33.835
373.19	33.489
373.55	33.266
373.91	32.652
374.27	32.794
374.63	34.844
374.99	34.748
375.35	34.416
375.71	34.581
376.07	34.151
376.42	33.375
376.78	35.488
377.14	34.186
377.50	34.282
377.86	34.667
378.22	34.431
378.58	35.434
378.94	35.270
379.30	34.564
379.66	34.685
380.02	34.622
380.38	36.175
380.74	36.113
381.09	36.179
381.45	35.625
381.81	36.183
382.17	36.995
382.53	35.556
382.89	36.005
383.25	36.694
383.61	36.458
383.97	36.160
384.32	36.423
384.68	36.601
385.04	37.016
385.40	37.596
385.76	37.749
386.12	36.984
386.48	37.471
386.83	37.843
387.19	38.181
387.55	37.852
387.91	38.584
388.27	38.799
388.62	38.488
388.98	37.507
389.34	38.539
389.70	39.047
390.06	39.372
390.42	39.096
390.77	39.013
391.13	38.732
391.49	39.614
391.85	40.424
392.20	40.391
392.56	40.520
392.92	40.894
393.28	39.690
393.64	39.385
393.99	40.616
394.35	39.720
394.71	40.778
395.07	41.138
395.42	39.520
395.78	41.987
396.14	41.889
396.50	39.905
396.85	40.608
397.21	40.828
397.57	41.519
397.92	41.523
398.28	39.761
398.64	41.076
399.00	39.895
399.35	40.890
399.71	40.598
400.07	41.381
400.42	41.560
400.78	41.609
401.14	41.434
401.49	42.638
401.85	42.965
402.21	42.468
402.57	42.723
402.92	42.139
403.28	41.452
403.63	41.885
403.99	42.162
404.35	41.728
404.70	42.040
405.06	41.902
405.42	42.330
405.77	42.966
406.13	42.518
406.49	43.356
406.84	42.881
407.20	42.314
407.55	43.913
407.91	43.118
408.27	41.637
408.62	42.234
408.98	42.252
409.34	42.581
409.69	43.696
410.05	42.849
410.40	42.865
410.76	41.952
411.11	43.016
411.47	43.735
411.83	42.210
412.18	44.277
412.54	42.798
412.89	43.248
413.25	42.664
413.60	43.308
413.96	44.056
414.31	42.720
414.67	43.351
415.03	42.954
415.38	44.956
415.74	43.739
416.09	44.232
416.45	43.832
416.80	43.452
417.16	44.189
417.51	45.268
417.87	44.390
418.22	43.593
418.58	44.052
418.93	45.634
419.29	45.129
419.64	44.718
420.00	44.629
420.35	43.796
420.71	44.859
421.06	45.141
421.42	44.839
421.77	44.480
422.12	44.027
422.48	44.547
422.83	45.838
423.19	45.252
423.54	45.575
423.90	43.954
424.25	45.440
424.61	45.063
424.96	45.634
425.31	45.223
425.67	44.928
426.02	45.766
426.38	45.867
426.73	45.647
427.09	46.136
427.44	45.057
427.79	45.826
428.15	44.920
428.50	45.899
428.85	44.948
429.21	46.702
429.56	46.594
429.92	45.504
430.27	46.120
430.62	46.067
430.98	46.532
431.33	47.116
431.68	45.977
432.04	46.572
432.39	46.277
432.74	45.890
433.10	47.215
433.45	45.987
433.80	46.245
434.16	46.539
434.51	48.253
434.86	47.068
435.22	47.821
435.57	47.818
435.92	48.136
436.28	47.668
436.63	49.754
436.98	47.665
437.34	47.182
437.69	48.872
438.04	47.488
438.39	49.225
438.75	48.423
439.10	47.939
439.45	47.960
439.81	47.627
440.16	48.257
440.51	49.443
440.86	48.193
441.22	49.089
441.57	48.742
441.92	48.109
442.27	49.646
442.63	49.031
442.98	48.826
443.33	48.711
443.68	49.356
444.03	50.094
444.39	48.914
444.74	49.668
445.09	49.468
445.44	50.263
445.79	50.383
446.15	49.692
446.50	49.406
446.85	49.416
447.20	50.000
447.55	50.785
447.91	50.733
448.26	50.899
448.61	50.000
448.96	52.039
449.31	50.795
449.66	49.891
450.02	49.789
450.37	51.305
450.72	50.700
451.07	51.765
451.42	50.202
451.77	51.306
452.12	52.370
452.47	51.515
452.83	53.153
453.18	51.897
453.53	52.096
453.88	50.359
454.23	50.847
454.58	53.221
454.93	51.820
455.28	54.004
455.63	52.416
455.98	52.570
456.34	51.826
456.69	52.087
457.04	53.369
457.39	51.275
457.74	53.523
458.09	52.718
458.44	51.724
458.79	51.573
459.14	51.914
459.49	52.632
459.84	53.568
460.19	51.471
460.54	54.117
460.89	52.938
461.24	53.333
461.59	52.518
461.94	51.911
462.29	54.535
462.64	52.867
462.99	54.237
463.34	54.964
463.69	52.462
464.04	53.919
464.39	53.139
464.74	52.509
465.09	53.345
465.44	53.380
465.79	53.622
466.14	52.684
466.49	53.632
466.84	54.270
467.19	54.740
467.54	52.585
467.89	53.391
468.24	54.127
468.59	53.619
468.94	54.779
469.29	54.589
469.64	54.736
469.99	56.023
470.34	54.332
470.68	55.229
471.03	56.058
471.38	54.938
471.73	56.242
472.08	56.536
472.43	55.990
472.78	56.045
473.13	55.183
473.48	56.435
473.83	55.543
474.17	55.158
474.52	56.404
474.87	54.707
475.22	55.606
475.57	54.569
475.92	55.650
476.27	55.112
476.61	55.192
476.96	55.683
477.31	55.842
477.66	55.876
478.01	55.719
478.36	55.982
478.70	55.862
479.05	56.902
479.40	56.762
479.75	56.052
480.10	55.140
480.45	56.563
480.79	54.966
481.14	55.515
481.49	56.111
481.84	56.223
482.19	55.140
482.53	56.100
482.88	56.890
483.23	55.625
483.58	56.114
483.92	55.541
484.27	55.800
484.62	55.528
484.97	55.521
485.31	54.488
485.66	52.417
486.01	50.748
486.36	51.431
486.70	52.553
487.05	53.724
487.40	54.400
487.75	54.733
488.09	55.255
488.44	54.470
488.79	56.054
489.13	56.155
489.48	56.078
489.83	55.131
490.17	56.258
490.52	54.844
490.87	56.387
491.22	57.409
491.56	56.613
491.91	57.130
492.26	56.988
492.60	57.149
492.95	57.481
493.30	57.911
493.64	57.293
493.99	58.246
494.34	57.230
494.68	56.103
495.03	57.797
495.37	58.322
495.72	57.551
496.07	58.063
496.41	57.743
496.76	57.965
497.11	58.047
497.45	57.229
497.80	58.418
498.14	58.322
498.49	57.904
498.84	57.861
499.18	58.525
499.53	58.386
499.87	59.077
500.22	58.860
500.56	59.109
500.91	59.176
501.26	59.545
501.60	58.462
501.95	58.142
502.29	59.193
502.64	58.286
502.98	58.714
503.33	58.186
503.67	58.352
504.02	57.837
504.36	59.428
504.71	59.256
505.06	59.209
505.40	59.186
505.75	59.244
506.09	59.024
506.44	60.260
506.78	60.275
507.13	59.843
507.47	59.877
507.82	59.470
508.16	59.704
508.51	60.150
508.85	60.274
509.19	61.061
509.54	61.671
509.88	60.029
510.23	61.292
510.57	62.204
510.92	62.022
511.26	60.462
511.61	60.406
511.95	60.517
512.30	61.251
512.64	60.870
512.98	61.581
513.33	61.996
513.67	62.315
514.02	62.545
514.36	61.893
514.70	63.281
515.05	63.034
515.39	62.887
515.74	63.256
516.08	63.761
516.42	63.527
516.77	63.407
517.11	62.713
517.46	63.309
517.80	63.442
518.14	64.091
518.49	64.100
518.83	61.629
519.17	63.005
519.52	63.365
519.86	63.516
520.20	63.419
520.55	64.239
520.89	63.908
521.23	64.712
521.58	64.859
521.92	64.249
522.26	65.292
522.61	64.699
522.95	66.378
523.29	66.149
523.64	63.565
523.98	65.545
524.32	65.960
524.66	66.420
525.01	65.459
525.35	64.044
525.69	64.559
526.04	64.122
526.38	65.862
526.72	65.917
527.06	67.390
527.41	64.665
527.75	66.271
528.09	65.584
528.43	66.726
528.78	64.104
529.12	65.654
529.46	65.093
529.80	65.789
530.15	65.971
530.49	66.429
530.83	65.939
531.17	66.607
531.51	67.389
531.86	66.166
532.20	68.171
532.54	66.727
532.88	67.152
533.22	65.704
533.57	66.128
533.91	65.320
534.25	65.856
534.59	66.437
534.93	65.025
535.27	65.296
535.62	66.401
535.96	65.601
536.30	66.099
536.64	66.006
536.98	66.728
537.32	67.778
537.66	67.810
538.01	65.559
538.35	66.200
538.69	67.007
539.03	66.094
539.37	65.783
539.71	66.426
540.05	66.847
540.39	65.831
540.73	65.574
541.07	66.462
541.42	65.978
541.76	65.421
542.10	67.129
542.44	65.895
542.78	66.971
543.12	65.554
543.46	66.422
543.80	65.647
544.14	65.530
544.48	65.248
544.82	66.786
545.16	65.832
545.50	66.147
545.84	67.361
546.18	66.358
546.52	67.389
546.86	67.484
547.20	68.321
547.54	66.604
547.88	64.858
548.22	66.901
548.56	65.243
548.90	65.851
549.24	67.720
549.58	66.372
549.92	66.901
550.26	67.961
550.60	66.688
550.94	67.982
551.28	67.855
551.62	68.935
551.96	65.955
552.30	68.451
552.64	67.330
552.98	67.124
553.32	68.617
553.66	69.196
554.00	67.907
554.34	66.281
554.68	65.913
555.02	68.463
555.36	69.231
555.69	68.097
556.03	67.970
556.37	67.835
556.71	67.216
557.05	67.540
557.39	68.480
557.73	67.635
558.07	68.675
558.41	69.236
558.75	67.681
559.08	70.424
559.42	68.038
559.76	69.403
560.10	68.989
560.44	68.997
560.78	68.750
561.12	67.919
561.45	69.465
561.79	68.193
562.13	68.515
562.47	66.893
562.81	68.291
563.15	69.003
563.48	67.868
563.82	68.380
564.16	67.474
564.50	67.938
564.84	66.785
565.17	67.412
565.51	66.628
565.85	67.874
566.19	65.956
566.52	67.291
566.86	67.799
567.20	64.546
567.54	66.224
567.88	67.533
568.21	65.217
568.55	65.324
568.89	65.365
569.23	62.907
569.56	62.915
569.90	61.974
570.24	62.395
570.57	61.065
570.91	60.778
571.25	60.197
571.59	59.699
571.92	59.888
572.26	58.973
572.60	59.214
572.93	60.562
573.27	59.314
573.61	59.661
573.95	59.602
574.28	58.818
574.62	58.549
574.96	58.028
575.29	58.008
575.63	58.235
575.97	58.994
576.30	58.993
576.64	58.482
576.98	58.451
577.31	58.454
577.65	58.770
577.98	57.587
578.32	57.400
578.66	57.765
578.99	57.997
579.33	58.671
579.67	58.998
580.00	58.980
580.34	58.486
580.67	58.407
581.01	57.919
581.35	57.530
581.68	57.178
582.02	56.743
582.35	57.646
582.69	58.382
583.02	58.344
583.36	59.273
583.70	60.259
584.03	59.179
584.37	60.504
584.70	58.802
585.04	58.800
585.37	59.037
585.71	58.360
586.04	58.278
586.38	59.471
586.72	59.288
587.05	59.708
587.39	59.811
587.72	59.569
588.06	58.752
588.39	60.045
588.73	60.053
589.06	60.581
589.40	61.801
589.73	61.697
590.07	61.804
590.40	62.576
590.73	62.743
591.07	63.738
591.40	62.597
591.74	63.474
592.07	63.297
592.41	63.210
592.74	61.413
593.08	60.924
593.41	61.359
593.75	59.856
594.08	61.921
594.41	61.603
594.75	61.076
595.08	62.012
595.42	61.883
595.75	61.382
596.09	63.165
596.42	62.522
596.75	63.257
597.09	64.444
597.42	63.051
597.75	62.799
598.09	62.897
598.42	63.249
598.76	61.941
599.09	60.805
599.42	60.308
599.76	60.515
600.09	61.161
600.42	61.295
600.76	61.295
601.09	61.567
601.42	61.380
601.76	61.759
602.09	62.473
602.42	62.523
602.76	62.768
603.09	62.959
603.42	62.934
603.76	61.769
604.09	62.704
604.42	61.615
604.76	63.166
605.09	63.422
605.42	63.317
605.75	62.192
606.09	61.590
606.42	62.204
606.75	62.144
607.09	62.558
607.42	61.696
607.75	62.837
608.08	62.826
608.42	62.152
608.75	64.179
609.08	63.115
609.41	64.270
609.75	65.357
610.08	65.084
610.41	62.914
610.74	63.193
611.07	64.565
611.41	65.157
611.74	64.896
612.07	65.264
612.40	65.494
612.73	65.966
613.07	65.428
613.40	64.726
613.73	64.324
614.06	65.260
614.39	64.431
614.72	64.629
615.06	64.533
615.39	65.442
615.72	65.261
616.05	64.546
616.38	67.053
616.71	65.152
617.05	64.483
617.38	67.844
617.71	66.361
618.04	66.271
618.37	67.650
618.70	67.364
619.03	68.100
619.36	69.236
619.69	69.571
620.03	69.492
620.36	67.178
620.69	69.648
621.02	70.604
621.35	72.496
621.68	72.234
622.01	71.246
622.34	71.757
622.67	69.828
623.00	69.231
623.33	70.272
623.66	69.844
623.99	69.849
624.32	69.526
624.65	69.498
624.99	69.961
625.32	70.803
625.65	71.477
625.98	69.288
626.31	71.368
626.64	73.114
626.97	72.243
627.30	71.374
627.63	70.668
627.96	73.048
628.29	73.463
628.62	72.964
628.95	75.110
629.28	75.106
629.61	73.316
629.94	74.895
630.26	73.983
630.59	75.043
630.92	75.238
631.25	75.939
631.58	78.814
631.91	75.914
632.24	76.081
632.57	76.565
632.90	78.636
