SpectraSuite Data File
++++++++++++++++++++++++++++++++++++
Date: Thu May 14 14:38:34 PDT 2015
User: schluterlab
Dark Spectrum Present: Yes
Reference Spectrum Present: Yes
Number of Sampled Component Spectra: 1
Spectrometers: USB2E3373
Integration Time (usec): 3000 (USB2E3373)
Spectra Averaged: 3 (USB2E3373)
Boxcar Smoothing: 0 (USB2E3373)
Correct for Electrical Dark: No (USB2E3373)
Strobe/Lamp Enabled: No (USB2E3373)
Correct for Detector Non-linearity: No (USB2E3373)
Correct for Stray Light: No (USB2E3373)
Number of Pixels in Processed Spectrum: 2048
>>>>>Begin Processed Spectral Data<<<<<
178.53	0.000
178.91	-157.143
179.29	200.000
179.67	900.000
180.04	7.143
180.42	-90.000
180.80	-260.000
181.18	1200.000
181.56	2000.000
181.94	-375.000
182.31	325.000
182.69	-466.667
183.07	850.000
183.45	-200.000
183.83	300.000
184.20	500.000
184.58	-1200.000
184.96	225.000
185.34	211.111
185.72	380.000
186.09	-111.111
186.47	100.000
186.85	-120.000
187.23	55.556
187.61	1200.000
187.98	-340.000
188.36	-225.000
188.74	425.000
189.12	333.333
189.49	100.000
189.87	187.500
190.25	288.889
190.63	320.000
191.00	200.000
191.38	0.000
191.76	25.000
192.14	183.333
192.51	-550.000
192.89	266.667
193.27	0.000
193.65	242.857
194.02	800.000
194.40	214.286
194.78	-200.000
195.15	0.000
195.53	154.545
195.91	0.000
196.29	425.000
196.66	153.846
197.04	1000.000
197.42	142.857
197.79	800.000
198.17	162.500
198.55	200.000
198.92	200.000
199.30	25.000
199.68	136.364
200.05	150.000
200.43	450.000
200.81	-42.857
201.18	0.000
201.56	-66.667
201.94	0.000
202.31	-266.667
202.69	144.444
203.07	-1700.000
203.44	144.444
203.82	425.000
204.19	125.000
204.57	183.333
204.95	250.000
205.32	1800.000
205.70	-375.000
206.08	200.000
206.45	200.000
206.83	-100.000
207.20	216.667
207.58	320.000
207.96	350.000
208.33	333.333
208.71	-25.000
209.08	433.333
209.46	0.000
209.84	-100.000
210.21	-800.000
210.59	-500.000
210.96	-233.333
211.34	475.000
211.71	112.500
212.09	1700.000
212.46	0.000
212.84	-250.000
213.22	180.000
213.59	600.000
213.97	170.000
214.34	566.667
214.72	-166.667
215.09	300.000
215.47	0.000
215.84	-200.000
216.22	-450.000
216.59	240.000
216.97	260.000
217.34	200.000
217.72	212.500
218.09	425.000
218.47	300.000
218.84	0.000
219.22	-540.000
219.59	105.882
219.97	100.000
220.34	-400.000
220.72	144.444
221.09	138.462
221.47	666.667
221.84	140.000
222.22	128.571
222.59	0.000
222.97	287.500
223.34	380.000
223.72	1000.000
224.09	500.000
224.46	200.000
224.84	240.000
225.21	328.571
225.59	200.000
225.96	75.000
226.34	76.923
226.71	-250.000
227.08	750.000
227.46	53.333
227.83	400.000
228.21	136.842
228.58	-150.000
228.95	-800.000
229.33	125.000
229.70	120.000
230.08	147.368
230.45	-20.000
230.82	533.333
231.20	142.857
231.57	133.333
231.95	100.000
232.32	81.818
232.69	85.000
233.07	550.000
233.44	76.471
233.81	50.000
234.19	38.889
234.56	72.727
234.93	117.241
235.31	78.947
235.68	94.444
236.05	45.000
236.43	100.000
236.80	124.000
237.17	96.296
237.55	36.364
237.92	50.000
238.29	35.484
238.67	31.818
239.04	44.444
239.41	52.381
239.79	28.261
240.16	31.481
240.53	21.739
240.91	17.647
241.28	26.230
241.65	35.821
242.02	28.378
242.40	10.769
242.77	26.667
243.14	26.829
243.51	11.842
243.89	17.949
244.26	17.822
244.63	16.667
245.00	16.822
245.38	18.421
245.75	8.850
246.12	17.460
246.49	12.403
246.87	14.286
247.24	13.245
247.61	15.132
247.98	12.081
248.36	5.556
248.73	9.202
249.10	13.115
249.47	15.920
249.84	13.613
250.22	6.736
250.59	9.444
250.96	13.182
251.33	5.102
251.70	15.812
252.08	13.750
252.45	11.066
252.82	9.091
253.19	12.109
253.56	10.646
253.94	9.231
254.31	9.091
254.68	13.287
255.05	11.075
255.42	7.823
255.79	8.091
256.16	6.954
256.54	4.636
256.91	8.852
257.28	6.557
257.65	2.548
258.02	3.245
258.39	8.262
258.76	11.315
259.14	9.770
259.51	11.239
259.88	7.082
260.25	8.333
260.62	9.041
260.99	9.016
261.36	7.239
261.73	7.162
262.10	7.418
262.47	7.507
262.85	8.586
263.22	4.675
263.59	5.789
263.96	7.928
264.33	5.882
264.70	7.901
265.07	9.785
265.44	9.977
265.81	7.176
266.18	7.483
266.55	8.259
266.92	4.784
267.29	6.346
267.66	5.987
268.03	5.895
268.40	6.263
268.77	4.328
269.14	5.727
269.51	7.237
269.88	7.582
270.25	6.640
270.62	6.751
270.99	8.081
271.36	8.515
271.73	7.269
272.10	7.615
272.47	4.208
272.84	7.430
273.21	5.411
273.58	6.855
273.95	6.731
274.32	7.034
274.69	5.803
275.06	5.495
275.43	3.882
275.80	6.349
276.17	4.630
276.54	7.649
276.91	6.619
277.28	5.967
277.65	5.925
278.02	7.904
278.39	3.442
278.76	5.624
279.13	6.915
279.50	6.873
279.87	6.619
280.23	2.993
280.60	6.610
280.97	6.250
281.34	6.621
281.71	6.937
282.08	4.485
282.45	5.401
282.82	5.181
283.19	2.746
283.56	4.754
283.92	6.907
284.29	8.373
284.66	6.240
285.03	5.128
285.40	6.646
285.77	6.037
286.14	6.260
286.51	4.871
286.87	5.371
287.24	6.175
287.61	5.531
287.98	4.985
288.35	5.769
288.72	5.621
289.08	5.417
289.45	4.882
289.82	4.970
290.19	5.029
290.56	5.211
290.93	5.421
291.29	5.647
291.66	4.270
292.03	4.342
292.40	5.170
292.77	4.852
293.13	4.736
293.50	5.125
293.87	4.698
294.24	7.067
294.60	7.459
294.97	4.295
295.34	6.146
295.71	5.422
296.08	5.039
296.44	5.637
296.81	3.776
297.18	4.359
297.55	5.660
297.91	2.847
298.28	4.739
298.65	5.113
299.02	4.604
299.38	5.721
299.75	6.308
300.12	4.051
300.48	4.032
300.85	4.949
301.22	5.705
301.59	4.110
301.95	5.424
302.32	5.444
302.69	4.162
303.05	5.876
303.42	5.543
303.79	5.521
304.15	5.468
304.52	5.603
304.89	5.654
305.25	5.901
305.62	5.016
305.99	6.495
306.35	5.040
306.72	6.515
307.09	4.975
307.45	5.280
307.82	5.550
308.19	5.752
308.55	5.593
308.92	5.453
309.29	5.843
309.65	5.361
310.02	4.455
310.38	5.610
310.75	5.922
311.12	5.849
311.48	6.452
311.85	6.553
312.22	6.072
312.58	6.573
312.95	7.266
313.31	6.685
313.68	7.601
314.05	8.401
314.41	6.740
314.78	7.084
315.14	6.715
315.51	7.479
315.87	8.011
316.24	8.128
316.61	8.970
316.97	7.873
317.34	7.055
317.70	8.472
318.07	7.672
318.43	8.418
318.80	9.365
319.16	8.155
319.53	8.312
319.89	9.027
320.26	9.698
320.62	9.486
320.99	9.418
321.35	9.427
321.72	10.791
322.08	9.378
322.45	9.666
322.81	9.386
323.18	9.292
323.54	10.431
323.91	10.854
324.27	11.532
324.64	11.923
325.00	11.028
325.37	11.630
325.73	11.983
326.10	12.328
326.46	13.111
326.83	13.611
327.19	12.992
327.56	14.308
327.92	12.982
328.29	11.935
328.65	13.819
329.01	14.298
329.38	13.732
329.74	15.411
330.11	14.983
330.47	14.912
330.84	15.676
331.20	14.500
331.56	14.905
331.93	15.900
332.29	15.508
332.66	15.282
333.02	16.583
333.38	15.604
333.75	15.657
334.11	16.013
334.48	15.017
334.84	16.313
335.20	16.037
335.57	16.610
335.93	17.769
336.29	15.557
336.66	15.896
337.02	16.722
337.38	17.092
337.75	15.537
338.11	17.241
338.47	16.956
338.84	17.005
339.20	16.512
339.56	16.227
339.93	17.159
340.29	16.828
340.65	17.275
341.02	16.760
341.38	16.572
341.74	15.335
342.11	16.412
342.47	15.965
342.83	17.552
343.20	16.926
343.56	16.199
343.92	17.214
344.28	17.266
344.65	16.744
345.01	16.615
345.37	15.630
345.73	15.666
346.10	17.083
346.46	16.456
346.82	17.678
347.19	17.112
347.55	17.071
347.91	17.013
348.27	16.540
348.63	17.212
349.00	17.226
349.36	16.357
349.72	17.262
350.08	15.973
350.45	15.817
350.81	16.742
351.17	16.466
351.53	17.513
351.89	17.084
352.26	16.791
352.62	16.791
352.98	16.870
353.34	15.982
353.70	16.410
354.07	16.468
354.43	16.629
354.79	16.829
355.15	16.703
355.51	17.325
355.87	16.829
356.24	16.274
356.60	17.517
356.96	16.308
357.32	17.100
357.68	16.837
358.04	16.991
358.40	16.343
358.77	16.813
359.13	16.987
359.49	15.985
359.85	17.476
360.21	15.997
360.57	16.942
360.93	16.925
361.29	17.474
361.66	17.741
362.02	17.745
362.38	16.936
362.74	16.899
363.10	17.263
363.46	16.828
363.82	17.401
364.18	16.749
364.54	17.497
364.90	17.659
365.26	17.517
365.62	18.133
365.98	17.495
366.35	16.980
366.71	18.503
367.07	18.268
367.43	17.794
367.79	17.983
368.15	19.398
368.51	18.200
368.87	17.701
369.23	17.867
369.59	17.486
369.95	17.782
370.31	18.231
370.67	19.395
371.03	17.521
371.39	17.058
371.75	18.363
372.11	19.241
372.47	18.077
372.83	18.586
373.19	18.212
373.55	17.547
373.91	17.655
374.27	19.340
374.63	19.012
374.99	18.634
375.35	18.117
375.71	18.645
376.07	19.948
376.42	18.892
376.78	19.515
377.14	18.153
377.50	19.102
377.86	19.397
378.22	19.760
378.58	19.144
378.94	19.014
379.30	19.625
379.66	19.929
380.02	19.735
380.38	20.680
380.74	20.113
381.09	19.861
381.45	19.716
381.81	20.316
382.17	21.021
382.53	19.474
382.89	20.485
383.25	20.516
383.61	20.428
383.97	21.025
384.32	20.514
384.68	19.780
385.04	20.706
385.40	21.332
385.76	21.161
386.12	20.407
386.48	20.824
386.83	22.110
387.19	20.973
387.55	21.127
387.91	20.890
388.27	21.824
388.62	21.649
388.98	21.602
389.34	21.685
389.70	22.313
390.06	22.025
390.42	21.867
390.77	21.734
391.13	21.009
391.49	22.041
391.85	22.061
392.20	22.183
392.56	22.682
392.92	22.083
393.28	22.830
393.64	22.626
393.99	22.313
394.35	22.547
394.71	22.515
395.07	21.377
395.42	21.930
395.78	22.913
396.14	23.470
396.50	21.556
396.85	22.302
397.21	22.308
397.57	23.263
397.92	22.337
398.28	21.782
398.64	21.568
399.00	22.042
399.35	22.723
399.71	22.120
400.07	23.021
400.42	21.769
400.78	22.106
401.14	22.937
401.49	22.115
401.85	23.314
402.21	22.306
402.57	22.066
402.92	22.340
403.28	21.370
403.63	22.434
403.99	21.378
404.35	21.205
404.70	21.700
405.06	21.413
405.42	22.131
405.77	21.810
406.13	21.826
406.49	22.072
406.84	21.884
407.20	21.409
407.55	20.836
407.91	21.999
408.27	21.908
408.62	22.629
408.98	21.416
409.34	21.408
409.69	22.311
410.05	21.454
410.40	22.390
410.76	21.425
411.11	22.092
411.47	22.604
411.83	22.163
412.18	21.205
412.54	22.288
412.89	23.399
413.25	22.065
413.60	21.654
413.96	21.853
414.31	22.096
414.67	22.004
415.03	22.400
415.38	22.131
415.74	21.930
416.09	22.455
416.45	22.041
416.80	20.869
417.16	21.711
417.51	21.793
417.87	21.766
418.22	21.617
418.58	21.871
418.93	22.817
419.29	21.393
419.64	22.089
420.00	22.374
420.35	22.459
420.71	21.884
421.06	21.564
421.42	22.190
421.77	21.271
422.12	21.406
422.48	21.659
422.83	21.413
423.19	21.432
423.54	22.566
423.90	22.032
424.25	21.973
424.61	21.642
424.96	22.735
425.31	23.195
425.67	21.149
426.02	22.302
426.38	21.412
426.73	21.931
427.09	22.837
427.44	21.300
427.79	21.725
428.15	21.804
428.50	22.303
428.85	21.986
429.21	22.447
429.56	21.323
429.92	21.425
430.27	21.880
430.62	22.325
430.98	21.692
431.33	21.408
431.68	21.169
432.04	21.585
432.39	21.585
432.74	21.632
433.10	23.039
433.45	21.962
433.80	22.318
434.16	22.934
434.51	22.456
434.86	22.693
435.22	22.689
435.57	22.936
435.92	23.205
436.28	21.559
436.63	23.048
436.98	22.652
437.34	22.548
437.69	21.794
438.04	22.316
438.39	22.458
438.75	22.136
439.10	22.569
439.45	22.079
439.81	21.808
440.16	22.198
440.51	21.906
440.86	21.790
441.22	22.401
441.57	22.799
441.92	22.987
442.27	22.929
442.63	23.299
442.98	23.052
443.33	22.199
443.68	23.984
444.03	23.424
444.39	23.116
444.74	22.614
445.09	23.163
445.44	22.603
445.79	22.701
446.15	22.508
446.50	22.429
446.85	22.471
447.20	22.389
447.55	22.908
447.91	23.141
448.26	22.622
448.61	24.017
448.96	24.142
449.31	22.906
449.66	22.930
450.02	23.312
450.37	23.229
450.72	22.766
451.07	23.235
451.42	22.646
451.77	23.346
452.12	23.307
452.47	22.876
452.83	22.860
453.18	23.001
453.53	22.746
453.88	22.308
454.23	22.825
454.58	24.318
454.93	22.087
455.28	23.841
455.63	22.626
455.98	23.575
456.34	23.027
456.69	22.751
457.04	23.877
457.39	22.949
457.74	22.595
458.09	22.515
458.44	22.737
458.79	22.692
459.14	22.863
459.49	23.147
459.84	23.242
460.19	22.488
460.54	23.112
460.89	22.499
461.24	23.218
461.59	23.796
461.94	22.248
462.29	23.404
462.64	22.571
462.99	23.917
463.34	22.907
463.69	23.036
464.04	23.569
464.39	22.702
464.74	23.774
465.09	23.529
465.44	23.444
465.79	22.052
466.14	22.720
466.49	23.789
466.84	23.361
467.19	23.584
467.54	22.620
467.89	22.529
468.24	23.158
468.59	22.698
468.94	22.611
469.29	22.855
469.64	22.632
469.99	23.263
470.34	23.391
470.68	23.308
471.03	23.379
471.38	22.891
471.73	22.107
472.08	23.160
472.43	23.119
472.78	23.174
473.13	23.388
473.48	23.988
473.83	23.912
474.17	23.447
474.52	23.512
474.87	23.533
475.22	23.493
475.57	23.780
475.92	22.399
476.27	23.376
476.61	22.066
476.96	22.941
477.31	22.871
477.66	23.452
478.01	23.233
478.36	23.081
478.70	23.103
479.05	23.722
479.40	23.149
479.75	23.055
480.10	22.928
480.45	22.789
480.79	23.129
481.14	22.702
481.49	22.944
481.84	23.194
482.19	23.097
482.53	23.262
482.88	23.350
483.23	23.166
483.58	23.057
483.92	22.163
484.27	22.862
484.62	22.690
484.97	22.278
485.31	22.809
485.66	22.279
486.01	22.382
486.36	22.455
486.70	22.945
487.05	22.940
487.40	22.614
487.75	22.901
488.09	22.795
488.44	22.503
488.79	22.901
489.13	22.556
489.48	22.602
489.83	22.978
490.17	22.438
490.52	22.332
490.87	22.673
491.22	22.487
491.56	22.910
491.91	23.157
492.26	23.150
492.60	22.912
492.95	22.554
493.30	22.456
493.64	22.777
493.99	22.500
494.34	23.127
494.68	22.827
495.03	22.291
495.37	23.435
495.72	23.039
496.07	23.006
496.41	22.094
496.76	22.769
497.11	23.567
497.45	22.615
497.80	23.678
498.14	22.857
498.49	23.392
498.84	22.441
499.18	22.852
499.53	23.677
499.87	23.648
500.22	22.930
500.56	23.437
500.91	23.066
501.26	23.545
501.60	22.316
501.95	23.274
502.29	23.212
502.64	22.956
502.98	22.649
503.33	23.024
503.67	22.547
504.02	22.811
504.36	23.771
504.71	23.243
505.06	22.647
505.40	22.761
505.75	23.634
506.09	23.711
506.44	23.305
506.78	23.165
507.13	23.006
507.47	23.591
507.82	23.390
508.16	23.423
508.51	23.207
508.85	23.382
509.19	23.070
509.54	23.871
509.88	23.361
510.23	23.895
510.57	23.200
510.92	23.029
511.26	23.473
511.61	22.887
511.95	22.792
512.30	23.978
512.64	22.789
512.98	24.262
513.33	24.395
513.67	24.069
514.02	23.301
514.36	23.529
514.70	23.958
515.05	23.097
515.39	23.937
515.74	24.496
516.08	23.613
516.42	24.437
516.77	24.448
517.11	23.569
517.46	23.966
517.80	24.479
518.14	24.320
518.49	23.753
518.83	23.417
519.17	23.694
519.52	23.847
519.86	24.815
520.20	23.642
520.55	23.439
520.89	23.818
521.23	23.953
521.58	24.181
521.92	24.929
522.26	23.711
522.61	24.306
522.95	24.048
523.29	24.195
523.64	23.823
523.98	24.529
524.32	25.673
524.66	25.213
525.01	24.802
525.35	24.067
525.69	24.304
526.04	24.053
526.38	25.230
526.72	24.048
527.06	24.633
527.41	24.373
527.75	24.228
528.09	24.911
528.43	24.926
528.78	24.855
529.12	24.025
529.46	24.621
529.80	24.600
530.15	25.217
530.49	23.962
530.83	24.793
531.17	24.014
531.51	25.572
531.86	24.760
532.20	25.122
532.54	25.254
532.88	25.333
533.22	24.396
533.57	24.293
533.91	24.916
534.25	25.155
534.59	24.713
534.93	24.675
535.27	24.789
535.62	24.787
535.96	26.031
536.30	24.501
536.64	24.925
536.98	25.215
537.32	24.506
537.66	24.641
538.01	25.076
538.35	24.909
538.69	24.159
539.03	24.709
539.37	25.147
539.71	24.384
540.05	25.839
540.39	24.633
540.73	24.044
541.07	25.322
541.42	23.627
541.76	24.852
542.10	25.332
542.44	24.482
542.78	24.696
543.12	24.851
543.46	24.176
543.80	24.580
544.14	23.938
544.48	25.000
544.82	24.656
545.16	25.760
545.50	25.105
545.84	24.740
546.18	25.062
546.52	24.777
546.86	25.409
547.20	24.618
547.54	24.345
547.88	24.352
548.22	24.035
548.56	24.751
548.90	24.836
549.24	24.498
549.58	24.290
549.92	24.362
550.26	24.725
550.60	24.952
550.94	25.291
551.28	26.205
551.62	25.606
551.96	24.401
552.30	25.558
552.64	25.202
552.98	25.452
553.32	25.402
553.66	25.466
554.00	25.095
554.34	24.646
554.68	25.307
555.02	24.967
555.36	25.970
555.69	23.959
556.03	23.960
556.37	26.033
556.71	24.413
557.05	25.815
557.39	25.946
557.73	25.033
558.07	25.497
558.41	24.917
558.75	24.746
559.08	25.609
559.42	24.554
559.76	25.645
560.10	24.246
560.44	26.187
560.78	25.812
561.12	24.569
561.45	25.304
561.79	25.458
562.13	25.755
562.47	24.723
562.81	25.190
563.15	25.316
563.48	25.979
563.82	25.453
564.16	23.925
564.50	25.030
564.84	25.074
565.17	25.176
565.51	24.396
565.85	24.525
566.19	24.712
566.52	24.927
566.86	25.580
567.20	25.666
567.54	24.960
567.88	25.892
568.21	26.087
568.55	25.516
568.89	25.965
569.23	25.095
569.56	25.088
569.90	25.160
570.24	25.126
570.57	25.016
570.91	24.403
571.25	24.443
571.59	25.299
571.92	24.574
572.26	24.378
572.60	24.461
572.93	24.631
573.27	24.782
573.61	24.616
573.95	24.593
574.28	24.083
574.62	24.284
574.96	24.636
575.29	24.102
575.63	23.932
575.97	24.719
576.30	24.476
576.64	24.147
576.98	24.442
577.31	24.354
577.65	24.391
577.98	24.548
578.32	24.453
578.66	24.463
578.99	24.268
579.33	24.233
579.67	24.456
580.00	24.298
580.34	24.455
580.67	24.404
581.01	24.427
581.35	24.489
581.68	24.330
582.02	24.430
582.35	24.877
582.69	24.803
583.02	24.799
583.36	25.488
583.70	24.040
584.03	24.262
584.37	24.488
584.70	24.205
585.04	24.436
585.37	24.812
585.71	24.746
586.04	24.505
586.38	25.116
586.72	24.818
587.05	24.635
587.39	24.832
587.72	24.426
588.06	24.976
588.39	24.969
588.73	24.524
589.06	25.395
589.40	25.323
589.73	25.353
590.07	25.133
590.40	25.592
590.73	25.027
591.07	25.130
591.40	25.078
591.74	25.119
592.07	25.538
592.41	25.315
592.74	25.772
593.08	25.701
593.41	25.459
593.75	25.517
594.08	25.568
594.41	25.256
594.75	25.340
595.08	25.067
595.42	25.130
595.75	25.605
596.09	25.517
596.42	25.905
596.75	25.782
597.09	26.101
597.42	25.586
597.75	25.206
598.09	25.714
598.42	25.533
598.76	24.952
599.09	25.027
599.42	24.070
599.76	25.289
600.09	25.893
600.42	25.692
600.76	25.760
601.09	25.191
601.42	25.506
601.76	25.000
602.09	25.625
602.42	24.427
602.76	25.756
603.09	25.110
603.42	25.903
603.76	25.476
604.09	26.189
604.42	25.761
604.76	25.647
605.09	25.608
605.42	25.837
605.75	25.615
606.09	25.793
606.42	25.465
606.75	25.487
607.09	25.384
607.42	25.896
607.75	25.869
608.08	25.296
608.42	25.353
608.75	26.285
609.08	25.976
609.41	25.540
609.75	25.402
610.08	26.517
610.41	25.573
610.74	26.597
611.07	25.844
611.41	26.278
611.74	27.529
612.07	26.882
612.40	25.428
612.73	26.553
613.07	26.064
613.40	26.372
613.73	25.662
614.06	25.564
614.39	25.996
614.72	25.425
615.06	25.650
615.39	25.810
615.72	25.592
616.05	25.983
616.38	26.993
616.71	27.743
617.05	25.985
617.38	26.699
617.71	26.242
618.04	26.713
618.37	26.503
618.70	26.697
619.03	25.926
619.36	25.647
619.69	26.329
620.03	26.742
620.36	25.644
620.69	26.959
621.02	26.444
621.35	26.778
621.68	27.115
622.01	26.548
622.34	25.314
622.67	27.629
623.00	26.181
623.33	25.946
623.66	26.394
623.99	26.136
624.32	27.420
624.65	26.319
624.99	28.349
625.32	27.433
625.65	26.837
625.98	26.102
626.31	27.994
626.64	27.106
626.97	26.707
627.30	27.335
627.63	27.157
627.96	27.252
628.29	28.249
628.62	26.868
628.95	26.994
629.28	26.593
629.61	27.946
629.94	27.531
630.26	26.525
630.59	28.066
630.92	26.407
631.25	28.354
631.58	29.002
631.91	27.179
632.24	28.242
632.57	27.230
632.90	28.686
633.23	27.245
633.56	28.265
633.89	26.860
634.22	27.859
634.55	26.827
634.88	26.840
635.20	28.418
635.53	29.153
635.86	26.652
636.19	28.314
636.52	27.954
636.85	27.988
637.18	28.378
