SpectraSuite Data File
++++++++++++++++++++++++++++++++++++
Date: Thu May 14 15:25:21 PDT 2015
User: schluterlab
Dark Spectrum Present: Yes
Reference Spectrum Present: Yes
Number of Sampled Component Spectra: 1
Spectrometers: USB2E3373
Integration Time (usec): 3000 (USB2E3373)
Spectra Averaged: 3 (USB2E3373)
Boxcar Smoothing: 0 (USB2E3373)
Correct for Electrical Dark: No (USB2E3373)
Strobe/Lamp Enabled: No (USB2E3373)
Correct for Detector Non-linearity: No (USB2E3373)
Correct for Stray Light: No (USB2E3373)
Number of Pixels in Processed Spectrum: 2048
>>>>>Begin Processed Spectral Data<<<<<
178.53	0.000
178.91	700.000
179.29	-5600.000
179.67	-5600.000
180.04	471.429
180.42	440.000
180.80	1060.000
181.18	-4400.000
181.56	-3300.000
181.94	1200.000
182.31	-1175.000
182.69	1700.000
183.07	-2400.000
183.45	1200.000
183.83	-716.667
184.20	-1500.000
184.58	4200.000
184.96	-1450.000
185.34	-511.111
185.72	-960.000
186.09	711.111
186.47	2500.000
186.85	1080.000
187.23	-633.333
187.61	-5400.000
187.98	1020.000
188.36	1175.000
188.74	-950.000
189.12	-1433.333
189.49	-293.750
189.87	-650.000
190.25	-511.111
190.63	-1000.000
191.00	-466.667
191.38	0.000
191.76	-1425.000
192.14	-966.667
192.51	2350.000
192.89	-650.000
193.27	0.000
193.65	-528.571
194.02	-5300.000
194.40	-514.286
194.78	742.857
195.15	0.000
195.53	-345.455
195.91	0.000
196.29	-1050.000
196.66	-284.615
197.04	-5200.000
197.42	-657.143
197.79	-2550.000
198.17	-587.500
198.55	-614.286
198.92	-488.889
199.30	-687.500
199.68	-372.727
200.05	-314.286
200.43	-2400.000
200.81	757.143
201.18	0.000
201.56	644.444
201.94	0.000
202.31	1733.333
202.69	-622.222
203.07	4000.000
203.44	-455.556
203.82	-1125.000
204.19	-408.333
204.57	-816.667
204.95	-650.000
205.32	-4500.000
205.70	1250.000
206.08	-883.333
206.45	-700.000
206.83	1160.000
207.20	-583.333
207.58	-1000.000
207.96	-883.333
208.33	-783.333
208.71	433.333
209.08	-716.667
209.46	0.000
209.84	900.000
210.21	2050.000
210.59	2300.000
210.96	1733.333
211.34	-1100.000
211.71	-725.000
212.09	-5200.000
212.46	0.000
212.84	2700.000
213.22	-1020.000
213.59	-900.000
213.97	-380.000
214.34	-1633.333
214.72	783.333
215.09	-1225.000
215.47	0.000
215.84	800.000
216.22	2700.000
216.59	-860.000
216.97	-980.000
217.34	-1200.000
217.72	-487.500
218.09	-1250.000
218.47	-1325.000
218.84	0.000
219.22	960.000
219.59	-300.000
219.97	-215.000
220.34	2450.000
220.72	-522.222
221.09	-269.231
221.47	-1266.667
221.84	-520.000
222.22	-714.286
222.59	0.000
222.97	-575.000
223.34	-940.000
223.72	-4900.000
224.09	-1025.000
224.46	-1200.000
224.84	-940.000
225.21	-700.000
225.59	-1300.000
225.96	-1325.000
226.34	-169.231
226.71	883.333
227.08	-2500.000
227.46	-253.333
227.83	-1200.000
228.21	-205.263
228.58	587.500
228.95	2750.000
229.33	-291.667
229.70	-450.000
230.08	-215.789
230.45	500.000
230.82	-1566.667
231.20	-350.000
231.57	-375.000
231.95	-418.182
232.32	-400.000
232.69	-200.000
233.07	-975.000
233.44	-258.824
233.81	-410.000
234.19	-222.222
234.56	-168.182
234.93	-100.000
235.31	-221.053
235.68	-216.667
236.05	-260.000
236.43	-142.308
236.80	-148.000
237.17	-185.185
237.55	-139.394
237.92	-520.000
238.29	-161.290
238.67	-118.182
239.04	-155.556
239.41	-104.762
239.79	-100.000
240.16	-79.630
240.53	-97.826
240.91	-90.196
241.28	-73.770
241.65	-55.224
242.02	-58.108
242.40	-76.923
242.77	-62.667
243.14	-58.537
243.51	-63.158
243.89	-71.795
244.26	-51.485
244.63	-39.216
245.00	-38.318
245.38	-45.614
245.75	-53.982
246.12	-31.746
246.49	-35.659
246.87	-30.714
247.24	-26.490
247.61	-20.395
247.98	-25.503
248.36	-28.395
248.73	-31.288
249.10	-22.404
249.47	-16.915
249.84	-18.848
250.22	-22.280
250.59	-25.556
250.96	-14.545
251.33	-23.980
251.70	-17.094
252.08	-16.667
252.45	-11.475
252.82	-17.355
253.19	-18.359
253.56	-13.688
253.94	-20.769
254.31	-18.561
254.68	-10.140
255.05	-8.795
255.42	-13.605
255.79	-15.858
256.16	-12.252
256.54	-15.894
256.91	-14.426
257.28	-14.098
257.65	-14.968
258.02	-12.684
258.39	-9.402
258.76	-10.398
259.14	-10.920
259.51	-10.375
259.88	-13.031
260.25	-13.333
260.62	-9.041
260.99	-6.831
261.36	-9.920
261.73	-11.671
262.10	-14.011
262.47	-10.456
262.85	-6.818
263.22	-11.948
263.59	-12.105
263.96	-8.184
264.33	-12.788
264.70	-9.383
265.07	-5.489
265.44	-5.896
265.81	-11.574
266.18	-6.349
266.55	-7.813
266.92	-11.845
267.29	-8.753
267.66	-9.091
268.03	-10.044
268.40	-7.516
268.77	-11.162
269.14	-10.573
269.51	-8.991
269.88	-6.967
270.25	-6.439
270.62	-6.329
270.99	-7.677
271.36	-5.743
271.73	-7.859
272.10	-6.012
272.47	-8.016
272.84	-7.631
273.21	-6.613
273.58	-7.661
273.95	-9.038
274.32	-6.464
274.69	-8.317
275.06	-6.227
275.43	-7.948
275.80	-5.996
276.17	-6.111
276.54	-7.463
276.91	-8.408
277.28	-6.329
277.65	-5.745
278.02	-7.721
278.39	-7.065
278.76	-7.733
279.13	-7.979
279.50	-5.670
279.87	-6.261
280.23	-10.035
280.60	-4.915
280.97	-6.414
281.34	-8.829
281.71	-3.215
282.08	-5.316
282.45	-5.565
282.82	-5.495
283.19	-7.108
283.56	-5.574
283.92	-2.102
284.29	-3.160
284.66	-4.598
285.03	-6.891
285.40	-4.328
285.77	-5.418
286.14	-3.817
286.51	-5.632
286.87	-5.845
287.24	-4.367
287.61	-5.082
287.98	-4.683
288.35	-4.882
288.72	-4.882
289.08	-5.564
289.45	-6.805
289.82	-4.970
290.19	-5.460
290.56	-3.944
290.93	-4.993
291.29	-4.683
291.66	-4.132
292.03	-4.749
292.40	-4.082
292.77	-4.313
293.13	-4.060
293.50	-5.782
293.87	-4.564
294.24	-3.067
294.60	-3.793
294.97	-5.906
295.34	-3.457
295.71	-4.414
296.08	-5.168
296.44	-3.554
296.81	-3.289
297.18	-4.483
297.55	-5.071
297.91	-5.101
298.28	-5.095
298.65	-2.616
299.02	-3.306
299.38	-3.204
299.75	-3.972
300.12	-4.282
300.48	-2.074
300.85	-2.587
301.22	-2.349
301.59	-3.311
301.95	-3.729
302.32	-1.667
302.69	-2.738
303.05	-2.503
303.42	-2.993
303.79	-3.125
304.15	-2.208
304.52	-2.854
304.89	-2.618
305.25	-1.760
305.62	-3.030
305.99	-2.371
306.35	-2.520
306.72	-1.448
307.09	-2.944
307.45	-1.967
307.82	-2.422
308.19	-1.514
308.55	-0.675
308.92	-1.363
309.29	-1.245
309.65	-1.754
310.02	-1.287
310.38	-1.575
310.75	-1.262
311.12	0.096
311.48	-1.271
311.85	-1.330
312.22	-1.328
312.58	-1.502
312.95	-1.721
313.31	0.181
313.68	-0.183
314.05	0.813
314.41	0.455
314.78	0.363
315.14	0.363
315.51	0.277
315.87	1.080
316.24	1.279
316.61	2.487
316.97	0.362
317.34	2.028
317.70	2.271
318.07	2.646
318.43	2.891
318.80	3.428
319.16	3.262
319.53	1.285
319.89	2.805
320.26	3.915
320.62	2.837
320.99	3.139
321.35	3.235
321.72	4.093
322.08	3.246
322.45	3.884
322.81	4.603
323.18	4.690
323.54	6.207
323.91	5.605
324.27	5.938
324.64	7.809
325.00	6.716
325.37	7.535
325.73	8.347
326.10	9.732
326.46	9.283
326.83	10.248
327.19	10.315
327.56	9.960
327.92	10.149
328.29	10.484
328.65	10.134
329.01	12.267
329.38	12.384
329.74	12.671
330.11	12.414
330.47	12.131
330.84	13.178
331.20	14.583
331.56	13.432
331.93	15.146
332.29	13.898
332.66	15.116
333.02	13.819
333.38	14.262
333.75	14.983
334.11	14.178
334.48	13.861
334.84	16.228
335.20	13.938
335.57	15.683
335.93	15.950
336.29	15.557
336.66	15.643
337.02	14.967
337.38	15.986
337.75	14.793
338.11	15.812
338.47	15.715
338.84	14.552
339.20	15.501
339.56	14.086
339.93	15.353
340.29	15.942
340.65	15.572
341.02	16.600
341.38	16.896
341.74	16.303
342.11	16.734
342.47	14.853
342.83	16.506
343.20	16.190
343.56	15.798
343.92	16.493
344.28	16.328
344.65	16.899
345.01	17.473
345.37	15.785
345.73	14.497
346.10	16.693
346.46	15.981
346.82	17.079
347.19	17.341
347.55	17.375
347.91	16.419
348.27	17.147
348.63	17.289
349.00	16.629
349.36	17.770
349.72	17.485
350.08	17.385
350.45	16.502
350.81	16.591
351.17	16.541
351.53	16.907
351.89	17.616
352.26	17.985
352.62	17.388
352.98	18.092
353.34	15.982
353.70	17.180
354.07	17.362
354.43	17.084
354.79	16.904
355.15	17.734
355.51	18.640
355.87	16.904
356.24	18.403
356.60	17.369
356.96	18.384
357.32	17.472
357.68	18.082
358.04	18.787
358.40	17.687
358.77	18.640
359.13	18.390
359.49	17.249
359.85	19.144
360.21	18.938
360.57	18.521
360.93	18.618
361.29	19.649
361.66	18.972
362.02	20.946
362.38	19.536
362.74	19.344
363.10	20.289
363.46	19.460
363.82	19.389
364.18	20.267
364.54	20.194
364.90	21.137
365.26	19.862
365.62	20.533
365.98	21.171
366.35	21.074
366.71	20.476
367.07	20.095
367.43	20.486
367.79	21.433
368.15	21.204
368.51	21.042
368.87	21.489
369.23	21.600
369.59	21.516
369.95	21.298
370.31	21.945
370.67	22.490
371.03	21.607
371.39	21.222
371.75	22.421
372.11	22.629
372.47	23.629
372.83	22.971
373.19	23.215
373.55	22.967
373.91	21.336
374.27	22.962
374.63	22.801
374.99	23.276
375.35	23.831
375.71	23.871
376.07	23.564
376.42	24.181
376.78	24.922
377.14	24.392
377.50	25.806
377.86	25.616
378.22	25.509
378.58	26.635
378.94	26.056
379.30	26.538
379.66	26.749
380.02	27.236
380.38	27.419
380.74	27.606
381.09	27.642
381.45	27.898
381.81	28.689
382.17	27.969
382.53	28.304
382.89	28.781
383.25	29.894
383.61	29.861
383.97	29.976
384.32	29.366
384.68	29.176
385.04	30.711
385.40	30.701
385.76	31.946
386.12	29.803
386.48	31.353
386.83	31.764
387.19	31.228
387.55	31.162
387.91	31.336
388.27	32.102
388.62	32.474
388.98	31.585
389.34	32.764
389.70	33.295
390.06	33.215
390.42	33.554
390.77	33.233
391.13	32.629
391.49	33.816
391.85	33.636
392.20	33.393
392.56	33.727
392.92	35.278
393.28	34.439
393.64	34.190
393.99	35.503
394.35	35.572
394.71	34.910
395.07	34.970
395.42	34.951
395.78	36.624
396.14	35.294
396.50	35.214
396.85	35.242
397.21	35.444
397.57	35.925
397.92	35.796
398.28	35.578
398.64	34.897
399.00	35.393
399.35	36.859
399.71	35.815
400.07	35.261
400.42	35.623
400.78	35.185
401.14	36.483
401.49	36.555
401.85	36.337
402.21	37.254
402.57	37.559
402.92	36.998
403.28	35.363
403.63	35.561
403.99	36.223
404.35	35.816
404.70	36.374
405.06	36.685
405.42	37.354
405.77	37.350
406.13	37.277
406.49	36.318
406.84	36.676
407.20	36.836
407.55	36.766
407.91	35.764
408.27	36.337
408.62	36.940
408.98	36.506
409.34	36.598
409.69	37.268
410.05	36.870
410.40	37.587
410.76	37.465
411.11	36.762
411.47	37.408
411.83	37.978
412.18	37.892
412.54	37.226
412.89	37.194
413.25	36.682
413.60	37.163
413.96	38.112
414.31	37.847
414.67	36.255
415.03	36.738
415.38	37.453
415.74	37.996
416.09	37.323
416.45	34.627
416.80	36.597
417.16	36.654
417.51	37.360
417.87	37.032
418.22	37.545
418.58	37.918
418.93	36.671
419.29	38.101
419.64	35.774
420.00	38.338
420.35	37.956
420.71	38.024
421.06	37.263
421.42	37.213
421.77	38.018
422.12	37.051
422.48	38.710
422.83	39.047
423.19	38.992
423.54	38.993
423.90	37.880
424.25	40.213
424.61	38.175
424.96	38.276
425.31	39.278
425.67	38.272
426.02	39.513
426.38	39.150
426.73	39.007
427.09	39.792
427.44	39.214
427.79	39.580
428.15	39.098
428.50	38.539
428.85	38.117
429.21	39.840
429.56	38.302
429.92	39.017
430.27	39.373
430.62	38.740
430.98	39.695
431.33	39.687
431.68	39.703
432.04	40.477
432.39	39.850
432.74	39.669
433.10	39.481
433.45	39.353
433.80	39.646
434.16	40.238
434.51	40.031
434.86	41.802
435.22	41.392
435.57	42.512
435.92	40.902
436.28	39.534
436.63	41.726
436.98	40.043
437.34	40.248
437.69	40.451
438.04	40.296
438.39	40.092
438.75	41.007
439.10	41.755
439.45	40.861
439.81	41.864
440.16	40.054
440.51	40.635
440.86	40.133
441.22	40.622
441.57	39.937
441.92	40.398
442.27	41.010
442.63	40.735
442.98	41.035
443.33	41.241
443.68	41.378
444.03	42.051
444.39	42.164
444.74	40.429
445.09	41.004
445.44	41.570
445.79	42.385
446.15	41.881
446.50	41.240
446.85	40.078
447.20	40.522
447.55	41.266
447.91	41.257
448.26	41.543
448.61	41.020
448.96	41.899
449.31	40.350
449.66	40.142
450.02	41.350
450.37	40.757
450.72	40.527
451.07	41.230
451.42	41.248
451.77	40.022
452.12	41.140
452.47	40.642
452.83	41.554
453.18	40.455
453.53	40.953
453.88	40.420
454.23	41.356
454.58	41.149
454.93	40.959
455.28	41.300
455.63	41.103
455.98	41.006
456.34	40.754
456.69	41.035
457.04	41.785
457.39	41.131
457.74	42.170
458.09	40.472
458.44	41.810
458.79	40.897
459.14	40.115
459.49	41.030
459.84	41.081
460.19	40.700
460.54	40.886
460.89	41.609
461.24	40.805
461.59	40.620
461.94	40.673
462.29	42.273
462.64	40.978
462.99	40.804
463.34	41.402
463.69	40.328
464.04	40.523
464.39	40.807
464.74	40.764
465.09	40.773
465.44	41.255
465.79	40.984
466.14	39.917
466.49	40.684
466.84	40.716
467.19	41.387
467.54	39.130
467.89	39.885
468.24	40.055
468.59	40.764
468.94	39.103
469.29	39.532
469.64	40.051
469.99	39.834
470.34	40.037
470.68	40.602
471.03	40.013
471.38	39.438
471.73	39.597
472.08	40.482
472.43	39.856
472.78	40.617
473.13	39.191
473.48	40.604
473.83	40.685
474.17	39.566
474.52	41.371
474.87	38.760
475.22	39.944
475.57	39.927
475.92	40.767
476.27	39.510
476.61	39.460
476.96	39.416
477.31	39.604
477.66	40.923
478.01	39.756
478.36	39.681
478.70	40.296
479.05	40.235
479.40	39.980
479.75	39.962
480.10	38.986
480.45	40.201
480.79	39.683
481.14	39.798
481.49	40.164
481.84	40.296
482.19	39.570
482.53	41.277
482.88	40.319
483.23	38.728
483.58	39.782
483.92	39.583
484.27	39.204
484.62	38.861
484.97	39.774
485.31	38.402
485.66	36.079
486.01	35.697
486.36	38.145
486.70	41.265
487.05	42.452
487.40	41.166
487.75	39.847
488.09	39.617
488.44	38.255
488.79	38.685
489.13	37.618
489.48	37.282
489.83	38.431
490.17	38.599
490.52	37.767
490.87	39.340
491.22	39.298
491.56	39.292
491.91	39.250
492.26	39.593
492.60	38.653
492.95	39.315
493.30	38.324
493.64	39.290
493.99	38.947
494.34	38.589
494.68	38.373
495.03	39.383
495.37	40.302
495.72	38.458
496.07	38.650
496.41	38.739
496.76	39.825
497.11	38.726
497.45	39.707
497.80	39.938
498.14	38.367
498.49	38.419
498.84	39.260
499.18	38.372
499.53	38.251
499.87	37.890
500.22	38.201
500.56	38.552
500.91	38.398
501.26	38.182
501.60	38.312
501.95	38.037
502.29	37.999
502.64	38.828
502.98	38.395
503.33	38.013
503.67	37.767
504.02	38.179
504.36	39.500
504.71	38.447
505.06	37.881
505.40	37.843
505.75	38.980
506.09	37.707
506.44	37.419
506.78	38.028
507.13	37.483
507.47	38.607
507.82	37.642
508.16	38.241
508.51	36.099
508.85	38.687
509.19	38.039
509.54	38.425
509.88	37.980
510.23	38.222
510.57	38.473
510.92	38.123
511.26	38.047
511.61	36.842
511.95	37.677
512.30	38.109
512.64	37.681
512.98	37.169
513.33	37.802
513.67	38.450
514.02	38.222
514.36	38.210
514.70	37.292
515.05	37.226
515.39	38.268
515.74	38.229
516.08	38.774
516.42	38.043
516.77	38.644
517.11	37.287
517.46	37.752
517.80	37.680
518.14	37.758
518.49	38.612
518.83	37.041
519.17	37.588
519.52	37.421
519.86	37.698
520.20	37.487
520.55	38.499
520.89	38.401
521.23	36.907
521.58	37.119
521.92	37.167
522.26	37.400
522.61	38.773
522.95	37.659
523.29	37.816
523.64	36.547
523.98	37.136
524.32	38.797
524.66	37.336
525.01	36.863
525.35	37.163
525.69	38.225
526.04	36.165
526.38	37.701
526.72	37.255
527.06	38.240
527.41	37.551
527.75	36.995
528.09	38.135
528.43	36.945
528.78	36.647
529.12	36.124
529.46	36.931
529.80	36.442
530.15	37.913
530.49	36.773
530.83	37.013
531.17	36.141
531.51	38.267
531.86	37.079
532.20	37.683
532.54	35.787
532.88	36.182
533.22	36.299
533.57	35.545
533.91	36.981
534.25	36.518
534.59	37.069
534.93	36.333
535.27	37.014
535.62	37.749
535.96	36.316
536.30	36.016
536.64	36.456
536.98	36.101
537.32	36.420
537.66	37.305
538.01	34.743
538.35	35.018
538.69	35.517
539.03	36.174
539.37	35.512
539.71	35.375
540.05	36.031
540.39	35.941
540.73	35.580
541.07	35.193
541.42	35.617
541.76	34.638
542.10	35.223
542.44	35.323
542.78	35.645
543.12	34.029
543.46	34.554
543.80	34.472
544.14	33.812
544.48	34.574
544.82	36.206
545.16	36.255
545.50	35.590
545.84	35.089
546.18	35.741
546.52	35.223
546.86	35.346
547.20	35.751
547.54	35.268
547.88	35.262
548.22	33.860
548.56	34.231
548.90	35.343
549.24	35.319
549.58	35.647
549.92	35.395
550.26	35.469
550.60	34.397
550.94	35.511
551.28	34.983
551.62	34.838
551.96	35.146
552.30	34.990
552.64	35.594
552.98	35.434
553.32	35.113
553.66	35.563
554.00	35.435
554.34	34.942
554.68	34.861
555.02	34.494
555.36	35.832
555.69	34.529
556.03	34.678
556.37	35.106
556.71	34.496
557.05	34.696
557.39	35.501
557.73	34.148
558.07	34.503
558.41	34.684
558.75	35.294
559.08	36.256
559.42	35.802
559.76	34.735
560.10	34.561
560.44	35.224
560.78	34.875
561.12	34.544
561.45	34.976
561.79	34.005
562.13	34.997
562.47	33.046
562.81	34.241
563.15	34.470
563.48	34.307
563.82	34.825
564.16	33.798
564.50	33.909
564.84	33.805
565.17	34.118
565.51	33.429
565.85	34.857
566.19	33.813
566.52	33.236
566.86	33.447
567.20	33.442
567.54	33.510
567.88	34.251
568.21	34.190
568.55	33.621
568.89	32.819
569.23	34.305
569.56	32.552
569.90	32.965
570.24	32.513
570.57	32.328
570.91	32.547
571.25	32.629
571.59	32.202
571.92	32.916
572.26	32.319
572.60	32.624
572.93	32.480
573.27	32.256
573.61	32.160
573.95	31.998
574.28	32.142
574.62	31.332
574.96	31.385
575.29	31.791
575.63	32.248
575.97	31.952
576.30	31.582
576.64	31.305
576.98	31.162
577.31	31.603
577.65	32.171
577.98	31.984
578.32	31.348
578.66	31.983
578.99	31.456
579.33	31.814
579.67	31.845
580.00	31.333
580.34	31.719
580.67	30.759
581.01	31.199
581.35	30.996
581.68	30.896
582.02	31.775
582.35	32.226
582.69	32.364
583.02	31.957
583.36	31.896
583.70	31.379
584.03	31.126
584.37	31.572
584.70	30.244
585.04	30.598
585.37	30.822
585.71	31.413
586.04	31.550
586.38	31.801
586.72	31.311
587.05	31.159
587.39	31.538
587.72	31.483
588.06	32.012
588.39	31.914
588.73	31.296
589.06	31.603
589.40	32.084
589.73	31.395
590.07	31.267
590.40	31.778
590.73	32.379
591.07	30.901
591.40	31.532
591.74	31.121
592.07	31.872
592.41	31.822
592.74	31.594
593.08	31.369
593.41	31.904
593.75	32.069
594.08	31.627
594.41	32.083
594.75	31.219
595.08	31.898
595.42	31.591
595.75	31.708
596.09	31.684
596.42	31.315
596.75	31.957
597.09	32.162
597.42	31.029
597.75	30.929
598.09	31.825
598.42	31.604
598.76	31.143
599.09	31.185
599.42	30.976
599.76	31.363
600.09	31.732
600.42	30.864
600.76	31.110
601.09	31.265
601.42	31.205
601.76	31.345
602.09	31.165
602.42	31.625
602.76	31.328
603.09	30.617
603.42	31.467
603.76	31.078
604.09	31.263
604.42	31.706
604.76	31.240
605.09	31.272
605.42	31.220
605.75	31.577
606.09	31.019
606.42	29.916
606.75	30.810
607.09	30.876
607.42	31.137
607.75	31.262
608.08	30.900
608.42	30.109
608.75	30.721
609.08	30.730
609.41	30.701
609.75	31.295
610.08	31.970
610.41	30.246
610.74	31.261
611.07	31.261
611.41	31.256
611.74	31.085
612.07	31.884
612.40	30.656
612.73	30.954
613.07	30.465
613.40	31.809
613.73	30.477
614.06	30.569
614.39	30.466
614.72	30.859
615.06	31.617
615.39	31.078
615.72	30.521
616.05	30.840
616.38	31.231
616.71	31.348
617.05	30.032
617.38	30.551
617.71	31.911
618.04	31.031
618.37	31.093
618.70	31.278
619.03	31.601
619.36	30.333
619.69	30.685
620.03	30.006
620.36	30.245
620.69	30.598
621.02	31.496
621.35	31.567
621.68	32.176
622.01	30.890
622.34	31.032
622.67	32.027
623.00	31.039
623.33	31.453
623.66	31.842
623.99	31.336
624.32	32.229
624.65	30.631
624.99	32.640
625.32	32.724
625.65	31.895
625.98	31.390
626.31	31.254
626.64	31.062
626.97	31.658
627.30	31.739
627.63	31.583
627.96	31.006
628.29	31.440
628.62	31.234
628.95	31.727
