SpectraSuite Data File
++++++++++++++++++++++++++++++++++++
Date: Thu May 14 14:36:13 PDT 2015
User: schluterlab
Dark Spectrum Present: Yes
Reference Spectrum Present: Yes
Number of Sampled Component Spectra: 1
Spectrometers: USB2E3373
Integration Time (usec): 3000 (USB2E3373)
Spectra Averaged: 3 (USB2E3373)
Boxcar Smoothing: 0 (USB2E3373)
Correct for Electrical Dark: No (USB2E3373)
Strobe/Lamp Enabled: No (USB2E3373)
Correct for Detector Non-linearity: No (USB2E3373)
Correct for Stray Light: No (USB2E3373)
Number of Pixels in Processed Spectrum: 2048
>>>>>Begin Processed Spectral Data<<<<<
178.53	0.000
178.91	-271.429
179.29	1400.000
179.67	1600.000
180.04	92.857
180.42	-230.000
180.80	-300.000
181.18	1300.000
181.56	3300.000
181.94	-475.000
182.31	700.000
182.69	-700.000
183.07	900.000
183.45	-350.000
183.83	316.667
184.20	433.333
184.58	-1700.000
184.96	250.000
185.34	188.889
185.72	460.000
186.09	-155.556
186.47	-650.000
186.85	-260.000
187.23	77.778
187.61	1000.000
187.98	-400.000
188.36	-275.000
188.74	500.000
189.12	800.000
189.49	156.250
189.87	162.500
190.25	177.778
190.63	500.000
191.00	77.778
191.38	0.000
191.76	400.000
192.14	333.333
192.51	-450.000
192.89	550.000
193.27	0.000
193.65	257.143
194.02	1000.000
194.40	228.571
194.78	-228.571
195.15	0.000
195.53	190.909
195.91	0.000
196.29	600.000
196.66	69.231
197.04	900.000
197.42	328.571
197.79	850.000
198.17	325.000
198.55	214.286
198.92	155.556
199.30	137.500
199.68	245.455
200.05	200.000
200.43	450.000
200.81	-171.429
201.18	0.000
201.56	-44.444
201.94	0.000
202.31	-533.333
202.69	222.222
203.07	-2100.000
203.44	144.444
203.82	400.000
204.19	275.000
204.57	350.000
204.95	125.000
205.32	2000.000
205.70	-325.000
206.08	466.667
206.45	183.333
206.83	-240.000
207.20	300.000
207.58	320.000
207.96	333.333
208.33	433.333
208.71	-91.667
209.08	300.000
209.46	0.000
209.84	-133.333
210.21	-1150.000
210.59	-700.000
210.96	-566.667
211.34	500.000
211.71	275.000
212.09	1400.000
212.46	0.000
212.84	-750.000
213.22	140.000
213.59	650.000
213.97	220.000
214.34	666.667
214.72	-183.333
215.09	450.000
215.47	0.000
215.84	-271.429
216.22	-450.000
216.59	200.000
216.97	80.000
217.34	550.000
217.72	225.000
218.09	550.000
218.47	325.000
218.84	0.000
219.22	-340.000
219.59	70.588
219.97	115.000
220.34	-600.000
220.72	133.333
221.09	223.077
221.47	600.000
221.84	150.000
222.22	157.143
222.59	0.000
222.97	287.500
223.34	340.000
223.72	2000.000
224.09	425.000
224.46	325.000
224.84	600.000
225.21	328.571
225.59	375.000
225.96	325.000
226.34	119.231
226.71	-150.000
227.08	750.000
227.46	113.333
227.83	375.000
228.21	136.842
228.58	-112.500
228.95	-150.000
229.33	250.000
229.70	210.000
230.08	189.474
230.45	-160.000
230.82	566.667
231.20	150.000
231.57	166.667
231.95	190.909
232.32	181.818
232.69	140.000
233.07	525.000
233.44	123.529
233.81	170.000
234.19	194.444
234.56	86.364
234.93	89.655
235.31	163.158
235.68	133.333
236.05	80.000
236.43	119.231
236.80	128.000
237.17	88.889
237.55	81.818
237.92	150.000
238.29	87.097
238.67	52.273
239.04	102.778
239.41	59.524
239.79	58.696
240.16	46.296
240.53	63.043
240.91	49.020
241.28	44.262
241.65	61.194
242.02	60.811
242.40	47.692
242.77	54.667
243.14	53.659
243.51	35.526
243.89	55.128
244.26	55.446
244.63	47.059
245.00	45.794
245.38	38.596
245.75	34.513
246.12	38.095
246.49	35.659
246.87	37.857
247.24	45.033
247.61	41.447
247.98	39.597
248.36	37.037
248.73	37.423
249.10	29.508
249.47	36.816
249.84	38.220
250.22	35.751
250.59	33.889
250.96	35.455
251.33	32.143
251.70	38.462
252.08	33.750
252.45	35.656
252.82	34.711
253.19	30.078
253.56	36.122
253.94	33.462
254.31	33.712
254.68	33.916
255.05	34.202
255.42	30.272
255.79	29.126
256.16	35.099
256.54	29.801
256.91	32.459
257.28	33.443
257.65	29.618
258.02	28.319
258.39	29.915
258.76	34.251
259.14	32.759
259.51	31.124
259.88	32.861
260.25	29.444
260.62	33.151
260.99	32.514
261.36	34.853
261.73	28.382
262.10	30.769
262.47	30.027
262.85	32.828
263.22	30.909
263.59	27.368
263.96	33.760
264.33	28.900
264.70	31.111
265.07	31.504
265.44	33.333
265.81	27.083
266.18	30.159
266.55	31.250
266.92	29.613
267.29	28.884
267.66	29.490
268.03	30.131
268.40	29.019
268.77	28.018
269.14	29.295
269.51	30.702
269.88	29.303
270.25	30.785
270.62	30.380
270.99	31.515
271.36	29.307
271.73	30.648
272.10	32.064
272.47	27.856
272.84	30.321
273.21	29.860
273.58	25.605
273.95	27.500
274.32	25.665
274.69	28.820
275.06	28.938
275.43	25.508
275.80	28.748
276.17	27.593
276.54	27.052
276.91	25.939
277.28	26.763
277.65	27.828
278.02	27.206
278.39	26.812
278.76	26.538
279.13	28.546
279.50	26.976
279.87	28.444
280.23	23.768
280.60	27.119
280.97	26.645
281.34	26.316
281.71	28.596
282.08	28.073
282.45	25.532
282.82	25.589
283.19	24.879
283.56	25.082
283.92	25.826
284.29	28.594
284.66	26.765
285.03	26.282
285.40	26.893
285.77	26.625
286.14	25.038
286.51	26.332
286.87	27.488
287.24	25.452
287.61	23.468
287.98	24.924
288.35	25.740
288.72	25.592
289.08	26.794
289.45	23.225
289.82	25.452
290.19	23.851
290.56	25.915
290.93	24.108
291.29	23.691
291.66	24.931
292.03	23.202
292.40	25.306
292.77	22.102
293.13	24.493
293.50	21.682
293.87	23.087
294.24	24.667
294.60	23.262
294.97	22.953
295.34	22.023
295.71	20.807
296.08	22.739
296.44	22.549
296.81	22.412
297.18	21.295
297.55	20.991
297.91	22.420
298.28	22.156
298.65	22.354
299.02	22.786
299.38	22.197
299.75	22.664
300.12	22.917
300.48	20.853
300.85	22.160
301.22	21.253
301.59	20.320
301.95	20.904
302.32	20.889
302.69	21.468
303.05	21.328
303.42	21.175
303.79	19.792
304.15	21.030
304.52	19.767
304.89	20.628
305.25	19.979
305.62	20.585
305.99	20.412
306.35	19.254
306.72	20.993
307.09	20.102
307.45	21.014
307.82	20.787
308.19	19.677
308.55	20.926
308.92	20.643
309.29	21.552
309.65	20.078
310.02	20.693
310.38	20.669
310.75	20.388
311.12	20.422
311.48	21.603
311.85	20.798
312.22	19.639
312.58	20.376
312.95	19.694
313.31	20.867
313.68	20.788
314.05	21.409
314.41	20.674
314.78	22.162
315.14	21.416
315.51	21.791
315.87	21.332
316.24	21.005
316.61	22.202
316.97	20.995
317.34	20.988
317.70	20.699
318.07	21.076
318.43	21.429
318.80	21.656
319.16	21.030
319.53	20.737
319.89	20.859
320.26	21.619
320.62	19.858
320.99	21.607
321.35	21.996
321.72	21.953
322.08	21.551
322.45	21.409
322.81	21.029
323.18	22.478
323.54	22.241
323.91	20.996
324.27	21.601
324.64	22.838
325.00	21.808
325.37	22.768
325.73	22.727
326.10	21.655
326.46	23.127
326.83	22.978
327.19	22.205
327.56	22.134
327.92	22.502
328.29	22.500
328.65	21.943
329.01	22.673
329.38	23.842
329.74	24.743
330.11	24.229
330.47	23.589
330.84	23.514
331.20	24.917
331.56	25.043
331.93	24.351
332.29	23.644
332.66	23.339
333.02	23.618
333.38	23.490
333.75	24.747
334.11	23.686
334.48	24.835
334.84	24.044
335.20	23.174
335.57	24.789
335.93	24.628
336.29	24.459
336.66	23.970
337.02	24.415
337.38	24.150
337.75	24.380
338.11	24.474
338.47	24.814
338.84	23.773
339.20	23.083
339.56	24.959
339.93	24.302
340.29	23.994
340.65	24.818
341.02	24.421
341.38	24.818
341.74	24.294
342.11	23.894
342.47	24.146
342.83	24.879
343.20	25.429
343.56	24.379
343.92	24.339
344.28	24.531
344.65	25.039
345.01	24.961
345.37	24.417
345.73	23.694
346.10	24.727
346.46	24.288
346.82	25.543
347.19	24.828
347.55	24.583
347.91	23.997
348.27	23.672
348.63	24.905
349.00	23.415
349.36	24.907
349.72	24.926
350.08	24.740
350.45	24.639
350.81	24.284
351.17	24.887
351.53	24.337
351.89	24.601
352.26	24.552
352.62	25.522
352.98	24.962
353.34	24.421
353.70	24.037
354.07	24.516
354.43	23.994
354.79	24.907
355.15	24.871
355.51	24.635
355.87	24.757
356.24	25.323
356.60	24.169
356.96	25.649
357.32	24.610
357.68	24.671
358.04	24.251
358.40	24.851
358.77	26.096
359.13	24.594
359.49	23.866
359.85	25.598
360.21	25.036
360.57	23.690
360.93	24.471
361.29	25.754
361.66	24.982
362.02	26.166
362.38	24.736
362.74	25.000
363.10	25.928
363.46	24.515
363.82	24.077
364.18	24.560
364.54	24.550
364.90	25.619
365.26	25.241
365.62	25.667
365.98	26.072
366.35	25.101
366.71	25.510
367.07	25.913
367.43	25.345
367.79	25.348
368.15	26.622
368.51	25.372
368.87	26.192
369.23	25.933
369.59	26.093
369.95	25.490
370.31	24.916
370.67	25.447
371.03	26.385
371.39	25.453
371.75	25.997
372.11	25.678
372.47	25.322
372.83	26.309
373.19	26.351
373.55	26.084
373.91	24.813
374.27	25.420
374.63	25.913
374.99	26.525
375.35	26.169
375.71	25.935
376.07	27.502
376.42	25.315
376.78	27.098
377.14	26.138
377.50	26.565
377.86	26.724
378.22	26.347
378.58	26.576
378.94	26.702
379.30	26.714
379.66	27.043
380.02	27.121
380.38	27.765
380.74	26.704
381.09	27.003
381.45	27.614
381.81	28.396
382.17	27.613
382.53	26.842
382.89	26.467
383.25	27.843
383.61	27.604
383.97	26.737
384.32	28.708
384.68	26.334
385.04	28.687
385.40	29.110
385.76	27.960
386.12	28.007
386.48	28.235
386.83	28.427
387.19	28.100
387.55	27.406
387.91	28.482
388.27	28.580
388.62	27.663
388.98	27.580
389.34	28.167
389.70	28.704
390.06	28.301
390.42	28.193
390.77	28.055
391.13	29.225
391.49	29.227
391.85	28.667
392.20	28.944
392.56	29.297
392.92	28.899
393.28	28.524
393.64	27.654
393.99	28.762
394.35	29.556
394.71	29.222
395.07	28.443
395.42	29.240
395.78	30.104
396.14	29.531
396.50	28.504
396.85	28.682
397.21	29.172
397.57	29.093
397.92	29.095
398.28	28.626
398.64	29.348
399.00	28.115
399.35	29.634
399.71	28.315
400.07	28.916
400.42	29.104
400.78	30.324
401.14	29.767
401.49	29.335
401.85	30.058
402.21	29.838
402.57	29.519
402.92	29.433
403.28	28.864
403.63	29.475
403.99	28.919
404.35	28.880
404.70	29.462
405.06	29.022
405.42	29.333
405.77	29.607
406.13	29.281
406.49	28.660
406.84	29.363
407.20	28.955
407.55	28.892
407.91	29.038
408.27	29.388
408.62	30.076
408.98	29.600
409.34	28.328
409.69	30.037
410.05	30.070
410.40	29.524
410.76	29.277
411.11	29.982
411.47	29.791
411.83	29.630
412.18	29.699
412.54	30.705
412.89	30.210
413.25	29.684
413.60	29.523
413.96	29.429
414.31	29.122
414.67	29.636
415.03	28.800
415.38	30.706
415.74	29.994
416.09	29.673
416.45	30.244
416.80	29.988
417.16	30.396
417.51	29.328
417.87	29.675
418.22	30.120
418.58	30.235
418.93	31.607
419.29	30.764
419.64	30.672
420.00	30.564
420.35	30.825
420.71	30.672
421.06	28.982
421.42	30.619
421.77	30.102
422.12	30.973
422.48	30.517
422.83	30.559
423.19	29.708
423.54	31.139
423.90	30.977
424.25	31.520
424.61	30.425
424.96	29.764
425.31	30.255
425.67	30.220
426.02	31.323
426.38	31.688
426.73	30.804
427.09	32.180
427.44	30.038
427.79	30.956
428.15	30.365
428.50	30.787
428.85	30.482
429.21	31.170
429.56	30.898
429.92	30.762
430.27	31.952
430.62	30.728
430.98	30.792
431.33	30.450
431.68	30.556
432.04	31.082
432.39	30.691
432.74	31.450
433.10	31.476
433.45	30.658
433.80	30.955
434.16	30.630
434.51	30.781
434.86	32.356
435.22	31.615
435.57	32.488
435.92	31.497
436.28	31.968
436.63	31.567
436.98	31.079
437.34	31.736
437.69	31.370
438.04	31.676
438.39	32.165
438.75	31.987
439.10	31.977
439.45	32.141
439.81	31.695
440.16	31.743
440.51	31.940
440.86	31.851
441.22	32.101
441.57	32.338
441.92	31.668
442.27	32.071
442.63	31.942
442.98	32.284
443.33	31.878
443.68	32.755
444.03	31.656
444.39	31.993
444.74	32.670
445.09	31.627
445.44	31.665
445.79	32.567
446.15	32.117
446.50	32.196
446.85	33.025
447.20	32.205
447.55	32.218
447.91	30.942
448.26	31.818
448.61	31.031
448.96	33.208
449.31	32.927
449.66	31.536
450.02	31.962
450.37	33.777
450.72	32.562
451.07	33.144
451.42	32.756
451.77	32.629
452.12	32.788
452.47	31.848
452.83	33.727
453.18	32.866
453.53	33.142
453.88	32.579
454.23	32.881
454.58	32.734
454.93	32.828
455.28	33.173
455.63	33.371
455.98	33.240
456.34	33.746
456.69	32.981
457.04	33.629
457.39	33.093
457.74	33.277
458.09	32.290
458.44	34.267
458.79	32.852
459.14	32.879
459.49	34.012
459.84	33.683
460.19	32.926
460.54	34.355
460.89	33.880
461.24	33.218
461.59	33.813
461.94	33.029
462.29	33.147
462.64	33.072
462.99	33.710
463.34	33.809
463.69	33.587
464.04	33.685
464.39	34.137
464.74	33.466
465.09	32.930
465.44	33.262
465.79	33.263
466.14	33.090
466.49	33.737
466.84	34.105
467.19	33.179
467.54	33.020
467.89	34.253
468.24	33.407
468.59	33.179
468.94	32.692
469.29	32.993
469.64	33.566
469.99	33.015
470.34	34.220
470.68	34.997
471.03	34.316
471.38	34.205
471.73	33.875
472.08	34.708
472.43	34.317
472.78	34.068
473.13	34.513
473.48	34.683
473.83	33.314
474.17	33.822
474.52	33.494
474.87	33.223
475.22	33.915
475.57	33.229
475.92	33.947
476.27	33.866
476.61	33.489
476.96	34.046
477.31	34.554
477.66	35.414
478.01	33.910
478.36	33.400
478.70	34.335
479.05	34.305
479.40	33.613
479.75	33.958
480.10	33.728
480.45	33.683
480.79	34.195
481.14	34.513
481.49	34.075
481.84	34.204
482.19	33.978
482.53	34.980
482.88	33.407
483.23	34.460
483.58	34.279
483.92	33.599
484.27	34.378
484.62	32.921
484.97	33.087
485.31	33.157
485.66	32.082
486.01	31.524
486.36	31.792
486.70	32.418
487.05	32.567
487.40	32.250
487.75	32.901
488.09	32.995
488.44	32.306
488.79	34.132
489.13	34.142
489.48	33.981
489.83	33.159
490.17	33.536
490.52	33.456
490.87	34.433
491.22	34.445
491.56	34.087
491.91	34.060
492.26	33.925
492.60	33.931
492.95	35.147
493.30	34.603
493.64	34.297
493.99	33.728
494.34	34.756
494.68	34.647
495.03	34.670
495.37	35.198
495.72	34.376
496.07	34.093
496.41	34.663
496.76	35.488
497.11	34.522
497.45	33.664
497.80	35.184
498.14	34.422
498.49	33.824
498.84	35.146
499.18	35.223
499.53	35.605
499.87	34.549
500.22	34.417
500.56	34.818
500.91	35.057
501.26	36.273
501.60	34.468
501.95	34.694
502.29	34.269
502.64	34.631
502.98	34.124
503.33	34.600
503.67	34.845
504.02	34.588
504.36	35.612
504.71	34.910
505.06	34.561
505.40	34.598
505.75	34.381
506.09	34.715
506.44	35.422
506.78	35.550
507.13	34.993
507.47	35.433
507.82	34.991
508.16	35.325
508.51	35.631
508.85	35.664
509.19	36.523
509.54	35.687
509.88	35.454
510.23	35.357
510.57	36.104
510.92	34.833
511.26	35.498
511.61	35.249
511.95	35.481
512.30	35.549
512.64	35.182
512.98	34.667
513.33	35.736
513.67	35.645
514.02	35.769
514.36	36.010
514.70	36.250
515.05	35.662
515.39	36.010
515.74	36.108
516.08	36.450
516.42	35.950
516.77	36.856
517.11	34.554
517.46	36.585
517.80	36.505
518.14	36.235
518.49	35.954
518.83	36.935
519.17	35.757
519.52	36.478
519.86	36.272
520.20	36.262
520.55	36.145
520.89	36.655
521.23	35.288
521.58	37.175
521.92	36.487
522.26	35.739
522.61	36.111
522.95	35.986
523.29	37.011
523.64	36.715
523.98	37.479
524.32	36.504
524.66	37.052
525.01	36.636
525.35	35.956
525.69	35.847
526.04	36.108
526.38	35.805
526.72	36.678
527.06	37.009
527.41	36.618
527.75	36.639
528.09	36.836
528.43	35.938
528.78	36.474
529.12	35.550
529.46	35.694
529.80	37.185
530.15	36.580
530.49	37.485
530.83	36.423
531.17	35.902
531.51	36.943
531.86	36.899
532.20	37.195
532.54	37.044
532.88	35.939
533.22	35.415
533.57	36.526
533.91	35.746
534.25	36.066
534.59	37.356
534.93	35.257
535.27	37.070
535.62	36.896
535.96	35.967
536.30	37.192
536.64	36.937
536.98	36.900
537.32	36.481
537.66	37.243
538.01	36.314
538.35	36.480
538.69	36.298
539.03	36.726
539.37	36.160
539.71	36.216
540.05	35.671
540.39	36.125
540.73	34.608
541.07	35.745
541.42	36.621
541.76	35.706
542.10	36.128
542.44	35.627
542.78	35.645
543.12	35.936
543.46	35.836
543.80	35.911
544.14	35.727
544.48	35.520
544.82	36.326
545.16	35.420
545.50	35.890
545.84	35.579
546.18	37.407
546.52	35.732
546.86	36.226
547.20	36.323
547.54	35.955
547.88	36.046
548.22	35.673
548.56	35.810
548.90	36.418
549.24	35.319
549.58	35.457
549.92	35.906
550.26	35.858
550.60	36.120
550.94	37.193
551.28	37.096
551.62	37.129
551.96	36.375
552.30	36.138
552.64	36.279
552.98	35.683
553.32	37.170
553.66	35.563
554.00	36.066
554.34	36.744
554.68	35.378
555.02	36.597
555.36	36.686
555.69	34.721
556.03	36.633
556.37	37.359
556.71	36.335
557.05	36.038
557.39	36.231
557.73	36.526
558.07	36.225
558.41	37.608
558.75	37.120
559.08	36.326
559.42	36.145
559.76	36.974
560.10	36.638
560.44	36.346
560.78	37.000
561.12	35.345
561.45	36.192
561.79	35.592
562.13	37.215
562.47	35.450
562.81	34.873
563.15	36.806
563.48	36.296
563.82	35.913
564.16	35.009
564.50	35.280
564.84	34.395
565.17	35.412
565.51	35.270
565.85	35.154
566.19	34.044
566.52	34.406
566.86	35.257
567.20	34.258
567.54	34.679
567.88	35.219
568.21	35.079
568.55	34.580
568.89	34.226
569.23	33.502
569.56	33.255
569.90	33.571
570.24	33.255
570.57	32.200
570.91	31.966
571.25	31.762
571.59	31.923
571.92	31.956
572.26	31.472
572.60	31.777
572.93	32.035
573.27	31.863
573.61	31.657
573.95	31.828
574.28	31.698
574.62	31.696
574.96	30.988
575.29	30.910
575.63	30.561
575.97	31.377
576.30	31.458
576.64	31.329
576.98	31.162
577.31	31.537
577.65	31.325
577.98	30.817
578.32	30.723
578.66	31.172
578.99	31.067
579.33	31.436
579.67	30.689
580.00	30.928
580.34	30.846
580.67	30.936
581.01	30.917
581.35	30.859
581.68	30.417
582.02	30.847
582.35	30.615
582.69	30.910
583.02	31.303
583.36	31.218
583.70	31.152
584.03	30.838
584.37	31.474
584.70	30.929
585.04	30.598
585.37	30.071
585.71	30.895
586.04	30.757
586.38	30.873
586.72	30.033
587.05	30.698
587.39	30.815
587.72	31.244
588.06	31.359
588.39	31.292
588.73	30.847
589.06	31.095
589.40	31.407
589.73	32.134
590.07	32.261
590.40	32.184
590.73	31.495
591.07	32.614
591.40	31.960
591.74	31.797
592.07	31.994
592.41	32.098
592.74	31.665
593.08	31.752
593.41	31.788
593.75	30.891
594.08	31.687
594.41	31.026
594.75	31.119
595.08	31.931
595.42	31.688
595.75	31.902
596.09	31.515
596.42	32.032
596.75	32.497
597.09	32.606
597.42	32.022
597.75	31.399
598.09	32.341
598.42	32.167
598.76	31.219
599.09	31.435
599.42	30.707
599.76	31.264
600.09	31.365
600.42	31.131
600.76	31.737
601.09	31.497
601.42	30.896
601.76	31.241
602.09	31.237
602.42	31.225
602.76	31.587
603.09	31.791
603.42	31.647
603.76	30.691
604.09	32.150
604.42	31.743
604.76	31.431
605.09	31.711
605.42	31.738
605.75	31.885
606.09	31.206
606.42	30.682
606.75	30.697
607.09	30.722
607.42	30.597
607.75	31.653
608.08	31.610
608.42	30.794
608.75	31.633
609.08	31.282
609.41	31.539
609.75	31.786
610.08	32.366
610.41	30.841
610.74	31.008
611.07	31.750
611.41	31.435
611.74	31.455
612.07	32.445
612.40	32.510
612.73	32.469
613.07	32.518
613.40	31.858
613.73	31.054
614.06	33.121
614.39	31.098
614.72	31.587
615.06	31.617
615.39	31.803
615.72	31.659
616.05	31.909
616.38	32.341
616.71	32.341
617.05	31.310
617.38	32.638
617.71	32.613
618.04	32.380
618.37	32.787
618.70	33.258
619.03	32.796
619.36	33.354
619.69	32.671
620.03	33.459
620.36	32.883
620.69	32.881
621.02	34.646
621.35	34.978
621.68	34.273
622.01	33.950
622.34	32.706
622.67	32.784
623.00	32.119
623.33	33.510
623.66	32.620
623.99	32.653
624.32	33.593
624.65	33.269
624.99	33.810
625.32	34.095
625.65	33.918
625.98	32.881
626.31	34.089
626.64	33.919
626.97	34.134
627.30	34.017
627.63	33.608
627.96	34.309
628.29	34.708
628.62	34.593
628.95	34.794
629.28	33.730
629.61	35.185
629.94	35.063
630.26	34.492
630.59	33.333
630.92	33.333
631.25	36.404
631.58	36.441
631.91	34.770
632.24	35.735
632.57	34.535
632.90	35.206
