SpectraSuite Data File
++++++++++++++++++++++++++++++++++++
Date: Thu May 14 14:49:05 PDT 2015
User: schluterlab
Dark Spectrum Present: Yes
Reference Spectrum Present: Yes
Number of Sampled Component Spectra: 1
Spectrometers: USB2E3373
Integration Time (usec): 3000 (USB2E3373)
Spectra Averaged: 3 (USB2E3373)
Boxcar Smoothing: 0 (USB2E3373)
Correct for Electrical Dark: No (USB2E3373)
Strobe/Lamp Enabled: No (USB2E3373)
Correct for Detector Non-linearity: No (USB2E3373)
Correct for Stray Light: No (USB2E3373)
Number of Pixels in Processed Spectrum: 2048
>>>>>Begin Processed Spectral Data<<<<<
178.53	0.000
178.91	171.429
179.29	-1300.000
179.67	-1200.000
180.04	121.429
180.42	20.000
180.80	40.000
181.18	200.000
181.56	800.000
181.94	275.000
182.31	75.000
182.69	100.000
183.07	-200.000
183.45	225.000
183.83	-100.000
184.20	-333.333
184.58	-200.000
184.96	0.000
185.34	-22.222
185.72	-40.000
186.09	111.111
186.47	250.000
186.85	240.000
187.23	-188.889
187.61	-900.000
187.98	140.000
188.36	300.000
188.74	-50.000
189.12	-100.000
189.49	68.750
189.87	75.000
190.25	-44.444
190.63	-140.000
191.00	-122.222
191.38	0.000
191.76	-400.000
192.14	-83.333
192.51	450.000
192.89	150.000
193.27	0.000
193.65	71.429
194.02	-1300.000
194.40	-42.857
194.78	42.857
195.15	0.000
195.53	0.000
195.91	0.000
196.29	-100.000
196.66	-7.692
197.04	-1100.000
197.42	-114.286
197.79	-500.000
198.17	-37.500
198.55	-71.429
198.92	33.333
199.30	-150.000
199.68	-72.727
200.05	28.571
200.43	-350.000
200.81	57.143
201.18	0.000
201.56	66.667
201.94	0.000
202.31	200.000
202.69	-11.111
203.07	300.000
203.44	-11.111
203.82	-25.000
204.19	-16.667
204.57	-116.667
204.95	-75.000
205.32	-400.000
205.70	125.000
206.08	0.000
206.45	-83.333
206.83	380.000
207.20	116.667
207.58	-120.000
207.96	-250.000
208.33	33.333
208.71	41.667
209.08	33.333
209.46	0.000
209.84	216.667
210.21	50.000
210.59	300.000
210.96	533.333
211.34	-250.000
211.71	-62.500
212.09	-700.000
212.46	0.000
212.84	500.000
213.22	-40.000
213.59	-25.000
213.97	30.000
214.34	-166.667
214.72	116.667
215.09	-50.000
215.47	0.000
215.84	42.857
216.22	100.000
216.59	-100.000
216.97	-100.000
217.34	-175.000
217.72	62.500
218.09	-275.000
218.47	-225.000
218.84	0.000
219.22	260.000
219.59	35.294
219.97	-30.000
220.34	450.000
220.72	-22.222
221.09	46.154
221.47	-66.667
221.84	-130.000
222.22	-100.000
222.59	0.000
222.97	87.500
223.34	-220.000
223.72	-600.000
224.09	-175.000
224.46	-300.000
224.84	200.000
225.21	-185.714
225.59	-325.000
225.96	50.000
226.34	34.615
226.71	233.333
227.08	-300.000
227.46	0.000
227.83	-200.000
228.21	0.000
228.58	12.500
228.95	1050.000
229.33	-8.333
229.70	10.000
230.08	36.842
230.45	80.000
230.82	-166.667
231.20	7.143
231.57	16.667
231.95	9.091
232.32	27.273
232.69	-5.000
233.07	25.000
233.44	-82.353
233.81	-70.000
234.19	5.556
234.56	-4.545
234.93	6.897
235.31	-5.263
235.68	-5.556
236.05	-35.000
236.43	34.615
236.80	8.000
237.17	-3.704
237.55	0.000
237.92	-130.000
238.29	-12.903
238.67	-18.182
239.04	-2.778
239.41	-4.762
239.79	-4.348
240.16	0.000
240.53	-17.391
240.91	-21.569
241.28	4.918
241.65	11.940
242.02	-4.054
242.40	-15.385
242.77	13.333
243.14	-4.878
243.51	-18.421
243.89	0.000
244.26	3.960
244.63	10.784
245.00	0.000
245.38	-0.877
245.75	-15.929
246.12	1.587
246.49	1.550
246.87	8.571
247.24	5.960
247.61	4.605
247.98	8.054
248.36	2.469
248.73	-3.681
249.10	2.186
249.47	4.975
249.84	7.330
250.22	1.036
250.59	3.889
250.96	7.727
251.33	-4.082
251.70	5.128
252.08	3.333
252.45	2.459
252.82	2.479
253.19	5.078
253.56	5.323
253.94	-0.385
254.31	1.136
254.68	5.245
255.05	3.909
255.42	5.102
255.79	1.942
256.16	1.987
256.54	0.000
256.91	2.951
257.28	0.984
257.65	1.911
258.02	0.590
258.39	1.709
258.76	3.976
259.14	5.172
259.51	2.017
259.88	1.700
260.25	1.667
260.62	5.753
260.99	8.197
261.36	6.166
261.73	1.326
262.10	1.374
262.47	3.217
262.85	6.061
263.22	2.857
263.59	-0.789
263.96	2.046
264.33	2.302
264.70	2.469
265.07	5.251
265.44	6.122
265.81	0.926
266.18	2.948
266.55	4.464
266.92	3.189
267.29	5.908
267.66	2.661
268.03	2.183
268.40	3.132
268.77	-0.228
269.14	0.441
269.51	3.728
269.88	5.123
270.25	3.421
270.62	4.641
270.99	5.253
271.36	4.158
271.73	2.358
272.10	3.206
272.47	4.008
272.84	1.606
273.21	5.411
273.58	3.427
273.95	2.500
274.32	1.711
274.69	1.934
275.06	3.480
275.43	2.403
275.80	4.409
276.17	1.481
276.54	1.866
276.91	2.504
277.28	2.893
277.65	1.795
278.02	4.044
278.39	2.717
278.76	2.460
279.13	3.014
279.50	4.983
279.87	4.472
280.23	1.761
280.60	4.915
280.97	2.138
281.34	3.056
281.71	3.384
282.08	3.156
282.45	3.273
282.82	3.454
283.19	1.292
283.56	3.115
283.92	4.054
284.29	5.213
284.66	4.762
285.03	2.244
285.40	4.019
285.77	2.012
286.14	4.885
286.51	4.566
286.87	2.212
287.24	2.711
287.61	3.288
287.98	2.266
288.35	3.254
288.72	3.698
289.08	4.100
289.45	2.811
289.82	2.861
290.19	1.868
290.56	2.535
290.93	2.282
291.29	3.444
291.66	2.617
292.03	1.628
292.40	3.401
292.77	2.695
293.13	3.248
293.50	2.234
293.87	2.685
294.24	4.133
294.60	3.666
294.97	1.342
295.34	3.457
295.71	2.270
296.08	2.326
296.44	4.289
296.81	2.801
297.18	2.366
297.55	3.420
297.91	2.847
298.28	2.133
298.65	3.092
299.02	3.070
299.38	3.318
299.75	2.804
300.12	2.083
300.48	3.111
300.85	3.937
301.22	3.132
301.59	2.169
301.95	2.712
302.32	3.778
302.69	2.629
303.05	3.264
303.42	3.215
303.79	2.188
304.15	3.155
304.52	2.748
304.89	3.141
305.25	3.416
305.62	3.553
305.99	2.268
306.35	3.226
306.72	2.689
307.09	2.843
307.45	3.209
307.82	3.229
308.19	2.926
308.55	3.761
308.92	3.797
309.29	3.927
309.65	1.949
310.02	3.663
310.38	2.559
310.75	2.816
311.12	4.506
311.48	3.617
311.85	3.704
312.22	3.985
312.58	4.225
312.95	2.964
313.31	5.059
313.68	4.487
314.05	4.968
314.41	5.100
314.78	5.268
315.14	4.265
315.51	5.725
315.87	5.491
316.24	7.123
316.61	6.039
316.97	5.701
317.34	7.319
317.70	6.725
318.07	6.437
318.43	7.653
318.80	8.612
319.16	6.953
319.53	7.883
319.89	7.274
320.26	8.096
320.62	8.422
320.99	8.680
321.35	8.965
321.72	9.674
322.08	9.648
322.45	10.569
322.81	11.372
323.18	10.619
323.54	11.466
323.91	12.011
324.27	11.532
324.64	13.266
325.00	12.189
325.37	12.940
325.73	13.636
326.10	12.652
326.46	14.414
326.83	14.251
327.19	14.724
327.56	15.257
327.92	14.634
328.29	14.919
328.65	15.662
329.01	15.905
329.38	16.259
329.74	17.123
330.11	17.380
330.47	17.439
330.84	17.829
331.20	18.667
331.56	17.851
331.93	18.075
332.29	19.576
332.66	18.439
333.02	18.509
333.38	18.372
333.75	18.603
334.11	19.183
334.48	19.142
334.84	19.456
335.20	18.640
335.57	19.815
335.93	20.331
336.29	18.802
336.66	19.933
337.02	19.147
337.38	19.813
337.75	18.512
338.11	19.512
338.47	19.024
338.84	19.712
339.20	18.113
339.56	19.605
339.93	19.622
340.29	20.451
340.65	19.465
341.02	19.872
341.38	20.291
341.74	19.370
342.11	19.228
342.47	18.666
342.83	20.370
343.20	20.360
343.56	19.326
343.92	19.536
344.28	18.984
344.65	19.690
345.01	19.579
345.37	19.051
345.73	18.862
346.10	19.813
346.46	19.778
346.82	19.775
347.19	18.793
347.55	19.196
347.91	19.168
348.27	18.285
348.63	19.726
349.00	19.389
349.36	20.446
349.72	18.378
350.08	19.242
350.45	19.544
350.81	17.345
351.17	18.797
351.53	19.181
351.89	19.818
352.26	18.358
352.62	19.030
352.98	19.008
353.34	18.297
353.70	19.723
354.07	18.256
354.43	18.755
354.79	18.848
355.15	18.469
355.51	19.006
355.87	18.699
356.24	19.316
356.60	19.364
356.96	19.125
357.32	18.959
357.68	18.668
358.04	18.638
358.40	18.284
358.77	19.006
359.13	18.021
359.49	17.695
359.85	19.797
360.21	19.512
360.57	17.732
360.93	18.759
361.29	17.825
361.66	18.899
362.02	18.998
362.38	17.779
362.74	18.925
363.10	18.776
363.46	18.213
363.82	18.466
364.18	17.875
364.54	18.257
364.90	18.595
365.26	17.655
365.62	18.600
365.98	19.129
366.35	18.725
366.71	19.116
367.07	19.215
367.43	17.925
367.79	19.443
368.15	19.799
368.51	19.080
368.87	19.138
369.23	19.067
369.59	17.760
369.95	18.323
370.31	18.569
370.67	18.913
371.03	19.044
371.39	17.529
371.75	19.395
372.11	18.225
372.47	18.348
372.83	19.110
373.19	18.746
373.55	18.564
373.91	18.337
374.27	19.534
374.63	19.418
374.99	18.501
375.35	18.636
375.71	18.516
376.07	18.141
376.42	19.018
376.78	19.018
377.14	19.089
377.50	19.102
377.86	19.397
378.22	18.623
378.58	19.560
378.94	18.838
379.30	20.211
379.66	19.871
380.02	19.273
380.38	19.700
380.74	19.380
381.09	18.990
381.45	19.943
381.81	20.082
382.17	19.596
382.53	19.942
382.89	20.316
383.25	20.047
383.61	19.502
383.97	18.963
384.32	19.438
384.68	18.794
385.04	19.375
385.40	20.566
385.76	20.281
386.12	20.108
386.48	18.765
386.83	20.679
387.19	19.930
387.55	20.481
387.91	18.607
388.27	19.630
388.62	20.160
388.98	20.079
389.34	20.094
389.70	20.395
390.06	20.485
390.42	19.819
390.77	20.710
391.13	19.660
391.49	20.290
391.85	20.182
392.20	20.344
392.56	21.205
392.92	20.883
393.28	20.453
393.64	19.832
393.99	21.209
394.35	21.028
394.71	20.958
395.07	19.641
395.42	21.017
395.78	20.658
396.14	20.915
396.50	20.487
396.85	20.334
397.21	21.065
397.57	19.906
397.92	19.817
398.28	19.663
398.64	20.481
399.00	20.262
399.35	20.890
399.71	20.326
400.07	21.224
400.42	20.605
400.78	20.833
401.14	20.831
401.49	19.955
401.85	20.756
402.21	20.568
402.57	20.775
402.92	20.863
403.28	20.492
403.63	20.048
403.99	20.368
404.35	20.637
404.70	21.303
405.06	20.543
405.42	20.667
405.77	20.284
406.13	20.908
406.49	20.777
406.84	20.886
407.20	21.241
407.55	21.260
407.91	20.993
408.27	20.966
408.62	20.652
408.98	20.952
409.34	19.355
409.69	21.446
410.05	21.102
410.40	21.868
410.76	21.593
411.11	21.391
411.47	22.236
411.83	21.105
412.18	21.807
412.54	20.273
412.89	20.955
413.25	21.388
413.60	20.103
413.96	21.445
414.31	21.303
414.67	21.884
415.03	21.600
415.38	21.501
415.74	21.075
416.09	22.023
416.45	21.603
416.80	20.869
417.16	21.584
417.51	22.354
417.87	22.379
418.22	21.737
418.58	21.437
418.93	21.478
419.29	21.763
419.64	21.188
420.00	22.849
420.35	21.505
420.71	21.712
421.06	22.197
421.42	22.649
421.77	21.756
422.12	22.199
422.48	21.659
422.83	22.563
423.19	23.130
423.54	23.230
423.90	22.032
424.25	22.667
424.61	22.158
424.96	22.790
425.31	23.779
425.67	22.920
426.02	22.800
426.38	23.020
426.73	23.996
427.09	23.875
427.44	22.774
427.79	23.107
428.15	23.174
428.50	23.090
428.85	22.618
429.21	23.830
429.56	23.149
429.92	23.587
430.27	24.193
430.62	24.475
430.98	23.315
431.33	23.118
431.68	23.180
432.04	23.565
432.39	24.317
432.74	23.573
433.10	24.554
433.45	23.802
433.80	23.873
434.16	24.638
434.51	23.998
434.86	25.190
435.22	25.399
435.57	25.177
435.92	24.763
436.28	24.460
436.63	25.287
436.98	24.423
437.34	24.577
437.69	24.876
438.04	24.484
438.39	24.986
438.75	25.069
439.10	25.951
439.45	25.377
439.81	24.859
440.16	25.040
440.51	25.530
440.86	24.458
441.22	24.920
441.57	26.258
441.92	24.685
442.27	25.909
442.63	25.832
442.98	25.400
443.33	25.986
443.68	26.660
444.03	25.870
444.39	25.751
444.74	25.932
445.09	25.342
445.44	26.238
445.79	26.916
446.15	26.619
446.50	26.563
446.85	25.875
447.20	25.484
447.55	26.412
447.91	26.230
448.26	26.427
448.61	25.983
448.96	27.200
449.31	26.511
449.66	26.525
450.02	26.951
450.37	26.692
450.72	26.749
451.07	26.424
451.42	26.690
451.77	26.793
452.12	27.088
452.47	26.797
452.83	26.520
453.18	26.211
453.53	26.364
453.88	26.505
454.23	27.119
454.58	27.394
454.93	26.274
455.28	27.815
455.63	27.231
455.98	26.927
456.34	26.148
456.69	27.160
457.04	27.305
457.39	26.552
457.74	27.405
458.09	27.018
458.44	27.532
458.79	27.540
459.14	27.583
459.49	27.787
459.84	27.702
460.19	26.707
460.54	27.939
460.89	27.528
461.24	26.322
461.59	27.615
461.94	25.898
462.29	27.772
462.64	27.459
462.99	26.428
463.34	27.709
463.69	27.022
464.04	27.849
464.39	28.251
464.74	27.651
465.09	26.990
465.44	28.112
465.79	27.287
466.14	26.107
466.49	27.421
466.84	27.218
467.19	28.266
467.54	26.616
467.89	27.471
468.24	27.535
468.59	26.636
468.94	26.748
469.29	27.235
469.64	27.463
469.99	27.151
470.34	27.413
470.68	28.025
471.03	27.636
471.38	27.469
471.73	26.918
472.08	27.728
472.43	27.032
472.78	27.834
473.13	27.939
473.48	27.372
473.83	28.961
474.17	26.729
474.52	28.262
474.87	26.744
475.22	27.606
475.57	26.895
475.92	27.128
476.27	27.955
476.61	27.466
476.96	27.007
477.31	27.673
477.66	28.699
478.01	27.402
478.36	26.919
478.70	27.537
479.05	28.783
479.40	27.098
479.75	27.714
480.10	27.759
480.45	27.530
480.79	27.891
481.14	26.792
481.49	27.624
481.84	27.546
482.19	27.441
482.53	26.760
482.88	27.825
483.23	27.612
483.58	27.336
483.92	27.349
484.27	27.138
484.62	26.815
484.97	26.633
485.31	27.103
485.66	25.385
486.01	24.912
486.36	26.190
486.70	26.846
487.05	27.932
487.40	27.258
487.75	27.405
488.09	27.895
488.44	26.264
488.79	27.993
489.13	26.865
489.48	27.029
489.83	25.956
490.17	26.853
490.52	26.273
490.87	26.650
491.22	27.296
491.56	27.090
491.91	26.821
492.26	26.569
492.60	26.585
492.95	27.293
493.30	27.028
493.64	27.157
493.99	27.105
494.34	26.611
494.68	27.195
495.03	26.256
495.37	27.031
495.72	25.760
496.07	26.994
496.41	26.512
496.76	26.981
497.11	26.582
497.45	26.586
497.80	27.277
498.14	26.712
498.49	26.930
498.84	26.874
499.18	26.136
499.53	27.220
499.87	26.769
500.22	25.913
500.56	25.461
500.91	26.133
501.26	26.500
501.60	26.602
501.95	27.139
502.29	25.889
502.64	26.235
502.98	26.100
503.33	26.048
503.67	26.341
504.02	26.270
504.36	26.229
504.71	26.734
505.06	26.558
505.40	25.686
505.75	26.275
506.09	27.210
506.44	27.019
506.78	27.248
507.13	26.233
507.47	26.338
507.82	26.515
508.16	26.386
508.51	26.207
508.85	25.744
509.19	26.575
509.54	26.801
509.88	26.421
510.23	26.663
510.57	26.921
510.92	26.996
511.26	25.637
511.61	25.736
511.95	25.378
512.30	26.046
512.64	25.937
512.98	25.263
513.33	27.167
513.67	26.058
514.02	26.111
514.36	26.138
514.70	25.573
515.05	26.434
515.39	26.719
515.74	25.769
516.08	25.885
516.42	26.269
516.77	25.920
517.11	25.632
517.46	25.875
517.80	26.136
518.14	26.279
518.49	25.813
518.83	26.450
519.17	25.310
519.52	25.839
519.86	25.502
520.20	26.411
520.55	26.342
520.89	25.732
521.23	25.237
521.58	26.610
521.92	25.666
522.26	26.518
522.61	26.389
522.95	25.894
523.29	25.977
523.64	25.112
523.98	26.412
524.32	25.559
524.66	25.498
525.01	25.481
525.35	25.215
525.69	25.522
526.04	25.258
526.38	25.575
526.72	25.952
527.06	25.279
527.41	25.190
527.75	25.119
528.09	25.089
528.43	26.229
528.78	24.046
529.12	25.172
529.46	25.295
529.80	24.199
530.15	24.812
530.49	25.089
530.83	25.974
531.17	24.910
531.51	25.030
531.86	25.781
532.20	26.402
532.54	24.177
532.88	24.667
533.22	24.278
533.57	24.928
533.91	24.411
534.25	23.573
534.59	24.598
534.93	24.222
535.27	24.845
535.62	24.559
535.96	24.927
536.30	24.794
536.64	24.144
536.98	24.108
537.32	24.074
537.66	24.392
538.01	24.230
538.35	23.752
538.69	23.618
539.03	25.015
539.37	23.675
539.71	24.204
540.05	23.741
540.39	23.350
540.73	22.040
541.07	23.299
541.42	23.213
541.76	23.665
542.10	23.040
542.44	23.508
542.78	24.331
543.12	23.063
543.46	23.932
543.80	22.662
544.14	23.339
544.48	22.931
544.82	24.057
545.16	22.779
545.50	23.128
545.84	23.148
546.18	23.025
546.52	22.994
546.86	22.516
547.20	22.964
547.54	22.909
547.88	22.483
548.22	21.754
548.56	22.996
548.90	21.791
549.24	22.796
549.58	22.839
549.92	22.513
550.26	22.654
550.60	22.591
550.94	23.415
551.28	23.564
551.62	22.844
551.96	22.460
552.30	22.753
552.64	22.651
552.98	20.961
553.32	21.801
553.66	21.865
554.00	22.383
554.34	22.716
554.68	22.143
555.02	22.405
555.36	22.288
555.69	20.820
556.03	21.564
556.37	22.778
556.71	20.926
557.05	22.428
557.39	21.632
557.73	21.202
558.07	21.987
558.41	22.060
558.75	21.636
559.08	21.990
559.42	20.027
559.76	21.777
560.10	21.835
560.44	21.174
560.78	21.312
561.12	21.921
561.45	21.898
561.79	21.734
562.13	20.394
562.47	20.469
562.81	21.392
563.15	21.717
563.48	22.374
563.82	21.282
564.16	20.291
564.50	20.977
564.84	21.121
565.17	20.471
565.51	20.426
565.85	20.249
566.19	20.737
566.52	20.597
566.86	20.996
567.20	19.848
567.54	19.862
567.88	20.693
568.21	20.899
568.55	20.048
568.89	20.018
569.23	19.983
569.56	19.422
569.90	19.922
570.24	19.123
570.57	18.890
570.91	18.739
571.25	19.439
571.59	19.566
571.92	19.110
572.26	19.137
572.60	19.055
572.93	19.204
573.27	18.797
573.61	18.872
573.95	18.718
574.28	19.341
574.62	18.668
574.96	18.328
575.29	18.418
575.63	18.318
575.97	18.467
576.30	18.702
576.64	18.587
576.98	18.269
577.31	18.353
577.65	18.613
577.98	17.884
578.32	17.816
578.66	17.753
578.99	18.206
579.33	18.297
579.67	18.268
580.00	18.116
580.34	18.041
580.67	17.410
581.01	17.936
581.35	17.319
581.68	17.569
582.02	17.394
582.35	17.593
582.69	17.995
583.02	17.847
583.36	18.176
583.70	18.269
584.03	17.423
584.37	17.847
584.70	17.433
585.04	17.205
585.37	17.167
585.71	16.980
586.04	17.613
586.38	17.270
586.72	17.398
587.05	17.191
587.39	17.651
587.72	17.488
588.06	17.045
588.39	17.451
588.73	17.354
589.06	17.410
589.40	17.455
589.73	17.320
590.07	17.241
590.40	17.241
590.73	17.109
591.07	17.163
591.40	16.991
591.74	17.488
592.07	17.580
592.41	16.759
592.74	16.755
593.08	17.006
593.41	16.944
593.75	16.897
594.08	16.965
594.41	17.179
594.75	16.871
595.08	16.824
595.42	16.688
595.75	16.468
596.09	16.876
596.42	16.697
596.75	16.982
597.09	17.212
597.42	16.091
597.75	16.895
598.09	16.310
598.42	17.169
598.76	16.125
599.09	16.056
599.42	15.857
599.76	16.243
600.09	16.350
600.42	16.383
600.76	16.546
601.09	16.130
601.42	15.723
601.76	16.379
602.09	16.262
602.42	15.667
602.76	15.646
603.09	16.263
603.42	16.149
603.76	15.927
604.09	16.430
604.42	16.147
604.76	15.145
605.09	15.636
605.42	16.467
605.75	15.385
606.09	15.901
606.42	15.505
606.75	15.592
607.09	15.054
607.42	16.609
607.75	15.475
608.08	15.391
608.42	15.679
608.75	15.713
609.08	15.492
609.41	15.924
609.75	15.268
610.08	15.743
610.41	15.718
610.74	15.378
611.07	15.409
611.41	15.785
611.74	16.120
612.07	15.755
612.40	15.162
612.73	15.061
613.07	15.257
613.40	15.544
613.73	15.455
614.06	15.358
614.39	14.772
614.72	15.526
615.06	15.303
615.39	14.983
615.72	15.166
616.05	15.250
616.38	15.540
616.71	15.883
617.05	14.643
617.38	15.035
617.71	15.443
618.04	15.488
618.37	14.863
618.70	15.554
619.03	15.830
619.36	14.982
619.69	14.990
620.03	15.191
620.36	14.969
620.69	15.052
621.02	14.829
621.35	16.473
621.68	15.329
622.01	15.872
622.34	14.435
622.67	15.945
623.00	13.495
623.33	15.992
623.66	15.564
623.99	14.681
624.32	15.724
624.65	13.256
624.99	15.605
625.32	15.611
625.65	15.239
625.98	14.712
626.31	14.600
626.64	14.652
626.97	15.004
627.30	15.110
627.63	15.079
627.96	15.090
628.29	15.331
628.62	14.861
628.95	15.600
629.28	14.528
629.61	15.825
629.94	14.059
630.26	14.661
630.59	15.458
630.92	13.593
631.25	15.564
631.58	14.407
631.91	14.152
632.24	15.562
632.57	15.655
632.90	15.647
633.23	14.082
633.56	15.306
633.89	13.946
634.22	14.969
634.55	14.405
634.88	14.827
635.20	16.146
635.53	16.158
635.86	15.710
636.19	16.225
636.52	15.401
636.85	15.730
637.18	14.033
637.51	15.161
637.83	15.282
638.16	14.747
