SpectraSuite Data File
++++++++++++++++++++++++++++++++++++
Date: Thu May 14 15:05:07 PDT 2015
User: schluterlab
Dark Spectrum Present: Yes
Reference Spectrum Present: Yes
Number of Sampled Component Spectra: 1
Spectrometers: USB2E3373
Integration Time (usec): 3000 (USB2E3373)
Spectra Averaged: 3 (USB2E3373)
Boxcar Smoothing: 0 (USB2E3373)
Correct for Electrical Dark: No (USB2E3373)
Strobe/Lamp Enabled: No (USB2E3373)
Correct for Detector Non-linearity: No (USB2E3373)
Correct for Stray Light: No (USB2E3373)
Number of Pixels in Processed Spectrum: 2048
>>>>>Begin Processed Spectral Data<<<<<
178.53	0.000
178.91	357.143
179.29	-2900.000
179.67	-2500.000
180.04	300.000
180.42	300.000
180.80	720.000
181.18	-2900.000
181.56	-2200.000
181.94	375.000
182.31	-625.000
182.69	700.000
183.07	-1200.000
183.45	800.000
183.83	-500.000
184.20	-733.333
184.58	2900.000
184.96	-700.000
185.34	-233.333
185.72	-300.000
186.09	411.111
186.47	1850.000
186.85	540.000
187.23	-355.556
187.61	-2700.000
187.98	540.000
188.36	625.000
188.74	-625.000
189.12	-733.333
189.49	-175.000
189.87	-375.000
190.25	-244.444
190.63	-500.000
191.00	-300.000
191.38	0.000
191.76	-550.000
192.14	-366.667
192.51	1500.000
192.89	-433.333
193.27	0.000
193.65	-328.571
194.02	-2500.000
194.40	-400.000
194.78	428.571
195.15	0.000
195.53	-245.455
195.91	0.000
196.29	-475.000
196.66	-176.923
197.04	-3200.000
197.42	-442.857
197.79	-1600.000
198.17	-337.500
198.55	-342.857
198.92	-200.000
199.30	-312.500
199.68	-145.455
200.05	-142.857
200.43	-1400.000
200.81	471.429
201.18	0.000
201.56	377.778
201.94	0.000
202.31	1000.000
202.69	-244.444
203.07	2300.000
203.44	-255.556
203.82	-800.000
204.19	-158.333
204.57	-416.667
204.95	-325.000
205.32	-2500.000
205.70	600.000
206.08	-333.333
206.45	-350.000
206.83	740.000
207.20	-266.667
207.58	-720.000
207.96	-516.667
208.33	-366.667
208.71	258.333
209.08	-400.000
209.46	0.000
209.84	500.000
210.21	1300.000
210.59	850.000
210.96	1066.667
211.34	-550.000
211.71	-325.000
212.09	-3000.000
212.46	0.000
212.84	1750.000
213.22	-720.000
213.59	-750.000
213.97	-270.000
214.34	-966.667
214.72	533.333
215.09	-725.000
215.47	0.000
215.84	357.143
216.22	1500.000
216.59	-420.000
216.97	-600.000
217.34	-625.000
217.72	-287.500
218.09	-600.000
218.47	-675.000
218.84	0.000
219.22	620.000
219.59	-170.588
219.97	-100.000
220.34	1700.000
220.72	-266.667
221.09	-138.462
221.47	-766.667
221.84	-180.000
222.22	-400.000
222.59	0.000
222.97	-287.500
223.34	-580.000
223.72	-2200.000
224.09	-600.000
224.46	-675.000
224.84	-320.000
225.21	-357.143
225.59	-650.000
225.96	-825.000
226.34	-65.385
226.71	533.333
227.08	-1200.000
227.46	-153.333
227.83	-825.000
228.21	-100.000
228.58	400.000
228.95	1700.000
229.33	-133.333
229.70	-220.000
230.08	-89.474
230.45	260.000
230.82	-733.333
231.20	-135.714
231.57	-141.667
231.95	-163.636
232.32	-209.091
232.69	-105.000
233.07	-650.000
233.44	-158.824
233.81	-260.000
234.19	-77.778
234.56	-104.545
234.93	-51.724
235.31	-68.421
235.68	-166.667
236.05	-150.000
236.43	-53.846
236.80	-72.000
237.17	-70.370
237.55	-72.727
237.92	-320.000
238.29	-83.871
238.67	-31.818
239.04	-63.889
239.41	-61.905
239.79	-45.652
240.16	-48.148
240.53	-50.000
240.91	-47.059
241.28	-44.262
241.65	-32.836
242.02	-29.730
242.40	-44.615
242.77	-30.667
243.14	-35.366
243.51	-46.053
243.89	-37.179
244.26	-20.792
244.63	-22.549
245.00	-13.084
245.38	-21.053
245.75	-24.779
246.12	-19.841
246.49	-25.581
246.87	-12.857
247.24	-13.907
247.61	-13.816
247.98	-22.148
248.36	-11.111
248.73	-26.380
249.10	-14.754
249.47	-7.463
249.84	-13.089
250.22	-14.508
250.59	-13.333
250.96	-8.636
251.33	-20.408
251.70	-4.701
252.08	-8.333
252.45	-10.246
252.82	-11.983
253.19	-11.328
253.56	-8.745
253.94	-13.462
254.31	-9.470
254.68	-6.643
255.05	-4.235
255.42	-5.442
255.79	-10.032
256.16	-10.265
256.54	-13.576
256.91	-8.852
257.28	-9.836
257.65	-12.739
258.02	-8.555
258.39	-4.843
258.76	-5.199
259.14	-4.023
259.51	-4.323
259.88	-9.065
260.25	-6.667
260.62	-5.753
260.99	-5.738
261.36	-5.094
261.73	-9.284
262.10	-5.220
262.47	-6.702
262.85	-2.273
263.22	-7.013
263.59	-10.789
263.96	-5.371
264.33	-6.138
264.70	-2.469
265.07	-3.103
265.44	-2.494
265.81	-6.481
266.18	-2.494
266.55	-5.357
266.92	-6.378
267.29	-2.407
267.66	-5.322
268.03	-3.712
268.40	-5.846
268.77	-7.745
269.14	-6.828
269.51	-6.140
269.88	-3.484
270.25	-3.421
270.62	-5.063
270.99	-2.626
271.36	-2.376
271.73	-4.519
272.10	-3.206
272.47	-5.812
272.84	-4.016
273.21	-4.409
273.58	-1.411
273.95	-4.231
274.32	-4.943
274.69	-4.836
275.06	-3.663
275.43	-4.436
275.80	-2.998
276.17	-5.185
276.54	-4.104
276.91	-5.367
277.28	-2.532
277.65	-4.309
278.02	-2.574
278.39	-5.072
278.76	-5.624
279.13	-5.319
279.50	-2.749
279.87	-3.757
280.23	-5.458
280.60	-3.898
280.97	-4.112
281.34	-5.093
281.71	-2.200
282.08	-3.821
282.45	-2.946
282.82	-3.768
283.19	-4.523
283.56	-3.115
283.92	-0.751
284.29	-1.264
284.66	-2.299
285.03	-4.968
285.40	-4.019
285.77	-2.941
286.14	-2.290
286.51	-3.196
286.87	-3.633
287.24	-3.012
287.61	-3.737
287.98	-4.834
288.35	-2.811
288.72	-3.107
289.08	-3.221
289.45	-3.550
289.82	-2.410
290.19	-2.586
290.56	-2.394
290.93	-2.996
291.29	-3.444
291.66	-2.617
292.03	-3.121
292.40	-2.313
292.77	-4.178
293.13	-3.112
293.50	-4.862
293.87	-2.685
294.24	-1.333
294.60	-0.632
294.97	-3.356
295.34	-2.049
295.71	-3.279
296.08	-3.101
296.44	-2.819
296.81	-2.071
297.18	-2.989
297.55	-2.830
297.91	-0.949
298.28	-2.962
298.65	-1.308
299.02	-3.188
299.38	-1.831
299.75	-1.752
300.12	-2.083
300.48	-2.074
300.85	-0.787
301.22	-1.007
301.59	-2.626
301.95	-2.147
302.32	-1.111
302.69	-1.643
303.05	-2.067
303.42	-2.661
303.79	-2.500
304.15	-2.208
304.52	-2.748
304.89	-0.419
305.25	-0.828
305.62	-1.672
305.99	-1.443
306.35	-1.815
306.72	-2.378
307.09	-1.827
307.45	-0.518
307.82	-1.514
308.19	-2.018
308.55	-1.543
308.92	-1.071
309.29	-0.958
309.65	-2.242
310.02	-1.980
310.38	-1.870
310.75	-1.748
311.12	-1.918
311.48	-1.760
311.85	-0.570
312.22	-2.277
312.58	-2.254
312.95	-2.103
313.31	-1.355
313.68	-0.916
314.05	-0.181
314.41	0.182
314.78	-1.362
315.14	-0.726
315.51	-1.200
315.87	-0.990
316.24	-0.913
316.61	-0.178
316.97	-1.991
317.34	-1.764
317.70	-0.699
318.07	-0.353
318.43	-0.085
318.80	0.251
319.16	-0.773
319.53	-0.857
319.89	-1.139
320.26	-0.801
320.62	-1.684
320.99	-1.754
321.35	-0.185
321.72	-0.279
322.08	-1.353
322.45	-0.181
322.81	-0.542
323.18	-1.504
323.54	-0.431
323.91	-0.979
324.27	0.172
324.64	0.000
325.00	-1.078
325.37	0.000
325.73	-1.074
326.10	-0.406
326.46	-0.570
326.83	0.160
327.19	-0.709
327.56	-0.553
327.92	-0.157
328.29	-0.323
328.65	-0.335
329.01	-0.423
329.38	-0.084
329.74	0.086
330.11	0.171
330.47	0.000
330.84	0.086
331.20	-0.250
331.56	-0.953
331.93	0.418
332.29	0.508
332.66	0.415
333.02	-0.503
333.38	-0.419
333.75	-0.842
334.11	-0.417
334.48	-0.083
334.84	-0.085
335.20	0.252
335.57	0.000
335.93	0.744
336.29	-0.333
336.66	-1.514
337.02	0.084
337.38	1.531
337.75	-0.413
338.11	-0.168
338.47	-0.414
338.84	-0.592
339.20	-0.253
339.56	-0.082
339.93	-0.246
340.29	-0.161
340.65	-0.324
341.02	0.000
341.38	0.485
341.74	-0.565
342.11	0.241
342.47	0.079
342.83	-0.483
343.20	-0.491
343.56	-0.080
343.92	-0.641
344.28	0.781
344.65	1.550
345.01	0.312
345.37	0.078
345.73	0.000
346.10	0.546
346.46	0.237
346.82	1.049
347.19	0.688
347.55	0.152
347.91	0.446
348.27	-0.455
348.63	0.609
349.00	-0.373
349.36	0.223
349.72	-0.074
350.08	0.446
350.45	-1.065
350.81	-0.528
351.17	-0.150
351.53	-0.076
351.89	0.683
352.26	0.149
352.62	-0.075
352.98	-0.458
353.34	-0.597
353.70	-0.462
354.07	0.373
354.43	-0.304
354.79	0.150
355.15	0.368
355.51	0.877
355.87	-0.150
356.24	-0.304
356.60	-0.296
356.96	-0.519
357.32	0.743
357.68	-0.586
358.04	-0.524
358.40	0.000
358.77	0.585
359.13	-0.369
359.49	-1.190
359.85	-0.798
360.21	0.430
360.57	-0.431
360.93	0.282
361.29	0.912
361.66	-0.579
362.02	1.322
362.38	-0.492
362.74	-0.559
363.10	0.138
363.46	0.000
363.82	-0.142
364.18	0.211
364.54	0.277
364.90	-0.535
365.26	-0.966
365.62	0.267
365.98	-0.068
366.35	0.201
366.71	0.068
367.07	-0.406
367.43	0.066
367.79	-0.332
368.15	0.669
368.51	-0.068
368.87	0.261
369.23	-0.267
369.59	-1.025
369.95	0.000
370.31	0.338
370.67	0.344
371.03	0.139
371.39	0.403
371.75	0.206
372.11	0.407
372.47	0.812
372.83	0.785
373.19	0.600
373.55	0.339
373.91	-0.477
374.27	0.259
374.63	0.000
374.99	0.531
375.35	0.130
375.71	0.710
376.07	0.516
376.42	0.441
376.78	0.559
377.14	0.499
377.50	0.190
377.86	1.478
378.22	0.778
378.58	0.654
378.94	0.704
379.30	0.351
379.66	0.941
380.02	0.692
380.38	1.267
380.74	0.676
381.09	0.755
381.45	0.455
381.81	0.995
382.17	0.772
382.53	1.053
382.89	0.959
383.25	1.231
383.61	0.231
383.97	0.589
384.32	1.196
384.68	0.522
385.04	1.619
385.40	1.237
385.76	0.528
386.12	0.838
386.48	1.294
386.83	1.609
387.19	0.463
387.55	0.646
387.91	0.685
388.27	1.270
388.62	1.317
388.98	1.579
389.34	1.120
389.70	1.162
390.06	1.243
390.42	0.964
390.77	2.047
391.13	0.822
391.49	1.751
391.85	1.091
392.20	0.949
392.56	2.067
392.92	1.854
393.28	1.990
393.64	1.061
393.99	1.511
394.35	1.577
394.71	1.138
395.07	0.479
395.42	1.314
395.78	1.645
396.14	1.367
396.50	0.772
396.85	1.491
397.21	1.124
397.57	0.766
397.92	1.432
398.28	0.760
398.64	1.030
399.00	1.099
399.35	1.518
399.71	0.761
400.07	0.618
400.42	0.990
400.78	1.100
401.14	1.480
401.49	1.251
401.85	0.930
402.21	1.333
402.57	1.467
402.92	0.709
403.28	0.937
403.63	0.119
403.99	1.128
404.35	1.649
404.70	1.813
405.06	1.196
405.42	0.937
405.77	1.363
406.13	1.351
406.49	1.295
406.84	0.942
407.20	1.565
407.55	0.606
407.91	0.817
408.27	1.296
408.62	1.513
408.98	1.045
409.34	0.235
409.69	1.051
410.05	0.938
410.40	1.218
410.76	1.514
411.11	0.877
411.47	1.474
411.83	1.822
412.18	1.506
412.54	1.126
412.89	1.397
413.25	0.959
413.60	1.091
413.96	1.515
414.31	1.133
414.67	0.775
415.03	0.431
415.38	1.261
415.74	1.161
416.09	1.727
416.45	1.691
416.80	0.857
417.16	1.086
417.51	1.432
417.87	1.165
418.22	1.078
418.58	0.743
418.93	2.328
419.29	1.110
419.64	1.200
420.00	0.890
420.35	1.291
420.71	1.321
421.06	1.150
421.42	0.975
421.77	1.023
422.12	1.533
422.48	1.382
422.83	1.479
423.19	1.432
423.54	0.940
423.90	1.270
424.25	1.227
424.61	0.574
424.96	1.593
425.31	1.539
425.67	1.235
426.02	1.162
426.38	1.091
426.73	1.116
427.09	1.615
427.44	0.819
427.79	0.995
428.15	1.084
428.50	0.337
428.85	1.033
429.21	2.128
429.56	1.086
429.92	1.376
430.27	1.157
430.62	1.661
430.98	1.623
431.33	1.369
431.68	1.006
432.04	1.422
432.39	1.768
432.74	1.370
433.10	1.406
433.45	1.059
433.80	1.663
434.16	1.343
434.51	1.336
434.86	0.923
435.22	1.488
435.57	1.415
435.92	1.224
436.28	0.512
436.63	0.928
436.98	1.074
437.34	1.466
437.69	0.881
438.04	0.793
438.39	1.551
438.75	1.107
439.10	1.321
439.45	1.453
439.81	1.186
440.16	0.858
440.51	1.059
440.86	1.167
441.22	1.286
441.57	1.205
441.92	1.746
442.27	1.515
442.63	1.093
442.98	1.761
443.33	1.105
443.68	1.883
444.03	1.646
444.39	1.896
444.74	1.429
445.09	1.115
445.44	1.054
445.79	1.868
446.15	1.028
446.50	1.550
446.85	1.897
447.20	1.838
447.55	1.674
447.91	0.995
448.26	0.846
448.61	1.328
448.96	1.502
449.31	1.485
449.66	0.871
450.02	1.424
450.37	1.971
450.72	0.969
451.07	1.651
451.42	1.386
451.77	1.001
452.12	1.354
452.47	0.772
452.83	1.351
453.18	1.751
453.53	0.517
453.88	0.939
454.23	1.243
454.58	1.219
454.93	0.728
455.28	1.746
455.63	0.910
455.98	1.676
456.34	1.413
456.69	1.411
457.04	1.359
457.39	1.220
457.74	1.398
458.09	0.824
458.44	1.509
458.79	1.031
459.14	1.678
459.49	0.962
459.84	1.679
460.19	0.944
460.54	0.568
460.89	1.218
461.24	0.230
461.59	1.660
461.94	0.685
462.29	1.288
462.64	0.543
462.99	1.004
463.34	1.947
463.69	1.876
464.04	1.223
464.39	1.345
464.74	1.653
465.09	1.499
465.44	1.180
465.79	1.798
466.14	1.407
466.49	1.105
466.84	1.433
467.19	1.329
467.54	0.705
467.89	1.207
468.24	1.551
468.59	0.984
468.94	0.874
469.29	1.020
469.64	0.826
469.99	0.701
470.34	1.300
470.68	1.572
471.03	1.637
471.38	1.439
471.73	1.105
472.08	0.888
472.43	1.505
472.78	1.071
473.13	0.948
473.48	1.390
473.83	1.509
474.17	1.758
474.52	1.143
474.87	1.606
475.22	1.634
475.57	1.246
475.92	1.643
476.27	1.278
476.61	1.661
476.96	1.147
477.31	1.436
477.66	1.836
478.01	1.118
478.36	1.844
478.70	1.724
479.05	1.738
479.40	1.135
479.75	1.825
480.10	1.705
480.45	1.960
480.79	2.313
481.14	1.379
481.49	1.227
481.84	1.958
482.19	1.548
482.53	1.836
482.88	1.684
483.23	1.690
483.58	1.354
483.92	1.064
484.27	1.651
484.62	1.898
484.97	2.177
485.31	1.725
485.66	1.755
486.01	2.198
486.36	2.220
486.70	2.392
487.05	2.516
487.40	2.368
487.75	2.392
488.09	2.226
488.44	1.973
488.79	1.821
489.13	1.702
489.48	2.019
489.83	1.449
490.17	1.742
490.52	1.929
490.87	1.777
491.22	1.213
491.56	1.877
491.91	2.050
492.26	1.514
492.60	2.143
492.95	1.755
493.30	1.658
493.64	1.752
493.99	1.579
494.34	1.307
494.68	1.028
495.03	1.101
495.37	1.687
495.72	1.633
496.07	1.840
496.41	1.459
496.76	1.501
497.11	1.444
497.45	1.165
497.80	2.488
498.14	1.542
498.49	1.608
498.84	1.371
499.18	2.204
499.53	1.883
499.87	1.670
500.22	0.890
500.56	1.484
500.91	1.831
501.26	1.864
501.60	1.105
501.95	1.911
502.29	2.062
502.64	1.705
502.98	1.898
503.33	1.641
503.67	1.177
504.02	1.357
504.36	1.921
504.71	1.654
505.06	1.728
505.40	1.874
505.75	1.594
506.09	1.888
506.44	1.578
506.78	1.927
507.13	1.982
507.47	1.658
507.82	1.610
508.16	1.338
508.51	1.406
508.85	1.606
509.19	1.468
509.54	2.113
509.88	1.651
510.23	1.797
510.57	1.885
510.92	1.645
511.26	1.299
511.61	1.014
511.95	1.171
512.30	2.462
512.64	0.900
512.98	2.151
513.33	1.865
513.67	2.601
514.02	1.788
514.36	2.251
514.70	1.823
515.05	2.033
515.39	1.050
515.74	2.227
516.08	2.060
516.42	2.198
516.77	1.840
517.11	1.650
517.46	2.068
517.80	1.657
518.14	2.503
518.49	1.681
518.83	1.809
519.17	1.023
519.52	1.730
519.86	2.323
520.20	1.757
520.55	1.917
520.89	1.633
521.23	2.066
521.58	1.638
521.92	2.493
522.26	1.833
522.61	1.447
522.95	1.903
523.29	1.207
523.64	2.354
523.98	2.225
524.32	2.464
524.66	1.366
525.01	0.963
525.35	1.149
525.69	1.914
526.04	1.837
526.38	1.954
526.72	1.672
527.06	2.287
527.41	1.633
527.75	1.841
528.09	2.361
528.43	1.480
528.78	1.214
529.12	1.491
529.46	1.855
529.80	1.659
530.15	1.449
530.49	1.305
530.83	1.948
531.17	0.956
531.51	1.324
531.86	2.043
532.20	1.890
532.54	1.496
532.88	1.697
533.22	2.121
533.57	1.847
533.91	2.525
534.25	2.487
534.59	1.897
534.93	1.811
535.27	1.859
535.62	2.103
535.96	1.917
536.30	1.586
536.64	1.982
536.98	1.722
537.32	2.593
537.66	2.495
538.01	1.752
538.35	1.401
538.69	1.142
539.03	1.778
539.37	2.061
539.71	1.502
540.05	1.799
540.39	1.284
540.73	2.064
541.07	2.023
541.42	2.067
541.76	1.898
542.10	1.689
542.44	1.644
542.78	1.582
543.12	2.503
543.46	1.648
543.80	1.739
544.14	1.197
544.48	2.423
544.82	1.975
545.16	1.670
545.50	2.037
545.84	1.898
546.18	2.099
546.52	1.465
546.86	1.698
547.20	1.463
547.54	2.122
547.88	1.688
548.22	1.871
548.56	1.814
548.90	1.433
549.24	1.702
549.58	1.703
549.92	1.148
550.26	2.071
550.60	1.914
550.94	1.682
551.28	2.112
551.62	1.617
551.96	2.136
552.30	1.785
552.64	2.240
552.98	1.871
553.32	1.801
553.66	2.122
554.00	2.144
554.34	1.480
554.68	1.549
555.02	2.102
555.36	2.104
555.69	2.050
556.03	2.144
556.37	2.128
556.71	1.458
557.05	2.236
557.39	1.526
557.73	1.717
558.07	1.457
558.41	1.528
558.75	1.758
559.08	2.088
559.42	1.578
559.76	2.035
560.10	1.072
560.44	1.517
560.78	1.750
561.12	1.909
561.45	1.825
561.79	2.015
562.13	1.417
562.47	1.480
562.81	1.266
563.15	1.768
563.48	2.175
563.82	1.874
564.16	1.575
564.50	1.490
564.84	1.534
565.17	1.588
565.51	1.496
565.85	1.663
566.19	1.498
566.52	1.346
566.86	1.981
567.20	1.468
567.54	1.540
567.88	1.988
568.21	2.075
568.55	1.727
568.89	2.043
569.23	2.366
569.56	2.149
569.90	2.530
570.24	2.091
570.57	1.956
570.91	1.898
571.25	2.488
571.59	2.588
571.92	2.212
572.26	2.276
572.60	2.321
572.93	2.310
573.27	2.388
573.61	2.356
573.95	2.403
574.28	2.616
574.62	2.433
574.96	2.206
575.29	2.181
575.63	2.171
575.97	2.347
576.30	2.369
576.64	2.076
576.98	2.210
577.31	2.562
577.65	2.249
577.98	2.278
578.32	2.500
578.66	2.280
578.99	2.376
579.33	2.379
579.67	2.312
580.00	2.338
580.34	2.618
580.67	2.074
581.01	2.358
581.35	2.533
581.68	2.644
582.02	2.541
582.35	2.549
582.69	2.583
583.02	2.299
583.36	2.485
583.70	2.340
584.03	2.136
584.37	2.617
584.70	2.029
585.04	2.000
585.37	2.342
585.71	2.460
586.04	2.158
586.38	2.577
586.72	2.206
587.05	1.970
587.39	2.194
587.72	2.416
588.06	2.611
588.39	2.489
588.73	2.275
589.06	2.173
589.40	1.905
589.73	2.346
590.07	2.089
590.40	1.961
590.73	1.944
591.07	1.899
591.40	1.594
591.74	1.828
592.07	2.314
592.41	2.169
592.74	2.201
593.08	2.611
593.41	2.654
593.75	2.299
594.08	2.302
594.41	2.436
594.75	1.793
595.08	1.985
595.42	1.818
595.75	2.325
596.09	2.033
596.42	2.150
596.75	1.930
597.09	2.667
597.42	2.106
597.75	2.430
598.09	2.183
598.42	1.930
598.76	1.949
599.09	2.278
599.42	2.112
599.76	2.080
600.09	2.436
600.42	2.669
600.76	1.783
601.09	2.091
601.42	2.643
601.76	2.103
602.09	2.109
602.42	1.927
602.76	2.140
603.09	2.313
603.42	2.240
603.76	1.656
604.09	2.661
604.42	2.018
604.76	1.865
605.09	2.194
605.42	1.754
605.75	2.000
606.09	2.128
606.42	1.824
606.75	1.537
607.09	1.421
607.42	2.389
607.75	1.876
608.08	2.131
608.42	1.935
608.75	2.322
609.08	1.783
609.41	1.676
609.75	1.607
610.08	1.715
610.41	1.784
610.74	2.143
611.07	2.043
611.41	2.287
611.74	2.356
612.07	1.636
612.40	1.949
612.73	1.663
613.07	1.858
613.40	1.540
613.73	1.878
614.06	1.963
614.39	1.409
614.72	1.795
615.06	1.492
615.39	1.643
615.72	1.896
616.05	1.748
616.38	2.170
616.71	1.829
617.05	0.958
617.38	1.926
617.71	1.782
618.04	2.321
618.37	1.749
618.70	1.640
619.03	1.493
619.36	1.110
619.69	1.730
620.03	1.569
620.36	1.840
620.69	1.419
621.02	1.444
621.35	1.451
621.68	1.157
622.01	1.566
622.34	0.767
622.67	1.581
623.00	0.337
623.33	2.057
623.66	2.075
623.99	0.856
624.32	2.404
624.65	1.030
624.99	1.886
625.32	2.221
625.65	1.753
625.98	0.881
626.31	0.992
626.64	1.758
626.97	0.375
627.30	-0.228
627.63	0.675
627.96	1.877
628.29	0.856
628.62	1.343
628.95	0.613
629.28	0.085
629.61	1.347
629.94	0.921
630.26	0.678
630.59	0.604
630.92	0.087
631.25	0.626
631.58	1.883
631.91	0.281
632.24	0.288
632.57	1.139
632.90	-0.401
633.23	0.408
633.56	-0.408
633.89	-0.207
634.22	0.520
634.55	0.731
634.88	-0.325
635.20	1.399
635.53	-0.565
635.86	0.108
636.19	1.909
636.52	0.738
636.85	0.306
637.18	0.936
637.51	-0.108
637.83	1.440
638.16	0.115
638.49	0.000
638.82	1.127
639.15	-1.031
639.48	1.155
639.81	0.577
640.13	1.767
640.46	-1.576
640.79	-0.980
641.12	-0.124
641.45	-0.502
641.77	1.412
642.10	1.050
642.43	0.266
642.76	-0.407
643.09	-0.411
643.41	-0.700
643.74	-0.414
644.07	1.103
644.40	-0.566
644.73	-0.581
645.05	-0.147
645.38	0.576
645.71	-0.880
646.04	0.861
646.36	-2.190
646.69	-0.613
647.02	-0.306
647.35	-0.305
647.67	-2.738
648.00	-0.796
648.33	0.000
