SpectraSuite Data File
++++++++++++++++++++++++++++++++++++
Date: Thu May 14 15:19:48 PDT 2015
User: schluterlab
Dark Spectrum Present: Yes
Reference Spectrum Present: Yes
Number of Sampled Component Spectra: 1
Spectrometers: USB2E3373
Integration Time (usec): 3000 (USB2E3373)
Spectra Averaged: 3 (USB2E3373)
Boxcar Smoothing: 0 (USB2E3373)
Correct for Electrical Dark: No (USB2E3373)
Strobe/Lamp Enabled: No (USB2E3373)
Correct for Detector Non-linearity: No (USB2E3373)
Correct for Stray Light: No (USB2E3373)
Number of Pixels in Processed Spectrum: 2048
>>>>>Begin Processed Spectral Data<<<<<
178.53	0.000
178.91	600.000
179.29	-5100.000
179.67	-4200.000
180.04	407.143
180.42	400.000
180.80	800.000
181.18	-4100.000
181.56	-3800.000
181.94	925.000
182.31	-800.000
182.69	1400.000
183.07	-1800.000
183.45	1100.000
183.83	-550.000
184.20	-1066.667
184.58	4000.000
184.96	-1100.000
185.34	-377.778
185.72	-720.000
186.09	511.111
186.47	1850.000
186.85	1040.000
187.23	-566.667
187.61	-5000.000
187.98	940.000
188.36	1000.000
188.74	-1175.000
189.12	-1266.667
189.49	-250.000
189.87	-575.000
190.25	-444.444
190.63	-920.000
191.00	-566.667
191.38	0.000
191.76	-1075.000
192.14	-733.333
192.51	2050.000
192.89	-633.333
193.27	0.000
193.65	-657.143
194.02	-4900.000
194.40	-500.000
194.78	628.571
195.15	0.000
195.53	-390.909
195.91	0.000
196.29	-1000.000
196.66	-276.923
197.04	-4600.000
197.42	-671.429
197.79	-1650.000
198.17	-575.000
198.55	-571.429
198.92	-477.778
199.30	-500.000
199.68	-272.727
200.05	-242.857
200.43	-2150.000
200.81	728.571
201.18	0.000
201.56	577.778
201.94	0.000
202.31	1333.333
202.69	-511.111
203.07	3300.000
203.44	-388.889
203.82	-1025.000
204.19	-325.000
204.57	-666.667
204.95	-575.000
205.32	-4700.000
205.70	1025.000
206.08	-650.000
206.45	-683.333
206.83	960.000
207.20	-600.000
207.58	-1120.000
207.96	-916.667
208.33	-600.000
208.71	383.333
209.08	-583.333
209.46	0.000
209.84	933.333
210.21	2450.000
210.59	2350.000
210.96	1466.667
211.34	-625.000
211.71	-512.500
212.09	-4600.000
212.46	0.000
212.84	2600.000
213.22	-980.000
213.59	-1000.000
213.97	-310.000
214.34	-1500.000
214.72	816.667
215.09	-1400.000
215.47	0.000
215.84	571.429
216.22	2200.000
216.59	-580.000
216.97	-740.000
217.34	-1075.000
217.72	-550.000
218.09	-1025.000
218.47	-1050.000
218.84	0.000
219.22	780.000
219.59	-229.412
219.97	-190.000
220.34	2350.000
220.72	-477.778
221.09	-261.538
221.47	-1300.000
221.84	-460.000
222.22	-771.429
222.59	0.000
222.97	-450.000
223.34	-880.000
223.72	-4100.000
224.09	-925.000
224.46	-1175.000
224.84	-580.000
225.21	-671.429
225.59	-1050.000
225.96	-1175.000
226.34	-134.615
226.71	900.000
227.08	-2050.000
227.46	-260.000
227.83	-950.000
228.21	-210.526
228.58	487.500
228.95	2650.000
229.33	-316.667
229.70	-320.000
230.08	-152.632
230.45	500.000
230.82	-1266.667
231.20	-250.000
231.57	-258.333
231.95	-354.545
232.32	-372.727
232.69	-160.000
233.07	-1025.000
233.44	-211.765
233.81	-440.000
234.19	-161.111
234.56	-127.273
234.93	-93.103
235.31	-189.474
235.68	-227.778
236.05	-240.000
236.43	-130.769
236.80	-104.000
237.17	-122.222
237.55	-118.182
237.92	-410.000
238.29	-138.710
238.67	-75.000
239.04	-91.667
239.41	-97.619
239.79	-89.130
240.16	-55.556
240.53	-84.783
240.91	-72.549
241.28	-49.180
241.65	-52.239
242.02	-39.189
242.40	-49.231
242.77	-38.667
243.14	-39.024
243.51	-63.158
243.89	-47.436
244.26	-17.822
244.63	-25.490
245.00	-25.234
245.38	-21.053
245.75	-34.513
246.12	-23.810
246.49	-27.907
246.87	-18.571
247.24	-12.583
247.61	-17.105
247.98	-20.805
248.36	-13.580
248.73	-18.405
249.10	-13.661
249.47	-2.985
249.84	-8.901
250.22	-13.472
250.59	-15.556
250.96	-11.364
251.33	-15.306
251.70	-7.265
252.08	-6.250
252.45	-5.738
252.82	-7.438
253.19	-8.594
253.56	-7.224
253.94	-8.462
254.31	-5.682
254.68	-7.343
255.05	-3.257
255.42	-7.143
255.79	-4.854
256.16	-4.305
256.54	-6.954
256.91	-2.623
257.28	-6.230
257.65	-6.369
258.02	-6.195
258.39	-6.268
258.76	2.446
259.14	0.000
259.51	-2.882
259.88	-3.683
260.25	0.556
260.62	-1.370
260.99	-1.093
261.36	2.681
261.73	-2.653
262.10	-2.747
262.47	-2.681
262.85	3.283
263.22	-2.078
263.59	-2.105
263.96	1.023
264.33	-2.046
264.70	0.000
265.07	-0.716
265.44	3.401
265.81	-3.241
266.18	2.721
266.55	0.000
266.92	0.456
267.29	0.875
267.66	0.665
268.03	0.873
268.40	1.044
268.77	-0.228
269.14	-1.542
269.51	2.193
269.88	3.689
270.25	2.817
270.62	1.688
270.99	3.434
271.36	2.574
271.73	3.733
272.10	0.802
272.47	0.802
272.84	0.602
273.21	0.601
273.58	1.008
273.95	0.385
274.32	0.760
274.69	2.128
275.06	2.015
275.43	-0.924
275.80	1.235
276.17	-1.296
276.54	0.933
276.91	1.252
277.28	0.181
277.65	0.898
278.02	2.022
278.39	0.906
278.76	1.054
279.13	-0.177
279.50	3.608
279.87	2.504
280.23	0.528
280.60	1.864
280.97	1.151
281.34	0.509
281.71	3.553
282.08	3.654
282.45	0.818
282.82	2.041
283.19	0.808
283.56	2.131
283.92	3.604
284.29	2.686
284.66	2.135
285.03	0.000
285.40	4.019
285.77	0.929
286.14	2.748
286.51	2.131
286.87	2.686
287.24	0.753
287.61	3.737
287.98	0.604
288.35	2.663
288.72	1.331
289.08	3.075
289.45	1.183
289.82	2.108
290.19	1.580
290.56	2.394
290.93	1.854
291.29	3.444
291.66	3.719
292.03	0.407
292.40	4.898
292.77	2.156
293.13	2.436
293.50	1.051
293.87	3.087
294.24	2.400
294.60	3.287
294.97	0.940
295.34	3.969
295.71	1.009
296.08	1.680
296.44	1.471
296.81	2.680
297.18	2.989
297.55	2.123
297.91	1.898
298.28	1.540
298.65	2.378
299.02	1.771
299.38	3.432
299.75	1.986
300.12	2.083
300.48	1.959
300.85	3.037
301.22	3.579
301.59	2.169
301.95	2.034
302.32	3.889
302.69	2.848
303.05	1.741
303.42	0.887
303.79	2.708
304.15	3.996
304.52	1.480
304.89	3.037
305.25	2.588
305.62	3.030
305.99	2.990
306.35	2.722
306.72	3.723
307.09	2.234
307.45	4.037
307.82	3.633
308.19	1.917
308.55	4.147
308.92	3.895
309.29	4.789
309.65	2.729
310.02	3.663
310.38	2.559
310.75	3.786
311.12	4.602
311.48	4.399
311.85	4.179
312.22	4.459
312.58	3.474
312.95	4.302
313.31	5.330
313.68	5.678
314.05	4.878
314.41	6.102
314.78	5.177
315.14	5.989
315.51	6.279
315.87	6.571
316.24	6.849
316.61	7.904
316.97	5.158
317.34	7.055
317.70	7.598
318.07	7.584
318.43	8.163
318.80	8.361
319.16	7.210
319.53	7.027
319.89	7.187
320.26	9.075
320.62	9.043
320.99	9.972
321.35	8.688
321.72	10.419
322.08	9.558
322.45	10.117
322.81	10.830
323.18	10.885
323.54	10.603
323.91	10.943
324.27	10.929
324.64	11.923
325.00	10.614
325.37	12.776
325.73	13.058
326.10	12.895
326.46	14.414
326.83	14.572
327.19	14.173
327.56	13.913
327.92	14.083
328.29	14.113
328.65	13.987
329.01	15.736
329.38	15.417
329.74	15.753
330.11	15.839
330.47	14.743
330.84	14.987
331.20	15.333
331.56	15.338
331.93	16.318
332.29	16.525
332.66	16.611
333.02	16.667
333.38	16.443
333.75	15.741
334.11	17.181
334.48	16.502
334.84	17.332
335.20	16.625
335.57	18.212
335.93	16.860
336.29	17.138
336.66	16.989
337.02	16.639
337.38	17.857
337.75	17.851
338.11	18.167
338.47	18.859
338.84	17.513
339.20	15.501
339.56	16.969
339.93	17.488
340.29	16.747
340.65	16.788
341.02	18.755
341.38	18.027
341.74	16.465
342.11	17.940
342.47	17.236
342.83	18.760
343.20	17.089
343.56	17.241
343.92	17.294
344.28	17.422
344.65	18.217
345.01	18.253
345.37	17.574
345.73	16.991
346.10	17.941
346.46	17.722
346.82	17.828
347.19	19.022
347.55	18.437
347.91	16.642
348.27	18.058
348.63	18.888
349.00	18.195
349.36	18.216
349.72	17.634
350.08	19.019
350.45	19.240
350.81	17.647
351.17	17.744
351.53	17.892
351.89	18.451
352.26	18.134
352.62	18.731
352.98	17.939
353.34	17.774
353.70	18.798
354.07	18.405
354.43	17.768
354.79	17.277
355.15	18.322
355.51	19.518
355.87	18.100
356.24	18.935
356.60	18.330
356.96	19.199
357.32	17.175
357.68	18.814
358.04	18.338
358.40	18.731
358.77	18.640
359.13	18.759
359.49	16.952
359.85	19.289
360.21	19.584
360.57	19.885
360.93	19.252
361.29	20.140
361.66	18.972
362.02	20.668
362.38	19.677
362.74	20.182
363.10	20.426
363.46	19.945
363.82	19.957
364.18	19.282
364.54	20.954
364.90	20.602
365.26	20.345
365.62	21.200
365.98	21.511
366.35	20.537
366.71	22.313
367.07	20.771
367.43	20.880
367.79	21.433
368.15	21.806
368.51	20.974
368.87	21.359
369.23	21.267
369.59	21.790
369.95	22.177
370.31	23.093
370.67	22.215
371.03	22.576
371.39	23.371
371.75	22.421
372.11	21.748
372.47	22.817
372.83	23.298
373.19	22.548
373.55	22.425
373.91	22.018
374.27	23.286
374.63	23.951
374.99	24.801
375.35	25.065
375.71	24.194
376.07	23.757
376.42	24.055
376.78	24.798
377.14	24.891
377.50	24.288
377.86	25.185
378.22	25.389
378.58	25.803
378.94	25.117
379.30	25.718
379.66	25.632
380.02	25.793
380.38	26.613
380.74	26.254
381.09	26.713
381.45	27.386
381.81	28.220
382.17	27.613
382.53	27.661
382.89	27.765
383.25	28.370
383.61	27.546
383.97	27.150
384.32	27.931
384.68	28.422
385.04	28.456
385.40	29.405
385.76	29.601
386.12	29.264
386.48	29.353
386.83	30.036
387.19	29.374
387.55	30.399
387.91	30.365
388.27	29.792
388.62	30.470
388.98	29.949
389.34	30.819
389.70	30.912
390.06	31.202
390.42	30.783
390.77	31.969
391.13	31.514
391.49	31.522
391.85	31.576
392.20	31.376
392.56	31.660
392.92	31.679
393.28	32.228
393.64	31.732
393.99	32.772
394.35	33.703
394.71	33.174
395.07	32.335
395.42	32.496
395.78	32.846
396.14	32.917
396.50	32.185
396.85	33.095
397.21	32.722
397.57	32.509
397.92	33.391
398.28	31.993
398.64	32.494
399.00	32.251
399.35	33.874
399.71	32.554
400.07	33.464
400.42	33.178
400.78	33.275
401.14	34.206
401.49	33.826
401.85	33.314
402.21	33.488
402.57	33.685
402.92	32.565
403.28	32.436
403.63	33.353
403.99	34.204
404.35	33.769
404.70	33.881
405.06	33.152
405.42	33.899
405.77	34.733
406.13	33.225
406.49	33.784
406.84	34.127
407.20	32.923
407.55	34.464
407.91	33.564
408.27	32.980
408.62	34.264
408.98	33.778
409.34	32.903
409.69	33.807
410.05	34.525
410.40	34.397
410.76	34.212
411.11	34.074
411.47	34.398
411.83	33.804
412.18	35.361
412.54	34.440
412.89	34.692
413.25	34.424
413.60	34.463
413.96	35.431
414.31	33.541
414.67	33.572
415.03	34.338
415.38	34.426
415.74	33.965
416.09	34.547
416.45	34.627
416.80	33.415
417.16	34.419
417.51	34.184
417.87	34.825
418.22	34.072
418.58	34.015
418.93	34.750
419.29	35.080
419.64	34.814
420.00	34.599
420.35	34.756
420.71	35.325
421.06	33.813
421.42	34.690
421.77	35.003
422.12	35.624
422.48	36.150
422.83	36.145
423.19	36.764
423.54	37.168
423.90	35.726
424.25	35.893
424.61	35.878
424.96	35.914
425.31	37.633
425.67	37.466
426.02	35.971
426.38	37.141
426.73	36.775
427.09	38.120
427.44	36.046
427.79	36.595
428.15	36.358
428.50	37.528
428.85	36.969
429.21	37.766
429.56	37.660
429.92	37.494
430.27	38.024
430.62	37.616
430.98	37.875
431.33	37.341
431.68	37.644
432.04	38.192
432.39	38.082
432.74	38.699
433.10	38.183
433.45	37.458
433.80	39.431
434.16	38.688
434.51	39.260
434.86	41.205
435.22	39.426
435.57	38.267
435.92	39.677
436.28	39.818
436.63	40.251
436.98	38.486
437.34	39.910
437.69	39.681
438.04	39.080
438.39	39.977
438.75	39.956
439.10	41.279
439.45	40.134
439.81	38.644
440.16	40.054
440.51	39.521
440.86	39.244
441.22	39.282
441.57	39.256
441.92	40.495
442.27	40.606
442.63	40.288
442.98	40.448
443.33	40.084
443.68	40.585
444.03	41.016
444.39	41.100
444.74	41.654
445.09	39.736
445.44	41.043
445.79	41.667
446.15	40.647
446.50	41.395
446.85	40.467
447.20	40.232
447.55	41.632
447.91	40.576
448.26	41.438
448.61	40.808
448.96	42.382
449.31	40.668
449.66	40.251
450.02	41.825
450.37	41.609
450.72	40.635
451.07	40.945
451.42	41.132
451.77	40.689
452.12	41.366
452.47	39.632
452.83	42.117
453.18	40.047
453.53	40.379
453.88	41.248
454.23	40.621
454.58	41.730
454.93	41.141
455.28	42.685
455.63	41.273
455.98	42.291
456.34	40.813
456.69	41.446
457.04	42.376
457.39	40.188
457.74	42.282
458.09	41.461
458.44	41.433
458.79	41.877
459.14	42.370
459.49	41.596
459.84	42.025
460.19	41.088
460.54	42.362
460.89	42.827
461.24	41.207
461.59	40.786
461.94	40.901
462.29	42.161
462.64	40.193
462.99	41.055
463.34	42.051
463.69	41.559
464.04	41.912
464.39	40.471
464.74	40.137
465.09	41.349
465.44	41.470
465.79	42.094
466.14	41.011
466.49	41.053
466.84	42.259
467.19	41.676
467.54	39.718
467.89	41.092
468.24	42.438
468.59	39.664
468.94	41.026
469.29	41.152
469.64	41.322
469.99	41.109
470.34	40.718
470.68	40.396
471.03	42.043
471.38	40.746
471.73	41.808
472.08	42.576
472.43	40.337
472.78	41.688
473.13	40.961
473.48	41.027
473.83	41.672
474.17	42.732
474.52	43.055
474.87	41.085
475.22	41.746
475.57	41.693
475.92	42.608
476.27	42.173
476.61	40.498
476.96	41.867
477.31	42.178
477.66	43.652
478.01	41.688
478.36	41.426
478.70	42.463
479.05	42.382
479.40	42.251
479.75	41.691
480.10	42.444
480.45	42.890
480.79	41.995
481.14	41.636
481.49	42.026
481.84	42.385
482.19	43.097
482.53	42.763
482.88	42.977
483.23	42.330
483.58	41.572
483.92	42.199
484.27	41.533
484.62	41.790
484.97	42.146
485.31	40.831
485.66	38.806
486.01	40.000
486.36	42.400
486.70	44.557
487.05	46.197
487.40	43.557
487.75	41.781
488.09	41.279
488.44	40.074
488.79	39.865
489.13	40.478
489.48	40.544
489.83	41.328
490.17	41.110
490.52	40.681
490.87	41.497
491.22	41.941
491.56	41.937
491.91	43.306
492.26	42.709
492.60	42.108
492.95	41.773
493.30	41.999
493.64	42.313
493.99	42.368
494.34	41.986
494.68	40.857
495.03	41.189
495.37	42.255
495.72	41.406
496.07	42.068
496.41	40.712
496.76	42.202
497.11	42.718
497.45	41.994
497.80	41.759
498.14	41.950
498.49	42.555
498.84	42.048
499.18	42.330
499.53	41.390
499.87	42.593
500.22	40.828
500.56	41.925
500.91	41.648
501.26	42.773
501.60	41.052
501.95	41.858
502.29	42.343
502.64	42.676
502.98	42.494
503.33	41.814
503.67	42.564
504.02	42.250
504.36	43.029
504.71	42.214
505.06	41.883
505.40	43.144
505.75	41.758
506.09	43.094
506.44	42.943
506.78	43.257
507.13	42.692
507.47	43.913
507.82	42.140
508.16	43.021
508.51	41.772
508.85	42.513
509.19	43.486
509.54	43.948
509.88	42.399
510.23	43.031
510.57	43.258
510.92	42.284
511.26	42.424
511.61	41.671
511.95	43.289
512.30	43.033
512.64	42.579
512.98	43.922
513.33	42.238
513.67	43.498
514.02	43.178
514.36	44.297
514.70	43.177
515.05	44.004
515.39	43.465
515.74	43.531
516.08	42.948
516.42	43.851
516.77	42.902
517.11	43.115
517.46	43.319
517.80	43.773
518.14	43.961
518.49	43.384
518.83	42.735
519.17	42.703
519.52	43.973
519.86	44.245
520.20	43.823
520.55	42.662
520.89	43.468
521.23	43.495
521.58	44.011
521.92	44.249
522.26	43.356
522.61	44.097
522.95	44.002
523.29	43.736
523.64	43.554
523.98	44.780
524.32	45.158
524.66	44.166
525.01	43.601
525.35	43.021
525.69	43.271
526.04	42.767
526.38	43.966
526.72	43.945
527.06	44.868
527.41	45.073
527.75	44.359
528.09	45.573
528.43	43.043
528.78	42.948
529.12	43.693
529.46	43.114
529.80	44.279
530.15	44.580
530.49	44.187
530.83	43.329
531.17	43.728
531.51	44.284
531.86	44.171
532.20	43.841
532.54	43.447
532.88	43.636
533.22	44.196
533.57	43.047
533.91	43.266
534.25	44.206
534.59	43.736
534.93	43.407
535.27	42.761
535.62	44.684
535.96	43.579
536.30	43.184
536.64	43.483
536.98	44.157
537.32	44.383
537.66	43.855
538.01	43.625
538.35	43.057
538.69	43.149
539.03	43.961
539.37	42.756
539.71	43.423
540.05	44.125
540.39	43.460
540.73	43.655
541.07	42.918
541.42	42.942
541.76	41.578
542.10	43.185
542.44	42.387
542.78	42.640
543.12	43.683
543.46	43.101
543.80	42.626
544.14	42.908
544.48	43.144
544.82	43.088
545.16	42.993
545.50	43.559
545.84	43.417
546.18	43.704
546.52	42.994
546.86	43.333
547.20	43.130
547.54	41.823
547.88	41.652
548.22	42.865
548.56	42.598
548.90	43.343
549.24	44.012
549.58	43.028
549.92	42.793
550.26	43.366
550.60	41.098
550.94	43.790
551.28	41.980
551.62	43.396
551.96	42.718
552.30	42.384
552.64	43.186
552.98	44.042
553.32	44.051
553.66	43.344
554.00	44.010
554.34	43.243
554.68	42.673
555.02	43.167
555.36	44.050
555.69	43.113
556.03	42.749
556.37	42.365
556.71	44.261
557.05	42.492
557.39	44.194
557.73	43.263
558.07	42.649
558.41	43.920
558.75	43.272
559.08	43.841
559.42	42.593
559.76	43.691
560.10	42.599
560.44	43.865
560.78	44.562
561.12	44.150
561.45	44.282
561.79	43.346
562.13	44.794
562.47	42.170
562.81	43.797
563.15	42.803
563.48	43.443
563.82	44.015
564.16	43.125
564.50	43.266
564.84	43.127
565.17	42.471
565.51	43.153
565.85	43.349
566.19	42.569
566.52	43.417
566.86	44.029
567.20	42.306
567.54	43.441
567.88	42.610
568.21	43.379
568.55	42.830
568.89	42.805
569.23	42.797
569.56	43.259
569.90	42.409
570.24	43.777
570.57	42.880
570.91	42.927
571.25	41.799
571.59	43.000
571.92	42.191
572.26	42.192
572.60	42.315
572.93	41.497
573.27	41.753
573.61	41.927
573.95	41.855
574.28	41.182
574.62	41.996
574.96	42.104
575.29	41.309
575.63	41.187
575.97	41.677
576.30	40.760
576.64	40.921
576.98	41.549
577.31	41.568
577.65	41.849
577.98	41.943
578.32	41.864
578.66	41.086
578.99	41.348
579.33	41.774
579.67	40.526
580.00	41.110
580.34	40.620
580.67	40.821
581.01	41.281
581.35	40.951
581.68	41.775
582.02	41.873
582.35	42.256
582.69	42.508
583.02	41.768
583.36	41.816
583.70	41.718
584.03	40.893
584.37	41.052
584.70	40.636
585.04	40.851
585.37	41.449
585.71	41.338
586.04	41.986
586.38	41.736
586.72	41.865
587.05	41.673
587.39	42.359
587.72	42.703
588.06	41.586
588.39	41.424
588.73	41.799
589.06	42.523
589.40	42.778
589.73	42.320
590.07	42.308
590.40	42.427
590.73	42.276
591.07	41.698
591.40	40.863
591.74	41.653
592.07	42.672
592.41	42.390
592.74	42.812
593.08	42.548
593.41	43.599
593.75	42.874
594.08	43.260
594.41	42.981
594.75	41.880
595.08	42.968
595.42	42.662
595.75	42.590
596.09	42.799
596.42	42.279
596.75	42.339
597.09	42.424
597.42	42.074
597.75	42.454
598.09	42.024
598.42	42.622
598.76	42.224
599.09	41.794
599.42	41.938
599.76	41.598
600.09	42.976
600.42	41.875
600.76	42.041
601.09	41.985
601.42	41.195
601.76	41.966
602.09	42.352
602.42	41.621
602.76	42.066
603.09	42.915
603.42	42.413
603.76	42.918
604.09	42.761
604.42	42.532
604.76	42.199
605.09	41.165
605.42	41.667
605.75	42.385
606.09	42.777
606.42	42.028
606.75	41.154
607.09	41.820
607.42	41.927
607.75	42.048
608.08	42.265
608.42	41.959
608.75	42.496
609.08	41.044
609.41	42.038
609.75	41.384
610.08	42.216
610.41	41.886
610.74	42.269
611.07	42.274
611.41	42.377
611.74	42.217
612.07	41.935
612.40	42.158
612.73	42.738
613.07	42.641
613.40	42.108
613.73	41.069
614.06	42.198
614.39	42.857
614.72	41.727
615.06	41.290
615.39	41.034
615.72	43.081
616.05	42.302
616.38	42.836
616.71	42.790
617.05	41.853
617.38	42.001
617.71	41.847
618.04	42.526
618.37	41.694
618.70	41.686
619.03	42.234
619.36	41.985
619.69	41.768
620.03	42.436
620.36	41.288
620.69	42.443
621.02	42.782
621.35	43.324
621.68	43.601
622.01	42.989
622.34	41.980
622.67	42.062
623.00	42.780
623.33	43.995
623.66	42.996
623.99	42.528
624.32	42.690
624.65	41.892
624.99	42.653
625.32	43.109
625.65	42.481
625.98	42.102
626.31	43.303
626.64	42.125
626.97	41.110
627.30	41.913
627.63	41.785
627.96	42.793
628.29	41.089
628.62	42.905
628.95	42.244
629.28	42.651
629.61	42.761
629.94	43.096
630.26	43.475
630.59	43.092
630.92	41.905
631.25	44.186
631.58	42.373
631.91	43.674
632.24	43.708
632.57	42.600
