SpectraSuite Data File
++++++++++++++++++++++++++++++++++++
Date: Thu May 14 15:02:28 PDT 2015
User: schluterlab
Dark Spectrum Present: Yes
Reference Spectrum Present: Yes
Number of Sampled Component Spectra: 1
Spectrometers: USB2E3373
Integration Time (usec): 3000 (USB2E3373)
Spectra Averaged: 3 (USB2E3373)
Boxcar Smoothing: 0 (USB2E3373)
Correct for Electrical Dark: No (USB2E3373)
Strobe/Lamp Enabled: No (USB2E3373)
Correct for Detector Non-linearity: No (USB2E3373)
Correct for Stray Light: No (USB2E3373)
Number of Pixels in Processed Spectrum: 2048
>>>>>Begin Processed Spectral Data<<<<<
178.53	0.000
178.91	471.429
179.29	-3200.000
179.67	-2400.000
180.04	257.143
180.42	260.000
180.80	500.000
181.18	-2400.000
181.56	-800.000
181.94	800.000
182.31	-625.000
182.69	666.667
183.07	-800.000
183.45	850.000
183.83	-300.000
184.20	-533.333
184.58	2600.000
184.96	-450.000
185.34	-266.667
185.72	-420.000
186.09	388.889
186.47	1100.000
186.85	600.000
187.23	-344.444
187.61	-3200.000
187.98	540.000
188.36	775.000
188.74	-450.000
189.12	-466.667
189.49	-81.250
189.87	-275.000
190.25	-166.667
190.63	-600.000
191.00	-233.333
191.38	0.000
191.76	-725.000
192.14	-383.333
192.51	1150.000
192.89	-166.667
193.27	0.000
193.65	-257.143
194.02	-2000.000
194.40	-285.714
194.78	371.429
195.15	0.000
195.53	-200.000
195.91	0.000
196.29	-350.000
196.66	-169.231
197.04	-3500.000
197.42	-357.143
197.79	-1000.000
198.17	-325.000
198.55	-314.286
198.92	-244.444
199.30	-275.000
199.68	-172.727
200.05	-128.571
200.43	-1550.000
200.81	514.286
201.18	0.000
201.56	400.000
201.94	0.000
202.31	1000.000
202.69	-333.333
203.07	2000.000
203.44	-233.333
203.82	-600.000
204.19	-225.000
204.57	-333.333
204.95	-300.000
205.32	-2800.000
205.70	500.000
206.08	-533.333
206.45	-400.000
206.83	600.000
207.20	-416.667
207.58	-400.000
207.96	-450.000
208.33	-333.333
208.71	250.000
209.08	-233.333
209.46	0.000
209.84	450.000
210.21	1100.000
210.59	750.000
210.96	1100.000
211.34	-475.000
211.71	-375.000
212.09	-2900.000
212.46	0.000
212.84	1500.000
213.22	-600.000
213.59	-625.000
213.97	-190.000
214.34	-800.000
214.72	483.333
215.09	-725.000
215.47	0.000
215.84	85.714
216.22	1550.000
216.59	-320.000
216.97	-360.000
217.34	-375.000
217.72	-200.000
218.09	-725.000
218.47	-575.000
218.84	0.000
219.22	360.000
219.59	-64.706
219.97	-70.000
220.34	1800.000
220.72	-288.889
221.09	-123.077
221.47	-666.667
221.84	-250.000
222.22	-428.571
222.59	0.000
222.97	-237.500
223.34	-620.000
223.72	-2900.000
224.09	-525.000
224.46	-725.000
224.84	-420.000
225.21	-285.714
225.59	-1000.000
225.96	-775.000
226.34	-23.077
226.71	433.333
227.08	-1550.000
227.46	-113.333
227.83	-600.000
228.21	-78.947
228.58	350.000
228.95	1600.000
229.33	-141.667
229.70	-140.000
230.08	-84.211
230.45	310.000
230.82	-633.333
231.20	-142.857
231.57	-158.333
231.95	-209.091
232.32	-227.273
232.69	-50.000
233.07	-650.000
233.44	-117.647
233.81	-230.000
234.19	-122.222
234.56	-86.364
234.93	-13.793
235.31	-63.158
235.68	-116.667
236.05	-145.000
236.43	-57.692
236.80	-40.000
237.17	-40.741
237.55	-66.667
237.92	-260.000
238.29	-51.613
238.67	-40.909
239.04	-44.444
239.41	-57.143
239.79	-34.783
240.16	-5.556
240.53	-47.826
240.91	-35.294
241.28	-26.230
241.65	-4.478
242.02	-20.270
242.40	-35.385
242.77	-22.667
243.14	-25.610
243.51	-26.316
243.89	-33.333
244.26	-13.861
244.63	-11.765
245.00	-12.150
245.38	-18.421
245.75	-30.088
246.12	-15.079
246.49	-16.279
246.87	-7.857
247.24	-5.298
247.61	-7.237
247.98	-9.396
248.36	-5.556
248.73	-9.202
249.10	-6.011
249.47	4.478
249.84	1.047
250.22	-7.772
250.59	-10.000
250.96	-0.909
251.33	-7.143
251.70	-3.846
252.08	0.000
252.45	0.410
252.82	-2.893
253.19	-5.078
253.56	-1.521
253.94	-2.692
254.31	-0.379
254.68	3.846
255.05	3.257
255.42	-1.701
255.79	-2.589
256.16	-2.649
256.54	-4.305
256.91	0.656
257.28	-2.623
257.65	-0.955
258.02	-0.885
258.39	0.855
258.76	2.752
259.14	0.862
259.51	1.729
259.88	1.133
260.25	0.556
260.62	3.836
260.99	6.011
261.36	3.485
261.73	2.122
262.10	2.473
262.47	2.145
262.85	7.323
263.22	1.558
263.59	-1.316
263.96	3.581
264.33	2.558
264.70	2.716
265.07	4.773
265.44	4.082
265.81	-0.463
266.18	1.134
266.55	1.562
266.92	0.456
267.29	3.501
267.66	3.548
268.03	4.585
268.40	2.505
268.77	2.506
269.14	0.441
269.51	4.167
269.88	3.689
270.25	4.024
270.62	2.954
270.99	5.253
271.36	4.356
271.73	4.322
272.10	3.808
272.47	3.206
272.84	3.012
273.21	2.806
273.58	3.831
273.95	3.846
274.32	0.760
274.69	3.095
275.06	5.495
275.43	3.882
275.80	3.880
276.17	-0.370
276.54	2.612
276.91	1.968
277.28	3.255
277.65	4.668
278.02	4.412
278.39	1.993
278.76	1.406
279.13	4.078
279.50	3.608
279.87	4.293
280.23	0.352
280.60	5.254
280.97	5.428
281.34	2.886
281.71	5.245
282.08	3.987
282.45	3.437
282.82	1.099
283.19	4.039
283.56	2.459
283.92	4.505
284.29	5.213
284.66	5.583
285.03	1.923
285.40	4.946
285.77	4.489
286.14	5.191
286.51	3.044
286.87	3.791
287.24	3.765
287.61	2.541
287.98	2.568
288.35	4.734
288.72	3.994
289.08	5.710
289.45	3.254
289.82	4.819
290.19	2.730
290.56	5.775
290.93	5.421
291.29	3.857
291.66	4.959
292.03	3.256
292.40	6.122
292.77	2.965
293.13	5.007
293.50	4.862
293.87	3.221
294.24	5.333
294.60	5.310
294.97	4.295
295.34	5.634
295.71	4.666
296.08	3.488
296.44	3.309
296.81	4.263
297.18	4.981
297.55	5.425
297.91	6.050
298.28	4.265
298.65	4.994
299.02	4.486
299.38	5.378
299.75	5.023
300.12	4.861
300.48	5.184
300.85	4.499
301.22	5.034
301.59	2.740
301.95	5.311
302.32	5.111
302.69	5.148
303.05	5.876
303.42	4.435
303.79	5.312
304.15	6.309
304.52	3.805
304.89	5.654
305.25	5.590
305.62	4.807
305.99	5.567
306.35	4.839
306.72	6.308
307.09	5.584
307.45	5.901
307.82	6.256
308.19	5.954
308.55	6.943
308.92	5.648
309.29	6.513
309.65	6.140
310.02	6.337
310.38	6.791
310.75	7.282
311.12	7.574
311.48	6.061
311.85	6.743
312.22	6.641
312.58	6.009
312.95	6.501
313.31	7.136
313.68	7.326
314.05	8.311
314.41	8.379
314.78	6.903
315.14	8.258
315.51	8.218
315.87	8.461
316.24	9.041
316.61	8.792
316.97	7.421
317.34	7.231
317.70	8.559
318.07	9.612
318.43	8.673
318.80	9.866
319.16	7.897
319.53	7.541
319.89	8.326
320.26	9.164
320.62	7.624
320.99	8.680
321.35	8.318
321.72	10.977
322.08	7.935
322.45	10.027
322.81	9.386
323.18	8.673
323.54	9.483
323.91	9.520
324.27	10.155
324.64	9.488
325.00	10.033
325.37	10.893
325.73	10.083
326.10	9.895
326.46	11.156
326.83	12.010
327.19	12.047
327.56	11.937
327.92	11.487
328.29	11.048
328.65	11.223
329.01	11.506
329.38	13.058
329.74	12.500
330.11	11.729
330.47	13.227
330.84	12.748
331.20	13.583
331.56	12.565
331.93	14.059
332.29	13.729
332.66	13.372
333.02	13.149
333.38	12.248
333.75	12.710
334.11	13.761
334.48	13.449
334.84	14.019
335.20	11.755
335.57	13.828
335.93	13.554
336.29	13.810
336.66	13.877
337.02	13.963
337.38	14.541
337.75	13.884
338.11	13.709
338.47	12.986
338.84	13.452
339.20	13.142
339.56	14.333
339.93	13.629
340.29	13.849
340.65	13.625
341.02	14.844
341.38	15.036
341.74	13.479
342.11	13.998
342.47	13.185
342.83	15.056
343.20	13.328
343.56	14.354
343.92	15.212
344.28	15.078
344.65	15.504
345.01	14.587
345.37	15.086
345.73	13.796
346.10	14.899
346.46	14.320
346.82	15.431
347.19	15.737
347.55	14.795
347.91	14.859
348.27	14.416
348.63	14.928
349.00	13.796
349.36	15.242
349.72	14.732
350.08	15.899
350.45	14.373
350.81	14.329
351.17	14.436
351.53	15.542
351.89	15.338
352.26	15.448
352.62	14.925
352.98	14.351
353.34	14.563
353.70	15.023
354.07	15.127
354.43	14.655
354.79	15.931
355.15	15.453
355.51	16.082
355.87	15.707
356.24	15.361
356.60	15.521
356.96	15.864
357.32	14.052
357.68	15.447
358.04	15.793
358.40	15.896
358.77	16.594
359.13	16.100
359.49	14.424
359.85	16.171
360.21	16.141
360.57	14.788
360.93	16.079
361.29	16.070
361.66	15.930
362.02	17.606
362.38	16.725
362.74	16.690
363.10	16.781
363.46	16.690
363.82	16.335
364.18	16.960
364.54	17.566
364.90	17.659
365.26	16.621
365.62	16.867
365.98	16.542
366.35	17.315
366.71	17.551
367.07	17.930
367.43	18.188
367.79	18.248
368.15	18.060
368.51	18.539
368.87	18.027
369.23	17.600
369.59	17.828
369.95	18.932
370.31	18.433
370.67	17.125
371.03	18.698
371.39	17.461
371.75	18.226
372.11	17.615
372.47	18.619
372.83	18.848
373.19	18.879
373.55	18.767
373.91	17.928
374.27	18.435
374.63	18.742
374.99	18.369
375.35	18.701
375.71	19.484
376.07	19.174
376.42	19.647
376.78	20.199
377.14	19.214
377.50	19.545
377.86	20.628
378.22	20.838
378.58	20.571
378.94	20.657
379.30	20.035
379.66	20.106
380.02	19.908
380.38	20.622
380.74	20.507
381.09	20.674
381.45	19.773
381.81	21.956
382.17	21.318
382.53	21.170
382.89	21.275
383.25	20.809
383.61	20.660
383.97	21.967
384.32	22.069
384.68	21.462
385.04	21.978
385.40	22.982
385.76	22.098
386.12	22.023
386.48	21.647
386.83	22.169
387.19	21.784
387.55	21.244
387.91	21.918
388.27	22.517
388.62	22.222
388.98	21.715
389.34	22.864
389.70	22.313
390.06	23.091
390.42	22.651
390.77	23.721
391.13	23.005
391.49	22.705
391.85	22.485
392.20	22.835
392.56	23.863
392.92	24.155
393.28	23.217
393.64	22.626
393.99	23.707
394.35	24.182
394.71	23.054
395.07	21.976
395.42	23.015
395.78	24.436
396.14	23.411
396.50	23.100
396.85	22.898
397.21	23.964
397.57	23.910
397.92	23.540
398.28	23.085
398.64	23.112
399.00	23.351
399.35	24.084
399.71	23.587
400.07	24.537
400.42	23.981
400.78	23.843
401.14	24.018
401.49	23.650
401.85	22.616
402.21	24.334
402.57	24.061
402.92	24.291
403.28	23.419
403.63	23.091
403.99	22.684
404.35	22.683
404.70	22.946
405.06	23.152
405.42	23.712
405.77	23.337
406.13	24.635
406.49	23.311
406.84	24.709
407.20	23.253
407.55	23.198
407.91	22.816
408.27	23.086
408.62	23.793
408.98	22.925
409.34	23.109
409.69	23.300
410.05	23.154
410.40	24.014
410.76	22.827
411.11	24.430
411.47	23.649
411.83	23.339
412.18	24.277
412.54	24.303
412.89	23.225
413.25	23.758
413.60	23.435
413.96	23.893
414.31	23.739
414.67	23.137
415.03	22.831
415.38	23.897
415.74	24.068
416.09	22.887
416.45	23.043
416.80	23.256
417.16	22.861
417.51	23.474
417.87	23.421
418.22	22.934
418.58	23.730
418.93	24.040
419.29	22.996
419.64	23.229
420.00	23.383
420.35	24.256
420.71	22.688
421.06	22.542
421.42	23.968
421.77	23.317
422.12	23.784
422.48	23.400
422.83	24.206
423.19	24.509
423.54	23.783
423.90	23.689
424.25	24.587
424.61	23.651
424.96	24.767
425.31	24.098
425.67	23.940
426.02	24.350
426.38	23.020
426.73	24.944
427.09	24.106
427.44	22.338
427.79	24.323
428.15	23.002
428.50	23.876
428.85	23.192
429.21	24.202
429.56	24.383
429.92	23.784
430.27	23.663
430.62	23.644
430.98	24.102
431.33	23.754
431.68	24.665
432.04	24.276
432.39	24.424
432.74	24.201
433.10	23.851
433.45	22.910
433.80	21.781
434.16	23.864
434.51	23.998
434.86	24.267
435.22	23.804
435.57	24.116
435.92	23.762
436.28	23.720
436.63	24.358
436.98	23.510
437.34	24.634
437.69	23.115
438.04	23.480
438.39	24.641
438.75	24.460
439.10	24.630
439.45	24.371
439.81	23.729
440.16	23.164
440.51	24.080
440.86	23.902
441.22	22.937
441.57	24.161
441.92	23.424
442.27	24.394
442.63	23.746
442.98	24.546
443.33	23.777
443.68	23.935
444.03	24.506
444.39	24.734
444.74	24.043
445.09	24.531
445.44	24.763
445.79	24.761
446.15	24.306
446.50	24.858
446.85	23.735
447.20	24.662
447.55	24.634
447.91	23.770
448.26	23.150
448.61	23.114
448.96	24.839
449.31	23.754
449.66	23.312
450.02	23.998
450.37	24.294
450.72	23.574
451.07	23.975
451.42	24.032
451.77	23.958
452.12	24.436
452.47	23.232
452.83	24.550
453.18	23.876
453.53	24.067
453.88	22.860
454.23	24.689
454.58	23.680
454.93	23.422
455.28	24.323
455.63	23.422
455.98	23.966
456.34	23.086
456.69	23.045
457.04	24.113
457.39	23.725
457.74	23.770
458.09	23.723
458.44	24.138
458.79	23.724
459.14	23.597
459.49	23.316
459.84	24.187
460.19	23.265
460.54	24.304
460.89	24.140
461.24	23.851
461.59	24.018
461.94	23.503
462.29	24.580
462.64	23.295
462.99	23.854
463.34	23.881
463.69	23.154
464.04	23.958
464.39	24.327
464.74	23.432
465.09	24.048
465.44	22.908
465.79	23.691
466.14	23.971
466.49	23.737
466.84	23.526
467.19	23.699
467.54	22.738
467.89	23.218
468.24	22.715
468.59	22.177
468.94	23.543
469.29	22.615
469.64	23.013
469.99	24.092
470.34	23.639
470.68	24.539
471.03	24.623
471.38	22.956
471.73	23.082
472.08	24.683
472.43	22.878
472.78	23.426
473.13	23.767
473.48	22.840
473.83	24.550
474.17	24.443
474.52	23.452
474.87	23.976
475.22	24.225
475.57	23.001
475.92	24.639
476.27	25.133
476.61	23.624
476.96	24.296
477.31	24.158
477.66	24.659
478.01	22.877
478.36	23.978
478.70	23.990
479.05	24.591
479.40	24.432
479.75	24.976
480.10	23.922
480.45	23.655
480.79	23.537
481.14	24.265
481.49	23.944
481.84	24.064
482.19	24.301
482.53	24.136
482.88	24.502
483.23	23.522
483.58	23.624
483.92	23.360
484.27	23.666
484.62	22.979
484.97	23.523
485.31	23.689
485.66	21.928
486.01	21.902
486.36	22.823
486.70	24.037
487.05	24.921
487.40	23.798
487.75	23.868
488.09	23.556
488.44	22.657
488.79	22.293
489.13	22.991
489.48	22.214
489.83	23.099
490.17	22.924
490.52	23.358
490.87	23.646
491.22	23.960
491.56	22.782
491.91	23.550
492.26	23.540
492.60	23.524
492.95	23.782
493.30	23.532
493.64	23.872
493.99	23.202
494.34	22.822
494.68	22.827
495.03	23.568
495.37	23.347
495.72	23.810
496.07	23.006
496.41	22.437
496.76	23.812
497.11	23.439
497.45	23.263
497.80	23.945
498.14	23.265
498.49	23.759
498.84	23.492
499.18	23.347
499.53	23.991
499.87	23.516
500.22	23.063
500.56	23.527
500.91	24.073
501.26	24.455
501.60	23.862
501.95	23.621
502.29	23.870
502.64	23.830
502.98	24.116
503.33	23.758
503.67	23.724
504.02	23.643
504.36	23.771
504.71	24.254
505.06	23.874
505.40	23.126
505.75	23.907
506.09	23.987
506.44	24.513
506.78	24.908
507.13	24.159
507.47	24.396
507.82	25.142
508.16	24.140
508.51	24.238
508.85	25.177
509.19	25.296
509.54	25.024
509.88	23.749
510.23	25.109
510.57	26.003
510.92	25.012
511.26	24.723
511.61	24.481
511.95	24.890
512.30	25.111
512.64	24.688
512.98	26.013
513.33	25.504
513.67	25.293
514.02	25.447
514.36	25.371
514.70	26.146
515.05	25.443
515.39	25.407
515.74	26.935
516.08	26.677
516.42	26.531
516.77	26.972
517.11	25.529
517.46	26.299
517.80	25.975
518.14	26.714
518.49	26.790
518.83	26.024
519.17	25.794
519.52	26.782
519.86	26.294
520.20	27.529
520.55	26.396
520.89	27.365
521.23	27.192
521.58	27.740
521.92	26.912
522.26	26.346
522.61	26.736
522.95	27.278
523.29	26.724
523.64	26.738
523.98	28.180
524.32	27.564
524.66	27.604
525.01	26.274
525.35	26.939
525.69	27.146
526.04	27.382
526.38	26.839
526.72	27.336
527.06	27.449
527.41	27.813
527.75	27.850
528.09	27.214
528.43	26.821
528.78	27.399
529.12	27.752
529.46	26.588
529.80	26.831
530.15	27.304
530.49	27.461
530.83	28.040
531.17	27.479
531.51	27.677
531.86	27.224
532.20	28.720
532.54	27.828
532.88	27.455
533.22	27.755
533.57	26.601
533.91	28.283
534.25	27.473
534.59	27.931
534.93	27.504
535.27	27.268
535.62	27.857
535.96	27.716
536.30	27.262
536.64	28.228
536.98	27.798
537.32	28.025
537.66	28.135
538.01	26.344
538.35	26.127
538.69	27.103
539.03	28.204
539.37	26.620
539.71	26.967
540.05	27.458
540.39	28.606
540.73	27.383
541.07	27.897
541.42	27.230
541.76	26.394
542.10	27.322
542.44	26.492
542.78	28.285
543.12	27.652
543.46	26.923
543.80	27.038
544.14	26.990
544.48	26.478
544.82	27.648
545.16	27.430
545.50	27.322
545.84	28.108
546.18	28.025
546.52	27.197
546.86	26.855
547.20	28.053
547.54	26.779
547.88	26.763
548.22	26.257
548.56	27.736
548.90	28.299
549.24	27.416
549.58	27.634
549.92	27.168
550.26	27.314
550.60	28.590
550.94	27.943
551.28	27.129
551.62	27.493
551.96	26.602
552.30	27.215
552.64	26.633
552.98	27.386
553.32	28.296
553.66	27.653
554.00	27.806
554.34	28.057
554.68	26.533
555.02	27.398
555.36	28.139
555.69	27.226
556.03	27.364
556.37	27.534
556.71	26.823
557.05	26.518
557.39	28.135
557.73	27.213
558.07	26.887
558.41	28.439
558.75	28.059
559.08	28.045
559.42	28.052
559.76	28.494
560.10	27.729
560.44	26.913
560.78	27.688
561.12	27.833
561.45	27.920
561.79	28.144
562.13	27.665
562.47	26.880
562.81	26.962
563.15	27.020
563.48	27.408
563.82	27.570
564.16	26.953
564.50	26.520
564.84	26.667
565.17	27.471
565.51	26.064
565.85	27.494
566.19	26.728
566.52	27.326
566.86	28.070
567.20	25.829
567.54	27.828
567.88	26.809
568.21	27.125
568.55	27.098
568.89	27.009
569.23	26.785
569.56	26.182
569.90	26.158
570.24	26.442
570.57	25.722
570.91	25.628
571.25	25.629
571.59	26.218
571.92	26.039
572.26	25.675
572.60	25.990
572.93	25.856
573.27	25.850
573.61	25.410
573.95	25.662
574.28	25.298
574.62	25.011
574.96	24.746
575.29	24.983
575.63	25.156
575.97	25.006
576.30	25.709
576.64	25.125
576.98	24.943
577.31	25.515
577.65	25.444
577.98	24.906
578.32	25.336
578.66	25.273
578.99	25.067
579.33	25.678
579.67	25.023
580.00	24.455
580.34	24.935
580.67	24.956
581.01	25.184
581.35	25.151
581.68	25.182
582.02	25.049
582.35	25.814
582.69	25.830
583.02	25.453
583.36	25.139
583.70	25.653
584.03	25.390
584.37	24.636
584.70	24.939
585.04	24.576
585.37	25.122
585.71	25.027
586.04	25.231
586.38	25.348
586.72	25.495
587.05	25.505
587.39	24.981
587.72	25.287
588.06	25.338
588.39	25.193
588.73	25.476
589.06	25.762
589.40	26.306
589.73	25.707
590.07	25.663
590.40	25.963
590.73	25.769
591.07	26.210
591.40	25.816
591.74	25.278
592.07	25.538
592.41	25.197
592.74	25.843
593.08	26.242
593.41	26.218
593.75	25.546
594.08	25.417
594.41	25.833
594.75	25.108
595.08	25.370
595.42	25.779
595.75	26.090
596.09	25.822
596.42	25.797
596.75	25.859
597.09	26.263
597.42	25.467
597.75	25.951
598.09	26.230
598.42	26.417
598.76	25.869
599.09	26.273
599.42	25.578
599.76	25.190
600.09	26.727
600.42	26.159
600.76	25.661
601.09	25.423
601.42	26.365
601.76	25.655
602.09	26.126
602.42	25.845
602.76	26.236
603.09	26.065
603.42	26.337
603.76	24.877
604.09	26.402
604.42	25.688
604.76	25.342
605.09	26.446
605.42	26.356
605.75	25.846
606.09	25.905
606.42	25.356
606.75	26.049
607.09	25.614
607.42	26.590
607.75	25.869
608.08	26.243
608.42	25.877
608.75	25.871
609.08	25.467
609.41	26.378
609.75	25.714
610.08	26.209
610.41	26.381
610.74	25.840
611.07	25.577
611.41	26.143
611.74	26.467
612.07	26.367
612.40	26.663
612.73	26.455
613.07	26.699
613.40	26.612
613.73	25.903
614.06	26.595
614.39	25.850
614.72	25.813
615.06	25.650
615.39	26.003
615.72	26.445
616.05	26.178
616.38	26.640
616.71	26.019
617.05	26.198
617.38	26.859
617.71	26.782
618.04	26.659
618.37	27.158
618.70	26.414
619.03	26.703
619.36	26.695
619.69	26.586
620.03	27.056
620.36	26.687
620.69	26.527
621.02	26.772
621.35	27.721
621.68	27.693
622.01	27.544
622.34	27.197
622.67	27.079
623.00	26.518
623.33	27.671
623.66	27.432
623.99	26.136
624.32	28.135
624.65	27.156
624.99	27.698
625.32	26.519
625.65	27.579
625.98	26.102
626.31	28.065
626.64	28.425
626.97	26.557
627.30	27.031
627.63	27.532
627.96	27.327
628.29	28.560
628.62	27.624
628.95	28.747
629.28	28.207
629.61	28.199
629.94	27.448
630.26	28.814
630.59	28.756
630.92	27.965
631.25	28.533
631.58	28.249
631.91	27.741
632.24	29.299
632.57	27.514
632.90	28.084
633.23	29.082
633.56	28.163
633.89	27.996
634.22	29.834
634.55	28.914
