SpectraSuite Data File
++++++++++++++++++++++++++++++++++++
Date: Thu May 14 14:57:29 PDT 2015
User: schluterlab
Dark Spectrum Present: Yes
Reference Spectrum Present: Yes
Number of Sampled Component Spectra: 1
Spectrometers: USB2E3373
Integration Time (usec): 3000 (USB2E3373)
Spectra Averaged: 3 (USB2E3373)
Boxcar Smoothing: 0 (USB2E3373)
Correct for Electrical Dark: No (USB2E3373)
Strobe/Lamp Enabled: No (USB2E3373)
Correct for Detector Non-linearity: No (USB2E3373)
Correct for Stray Light: No (USB2E3373)
Number of Pixels in Processed Spectrum: 2048
>>>>>Begin Processed Spectral Data<<<<<
178.53	0.000
178.91	228.571
179.29	-2800.000
179.67	-1800.000
180.04	335.714
180.42	170.000
180.80	320.000
181.18	-1400.000
181.56	-800.000
181.94	625.000
182.31	-350.000
182.69	633.333
183.07	-900.000
183.45	500.000
183.83	-450.000
184.20	-500.000
184.58	1400.000
184.96	-700.000
185.34	-122.222
185.72	-340.000
186.09	244.444
186.47	950.000
186.85	520.000
187.23	-277.778
187.61	-2200.000
187.98	200.000
188.36	500.000
188.74	-300.000
189.12	-500.000
189.49	-50.000
189.87	-250.000
190.25	-188.889
190.63	-240.000
191.00	-322.222
191.38	0.000
191.76	-675.000
192.14	-183.333
192.51	1000.000
192.89	-233.333
193.27	0.000
193.65	-214.286
194.02	-1800.000
194.40	-342.857
194.78	385.714
195.15	0.000
195.53	-36.364
195.91	0.000
196.29	-275.000
196.66	-146.154
197.04	-2100.000
197.42	-300.000
197.79	-1300.000
198.17	-162.500
198.55	-342.857
198.92	-44.444
199.30	-225.000
199.68	-172.727
200.05	-85.714
200.43	-1050.000
200.81	242.857
201.18	0.000
201.56	255.556
201.94	0.000
202.31	966.667
202.69	-366.667
203.07	2000.000
203.44	-200.000
203.82	-600.000
204.19	-100.000
204.57	-300.000
204.95	-225.000
205.32	-1700.000
205.70	300.000
206.08	-166.667
206.45	-133.333
206.83	640.000
207.20	-233.333
207.58	-460.000
207.96	-333.333
208.33	-200.000
208.71	241.667
209.08	-283.333
209.46	0.000
209.84	433.333
210.21	950.000
210.59	750.000
210.96	666.667
211.34	-175.000
211.71	-187.500
212.09	-2700.000
212.46	0.000
212.84	1300.000
213.22	-500.000
213.59	-500.000
213.97	-200.000
214.34	-933.333
214.72	450.000
215.09	-450.000
215.47	0.000
215.84	171.429
216.22	1050.000
216.59	-360.000
216.97	-300.000
217.34	-525.000
217.72	-250.000
218.09	-575.000
218.47	-525.000
218.84	0.000
219.22	300.000
219.59	-105.882
219.97	-50.000
220.34	1650.000
220.72	-233.333
221.09	-61.538
221.47	-633.333
221.84	-130.000
222.22	-285.714
222.59	0.000
222.97	-237.500
223.34	-480.000
223.72	-2200.000
224.09	-525.000
224.46	-500.000
224.84	-340.000
225.21	-457.143
225.59	-475.000
225.96	-600.000
226.34	-26.923
226.71	416.667
227.08	-1050.000
227.46	-120.000
227.83	-500.000
228.21	-5.263
228.58	200.000
228.95	1000.000
229.33	-91.667
229.70	-180.000
230.08	-21.053
230.45	180.000
230.82	-166.667
231.20	-114.286
231.57	-175.000
231.95	-190.909
232.32	-172.727
232.69	-70.000
233.07	-400.000
233.44	-94.118
233.81	-110.000
234.19	-22.222
234.56	-40.909
234.93	-34.483
235.31	-89.474
235.68	-61.111
236.05	-95.000
236.43	-30.769
236.80	8.000
237.17	-14.815
237.55	-12.121
237.92	-140.000
238.29	-12.903
238.67	-13.636
239.04	-5.556
239.41	-16.667
239.79	13.043
240.16	-16.667
240.53	-15.217
240.91	-5.882
241.28	11.475
241.65	22.388
242.02	13.514
242.40	0.000
242.77	-2.667
243.14	12.195
243.51	5.263
243.89	16.667
244.26	33.663
244.63	15.686
245.00	27.103
245.38	21.930
245.75	23.894
246.12	31.746
246.49	16.279
246.87	29.286
247.24	33.113
247.61	29.605
247.98	24.161
248.36	33.333
248.73	17.791
249.10	26.230
249.47	33.831
249.84	30.890
250.22	30.052
250.59	33.889
250.96	28.636
251.33	27.041
251.70	28.205
252.08	30.000
252.45	29.508
252.82	33.471
253.19	29.688
253.56	31.939
253.94	26.154
254.31	34.470
254.68	37.762
255.05	35.179
255.42	34.354
255.79	33.657
256.16	29.801
256.54	27.152
256.91	33.770
257.28	32.787
257.65	30.573
258.02	32.153
258.39	32.479
258.76	32.110
259.14	33.621
259.51	30.259
259.88	30.595
260.25	38.056
260.62	34.521
260.99	36.066
261.36	37.802
261.73	32.891
262.10	39.011
262.47	37.534
262.85	36.869
263.22	34.286
263.59	33.158
263.96	34.271
264.33	35.550
264.70	33.086
265.07	34.129
265.44	34.921
265.81	33.796
266.18	35.147
266.55	36.830
266.92	34.624
267.29	38.950
267.66	32.594
268.03	34.498
268.40	36.117
268.77	32.574
269.14	33.480
269.51	35.965
269.88	35.041
270.25	34.608
270.62	35.654
270.99	36.768
271.36	34.257
271.73	34.774
272.10	37.275
272.47	35.872
272.84	34.739
273.21	35.872
273.58	36.492
273.95	34.615
274.32	32.319
274.69	33.269
275.06	34.066
275.43	33.087
275.80	34.215
276.17	35.556
276.54	32.090
276.91	33.631
277.28	33.635
277.65	35.189
278.02	34.007
278.39	34.964
278.76	33.040
279.13	35.993
279.50	34.536
279.87	34.168
280.23	32.042
280.60	34.407
280.97	35.362
281.34	33.277
281.71	33.841
282.08	33.389
282.45	34.370
282.82	33.124
283.19	32.472
283.56	33.934
283.92	35.285
284.29	34.913
284.66	34.319
285.03	32.532
285.40	33.230
285.77	34.056
286.14	34.962
286.51	35.008
286.87	33.965
287.24	33.283
287.61	32.138
287.98	31.873
288.35	32.840
288.72	32.249
289.08	31.332
289.45	31.657
289.82	30.873
290.19	31.322
290.56	30.000
290.93	31.812
291.29	31.405
291.66	30.579
292.03	30.258
292.40	31.429
292.77	28.032
293.13	28.958
293.50	28.909
293.87	28.456
294.24	28.667
294.60	28.571
294.97	27.248
295.34	28.425
295.71	27.491
296.08	27.907
296.44	27.206
296.81	27.649
297.18	26.775
297.55	26.061
297.91	26.097
298.28	25.592
298.65	26.040
299.02	25.620
299.38	25.629
299.75	26.986
300.12	26.157
300.48	25.806
300.85	25.422
301.22	26.846
301.59	26.027
301.95	25.876
302.32	27.333
302.69	25.958
303.05	26.333
303.42	24.612
303.79	27.083
304.15	24.711
304.52	25.264
304.89	26.387
305.25	24.431
305.62	26.332
305.99	25.361
306.35	25.403
306.72	26.060
307.09	24.569
307.45	25.776
307.82	26.034
308.19	25.429
308.55	26.230
308.92	24.537
309.29	25.670
309.65	25.634
310.02	27.228
310.38	25.394
310.75	25.437
311.12	26.174
311.48	24.829
311.85	25.926
312.22	25.806
312.58	24.507
312.95	25.621
313.31	26.287
313.68	25.549
314.05	27.100
314.41	25.592
314.78	26.340
315.14	27.223
315.51	25.485
315.87	27.273
316.24	26.849
316.61	26.998
316.97	26.878
317.34	25.397
317.70	28.035
318.07	27.425
318.43	28.146
318.80	28.261
319.16	27.296
319.53	25.193
319.89	28.922
320.26	28.470
320.62	26.064
320.99	29.825
321.35	27.079
321.72	29.395
322.08	28.674
322.45	28.636
322.81	29.964
323.18	29.381
323.54	30.603
323.91	31.406
324.27	29.260
324.64	30.395
325.00	29.353
325.37	29.975
325.73	30.661
326.10	29.684
326.46	30.537
326.83	30.825
327.19	31.811
327.56	32.253
327.92	30.685
328.29	30.000
328.65	30.653
329.01	31.810
329.38	31.340
329.74	33.818
330.11	32.106
330.47	32.182
330.84	31.697
331.20	32.417
331.56	32.842
331.93	33.305
332.29	33.644
332.66	34.053
333.02	31.910
333.38	32.970
333.75	32.997
334.11	33.945
334.48	33.911
334.84	34.240
335.20	32.326
335.57	33.558
335.93	34.050
336.29	32.529
336.66	33.053
337.02	33.027
337.38	33.248
337.75	32.810
338.11	34.230
338.47	34.078
338.84	32.657
339.20	33.193
339.56	34.185
339.93	32.512
340.29	32.367
340.65	33.901
341.02	34.477
341.38	33.630
341.74	33.979
342.11	34.031
342.47	33.122
342.83	34.702
343.20	34.342
343.56	34.002
343.92	33.387
344.28	33.984
344.65	32.868
345.01	34.243
345.37	34.681
345.73	33.515
346.10	33.775
346.46	33.149
346.82	34.082
347.19	34.607
347.55	34.294
347.91	33.135
348.27	34.067
348.63	34.196
349.00	32.737
349.36	33.234
349.72	32.961
350.08	33.061
350.45	33.384
350.81	34.389
351.17	33.158
351.53	35.481
351.89	34.093
352.26	32.985
352.62	34.030
352.98	34.122
353.34	32.263
353.70	35.670
354.07	34.352
354.43	33.257
354.79	34.256
355.15	33.554
355.51	34.064
355.87	33.209
356.24	35.513
356.60	32.964
356.96	34.470
357.32	33.532
357.68	33.602
358.04	34.207
358.40	32.463
358.77	35.088
359.13	33.826
359.49	33.383
359.85	34.300
360.21	33.214
360.57	32.663
360.93	33.357
361.29	34.105
361.66	34.540
362.02	35.003
362.38	33.872
362.74	34.008
363.10	33.906
363.46	34.280
363.82	34.872
364.18	34.412
364.54	34.855
364.90	35.987
365.26	33.862
365.62	35.333
365.98	34.922
366.35	35.638
366.71	36.871
367.07	35.250
367.43	34.931
367.79	34.771
368.15	35.719
368.51	35.386
368.87	35.140
369.23	35.533
369.59	35.519
369.95	35.903
370.31	36.867
370.67	35.901
371.03	36.011
371.39	35.259
371.75	36.451
372.11	34.959
372.47	36.087
372.83	35.864
373.19	36.358
373.55	36.247
373.91	35.992
374.27	35.511
374.63	36.062
374.99	37.135
375.35	36.494
375.71	36.710
376.07	36.217
376.42	38.413
376.78	37.601
377.14	37.305
377.50	37.192
377.86	38.670
378.22	38.802
378.58	38.169
378.94	37.676
379.30	37.961
379.66	38.330
380.02	38.950
380.38	38.249
380.74	38.254
381.09	38.502
381.45	38.807
381.81	38.993
382.17	38.124
382.53	40.175
382.89	39.221
383.25	39.859
383.61	38.657
383.97	39.164
384.32	39.593
384.68	39.849
385.04	40.370
385.40	40.542
385.76	41.032
386.12	39.797
386.48	39.824
386.83	41.240
387.19	39.340
387.55	40.786
387.91	40.696
388.27	40.358
388.62	40.607
388.98	41.230
389.34	41.308
389.70	42.185
390.06	40.083
390.42	41.386
390.77	41.240
391.13	41.491
391.49	41.425
391.85	41.091
392.20	41.756
392.56	42.823
392.92	41.876
393.28	41.736
393.64	42.793
393.99	43.173
394.35	43.575
394.71	41.856
395.07	41.916
395.42	41.805
395.78	43.205
396.14	42.662
396.50	42.815
396.85	43.172
397.21	42.722
397.57	43.404
397.92	43.242
398.28	42.260
398.64	42.735
399.00	42.356
399.35	43.351
399.71	43.478
400.07	43.571
400.42	43.481
400.78	43.634
401.14	43.483
401.49	44.457
401.85	44.360
402.21	44.670
402.57	43.955
402.92	44.622
403.28	43.443
403.63	43.974
403.99	42.577
404.35	43.661
404.70	43.513
405.06	43.152
405.42	44.438
405.77	44.711
406.13	44.300
406.49	45.101
406.84	43.878
407.20	43.376
407.55	44.761
407.91	43.809
408.27	44.287
408.62	44.677
408.98	43.587
409.34	44.282
409.69	44.561
410.05	45.252
410.40	44.200
410.76	44.027
411.11	45.646
411.47	44.656
411.83	45.385
412.18	46.566
412.54	43.687
412.89	45.227
413.25	44.752
413.60	45.491
413.96	45.280
414.31	44.419
414.67	45.319
415.03	43.815
415.38	46.469
415.74	46.121
416.09	45.527
416.45	44.333
416.80	45.104
417.16	45.530
417.51	45.143
417.87	46.413
418.22	45.569
418.58	45.353
418.93	46.682
419.29	46.794
419.64	46.038
420.00	46.053
420.35	45.705
420.71	45.376
421.06	45.658
421.42	46.158
421.77	45.288
422.12	46.195
422.48	47.158
422.83	46.550
423.19	47.003
423.54	47.898
423.90	46.273
424.25	46.613
424.61	46.900
424.96	46.293
425.31	46.975
425.67	47.236
426.02	47.703
426.38	47.474
426.73	47.154
427.09	48.443
427.44	46.477
427.79	46.434
428.15	46.632
428.50	47.809
428.85	46.498
429.21	47.606
429.56	47.878
429.92	47.568
430.27	47.181
430.62	48.119
430.98	49.188
431.33	47.263
431.68	48.132
432.04	48.654
432.39	47.670
432.74	48.744
433.10	48.675
433.45	47.826
433.80	47.961
434.16	48.605
434.51	48.253
434.86	49.783
435.22	50.266
435.57	49.233
435.92	47.190
436.28	49.886
436.63	50.737
436.98	49.383
437.34	49.267
437.69	49.092
438.04	49.709
438.39	50.258
438.75	50.526
439.10	49.207
439.45	49.972
439.81	48.814
440.16	49.276
440.51	49.554
440.86	48.471
441.22	48.982
441.57	49.319
441.92	49.612
442.27	50.000
442.63	49.379
442.98	50.907
443.33	50.815
443.68	49.950
444.03	51.270
444.39	50.763
444.74	51.302
445.09	49.924
445.44	50.421
445.79	51.437
446.15	50.874
446.50	50.388
446.85	49.854
447.20	51.499
447.55	51.255
447.91	50.838
448.26	50.529
448.61	50.903
448.96	52.253
449.31	50.159
449.66	50.545
450.02	51.688
450.37	50.613
450.72	51.238
451.07	51.936
451.42	51.646
451.77	50.917
452.12	51.298
452.47	50.980
452.83	52.252
453.18	51.956
453.53	52.269
453.88	50.635
454.23	52.090
454.58	51.654
454.93	51.638
455.28	51.054
455.63	51.222
455.98	52.291
456.34	51.649
456.69	51.029
457.04	52.541
457.39	50.721
457.74	52.013
458.09	51.071
458.44	52.425
458.79	50.232
459.14	50.970
459.49	51.273
459.84	51.364
460.19	51.249
460.54	52.413
460.89	53.044
461.24	51.724
461.59	52.573
461.94	50.827
462.29	52.632
462.64	51.901
462.99	52.103
463.34	52.433
463.69	50.938
464.04	53.141
464.39	51.906
464.74	51.596
465.09	52.249
465.44	52.414
465.79	52.089
466.14	51.954
466.49	52.368
466.84	52.837
467.19	52.254
467.54	51.175
467.89	52.126
468.24	52.078
468.59	52.345
468.94	51.632
469.29	52.430
469.64	51.430
469.99	51.498
470.34	53.280
470.68	52.221
471.03	52.063
471.38	52.583
471.73	52.016
472.08	52.602
472.43	51.415
472.78	51.826
473.13	52.212
473.48	51.722
473.83	54.150
474.17	51.524
474.52	52.856
474.87	51.218
475.22	53.239
475.57	52.077
475.92	51.817
476.27	51.917
476.61	51.661
476.96	52.607
477.31	52.030
477.66	52.938
478.01	52.923
478.36	51.496
478.70	51.626
479.05	54.039
479.40	52.764
479.75	51.681
480.10	52.345
480.45	52.552
480.79	51.973
481.14	52.390
481.49	52.249
481.84	52.480
482.19	52.430
482.53	53.695
482.88	52.769
483.23	52.423
483.58	52.140
483.92	50.842
484.27	51.566
484.62	52.434
484.97	51.555
485.31	51.883
485.66	48.123
486.01	47.775
486.36	50.635
486.70	54.383
487.05	57.666
487.40	56.211
487.75	54.758
488.09	54.607
488.44	53.946
488.79	52.884
489.13	52.643
489.48	52.117
489.83	52.233
490.17	51.843
490.52	51.560
490.87	53.215
491.22	52.340
491.56	52.389
491.91	51.897
492.26	52.488
492.60	51.509
492.95	52.084
493.30	52.846
493.64	52.738
493.99	51.974
494.34	50.479
494.68	52.077
495.03	52.907
495.37	53.662
495.72	52.562
496.07	52.147
496.41	51.523
496.76	52.627
497.11	53.503
497.45	52.438
497.80	53.798
498.14	53.197
498.49	52.022
498.84	52.331
499.18	52.901
499.53	52.377
499.87	52.176
500.22	51.425
500.56	51.777
500.91	53.272
501.26	52.773
501.60	52.408
501.95	52.844
502.29	51.558
502.64	53.345
502.98	52.286
503.33	52.657
503.67	52.420
504.02	51.970
504.36	53.307
504.71	53.376
505.06	51.887
505.40	53.062
505.75	52.277
506.09	52.762
506.44	53.250
506.78	53.440
507.13	53.112
507.47	53.292
507.82	52.746
508.16	52.055
508.51	51.992
508.85	53.803
509.19	52.345
509.54	53.122
509.88	52.113
510.23	53.181
510.57	53.842
510.92	53.991
511.26	52.477
511.61	52.825
511.95	53.001
512.30	53.422
512.64	52.524
512.98	53.127
513.33	52.571
513.67	52.881
514.02	54.369
514.36	54.271
514.70	53.177
515.05	53.597
515.39	53.228
515.74	54.454
516.08	53.143
516.42	53.637
516.77	53.049
517.11	52.192
517.46	53.499
517.80	53.287
518.14	53.373
518.49	55.369
518.83	53.326
519.17	51.966
519.52	52.568
519.86	53.273
520.20	53.142
520.55	53.505
520.89	53.435
521.23	54.048
521.58	53.164
521.92	53.994
522.26	53.036
522.61	54.398
522.95	54.037
523.29	54.655
523.64	54.204
523.98	54.592
524.32	53.754
524.66	54.183
525.01	53.511
525.35	52.154
525.69	53.886
526.04	53.502
526.38	53.966
526.72	53.172
527.06	53.783
527.41	53.294
527.75	54.572
528.09	54.191
528.43	52.812
528.78	52.081
529.12	53.899
529.46	52.558
529.80	53.604
530.15	53.855
530.49	53.855
530.83	53.955
531.17	53.465
531.51	54.934
531.86	53.906
532.20	55.183
532.54	53.082
532.88	53.939
533.22	53.447
533.57	52.452
533.91	53.423
534.25	54.042
534.59	54.368
534.93	53.084
535.27	53.521
535.62	54.576
535.96	54.155
536.30	54.935
536.64	54.715
536.98	55.597
537.32	54.630
537.66	55.209
538.01	52.447
538.35	54.507
538.69	53.065
539.03	53.464
539.37	52.356
539.71	54.174
540.05	54.916
540.39	54.523
540.73	52.338
541.07	54.752
541.42	52.628
541.76	53.203
542.10	54.162
542.44	53.289
542.78	54.136
543.12	53.695
543.46	52.625
543.80	52.458
544.14	52.663
544.48	53.960
544.82	53.740
545.16	54.442
545.50	54.584
545.84	53.705
546.18	54.753
546.52	54.650
546.86	53.648
547.20	53.753
547.54	52.871
547.88	53.104
548.22	53.158
548.56	53.599
548.90	54.388
549.24	53.435
549.58	55.079
549.92	53.954
550.26	53.398
550.60	53.350
550.94	53.816
551.28	52.673
551.62	54.582
551.96	51.586
552.30	54.175
552.64	54.387
552.98	52.589
553.32	54.727
553.66	53.955
554.00	55.233
554.34	53.282
554.68	54.099
555.02	53.285
555.36	54.635
555.69	53.812
556.03	53.153
556.37	53.442
556.71	53.773
557.05	53.674
557.39	53.683
557.73	53.897
558.07	53.245
558.41	53.355
558.75	54.158
559.08	54.628
559.42	53.978
559.76	55.224
560.10	53.248
560.44	54.551
560.78	53.937
561.12	53.017
561.45	54.684
561.79	54.640
562.13	54.344
562.47	53.576
562.81	53.861
563.15	54.924
563.48	54.506
563.82	53.567
564.16	54.088
564.50	54.291
564.84	52.153
565.17	54.118
565.51	53.913
565.85	54.988
566.19	53.917
566.52	55.003
566.86	54.216
567.20	52.800
567.54	54.594
567.88	53.619
568.21	54.595
568.55	54.436
568.89	53.972
569.23	53.908
569.56	53.068
569.90	53.421
570.24	54.030
570.57	53.881
570.91	53.797
571.25	52.676
571.59	53.437
571.92	53.465
572.26	53.706
572.60	54.737
572.93	52.853
573.27	53.807
573.61	53.070
573.95	53.314
574.28	53.095
574.62	52.615
574.96	52.757
575.29	52.699
575.63	53.292
575.97	53.725
576.30	52.677
576.64	53.329
576.98	52.802
577.31	53.526
577.65	53.364
577.98	52.316
578.32	52.418
578.66	52.620
578.99	53.758
579.33	54.469
579.67	53.944
580.00	53.630
580.34	52.923
580.67	53.045
581.01	53.159
581.35	52.270
581.68	52.547
582.02	52.622
582.35	54.604
582.69	54.225
583.02	54.962
583.36	55.658
583.70	55.578
584.03	54.644
584.37	54.900
584.70	53.081
585.04	53.034
585.37	52.740
585.71	52.384
586.04	53.677
586.38	53.552
586.72	53.773
587.05	53.645
587.39	54.026
587.72	54.569
588.06	54.014
588.39	54.668
588.73	54.233
589.06	54.797
589.40	54.548
589.73	54.724
590.07	54.907
590.40	55.071
590.73	54.719
591.07	54.765
591.40	54.393
591.74	54.054
592.07	55.095
592.41	53.115
592.74	53.745
593.08	52.325
593.41	53.077
593.75	53.477
594.08	54.196
594.41	54.968
594.75	54.268
595.08	55.081
595.42	53.636
595.75	54.343
596.09	55.574
596.42	55.392
596.75	54.998
597.09	54.626
597.42	53.357
597.75	53.352
598.09	53.929
598.42	54.684
598.76	53.611
599.09	53.507
599.42	53.403
599.76	52.460
600.09	54.221
600.42	53.720
600.76	53.798
601.09	53.236
601.42	53.656
601.76	54.483
602.09	54.146
602.42	54.162
602.76	54.686
603.09	54.515
603.42	54.588
603.76	53.418
604.09	53.726
604.42	54.275
604.76	53.044
605.09	54.527
605.42	53.230
605.75	54.115
606.09	53.602
606.42	53.667
606.75	52.886
607.09	53.226
607.42	53.988
607.75	54.084
608.08	53.749
608.42	53.728
608.75	54.312
609.08	53.438
609.41	54.566
609.75	54.196
610.08	54.881
610.41	53.781
610.74	53.739
611.07	55.373
611.41	53.857
611.74	55.058
612.07	54.371
612.40	54.325
612.73	55.648
613.07	53.643
613.40	54.764
613.73	53.972
614.06	54.612
614.39	53.207
614.72	54.440
615.06	53.898
615.39	54.471
615.72	54.645
616.05	54.492
616.38	55.197
616.71	55.225
617.05	55.698
617.38	55.003
617.71	55.724
618.04	54.830
618.37	54.426
618.70	56.391
619.03	54.540
619.36	55.302
619.69	55.605
620.03	54.614
620.36	53.497
620.69	55.151
621.02	56.365
621.35	58.491
621.68	56.110
622.01	56.085
622.34	55.091
622.67	55.876
623.00	54.656
623.33	55.873
623.66	55.383
623.99	55.102
624.32	56.660
624.65	54.955
624.99	55.787
625.32	56.826
625.65	55.968
625.98	55.864
626.31	54.784
626.64	56.703
626.97	55.814
627.30	55.885
627.63	57.014
627.96	56.832
628.29	55.953
628.62	55.919
628.95	57.143
629.28	54.206
629.61	56.481
629.94	54.979
630.26	54.831
630.59	55.613
630.92	54.286
631.25	55.635
