SpectraSuite Data File
++++++++++++++++++++++++++++++++++++
Date: Thu May 14 14:59:42 PDT 2015
User: schluterlab
Dark Spectrum Present: Yes
Reference Spectrum Present: Yes
Number of Sampled Component Spectra: 1
Spectrometers: USB2E3373
Integration Time (usec): 3000 (USB2E3373)
Spectra Averaged: 3 (USB2E3373)
Boxcar Smoothing: 0 (USB2E3373)
Correct for Electrical Dark: No (USB2E3373)
Strobe/Lamp Enabled: No (USB2E3373)
Correct for Detector Non-linearity: No (USB2E3373)
Correct for Stray Light: No (USB2E3373)
Number of Pixels in Processed Spectrum: 2048
>>>>>Begin Processed Spectral Data<<<<<
178.53	0.000
178.91	285.714
179.29	-3200.000
179.67	-2800.000
180.04	292.857
180.42	270.000
180.80	600.000
181.18	-2100.000
181.56	-1700.000
181.94	600.000
182.31	-400.000
182.69	933.333
183.07	-1000.000
183.45	500.000
183.83	-416.667
184.20	-1100.000
184.58	1700.000
184.96	-700.000
185.34	-255.556
185.72	-240.000
186.09	355.556
186.47	1450.000
186.85	540.000
187.23	-277.778
187.61	-3200.000
187.98	360.000
188.36	725.000
188.74	-725.000
189.12	-533.333
189.49	-87.500
189.87	-262.500
190.25	-211.111
190.63	-380.000
191.00	-300.000
191.38	0.000
191.76	-500.000
192.14	-216.667
192.51	1050.000
192.89	-266.667
193.27	0.000
193.65	-357.143
194.02	-2400.000
194.40	-271.429
194.78	257.143
195.15	0.000
195.53	-163.636
195.91	0.000
196.29	-650.000
196.66	-130.769
197.04	-2900.000
197.42	-285.714
197.79	-1150.000
198.17	-300.000
198.55	-314.286
198.92	-233.333
199.30	-400.000
199.68	-100.000
200.05	-71.429
200.43	-600.000
200.81	185.714
201.18	0.000
201.56	400.000
201.94	0.000
202.31	966.667
202.69	-277.778
203.07	1500.000
203.44	-200.000
203.82	-825.000
204.19	-183.333
204.57	-400.000
204.95	-300.000
205.32	-2400.000
205.70	550.000
206.08	-366.667
206.45	-283.333
206.83	640.000
207.20	-283.333
207.58	-680.000
207.96	-433.333
208.33	-200.000
208.71	266.667
209.08	-333.333
209.46	0.000
209.84	550.000
210.21	1050.000
210.59	1350.000
210.96	800.000
211.34	-425.000
211.71	-175.000
212.09	-2400.000
212.46	0.000
212.84	1500.000
213.22	-580.000
213.59	-525.000
213.97	-190.000
214.34	-766.667
214.72	350.000
215.09	-525.000
215.47	0.000
215.84	314.286
216.22	1400.000
216.59	-520.000
216.97	-360.000
217.34	-550.000
217.72	-287.500
218.09	-475.000
218.47	-650.000
218.84	0.000
219.22	520.000
219.59	-94.118
219.97	-55.000
220.34	1350.000
220.72	-244.444
221.09	-115.385
221.47	-666.667
221.84	-170.000
222.22	-314.286
222.59	0.000
222.97	-387.500
223.34	-560.000
223.72	-2000.000
224.09	-550.000
224.46	-550.000
224.84	-340.000
225.21	-385.714
225.59	-650.000
225.96	-600.000
226.34	-50.000
226.71	500.000
227.08	-1200.000
227.46	-160.000
227.83	-525.000
228.21	-105.263
228.58	250.000
228.95	1350.000
229.33	-108.333
229.70	-240.000
230.08	-52.632
230.45	290.000
230.82	-800.000
231.20	-78.571
231.57	-91.667
231.95	-136.364
232.32	-163.636
232.69	-75.000
233.07	-525.000
233.44	-82.353
233.81	-230.000
234.19	-83.333
234.56	-90.909
234.93	-51.724
235.31	-89.474
235.68	-100.000
236.05	-130.000
236.43	-7.692
236.80	-4.000
237.17	-48.148
237.55	-27.273
237.92	-240.000
238.29	-67.742
238.67	-43.182
239.04	-38.889
239.41	-21.429
239.79	-30.435
240.16	-20.370
240.53	-28.261
240.91	-37.255
241.28	-4.918
241.65	-4.478
242.02	-2.703
242.40	-35.385
242.77	-18.667
243.14	-23.171
243.51	-25.000
243.89	-24.359
244.26	3.960
244.63	-1.961
245.00	-8.411
245.38	0.000
245.75	-16.814
246.12	1.587
246.49	-5.426
246.87	0.714
247.24	7.285
247.61	1.316
247.98	-0.671
248.36	5.556
248.73	-0.613
249.10	5.464
249.47	8.458
249.84	7.330
250.22	0.000
250.59	5.000
250.96	7.727
251.33	4.592
251.70	6.410
252.08	9.583
252.45	11.066
252.82	3.306
253.19	6.641
253.56	7.605
253.94	6.923
254.31	8.333
254.68	9.790
255.05	11.726
255.42	11.905
255.79	8.414
256.16	10.265
256.54	8.278
256.91	7.541
257.28	10.820
257.65	9.554
258.02	8.555
258.39	11.966
258.76	12.232
259.14	11.207
259.51	8.934
259.88	7.932
260.25	10.833
260.62	9.041
260.99	10.383
261.36	13.405
261.73	12.732
262.10	10.714
262.47	9.651
262.85	11.869
263.22	10.130
263.59	6.579
263.96	9.974
264.33	11.765
264.70	11.111
265.07	13.604
265.44	14.059
265.81	12.963
266.18	10.658
266.55	12.946
266.92	11.845
267.29	12.035
267.66	10.865
268.03	12.009
268.40	12.109
268.77	11.845
269.14	11.894
269.51	12.500
269.88	11.680
270.25	12.072
270.62	14.557
270.99	12.323
271.36	11.881
271.73	13.163
272.10	10.822
272.47	11.824
272.84	11.647
273.21	12.224
273.58	10.484
273.95	10.962
274.32	10.646
274.69	11.219
275.06	13.919
275.43	11.275
275.80	11.993
276.17	11.667
276.54	12.313
276.91	12.522
277.28	10.127
277.65	12.029
278.02	12.132
278.39	11.775
278.76	11.072
279.13	12.057
279.50	13.402
279.87	12.880
280.23	8.803
280.60	9.661
280.97	12.500
281.34	9.168
281.71	13.198
282.08	11.628
282.45	11.620
282.82	11.303
283.19	10.662
283.56	11.148
283.92	11.862
284.29	12.954
284.66	12.315
285.03	10.897
285.40	11.283
285.77	11.300
286.14	12.519
286.51	14.155
286.87	12.480
287.24	12.199
287.61	11.061
287.98	10.725
288.35	13.166
288.72	11.243
289.08	12.152
289.45	12.722
289.82	11.145
290.19	11.638
290.56	13.380
290.93	11.555
291.29	9.780
291.66	11.019
292.03	10.855
292.40	12.517
292.77	11.321
293.13	11.231
293.50	9.987
293.87	10.872
294.24	10.667
294.60	10.872
294.97	9.530
295.34	11.396
295.71	10.845
296.08	9.432
296.44	10.662
296.81	10.353
297.18	10.710
297.55	9.552
297.91	10.439
298.28	9.479
298.65	11.415
299.02	10.508
299.38	9.954
299.75	8.995
300.12	9.722
300.48	10.023
300.85	10.686
301.22	10.179
301.59	9.589
301.95	9.040
302.32	10.444
302.69	9.748
303.05	10.881
303.42	10.865
303.79	9.792
304.15	10.410
304.52	9.514
304.89	9.948
305.25	9.834
305.62	9.718
305.99	9.897
306.35	9.274
306.72	9.411
307.09	8.934
307.45	10.248
307.82	11.100
308.19	7.972
308.55	10.800
308.92	9.348
309.29	10.057
309.65	10.526
310.02	10.099
310.38	9.941
310.75	10.000
311.12	11.218
311.48	9.384
311.85	10.826
312.22	9.393
312.58	9.765
312.95	10.229
313.31	10.659
313.68	10.623
314.05	11.201
314.41	10.656
314.78	10.173
315.14	11.252
315.51	12.004
315.87	11.071
316.24	11.598
316.61	13.144
316.97	12.398
317.34	12.434
317.70	12.926
318.07	12.081
318.43	13.265
318.80	13.294
319.16	13.391
319.53	11.311
319.89	13.848
320.26	13.879
320.62	13.387
320.99	13.666
321.35	14.325
321.72	13.953
322.08	14.067
322.45	15.266
322.81	15.794
323.18	15.044
323.54	15.517
323.91	16.014
324.27	17.040
324.64	17.716
325.00	16.998
325.37	17.281
325.73	18.099
326.10	18.086
326.46	19.300
326.83	19.616
327.19	19.921
327.56	18.893
327.92	18.804
328.29	18.629
328.65	19.179
329.01	20.220
329.38	20.051
329.74	22.260
330.11	22.346
330.47	22.072
330.84	21.361
331.20	22.500
331.56	23.744
331.93	23.766
332.29	23.559
332.66	23.671
333.02	23.032
333.38	24.664
333.75	23.737
334.11	25.438
334.48	24.422
334.84	24.384
335.20	25.105
335.57	25.885
335.93	23.223
336.29	23.877
336.66	24.811
337.02	25.167
337.38	25.595
337.75	25.207
338.11	25.147
338.47	25.145
338.84	26.481
339.20	25.527
339.56	25.371
339.93	25.369
340.29	24.960
340.65	24.980
341.02	25.140
341.38	26.192
341.74	25.989
342.11	27.192
342.47	25.179
342.83	26.892
343.20	27.228
343.56	26.784
343.92	27.462
344.28	25.781
344.65	26.357
345.01	26.755
345.37	26.905
345.73	26.812
346.10	27.301
346.46	26.108
346.82	27.341
347.19	26.585
347.55	27.162
347.91	27.489
348.27	26.404
348.63	27.494
349.00	28.337
349.36	26.914
349.72	27.604
350.08	28.232
350.45	28.289
350.81	27.602
351.17	27.820
351.53	28.506
351.89	28.929
352.26	28.060
352.62	28.284
352.98	27.634
353.34	28.230
353.70	29.276
354.07	27.943
354.43	28.474
354.79	27.524
355.15	28.182
355.51	27.924
355.87	27.375
356.24	30.266
356.60	27.864
356.96	29.429
357.32	29.071
357.68	28.770
358.04	28.593
358.40	29.851
358.77	29.532
359.13	29.468
359.49	29.814
359.85	28.934
360.21	30.344
360.57	29.576
360.93	28.632
361.29	31.088
361.66	30.558
362.02	30.828
362.38	30.499
362.74	30.517
363.10	31.499
363.46	31.233
363.82	31.534
364.18	31.738
364.54	30.567
364.90	31.237
365.26	31.517
365.62	31.867
365.98	31.450
366.35	32.081
366.71	31.837
367.07	33.153
367.43	31.911
367.79	33.709
368.15	32.910
368.51	32.882
368.87	33.508
369.23	33.667
369.59	34.495
369.95	33.469
370.31	33.221
370.67	34.801
371.03	33.864
371.39	33.781
371.75	34.044
372.11	33.740
372.47	33.852
372.83	35.406
373.19	34.690
373.55	35.095
373.91	35.242
374.27	35.317
374.63	36.198
374.99	36.008
375.35	36.104
375.71	36.258
376.07	35.959
376.42	36.650
376.78	37.912
377.14	36.868
377.50	38.330
377.86	37.931
378.22	37.605
378.58	38.882
378.94	38.967
379.30	38.313
379.66	39.447
380.02	40.277
380.38	41.187
380.74	39.775
381.09	40.883
381.45	40.000
381.81	41.979
382.17	41.746
382.53	41.404
382.89	41.366
383.25	42.849
383.61	42.477
383.97	42.403
384.32	43.840
384.68	42.575
385.04	43.783
385.40	44.549
385.76	44.256
386.12	44.704
386.48	44.588
386.83	45.411
387.19	44.902
387.55	45.188
387.91	45.662
388.27	46.074
388.62	45.876
388.98	45.685
389.34	47.437
389.70	48.053
390.06	46.773
390.42	47.048
390.77	48.284
391.13	47.007
391.49	47.947
391.85	48.303
392.20	48.636
392.56	49.262
392.92	49.128
393.28	49.696
393.64	49.385
393.99	50.843
394.35	50.234
394.71	49.401
395.07	49.940
395.42	49.743
395.78	51.554
396.14	50.386
396.50	50.713
396.85	49.493
397.21	50.414
397.57	50.412
397.92	52.405
398.28	51.276
398.64	49.828
399.00	50.419
399.35	51.099
399.71	51.522
400.07	51.656
400.42	51.746
400.78	50.984
401.14	50.711
401.49	51.336
401.85	52.267
402.21	53.418
402.57	52.758
402.92	51.359
403.28	51.698
403.63	52.267
403.99	51.128
404.35	51.563
404.70	51.331
405.06	50.978
405.42	51.991
405.77	52.126
406.13	52.080
406.49	52.646
406.84	52.465
407.20	52.487
407.55	52.211
407.91	52.734
408.27	52.061
408.62	52.763
408.98	52.293
409.34	51.613
409.69	53.832
410.05	52.521
410.40	53.480
410.76	53.449
411.11	53.887
411.47	54.300
411.83	53.086
412.18	54.217
412.54	52.993
412.89	52.212
413.25	53.047
413.60	53.073
413.96	52.622
414.31	50.878
414.67	53.548
415.03	53.415
415.38	53.594
415.74	53.268
416.09	53.300
416.45	52.912
416.80	51.958
417.16	52.554
417.51	52.553
417.87	52.974
418.22	53.713
418.58	53.036
418.93	53.492
419.29	53.206
419.64	53.361
420.00	52.641
420.35	53.622
420.71	53.647
421.06	52.444
421.42	53.383
421.77	52.719
422.12	53.013
422.48	53.507
422.83	53.888
423.19	54.271
423.54	54.701
423.90	53.838
424.25	53.867
424.61	53.272
424.96	54.805
425.31	53.397
425.67	53.623
426.02	54.455
426.38	53.444
426.73	52.790
427.09	54.556
427.44	53.796
427.79	53.068
428.15	53.311
428.50	53.371
428.85	53.330
429.21	54.043
429.56	53.406
429.92	53.759
430.27	54.602
430.62	53.737
430.98	54.648
431.33	54.497
431.68	53.736
432.04	55.003
432.39	54.419
432.74	54.395
433.10	53.867
433.45	53.122
433.80	53.165
434.16	53.564
434.51	53.443
434.86	56.515
435.22	55.526
435.57	55.307
435.92	54.814
436.28	54.266
436.63	54.943
436.98	52.979
437.34	54.059
437.69	53.880
438.04	53.517
438.39	53.992
438.75	53.680
439.10	54.545
439.45	54.835
439.81	53.955
440.16	53.190
440.51	52.899
440.86	53.474
441.22	53.751
441.57	54.822
441.92	54.365
442.27	55.303
442.63	55.191
442.98	54.696
443.33	53.919
443.68	54.410
444.03	55.456
444.39	54.461
444.74	54.671
445.09	53.675
445.44	55.216
445.79	55.316
446.15	54.779
446.50	54.470
446.85	53.599
447.20	53.868
447.55	54.550
447.91	54.241
448.26	54.545
448.61	54.357
448.96	55.579
449.31	54.719
449.66	52.778
450.02	54.167
450.37	54.875
450.72	55.167
451.07	54.499
451.42	53.437
451.77	52.918
452.12	55.700
452.47	52.644
452.83	56.250
453.18	53.999
453.53	52.786
453.88	53.230
454.23	54.520
454.58	54.150
454.93	53.216
455.28	54.846
455.63	53.781
455.98	55.140
456.34	54.653
456.69	54.321
457.04	54.374
457.39	54.767
457.74	54.530
458.09	53.542
458.44	53.610
458.79	54.358
459.14	53.225
459.49	53.877
459.84	54.774
460.19	53.415
460.54	55.196
460.89	54.844
461.24	53.448
461.59	54.676
461.94	52.196
462.29	53.975
462.64	52.927
462.99	53.107
463.34	53.602
463.69	52.462
464.04	53.974
464.39	53.139
464.74	53.307
465.09	53.403
465.44	54.399
465.79	53.464
466.14	52.996
466.49	52.684
466.84	53.664
467.19	52.370
467.54	52.291
467.89	51.839
468.24	51.856
468.59	52.229
468.94	52.564
469.29	52.669
469.64	52.511
469.99	52.326
470.34	52.351
470.68	52.700
471.03	54.551
471.38	51.668
471.73	53.706
472.08	52.982
472.43	51.595
472.78	53.212
473.13	52.149
473.48	51.239
473.83	53.511
474.17	52.462
474.52	53.097
474.87	51.384
475.22	51.887
475.57	51.713
475.92	53.858
476.27	51.757
476.61	51.817
476.96	51.773
477.31	52.673
477.66	52.833
478.01	52.059
478.36	51.545
478.70	52.217
479.05	52.658
479.40	52.962
479.75	51.345
480.10	50.971
480.45	52.051
480.79	52.381
481.14	52.436
481.49	52.249
481.84	52.132
482.19	51.527
482.53	51.902
482.88	52.548
483.23	52.112
483.58	51.004
483.92	51.773
484.27	51.228
484.62	52.228
484.97	50.622
485.31	50.898
485.66	48.690
486.01	49.474
486.36	52.273
486.70	55.074
487.05	56.359
487.40	54.725
487.75	52.468
488.09	52.663
488.44	50.894
488.79	51.366
489.13	50.398
489.48	50.097
489.83	50.624
490.17	49.696
490.52	50.903
490.87	51.269
491.22	51.516
491.56	50.939
491.91	51.548
492.26	50.974
492.60	50.284
492.95	51.470
493.30	51.412
493.64	51.730
493.99	50.526
494.34	50.348
494.68	51.135
495.03	51.982
495.37	51.753
495.72	50.839
496.07	50.570
496.41	49.507
496.76	52.085
497.11	51.847
497.45	50.755
497.80	51.533
498.14	50.658
498.49	51.057
498.84	51.143
499.18	51.327
499.53	51.076
499.87	50.945
500.22	50.935
500.56	50.877
500.91	51.213
501.26	51.500
501.60	50.066
501.95	50.369
502.29	50.812
502.64	51.815
502.98	50.992
503.33	49.978
503.67	50.371
504.02	51.313
504.36	52.234
504.71	50.758
505.06	52.024
505.40	50.320
505.75	50.729
506.09	51.703
506.44	51.903
506.78	50.642
507.13	50.899
507.47	50.876
507.82	50.331
508.16	50.143
508.51	50.117
508.85	50.638
509.19	50.213
509.54	50.720
509.88	50.898
510.23	51.384
510.57	51.764
510.92	50.798
511.26	50.361
511.61	49.879
511.95	49.927
512.30	50.960
512.64	50.075
512.98	49.875
513.33	50.605
513.67	51.402
514.02	51.610
514.36	50.691
514.70	50.833
515.05	50.991
515.39	51.811
515.74	50.848
516.08	50.766
516.42	51.125
516.77	51.314
517.11	50.438
517.46	50.583
517.80	52.058
518.14	51.523
518.49	52.386
518.83	49.388
519.17	50.619
519.52	49.371
519.86	50.317
520.20	51.118
520.55	50.876
520.89	51.464
521.23	50.475
521.58	52.034
521.92	50.708
522.26	51.375
522.61	52.431
522.95	50.750
523.29	52.184
523.64	50.561
523.98	50.428
524.32	52.149
524.66	51.224
525.01	50.396
525.35	50.546
525.69	50.754
526.04	49.770
526.38	51.437
526.72	49.712
527.06	50.968
527.41	50.029
527.75	50.653
528.09	51.476
528.43	50.918
528.78	50.867
529.12	50.803
529.46	50.984
529.80	50.572
530.15	50.783
530.49	51.483
530.83	51.535
531.17	51.195
531.51	50.963
531.86	51.382
532.20	51.768
532.54	51.107
532.88	51.152
533.22	50.796
533.57	49.971
533.91	51.178
534.25	51.894
534.59	51.494
534.93	51.104
535.27	51.549
535.62	52.416
535.96	51.075
536.30	50.940
536.64	51.652
536.98	50.984
537.32	50.926
537.66	51.279
538.01	50.876
538.35	50.305
538.69	50.661
539.03	51.625
539.37	50.177
539.71	50.210
540.05	50.060
540.39	49.450
540.73	50.455
541.07	50.889
541.42	49.084
541.76	51.068
542.10	50.121
542.44	50.122
542.78	51.703
543.12	50.417
543.46	50.916
543.80	50.240
544.14	49.431
544.48	51.537
544.82	51.227
545.16	52.594
545.50	51.468
545.84	50.949
546.18	52.531
546.52	50.573
546.86	50.755
547.20	50.509
547.54	49.813
547.88	50.512
548.22	50.936
548.56	51.668
548.90	51.821
549.24	51.185
549.58	50.347
549.92	50.128
550.26	50.744
550.60	50.223
550.94	50.388
551.28	51.221
551.62	51.146
551.96	50.227
552.30	49.904
552.64	50.467
552.98	51.528
553.32	51.511
553.66	50.161
554.00	50.315
554.34	51.287
554.68	48.741
555.02	50.460
555.36	52.005
555.69	49.712
556.03	50.189
556.37	51.690
556.71	50.856
557.05	50.160
557.39	50.365
557.73	50.991
558.07	49.603
558.41	51.429
558.75	50.507
559.08	51.357
559.42	50.274
559.76	49.864
560.10	50.234
560.44	50.462
560.78	50.812
561.12	51.724
561.45	51.642
561.79	51.343
562.13	52.187
562.47	50.370
562.81	51.962
563.15	51.136
563.48	50.901
563.82	51.088
564.16	50.697
564.50	50.715
564.84	51.740
565.17	51.353
565.51	51.208
565.85	51.306
566.19	50.864
566.52	51.024
566.86	50.594
567.20	50.517
567.54	50.823
567.88	52.090
568.21	51.038
568.55	51.751
568.89	51.384
569.23	51.162
569.56	52.091
569.90	51.996
570.24	51.872
570.57	52.470
570.91	51.929
571.25	51.750
571.59	52.073
571.92	51.599
572.26	51.800
572.60	52.389
572.93	51.934
573.27	51.250
573.61	51.456
573.95	51.056
574.28	51.320
574.62	52.228
574.96	51.478
575.29	51.840
575.63	51.952
575.97	52.527
576.30	50.284
576.64	50.608
576.98	51.640
577.31	51.949
577.65	52.456
577.98	52.165
578.32	52.160
578.66	52.186
578.99	51.628
579.33	52.090
579.67	51.315
580.00	51.225
580.34	51.047
580.67	51.523
581.01	51.428
581.35	50.653
581.68	51.340
582.02	52.215
582.35	52.910
582.69	53.336
583.02	52.943
583.36	52.495
583.70	52.374
584.03	51.500
584.37	51.419
584.70	50.489
585.04	50.709
585.37	50.840
585.71	51.219
586.04	52.554
586.38	52.019
586.72	51.767
587.05	52.315
587.39	51.957
587.72	52.727
588.06	51.813
588.39	51.979
588.73	51.799
589.06	51.326
589.40	52.151
589.73	51.960
590.07	52.918
590.40	51.927
590.73	51.856
591.07	51.526
591.40	51.788
591.74	50.994
592.07	52.132
592.41	50.552
592.74	50.586
593.08	51.624
593.41	52.931
593.75	52.184
594.08	53.014
594.41	51.987
594.75	51.146
595.08	52.288
595.42	52.403
595.75	51.824
596.09	52.762
596.42	52.848
596.75	51.332
597.09	52.000
597.42	51.530
597.75	50.451
598.09	52.302
598.42	51.186
598.76	51.013
599.09	51.264
599.42	51.224
599.76	51.799
600.09	52.619
600.42	51.885
600.76	52.180
601.09	50.680
601.42	51.184
601.76	52.207
602.09	51.537
602.42	50.818
602.76	51.255
603.09	51.542
603.42	51.698
603.76	51.868
604.09	52.590
604.42	52.220
604.76	51.788
605.09	52.134
605.42	51.715
605.75	50.885
606.09	51.288
606.42	50.456
606.75	51.012
607.09	50.883
607.42	50.829
607.75	51.973
608.08	51.302
608.42	51.189
608.75	51.658
609.08	50.679
609.41	52.051
609.75	51.429
610.08	52.023
610.41	51.529
610.74	51.429
611.07	51.865
611.41	52.735
611.74	52.887
612.07	51.706
612.40	51.616
612.73	53.447
613.07	51.883
613.40	52.166
613.73	51.517
614.06	51.963
614.39	51.361
614.72	51.043
615.06	50.818
615.39	51.087
615.72	51.706
616.05	51.433
616.38	52.119
616.71	51.985
617.05	50.266
617.38	51.471
617.71	51.782
618.04	51.754
618.37	53.169
618.70	52.602
619.03	50.478
619.36	50.678
619.69	51.121
620.03	51.601
620.36	51.534
620.69	50.648
621.02	50.984
621.35	52.830
621.68	51.988
622.01	51.388
622.34	51.534
622.67	51.890
623.00	51.350
623.33	51.825
623.66	52.010
623.99	50.560
624.32	51.722
624.65	51.866
624.99	53.251
625.32	53.168
625.65	51.450
625.98	50.373
626.31	51.453
626.64	50.110
626.97	51.163
627.30	50.873
627.63	51.463
627.96	52.252
628.29	51.206
628.62	50.462
628.95	51.621
629.28	49.958
629.61	50.926
629.94	50.628
630.26	51.017
630.59	51.813
630.92	51.169
631.25	52.236
631.58	51.695
631.91	50.703
