SpectraSuite Data File
++++++++++++++++++++++++++++++++++++
Date: Thu May 14 15:25:09 PDT 2015
User: schluterlab
Dark Spectrum Present: Yes
Reference Spectrum Present: Yes
Number of Sampled Component Spectra: 1
Spectrometers: USB2E3373
Integration Time (usec): 3000 (USB2E3373)
Spectra Averaged: 3 (USB2E3373)
Boxcar Smoothing: 0 (USB2E3373)
Correct for Electrical Dark: No (USB2E3373)
Strobe/Lamp Enabled: No (USB2E3373)
Correct for Detector Non-linearity: No (USB2E3373)
Correct for Stray Light: No (USB2E3373)
Number of Pixels in Processed Spectrum: 2048
>>>>>Begin Processed Spectral Data<<<<<
178.53	0.000
178.91	657.143
179.29	-5600.000
179.67	-4800.000
180.04	450.000
180.42	550.000
180.80	1080.000
181.18	-5600.000
181.56	-4000.000
181.94	1050.000
182.31	-1175.000
182.69	1633.333
183.07	-2200.000
183.45	1250.000
183.83	-716.667
184.20	-1466.667
184.58	4100.000
184.96	-950.000
185.34	-455.556
185.72	-900.000
186.09	711.111
186.47	2350.000
186.85	1000.000
187.23	-555.556
187.61	-5100.000
187.98	860.000
188.36	1375.000
188.74	-1300.000
189.12	-1400.000
189.49	-218.750
189.87	-575.000
190.25	-444.444
190.63	-960.000
191.00	-577.778
191.38	0.000
191.76	-1250.000
192.14	-766.667
192.51	2600.000
192.89	-766.667
193.27	0.000
193.65	-657.143
194.02	-5200.000
194.40	-628.571
194.78	628.571
195.15	0.000
195.53	-345.455
195.91	0.000
196.29	-1025.000
196.66	-315.385
197.04	-5100.000
197.42	-671.429
197.79	-2550.000
198.17	-675.000
198.55	-857.143
198.92	-422.222
199.30	-625.000
199.68	-427.273
200.05	-285.714
200.43	-2650.000
200.81	814.286
201.18	0.000
201.56	655.556
201.94	0.000
202.31	1900.000
202.69	-666.667
203.07	5100.000
203.44	-488.889
203.82	-1200.000
204.19	-325.000
204.57	-916.667
204.95	-662.500
205.32	-4400.000
205.70	1225.000
206.08	-866.667
206.45	-716.667
206.83	1080.000
207.20	-616.667
207.58	-1020.000
207.96	-750.000
208.33	-683.333
208.71	433.333
209.08	-683.333
209.46	0.000
209.84	933.333
210.21	2450.000
210.59	2150.000
210.96	1900.000
211.34	-1175.000
211.71	-537.500
212.09	-5000.000
212.46	0.000
212.84	2550.000
213.22	-980.000
213.59	-1225.000
213.97	-500.000
214.34	-1466.667
214.72	783.333
215.09	-1225.000
215.47	0.000
215.84	728.571
216.22	2200.000
216.59	-840.000
216.97	-980.000
217.34	-1075.000
217.72	-487.500
218.09	-1425.000
218.47	-1175.000
218.84	0.000
219.22	1040.000
219.59	-264.706
219.97	-190.000
220.34	2400.000
220.72	-566.667
221.09	-323.077
221.47	-1566.667
221.84	-450.000
222.22	-685.714
222.59	0.000
222.97	-462.500
223.34	-960.000
223.72	-5400.000
224.09	-1000.000
224.46	-1300.000
224.84	-880.000
225.21	-785.714
225.59	-1425.000
225.96	-1200.000
226.34	-176.923
226.71	1050.000
227.08	-3000.000
227.46	-306.667
227.83	-1125.000
228.21	-231.579
228.58	662.500
228.95	2400.000
229.33	-366.667
229.70	-370.000
230.08	-226.316
230.45	580.000
230.82	-1600.000
231.20	-328.571
231.57	-433.333
231.95	-463.636
232.32	-418.182
232.69	-245.000
233.07	-1050.000
233.44	-264.706
233.81	-500.000
234.19	-222.222
234.56	-222.727
234.93	-151.724
235.31	-247.368
235.68	-277.778
236.05	-290.000
236.43	-161.538
236.80	-148.000
237.17	-125.926
237.55	-127.273
237.92	-570.000
238.29	-154.839
238.67	-97.727
239.04	-108.333
239.41	-102.381
239.79	-95.652
240.16	-83.333
240.53	-102.174
240.91	-88.235
241.28	-63.934
241.65	-61.194
242.02	-40.541
242.40	-69.231
242.77	-52.000
243.14	-51.220
243.51	-72.368
243.89	-69.231
244.26	-40.594
244.63	-38.235
245.00	-39.252
245.38	-34.211
245.75	-46.903
246.12	-35.714
246.49	-32.558
246.87	-20.000
247.24	-27.152
247.61	-21.053
247.98	-24.161
248.36	-22.840
248.73	-26.994
249.10	-20.219
249.47	-12.438
249.84	-15.707
250.22	-23.316
250.59	-22.222
250.96	-15.909
251.33	-19.898
251.70	-11.111
252.08	-14.583
252.45	-9.836
252.82	-16.942
253.19	-14.062
253.56	-14.068
253.94	-16.538
254.31	-14.015
254.68	-10.140
255.05	-6.840
255.42	-13.265
255.79	-11.327
256.16	-9.272
256.54	-12.914
256.91	-8.852
257.28	-12.787
257.65	-12.420
258.02	-11.799
258.39	-7.977
258.76	-5.505
259.14	-9.483
259.51	-6.628
259.88	-7.649
260.25	-9.167
260.62	-6.575
260.99	-4.645
261.36	-6.434
261.73	-7.162
262.10	-12.912
262.47	-8.043
262.85	-3.283
263.22	-7.792
263.59	-11.316
263.96	-6.650
264.33	-7.417
264.70	-5.679
265.07	-5.251
265.44	-5.215
265.81	-5.324
266.18	-4.535
266.55	-5.357
266.92	-7.062
267.29	-4.376
267.66	-4.435
268.03	-2.402
268.40	-4.593
268.77	-10.478
269.14	-10.132
269.51	-4.605
269.88	-1.025
270.25	-4.628
270.62	-5.274
270.99	-3.636
271.36	-3.960
271.73	-3.929
272.10	-1.804
272.47	-4.208
272.84	-4.418
273.21	-5.010
273.58	-4.234
273.95	-4.808
274.32	-6.464
274.69	-4.836
275.06	-3.480
275.43	-5.545
275.80	-2.646
276.17	-5.556
276.54	-2.985
276.91	-3.399
277.28	-3.255
277.65	-1.795
278.02	-3.676
278.39	-4.167
278.76	-2.812
279.13	-3.369
279.50	-2.405
279.87	-2.147
280.23	-5.634
280.60	-3.729
280.97	-3.125
281.34	-4.414
281.71	-2.200
282.08	-3.488
282.45	-3.110
282.82	-2.983
283.19	-4.523
283.56	-4.426
283.92	-0.450
284.29	-1.264
284.66	-3.448
285.03	-4.968
285.40	-0.464
285.77	-2.786
286.14	-2.137
286.51	-3.805
286.87	-1.738
287.24	-2.560
287.61	-2.990
287.98	-2.870
288.35	-2.219
288.72	-0.592
289.08	-2.782
289.45	-2.367
289.82	-3.313
290.19	-1.437
290.56	-1.972
290.93	-1.854
291.29	-2.066
291.66	-2.479
292.03	-2.985
292.40	-0.544
292.77	-2.156
293.13	-0.677
293.50	-1.708
293.87	-2.282
294.24	0.533
294.60	-0.885
294.97	-3.087
295.34	-0.896
295.71	-0.504
296.08	-1.421
296.44	0.000
296.81	-0.609
297.18	-1.619
297.55	-0.590
297.91	-1.661
298.28	-0.592
298.65	-1.189
299.02	-1.181
299.38	-0.229
299.75	-0.584
300.12	-2.199
300.48	-0.576
300.85	-0.112
301.22	0.559
301.59	-1.598
301.95	-1.469
302.32	0.556
302.69	0.000
303.05	0.000
303.42	0.111
303.79	0.729
304.15	0.631
304.52	-1.691
304.89	0.524
305.25	0.104
305.62	-1.149
305.99	0.309
306.35	-0.403
306.72	1.138
307.09	-0.406
307.45	0.828
307.82	1.110
308.19	0.605
308.55	0.386
308.92	0.779
309.29	2.011
309.65	0.097
310.02	-0.198
310.38	0.000
310.75	0.583
311.12	1.918
311.48	0.098
311.85	1.330
312.22	1.423
312.58	1.315
312.95	0.765
313.31	2.439
313.68	2.015
314.05	1.174
314.41	2.095
314.78	1.635
315.14	2.632
315.51	1.662
315.87	1.440
316.24	3.288
316.61	2.842
316.97	1.448
317.34	2.381
317.70	3.057
318.07	2.557
318.43	4.167
318.80	3.177
319.16	1.717
319.53	2.228
319.89	1.840
320.26	2.669
320.62	2.128
320.99	2.678
321.35	2.588
321.72	3.814
322.08	3.066
322.45	4.065
322.81	3.339
323.18	3.451
323.54	3.793
323.91	4.093
324.27	4.475
324.64	4.450
325.00	4.312
325.37	4.996
325.73	4.215
326.10	5.272
326.46	5.537
326.83	4.564
327.19	4.724
327.56	4.348
327.92	4.878
328.29	5.161
328.65	3.936
329.01	4.399
329.38	5.307
329.74	5.051
330.11	5.051
330.47	5.476
330.84	5.168
331.20	6.083
331.56	4.679
331.93	6.192
332.29	6.102
332.66	5.150
333.02	6.114
333.38	5.789
333.75	5.556
334.11	5.838
334.48	5.528
334.84	6.457
335.20	6.129
335.57	6.071
335.93	5.537
336.29	4.908
336.66	6.224
337.02	6.104
337.38	6.378
337.75	5.041
338.11	6.728
338.47	5.790
338.84	5.415
339.20	4.718
339.56	6.343
339.93	5.911
340.29	6.119
340.65	6.083
341.02	6.225
341.38	7.518
341.74	5.408
342.11	7.723
342.47	5.242
342.83	5.717
343.20	5.724
343.56	5.453
343.92	6.805
344.28	6.875
344.65	7.442
345.01	7.566
345.37	5.754
345.73	6.859
346.10	6.864
346.46	6.725
346.82	7.191
347.19	6.875
347.55	6.601
347.91	6.984
348.27	6.829
348.63	6.626
349.00	7.308
349.36	6.394
349.72	7.664
350.08	6.612
350.45	6.996
350.81	5.882
351.17	6.917
351.53	7.582
351.89	6.986
352.26	6.567
352.62	6.642
352.98	6.947
353.34	7.095
353.70	6.780
354.07	6.110
354.43	5.695
354.79	6.731
355.15	7.064
355.51	7.602
355.87	7.180
356.24	6.616
356.60	7.095
356.96	7.191
357.32	7.286
357.68	6.735
358.04	6.063
358.40	6.791
358.77	7.237
359.13	7.164
359.49	6.320
359.85	7.904
360.21	7.676
360.57	7.394
360.93	7.475
361.29	7.579
361.66	6.951
362.02	7.794
362.38	7.730
362.74	7.332
363.10	7.221
363.46	7.895
363.82	8.168
364.18	8.023
364.54	7.607
364.90	8.227
365.26	7.724
365.62	8.400
365.98	8.577
366.35	7.987
366.71	7.891
367.07	8.660
367.43	8.864
367.79	8.693
368.15	8.896
368.51	8.863
368.87	8.426
369.23	8.333
369.59	7.377
369.95	8.384
370.31	9.183
370.67	8.116
371.03	8.380
371.39	7.186
371.75	8.322
372.11	8.537
372.47	9.343
372.83	9.948
373.19	8.873
373.55	9.214
373.91	8.248
374.27	8.991
374.63	8.796
374.99	8.488
375.35	9.156
375.71	8.710
376.07	9.296
376.42	9.761
376.78	9.820
377.14	9.545
377.50	8.918
377.86	9.360
378.22	9.581
378.58	10.166
378.94	9.977
379.30	9.197
379.66	9.759
380.02	10.444
380.38	10.772
380.74	9.746
381.09	10.627
381.45	10.398
381.81	10.773
382.17	10.986
382.53	10.643
382.89	10.384
383.25	11.196
383.61	10.764
383.97	11.072
384.32	11.244
384.68	11.601
385.04	11.625
385.40	11.137
385.76	11.782
386.12	12.687
386.48	12.059
386.83	12.396
387.19	11.993
387.55	11.737
387.91	11.301
388.27	12.125
388.62	11.856
388.98	11.844
389.34	12.080
389.70	12.144
390.06	12.552
390.42	11.747
390.77	13.125
391.13	13.146
391.49	12.621
391.85	11.515
392.20	12.100
392.56	12.286
392.92	13.195
393.28	13.322
393.64	12.737
393.99	12.899
394.35	13.318
394.71	13.174
395.07	11.856
395.42	12.564
395.78	13.224
396.14	13.428
396.50	13.242
396.85	12.463
397.21	13.077
397.57	13.486
397.92	13.975
398.28	12.439
398.64	12.986
399.00	13.141
399.35	13.822
399.71	12.772
400.07	13.307
400.42	13.329
400.78	13.600
401.14	13.489
401.49	13.928
401.85	12.326
402.21	13.847
402.57	13.556
402.92	14.184
403.28	13.290
403.63	12.649
403.99	13.183
404.35	13.417
404.70	13.711
405.06	13.696
405.42	12.529
405.77	13.686
406.13	13.398
406.49	13.007
406.84	14.072
407.20	13.583
407.55	13.628
407.91	13.702
408.27	13.840
408.62	13.845
408.98	13.871
409.34	12.845
409.69	13.350
410.05	13.951
410.40	14.791
410.76	13.741
411.11	14.378
411.47	13.943
411.83	14.286
412.18	13.976
412.54	13.456
412.89	14.028
413.25	13.713
413.60	13.670
413.96	14.044
414.31	15.127
414.67	14.848
415.03	13.969
415.38	13.997
415.74	13.867
416.09	14.127
416.45	13.838
416.80	14.015
417.16	13.346
417.51	13.636
417.87	14.408
418.22	15.090
418.58	13.445
418.93	14.668
419.29	14.365
419.64	14.226
420.00	14.659
420.35	15.441
420.71	14.819
421.06	14.319
421.42	15.138
421.77	13.678
422.12	14.006
422.48	14.593
422.83	14.841
423.19	14.907
423.54	15.487
423.90	15.461
424.25	15.200
424.61	15.327
424.96	15.486
425.31	15.764
425.67	14.922
426.02	15.717
426.38	14.064
426.73	15.513
427.09	15.975
427.44	15.238
427.79	15.312
428.15	14.155
428.50	16.067
428.85	15.557
429.21	15.532
429.56	15.301
429.92	15.676
430.27	15.663
430.62	15.926
430.98	15.396
431.33	15.494
431.68	16.044
432.04	16.303
432.39	16.122
432.74	15.868
433.10	15.738
433.45	16.499
433.80	16.202
434.16	16.322
434.51	16.804
434.86	16.884
435.22	17.109
435.57	15.743
435.92	16.249
436.28	15.757
436.63	16.603
436.98	16.532
437.34	16.742
437.69	16.125
438.04	16.764
438.39	17.002
438.75	16.602
439.10	17.865
439.45	15.987
439.81	16.384
440.16	16.408
440.51	16.778
440.86	16.732
441.22	16.774
441.57	16.300
441.92	16.780
442.27	16.869
442.63	17.884
442.98	17.716
443.33	16.938
443.68	17.493
444.03	17.686
444.39	18.077
444.74	17.764
445.09	17.334
445.44	17.229
445.79	17.912
446.15	18.345
446.50	17.519
446.85	17.704
447.20	17.747
447.55	17.887
447.91	17.382
448.26	17.442
448.61	17.960
448.96	18.455
449.31	17.073
449.66	17.266
450.02	17.827
450.37	18.434
450.72	16.577
451.07	17.312
451.42	17.100
451.77	17.176
452.12	17.494
452.47	16.162
452.83	18.187
453.18	17.630
453.53	18.036
453.88	18.388
454.23	18.192
454.58	18.108
454.93	17.233
455.28	17.640
455.63	17.794
455.98	18.101
456.34	18.316
456.69	17.637
457.04	18.322
457.39	18.016
457.74	18.345
458.09	17.353
458.44	19.181
458.79	17.535
459.14	17.934
459.49	18.280
459.84	18.783
460.19	17.657
460.54	18.683
460.89	18.793
461.24	18.046
461.59	18.428
461.94	17.456
462.29	19.205
462.64	17.441
462.99	18.895
463.34	17.910
463.69	18.406
464.04	18.455
464.39	19.114
464.74	18.700
465.09	17.878
465.44	18.830
465.79	18.033
466.14	18.447
466.49	19.211
466.84	18.733
467.19	18.960
467.54	17.568
467.89	18.161
468.24	19.446
468.59	18.124
468.94	18.706
469.29	18.416
469.64	18.945
469.99	18.483
470.34	18.441
470.68	19.481
471.03	19.253
471.38	18.247
471.73	17.945
472.08	19.099
472.43	18.483
472.78	19.773
473.13	18.331
473.48	18.369
473.83	19.327
474.17	19.226
474.52	19.122
474.87	19.435
475.22	18.704
475.57	18.536
475.92	19.064
476.27	20.501
476.61	19.834
476.96	18.717
477.31	20.099
477.66	19.727
478.01	19.217
478.36	18.893
478.70	19.803
479.05	19.530
479.40	18.855
479.75	19.549
480.10	19.706
480.45	20.510
480.79	19.365
481.14	19.669
481.49	20.491
481.84	20.148
482.19	20.129
482.53	20.463
482.88	19.318
483.23	19.653
483.58	19.825
483.92	19.282
484.27	19.941
484.62	19.018
484.97	20.101
485.31	19.430
485.66	18.580
486.01	18.523
486.36	19.562
486.70	21.034
487.05	22.623
487.40	22.127
487.75	21.781
488.09	20.795
488.44	20.746
488.79	20.337
489.13	19.551
489.48	19.340
489.83	20.080
490.17	19.563
490.52	19.622
490.87	20.389
491.22	20.581
491.56	19.625
491.91	20.192
492.26	20.424
492.60	19.851
492.95	19.965
493.30	19.677
493.64	20.762
493.99	19.561
494.34	19.556
494.68	20.685
495.03	20.529
495.37	20.550
495.72	20.454
496.07	20.158
496.41	20.206
496.76	20.517
497.11	20.637
497.45	20.803
497.80	21.102
498.14	20.091
498.49	20.772
498.84	20.612
499.18	19.523
499.53	20.717
499.87	20.527
500.22	19.902
500.56	20.063
500.91	20.732
501.26	21.318
501.60	20.504
501.95	21.277
502.29	20.448
502.64	20.901
502.98	20.362
503.33	20.605
503.67	20.497
504.02	20.709
504.36	20.777
504.71	20.579
505.06	20.782
505.40	20.110
505.75	20.537
506.09	21.041
506.44	20.799
506.78	21.697
507.13	21.070
507.47	20.843
507.82	21.449
508.16	20.985
508.51	20.863
508.85	21.634
509.19	21.554
509.54	21.854
509.88	21.807
510.23	21.030
510.57	21.218
510.92	21.867
511.26	21.164
511.61	21.439
511.95	20.986
512.30	22.354
512.64	20.890
512.98	21.661
513.33	22.026
513.67	21.877
514.02	21.870
514.36	22.302
514.70	21.667
515.05	22.106
515.39	22.415
515.74	22.853
516.08	22.451
516.42	22.030
516.77	22.135
517.11	21.558
517.46	22.322
517.80	22.020
518.14	22.035
518.49	22.831
518.83	22.139
519.17	22.994
519.52	22.746
519.86	21.806
520.20	22.684
520.55	23.275
520.89	23.536
521.23	22.836
521.58	23.107
521.92	22.720
522.26	23.196
522.61	23.322
522.95	23.299
523.29	23.046
523.64	22.646
523.98	23.560
524.32	24.355
524.66	23.563
525.01	23.216
525.35	22.746
525.69	22.738
526.04	23.651
526.38	23.563
526.72	22.549
527.06	23.636
527.41	23.557
527.75	24.287
528.09	23.967
528.43	23.505
528.78	23.121
529.12	23.509
529.46	22.766
529.80	23.398
530.15	24.174
530.49	23.606
530.83	24.380
531.17	24.194
531.51	24.007
531.86	23.678
532.20	24.512
532.54	24.177
532.88	23.333
533.22	23.394
533.57	23.139
533.91	24.747
534.25	23.912
534.59	23.678
534.93	23.713
535.27	25.183
535.62	24.218
535.96	24.753
536.30	23.737
536.64	24.204
536.98	25.031
537.32	24.321
537.66	24.142
538.01	23.505
538.35	23.264
538.69	23.798
539.03	24.709
539.37	23.263
539.71	24.084
540.05	23.981
540.39	22.616
540.73	24.226
541.07	24.709
541.42	23.863
541.76	23.606
542.10	24.306
542.44	23.995
542.78	24.453
543.12	24.434
543.46	24.115
543.80	22.962
544.14	23.878
544.48	24.645
544.82	24.955
545.16	24.747
545.50	24.206
545.84	23.882
546.18	24.506
546.52	24.331
546.86	23.019
547.20	24.364
547.54	23.096
547.88	23.026
548.22	24.035
548.56	23.874
548.90	23.642
549.24	24.985
549.58	24.101
549.92	24.936
550.26	25.049
550.60	23.803
550.94	24.709
551.28	24.620
551.62	24.259
551.96	23.560
552.30	24.156
552.64	23.958
552.98	24.142
553.32	24.373
553.66	23.473
554.00	24.905
554.34	23.874
554.68	24.080
555.02	24.244
555.36	25.641
555.69	23.575
556.03	23.077
556.37	24.093
556.71	24.350
557.05	24.920
557.39	24.088
557.73	24.505
558.07	23.775
558.41	25.316
558.75	24.746
559.08	23.591
559.42	23.800
559.76	24.016
560.10	22.840
560.44	23.813
560.78	24.312
561.12	25.062
561.45	25.304
561.79	24.603
562.13	24.584
562.47	24.353
562.81	24.304
563.15	24.306
563.48	24.549
563.82	24.486
564.16	24.288
564.50	24.613
564.84	23.363
565.17	24.882
565.51	23.303
565.85	23.753
566.19	24.539
566.52	24.225
566.86	24.618
567.20	24.035
567.54	23.739
567.88	24.924
568.21	24.160
568.55	24.700
568.89	24.194
569.23	24.208
569.56	23.486
569.90	23.307
570.24	24.047
570.57	23.028
570.91	23.423
571.25	24.154
571.59	23.434
571.92	23.747
572.26	23.425
572.60	23.560
572.93	23.462
573.27	23.743
573.61	23.240
573.95	23.525
574.28	23.452
574.62	23.420
574.96	22.916
575.29	23.111
575.63	23.539
575.97	23.713
576.30	23.143
576.64	23.169
576.98	22.961
577.31	23.368
577.65	23.648
577.98	23.230
578.32	22.927
578.66	23.370
578.99	23.572
579.33	23.366
579.67	23.345
580.00	23.264
580.34	23.058
580.67	22.551
581.01	23.237
581.35	23.125
581.68	22.946
582.02	22.915
582.35	23.331
582.69	23.606
583.02	23.902
583.36	23.722
583.70	22.972
584.03	23.278
584.37	23.081
584.70	22.592
585.04	22.088
585.37	23.089
585.71	22.826
586.04	22.655
586.38	23.166
586.72	23.038
587.05	22.794
587.39	23.361
587.72	23.565
588.06	23.283
588.39	23.127
588.73	23.333
589.06	23.279
589.40	23.602
589.73	23.329
590.07	22.712
590.40	24.138
590.73	23.471
591.07	24.795
591.40	22.900
591.74	22.695
592.07	23.346
592.41	23.107
592.74	23.110
593.08	23.599
593.41	23.768
593.75	23.075
594.08	23.599
594.41	23.526
594.75	23.447
595.08	23.587
595.42	22.825
595.75	23.442
596.09	23.246
596.42	23.110
596.75	23.543
597.09	23.798
597.42	22.646
597.75	22.775
598.09	23.413
598.42	23.482
598.76	23.156
599.09	22.464
599.42	22.729
599.76	22.912
600.09	23.257
600.42	23.657
600.76	22.754
601.09	23.365
601.42	22.966
601.76	22.621
602.09	23.302
602.42	22.283
602.76	22.731
603.09	22.834
603.42	23.627
603.76	22.586
604.09	23.243
604.42	24.000
604.76	23.174
605.09	23.375
605.42	23.206
605.75	22.346
606.09	23.143
606.42	22.510
606.75	22.226
607.09	22.465
607.42	22.620
607.75	23.173
608.08	23.757
608.42	22.854
608.75	23.342
609.08	22.029
609.41	23.644
609.75	23.080
610.08	23.967
610.41	22.982
610.74	22.899
611.07	23.845
611.41	23.498
611.74	23.649
612.07	23.375
612.40	23.194
612.73	23.227
613.07	22.738
613.40	23.484
613.73	23.736
614.06	23.209
614.39	23.324
614.72	22.707
615.06	22.377
615.39	22.861
615.72	22.986
616.05	22.875
616.38	24.319
616.71	23.093
617.05	22.897
617.38	23.060
617.71	23.812
618.04	22.720
618.37	23.388
618.70	23.190
619.03	22.820
619.36	23.736
619.69	22.742
620.03	23.666
620.36	23.558
620.69	22.085
621.02	23.688
621.35	24.964
621.68	23.933
622.01	23.132
622.34	23.570
622.67	24.467
623.00	23.144
623.33	23.490
623.66	24.189
623.99	23.041
624.32	24.042
624.65	22.909
624.99	23.537
625.32	24.037
625.65	24.815
625.98	22.373
626.31	23.955
626.64	23.956
626.97	23.781
627.30	23.083
627.63	22.506
627.96	24.399
628.29	23.268
628.62	23.678
628.95	24.277
629.28	23.280
629.61	24.495
629.94	23.515
630.26	23.220
630.59	22.539
630.92	22.424
631.25	24.687
631.58	24.576
631.91	24.086
632.24	24.207
632.57	23.435
632.90	24.173
633.23	24.286
