SpectraSuite Data File
++++++++++++++++++++++++++++++++++++
Date: Thu May 14 14:30:12 PDT 2015
User: schluterlab
Dark Spectrum Present: Yes
Reference Spectrum Present: Yes
Number of Sampled Component Spectra: 1
Spectrometers: USB2E3373
Integration Time (usec): 3000 (USB2E3373)
Spectra Averaged: 3 (USB2E3373)
Boxcar Smoothing: 0 (USB2E3373)
Correct for Electrical Dark: No (USB2E3373)
Strobe/Lamp Enabled: No (USB2E3373)
Correct for Detector Non-linearity: No (USB2E3373)
Correct for Stray Light: No (USB2E3373)
Number of Pixels in Processed Spectrum: 2048
>>>>>Begin Processed Spectral Data<<<<<
178.53	0.000
178.91	-328.571
179.29	1100.000
179.67	1200.000
180.04	-7.143
180.42	-80.000
180.80	-140.000
181.18	1000.000
181.56	1700.000
181.94	-300.000
182.31	475.000
182.69	-500.000
183.07	550.000
183.45	-300.000
183.83	300.000
184.20	833.333
184.58	-2300.000
184.96	425.000
185.34	122.222
185.72	420.000
186.09	-44.444
186.47	-600.000
186.85	-140.000
187.23	77.778
187.61	0.000
187.98	-320.000
188.36	-225.000
188.74	175.000
189.12	400.000
189.49	100.000
189.87	75.000
190.25	266.667
190.63	320.000
191.00	111.111
191.38	0.000
191.76	575.000
192.14	166.667
192.51	-700.000
192.89	266.667
193.27	0.000
193.65	228.571
194.02	1000.000
194.40	214.286
194.78	-100.000
195.15	0.000
195.53	109.091
195.91	0.000
196.29	525.000
196.66	115.385
197.04	700.000
197.42	271.429
197.79	900.000
198.17	50.000
198.55	257.143
198.92	211.111
199.30	112.500
199.68	72.727
200.05	121.429
200.43	50.000
200.81	-100.000
201.18	0.000
201.56	-55.556
201.94	0.000
202.31	-433.333
202.69	144.444
203.07	-2100.000
203.44	233.333
203.82	175.000
204.19	158.333
204.57	300.000
204.95	87.500
205.32	1100.000
205.70	-525.000
206.08	333.333
206.45	216.667
206.83	-260.000
207.20	166.667
207.58	400.000
207.96	133.333
208.33	233.333
208.71	-66.667
209.08	400.000
209.46	0.000
209.84	-216.667
210.21	-950.000
210.59	-750.000
210.96	-600.000
211.34	575.000
211.71	187.500
212.09	800.000
212.46	0.000
212.84	-350.000
213.22	100.000
213.59	425.000
213.97	290.000
214.34	900.000
214.72	-183.333
215.09	375.000
215.47	0.000
215.84	-257.143
216.22	-350.000
216.59	220.000
216.97	140.000
217.34	200.000
217.72	200.000
218.09	375.000
218.47	150.000
218.84	0.000
219.22	-340.000
219.59	129.412
219.97	110.000
220.34	-650.000
220.72	44.444
221.09	200.000
221.47	600.000
221.84	200.000
222.22	228.571
222.59	0.000
222.97	300.000
223.34	80.000
223.72	1400.000
224.09	325.000
224.46	225.000
224.84	380.000
225.21	114.286
225.59	275.000
225.96	275.000
226.34	92.308
226.71	50.000
227.08	750.000
227.46	146.667
227.83	275.000
228.21	136.842
228.58	-0.000
228.95	-950.000
229.33	200.000
229.70	170.000
230.08	157.895
230.45	-100.000
230.82	566.667
231.20	107.143
231.57	158.333
231.95	172.727
232.32	236.364
232.69	150.000
233.07	575.000
233.44	88.235
233.81	90.000
234.19	127.778
234.56	122.727
234.93	127.586
235.31	89.474
235.68	155.556
236.05	75.000
236.43	92.308
236.80	124.000
237.17	118.519
237.55	118.182
237.92	220.000
238.29	100.000
238.67	72.727
239.04	102.778
239.41	85.714
239.79	84.783
240.16	66.667
240.53	82.609
240.91	62.745
241.28	52.459
241.65	73.134
242.02	87.838
242.40	63.077
242.77	65.333
243.14	76.829
243.51	75.000
243.89	76.923
244.26	83.168
244.63	76.471
245.00	64.486
245.38	56.140
245.75	44.248
246.12	60.317
246.49	68.992
246.87	57.857
247.24	54.305
247.61	59.211
247.98	65.101
248.36	61.111
248.73	62.577
249.10	58.470
249.47	61.194
249.84	60.733
250.22	56.995
250.59	62.222
250.96	57.273
251.33	56.633
251.70	54.274
252.08	53.333
252.45	55.328
252.82	54.545
253.19	48.828
253.56	56.274
253.94	53.846
254.31	52.273
254.68	62.238
255.05	57.655
255.42	53.741
255.79	51.780
256.16	58.278
256.54	50.993
256.91	58.361
257.28	56.393
257.65	53.185
258.02	52.212
258.39	54.131
258.76	59.021
259.14	54.598
259.51	55.620
259.88	54.958
260.25	52.778
260.62	55.068
260.99	55.191
261.36	53.083
261.73	52.255
262.10	57.967
262.47	55.496
262.85	53.788
263.22	56.883
263.59	52.632
263.96	56.522
264.33	51.662
264.70	55.062
265.07	52.506
265.44	55.556
265.81	50.694
266.18	55.782
266.55	55.804
266.92	52.620
267.29	54.923
267.66	57.650
268.03	53.493
268.40	50.731
268.77	51.481
269.14	52.863
269.51	54.825
269.88	53.484
270.25	51.911
270.62	55.063
270.99	56.364
271.36	51.485
271.73	50.491
272.10	54.910
272.47	53.908
272.84	50.803
273.21	50.301
273.58	53.427
273.95	47.500
274.32	51.331
274.69	49.710
275.06	51.832
275.43	48.983
275.80	49.559
276.17	51.852
276.54	53.545
276.91	50.805
277.28	49.910
277.65	52.065
278.02	51.838
278.39	49.275
278.76	50.088
279.13	52.305
279.50	50.000
279.87	50.089
280.23	47.183
280.60	48.983
280.97	49.342
281.34	49.576
281.71	48.900
282.08	49.502
282.45	48.282
282.82	47.253
283.19	47.496
283.56	47.377
283.92	49.700
284.29	48.499
284.66	49.754
285.03	46.474
285.40	48.223
285.77	46.594
286.14	48.244
286.51	48.097
286.87	47.393
287.24	48.645
287.61	47.833
287.98	48.489
288.35	47.781
288.72	45.266
289.08	46.559
289.45	45.562
289.82	46.536
290.19	43.966
290.56	46.901
290.93	44.650
291.29	45.868
291.66	43.664
292.03	42.198
292.40	43.129
292.77	43.531
293.13	42.355
293.50	41.787
293.87	42.013
294.24	42.000
294.60	43.236
294.97	40.805
295.34	39.437
295.71	39.344
296.08	38.889
296.44	38.848
296.81	39.829
297.18	40.349
297.55	40.330
297.91	37.604
298.28	38.863
298.65	39.477
299.02	37.544
299.38	37.185
299.75	37.850
300.12	36.806
300.48	38.364
300.85	37.570
301.22	36.577
301.59	36.644
301.95	37.740
302.32	37.000
302.69	36.035
303.05	38.194
303.42	36.142
303.79	36.562
304.15	36.172
304.52	36.469
304.89	36.859
305.25	35.404
305.62	35.214
305.99	36.186
306.35	36.996
306.72	37.435
307.09	34.924
307.45	37.060
307.82	35.621
308.19	36.226
308.55	36.741
308.92	35.638
309.29	34.866
309.65	35.770
310.02	35.644
310.38	35.138
310.75	36.117
311.12	35.858
311.48	34.702
311.85	35.233
312.22	36.243
312.58	36.432
312.95	34.417
313.31	35.140
313.68	34.249
314.05	35.592
314.41	36.703
314.78	35.422
315.14	35.481
315.51	36.103
315.87	36.184
316.24	36.621
316.61	36.146
316.97	35.294
317.34	35.097
317.70	35.284
318.07	35.538
318.43	35.799
318.80	35.535
319.16	36.481
319.53	34.704
319.89	35.846
320.26	37.189
320.62	35.638
320.99	37.396
321.35	36.506
321.72	37.488
322.08	36.880
322.45	35.953
322.81	36.191
323.18	36.814
323.54	36.379
323.91	37.900
324.27	35.628
324.64	37.280
325.00	36.318
325.37	38.657
325.73	38.843
326.10	38.118
326.46	38.925
326.83	39.792
327.19	38.189
327.56	38.814
327.92	37.215
328.29	37.984
328.65	38.023
329.01	38.156
329.38	39.764
329.74	39.640
330.11	39.127
330.47	40.607
330.84	40.999
331.20	39.250
331.56	39.688
331.93	38.912
332.29	40.847
332.66	40.282
333.02	39.028
333.38	39.178
333.75	39.226
334.11	40.200
334.48	39.274
334.84	40.782
335.20	38.791
335.57	40.219
335.93	38.843
336.29	38.602
336.66	38.856
337.02	40.301
337.38	40.221
337.75	38.678
338.11	40.370
338.47	38.792
338.84	38.832
339.20	39.259
339.56	39.786
339.93	37.767
340.29	38.245
340.65	39.416
341.02	39.266
341.38	39.046
341.74	38.660
342.11	40.788
342.47	38.364
342.83	39.291
343.20	38.594
343.56	38.893
343.92	39.311
344.28	38.828
344.65	38.837
345.01	38.534
345.37	39.191
345.73	37.412
346.10	38.612
346.46	37.737
346.82	39.101
347.19	38.350
347.55	38.695
347.91	37.147
348.27	38.240
348.63	37.091
349.00	37.509
349.36	36.729
349.72	38.021
350.08	37.890
350.45	38.783
350.81	37.632
351.17	38.872
351.53	37.604
351.89	37.889
352.26	38.134
352.62	37.761
352.98	37.481
353.34	37.416
353.70	38.906
354.07	37.258
354.43	37.737
354.79	37.846
355.15	37.160
355.51	37.719
355.87	37.547
356.24	38.631
356.60	37.472
356.96	37.658
357.32	36.580
357.68	37.994
358.04	38.024
358.40	37.313
358.77	38.012
359.13	37.740
359.49	36.357
359.85	37.781
360.21	36.514
360.57	38.191
360.93	37.306
361.29	37.895
361.66	37.726
362.02	37.091
362.38	36.191
362.74	38.198
363.10	37.827
363.46	38.504
363.82	39.063
364.18	37.931
364.54	38.174
364.90	38.528
365.26	38.138
365.62	38.800
365.98	38.189
366.35	38.255
366.71	38.367
367.07	38.363
367.43	37.820
367.79	38.089
368.15	37.926
368.51	37.348
368.87	38.929
369.23	38.067
369.59	39.344
369.95	37.931
370.31	38.960
370.67	38.652
371.03	38.435
371.39	36.870
371.75	37.964
372.11	38.279
372.47	37.508
372.83	38.024
373.19	38.559
373.55	38.889
373.91	38.037
374.27	37.646
374.63	39.242
374.99	38.528
375.35	37.078
375.71	39.419
376.07	38.025
376.42	38.791
376.78	39.590
377.14	38.553
377.50	40.038
377.86	38.362
378.22	39.820
378.58	38.169
378.94	38.791
379.30	40.246
379.66	39.859
380.02	39.527
380.38	40.207
380.74	39.549
381.09	39.547
381.45	39.318
381.81	41.393
382.17	40.321
382.53	40.117
382.89	40.237
383.25	39.508
383.61	39.583
383.97	40.224
384.32	40.132
384.68	39.501
385.04	41.006
385.40	41.367
385.76	41.911
386.12	40.754
386.48	41.118
386.83	41.657
387.19	40.556
387.55	41.256
387.91	40.639
388.27	41.051
388.62	40.321
388.98	40.214
389.34	42.251
389.70	41.604
390.06	40.912
390.42	40.783
390.77	41.120
391.13	40.552
391.49	42.150
391.85	41.333
392.20	41.400
392.56	42.587
392.92	41.058
393.28	41.183
393.64	41.397
393.99	41.720
394.35	41.764
394.71	41.796
395.07	41.737
395.42	41.805
395.78	41.865
396.14	42.246
396.50	42.696
396.85	41.562
397.21	42.367
397.57	42.167
397.92	42.383
398.28	41.499
398.64	42.048
399.00	41.414
399.35	41.152
399.71	41.522
400.07	41.606
400.42	42.433
400.78	41.898
401.14	41.833
401.49	42.695
401.85	42.791
402.21	42.584
402.57	43.016
402.92	41.726
403.28	40.574
403.63	40.871
403.99	41.449
404.35	41.217
404.70	42.720
405.06	41.467
405.42	43.443
405.77	42.530
406.13	41.437
406.49	41.948
406.84	42.382
407.20	42.817
407.55	42.217
407.91	41.609
408.27	41.755
408.62	41.885
408.98	42.252
409.34	42.053
409.69	43.201
410.05	42.556
410.40	41.821
410.76	41.784
411.11	42.314
411.47	43.182
411.83	42.446
412.18	43.253
412.54	41.672
412.89	41.560
413.25	41.874
413.60	42.275
413.96	41.958
414.31	41.416
414.67	40.727
415.03	42.462
415.38	42.434
415.74	41.112
416.09	42.011
416.45	40.513
416.80	41.554
417.16	41.315
417.51	41.283
417.87	42.551
418.22	42.515
418.58	43.247
418.93	42.317
419.29	42.540
419.64	42.437
420.00	41.780
420.35	43.571
420.71	42.447
421.06	40.656
421.42	42.833
421.77	41.357
422.12	42.125
422.48	41.987
422.83	42.881
423.19	41.485
423.54	43.252
423.90	41.911
424.25	43.093
424.61	42.595
424.96	42.504
425.31	42.834
425.67	41.331
426.02	42.557
426.38	42.537
426.73	40.569
427.09	43.080
427.44	42.054
427.79	41.736
428.15	42.009
428.50	42.697
428.85	41.389
429.21	42.660
429.56	42.399
429.92	42.260
430.27	41.880
430.62	42.745
430.98	41.810
431.33	42.180
431.68	40.948
432.04	41.747
432.39	41.993
432.74	42.409
433.10	42.726
433.45	41.750
433.80	43.616
434.16	42.562
434.51	43.114
434.86	41.748
435.22	43.464
435.57	43.809
435.92	42.293
436.28	42.719
436.63	43.747
436.98	43.049
437.34	43.123
437.69	42.928
438.04	42.570
438.39	42.102
438.75	42.446
439.10	42.970
439.45	42.650
439.81	42.599
440.16	41.823
440.51	42.475
440.86	41.968
441.22	42.551
441.57	42.558
441.92	43.841
442.27	43.485
442.63	42.772
442.98	43.597
443.33	42.399
443.68	43.558
444.03	43.932
444.39	43.782
444.74	42.777
445.09	42.372
445.44	43.309
445.79	43.343
446.15	42.138
446.50	42.377
446.85	42.899
447.20	43.714
447.55	43.462
447.91	42.723
448.26	42.178
448.61	43.092
448.96	43.562
449.31	42.312
449.66	42.538
450.02	42.774
450.37	42.781
450.72	42.680
451.07	42.825
451.42	43.501
451.77	42.079
452.12	43.905
452.47	42.424
452.83	43.806
453.18	42.090
453.53	42.217
453.88	42.904
454.23	43.107
454.58	43.122
454.93	42.900
455.28	43.227
455.63	42.695
455.98	43.911
456.34	41.991
456.69	42.034
457.04	43.322
457.39	43.570
457.74	44.016
458.09	43.657
458.44	43.588
458.79	41.929
459.14	42.528
459.49	43.690
459.84	42.917
460.19	42.421
460.54	43.384
460.89	42.298
461.24	43.161
461.59	42.999
461.94	41.700
462.29	43.113
462.64	42.245
462.99	42.185
463.34	44.192
463.69	42.673
464.04	42.857
464.39	42.825
464.74	42.702
465.09	42.561
465.44	42.436
465.79	42.623
466.14	42.887
466.49	42.737
466.84	42.755
467.19	42.197
467.54	41.833
467.89	42.069
468.24	42.216
468.59	41.459
468.94	41.958
469.29	40.432
469.64	42.657
469.99	41.428
470.34	41.708
470.68	41.148
471.03	43.615
471.38	42.184
471.73	42.198
472.08	42.005
472.43	42.866
472.78	42.947
473.13	43.236
473.48	42.054
473.83	42.368
474.17	41.208
474.52	42.453
474.87	41.639
475.22	42.197
475.57	41.745
475.92	40.966
476.27	42.545
476.61	42.627
476.96	41.867
477.31	42.030
477.66	42.707
478.01	41.281
478.36	40.678
478.70	42.463
479.05	41.922
479.40	41.510
479.75	42.939
480.10	42.444
480.45	41.705
480.79	42.948
481.14	41.820
481.49	42.481
481.84	42.037
482.19	42.065
482.53	43.419
482.88	42.534
483.23	42.463
483.58	42.271
483.92	41.933
484.27	41.363
484.62	41.130
484.97	41.757
485.31	41.359
485.66	41.939
486.01	42.013
486.36	41.895
486.70	41.940
487.05	41.343
487.40	41.026
487.75	41.349
488.09	40.659
488.44	40.413
488.79	41.046
489.13	41.166
489.48	41.631
489.83	40.885
490.17	40.097
490.52	39.860
490.87	41.159
491.22	41.205
491.56	40.486
491.91	41.605
492.26	41.800
492.60	40.665
492.95	41.158
493.30	41.327
493.64	41.787
493.99	40.658
494.34	40.723
494.68	40.814
495.03	41.762
495.37	40.124
495.72	40.227
496.07	40.798
496.41	39.640
496.76	41.076
497.11	40.510
497.45	40.354
497.80	40.782
498.14	41.179
498.49	41.039
498.84	40.996
499.18	40.666
499.53	41.390
499.87	41.407
500.22	40.695
500.56	40.936
500.91	41.327
501.26	41.318
501.60	40.963
501.95	41.337
502.29	40.763
502.64	41.539
502.98	40.293
503.33	40.086
503.67	41.954
504.02	40.762
504.36	40.661
504.71	40.239
505.06	40.655
505.40	40.265
505.75	40.710
506.09	40.193
506.44	41.411
506.78	42.294
507.13	40.802
507.47	41.023
507.82	40.199
508.16	39.771
508.51	39.944
508.85	40.907
509.19	40.407
509.54	41.354
509.88	39.971
510.23	41.379
510.57	41.228
510.92	41.074
511.26	40.500
511.61	40.174
511.95	40.508
512.30	40.423
512.64	39.580
512.98	40.320
513.33	41.079
513.67	40.898
514.02	40.572
514.36	40.665
514.70	40.938
515.05	40.250
515.39	39.265
515.74	40.721
516.08	40.676
516.42	40.764
516.77	41.430
517.11	40.794
517.46	41.410
517.80	41.101
518.14	40.642
518.49	40.239
518.83	38.638
519.17	41.249
519.52	39.990
519.86	41.183
520.20	40.469
520.55	40.854
520.89	39.977
521.23	39.922
521.58	41.356
521.92	40.170
522.26	39.175
522.61	41.435
522.95	40.715
523.29	40.000
523.64	40.078
523.98	41.015
524.32	41.605
524.66	40.694
525.01	38.845
525.35	40.609
525.69	39.559
526.04	40.069
526.38	40.460
526.72	39.331
527.06	40.469
527.41	40.758
527.75	40.736
528.09	39.787
528.43	39.550
528.78	39.538
529.12	41.112
529.46	40.528
529.80	40.389
530.15	39.536
530.49	40.273
530.83	39.256
531.17	40.024
531.51	39.771
531.86	40.385
532.20	40.671
532.54	39.198
532.88	40.545
533.22	38.539
533.57	40.912
533.91	39.675
534.25	40.136
534.59	41.207
534.93	38.993
535.27	40.620
535.62	41.558
535.96	39.977
536.30	39.189
536.64	39.219
536.98	39.852
537.32	40.370
537.66	40.112
538.01	40.483
538.35	40.317
538.69	39.363
539.03	41.386
539.37	38.634
539.71	39.580
540.05	40.767
540.39	39.792
540.73	39.769
541.07	39.669
541.42	39.929
541.76	39.976
542.10	39.023
542.44	38.794
542.78	39.294
543.12	39.631
543.46	39.377
543.80	39.448
544.14	39.378
544.48	38.771
544.82	40.754
545.16	40.191
545.50	39.365
545.84	39.437
546.18	40.370
546.52	40.000
546.86	39.811
547.20	39.313
547.54	39.326
547.88	38.999
548.22	39.240
548.56	39.380
548.90	40.000
549.24	39.392
549.58	39.621
549.92	39.286
550.26	40.194
550.60	39.566
550.94	40.168
551.28	39.076
551.62	38.881
551.96	38.770
552.30	40.217
552.64	38.955
552.98	39.239
553.32	39.871
553.66	39.293
554.00	38.966
554.34	40.283
554.68	38.541
555.02	40.276
555.36	39.908
555.69	38.309
556.03	39.975
556.37	40.175
556.71	38.618
557.05	38.403
557.39	39.482
557.73	39.960
558.07	40.199
558.41	39.734
558.75	39.351
559.08	40.362
559.42	39.643
559.76	39.484
560.10	39.585
560.44	39.446
560.78	39.438
561.12	39.101
561.45	40.268
561.79	39.560
562.13	39.248
562.47	38.533
562.81	39.810
563.15	39.710
563.48	40.273
563.82	39.601
564.16	38.340
564.50	39.094
564.84	38.761
565.17	39.118
565.51	38.032
565.85	39.489
566.19	38.882
566.52	39.497
566.86	38.936
567.20	38.499
567.54	39.511
567.88	40.214
568.21	39.279
568.55	39.856
568.89	40.082
569.23	40.431
569.56	40.055
569.90	40.413
570.24	39.562
570.57	39.160
570.91	39.590
571.25	39.485
571.59	40.273
571.92	39.232
572.26	39.518
572.60	38.766
572.93	39.466
573.27	39.786
573.61	39.068
573.95	39.378
574.28	39.383
574.62	39.563
574.96	38.355
575.29	38.555
575.63	39.339
575.97	39.018
576.30	38.564
576.64	38.821
576.98	39.157
577.31	39.619
577.65	39.517
577.98	39.025
578.32	39.272
578.66	38.937
578.99	38.665
579.33	39.440
579.67	38.645
580.00	38.773
580.34	38.896
580.67	38.725
581.01	38.836
581.35	39.236
581.68	39.805
582.02	39.544
582.35	39.855
582.69	39.121
583.02	39.152
583.36	39.063
583.70	39.059
584.03	38.373
584.37	38.583
584.70	38.264
585.04	38.875
585.37	38.820
585.71	38.641
586.04	39.256
586.38	39.369
586.72	38.230
587.05	38.808
587.39	39.192
587.72	39.426
588.06	39.338
588.39	38.686
588.73	38.624
589.06	39.024
589.40	39.336
589.73	38.753
590.07	39.125
590.40	39.892
590.73	38.883
591.07	39.092
591.40	39.114
591.74	38.911
592.07	39.261
592.41	39.077
592.74	38.907
593.08	39.936
593.41	40.391
593.75	38.994
594.08	39.715
594.41	39.936
594.75	39.057
595.08	39.603
595.42	39.156
595.75	38.424
596.09	39.072
596.42	38.839
596.75	39.213
597.09	39.879
597.42	39.253
597.75	38.808
598.09	38.571
598.42	39.445
598.76	39.091
599.09	39.195
599.42	38.585
599.76	38.032
600.09	38.739
600.42	38.972
600.76	39.432
601.09	37.803
601.42	38.654
601.76	38.207
602.09	37.956
602.42	38.422
602.76	38.339
603.09	39.060
603.42	39.957
603.76	39.042
604.09	39.461
604.42	39.119
604.76	38.699
605.09	38.931
605.42	38.836
605.75	38.385
606.09	38.932
606.42	38.636
606.75	38.418
607.09	37.980
607.42	38.459
607.75	39.273
608.08	38.516
608.42	38.452
608.75	39.179
609.08	38.370
609.41	38.818
609.75	38.438
610.08	40.281
610.41	38.997
610.74	38.739
611.07	39.476
611.41	39.327
611.74	39.307
612.07	38.850
612.40	38.878
612.73	39.315
613.07	38.093
613.40	39.124
613.73	38.806
614.06	39.647
614.39	39.018
614.72	38.234
615.06	38.547
615.39	38.424
615.72	39.526
616.05	39.097
616.38	38.850
616.71	38.297
617.05	39.031
617.38	38.416
617.71	38.499
618.04	38.694
618.37	39.344
618.70	38.801
619.03	37.754
619.36	38.533
619.69	39.334
620.03	38.230
620.36	38.466
620.69	39.420
621.02	39.501
621.35	40.421
621.68	39.552
622.01	38.292
622.34	38.075
622.67	38.557
623.00	38.192
623.33	39.018
623.66	38.262
623.99	37.656
624.32	39.116
624.65	38.803
624.99	39.857
625.32	39.713
625.65	37.964
625.98	38.441
626.31	38.979
626.64	39.121
626.97	39.460
627.30	38.573
627.63	39.010
627.96	39.715
628.29	39.377
628.62	38.455
628.95	38.563
629.28	38.743
629.61	39.310
629.94	37.908
630.26	38.390
630.59	38.428
630.92	38.961
631.25	39.803
631.58	39.642
631.91	39.363
632.24	38.329
632.57	38.615
632.90	39.819
