SpectraSuite Data File
++++++++++++++++++++++++++++++++++++
Date: Thu May 14 15:02:26 PDT 2015
User: schluterlab
Dark Spectrum Present: Yes
Reference Spectrum Present: Yes
Number of Sampled Component Spectra: 1
Spectrometers: USB2E3373
Integration Time (usec): 3000 (USB2E3373)
Spectra Averaged: 3 (USB2E3373)
Boxcar Smoothing: 0 (USB2E3373)
Correct for Electrical Dark: No (USB2E3373)
Strobe/Lamp Enabled: No (USB2E3373)
Correct for Detector Non-linearity: No (USB2E3373)
Correct for Stray Light: No (USB2E3373)
Number of Pixels in Processed Spectrum: 2048
>>>>>Begin Processed Spectral Data<<<<<
178.53	0.000
178.91	314.286
179.29	-3100.000
179.67	-2600.000
180.04	278.571
180.42	210.000
180.80	680.000
181.18	-2400.000
181.56	-2200.000
181.94	750.000
182.31	-525.000
182.69	1000.000
183.07	-1150.000
183.45	625.000
183.83	-416.667
184.20	-866.667
184.58	2000.000
184.96	-500.000
185.34	-266.667
185.72	-420.000
186.09	422.222
186.47	1350.000
186.85	620.000
187.23	-311.111
187.61	-3000.000
187.98	520.000
188.36	850.000
188.74	-675.000
189.12	-833.333
189.49	-75.000
189.87	-287.500
190.25	-222.222
190.63	-500.000
191.00	-288.889
191.38	0.000
191.76	-550.000
192.14	-333.333
192.51	1100.000
192.89	-266.667
193.27	0.000
193.65	-257.143
194.02	-3300.000
194.40	-128.571
194.78	342.857
195.15	0.000
195.53	-172.727
195.91	0.000
196.29	-675.000
196.66	-146.154
197.04	-3200.000
197.42	-342.857
197.79	-1050.000
198.17	-175.000
198.55	-371.429
198.92	-255.556
199.30	-362.500
199.68	-190.909
200.05	-100.000
200.43	-1400.000
200.81	485.714
201.18	0.000
201.56	388.889
201.94	0.000
202.31	1000.000
202.69	-244.444
203.07	2200.000
203.44	-188.889
203.82	-700.000
204.19	-183.333
204.57	-400.000
204.95	-237.500
205.32	-2800.000
205.70	550.000
206.08	-433.333
206.45	-316.667
206.83	460.000
207.20	-283.333
207.58	-640.000
207.96	-450.000
208.33	-333.333
208.71	300.000
209.08	-233.333
209.46	0.000
209.84	450.000
210.21	1050.000
210.59	1250.000
210.96	1066.667
211.34	-550.000
211.71	-350.000
212.09	-2100.000
212.46	0.000
212.84	1750.000
213.22	-620.000
213.59	-725.000
213.97	-180.000
214.34	-733.333
214.72	516.667
215.09	-600.000
215.47	0.000
215.84	385.714
216.22	1650.000
216.59	-460.000
216.97	-480.000
217.34	-550.000
217.72	-175.000
218.09	-675.000
218.47	-700.000
218.84	0.000
219.22	600.000
219.59	-129.412
219.97	-40.000
220.34	1550.000
220.72	-377.778
221.09	-138.462
221.47	-800.000
221.84	-270.000
222.22	-471.429
222.59	0.000
222.97	-287.500
223.34	-720.000
223.72	-2200.000
224.09	-775.000
224.46	-775.000
224.84	-360.000
225.21	-385.714
225.59	-600.000
225.96	-450.000
226.34	-73.077
226.71	433.333
227.08	-1150.000
227.46	-100.000
227.83	-575.000
228.21	-68.421
228.58	400.000
228.95	1650.000
229.33	-108.333
229.70	-170.000
230.08	-68.421
230.45	210.000
230.82	-600.000
231.20	-114.286
231.57	-116.667
231.95	-245.455
232.32	-200.000
232.69	-85.000
233.07	-525.000
233.44	-100.000
233.81	-260.000
234.19	-88.889
234.56	-113.636
234.93	-27.586
235.31	-63.158
235.68	-77.778
236.05	-80.000
236.43	-3.846
236.80	-4.000
237.17	-55.556
237.55	-39.394
237.92	-290.000
238.29	-74.194
238.67	-61.364
239.04	-47.222
239.41	-54.762
239.79	-17.391
240.16	-14.815
240.53	-34.783
240.91	-29.412
241.28	-8.197
241.65	-16.418
242.02	-6.757
242.40	-21.538
242.77	-16.000
243.14	-9.756
243.51	-23.684
243.89	-25.641
244.26	3.960
244.63	2.941
245.00	9.346
245.38	-0.877
245.75	-12.389
246.12	3.968
246.49	0.000
246.87	3.571
247.24	7.285
247.61	-0.658
247.98	4.698
248.36	4.938
248.73	-1.227
249.10	2.732
249.47	9.950
249.84	6.806
250.22	2.591
250.59	5.556
250.96	15.455
251.33	3.061
251.70	8.547
252.08	14.167
252.45	10.246
252.82	11.983
253.19	9.375
253.56	12.548
253.94	9.231
254.31	9.091
254.68	13.287
255.05	14.007
255.42	8.844
255.79	7.767
256.16	11.589
256.54	8.940
256.91	10.820
257.28	9.508
257.65	8.599
258.02	11.209
258.39	10.256
258.76	15.902
259.14	11.782
259.51	11.239
259.88	12.748
260.25	15.556
260.62	13.151
260.99	16.393
261.36	16.890
261.73	11.406
262.10	13.462
262.47	10.724
262.85	13.636
263.22	10.390
263.59	9.737
263.96	10.486
264.33	12.788
264.70	13.086
265.07	15.990
265.44	15.420
265.81	11.806
266.18	14.286
266.55	15.179
266.92	11.390
267.29	15.974
267.66	15.299
268.03	13.755
268.40	15.031
268.77	13.440
269.14	12.775
269.51	15.351
269.88	14.754
270.25	15.895
270.62	15.823
270.99	15.354
271.36	14.059
271.73	15.521
272.10	15.832
272.47	13.627
272.84	14.659
273.21	14.028
273.58	11.895
273.95	12.500
274.32	15.019
274.69	11.025
275.06	15.385
275.43	13.494
275.80	14.462
276.17	13.519
276.54	14.179
276.91	16.100
277.28	12.297
277.65	15.440
278.02	15.257
278.39	13.225
278.76	13.357
279.13	13.121
279.50	14.433
279.87	15.742
280.23	11.972
280.60	15.254
280.97	15.789
281.34	13.073
281.71	14.890
282.08	13.953
282.45	12.930
282.82	12.088
283.19	11.955
283.56	13.770
283.92	14.715
284.29	16.114
284.66	13.465
285.03	12.660
285.40	12.210
285.77	11.920
286.14	16.031
286.51	12.785
286.87	12.796
287.24	14.307
287.61	12.706
287.98	12.689
288.35	14.201
288.72	14.793
289.08	14.495
289.45	12.278
289.82	13.855
290.19	11.494
290.56	13.380
290.93	13.409
291.29	12.259
291.66	14.050
292.03	13.704
292.40	14.150
292.77	13.073
293.13	12.585
293.50	11.827
293.87	13.960
294.24	15.867
294.60	13.527
294.97	12.886
295.34	16.261
295.71	13.115
296.08	12.920
296.44	12.745
296.81	13.155
297.18	12.578
297.55	11.675
297.91	11.862
298.28	11.848
298.65	12.366
299.02	12.279
299.38	12.700
299.75	11.565
300.12	10.764
300.48	11.866
300.85	13.273
301.22	12.416
301.59	13.242
301.95	11.638
302.32	13.667
302.69	12.815
303.05	13.058
303.42	12.417
303.79	13.854
304.15	13.039
304.52	12.156
304.89	11.728
305.25	13.458
305.62	12.121
305.99	13.505
306.35	11.895
306.72	14.788
307.09	13.807
307.45	12.836
307.82	12.109
308.19	12.210
308.55	13.693
308.92	12.950
309.29	13.027
309.65	12.963
310.02	13.465
310.38	12.303
310.75	13.010
311.12	14.190
311.48	12.219
311.85	13.960
312.22	12.903
312.58	13.146
312.95	11.950
313.31	14.363
313.68	13.645
314.05	15.086
314.41	14.026
314.78	13.715
315.14	13.612
315.51	13.481
315.87	14.221
316.24	14.155
316.61	13.854
316.97	13.394
317.34	13.933
317.70	14.585
318.07	13.316
318.43	14.456
318.80	16.304
319.16	14.249
319.53	13.196
319.89	13.672
320.26	14.146
320.62	13.121
320.99	14.681
321.35	13.309
321.72	14.977
322.08	13.977
322.45	17.164
322.81	15.253
323.18	14.956
323.54	14.138
323.91	15.391
324.27	15.318
324.64	16.541
325.00	14.760
325.37	15.561
325.73	15.702
326.10	15.085
326.46	16.531
326.83	16.493
327.19	16.535
327.56	17.628
327.92	16.994
328.29	14.435
328.65	15.243
329.01	16.836
329.38	16.849
329.74	16.866
330.11	17.551
330.47	15.838
330.84	17.743
331.20	16.583
331.56	16.898
331.93	17.155
332.29	17.119
332.66	16.694
333.02	17.169
333.38	16.779
333.75	18.687
334.11	16.931
334.48	16.502
334.84	17.842
335.20	17.128
335.57	17.538
335.93	18.678
336.29	16.306
336.66	17.073
337.02	16.639
337.38	18.537
337.75	17.273
338.11	18.419
338.47	17.452
338.84	17.597
339.20	16.681
339.56	17.298
339.93	17.652
340.29	18.277
340.65	18.167
341.02	18.516
341.38	18.189
341.74	17.433
342.11	18.101
342.47	16.998
342.83	18.519
343.20	18.070
343.56	18.444
343.92	18.014
344.28	18.359
344.65	18.140
345.01	17.551
345.37	18.974
345.73	16.913
346.10	18.487
346.46	18.908
346.82	19.176
347.19	17.876
347.55	18.589
347.91	18.053
348.27	17.982
348.63	18.660
349.00	18.195
349.36	18.959
349.72	18.155
350.08	17.979
350.45	17.719
350.81	18.326
351.17	19.173
351.53	18.120
351.89	19.438
352.26	19.179
352.62	18.657
352.98	19.084
353.34	18.521
353.70	18.105
354.07	19.300
354.43	18.907
354.79	19.297
355.15	19.500
355.51	19.006
355.87	18.100
356.24	19.468
356.60	18.256
356.96	19.496
357.32	17.844
357.68	19.180
358.04	19.686
358.40	19.627
358.77	19.664
359.13	18.464
359.49	18.141
359.85	18.999
360.21	20.373
360.57	19.670
360.93	19.746
361.29	18.667
361.66	19.261
362.02	20.390
362.38	19.115
362.74	19.553
363.10	20.426
363.46	19.806
363.82	19.460
364.18	20.408
364.54	20.470
364.90	19.866
365.26	19.586
365.62	19.867
365.98	19.946
366.35	20.134
366.71	20.680
367.07	19.959
367.43	20.355
367.79	21.632
368.15	20.803
368.51	21.786
368.87	21.293
369.23	21.267
369.59	20.628
369.95	22.245
370.31	22.012
370.67	21.045
371.03	22.230
371.39	21.424
371.75	22.627
372.11	22.561
372.47	21.733
372.83	22.120
373.19	21.681
373.55	21.341
373.91	21.472
374.27	20.957
374.63	21.177
374.99	22.215
375.35	22.078
375.71	22.194
376.07	21.691
376.42	22.040
376.78	23.058
377.14	22.396
377.50	23.340
377.86	23.337
378.22	21.796
378.58	22.949
378.94	22.124
379.30	22.964
379.66	22.575
380.02	23.197
380.38	24.194
380.74	22.761
381.09	23.635
381.45	23.125
381.81	24.473
382.17	23.337
382.53	23.567
382.89	23.646
383.25	24.385
383.61	23.669
383.97	23.910
384.32	24.163
384.68	22.796
385.04	24.465
385.40	24.985
385.76	24.267
386.12	24.057
386.48	25.176
386.83	25.268
387.19	24.276
387.55	23.768
387.91	24.658
388.27	24.596
388.62	24.628
388.98	24.704
389.34	25.575
389.70	25.567
390.06	24.216
390.42	24.759
390.77	25.587
391.13	25.528
391.49	24.940
391.85	24.424
392.20	25.208
392.56	25.162
392.92	24.591
393.28	25.594
393.64	25.307
393.99	25.567
394.35	25.935
394.71	25.389
395.07	24.790
395.42	25.071
395.78	25.838
396.14	26.084
396.50	25.000
396.85	24.508
397.21	25.030
397.57	24.028
397.92	24.742
398.28	25.367
398.64	24.428
399.00	24.398
399.35	25.288
399.71	24.728
400.07	24.368
400.42	25.146
400.78	24.942
401.14	24.758
401.49	24.559
401.85	24.535
402.21	25.608
402.57	24.941
402.92	25.059
403.28	23.536
403.63	23.449
403.99	24.228
404.35	24.616
404.70	24.079
405.06	24.402
405.42	25.000
405.77	25.082
406.13	24.635
406.49	23.536
406.84	23.934
407.20	24.930
407.55	24.470
407.91	22.816
408.27	23.263
408.62	23.909
408.98	23.215
409.34	23.402
409.69	23.239
410.05	23.974
410.40	24.362
410.76	23.892
411.11	23.904
411.47	24.140
411.83	23.927
412.18	24.096
412.54	24.481
412.89	23.399
413.25	23.589
413.60	23.550
413.96	24.009
414.31	22.776
414.67	23.852
415.03	22.892
415.38	23.897
415.74	23.641
416.09	23.751
416.45	22.730
416.80	23.807
417.16	23.627
417.51	24.097
417.87	23.237
418.22	24.491
418.58	23.172
418.93	24.622
419.29	24.414
419.64	22.989
420.00	23.086
420.35	24.818
420.71	23.894
421.06	23.864
421.42	24.427
421.77	23.048
422.12	23.573
422.48	23.912
422.83	24.863
423.19	24.032
423.54	24.336
423.90	23.578
424.25	24.800
424.61	23.479
424.96	25.151
425.31	24.257
425.67	24.799
426.02	25.180
426.38	24.569
426.73	25.335
427.09	25.894
427.44	24.031
427.79	24.489
428.15	25.000
428.50	24.719
428.85	24.512
429.21	25.638
429.56	24.877
429.92	24.865
430.27	25.590
430.62	25.843
430.98	25.627
431.33	26.002
431.68	25.910
432.04	26.206
432.39	26.834
432.74	25.400
433.10	26.176
433.45	26.087
433.80	25.805
434.16	25.568
434.51	25.488
434.86	26.710
435.22	26.674
435.57	27.476
435.92	27.156
436.28	26.621
436.63	26.597
436.98	26.141
437.34	27.001
437.69	26.142
438.04	26.335
438.39	26.364
438.75	26.508
439.10	27.537
439.45	26.383
439.81	26.667
440.16	26.595
440.51	26.589
440.86	26.904
441.22	26.581
441.57	26.572
441.92	26.770
442.27	28.030
442.63	26.677
442.98	26.734
443.33	26.670
443.68	27.552
444.03	28.034
444.39	27.601
444.74	27.463
445.09	26.964
445.44	27.608
445.79	27.490
446.15	27.698
446.50	27.494
446.85	26.994
447.20	27.708
447.55	28.086
447.91	27.592
448.26	27.061
448.61	27.205
448.96	28.380
449.31	27.466
449.66	27.124
450.02	27.479
450.37	28.183
450.72	27.503
451.07	28.360
451.42	27.499
451.77	27.182
452.12	28.160
452.47	27.332
452.83	28.941
453.18	27.379
453.53	27.111
453.88	27.223
454.23	27.797
454.58	29.251
454.93	26.699
455.28	27.815
455.63	27.004
455.98	27.318
456.34	27.974
456.69	27.690
457.04	27.482
457.39	27.494
457.74	27.573
458.09	26.634
458.44	27.371
458.79	27.901
459.14	27.530
459.49	27.448
459.84	27.440
460.19	27.152
460.54	28.166
460.89	28.639
461.24	26.897
461.59	27.726
461.94	26.925
462.29	27.772
462.64	27.882
462.99	27.935
463.34	27.904
463.69	27.550
464.04	27.849
464.39	27.915
464.74	27.765
465.09	26.298
465.44	27.682
465.79	28.133
466.14	27.514
466.49	27.158
466.84	28.099
467.19	28.555
467.54	27.556
467.89	28.103
468.24	28.199
468.59	27.736
468.94	27.389
469.29	28.134
469.64	27.908
469.99	27.661
470.34	27.599
470.68	28.435
471.03	28.684
471.38	27.207
471.73	27.503
472.08	28.744
472.43	28.055
472.78	29.156
473.13	28.003
473.48	28.399
473.83	28.381
474.17	27.667
474.52	28.382
474.87	28.239
475.22	28.000
475.57	28.764
475.92	28.422
476.27	28.541
476.61	27.778
476.96	28.259
477.31	28.069
477.66	28.856
478.01	28.266
478.36	28.564
478.70	28.571
479.05	29.294
479.40	28.233
479.75	28.098
480.10	28.802
480.45	27.985
480.79	28.481
481.14	28.447
481.49	28.442
481.84	29.112
482.19	28.086
482.53	28.859
482.88	28.445
483.23	28.724
483.58	28.952
483.92	27.970
484.27	28.112
484.62	27.929
484.97	28.033
485.31	27.033
485.66	26.060
486.01	26.020
486.36	26.894
486.70	28.581
487.05	29.477
487.40	29.046
487.75	29.415
488.09	28.459
488.44	27.713
488.79	27.791
489.13	27.770
489.48	26.951
489.83	28.089
490.17	27.420
490.52	27.463
490.87	27.707
491.22	27.556
491.56	28.072
491.91	29.045
492.26	28.213
492.60	28.290
492.95	28.653
493.30	28.507
493.64	28.428
493.99	28.202
494.34	27.526
494.68	27.880
495.03	27.930
495.37	27.253
495.72	28.209
496.07	28.177
496.41	27.499
496.76	28.607
497.11	28.620
497.45	28.269
497.80	28.965
498.14	28.163
498.49	28.355
498.84	28.656
499.18	27.800
499.53	28.296
499.87	28.132
500.22	27.872
500.56	29.195
500.91	28.238
501.26	28.864
501.60	27.397
501.95	27.660
502.29	28.170
502.64	29.209
502.98	28.732
503.33	28.251
503.67	28.783
504.02	29.159
504.36	29.178
504.71	29.169
505.06	28.877
505.40	29.113
505.75	29.463
506.09	29.144
506.44	29.619
506.78	29.633
507.13	29.737
507.47	29.228
507.82	29.593
508.16	29.541
508.51	29.770
508.85	30.137
509.19	29.749
509.54	30.115
509.88	29.820
510.23	29.917
510.57	30.304
510.92	29.995
511.26	29.966
511.61	29.358
511.95	30.259
512.30	30.773
512.64	30.635
512.98	30.065
513.33	30.998
513.67	30.495
514.02	31.068
514.36	31.509
514.70	31.198
515.05	31.491
515.39	30.919
515.74	31.866
516.08	31.009
516.42	31.816
516.77	32.229
517.11	30.015
517.46	31.972
517.80	31.801
518.14	33.025
518.49	31.996
518.83	30.708
519.17	30.425
519.52	31.971
519.86	31.890
520.20	32.854
520.55	31.928
520.89	33.277
521.23	32.607
521.58	32.316
521.92	32.465
522.26	32.474
522.61	32.523
522.95	32.757
523.29	32.759
523.64	31.670
523.98	32.915
524.32	33.524
524.66	33.238
525.01	31.653
525.35	31.821
525.69	32.657
526.04	31.286
526.38	32.874
526.72	32.007
527.06	33.196
527.41	32.828
527.75	33.195
528.09	32.999
528.43	32.682
528.78	31.618
529.12	31.995
529.46	32.546
529.80	33.181
530.15	32.348
530.49	32.859
530.83	33.058
531.17	32.139
531.51	32.671
531.86	32.452
532.20	33.598
532.54	32.795
532.88	31.879
533.22	30.937
533.57	32.891
533.91	33.053
534.25	33.070
534.59	32.701
534.93	31.862
535.27	31.549
535.62	33.201
535.96	32.481
536.30	32.315
536.64	33.093
536.98	33.825
537.32	33.025
537.66	33.001
538.01	31.541
538.35	31.912
538.69	32.933
539.03	32.925
539.37	32.214
539.71	32.973
540.05	32.614
540.39	33.252
540.73	32.848
541.07	32.557
541.42	31.305
541.76	32.681
542.10	32.569
542.44	31.851
542.78	33.090
543.12	32.598
543.46	33.272
543.80	32.734
544.14	32.376
544.48	32.565
544.82	32.675
545.16	32.200
545.50	32.534
545.84	33.252
546.18	32.778
546.52	32.803
546.86	32.704
547.20	32.379
547.54	32.522
547.88	32.972
548.22	30.994
548.56	32.534
548.90	33.254
549.24	33.313
549.58	33.186
549.92	32.015
550.26	33.657
550.60	32.355
550.94	32.212
551.28	32.409
551.62	33.086
551.96	32.104
552.30	33.397
552.64	32.670
552.98	32.626
553.32	33.248
553.66	33.826
554.00	32.913
554.34	32.239
554.68	31.569
555.02	33.377
555.36	32.544
555.69	31.775
556.03	32.219
556.37	33.479
556.71	32.467
557.05	33.163
557.39	33.112
557.73	33.355
558.07	32.848
558.41	32.757
558.75	33.739
559.08	33.820
559.42	32.579
559.76	33.379
560.10	31.279
560.44	32.586
560.78	32.500
561.12	32.143
561.45	33.516
561.79	32.662
562.13	32.964
562.47	32.121
562.81	32.089
563.15	32.955
563.48	32.256
563.82	33.071
564.16	32.041
564.50	32.181
564.84	31.681
565.17	33.176
565.51	32.163
565.85	33.135
566.19	32.892
566.52	32.300
566.86	32.711
567.20	31.974
567.54	31.652
567.88	32.008
568.21	32.559
568.55	31.942
568.89	32.410
569.23	31.812
569.56	32.786
569.90	31.076
570.24	31.568
570.57	32.008
570.91	30.772
571.25	30.633
571.59	31.339
571.92	30.864
572.26	30.783
572.60	31.668
572.93	30.671
573.27	30.992
573.61	31.286
573.95	30.736
574.28	30.437
574.62	30.537
574.96	30.657
575.29	30.073
575.63	30.215
575.97	30.922
576.30	30.348
576.64	30.613
576.98	30.319
577.31	30.902
577.65	31.036
577.98	29.480
578.32	30.649
578.66	30.475
578.99	30.739
579.33	31.014
579.67	30.576
580.00	30.187
580.34	30.563
580.67	30.229
581.01	30.852
581.35	29.963
581.68	29.867
582.02	30.521
582.35	30.878
582.69	31.098
583.02	31.676
583.36	31.136
583.70	31.152
584.03	31.773
584.37	30.807
584.70	30.660
585.04	30.342
585.37	30.513
585.71	30.421
586.04	30.669
586.38	31.128
586.72	30.684
587.05	30.980
587.39	31.239
587.72	31.675
588.06	31.407
588.39	31.591
588.73	31.190
589.06	31.800
589.40	32.268
589.73	31.780
590.07	31.863
590.40	31.542
590.73	31.637
591.07	32.353
591.40	31.960
591.74	32.114
592.07	32.237
592.41	31.033
592.74	31.168
593.08	31.975
593.41	32.225
593.75	31.983
594.08	31.869
594.41	32.051
594.75	32.116
595.08	32.638
595.42	32.338
595.75	31.934
596.09	32.125
596.42	32.067
596.75	32.381
597.09	33.212
597.42	32.300
597.75	31.909
598.09	32.381
598.42	33.012
598.76	31.486
599.09	32.396
599.42	31.311
599.76	31.264
600.09	32.132
600.42	31.732
600.76	32.232
601.09	32.161
601.42	31.686
601.76	31.621
602.09	32.595
602.42	32.534
602.76	32.362
603.09	32.379
603.42	32.117
603.76	31.783
604.09	33.109
604.42	31.890
604.76	31.735
605.09	32.549
605.42	32.496
605.75	32.500
606.09	31.542
606.42	32.069
606.75	31.334
607.09	32.450
607.42	31.753
607.75	32.122
608.08	32.044
608.42	31.600
608.75	33.541
609.08	32.470
609.41	32.025
609.75	32.188
610.08	33.333
610.41	32.583
610.74	32.353
611.07	32.682
611.41	33.632
611.74	32.564
612.07	33.333
612.40	32.937
612.73	33.203
613.07	33.790
613.40	33.349
613.73	32.547
614.06	32.875
614.39	33.042
614.72	33.236
615.06	32.435
615.39	32.914
615.72	32.559
616.05	32.589
616.38	33.098
616.71	33.595
617.05	33.067
617.38	33.119
617.71	32.775
618.04	32.596
618.37	33.060
618.70	33.088
619.03	33.751
619.36	33.662
619.69	33.056
620.03	33.459
620.36	33.067
620.69	33.374
621.02	35.367
621.35	34.398
621.68	34.346
622.01	34.093
622.34	33.473
622.67	33.746
623.00	33.401
623.33	32.780
623.66	33.722
623.99	33.706
624.32	34.113
624.65	32.754
624.99	34.330
625.32	34.553
625.65	34.255
625.98	33.492
626.31	34.018
626.64	33.407
626.97	34.134
627.30	32.726
627.63	35.034
627.96	35.360
628.29	34.630
628.62	34.257
628.95	35.408
629.28	33.220
629.61	34.259
629.94	33.473
630.26	33.983
630.59	35.751
630.92	34.545
631.25	35.331
