SpectraSuite Data File
++++++++++++++++++++++++++++++++++++
Date: Thu May 14 15:05:39 PDT 2015
User: schluterlab
Dark Spectrum Present: Yes
Reference Spectrum Present: Yes
Number of Sampled Component Spectra: 1
Spectrometers: USB2E3373
Integration Time (usec): 3000 (USB2E3373)
Spectra Averaged: 3 (USB2E3373)
Boxcar Smoothing: 0 (USB2E3373)
Correct for Electrical Dark: No (USB2E3373)
Strobe/Lamp Enabled: No (USB2E3373)
Correct for Detector Non-linearity: No (USB2E3373)
Correct for Stray Light: No (USB2E3373)
Number of Pixels in Processed Spectrum: 2048
>>>>>Begin Processed Spectral Data<<<<<
178.53	0.000
178.91	442.857
179.29	-3500.000
179.67	-2100.000
180.04	278.571
180.42	310.000
180.80	540.000
181.18	-3000.000
181.56	-2400.000
181.94	750.000
182.31	-550.000
182.69	733.333
183.07	-1250.000
183.45	600.000
183.83	-550.000
184.20	-1000.000
184.58	2400.000
184.96	-800.000
185.34	-322.222
185.72	-500.000
186.09	422.222
186.47	1400.000
186.85	660.000
187.23	-266.667
187.61	-2900.000
187.98	540.000
188.36	975.000
188.74	-800.000
189.12	-733.333
189.49	-162.500
189.87	-425.000
190.25	-266.667
190.63	-360.000
191.00	-355.556
191.38	0.000
191.76	-550.000
192.14	-416.667
192.51	1350.000
192.89	-216.667
193.27	0.000
193.65	-442.857
194.02	-3100.000
194.40	-400.000
194.78	442.857
195.15	0.000
195.53	-145.455
195.91	0.000
196.29	-625.000
196.66	-176.923
197.04	-2500.000
197.42	-485.714
197.79	-1350.000
198.17	-350.000
198.55	-442.857
198.92	-277.778
199.30	-337.500
199.68	-209.091
200.05	-185.714
200.43	-1450.000
200.81	485.714
201.18	0.000
201.56	366.667
201.94	0.000
202.31	1100.000
202.69	-288.889
203.07	1500.000
203.44	-322.222
203.82	-725.000
204.19	-200.000
204.57	-500.000
204.95	-362.500
205.32	-2700.000
205.70	800.000
206.08	-516.667
206.45	-316.667
206.83	740.000
207.20	-316.667
207.58	-740.000
207.96	-500.000
208.33	-233.333
208.71	216.667
209.08	-216.667
209.46	0.000
209.84	466.667
210.21	1300.000
210.59	1400.000
210.96	1033.333
211.34	-550.000
211.71	-237.500
212.09	-3200.000
212.46	0.000
212.84	1700.000
213.22	-580.000
213.59	-950.000
213.97	-230.000
214.34	-966.667
214.72	533.333
215.09	-700.000
215.47	0.000
215.84	485.714
216.22	1600.000
216.59	-500.000
216.97	-500.000
217.34	-675.000
217.72	-237.500
218.09	-600.000
218.47	-725.000
218.84	0.000
219.22	540.000
219.59	-135.294
219.97	-100.000
220.34	1500.000
220.72	-300.000
221.09	-161.538
221.47	-900.000
221.84	-220.000
222.22	-471.429
222.59	0.000
222.97	-325.000
223.34	-580.000
223.72	-2100.000
224.09	-725.000
224.46	-650.000
224.84	-440.000
225.21	-285.714
225.59	-850.000
225.96	-675.000
226.34	-57.692
226.71	366.667
227.08	-1500.000
227.46	-133.333
227.83	-700.000
228.21	-126.316
228.58	350.000
228.95	1700.000
229.33	-183.333
229.70	-270.000
230.08	-68.421
230.45	310.000
230.82	-900.000
231.20	-142.857
231.57	-175.000
231.95	-172.727
232.32	-209.091
232.69	-95.000
233.07	-775.000
233.44	-152.941
233.81	-220.000
234.19	-77.778
234.56	-68.182
234.93	-31.034
235.31	-136.842
235.68	-116.667
236.05	-115.000
236.43	-34.615
236.80	-44.000
237.17	-74.074
237.55	-72.727
237.92	-310.000
238.29	-116.129
238.67	-50.000
239.04	-61.111
239.41	-78.571
239.79	-67.391
240.16	-38.889
240.53	-32.609
240.91	-60.784
241.28	-40.984
241.65	-23.881
242.02	-29.730
242.40	-43.077
242.77	-33.333
243.14	-36.585
243.51	-51.316
243.89	-42.308
244.26	-21.782
244.63	-20.588
245.00	-24.299
245.38	-21.930
245.75	-28.319
246.12	-24.603
246.49	-19.380
246.87	-15.000
247.24	-11.921
247.61	-13.158
247.98	-18.792
248.36	-20.370
248.73	-19.632
249.10	-12.568
249.47	-9.950
249.84	-9.948
250.22	-11.917
250.59	-17.222
250.96	-7.273
251.33	-13.776
251.70	-6.838
252.08	-7.500
252.45	-4.508
252.82	-8.678
253.19	-11.328
253.56	-5.323
253.94	-10.769
254.31	-6.061
254.68	-5.944
255.05	-4.560
255.42	-9.864
255.79	-10.032
256.16	-10.596
256.54	-8.278
256.91	-8.197
257.28	-8.197
257.65	-9.236
258.02	-9.735
258.39	-8.547
258.76	-4.893
259.14	-5.460
259.51	-6.916
259.88	-8.215
260.25	-8.333
260.62	-6.849
260.99	-4.918
261.36	-2.413
261.73	-3.979
262.10	-7.967
262.47	-8.311
262.85	-3.030
263.22	-7.532
263.59	-8.947
263.96	-7.928
264.33	-7.161
264.70	-4.198
265.07	-2.864
265.44	-3.628
265.81	-7.176
266.18	-4.989
266.55	-5.134
266.92	-6.378
267.29	-4.595
267.66	-3.104
268.03	-5.895
268.40	-4.175
268.77	-7.289
269.14	-5.727
269.51	-4.386
269.88	-1.434
270.25	-3.421
270.62	-3.376
270.99	-5.455
271.36	-2.376
271.73	-5.501
272.10	-3.206
272.47	-3.407
272.84	-4.618
273.21	-3.407
273.58	-3.629
273.95	-6.538
274.32	-6.654
274.69	-5.029
275.06	-1.832
275.43	-5.730
275.80	-1.940
276.17	-5.741
276.54	-4.291
276.91	-4.472
277.28	-4.340
277.65	-4.129
278.02	-2.757
278.39	-5.072
278.76	-4.921
279.13	-4.787
279.50	-1.546
279.87	-1.968
280.23	-6.690
280.60	-3.559
280.97	-3.289
281.34	-7.131
281.71	-2.030
282.08	-3.821
282.45	-3.764
282.82	-2.669
283.19	-4.200
283.56	-4.098
283.92	-1.351
284.29	-2.212
284.66	-2.791
285.03	-4.487
285.40	-2.473
285.77	-4.025
286.14	-2.290
286.51	-3.653
286.87	-3.476
287.24	-3.614
287.61	-2.990
287.98	-3.021
288.35	-3.846
288.72	-3.994
289.08	-1.903
289.45	-2.515
289.82	-4.217
290.19	-4.454
290.56	-2.535
290.93	-2.282
291.29	-3.306
291.66	-2.204
292.03	-3.528
292.40	-0.680
292.77	-3.774
293.13	-1.759
293.50	-4.993
293.87	-4.430
294.24	-2.000
294.60	-1.517
294.97	-2.685
295.34	-2.049
295.71	-2.774
296.08	-3.359
296.44	-2.206
296.81	-1.218
297.18	-2.864
297.55	-2.358
297.91	-2.491
298.28	-3.555
298.65	-2.378
299.02	-4.368
299.38	-1.831
299.75	-3.388
300.12	-3.241
300.48	-2.419
300.85	-2.362
301.22	-1.454
301.59	-3.196
301.95	-1.921
302.32	-1.000
302.69	-2.191
303.05	-1.959
303.42	-1.885
303.79	-1.979
304.15	-1.893
304.52	-2.114
304.89	-1.675
305.25	-2.174
305.62	-1.672
305.99	-1.443
306.35	-2.218
306.72	-2.068
307.09	-2.335
307.45	-2.277
307.82	-1.715
308.19	-2.018
308.55	-1.157
308.92	-1.558
309.29	-1.341
309.65	-2.339
310.02	-3.069
310.38	-1.969
310.75	-1.845
311.12	-0.863
311.48	-2.248
311.85	-2.184
312.22	-1.139
312.58	-1.502
312.95	-2.294
313.31	-0.994
313.68	-0.824
314.05	-1.084
314.41	-0.364
314.78	-1.272
315.14	-0.817
315.51	-0.277
315.87	-0.270
316.24	-0.822
316.61	0.622
316.97	-2.262
317.34	-1.058
317.70	0.175
318.07	-0.705
318.43	0.340
318.80	0.836
319.16	-0.258
319.53	-1.285
319.89	-0.351
320.26	0.267
320.62	-0.621
320.99	-0.277
321.35	-0.555
321.72	1.023
322.08	-0.812
322.45	-0.181
322.81	-0.271
323.18	0.354
323.54	-0.603
323.91	0.356
324.27	-0.258
324.64	1.008
325.00	0.249
325.37	0.573
325.73	1.157
326.10	1.298
326.46	1.466
326.83	1.521
327.19	0.945
327.56	1.344
327.92	0.865
328.29	0.323
328.65	0.921
329.01	0.761
329.38	1.601
329.74	1.284
330.11	2.654
330.47	1.264
330.84	0.689
331.20	2.250
331.56	0.693
331.93	1.339
332.29	1.780
332.66	1.661
333.02	1.173
333.38	0.839
333.75	1.936
334.11	1.251
334.48	1.980
334.84	2.719
335.20	1.175
335.57	2.277
335.93	2.314
336.29	1.082
336.66	1.934
337.02	1.839
337.38	2.636
337.75	1.488
338.11	1.346
338.47	2.399
338.84	1.523
339.20	1.348
339.56	1.812
339.93	0.985
340.29	2.174
340.65	2.109
341.02	2.554
341.38	2.425
341.74	0.726
342.11	1.448
342.47	1.986
342.83	2.415
343.20	1.881
343.56	2.245
343.92	2.642
344.28	2.578
344.65	2.791
345.01	2.262
345.37	2.488
345.73	0.935
346.10	2.184
346.46	1.424
346.82	3.296
347.19	2.445
347.55	2.352
347.91	2.155
348.27	2.656
348.63	3.046
349.00	1.790
349.36	2.305
349.72	3.274
350.08	3.046
350.45	2.129
350.81	2.640
351.17	2.105
351.53	2.350
351.89	2.885
352.26	2.985
352.62	2.164
352.98	2.595
353.34	2.390
353.70	2.311
354.07	2.608
354.43	1.898
354.79	2.393
355.15	2.649
355.51	3.509
355.87	1.870
356.24	3.194
356.60	2.882
356.96	2.817
357.32	2.379
357.68	2.343
358.04	2.096
358.40	3.358
358.77	3.801
359.13	1.846
359.49	1.636
359.85	3.408
360.21	2.941
360.57	2.656
360.93	3.032
361.29	3.789
361.66	3.041
362.02	3.479
362.38	3.795
362.74	2.793
363.10	3.714
363.46	4.017
363.82	3.196
364.18	3.026
364.54	3.320
364.90	4.281
365.26	2.690
365.62	4.133
365.98	3.540
366.35	4.094
366.71	4.150
367.07	4.330
367.43	4.005
367.79	4.844
368.15	3.880
368.51	4.465
368.87	4.442
369.23	3.933
369.59	4.440
369.95	5.274
370.31	3.849
370.67	4.746
371.03	4.640
371.39	4.231
371.75	3.851
372.11	4.946
372.47	4.536
372.83	4.712
373.19	5.604
373.55	4.878
373.91	4.635
374.27	4.657
374.63	4.736
374.99	5.371
375.35	5.649
375.71	4.839
376.07	5.875
376.42	5.479
376.78	5.780
377.14	4.741
377.50	5.376
377.86	6.773
378.22	6.347
378.58	6.540
378.94	5.869
379.30	6.620
379.66	6.584
380.02	6.347
380.38	6.740
380.74	6.930
381.09	7.259
381.45	7.330
381.81	7.143
382.17	7.423
382.53	7.076
382.89	7.449
383.25	8.148
383.61	7.176
383.97	8.304
384.32	7.536
384.68	7.425
385.04	7.287
385.40	8.486
385.76	8.441
386.12	8.079
386.48	7.706
386.83	8.880
387.19	7.648
387.55	7.570
387.91	8.333
388.27	9.296
388.62	9.107
388.98	8.799
389.34	9.369
389.70	8.948
390.06	9.710
390.42	9.217
390.77	9.031
391.13	9.096
391.49	9.601
391.85	8.667
392.20	9.134
392.56	9.864
392.92	10.360
393.28	10.171
393.64	9.497
393.99	10.866
394.35	10.864
394.71	11.078
395.07	9.641
395.42	9.937
395.78	10.542
396.14	10.458
396.50	10.095
396.85	10.435
397.21	9.882
397.57	10.895
397.92	11.684
398.28	10.158
398.64	9.840
399.00	10.576
399.35	11.204
399.71	10.543
400.07	9.994
400.42	10.943
400.78	10.995
401.14	9.960
401.49	10.858
401.85	11.105
402.21	11.240
402.57	11.796
402.92	11.170
403.28	11.300
403.63	10.024
403.99	11.283
404.35	10.631
404.70	11.218
405.06	11.467
405.42	11.007
405.77	11.287
406.13	11.507
406.49	11.149
406.84	11.080
407.20	10.900
407.55	11.266
407.91	10.559
408.27	10.660
408.62	11.518
408.98	11.608
409.34	10.440
409.69	11.372
410.05	11.723
410.40	10.963
410.76	11.497
411.11	11.572
411.47	10.811
411.83	11.346
412.18	10.783
412.54	11.144
412.89	11.059
413.25	10.892
413.60	11.200
413.96	11.305
414.31	11.331
414.67	10.912
415.03	11.508
415.38	11.917
415.74	10.568
416.09	11.659
416.45	12.023
416.80	10.098
417.16	11.430
417.51	11.395
417.87	10.730
418.22	10.359
418.58	10.657
418.93	12.631
419.29	11.529
419.64	11.585
420.00	10.801
420.35	12.128
420.71	11.717
421.06	10.868
421.42	11.353
421.77	10.985
422.12	11.892
422.48	11.879
422.83	11.281
423.19	11.459
423.54	12.555
423.90	11.872
424.25	11.893
424.61	11.596
424.96	12.081
425.31	12.155
425.67	11.809
426.02	12.175
426.38	11.538
426.73	11.440
427.09	12.457
427.44	12.015
427.79	11.277
428.15	11.644
428.50	11.798
428.85	11.481
429.21	12.500
429.56	12.192
429.92	11.155
430.27	12.386
430.62	12.018
430.98	12.150
431.33	12.170
431.68	12.644
432.04	12.087
432.39	12.319
432.74	12.329
433.10	12.655
433.45	11.594
433.80	11.964
434.16	12.707
434.51	12.847
434.86	12.541
435.22	11.690
435.57	12.323
435.92	11.853
436.28	12.116
436.63	12.234
436.98	11.379
437.34	12.007
437.69	11.723
438.04	12.427
438.39	11.890
438.75	11.787
439.10	12.844
439.45	11.962
439.81	11.921
440.16	11.475
440.51	12.207
440.86	11.006
441.22	12.165
441.57	12.421
441.92	12.609
442.27	12.727
442.63	12.767
442.98	11.740
443.33	12.572
443.68	12.289
444.03	13.170
444.39	12.945
444.74	12.711
445.09	12.570
445.44	13.383
445.79	12.596
446.15	12.693
446.50	12.300
446.85	13.278
447.20	12.137
447.55	12.186
447.91	12.094
448.26	11.311
448.61	12.434
448.96	13.197
449.31	12.831
449.66	12.037
450.02	12.500
450.37	12.786
450.72	12.379
451.07	11.902
451.42	12.594
451.77	12.896
452.12	12.359
452.47	11.705
452.83	12.725
453.18	11.909
453.53	11.258
453.88	12.258
454.23	12.090
454.58	11.724
454.93	11.711
455.28	12.763
455.63	12.791
455.98	12.402
456.34	12.191
456.69	12.287
457.04	11.939
457.39	11.696
457.74	12.528
458.09	11.587
458.44	11.961
458.79	11.759
459.14	12.323
459.49	11.828
459.84	12.225
460.19	11.938
460.54	12.606
460.89	12.864
461.24	10.920
461.59	12.562
461.94	11.979
462.29	12.486
462.64	11.768
462.99	12.429
463.34	10.967
463.69	11.958
464.04	12.618
464.39	11.379
464.74	12.144
465.09	11.822
465.44	11.964
465.79	11.634
466.14	11.516
466.49	12.158
466.84	11.846
467.19	12.312
467.54	11.163
467.89	10.920
468.24	11.801
468.59	10.654
468.94	11.422
469.29	11.818
469.64	10.935
469.99	10.962
470.34	12.005
470.68	11.825
471.03	11.526
471.38	11.642
471.73	11.964
472.08	11.421
472.43	12.161
472.78	12.280
473.13	11.315
473.48	11.782
473.83	11.956
474.17	11.489
474.52	11.846
474.87	12.016
475.22	12.620
475.57	11.786
475.92	12.046
476.27	12.194
476.61	11.838
476.96	11.314
477.31	12.228
477.66	12.434
478.01	11.744
478.36	11.765
478.70	11.921
479.05	12.577
479.40	12.192
479.75	12.104
480.10	12.269
480.45	11.805
480.79	12.063
481.14	11.949
481.49	12.313
481.84	12.359
482.19	11.914
482.53	12.418
482.88	12.317
483.23	11.427
483.58	11.703
483.92	11.569
484.27	11.346
484.62	11.056
484.97	12.442
485.31	12.038
485.66	11.315
486.01	11.930
486.36	12.613
486.70	13.231
487.05	13.471
487.40	12.816
487.75	12.163
488.09	12.229
488.44	11.560
488.79	11.771
489.13	11.694
489.48	10.408
489.83	11.066
490.17	11.746
490.52	11.002
490.87	11.210
491.22	10.919
491.56	11.519
491.91	11.034
492.26	11.553
492.60	11.150
492.95	11.409
493.30	11.161
493.64	11.695
493.99	10.965
494.34	10.714
494.68	11.263
495.03	11.013
495.37	11.318
495.72	10.930
496.07	11.744
496.41	10.682
496.76	11.593
497.11	10.828
497.45	11.437
497.80	11.373
498.14	10.658
498.49	10.983
498.84	11.015
499.18	11.516
499.53	10.987
499.87	11.648
500.22	10.240
500.56	10.796
500.91	11.396
501.26	11.273
501.60	10.252
501.95	10.638
502.29	11.760
502.64	11.456
502.98	11.389
503.33	11.490
503.67	10.510
504.02	10.946
504.36	11.662
504.71	11.713
505.06	11.232
505.40	10.740
505.75	10.929
506.09	11.234
506.44	11.467
506.78	11.422
507.13	11.388
507.47	11.985
507.82	10.985
508.16	11.329
508.51	11.205
508.85	11.195
509.19	10.895
509.54	12.056
509.88	11.268
510.23	12.045
510.57	12.373
510.92	11.272
511.26	11.544
511.61	10.671
511.95	11.615
512.30	11.423
512.64	10.645
512.98	11.606
513.33	11.996
513.67	11.576
514.02	11.497
514.36	11.714
514.70	11.302
515.05	12.096
515.39	11.496
515.74	12.354
516.08	10.882
516.42	12.297
516.77	11.619
517.11	11.346
517.46	11.400
517.80	11.384
518.14	11.371
518.49	12.202
518.83	11.549
519.17	11.416
519.52	12.369
519.86	12.144
520.20	11.981
520.55	11.829
520.89	11.543
521.23	11.837
521.58	11.977
521.92	11.671
522.26	11.512
522.61	11.285
522.95	10.611
523.29	10.862
523.64	11.603
523.98	12.322
524.32	12.951
524.66	12.009
525.01	11.325
525.35	11.603
525.69	11.369
526.04	11.998
526.38	12.241
526.72	11.822
527.06	12.023
527.41	11.778
527.75	11.995
528.09	11.452
528.43	11.427
528.78	11.561
529.12	10.722
529.46	11.692
529.80	11.957
530.15	11.826
530.49	11.329
530.83	11.275
531.17	10.693
531.51	12.274
531.86	11.418
532.20	11.220
532.54	12.268
532.88	11.758
533.22	11.491
533.57	11.598
533.91	12.458
534.25	11.984
534.59	12.644
534.93	10.979
535.27	11.324
535.62	11.768
535.96	10.691
536.30	11.810
536.64	11.592
536.98	12.054
537.32	12.716
537.66	11.728
538.01	11.420
538.35	11.206
538.69	10.757
539.03	11.649
539.37	11.072
539.71	12.132
540.05	11.691
540.39	11.002
540.73	11.050
541.07	11.404
541.42	11.105
541.76	9.964
542.10	10.736
542.44	10.597
542.78	10.706
543.12	10.489
543.46	10.867
543.80	10.252
544.14	10.772
544.48	10.816
544.82	11.191
545.16	11.270
545.50	11.144
545.84	10.165
546.18	11.975
546.52	10.573
546.86	10.503
547.20	10.814
547.54	10.674
547.88	10.368
548.22	10.877
548.56	9.655
548.90	10.269
549.24	11.064
549.58	10.410
549.92	10.268
550.26	10.291
550.60	10.976
550.94	10.608
551.28	11.221
551.62	10.580
551.96	9.903
552.30	11.281
552.64	10.516
552.98	10.543
553.32	10.675
553.66	10.932
554.00	10.214
554.34	10.875
554.68	10.523
555.02	10.118
555.36	10.717
555.69	9.417
556.03	10.025
556.37	11.014
556.71	10.209
557.05	10.927
557.39	9.091
557.73	10.238
558.07	9.801
558.41	10.233
558.75	9.466
559.08	9.882
559.42	9.877
559.76	9.701
560.10	8.841
560.44	10.488
560.78	10.875
561.12	10.468
561.45	10.888
561.79	10.256
562.13	10.844
562.47	9.679
562.81	9.810
563.15	9.785
563.48	10.255
563.82	10.036
564.16	9.328
564.50	8.999
564.84	9.263
565.17	9.824
565.51	9.666
565.85	10.095
566.19	8.410
566.52	9.713
566.86	9.111
567.20	9.462
567.54	9.878
567.88	10.398
568.21	9.881
568.55	10.264
568.89	10.168
569.23	10.520
569.56	10.121
569.90	9.943
570.24	9.983
570.57	10.231
570.91	9.798
571.25	10.269
571.59	10.604
571.92	10.341
572.26	10.376
572.60	10.265
572.93	10.604
573.27	10.199
573.61	10.244
573.95	10.269
574.28	10.605
574.62	9.959
574.96	9.969
575.29	10.046
575.63	9.841
575.97	10.060
576.30	10.190
576.64	9.735
576.98	9.749
577.31	9.899
577.65	10.111
577.98	10.072
578.32	9.965
578.66	10.083
578.99	10.076
579.33	10.160
579.67	9.701
580.00	9.890
580.34	10.231
580.67	9.929
581.01	9.714
581.35	9.975
581.68	10.009
582.02	10.049
582.35	10.128
582.69	10.332
583.02	9.830
583.36	10.207
583.70	9.748
584.03	9.551
584.37	9.652
584.70	9.242
585.04	9.230
585.37	9.677
585.71	9.666
586.04	9.775
586.38	9.912
586.72	9.150
587.05	9.184
587.39	9.424
587.72	9.761
588.06	9.792
588.39	9.759
588.73	9.180
589.06	9.424
589.40	9.189
589.73	9.190
590.07	9.615
590.40	9.601
590.73	8.978
591.07	9.270
591.40	8.787
591.74	8.863
592.07	9.095
592.41	8.991
592.74	9.052
593.08	9.841
593.41	9.886
593.75	9.655
594.08	9.694
594.41	9.808
594.75	9.299
595.08	9.152
595.42	9.286
595.75	9.364
596.09	9.387
596.42	8.742
596.75	8.761
597.09	9.495
597.42	9.257
597.75	8.820
598.09	9.286
598.42	9.489
598.76	8.674
599.09	8.864
599.42	9.219
599.76	8.980
600.09	8.942
600.42	9.576
600.76	8.950
601.09	8.397
601.42	9.131
601.76	8.690
602.09	8.935
602.42	9.124
602.76	8.450
603.09	8.847
603.42	8.707
603.76	8.527
604.09	9.510
604.42	8.991
604.76	8.295
605.09	8.736
605.42	8.533
605.75	8.769
606.09	8.511
606.42	9.011
606.75	7.871
607.09	8.871
607.42	8.825
607.75	8.558
608.08	8.603
608.42	8.505
608.75	8.997
609.08	8.149
609.41	8.116
609.75	8.750
610.08	8.619
610.41	8.029
610.74	8.277
611.07	7.904
611.41	9.058
611.74	8.314
612.07	8.836
612.40	7.034
612.73	7.726
613.07	8.704
613.40	8.422
613.73	7.992
614.06	8.538
614.39	7.726
614.72	8.006
615.06	8.229
615.39	8.072
615.72	8.057
616.05	7.576
616.38	8.729
616.71	7.837
617.05	7.082
617.38	8.133
617.71	7.667
618.04	7.016
618.37	7.978
618.70	7.975
619.03	7.587
619.36	7.645
619.69	6.919
620.03	7.407
620.36	7.301
620.69	7.156
621.02	7.743
621.35	6.967
621.68	7.448
622.01	6.690
622.34	6.834
622.67	6.804
623.00	6.410
623.33	8.427
623.66	8.431
623.99	7.110
624.32	8.057
624.65	8.172
624.99	7.997
625.32	7.054
625.65	6.945
625.98	6.983
626.31	7.371
626.64	7.033
626.97	6.752
627.30	6.302
627.63	6.677
627.96	7.958
628.29	6.304
628.62	5.793
628.95	6.398
629.28	5.607
629.61	6.734
629.94	5.439
630.26	6.017
630.59	6.995
630.92	6.407
631.25	6.887
631.58	5.556
631.91	5.530
632.24	6.916
632.57	6.926
632.90	6.720
633.23	6.429
633.56	5.306
633.89	5.475
634.22	5.821
634.55	4.906
634.88	4.654
635.20	6.136
635.53	5.876
635.86	6.067
636.19	7.529
636.52	5.485
636.85	4.903
637.18	5.925
637.51	6.452
637.83	6.755
638.16	6.221
638.49	5.399
638.82	6.313
