SpectraSuite Data File
++++++++++++++++++++++++++++++++++++
Date: Thu May 14 15:00:38 PDT 2015
User: schluterlab
Dark Spectrum Present: Yes
Reference Spectrum Present: Yes
Number of Sampled Component Spectra: 1
Spectrometers: USB2E3373
Integration Time (usec): 3000 (USB2E3373)
Spectra Averaged: 3 (USB2E3373)
Boxcar Smoothing: 0 (USB2E3373)
Correct for Electrical Dark: No (USB2E3373)
Strobe/Lamp Enabled: No (USB2E3373)
Correct for Detector Non-linearity: No (USB2E3373)
Correct for Stray Light: No (USB2E3373)
Number of Pixels in Processed Spectrum: 2048
>>>>>Begin Processed Spectral Data<<<<<
178.53	0.000
178.91	371.429
179.29	-3100.000
179.67	-2400.000
180.04	235.714
180.42	250.000
180.80	520.000
181.18	-2700.000
181.56	-1800.000
181.94	500.000
182.31	-600.000
182.69	600.000
183.07	-1000.000
183.45	825.000
183.83	-300.000
184.20	-800.000
184.58	2500.000
184.96	-625.000
185.34	-277.778
185.72	-440.000
186.09	422.222
186.47	1600.000
186.85	740.000
187.23	-377.778
187.61	-2300.000
187.98	420.000
188.36	525.000
188.74	-525.000
189.12	-633.333
189.49	-106.250
189.87	-300.000
190.25	-266.667
190.63	-420.000
191.00	-366.667
191.38	0.000
191.76	-650.000
192.14	-583.333
192.51	1350.000
192.89	-300.000
193.27	0.000
193.65	-300.000
194.02	-2500.000
194.40	-200.000
194.78	257.143
195.15	0.000
195.53	-72.727
195.91	0.000
196.29	-350.000
196.66	-184.615
197.04	-3000.000
197.42	-371.429
197.79	-1500.000
198.17	-250.000
198.55	-285.714
198.92	-188.889
199.30	-350.000
199.68	-118.182
200.05	-42.857
200.43	-1300.000
200.81	557.143
201.18	0.000
201.56	322.222
201.94	0.000
202.31	1066.667
202.69	-322.222
203.07	2000.000
203.44	-155.556
203.82	-600.000
204.19	-175.000
204.57	-450.000
204.95	-187.500
205.32	-2200.000
205.70	800.000
206.08	-416.667
206.45	-316.667
206.83	680.000
207.20	-250.000
207.58	-480.000
207.96	-533.333
208.33	-316.667
208.71	208.333
209.08	-250.000
209.46	0.000
209.84	533.333
210.21	1500.000
210.59	1200.000
210.96	833.333
211.34	-575.000
211.71	-162.500
212.09	-2100.000
212.46	0.000
212.84	1450.000
213.22	-580.000
213.59	-600.000
213.97	-140.000
214.34	-566.667
214.72	466.667
215.09	-700.000
215.47	0.000
215.84	500.000
216.22	1450.000
216.59	-440.000
216.97	-500.000
217.34	-650.000
217.72	-337.500
218.09	-625.000
218.47	-675.000
218.84	0.000
219.22	520.000
219.59	-123.529
219.97	-70.000
220.34	1150.000
220.72	-222.222
221.09	-153.846
221.47	-1066.667
221.84	-340.000
222.22	-400.000
222.59	0.000
222.97	-112.500
223.34	-420.000
223.72	-2000.000
224.09	-400.000
224.46	-450.000
224.84	-280.000
225.21	-442.857
225.59	-600.000
225.96	-650.000
226.34	-73.077
226.71	550.000
227.08	-700.000
227.46	-146.667
227.83	-550.000
228.21	-36.842
228.58	325.000
228.95	1350.000
229.33	-175.000
229.70	-130.000
230.08	-15.789
230.45	280.000
230.82	-600.000
231.20	-150.000
231.57	-191.667
231.95	-163.636
232.32	-127.273
232.69	-60.000
233.07	-725.000
233.44	-105.882
233.81	-250.000
234.19	-50.000
234.56	-63.636
234.93	-44.828
235.31	-78.947
235.68	-105.556
236.05	-160.000
236.43	-57.692
236.80	-24.000
237.17	-77.778
237.55	-57.576
237.92	-310.000
238.29	-80.645
238.67	-45.455
239.04	-52.778
239.41	-30.952
239.79	-19.565
240.16	-31.481
240.53	-36.957
240.91	-33.333
241.28	-18.033
241.65	-4.478
242.02	-2.703
242.40	-30.769
242.77	-34.667
243.14	-26.829
243.51	-26.316
243.89	-34.615
244.26	-4.950
244.63	-11.765
245.00	-8.411
245.38	-12.281
245.75	-20.354
246.12	0.794
246.49	-10.853
246.87	1.429
247.24	1.325
247.61	-0.658
247.98	-2.013
248.36	-4.938
248.73	-3.681
249.10	2.186
249.47	2.985
249.84	5.759
250.22	-2.073
250.59	0.000
250.96	3.182
251.33	-0.510
251.70	5.128
252.08	5.417
252.45	5.328
252.82	0.000
253.19	0.781
253.56	4.943
253.94	5.769
254.31	4.545
254.68	7.343
255.05	8.143
255.42	6.463
255.79	-0.647
256.16	1.987
256.54	0.662
256.91	4.590
257.28	2.951
257.65	3.822
258.02	5.310
258.39	3.419
258.76	10.703
259.14	8.333
259.51	7.205
259.88	6.516
260.25	6.667
260.62	7.671
260.99	9.290
261.36	4.826
261.73	6.631
262.10	5.220
262.47	4.290
262.85	10.859
263.22	5.714
263.59	4.474
263.96	4.604
264.33	4.859
264.70	6.173
265.07	8.115
265.44	11.565
265.81	8.796
266.18	8.163
266.55	8.929
266.92	7.517
267.29	8.534
267.66	10.200
268.03	6.550
268.40	6.263
268.77	7.289
269.14	6.167
269.51	5.702
269.88	9.221
270.25	10.463
270.62	6.962
270.99	10.303
271.36	9.703
271.73	10.609
272.10	9.218
272.47	9.820
272.84	7.631
273.21	7.415
273.58	8.468
273.95	6.538
274.32	7.034
274.69	8.124
275.06	10.073
275.43	5.730
275.80	9.347
276.17	7.222
276.54	8.955
276.91	6.798
277.28	7.957
277.65	9.695
278.02	8.824
278.39	6.341
278.76	7.030
279.13	7.979
279.50	9.966
279.87	9.302
280.23	5.106
280.60	8.814
280.97	8.553
281.34	8.319
281.71	9.137
282.08	6.811
282.45	8.511
282.82	8.791
283.19	6.624
283.56	8.525
283.92	9.009
284.29	9.163
284.66	10.181
285.03	4.327
285.40	8.192
285.77	6.347
286.14	9.466
286.51	8.980
286.87	8.689
287.24	9.337
287.61	7.773
287.98	6.949
288.35	7.544
288.72	8.432
289.08	9.078
289.45	7.101
289.82	5.572
290.19	8.333
290.56	6.479
290.93	7.418
291.29	6.887
291.66	8.540
292.03	7.056
292.40	9.116
292.77	6.604
293.13	7.037
293.50	6.833
293.87	7.517
294.24	7.467
294.60	7.206
294.97	6.443
295.34	8.451
295.71	7.062
296.08	6.331
296.44	6.863
296.81	6.334
297.18	6.600
297.55	6.486
297.91	6.880
298.28	5.095
298.65	6.064
299.02	7.320
299.38	7.208
299.75	6.893
300.12	7.292
300.48	6.567
300.85	7.874
301.22	6.711
301.59	5.594
301.95	5.763
302.32	7.556
302.69	5.805
303.05	6.855
303.42	6.098
303.79	6.562
304.15	7.045
304.52	5.391
304.89	6.178
305.25	5.901
305.62	6.165
305.99	5.979
306.35	5.444
306.72	5.998
307.09	6.396
307.45	6.418
307.82	5.853
308.19	5.348
308.55	6.750
308.92	6.621
309.29	6.322
309.65	5.848
310.02	5.644
310.38	6.201
310.75	6.505
311.12	6.711
311.48	6.061
311.85	5.983
312.22	6.072
312.58	6.291
312.95	5.163
313.31	7.136
313.68	7.234
314.05	7.046
314.41	7.377
314.78	7.175
315.14	7.169
315.51	7.018
315.87	8.551
316.24	6.758
316.61	7.549
316.97	6.606
317.34	5.556
317.70	6.987
318.07	6.702
318.43	7.058
318.80	8.445
319.16	6.695
319.53	5.998
319.89	6.223
320.26	6.762
320.62	6.649
320.99	6.464
321.35	6.192
321.72	7.814
322.08	7.394
322.45	6.414
322.81	7.491
323.18	6.903
323.54	6.466
323.91	7.740
324.27	6.713
324.64	7.473
325.00	6.716
325.37	7.944
325.73	7.934
326.10	7.299
326.46	8.143
326.83	8.167
327.19	7.008
327.56	6.403
327.92	6.609
328.29	7.097
328.65	6.616
329.01	6.261
329.38	7.414
329.74	7.705
330.11	7.962
330.47	7.919
330.84	6.804
331.20	8.083
331.56	6.412
331.93	7.615
332.29	7.458
332.66	7.807
333.02	7.454
333.38	7.215
333.75	6.229
334.11	6.922
334.48	6.683
334.84	8.921
335.20	6.633
335.57	7.083
335.93	7.190
336.29	6.240
336.66	8.074
337.02	7.692
337.38	7.568
337.75	6.364
338.11	7.401
338.47	7.527
338.84	6.176
339.20	6.740
339.56	7.578
339.93	7.718
340.29	8.213
340.65	6.488
341.02	8.061
341.38	7.437
341.74	5.973
342.11	6.838
342.47	6.751
342.83	7.246
343.20	6.787
343.56	7.217
343.92	6.886
344.28	7.422
344.65	7.597
345.01	7.566
345.37	7.698
345.73	6.859
346.10	7.254
346.46	6.725
346.82	7.266
347.19	7.257
347.55	7.967
347.91	7.355
348.27	6.829
348.63	6.550
349.00	5.667
349.36	8.030
349.72	7.440
350.08	8.098
350.45	6.464
350.81	7.617
351.17	7.218
351.53	7.961
351.89	7.821
352.26	7.463
352.62	6.493
352.98	6.489
353.34	6.199
353.70	6.086
354.07	7.601
354.43	6.834
354.79	6.806
355.15	7.211
355.51	7.895
355.87	6.731
356.24	7.148
356.60	7.243
356.96	6.301
357.32	6.840
357.68	5.857
358.04	6.886
358.40	6.269
358.77	6.871
359.13	6.573
359.49	6.097
359.85	6.744
360.21	7.461
360.57	7.179
360.93	7.405
361.29	6.807
361.66	6.083
362.02	7.376
362.38	6.395
362.74	6.913
363.10	8.322
363.46	6.787
363.82	6.676
364.18	6.474
364.54	7.746
364.90	6.689
365.26	5.586
365.62	7.400
365.98	7.420
366.35	7.517
366.71	7.823
367.07	7.442
367.43	7.682
367.79	6.901
368.15	7.090
368.51	7.510
368.87	7.446
369.23	6.800
369.59	6.831
369.95	7.573
370.31	7.157
370.67	6.740
371.03	7.064
371.39	6.649
371.75	7.290
372.11	6.911
372.47	6.906
372.83	8.312
373.19	7.272
373.55	6.572
373.91	5.862
374.27	6.662
374.63	6.969
374.99	6.631
375.35	8.182
375.71	7.032
376.07	7.553
376.42	7.431
376.78	7.707
377.14	7.548
377.50	6.705
377.86	7.451
378.22	7.725
378.58	7.669
378.94	7.923
379.30	7.440
379.66	7.701
380.02	7.501
380.38	7.546
380.74	7.380
381.09	7.724
381.45	7.670
381.81	7.319
382.17	7.423
382.53	7.953
382.89	7.562
383.25	7.444
383.61	7.060
383.97	7.067
384.32	8.194
384.68	6.787
385.04	8.039
385.40	7.896
385.76	7.737
386.12	7.062
386.48	7.765
386.83	7.628
387.19	7.879
387.55	7.864
387.91	6.393
388.27	8.025
388.62	8.648
388.98	7.332
389.34	8.191
389.70	8.019
390.06	7.697
390.42	7.470
390.77	8.429
391.13	7.746
391.49	7.488
391.85	7.697
392.20	8.244
392.56	8.506
392.92	8.124
393.28	8.402
393.64	7.598
393.99	7.844
394.35	7.652
394.71	8.503
395.07	6.886
395.42	7.596
395.78	7.861
396.14	8.081
396.50	7.660
396.85	7.454
397.21	7.811
397.57	8.186
397.92	8.591
398.28	7.007
398.64	7.952
399.00	8.063
399.35	8.115
399.71	6.957
400.07	7.917
400.42	8.207
400.78	7.292
401.14	8.480
401.49	8.471
401.85	7.558
402.21	7.995
402.57	8.099
402.92	8.097
403.28	7.728
403.63	7.100
403.99	7.185
404.35	7.675
404.70	7.535
405.06	7.500
405.42	7.201
405.77	8.179
406.13	7.834
406.49	7.601
406.84	7.701
407.20	7.714
407.55	6.723
407.91	6.788
408.27	7.126
408.62	7.446
408.98	7.545
409.34	6.979
409.69	7.478
410.05	7.855
410.40	7.889
410.76	7.459
411.11	8.065
411.47	7.801
411.83	7.995
412.18	7.892
412.54	7.528
412.89	7.974
413.25	7.731
413.60	7.582
413.96	8.392
414.31	7.649
414.67	7.752
415.03	6.954
415.38	7.818
415.74	8.002
416.09	8.328
416.45	7.326
416.80	7.099
417.16	7.471
417.51	7.970
417.87	7.725
418.22	7.665
418.58	7.807
418.93	7.974
419.29	7.707
419.64	7.623
420.00	7.062
420.35	7.524
420.71	7.639
421.06	6.555
421.42	7.798
421.77	7.916
422.12	8.668
422.48	7.424
422.83	7.886
423.19	7.958
423.54	7.965
423.90	8.007
424.25	8.000
424.61	7.118
424.96	7.688
425.31	8.333
425.67	7.837
426.02	8.744
426.38	8.037
426.73	7.924
427.09	8.420
427.44	7.646
427.79	7.573
428.15	7.249
428.50	7.809
428.85	7.405
429.21	8.351
429.56	7.749
429.92	8.108
430.27	8.096
430.62	7.767
430.98	7.919
431.33	7.674
431.68	7.950
432.04	7.770
432.39	8.249
432.74	7.648
433.10	7.896
433.45	7.971
433.80	7.457
434.16	7.748
434.51	7.914
434.86	7.980
435.22	8.183
435.57	7.901
435.92	7.624
436.28	7.793
436.63	7.974
436.98	7.461
437.34	7.666
437.69	7.925
438.04	8.250
438.39	8.041
438.75	7.914
439.10	8.298
439.45	8.049
439.81	7.853
440.16	7.721
440.51	8.194
440.86	8.116
441.22	7.824
441.57	7.547
441.92	8.341
442.27	7.929
442.63	8.197
442.98	7.951
443.33	8.259
443.68	8.722
444.03	8.796
444.39	8.091
444.74	8.116
445.09	7.907
445.44	8.272
445.79	8.238
446.15	7.657
446.50	8.320
446.85	8.463
447.20	8.414
447.55	8.368
447.91	7.801
448.26	8.245
448.61	8.608
448.96	9.120
449.31	8.059
449.66	7.190
450.02	8.175
450.37	8.524
450.72	8.396
451.07	7.802
451.42	8.030
451.77	7.893
452.12	8.465
452.47	8.021
452.83	7.827
453.18	7.706
453.53	7.122
453.88	8.172
454.23	7.966
454.58	8.125
454.93	8.313
455.28	8.489
455.63	8.073
455.98	7.989
456.34	7.538
456.69	7.995
457.04	7.801
457.39	7.761
457.74	8.557
458.09	7.963
458.44	8.567
458.79	7.891
459.14	7.971
459.49	8.093
459.84	8.762
460.19	7.440
460.54	8.575
460.89	8.576
461.24	8.161
461.59	8.246
461.94	6.959
462.29	8.063
462.64	7.966
462.99	7.910
463.34	7.657
463.69	8.441
464.04	8.227
464.39	8.072
464.74	8.039
465.09	8.074
465.44	7.779
465.79	8.620
466.14	8.702
466.49	8.737
466.84	8.209
467.19	7.630
467.54	7.462
467.89	8.621
468.24	7.922
468.59	7.470
468.94	7.634
469.29	7.558
469.64	7.184
469.99	8.349
470.34	8.601
470.68	7.997
471.03	8.448
471.38	7.129
471.73	7.672
472.08	7.678
472.43	7.586
472.78	8.249
473.13	7.332
473.48	7.976
473.83	8.009
474.17	8.206
474.52	8.118
474.87	8.140
475.22	8.225
475.57	8.100
475.92	8.213
476.27	8.307
476.61	8.307
476.96	8.394
477.31	8.267
477.66	8.395
478.01	8.134
478.36	8.475
478.70	8.177
479.05	8.282
479.40	7.651
479.75	8.501
480.10	8.100
480.45	9.025
480.79	8.662
481.14	8.134
481.49	8.087
481.84	8.181
482.19	8.516
482.53	8.483
482.88	8.551
483.23	7.915
483.58	7.904
483.92	7.624
484.27	8.298
484.62	8.251
484.97	8.593
485.31	8.201
485.66	7.723
486.01	7.904
486.36	8.373
486.70	8.863
487.05	9.330
487.40	8.753
487.75	9.109
488.09	8.876
488.44	8.046
488.79	8.600
489.13	8.219
489.48	8.078
489.83	8.048
490.17	8.424
490.52	8.785
490.87	8.503
491.22	7.929
491.56	8.575
491.91	8.155
492.26	8.481
492.60	8.002
492.95	8.556
493.30	8.337
493.64	8.279
493.99	8.465
494.34	8.145
494.68	8.009
495.03	8.414
495.37	8.478
495.72	8.753
496.07	8.720
496.41	7.979
496.76	8.382
497.11	8.238
497.45	7.984
497.80	8.618
498.14	8.254
498.49	8.548
498.84	8.455
499.18	8.637
499.53	8.700
499.87	8.527
500.22	7.569
500.56	8.367
500.91	7.826
501.26	8.545
501.60	8.838
501.95	8.684
502.29	8.118
502.64	8.614
502.98	8.628
503.33	7.948
503.67	8.330
504.02	8.319
504.36	8.668
504.71	8.498
505.06	8.640
505.40	8.684
505.75	8.561
506.09	8.978
506.44	8.960
506.78	9.404
507.13	8.714
507.47	8.148
507.82	8.570
508.16	7.839
508.51	8.158
508.85	8.503
509.19	8.148
509.54	8.694
509.88	8.888
510.23	8.742
510.57	9.087
510.92	8.370
511.26	8.466
511.61	7.677
511.95	8.443
512.30	9.060
512.64	7.996
512.98	8.554
513.33	8.165
513.67	8.159
514.02	8.636
514.36	9.258
514.70	8.490
515.05	8.811
515.39	8.609
515.74	9.438
516.08	8.769
516.42	9.053
516.77	9.043
517.11	8.664
517.46	8.378
517.80	9.300
518.14	8.651
518.49	8.948
518.83	8.302
519.17	8.347
519.52	9.224
519.86	9.029
520.20	8.733
520.55	8.543
520.89	7.883
521.23	8.989
521.58	9.096
521.92	8.669
522.26	9.107
522.61	7.523
522.95	8.478
523.29	8.736
523.64	8.464
523.98	8.785
524.32	9.971
524.66	8.765
525.01	9.287
525.35	8.329
525.69	8.121
526.04	9.070
526.38	9.195
526.72	8.824
527.06	8.915
527.41	9.155
527.75	9.204
528.09	8.737
528.43	9.355
528.78	8.497
529.12	9.060
529.46	7.982
529.80	8.581
530.15	9.043
530.49	7.888
530.83	8.973
531.17	8.901
531.51	8.424
531.86	8.954
532.20	8.659
532.54	8.438
532.88	8.606
533.22	9.075
533.57	9.406
533.91	9.596
534.25	8.875
534.59	8.161
534.93	7.866
535.27	8.789
535.62	9.494
535.96	8.774
536.30	8.813
536.64	9.730
536.98	9.471
537.32	8.765
537.66	8.983
538.01	8.520
538.35	8.587
538.69	8.654
539.03	8.952
539.37	8.598
539.71	8.649
540.05	8.933
540.39	8.924
540.73	7.468
541.07	9.135
541.42	8.269
541.76	9.134
542.10	8.685
542.44	7.734
542.78	8.516
543.12	9.237
543.46	8.547
543.80	7.674
544.14	8.199
544.48	8.688
544.82	8.977
545.16	8.885
545.50	9.347
545.84	8.451
546.18	8.765
546.52	8.471
546.86	9.623
547.20	8.397
547.54	8.240
547.88	8.921
548.22	9.064
548.56	8.543
548.90	9.672
549.24	9.179
549.58	8.959
549.92	8.418
550.26	9.515
550.60	7.658
550.94	9.185
551.28	8.581
551.62	9.501
551.96	8.803
552.30	9.688
552.64	9.459
552.98	8.609
553.32	8.682
553.66	7.846
554.00	9.647
554.34	8.559
554.68	8.328
555.02	8.870
555.36	8.941
555.69	7.816
556.03	8.764
556.37	9.387
556.71	9.195
557.05	9.393
557.39	7.963
557.73	8.719
558.07	8.543
558.41	9.302
558.75	8.790
559.08	8.907
559.42	8.779
559.76	9.091
560.10	9.109
560.44	8.971
560.78	9.125
561.12	8.436
561.45	9.428
561.79	9.341
562.13	9.057
562.47	9.679
562.81	8.038
563.15	8.712
563.48	8.452
563.82	8.585
564.16	8.480
564.50	8.939
564.84	8.496
565.17	8.941
565.51	9.033
565.85	8.135
566.19	8.295
566.52	8.250
566.86	9.451
567.20	8.700
567.54	8.816
567.88	8.767
568.21	8.992
568.55	9.400
568.89	8.942
569.23	8.787
569.56	8.832
569.90	8.874
570.24	8.735
570.57	8.788
570.91	8.726
571.25	8.881
571.59	9.157
571.92	8.742
572.26	8.947
572.60	8.900
572.93	8.934
573.27	9.076
573.61	9.185
573.95	8.958
574.28	8.947
574.62	8.572
574.96	8.381
575.29	9.099
575.63	8.663
575.97	8.862
576.30	8.660
576.64	8.661
576.98	8.975
577.31	8.936
577.65	8.605
577.98	8.810
578.32	8.605
578.66	9.046
578.99	8.765
579.33	8.871
579.67	8.976
580.00	8.609
580.34	9.119
580.67	8.650
581.01	9.022
581.35	8.728
581.68	8.660
582.02	9.251
582.35	9.224
582.69	8.963
583.02	9.232
583.36	9.016
583.70	8.862
584.03	8.735
584.37	8.961
584.70	8.435
585.04	8.626
585.37	8.749
585.71	8.954
586.04	8.807
586.38	8.983
586.72	8.824
587.05	8.519
587.39	8.651
587.72	8.900
588.06	9.091
588.39	9.012
588.73	8.492
589.06	8.747
589.40	8.820
589.73	8.901
590.07	8.753
590.40	9.026
590.73	8.731
591.07	8.675
591.40	8.515
591.74	8.983
592.07	9.622
592.41	8.360
592.74	9.017
593.08	9.013
593.41	9.303
593.75	8.879
594.08	8.967
594.41	9.103
594.75	8.867
595.08	8.345
595.42	8.701
595.75	8.654
596.09	8.878
596.42	8.707
596.75	8.877
597.09	9.293
597.42	8.899
597.75	8.389
598.09	9.246
598.42	9.570
598.76	7.910
599.09	9.185
599.42	8.783
599.76	9.013
600.09	9.076
600.42	8.876
600.76	9.181
601.09	8.563
601.42	8.617
601.76	8.966
602.09	8.578
602.42	8.433
602.76	9.225
603.09	8.847
603.42	8.923
603.76	8.562
604.09	9.084
604.42	9.064
604.76	8.942
605.09	8.416
605.42	8.174
605.75	8.577
606.09	9.033
606.42	8.537
606.75	8.058
607.09	8.333
607.42	8.863
607.75	8.636
608.08	8.485
608.42	8.464
608.75	8.831
609.08	8.277
609.41	8.249
609.75	8.393
610.08	8.883
610.41	8.624
610.74	8.067
611.07	8.748
611.41	8.789
611.74	8.730
612.07	8.929
612.40	8.127
612.73	8.704
613.07	8.900
613.40	8.758
613.73	8.618
614.06	8.734
614.39	8.455
614.72	8.200
615.06	8.422
615.39	8.507
615.72	9.147
616.05	8.548
616.38	9.485
616.71	8.203
617.05	7.881
617.38	9.256
617.71	8.801
618.04	8.581
618.37	7.814
618.70	8.428
619.03	8.065
619.36	8.200
619.69	8.200
620.03	8.851
620.36	8.957
620.69	8.205
621.02	9.055
621.35	8.781
621.68	7.448
622.01	8.327
622.34	7.601
622.67	8.385
623.00	6.613
623.33	8.825
623.66	8.301
623.99	8.163
624.32	8.512
624.65	7.979
624.99	8.648
625.32	8.948
625.65	8.901
625.98	8.814
626.31	8.150
626.64	8.205
626.97	7.202
627.30	7.062
627.63	8.402
627.96	9.535
628.29	9.027
628.62	6.969
628.95	9.027
629.28	6.882
629.61	8.502
629.94	8.033
630.26	6.780
630.59	7.599
630.92	7.792
631.25	8.318
631.58	7.910
631.91	7.873
632.24	7.973
632.57	8.159
632.90	7.222
633.23	7.449
633.56	7.857
633.89	6.302
634.22	7.173
634.55	7.724
634.88	7.143
635.20	8.396
635.53	9.040
635.86	8.017
636.19	8.484
636.52	7.911
636.85	7.661
637.18	7.588
637.51	7.849
637.83	8.416
638.16	7.373
638.49	7.746
638.82	7.328
639.15	7.331
639.48	8.891
639.81	7.044
640.13	8.363
640.46	6.061
640.79	5.147
641.12	8.323
641.45	7.528
641.77	9.756
642.10	7.480
642.43	6.782
642.76	6.911
643.09	5.753
643.41	6.022
643.74	6.207
644.07	8.690
644.40	7.214
644.73	8.273
645.05	5.286
645.38	8.345
645.71	7.038
646.04	8.608
646.36	6.861
646.69	7.975
647.02	7.645
647.35	7.481
647.67	6.119
648.00	8.121
648.33	7.207
648.66	6.705
648.98	7.347
649.31	7.172
649.64	7.570
649.96	7.825
650.29	6.954
650.62	7.921
650.94	6.156
651.27	4.641
651.60	6.725
651.92	6.079
652.25	7.959
652.58	6.465
652.90	5.233
653.23	9.014
653.56	7.275
653.88	9.129
654.21	6.479
654.54	7.081
654.86	7.082
655.19	7.403
655.52	7.023
655.84	8.528
