SpectraSuite Data File
++++++++++++++++++++++++++++++++++++
Date: Thu May 14 14:51:30 PDT 2015
User: schluterlab
Dark Spectrum Present: Yes
Reference Spectrum Present: Yes
Number of Sampled Component Spectra: 1
Spectrometers: USB2E3373
Integration Time (usec): 3000 (USB2E3373)
Spectra Averaged: 3 (USB2E3373)
Boxcar Smoothing: 0 (USB2E3373)
Correct for Electrical Dark: No (USB2E3373)
Strobe/Lamp Enabled: No (USB2E3373)
Correct for Detector Non-linearity: No (USB2E3373)
Correct for Stray Light: No (USB2E3373)
Number of Pixels in Processed Spectrum: 2048
>>>>>Begin Processed Spectral Data<<<<<
178.53	0.000
178.91	200.000
179.29	-2500.000
179.67	-900.000
180.04	150.000
180.42	140.000
180.80	40.000
181.18	-700.000
181.56	-700.000
181.94	175.000
182.31	-250.000
182.69	266.667
183.07	150.000
183.45	300.000
183.83	-100.000
184.20	-200.000
184.58	500.000
184.96	-225.000
185.34	-66.667
185.72	60.000
186.09	144.444
186.47	450.000
186.85	400.000
187.23	-133.333
187.61	-1800.000
187.98	120.000
188.36	200.000
188.74	-25.000
189.12	-133.333
189.49	0.000
189.87	-212.500
190.25	-11.111
190.63	-20.000
191.00	-111.111
191.38	0.000
191.76	-75.000
192.14	-216.667
192.51	500.000
192.89	-50.000
193.27	0.000
193.65	-85.714
194.02	-900.000
194.40	-128.571
194.78	114.286
195.15	0.000
195.53	-36.364
195.91	0.000
196.29	-300.000
196.66	-92.308
197.04	-1800.000
197.42	-157.143
197.79	-300.000
198.17	12.500
198.55	-157.143
198.92	-88.889
199.30	-262.500
199.68	-36.364
200.05	-78.571
200.43	-500.000
200.81	142.857
201.18	0.000
201.56	244.444
201.94	0.000
202.31	666.667
202.69	-44.444
203.07	800.000
203.44	-33.333
203.82	-450.000
204.19	-16.667
204.57	-83.333
204.95	-137.500
205.32	-1800.000
205.70	200.000
206.08	-116.667
206.45	-50.000
206.83	420.000
207.20	-133.333
207.58	-200.000
207.96	-266.667
208.33	-33.333
208.71	83.333
209.08	-16.667
209.46	0.000
209.84	366.667
210.21	50.000
210.59	450.000
210.96	333.333
211.34	-50.000
211.71	-162.500
212.09	-700.000
212.46	0.000
212.84	900.000
213.22	-260.000
213.59	-225.000
213.97	-130.000
214.34	-366.667
214.72	200.000
215.09	-325.000
215.47	0.000
215.84	171.429
216.22	1250.000
216.59	-360.000
216.97	-140.000
217.34	-250.000
217.72	-150.000
218.09	-425.000
218.47	-350.000
218.84	0.000
219.22	140.000
219.59	-11.765
219.97	10.000
220.34	750.000
220.72	-122.222
221.09	-15.385
221.47	-300.000
221.84	-50.000
222.22	-200.000
222.59	0.000
222.97	37.500
223.34	-220.000
223.72	-900.000
224.09	25.000
224.46	-50.000
224.84	40.000
225.21	-157.143
225.59	-400.000
225.96	-100.000
226.34	0.000
226.71	300.000
227.08	-350.000
227.46	-80.000
227.83	-325.000
228.21	5.263
228.58	187.500
228.95	600.000
229.33	-100.000
229.70	-140.000
230.08	15.789
230.45	140.000
230.82	-133.333
231.20	-42.857
231.57	-25.000
231.95	-63.636
232.32	0.000
232.69	35.000
233.07	-375.000
233.44	17.647
233.81	-60.000
234.19	38.889
234.56	-22.727
234.93	3.448
235.31	-73.684
235.68	-100.000
236.05	-75.000
236.43	3.846
236.80	20.000
237.17	3.704
237.55	9.091
237.92	-130.000
238.29	-45.161
238.67	0.000
239.04	13.889
239.41	-16.667
239.79	-6.522
240.16	-5.556
240.53	-13.043
240.91	-13.725
241.28	-11.475
241.65	14.925
242.02	6.757
242.40	-4.615
242.77	4.000
243.14	0.000
243.51	-2.632
243.89	1.282
244.26	1.980
244.63	0.000
245.00	6.542
245.38	0.877
245.75	-4.425
246.12	7.143
246.49	2.326
246.87	5.000
247.24	5.960
247.61	12.500
247.98	8.725
248.36	6.173
248.73	3.067
249.10	8.743
249.47	11.443
249.84	12.565
250.22	6.218
250.59	9.444
250.96	13.182
251.33	4.592
251.70	10.256
252.08	10.000
252.45	9.016
252.82	4.545
253.19	7.031
253.56	10.266
253.94	6.154
254.31	12.121
254.68	11.888
255.05	12.704
255.42	7.483
255.79	8.414
256.16	10.265
256.54	8.940
256.91	12.459
257.28	10.164
257.65	7.006
258.02	7.965
258.39	7.977
258.76	10.703
259.14	12.356
259.51	10.663
259.88	10.198
260.25	8.889
260.62	11.781
260.99	14.208
261.36	14.745
261.73	9.814
262.10	10.440
262.47	12.332
262.85	13.131
263.22	7.792
263.59	6.316
263.96	10.997
264.33	7.161
264.70	12.099
265.07	11.217
265.44	14.512
265.81	10.417
266.18	15.873
266.55	11.161
266.92	10.023
267.29	14.442
267.66	11.308
268.03	9.389
268.40	10.647
268.77	8.884
269.14	7.709
269.51	11.404
269.88	12.500
270.25	12.877
270.62	11.181
270.99	11.919
271.36	12.673
271.73	12.770
272.10	13.226
272.47	11.222
272.84	10.040
273.21	11.222
273.58	10.685
273.95	10.192
274.32	10.456
274.69	9.865
275.06	11.172
275.43	9.612
275.80	12.169
276.17	10.556
276.54	11.381
276.91	10.555
277.28	10.669
277.65	10.233
278.02	11.397
278.39	11.051
278.76	10.193
279.13	10.284
279.50	11.168
279.87	11.270
280.23	9.507
280.60	11.356
280.97	12.171
281.34	9.508
281.71	11.337
282.08	11.628
282.45	9.002
282.82	10.989
283.19	8.401
283.56	10.984
283.92	12.162
284.29	12.006
284.66	11.823
285.03	8.814
285.40	10.665
285.77	10.217
286.14	10.687
286.51	10.959
286.87	9.953
287.24	11.898
287.61	10.015
287.98	10.423
288.35	9.467
288.72	10.947
289.08	10.835
289.45	9.763
289.82	8.133
290.19	10.489
290.56	9.296
290.93	9.415
291.29	10.193
291.66	9.504
292.03	9.634
292.40	9.524
292.77	9.299
293.13	9.743
293.50	10.250
293.87	8.859
294.24	10.133
294.60	10.114
294.97	7.383
295.34	10.755
295.71	7.945
296.08	8.269
296.44	7.966
296.81	9.257
297.18	7.846
297.55	6.604
297.91	8.778
298.28	7.820
298.65	8.442
299.02	8.264
299.38	9.611
299.75	8.061
300.12	8.796
300.48	7.719
300.85	8.549
301.22	10.179
301.59	7.078
301.95	8.136
302.32	9.333
302.69	8.434
303.05	8.052
303.42	7.761
303.79	8.646
304.15	7.781
304.52	8.351
304.89	8.168
305.25	9.006
305.62	8.046
305.99	9.175
306.35	7.056
306.72	8.893
307.09	7.513
307.45	8.696
307.82	7.669
308.19	7.568
308.55	8.679
308.92	7.595
309.29	8.812
309.65	6.920
310.02	7.327
310.38	7.579
310.75	8.544
311.12	8.245
311.48	7.331
311.85	6.553
312.22	9.108
312.58	7.606
312.95	6.883
313.31	9.304
313.68	9.432
314.05	8.220
314.41	9.107
314.78	8.447
315.14	8.348
315.51	8.033
315.87	8.101
316.24	8.493
316.61	9.059
316.97	7.783
317.34	7.760
317.70	8.210
318.07	7.672
318.43	8.078
318.80	9.532
319.16	7.554
319.53	6.170
319.89	7.274
320.26	7.473
320.62	7.713
320.99	8.310
321.35	7.579
321.72	8.651
322.08	7.665
322.45	8.491
322.81	7.762
323.18	7.434
323.54	7.586
323.91	8.452
324.27	8.176
324.64	8.984
325.00	8.541
325.37	8.518
325.73	8.264
326.10	8.110
326.46	9.039
326.83	8.247
327.19	8.661
327.56	9.249
327.92	8.104
328.29	8.871
328.65	8.040
329.01	8.037
329.38	9.099
329.74	8.390
330.11	9.075
330.47	9.183
330.84	8.613
331.20	9.417
331.56	9.185
331.93	9.372
332.29	8.729
332.66	9.136
333.02	7.705
333.38	8.473
333.75	8.418
334.11	8.757
334.48	9.158
334.84	9.261
335.20	7.641
335.57	9.106
335.93	9.256
336.29	8.486
336.66	8.326
337.02	8.445
337.38	9.609
337.75	8.182
338.11	8.579
338.47	8.933
338.84	8.714
339.20	8.088
339.56	9.308
339.93	8.539
340.29	8.615
340.65	8.354
341.02	9.816
341.38	8.812
341.74	7.748
342.11	8.769
342.47	7.705
342.83	8.776
343.20	9.321
343.56	9.222
343.92	8.327
344.28	9.062
344.65	8.837
345.01	9.204
345.37	8.942
345.73	8.418
346.10	8.892
346.46	8.544
346.82	8.914
347.19	8.480
347.55	8.725
347.91	8.544
348.27	8.877
348.63	8.606
349.00	7.979
349.36	8.104
349.72	7.738
350.08	8.544
350.45	7.681
350.81	8.220
351.17	8.496
351.53	9.401
351.89	8.352
352.26	7.612
352.62	7.239
352.98	8.092
353.34	8.514
353.70	7.319
354.07	8.644
354.43	8.200
354.79	8.003
355.15	8.756
355.51	8.772
355.87	7.853
356.24	8.137
356.60	8.056
356.96	8.080
357.32	7.435
357.68	7.906
358.04	8.009
358.40	7.388
358.77	8.772
359.13	6.942
359.49	7.138
359.85	8.194
360.21	7.819
360.57	7.968
360.93	7.969
361.29	8.421
361.66	7.603
362.02	8.768
362.38	8.363
362.74	7.751
363.10	7.634
363.46	7.687
363.82	7.812
364.18	7.178
364.54	8.160
364.90	7.559
365.26	8.207
365.62	8.400
365.98	7.760
366.35	7.852
366.71	7.279
367.07	8.051
367.43	8.339
367.79	8.162
368.15	8.294
368.51	7.713
368.87	8.752
369.23	7.733
369.59	7.650
369.95	8.722
370.31	8.170
370.67	7.978
371.03	7.964
371.39	8.193
371.75	7.840
372.11	8.062
372.47	7.989
372.83	8.770
373.19	7.738
373.55	7.046
373.91	7.362
374.27	8.409
374.63	7.848
374.99	8.024
375.35	8.766
375.71	7.806
376.07	8.586
376.42	8.501
376.78	8.825
377.14	8.110
377.50	7.843
377.86	8.867
378.22	7.964
378.58	8.323
378.94	8.392
379.30	8.377
379.66	8.054
380.02	8.309
380.38	7.488
380.74	8.901
381.09	8.304
381.45	7.784
381.81	8.724
382.17	9.145
382.53	8.363
382.89	8.973
383.25	8.089
383.61	7.986
383.97	7.479
384.32	8.433
384.68	6.961
385.04	8.907
385.40	8.191
385.76	8.617
386.12	8.079
386.48	9.353
386.83	8.403
387.19	7.879
387.55	7.688
387.91	7.820
388.27	8.083
388.62	8.477
388.98	8.178
389.34	8.368
389.70	8.135
390.06	8.822
390.42	8.735
390.77	8.910
391.13	8.744
391.49	8.696
391.85	8.545
392.20	9.015
392.56	9.628
392.92	8.724
393.28	9.232
393.64	8.324
393.99	8.600
394.35	9.346
394.71	9.940
395.07	7.844
395.42	8.852
395.78	9.324
396.14	8.972
396.50	8.551
396.85	8.766
397.21	9.349
397.57	8.422
397.92	8.706
398.28	8.474
398.64	8.124
399.00	8.482
399.35	8.848
399.71	8.533
400.07	8.871
400.42	9.371
400.78	8.507
401.14	8.993
401.49	8.414
401.85	8.198
402.21	9.038
402.57	8.509
402.92	9.397
403.28	7.845
403.63	7.637
403.99	8.135
404.35	8.414
404.70	9.065
405.06	7.935
405.42	9.075
405.77	8.561
406.13	8.914
406.49	9.122
406.84	8.753
407.20	8.944
407.55	8.480
407.91	8.360
408.27	8.716
408.62	8.959
408.98	9.170
409.34	8.035
409.69	9.271
410.05	8.968
410.40	9.223
410.76	8.188
411.11	9.293
411.47	9.459
411.83	9.289
412.18	8.735
412.54	8.951
412.89	9.255
413.25	9.763
413.60	7.926
413.96	9.033
414.31	8.782
414.67	9.243
415.03	8.738
415.38	9.016
415.74	8.430
416.09	9.130
416.45	8.328
416.80	8.262
417.16	8.557
417.51	9.963
417.87	8.645
418.22	8.802
418.58	8.612
418.93	9.430
419.29	9.001
419.64	8.523
420.00	8.961
420.35	9.208
420.71	8.960
421.06	8.741
421.42	8.888
421.77	8.562
422.12	9.144
422.48	8.909
422.83	9.748
423.19	9.337
423.54	8.850
423.90	9.277
424.25	9.120
424.61	8.324
424.96	8.896
425.31	9.713
425.67	8.696
426.02	9.242
426.38	8.381
426.73	8.650
427.09	9.285
427.44	9.448
427.79	8.845
428.15	8.333
428.50	9.157
428.85	8.783
429.21	9.681
429.56	8.687
429.92	9.140
430.27	8.867
430.62	8.745
430.98	9.395
431.33	9.189
431.68	8.669
432.04	9.142
432.39	9.106
432.74	9.018
433.10	9.302
433.45	8.640
433.80	9.335
434.16	8.936
434.51	9.198
434.86	9.446
435.22	9.405
435.57	9.847
435.92	9.071
436.28	8.874
436.63	8.465
436.98	9.179
437.34	9.414
437.69	8.916
438.04	9.413
438.39	8.501
438.75	9.076
439.10	10.042
439.45	10.006
439.81	8.870
440.16	9.491
440.51	9.309
440.86	8.560
441.22	9.325
441.57	8.962
441.92	9.554
442.27	9.293
442.63	9.339
442.98	9.819
443.33	9.258
443.68	9.663
444.03	9.737
444.39	10.032
444.74	10.056
445.09	9.123
445.44	9.273
445.79	10.345
446.15	9.404
446.50	8.941
446.85	9.874
447.20	9.623
447.55	9.257
447.91	9.215
448.26	9.197
448.61	8.767
448.96	9.871
449.31	9.385
449.66	8.606
450.02	9.335
450.37	10.336
450.72	8.719
451.07	9.567
451.42	8.608
451.77	8.616
452.12	9.029
452.47	9.031
452.83	8.953
453.18	9.574
453.53	8.558
453.88	9.608
454.23	9.548
454.58	9.518
454.93	8.859
455.28	9.392
455.63	9.608
455.98	8.939
456.34	9.305
456.69	9.230
457.04	8.806
457.39	9.035
457.74	9.172
458.09	9.006
458.44	9.375
458.79	10.005
459.14	9.911
459.49	8.942
459.84	9.654
460.19	8.828
460.54	9.256
460.89	9.052
461.24	9.195
461.59	9.076
461.94	8.956
462.29	9.630
462.64	9.475
462.99	9.353
463.34	9.669
463.69	8.675
464.04	9.783
464.39	9.137
464.74	9.464
465.09	9.458
465.44	9.764
465.79	9.201
466.14	8.859
466.49	9.158
466.84	9.421
467.19	9.422
467.54	8.696
467.89	9.425
468.24	9.529
468.59	8.917
468.94	8.392
469.29	8.638
469.64	8.709
469.99	9.178
470.34	8.911
470.68	9.159
471.03	9.692
471.38	9.287
471.73	8.322
472.08	9.137
472.43	9.392
472.78	9.257
473.13	8.913
473.48	9.486
473.83	9.808
474.17	9.613
474.52	9.561
474.87	9.413
475.22	9.014
475.57	9.450
475.92	9.408
476.27	9.798
476.61	8.982
476.96	8.811
477.31	9.455
477.66	9.024
478.01	8.948
478.36	9.422
478.70	9.015
479.05	9.969
479.40	9.773
479.75	9.894
480.10	9.237
480.45	9.936
480.79	10.023
481.14	9.605
481.49	9.314
481.84	9.617
482.19	9.333
482.53	10.407
482.88	9.925
483.23	9.249
483.58	8.952
483.92	8.821
484.27	9.060
484.62	9.406
484.97	9.759
485.31	9.468
485.66	9.236
486.01	9.086
486.36	9.169
486.70	9.907
487.05	9.945
487.40	9.450
487.75	10.102
488.09	9.975
488.44	10.142
488.79	9.916
489.13	9.124
489.48	9.126
489.83	9.014
490.17	8.910
490.52	9.483
490.87	8.672
491.22	9.749
491.56	8.959
491.91	9.289
492.26	9.433
492.60	9.445
492.95	9.829
493.30	9.144
493.64	9.593
493.99	9.649
494.34	9.146
494.68	9.465
495.03	9.559
495.37	9.454
495.72	9.297
496.07	9.509
496.41	9.309
496.76	9.758
497.11	9.214
497.45	9.668
497.80	9.418
498.14	9.116
498.49	9.329
498.84	9.689
499.18	10.031
499.53	9.552
499.87	9.231
500.22	9.394
500.56	9.762
500.91	9.382
501.26	10.136
501.60	9.324
501.95	9.075
502.29	9.609
502.64	9.445
502.98	9.707
503.33	9.546
503.67	8.984
504.02	9.457
504.36	9.830
504.71	9.325
505.06	9.504
505.40	9.324
505.75	9.335
506.09	9.346
506.44	9.656
506.78	9.862
507.13	9.129
507.47	9.616
507.82	9.280
508.16	8.939
508.51	8.626
508.85	8.928
509.19	9.474
509.54	10.183
509.88	9.325
510.23	9.956
510.57	10.246
510.92	9.482
511.26	8.658
511.61	9.271
511.95	10.054
512.30	9.847
512.64	9.345
512.98	9.855
513.33	9.627
513.67	9.689
514.02	9.913
514.36	9.974
514.70	10.052
515.05	9.385
515.39	9.396
515.74	10.021
516.08	10.037
516.42	9.367
516.77	9.779
517.11	9.283
517.46	9.279
517.80	9.514
518.14	10.120
518.49	9.707
518.83	10.697
519.17	9.370
519.52	10.010
519.86	10.296
520.20	9.585
520.55	9.967
520.89	9.797
521.23	9.994
521.58	9.548
521.92	9.632
522.26	9.679
522.61	10.301
522.95	9.516
523.29	10.000
523.64	9.585
523.98	9.698
524.32	10.258
524.66	9.562
525.01	10.079
525.35	9.650
525.69	9.803
526.04	9.070
526.38	9.080
526.72	9.689
527.06	9.736
527.41	9.913
527.75	11.045
528.09	9.799
528.43	9.769
528.78	8.960
529.12	9.346
529.46	10.343
529.80	10.126
530.15	9.855
530.49	9.193
530.83	10.094
531.17	9.737
531.51	10.048
531.86	10.397
532.20	10.000
532.54	10.413
532.88	9.818
533.22	10.018
533.57	10.791
533.91	10.157
534.25	10.288
534.59	10.287
534.93	9.791
535.27	9.915
535.62	10.233
535.96	10.285
536.30	9.753
536.64	9.610
536.98	10.640
537.32	10.123
537.66	10.917
538.01	9.728
538.35	9.622
538.69	10.096
539.03	10.730
539.37	10.424
539.71	10.330
540.05	9.952
540.39	9.597
540.73	10.443
541.07	11.159
541.42	9.451
541.76	9.253
542.10	9.831
542.44	9.196
542.78	10.584
543.12	10.191
543.46	10.623
543.80	9.772
544.14	10.592
544.48	10.934
544.82	10.353
545.16	10.376
545.50	10.725
545.84	10.472
546.18	10.864
546.52	10.510
546.86	9.937
547.20	9.669
547.54	10.549
547.88	10.006
548.22	10.468
548.56	10.240
548.90	10.627
549.24	10.760
549.58	9.842
549.92	10.587
550.26	10.421
550.60	10.657
550.94	10.479
551.28	10.165
551.62	10.512
551.96	10.874
552.30	11.090
552.64	10.952
552.98	11.042
553.32	9.518
553.66	10.096
554.00	11.160
554.34	10.425
554.68	10.652
555.02	10.250
555.36	10.782
555.69	10.698
556.03	10.404
556.37	10.826
556.71	10.019
557.05	10.671
557.39	10.484
557.73	10.106
558.07	9.801
558.41	10.963
558.75	10.007
559.08	11.413
559.42	9.945
559.76	11.669
560.10	11.186
560.44	10.686
560.78	10.688
561.12	10.406
561.45	11.375
561.79	10.867
562.13	11.522
562.47	9.679
562.81	10.759
563.15	10.227
563.48	10.255
563.82	11.427
564.16	10.176
564.50	10.846
564.84	10.560
565.17	10.941
565.51	10.299
565.85	11.045
566.19	10.081
566.52	10.474
566.86	10.922
567.20	10.223
567.54	10.196
567.88	10.449
568.21	10.721
568.55	10.887
568.89	11.076
569.23	10.984
569.56	10.785
569.90	11.262
570.24	10.725
570.57	10.969
570.91	10.808
571.25	10.703
571.59	10.827
571.92	10.928
572.26	11.091
572.60	10.920
572.93	10.687
573.27	10.874
573.61	10.588
573.95	10.876
574.28	10.652
574.62	10.732
574.96	10.719
575.29	10.817
575.63	10.973
575.97	10.874
576.30	10.609
576.64	10.618
576.98	10.729
577.31	10.753
577.65	10.957
577.98	10.712
578.32	10.756
578.66	10.667
578.99	10.915
579.33	10.894
579.67	10.607
580.00	10.766
580.34	10.842
580.67	10.944
581.01	10.796
581.35	10.734
581.68	10.648
582.02	11.140
582.35	11.033
582.69	11.410
583.02	10.914
583.36	10.885
583.70	10.975
584.03	11.015
584.37	10.738
584.70	11.027
585.04	10.904
585.37	10.627
585.71	10.939
586.04	10.810
586.38	10.933
586.72	10.629
587.05	10.565
587.39	10.870
587.72	10.766
588.06	10.759
588.39	11.078
588.73	10.952
589.06	11.230
589.40	11.063
589.73	11.183
590.07	10.942
590.40	11.089
590.73	10.746
591.07	10.908
591.40	10.420
591.74	10.652
592.07	11.328
592.41	10.844
592.74	10.614
593.08	11.019
593.41	11.549
593.75	10.920
594.08	10.603
594.41	11.282
594.75	10.428
595.08	10.532
595.42	11.071
595.75	10.785
596.09	11.081
596.42	10.928
596.75	11.270
597.09	10.909
597.42	11.323
597.75	10.780
598.09	10.675
598.42	11.138
598.76	11.043
599.09	10.929
599.42	10.660
599.76	10.697
600.09	10.544
600.42	10.844
600.76	11.229
601.09	10.720
601.42	10.745
601.76	10.793
602.09	10.972
602.42	10.796
602.76	10.849
603.09	10.793
603.42	11.127
603.76	10.359
604.09	11.143
604.42	11.009
604.76	10.578
605.09	10.850
605.42	10.885
605.75	10.846
606.09	10.190
606.42	10.215
606.75	10.682
607.09	10.330
607.42	11.368
607.75	10.746
608.08	10.734
608.42	10.560
608.75	11.194
609.08	10.611
609.41	10.675
609.75	10.402
610.08	10.950
610.41	10.365
610.74	10.630
611.07	10.524
611.41	11.435
611.74	10.901
612.07	10.192
612.40	10.409
612.73	11.198
613.07	10.562
613.40	10.780
613.73	10.448
614.06	11.433
614.39	10.690
614.72	10.383
615.06	10.106
615.39	10.778
615.72	10.284
616.05	9.908
616.38	10.949
616.71	11.285
617.05	10.011
617.38	11.343
617.71	10.529
618.04	11.117
618.37	11.202
618.70	10.860
619.03	10.633
619.36	10.419
619.69	10.186
620.03	10.923
620.36	10.123
620.69	9.315
621.02	10.039
621.35	10.740
621.68	11.352
622.01	10.391
622.34	9.763
622.67	10.103
623.00	9.379
623.33	10.153
623.66	10.311
623.99	8.887
624.32	11.371
624.65	10.553
624.99	10.793
625.32	11.561
625.65	10.722
625.98	9.763
626.31	10.560
626.64	10.549
626.97	9.677
627.30	9.188
627.63	10.503
627.96	11.036
628.29	10.272
628.62	9.404
628.95	11.306
629.28	9.261
629.61	10.522
629.94	9.456
630.26	10.763
630.59	8.895
630.92	9.177
631.25	10.197
631.58	10.358
631.91	10.028
632.24	10.183
632.57	10.247
632.90	9.228
633.23	8.980
633.56	9.286
633.89	9.504
634.22	9.667
634.55	10.125
634.88	8.874
635.20	10.441
635.53	9.944
635.86	10.618
636.19	10.710
636.52	10.338
636.85	9.499
637.18	9.979
637.51	9.140
637.83	11.185
638.16	10.253
638.49	10.446
638.82	9.132
639.15	8.477
639.48	10.393
639.81	10.162
640.13	11.307
640.46	8.121
640.79	7.843
641.12	8.944
641.45	9.536
641.77	8.986
642.10	8.661
642.43	9.840
642.76	9.214
643.09	8.082
643.41	7.983
643.74	10.897
644.07	10.897
644.40	8.345
644.73	8.128
645.05	9.545
645.38	8.058
645.71	9.384
646.04	11.478
646.36	7.153
646.69	8.129
647.02	9.633
647.35	10.840
647.67	10.628
648.00	9.076
648.33	9.760
648.66	10.271
648.98	10.340
649.31	11.096
