SpectraSuite Data File
++++++++++++++++++++++++++++++++++++
Date: Thu May 14 14:41:11 PDT 2015
User: schluterlab
Dark Spectrum Present: Yes
Reference Spectrum Present: Yes
Number of Sampled Component Spectra: 1
Spectrometers: USB2E3373
Integration Time (usec): 3000 (USB2E3373)
Spectra Averaged: 3 (USB2E3373)
Boxcar Smoothing: 0 (USB2E3373)
Correct for Electrical Dark: No (USB2E3373)
Strobe/Lamp Enabled: No (USB2E3373)
Correct for Detector Non-linearity: No (USB2E3373)
Correct for Stray Light: No (USB2E3373)
Number of Pixels in Processed Spectrum: 2048
>>>>>Begin Processed Spectral Data<<<<<
178.53	0.000
178.91	-42.857
179.29	-700.000
179.67	400.000
180.04	42.857
180.42	-120.000
180.80	20.000
181.18	-100.000
181.56	1900.000
181.94	-100.000
182.31	225.000
182.69	-0.000
183.07	500.000
183.45	-350.000
183.83	316.667
184.20	500.000
184.58	-900.000
184.96	250.000
185.34	133.333
185.72	380.000
186.09	11.111
186.47	-300.000
186.85	100.000
187.23	100.000
187.61	100.000
187.98	-20.000
188.36	-50.000
188.74	75.000
189.12	533.333
189.49	156.250
189.87	12.500
190.25	200.000
190.63	220.000
191.00	0.000
191.38	0.000
191.76	75.000
192.14	133.333
192.51	-400.000
192.89	400.000
193.27	0.000
193.65	271.429
194.02	700.000
194.40	171.429
194.78	-142.857
195.15	0.000
195.53	63.636
195.91	0.000
196.29	250.000
196.66	115.385
197.04	900.000
197.42	185.714
197.79	250.000
198.17	25.000
198.55	42.857
198.92	133.333
199.30	50.000
199.68	154.545
200.05	85.714
200.43	0.000
200.81	-85.714
201.18	0.000
201.56	33.333
201.94	0.000
202.31	200.000
202.69	177.778
203.07	-1600.000
203.44	55.556
203.82	275.000
204.19	66.667
204.57	200.000
204.95	-25.000
205.32	100.000
205.70	-75.000
206.08	233.333
206.45	200.000
206.83	180.000
207.20	150.000
207.58	100.000
207.96	133.333
208.33	233.333
208.71	-25.000
209.08	300.000
209.46	0.000
209.84	33.333
210.21	-100.000
210.59	-250.000
210.96	33.333
211.34	100.000
211.71	112.500
212.09	900.000
212.46	0.000
212.84	300.000
213.22	80.000
213.59	25.000
213.97	140.000
214.34	100.000
214.72	-50.000
215.09	75.000
215.47	0.000
215.84	-142.857
216.22	-0.000
216.59	240.000
216.97	80.000
217.34	150.000
217.72	225.000
218.09	50.000
218.47	100.000
218.84	0.000
219.22	-260.000
219.59	100.000
219.97	95.000
220.34	-100.000
220.72	11.111
221.09	92.308
221.47	366.667
221.84	80.000
222.22	171.429
222.59	0.000
222.97	112.500
223.34	120.000
223.72	200.000
224.09	225.000
224.46	50.000
224.84	200.000
225.21	100.000
225.59	125.000
225.96	225.000
226.34	61.538
226.71	-0.000
227.08	350.000
227.46	53.333
227.83	125.000
228.21	42.105
228.58	-12.500
228.95	350.000
229.33	216.667
229.70	190.000
230.08	115.789
230.45	-20.000
230.82	433.333
231.20	157.143
231.57	91.667
231.95	9.091
232.32	54.545
232.69	75.000
233.07	75.000
233.44	23.529
233.81	110.000
234.19	100.000
234.56	54.545
234.93	48.276
235.31	26.316
235.68	66.667
236.05	15.000
236.43	80.769
236.80	68.000
237.17	18.519
237.55	30.303
237.92	50.000
238.29	6.452
238.67	25.000
239.04	36.111
239.41	23.810
239.79	4.348
240.16	3.704
240.53	-6.522
240.91	0.000
241.28	3.279
241.65	20.896
242.02	32.432
242.40	9.231
242.77	28.000
243.14	-1.220
243.51	5.263
243.89	1.282
244.26	8.911
244.63	21.569
245.00	16.822
245.38	10.526
245.75	0.000
246.12	7.937
246.49	3.876
246.87	12.857
247.24	10.596
247.61	13.816
247.98	8.725
248.36	13.580
248.73	3.681
249.10	2.732
249.47	12.935
249.84	17.801
250.22	10.881
250.59	7.222
250.96	13.182
251.33	6.122
251.70	11.111
252.08	7.500
252.45	9.016
252.82	5.372
253.19	3.906
253.56	7.224
253.94	5.000
254.31	8.712
254.68	13.287
255.05	9.121
255.42	5.442
255.79	7.767
256.16	5.298
256.54	1.987
256.91	5.574
257.28	6.230
257.65	3.822
258.02	5.310
258.39	5.413
258.76	10.703
259.14	6.034
259.51	3.170
259.88	4.533
260.25	6.667
260.62	7.671
260.99	10.929
261.36	11.796
261.73	5.570
262.10	5.769
262.47	5.362
262.85	7.323
263.22	6.753
263.59	3.421
263.96	6.394
264.33	4.859
264.70	5.679
265.07	7.399
265.44	10.658
265.81	4.167
266.18	6.576
266.55	6.250
266.92	5.467
267.29	5.252
267.66	6.430
268.03	5.459
268.40	4.384
268.77	3.189
269.14	3.524
269.51	5.702
269.88	7.992
270.25	7.243
270.62	6.751
270.99	6.465
271.36	7.327
271.73	4.715
272.10	7.214
272.47	6.212
272.84	6.225
273.21	6.413
273.58	7.258
273.95	2.885
274.32	5.894
274.69	5.803
275.06	7.143
275.43	4.991
275.80	6.173
276.17	3.889
276.54	2.052
276.91	5.367
277.28	5.244
277.65	4.668
278.02	5.882
278.39	3.623
278.76	4.569
279.13	3.546
279.50	6.014
279.87	7.513
280.23	0.176
280.60	6.271
280.97	5.099
281.34	5.093
281.71	7.107
282.08	5.980
282.45	5.074
282.82	4.553
283.19	3.069
283.56	5.738
283.92	4.955
284.29	6.003
284.66	6.732
285.03	3.846
285.40	6.491
285.77	2.786
286.14	5.802
286.51	5.175
286.87	5.213
287.24	3.916
287.61	4.634
287.98	5.136
288.35	4.734
288.72	5.769
289.08	4.832
289.45	4.438
289.82	6.777
290.19	5.316
290.56	5.915
290.93	4.422
291.29	5.647
291.66	4.683
292.03	4.885
292.40	7.483
292.77	4.447
293.13	4.330
293.50	4.205
293.87	4.966
294.24	6.133
294.60	6.068
294.97	3.893
295.34	4.609
295.71	5.422
296.08	4.393
296.44	6.127
296.81	4.872
297.18	3.362
297.55	4.481
297.91	5.694
298.28	4.976
298.65	5.826
299.02	5.077
299.38	6.407
299.75	6.542
300.12	5.440
300.48	4.608
300.85	4.949
301.22	5.257
301.59	5.479
301.95	4.633
302.32	5.778
302.69	4.929
303.05	5.550
303.42	5.987
303.79	5.104
304.15	5.994
304.52	5.285
304.89	5.236
305.25	6.936
305.62	5.016
305.99	5.361
306.35	6.149
306.72	6.515
307.09	5.888
307.45	6.522
307.82	6.357
308.19	6.862
308.55	6.461
308.92	5.745
309.29	6.801
309.65	5.556
310.02	6.634
310.38	6.890
310.75	6.117
311.12	7.383
311.48	7.234
311.85	7.882
312.22	7.875
312.58	9.014
312.95	8.222
313.31	9.485
313.68	8.700
314.05	10.569
314.41	9.927
314.78	9.900
315.14	10.526
315.51	10.342
315.87	12.241
316.24	11.872
316.61	12.789
316.97	11.674
317.34	11.817
317.70	13.624
318.07	13.580
318.43	14.371
318.80	14.799
319.16	13.734
319.53	13.625
319.89	14.461
320.26	15.302
320.62	15.248
320.99	16.990
321.35	17.006
321.72	18.419
322.08	16.952
322.45	19.061
322.81	19.675
323.18	18.053
323.54	20.000
323.91	20.374
324.27	20.052
324.64	21.998
325.00	21.642
325.37	22.195
325.73	23.471
326.10	22.222
326.46	23.941
326.83	24.339
327.19	23.386
327.56	24.980
327.92	24.390
328.29	24.919
328.65	25.209
329.01	26.142
329.38	28.475
329.74	27.568
330.11	27.226
330.47	27.380
330.84	28.682
331.20	29.083
331.56	27.730
331.93	29.121
332.29	29.322
332.66	29.153
333.02	29.397
333.38	28.859
333.75	30.556
334.11	30.942
334.48	30.693
334.84	31.436
335.20	29.387
335.57	30.017
335.93	31.570
336.29	31.032
336.66	31.539
337.02	31.271
337.38	31.633
337.75	30.661
338.11	32.212
338.47	31.348
338.84	31.387
339.20	32.013
339.56	30.643
339.93	31.691
340.29	30.676
340.65	31.792
341.02	31.764
341.38	32.255
341.74	32.607
342.11	31.939
342.47	31.612
342.83	32.045
343.20	32.788
343.56	32.558
343.92	30.905
344.28	31.797
344.65	31.860
345.01	31.357
345.37	32.193
345.73	31.177
346.10	31.591
346.46	31.092
346.82	31.835
347.19	31.016
347.55	32.246
347.91	30.758
348.27	31.487
348.63	31.379
349.00	32.066
349.36	31.078
349.72	30.357
350.08	31.798
350.45	31.863
350.81	31.750
351.17	31.053
351.53	32.980
351.89	32.498
352.26	31.642
352.62	32.537
352.98	32.061
353.34	32.338
353.70	32.974
354.07	31.893
354.43	32.726
354.79	31.713
355.15	31.714
355.51	32.310
355.87	30.516
356.24	32.395
356.60	31.486
356.96	31.801
357.32	32.416
357.68	31.991
358.04	32.410
358.40	31.567
358.77	33.114
359.13	32.496
359.49	31.747
359.85	32.197
360.21	32.783
360.57	32.448
360.93	31.594
361.29	32.140
361.66	32.730
362.02	32.568
362.38	32.115
362.74	32.332
363.10	32.944
363.46	32.895
363.82	33.026
364.18	33.427
364.54	32.296
364.90	32.910
365.26	33.103
365.62	33.467
365.98	32.675
366.35	32.819
366.71	33.537
367.07	32.882
367.43	32.567
367.79	33.444
368.15	33.846
368.51	33.085
368.87	31.679
369.23	31.933
369.59	33.197
369.95	33.198
370.31	33.558
370.67	33.150
371.03	34.003
371.39	33.244
371.75	34.801
372.11	33.875
372.47	34.191
372.83	34.162
373.19	33.289
373.55	33.537
373.91	33.538
374.27	33.700
374.63	34.844
374.99	32.626
375.35	34.545
375.71	35.097
376.07	34.280
376.42	34.950
376.78	33.934
377.14	34.373
377.50	34.915
377.86	34.298
378.22	35.150
378.58	34.780
378.94	35.329
379.30	34.974
379.66	36.449
380.02	34.449
380.38	35.772
380.74	35.099
381.09	36.585
381.45	35.455
381.81	36.475
382.17	35.511
382.53	35.614
382.89	36.005
383.25	35.991
383.61	35.590
383.97	36.396
384.32	37.380
384.68	35.499
385.04	36.842
385.40	36.653
385.76	37.046
386.12	37.163
386.48	36.412
386.83	39.333
387.19	38.065
387.55	37.265
387.91	37.329
388.27	37.529
388.62	37.801
388.98	35.702
389.34	37.596
389.70	37.594
390.06	37.951
390.42	37.349
390.77	38.471
391.13	37.207
391.49	38.345
391.85	37.394
392.20	37.782
392.56	37.803
392.92	38.004
393.28	38.087
393.64	37.877
393.99	39.105
394.35	38.902
394.71	39.162
395.07	37.964
395.42	38.093
395.78	40.463
396.14	38.503
396.50	38.895
396.85	38.342
397.21	39.290
397.57	39.046
397.92	39.691
398.28	38.512
398.64	38.043
399.00	38.063
399.35	38.429
399.71	37.989
400.07	38.967
400.42	38.475
400.78	38.194
401.14	38.133
401.49	39.682
401.85	39.477
402.21	40.093
402.57	39.965
402.92	39.184
403.28	37.939
403.63	39.439
403.99	39.311
404.35	38.886
404.70	38.697
405.06	38.641
405.42	39.110
405.77	40.294
406.13	38.790
406.49	39.809
406.84	38.670
407.20	39.575
407.55	39.612
407.91	40.038
408.27	39.458
408.62	39.383
408.98	39.698
409.34	39.589
409.69	40.482
410.05	40.445
410.40	39.153
410.76	40.101
411.11	40.035
411.47	40.356
411.83	40.388
412.18	41.084
412.54	39.597
412.89	39.756
413.25	41.027
413.60	40.724
413.96	40.676
414.31	40.510
414.67	40.131
415.03	40.062
415.38	40.605
415.74	39.585
416.09	40.099
416.45	40.513
416.80	40.269
417.16	40.294
417.51	40.349
417.87	40.589
418.22	41.138
418.58	41.016
418.93	39.988
419.29	41.122
419.64	40.036
420.00	41.424
420.35	40.595
420.71	41.241
421.06	40.023
421.42	42.202
421.77	40.657
422.12	41.385
422.48	41.270
422.83	41.019
423.19	41.326
423.54	42.146
423.90	41.855
424.25	42.027
424.61	41.791
424.96	42.010
425.31	42.091
425.67	41.331
426.02	42.889
426.38	42.997
426.73	41.964
427.09	43.137
427.44	42.545
427.79	43.836
428.15	42.295
428.50	42.697
428.85	42.767
429.21	43.457
429.56	42.646
429.92	42.359
430.27	42.940
430.62	43.918
430.98	42.302
431.33	41.838
431.68	42.433
432.04	42.814
432.39	43.546
432.74	44.007
433.10	43.591
433.45	44.091
433.80	43.079
434.16	43.802
434.51	44.090
434.86	43.920
435.22	44.261
435.57	44.929
435.92	44.463
436.28	43.970
436.63	45.658
436.98	44.552
437.34	44.307
437.69	44.139
438.04	44.580
438.39	44.342
438.75	43.940
439.10	43.816
439.45	44.606
439.81	43.672
440.16	44.182
440.51	43.924
440.86	43.913
441.22	44.534
441.57	45.440
441.92	44.374
442.27	44.343
442.63	44.312
442.98	45.411
443.33	45.239
443.68	45.837
444.03	45.861
444.39	44.660
444.74	45.533
445.09	44.146
445.44	45.364
445.79	45.929
446.15	46.043
446.50	45.375
446.85	45.866
447.20	45.213
447.55	45.136
447.91	44.188
448.26	45.507
448.61	45.484
448.96	46.781
449.31	45.917
449.66	44.880
450.02	46.308
450.37	45.178
450.72	46.609
451.07	46.298
451.42	46.274
451.77	46.026
452.12	46.163
452.47	46.168
452.83	47.016
453.18	45.242
453.53	46.697
453.88	46.438
454.23	46.271
454.58	46.721
454.93	46.663
455.28	48.104
455.63	46.504
455.98	47.151
456.34	47.055
456.69	46.620
457.04	47.754
457.39	46.896
457.74	47.315
458.09	46.513
458.44	48.114
458.79	46.674
459.14	45.359
459.49	46.972
459.84	47.796
460.19	46.696
460.54	47.019
460.89	47.433
461.24	46.839
461.59	48.091
461.94	46.606
462.29	47.424
462.64	46.168
462.99	46.830
463.34	48.215
463.69	47.304
464.04	48.249
464.39	47.085
464.74	47.206
465.09	47.751
465.44	48.122
465.79	47.964
466.14	48.150
466.49	46.526
466.84	48.099
467.19	48.208
467.54	47.180
467.89	47.356
468.24	47.091
468.59	47.829
468.94	46.562
469.29	47.151
469.64	47.044
469.99	47.228
470.34	47.710
470.68	48.667
471.03	48.527
471.38	47.155
471.73	47.074
472.08	47.779
472.43	47.923
472.78	47.985
473.13	48.420
473.48	48.761
473.83	48.230
474.17	48.769
474.52	47.925
474.87	48.339
475.22	48.056
475.57	47.975
475.92	47.984
476.27	47.977
476.61	48.287
476.96	47.706
477.31	47.772
477.66	48.636
478.01	49.009
478.36	47.208
478.70	48.966
479.05	48.313
479.40	48.569
479.75	48.367
480.10	48.982
480.45	48.222
480.79	47.937
481.14	48.713
481.49	49.023
481.84	47.998
482.19	48.559
482.53	48.929
482.88	48.826
483.23	48.955
483.58	47.860
483.92	47.961
484.27	48.137
484.62	47.277
484.97	47.745
485.31	47.554
485.66	45.747
486.01	45.226
486.36	46.150
486.70	47.030
487.05	47.801
487.40	47.852
487.75	47.252
488.09	48.239
488.44	47.811
488.79	48.735
489.13	48.371
489.48	46.835
489.83	48.290
490.17	48.643
490.52	47.414
490.87	48.308
491.22	49.003
491.56	47.952
491.91	49.193
492.26	48.940
492.60	48.929
492.95	49.276
493.30	48.723
493.64	49.409
493.99	48.904
494.34	48.868
494.68	47.923
495.03	49.912
495.37	49.667
495.72	49.524
496.07	49.080
496.41	49.592
496.76	49.249
497.11	49.724
497.45	49.202
497.80	49.534
498.14	49.252
498.49	50.368
498.84	48.629
499.18	49.168
499.53	49.058
499.87	49.802
500.22	49.288
500.56	49.843
500.91	50.618
501.26	50.091
501.60	48.785
501.95	50.195
502.29	49.627
502.64	49.322
502.98	49.094
503.33	50.022
503.67	49.411
504.02	48.818
504.36	49.598
504.71	50.069
505.06	49.341
505.40	49.497
505.75	49.499
506.09	50.737
506.44	51.114
506.78	51.101
507.13	49.101
507.47	50.782
507.82	50.237
508.16	51.243
508.51	49.836
508.85	50.590
509.19	49.882
509.54	51.297
509.88	49.927
510.23	51.093
510.57	51.667
510.92	50.460
511.26	50.842
511.61	49.396
511.95	50.610
512.30	51.305
512.64	50.475
512.98	49.775
513.33	50.504
513.67	51.810
514.02	51.559
514.36	51.662
514.70	51.823
515.05	52.033
515.39	51.391
515.74	52.439
516.08	51.928
516.42	52.747
516.77	52.892
517.11	51.418
517.46	52.386
517.80	51.737
518.14	53.319
518.49	52.440
518.83	50.506
519.17	50.458
519.52	51.101
519.86	51.901
520.20	52.556
520.55	52.738
520.89	53.716
521.23	52.038
521.58	52.316
521.92	51.671
522.26	52.692
522.61	52.431
522.95	52.249
523.29	52.586
523.64	52.691
523.98	53.565
524.32	54.499
524.66	52.703
525.01	51.302
525.35	52.613
525.69	52.436
526.04	51.550
526.38	51.954
526.72	52.595
527.06	53.372
527.41	52.945
527.75	53.325
528.09	53.306
528.43	53.404
528.78	52.370
529.12	51.548
529.46	52.052
529.80	53.490
530.15	52.754
530.49	51.661
530.83	54.368
531.17	52.927
531.51	53.008
531.86	53.966
532.20	54.451
532.54	52.304
532.88	53.394
533.22	52.445
533.57	53.203
533.91	52.750
534.25	51.894
534.59	53.161
534.93	52.349
535.27	52.451
535.62	52.871
535.96	54.271
536.30	52.761
536.64	53.754
536.98	53.260
537.32	53.580
537.66	52.838
538.01	51.420
538.35	52.314
538.69	53.185
539.03	54.261
539.37	51.355
539.71	53.514
540.05	52.518
540.39	52.873
540.73	53.673
541.07	53.648
541.42	52.274
541.76	52.432
542.10	53.679
542.44	52.253
542.78	52.190
543.12	53.516
543.46	53.297
543.80	51.199
544.14	53.321
544.48	53.487
544.82	53.980
545.16	51.998
545.50	53.625
545.84	53.644
546.18	54.444
546.52	53.439
546.86	53.145
547.20	52.863
547.54	54.057
547.88	51.356
548.22	52.281
548.56	52.370
548.90	52.418
549.24	53.982
549.58	54.069
549.92	53.508
550.26	53.786
550.60	52.967
550.94	54.592
551.28	53.729
551.62	54.717
551.96	52.298
552.30	54.238
552.64	53.516
552.98	53.525
553.32	54.920
553.66	53.955
554.00	53.720
554.34	54.247
554.68	52.873
555.02	54.271
555.36	54.767
555.69	54.196
556.03	53.531
556.37	52.753
556.71	53.139
557.05	53.930
557.39	54.214
557.73	53.104
558.07	54.834
558.41	54.286
558.75	54.226
559.08	55.741
559.42	53.704
559.76	54.071
560.10	53.115
560.44	54.551
560.78	55.188
561.12	53.571
561.45	55.049
561.79	54.335
562.13	54.097
562.47	53.329
562.81	55.000
563.15	54.735
563.48	53.574
563.82	53.688
564.16	53.180
564.50	52.801
564.84	52.625
565.17	53.882
565.51	53.395
565.85	54.097
566.19	52.362
566.52	53.950
566.86	53.707
567.20	52.311
567.54	53.213
567.88	53.262
568.21	53.113
568.55	53.046
568.89	52.655
569.23	51.669
569.56	51.348
569.90	50.535
570.24	50.658
570.57	51.411
570.91	49.602
571.25	49.841
571.59	49.903
571.92	49.360
572.26	49.921
572.60	49.686
572.93	49.402
573.27	49.958
573.61	49.471
573.95	49.405
574.28	48.890
574.62	48.954
574.96	48.125
575.29	48.293
575.63	48.833
575.97	48.982
576.30	48.606
576.64	49.153
576.98	49.362
577.31	48.774
577.65	49.422
577.98	48.362
578.32	48.593
578.66	48.417
578.99	48.945
579.33	49.111
579.67	48.912
580.00	48.483
580.34	49.215
580.67	48.963
581.01	48.918
581.35	48.919
581.68	48.021
582.02	48.550
582.35	48.718
582.69	49.230
583.02	48.869
583.36	49.682
583.70	49.830
584.03	49.172
584.37	49.741
584.70	48.875
585.04	48.547
585.37	48.674
585.71	48.889
586.04	48.855
586.38	49.396
586.72	49.035
587.05	49.092
587.39	49.638
587.72	50.359
588.06	49.299
588.39	49.764
588.73	49.603
589.06	50.282
589.40	50.891
589.73	51.189
590.07	51.061
590.40	51.149
590.73	50.795
591.07	51.638
591.40	51.516
591.74	51.192
592.07	51.198
592.41	51.380
592.74	49.805
593.08	50.764
593.41	51.064
593.75	50.374
594.08	50.803
594.41	50.481
594.75	50.116
595.08	51.346
595.42	51.234
595.75	50.759
596.09	51.542
596.42	51.308
596.75	51.563
597.09	52.000
597.42	51.649
597.75	51.470
598.09	51.786
598.42	52.272
598.76	51.013
599.09	50.587
599.42	49.782
599.76	50.545
600.09	51.718
600.42	51.218
600.76	50.727
601.09	49.851
601.42	50.326
601.76	50.655
602.09	51.716
602.42	50.127
602.76	50.664
603.09	50.808
603.42	51.879
603.76	50.388
604.09	51.632
604.42	51.706
604.76	52.017
605.09	52.014
605.42	51.954
605.75	51.423
606.09	51.288
606.42	51.003
606.75	50.900
607.09	51.344
607.42	51.291
607.75	51.700
608.08	51.776
608.42	51.511
608.75	52.985
609.08	52.037
609.41	53.066
609.75	52.857
610.08	53.298
610.41	52.039
610.74	52.521
611.07	53.686
611.41	53.363
611.74	53.903
612.07	53.343
612.40	53.470
612.73	54.328
613.07	53.447
613.40	54.283
613.73	53.298
614.06	53.484
614.39	52.915
614.72	52.547
615.06	52.406
615.39	53.407
615.72	52.559
616.05	53.278
616.38	54.087
616.71	54.284
617.05	53.408
617.38	52.702
617.71	55.076
618.04	54.236
618.37	54.699
618.70	54.695
619.03	54.361
619.36	54.994
619.69	56.694
620.03	56.183
620.36	54.601
620.69	55.275
621.02	56.365
621.35	58.200
621.68	56.038
622.01	56.940
622.34	56.974
622.67	56.426
623.00	55.735
623.33	55.873
623.66	55.837
623.99	56.090
624.32	56.270
624.65	55.148
624.99	56.567
625.32	56.760
625.65	57.181
625.98	55.593
626.31	57.264
626.64	57.363
626.97	57.014
627.30	56.796
627.63	57.164
627.96	57.883
628.29	57.432
628.62	57.851
628.95	61.087
629.28	58.879
629.61	59.343
629.94	58.159
630.26	59.576
630.59	56.995
630.92	58.268
631.25	60.823
631.58	62.241
631.91	59.700
632.24	59.942
632.57	60.626
632.90	61.284
633.23	61.224
633.56	60.408
633.89	59.917
634.22	61.123
634.55	60.647
634.88	63.312
635.20	62.756
635.53	63.277
635.86	61.538
636.19	60.233
636.52	60.654
636.85	58.836
637.18	59.044
637.51	61.613
637.83	62.569
638.16	62.442
