SpectraSuite Data File
++++++++++++++++++++++++++++++++++++
Date: Thu May 14 14:54:23 PDT 2015
User: schluterlab
Dark Spectrum Present: Yes
Reference Spectrum Present: Yes
Number of Sampled Component Spectra: 1
Spectrometers: USB2E3373
Integration Time (usec): 3000 (USB2E3373)
Spectra Averaged: 3 (USB2E3373)
Boxcar Smoothing: 0 (USB2E3373)
Correct for Electrical Dark: No (USB2E3373)
Strobe/Lamp Enabled: No (USB2E3373)
Correct for Detector Non-linearity: No (USB2E3373)
Correct for Stray Light: No (USB2E3373)
Number of Pixels in Processed Spectrum: 2048
>>>>>Begin Processed Spectral Data<<<<<
178.53	0.000
178.91	185.714
179.29	-1900.000
179.67	-2200.000
180.04	178.571
180.42	210.000
180.80	360.000
181.18	-1100.000
181.56	-600.000
181.94	425.000
182.31	-325.000
182.69	566.667
183.07	-700.000
183.45	550.000
183.83	-266.667
184.20	-433.333
184.58	1400.000
184.96	-350.000
185.34	-122.222
185.72	-180.000
186.09	288.889
186.47	500.000
186.85	480.000
187.23	-233.333
187.61	-2400.000
187.98	360.000
188.36	400.000
188.74	-325.000
189.12	-133.333
189.49	-12.500
189.87	-200.000
190.25	-133.333
190.63	-260.000
191.00	-244.444
191.38	0.000
191.76	-300.000
192.14	-233.333
192.51	900.000
192.89	-200.000
193.27	0.000
193.65	-171.429
194.02	-2100.000
194.40	-214.286
194.78	200.000
195.15	0.000
195.53	-127.273
195.91	0.000
196.29	-100.000
196.66	-61.538
197.04	-1800.000
197.42	-242.857
197.79	-500.000
198.17	-87.500
198.55	-214.286
198.92	-88.889
199.30	-212.500
199.68	-63.636
200.05	-14.286
200.43	-900.000
200.81	271.429
201.18	0.000
201.56	222.222
201.94	0.000
202.31	633.333
202.69	-155.556
203.07	900.000
203.44	-133.333
203.82	-400.000
204.19	-108.333
204.57	-250.000
204.95	-175.000
205.32	-2000.000
205.70	175.000
206.08	-150.000
206.45	-133.333
206.83	520.000
207.20	-233.333
207.58	-500.000
207.96	-400.000
208.33	-166.667
208.71	133.333
209.08	-50.000
209.46	0.000
209.84	500.000
210.21	1000.000
210.59	700.000
210.96	566.667
211.34	-325.000
211.71	-187.500
212.09	-1500.000
212.46	0.000
212.84	1350.000
213.22	-560.000
213.59	-425.000
213.97	-170.000
214.34	-566.667
214.72	283.333
215.09	-525.000
215.47	0.000
215.84	214.286
216.22	1100.000
216.59	-240.000
216.97	-320.000
217.34	-450.000
217.72	-25.000
218.09	-500.000
218.47	-550.000
218.84	0.000
219.22	300.000
219.59	-52.941
219.97	-10.000
220.34	700.000
220.72	-177.778
221.09	-7.692
221.47	-266.667
221.84	-110.000
222.22	-242.857
222.59	0.000
222.97	-137.500
223.34	-340.000
223.72	-1200.000
224.09	-550.000
224.46	-575.000
224.84	-220.000
225.21	-257.143
225.59	-475.000
225.96	-250.000
226.34	-11.538
226.71	333.333
227.08	-550.000
227.46	-46.667
227.83	-350.000
228.21	-15.789
228.58	300.000
228.95	1050.000
229.33	-66.667
229.70	-160.000
230.08	-15.789
230.45	200.000
230.82	-233.333
231.20	-50.000
231.57	-33.333
231.95	-145.455
232.32	-18.182
232.69	-50.000
233.07	-375.000
233.44	-70.588
233.81	-130.000
234.19	-38.889
234.56	-18.182
234.93	-13.793
235.31	-52.632
235.68	-55.556
236.05	-75.000
236.43	-7.692
236.80	-28.000
237.17	-18.519
237.55	-24.242
237.92	-190.000
238.29	-48.387
238.67	-15.909
239.04	-41.667
239.41	-45.238
239.79	-30.435
240.16	-29.630
240.53	-30.435
240.91	-37.255
241.28	-16.393
241.65	1.493
242.02	-9.459
242.40	-36.923
242.77	-16.000
243.14	-12.195
243.51	-39.474
243.89	-23.077
244.26	-7.921
244.63	-3.922
245.00	-5.607
245.38	-13.158
245.75	-12.389
246.12	-8.730
246.49	-9.302
246.87	-1.429
247.24	4.636
247.61	-4.605
247.98	-6.040
248.36	-1.852
248.73	-3.067
249.10	-3.825
249.47	3.980
249.84	-0.524
250.22	-4.663
250.59	-2.222
250.96	1.364
251.33	-4.592
251.70	1.282
252.08	0.417
252.45	2.869
252.82	-4.132
253.19	-3.906
253.56	-1.901
253.94	-5.000
254.31	-0.379
254.68	4.545
255.05	2.932
255.42	0.340
255.79	-2.265
256.16	-2.318
256.54	0.000
256.91	1.639
257.28	-2.623
257.65	0.000
258.02	-2.655
258.39	0.285
258.76	2.446
259.14	-0.287
259.51	0.865
259.88	-0.850
260.25	0.278
260.62	0.274
260.99	3.552
261.36	2.413
261.73	0.000
262.10	-1.374
262.47	-0.536
262.85	4.040
263.22	0.000
263.59	0.526
263.96	2.046
264.33	0.256
264.70	1.481
265.07	2.625
265.44	2.948
265.81	-1.620
266.18	1.361
266.55	3.125
266.92	-0.683
267.29	3.282
267.66	0.887
268.03	1.747
268.40	2.505
268.77	-1.595
269.14	-1.101
269.51	1.535
269.88	3.074
270.25	2.213
270.62	1.266
270.99	4.444
271.36	3.762
271.73	1.965
272.10	2.405
272.47	1.603
272.84	1.606
273.21	1.202
273.58	2.016
273.95	2.692
274.32	1.141
274.69	-1.161
275.06	1.832
275.43	0.924
275.80	3.880
276.17	0.370
276.54	-0.560
276.91	0.716
277.28	0.904
277.65	1.436
278.02	2.022
278.39	0.000
278.76	1.933
279.13	-0.177
279.50	2.577
279.87	2.504
280.23	0.528
280.60	2.542
280.97	1.809
281.34	-0.509
281.71	2.707
282.08	1.163
282.45	0.655
282.82	2.512
283.19	-0.323
283.56	0.984
283.92	3.904
284.29	3.160
284.66	2.956
285.03	0.000
285.40	3.864
285.77	0.774
286.14	3.206
286.51	1.826
286.87	0.948
287.24	3.012
287.61	2.840
287.98	1.360
288.35	0.740
288.72	3.254
289.08	2.196
289.45	1.036
289.82	1.054
290.19	2.155
290.56	1.831
290.93	2.140
291.29	1.928
291.66	1.240
292.03	1.221
292.40	2.313
292.77	1.482
293.13	2.165
293.50	2.628
293.87	2.013
294.24	1.467
294.60	1.770
294.97	0.940
295.34	3.201
295.71	1.639
296.08	1.163
296.44	1.348
296.81	1.949
297.18	0.623
297.55	2.594
297.91	1.068
298.28	0.237
298.65	2.378
299.02	1.771
299.38	2.288
299.75	1.752
300.12	0.810
300.48	1.037
300.85	1.350
301.22	2.908
301.59	0.799
301.95	2.486
302.32	2.222
302.69	1.972
303.05	1.850
303.42	1.885
303.79	1.354
304.15	1.893
304.52	1.797
304.89	2.304
305.25	2.588
305.62	2.717
305.99	1.753
306.35	0.504
306.72	2.172
307.09	1.624
307.45	1.967
307.82	2.825
308.19	0.908
308.55	1.832
308.92	0.487
309.29	1.820
309.65	0.975
310.02	1.782
310.38	1.476
310.75	2.330
311.12	2.589
311.48	0.587
311.85	2.089
312.22	1.233
312.58	1.596
312.95	1.243
313.31	1.084
313.68	2.106
314.05	2.710
314.41	3.097
314.78	1.090
315.14	2.450
315.51	2.031
315.87	2.970
316.24	2.283
316.61	2.487
316.97	1.267
317.34	1.764
317.70	3.493
318.07	2.557
318.43	2.636
318.80	3.679
319.16	1.459
319.53	0.943
319.89	2.366
320.26	2.847
320.62	1.241
320.99	2.678
321.35	1.664
321.72	2.977
322.08	2.344
322.45	1.987
322.81	2.888
323.18	2.301
323.54	2.672
323.91	2.580
324.27	3.184
324.64	3.526
325.00	2.985
325.37	2.539
325.73	3.719
326.10	3.001
326.46	3.094
326.83	3.203
327.19	2.677
327.56	3.241
327.92	3.383
328.29	2.339
328.65	1.926
329.01	2.538
329.38	3.538
329.74	3.510
330.11	2.911
330.47	3.960
330.84	3.015
331.20	3.167
331.56	2.860
331.93	3.347
332.29	3.136
332.66	3.322
333.02	3.183
333.38	2.852
333.75	3.956
334.11	3.503
334.48	3.300
334.84	4.163
335.20	3.023
335.57	3.373
335.93	3.554
336.29	3.078
336.66	2.523
337.02	2.759
337.38	3.997
337.75	2.975
338.11	3.701
338.47	3.309
338.84	2.707
339.20	2.864
339.56	2.883
339.93	4.516
340.29	3.704
340.65	3.082
341.02	3.192
341.38	3.638
341.74	2.583
342.11	3.379
342.47	2.859
342.83	3.784
343.20	3.271
343.56	3.128
343.92	2.962
344.28	3.359
344.65	3.953
345.01	3.120
345.37	3.733
345.73	1.793
346.10	3.978
346.46	3.006
346.82	3.820
347.19	3.896
347.55	3.566
347.91	3.566
348.27	2.200
348.63	3.275
349.00	3.579
349.36	3.941
349.72	3.943
350.08	4.235
350.45	3.042
350.81	3.922
351.17	3.534
351.53	2.881
351.89	3.797
352.26	3.134
352.62	3.284
352.98	2.748
353.34	3.585
353.70	2.928
354.07	3.428
354.43	2.733
354.79	3.216
355.15	3.164
355.51	4.020
355.87	2.917
356.24	3.346
356.60	3.622
356.96	3.632
357.32	2.602
357.68	3.075
358.04	2.844
358.40	2.985
358.77	4.240
359.13	2.659
359.49	1.338
359.85	3.191
360.21	3.443
360.57	2.728
360.93	3.456
361.29	3.158
361.66	3.910
362.02	4.593
362.38	3.233
362.74	2.933
363.10	4.333
363.46	3.116
363.82	2.770
364.18	3.096
364.54	3.527
364.90	3.612
365.26	2.552
365.62	4.067
365.98	2.859
366.35	3.758
366.71	3.265
367.07	3.315
367.43	4.005
367.79	3.782
368.15	3.679
368.51	3.857
368.87	3.984
369.23	3.200
369.59	2.459
369.95	3.110
370.31	3.511
370.67	3.714
371.03	3.463
371.39	2.418
371.75	3.026
372.11	2.913
372.47	3.318
372.83	4.188
373.19	3.269
373.55	2.778
373.91	2.863
374.27	3.622
374.63	2.774
374.99	3.714
375.35	4.221
375.71	3.613
376.07	4.196
376.42	3.841
376.78	4.661
377.14	3.993
377.50	2.846
377.86	3.879
378.22	4.371
378.58	3.032
378.94	3.697
379.30	3.222
379.66	3.762
380.02	3.808
380.38	4.147
380.74	3.662
381.09	4.239
381.45	4.148
381.81	3.513
382.17	4.335
382.53	3.626
382.89	4.233
383.25	2.814
383.61	3.125
383.97	3.357
384.32	3.947
384.68	3.016
385.04	4.916
385.40	4.537
385.76	4.338
386.12	3.830
386.48	4.118
386.83	4.410
387.19	3.360
387.55	3.169
387.91	3.253
388.27	4.734
388.62	3.895
388.98	3.779
389.34	4.420
389.70	3.951
390.06	3.848
390.42	3.675
390.77	4.877
391.13	4.167
391.49	3.986
391.85	3.939
392.20	3.381
392.56	4.666
392.92	4.580
393.28	4.035
393.64	3.687
393.99	4.184
394.35	4.206
394.71	4.311
395.07	4.192
395.42	4.397
395.78	4.631
396.14	4.397
396.50	3.682
396.85	4.174
397.21	3.550
397.57	4.122
397.92	3.837
398.28	3.096
398.64	3.776
399.00	3.927
399.35	4.869
399.71	3.478
400.07	4.099
400.42	4.075
400.78	3.588
401.14	4.326
401.49	3.866
401.85	3.721
402.21	3.940
402.57	4.871
402.92	3.901
403.28	4.098
403.63	3.222
403.99	3.860
404.35	4.207
404.70	4.136
405.06	4.185
405.42	3.806
405.77	3.381
406.13	3.782
406.49	4.505
406.84	4.432
407.20	4.025
407.55	3.452
407.91	3.708
408.27	4.181
408.62	3.839
408.98	4.237
409.34	3.109
409.69	3.399
410.05	4.865
410.40	4.408
410.76	4.543
411.11	4.091
411.47	4.423
411.83	4.350
412.18	5.000
412.54	4.031
412.89	3.842
413.25	4.176
413.60	3.619
413.96	4.312
414.31	3.739
414.67	4.114
415.03	4.185
415.38	3.720
415.74	3.849
416.09	4.442
416.45	3.757
416.80	3.550
417.16	5.045
417.51	4.172
417.87	4.108
418.22	3.772
418.58	3.779
418.93	4.366
419.29	3.946
419.64	3.842
420.00	3.442
420.35	4.267
420.71	4.136
421.06	3.335
421.42	4.128
421.77	3.770
422.12	4.228
422.48	4.352
422.83	4.545
423.19	4.032
423.54	3.872
423.90	4.086
424.25	5.013
424.61	3.215
424.96	3.789
425.31	4.830
425.67	4.348
426.02	4.925
426.38	4.650
426.73	3.850
427.09	4.960
427.44	3.550
427.79	3.648
428.15	3.710
428.50	4.494
428.85	3.444
429.21	4.787
429.56	3.554
429.92	4.128
430.27	4.530
430.62	4.299
430.98	4.820
431.33	3.275
431.68	4.454
432.04	4.165
432.39	4.660
432.74	3.995
433.10	4.435
433.45	3.790
433.80	4.936
434.16	4.442
434.51	4.265
434.86	4.072
435.22	4.623
435.57	4.304
435.92	4.508
436.28	4.039
436.63	4.151
436.98	4.133
437.34	4.566
437.69	4.238
438.04	4.178
438.39	4.423
438.75	4.040
439.10	5.761
439.45	4.304
439.81	4.011
440.16	4.343
440.51	4.571
440.86	4.002
441.22	4.770
441.57	4.350
441.92	4.219
442.27	4.545
442.63	4.521
442.98	4.803
443.33	4.524
443.68	5.005
444.03	4.704
444.39	5.086
444.74	4.952
445.09	5.018
445.44	4.320
445.79	5.220
446.15	5.139
446.50	4.341
446.85	5.447
447.20	5.077
447.55	5.126
447.91	4.607
448.26	4.123
448.61	4.729
448.96	5.526
449.31	4.666
449.66	4.521
450.02	5.011
450.37	5.701
450.72	4.467
451.07	5.695
451.42	4.968
451.77	4.892
452.12	4.853
452.47	4.694
452.83	5.011
453.18	4.904
453.53	5.112
453.88	4.583
454.23	5.198
454.58	4.701
454.93	4.976
455.28	5.238
455.63	4.775
455.98	5.307
456.34	5.654
456.69	4.879
457.04	4.965
457.39	4.712
457.74	4.978
458.09	5.107
458.44	5.657
458.79	4.590
459.14	4.877
459.49	4.980
459.84	4.565
460.19	4.442
460.54	4.713
460.89	4.764
461.24	4.655
461.59	5.645
461.94	4.392
462.29	5.599
462.64	4.587
462.99	4.834
463.34	5.127
463.69	5.803
464.04	5.503
464.39	4.933
464.74	5.245
465.09	4.671
465.44	5.043
465.79	5.658
466.14	4.950
466.49	5.000
466.84	5.014
467.19	5.202
467.54	4.583
467.89	4.368
468.24	5.263
468.59	4.459
468.94	4.604
469.29	5.279
469.64	4.832
469.99	4.653
470.34	5.198
470.68	4.853
471.03	5.566
471.38	4.513
471.73	3.901
472.08	4.949
472.43	5.479
472.78	5.164
473.13	5.120
473.48	5.438
473.83	5.398
474.17	5.744
474.52	4.991
474.87	6.035
475.22	5.352
475.57	5.607
475.92	5.027
476.27	5.538
476.61	5.296
476.96	4.536
477.31	5.693
477.66	5.352
478.01	5.389
478.36	5.384
478.70	5.369
479.05	5.317
479.40	5.577
479.75	5.956
480.10	5.163
480.45	5.743
480.79	5.034
481.14	5.101
481.49	5.089
481.84	6.049
482.19	5.376
482.53	5.597
482.88	5.494
483.23	5.647
483.58	6.026
483.92	4.876
484.27	5.588
484.62	5.281
484.97	5.754
485.31	5.033
485.66	5.320
486.01	5.134
486.36	5.342
486.70	5.363
487.05	5.903
487.40	5.781
487.75	5.929
488.09	5.466
488.44	5.364
488.79	5.228
489.13	5.648
489.48	4.816
489.83	5.473
490.17	5.346
490.52	5.378
490.87	5.161
491.22	5.373
491.56	5.290
491.91	5.669
492.26	5.279
492.60	5.378
492.95	5.616
493.30	5.334
493.64	5.300
493.99	5.526
494.34	5.444
494.68	5.011
495.03	5.463
495.37	5.282
495.72	5.941
496.07	5.434
496.41	5.148
496.76	5.546
497.11	5.265
497.45	5.352
497.80	5.331
498.14	5.397
498.49	5.285
498.84	5.484
499.18	5.308
499.53	5.516
499.87	5.626
500.22	4.898
500.56	5.443
500.91	5.629
501.26	6.682
501.60	5.082
501.95	6.166
502.29	5.529
502.64	6.078
502.98	6.299
503.33	5.616
503.67	5.451
504.02	5.517
504.36	5.987
504.71	5.650
505.06	6.003
505.40	5.393
505.75	5.920
506.09	6.123
506.44	5.617
506.78	5.734
507.13	6.362
507.47	6.206
507.82	5.303
508.16	5.210
508.51	5.485
508.85	5.621
509.19	5.732
509.54	6.004
509.88	5.877
510.23	5.828
510.57	6.187
510.92	5.999
511.26	5.099
511.61	5.215
511.95	5.515
512.30	6.155
512.64	5.647
512.98	5.553
513.33	6.099
513.67	5.813
514.02	5.774
514.36	5.729
514.70	5.365
515.05	5.996
515.39	5.827
515.74	6.204
516.08	5.811
516.42	6.750
516.77	6.257
517.11	5.570
517.46	6.628
517.80	6.574
518.14	6.366
518.49	6.074
518.83	5.801
519.17	6.031
519.52	6.604
519.86	6.230
520.20	6.550
520.55	6.079
520.89	6.757
521.23	5.807
521.58	6.610
521.92	5.836
522.26	6.186
522.61	5.845
522.95	5.940
523.29	5.977
523.64	6.670
523.98	6.275
524.32	6.418
524.66	5.862
525.01	6.342
525.35	5.572
525.69	6.090
526.04	5.970
526.38	6.437
526.72	6.286
527.06	5.982
527.41	6.297
527.75	6.591
528.09	6.139
528.43	6.394
528.78	5.491
529.12	5.619
529.46	6.464
529.80	6.121
530.15	6.377
530.49	5.457
530.83	6.494
531.17	6.033
531.51	6.498
531.86	6.010
532.20	6.280
532.54	6.224
532.88	6.667
533.22	6.011
533.57	7.155
533.91	6.790
534.25	6.614
534.59	6.379
534.93	6.169
535.27	5.521
535.62	6.424
535.96	6.101
536.30	6.580
536.64	7.327
536.98	6.519
537.32	6.914
537.66	6.737
538.01	5.559
538.35	5.847
538.69	6.430
539.03	6.560
539.37	6.537
539.71	6.426
540.05	6.415
540.39	5.318
540.73	6.557
541.07	6.009
541.42	6.438
541.76	5.635
542.10	5.730
542.44	5.664
542.78	6.691
543.12	6.138
543.46	6.899
543.80	5.036
544.14	5.865
544.48	6.442
544.82	6.284
545.16	6.321
545.50	6.411
545.84	6.001
546.18	6.605
546.52	5.605
546.86	7.233
547.20	5.471
547.54	6.117
547.88	5.847
548.22	6.257
548.56	5.734
548.90	5.731
549.24	6.869
549.58	5.994
549.92	6.059
550.26	6.537
550.60	6.828
550.94	6.533
551.28	5.875
551.62	6.671
551.96	6.472
552.30	7.011
552.64	7.094
552.98	6.176
553.32	6.367
553.66	6.945
554.00	6.242
554.34	6.306
554.68	6.262
555.02	6.307
555.36	6.575
555.69	6.150
556.03	5.485
556.37	6.696
556.71	5.897
557.05	6.262
557.39	6.171
557.73	5.878
558.07	5.828
558.41	7.110
558.75	6.220
559.08	5.985
559.42	6.516
559.76	6.784
560.10	5.961
560.44	6.860
560.78	6.750
561.12	6.281
561.45	6.691
561.79	6.777
562.13	7.394
562.47	6.104
562.81	5.696
563.15	6.566
563.48	6.277
563.82	6.227
564.16	6.239
564.50	6.615
564.84	6.136
565.17	6.353
565.51	6.674
565.85	6.116
566.19	5.645
566.52	5.617
566.86	6.961
567.20	5.492
567.54	6.054
567.88	6.524
568.21	6.670
568.55	6.475
568.89	6.400
569.23	6.337
569.56	6.331
569.90	6.700
570.24	5.936
570.57	6.350
570.91	5.940
571.25	6.335
571.59	6.346
571.92	5.970
572.26	6.247
572.60	6.224
572.93	6.401
573.27	6.462
573.61	6.379
573.95	6.458
574.28	6.330
574.62	5.935
574.96	6.131
575.29	5.948
575.63	6.122
575.97	6.515
576.30	6.144
576.64	6.347
576.98	6.128
577.31	6.176
577.65	6.253
577.98	6.363
578.32	5.810
578.66	5.974
578.99	6.000
579.33	6.025
579.67	6.188
580.00	5.934
580.34	6.457
580.67	6.002
581.01	6.188
581.35	6.078
581.68	6.016
582.02	6.319
582.35	6.314
582.69	6.107
583.02	6.466
583.36	6.326
583.70	6.021
584.03	5.880
584.37	6.122
584.70	5.966
585.04	6.068
585.37	6.142
585.71	6.257
586.04	6.209
586.38	6.082
586.72	6.092
587.05	5.909
587.39	5.909
587.72	6.292
588.06	6.456
588.39	6.373
588.73	6.376
589.06	6.462
589.40	6.454
589.73	6.491
590.07	6.499
590.40	6.389
590.73	6.469
591.07	5.845
591.40	6.493
591.74	5.723
592.07	6.456
592.41	6.625
592.74	6.851
593.08	6.592
593.41	6.591
593.75	6.552
594.08	6.119
594.41	6.410
594.75	6.509
595.08	5.855
595.42	6.104
595.75	6.522
596.09	6.337
596.42	6.449
596.75	6.793
597.09	6.990
597.42	6.555
597.75	6.468
598.09	6.667
598.42	6.112
598.76	5.846
599.09	7.084
599.42	6.403
599.76	6.471
600.09	6.507
600.42	6.406
600.76	6.209
601.09	6.439
601.42	6.694
601.76	6.241
602.09	6.040
602.42	5.961
602.76	6.458
603.09	6.388
603.42	6.286
603.76	6.483
604.09	6.636
604.42	6.239
604.76	6.012
605.09	6.861
605.42	6.619
605.75	6.423
606.09	6.346
606.42	6.494
606.75	5.997
607.09	6.413
607.42	6.281
607.75	6.448
608.08	6.630
608.42	6.409
608.75	6.592
609.08	5.645
609.41	6.881
609.75	6.429
610.08	6.948
610.41	6.032
610.74	6.471
611.07	6.217
611.41	6.637
611.74	6.282
612.07	6.685
612.40	5.894
612.73	6.308
613.07	6.455
613.40	6.304
613.73	6.163
614.06	6.428
614.39	6.657
614.72	6.016
615.06	6.497
615.39	5.752
615.72	6.256
616.05	5.682
616.38	6.509
616.71	6.897
617.05	5.644
617.38	6.902
617.71	6.803
618.04	6.206
618.37	5.902
618.70	6.165
619.03	6.093
619.36	6.350
619.69	6.662
620.03	5.901
620.36	6.196
620.69	6.539
621.02	6.693
621.35	6.313
621.68	6.725
622.01	6.690
622.34	5.788
622.67	6.667
623.00	4.791
623.33	6.304
623.66	6.291
623.99	5.069
624.32	7.018
624.65	6.371
624.99	6.632
625.32	7.185
625.65	5.934
625.98	5.220
626.31	5.811
626.64	6.007
626.97	5.701
627.30	5.239
627.63	6.077
627.96	7.207
628.29	6.226
628.62	5.206
628.95	6.573
629.28	6.117
629.61	6.902
629.94	4.519
630.26	5.508
630.59	5.268
630.92	6.320
631.25	6.798
631.58	5.744
631.91	6.373
632.24	6.724
632.57	5.882
632.90	5.817
633.23	5.918
633.56	6.020
633.89	5.372
634.22	6.757
634.55	5.950
634.88	5.628
635.20	8.396
635.53	6.102
635.86	7.367
636.19	7.317
636.52	6.857
636.85	6.027
637.18	5.925
637.51	5.161
637.83	7.309
638.16	6.912
638.49	5.047
638.82	6.539
639.15	5.727
639.48	6.928
639.81	6.005
640.13	6.832
640.46	4.242
640.79	4.167
641.12	6.087
641.45	6.399
641.77	7.060
642.10	6.299
642.43	8.511
642.76	6.369
643.09	4.932
643.41	6.162
643.74	4.138
644.07	7.310
644.40	4.243
644.73	6.096
645.05	5.874
645.38	4.317
645.71	5.572
646.04	6.887
646.36	5.839
646.69	5.368
647.02	5.810
647.35	5.649
647.67	5.314
648.00	3.822
648.33	6.456
648.66	6.990
648.98	5.442
649.31	7.307
649.64	7.039
649.96	4.509
650.29	5.007
650.62	5.941
650.94	6.006
651.27	4.192
651.60	5.848
651.92	4.711
652.25	6.078
652.58	6.190
652.90	3.779
653.23	6.338
653.56	7.133
653.88	7.584
654.21	4.930
654.54	6.503
654.86	5.241
655.19	5.019
655.52	7.103
655.84	6.178
656.17	7.210
