SpectraSuite Data File
++++++++++++++++++++++++++++++++++++
Date: Thu May 14 14:47:03 PDT 2015
User: schluterlab
Dark Spectrum Present: Yes
Reference Spectrum Present: Yes
Number of Sampled Component Spectra: 1
Spectrometers: USB2E3373
Integration Time (usec): 3000 (USB2E3373)
Spectra Averaged: 3 (USB2E3373)
Boxcar Smoothing: 0 (USB2E3373)
Correct for Electrical Dark: No (USB2E3373)
Strobe/Lamp Enabled: No (USB2E3373)
Correct for Detector Non-linearity: No (USB2E3373)
Correct for Stray Light: No (USB2E3373)
Number of Pixels in Processed Spectrum: 2048
>>>>>Begin Processed Spectral Data<<<<<
178.53	0.000
178.91	-0.000
179.29	-700.000
179.67	-1000.000
180.04	78.571
180.42	10.000
180.80	120.000
181.18	-800.000
181.56	800.000
181.94	300.000
182.31	-175.000
182.69	133.333
183.07	-100.000
183.45	-0.000
183.83	83.333
184.20	-433.333
184.58	300.000
184.96	125.000
185.34	-44.444
185.72	60.000
186.09	188.889
186.47	550.000
186.85	220.000
187.23	-55.556
187.61	-1400.000
187.98	-0.000
188.36	-50.000
188.74	-350.000
189.12	0.000
189.49	-6.250
189.87	-12.500
190.25	0.000
190.63	-20.000
191.00	-100.000
191.38	0.000
191.76	100.000
192.14	50.000
192.51	-150.000
192.89	66.667
193.27	0.000
193.65	114.286
194.02	-600.000
194.40	14.286
194.78	71.429
195.15	0.000
195.53	109.091
195.91	0.000
196.29	0.000
196.66	15.385
197.04	-700.000
197.42	-57.143
197.79	-600.000
198.17	-150.000
198.55	42.857
198.92	-11.111
199.30	37.500
199.68	36.364
200.05	21.429
200.43	-150.000
200.81	242.857
201.18	0.000
201.56	133.333
201.94	0.000
202.31	-33.333
202.69	33.333
203.07	100.000
203.44	11.111
203.82	-225.000
204.19	25.000
204.57	133.333
204.95	12.500
205.32	400.000
205.70	50.000
206.08	33.333
206.45	-66.667
206.83	460.000
207.20	-16.667
207.58	-140.000
207.96	16.667
208.33	116.667
208.71	50.000
209.08	-33.333
209.46	0.000
209.84	266.667
210.21	50.000
210.59	-250.000
210.96	166.667
211.34	-175.000
211.71	-200.000
212.09	300.000
212.46	0.000
212.84	850.000
213.22	-140.000
213.59	-125.000
213.97	20.000
214.34	166.667
214.72	-33.333
215.09	0.000
215.47	0.000
215.84	85.714
216.22	250.000
216.59	40.000
216.97	-80.000
217.34	100.000
217.72	-87.500
218.09	-225.000
218.47	-200.000
218.84	0.000
219.22	-80.000
219.59	5.882
219.97	30.000
220.34	-50.000
220.72	0.000
221.09	61.538
221.47	300.000
221.84	10.000
222.22	-14.286
222.59	0.000
222.97	37.500
223.34	-260.000
223.72	-100.000
224.09	25.000
224.46	25.000
224.84	220.000
225.21	-85.714
225.59	-250.000
225.96	-225.000
226.34	34.615
226.71	116.667
227.08	200.000
227.46	33.333
227.83	-75.000
228.21	5.263
228.58	162.500
228.95	250.000
229.33	58.333
229.70	-10.000
230.08	78.947
230.45	110.000
230.82	33.333
231.20	14.286
231.57	8.333
231.95	-9.091
232.32	-18.182
232.69	40.000
233.07	-75.000
233.44	-17.647
233.81	20.000
234.19	77.778
234.56	31.818
234.93	17.241
235.31	31.579
235.68	55.556
236.05	-35.000
236.43	76.923
236.80	96.000
237.17	29.630
237.55	30.303
237.92	30.000
238.29	29.032
238.67	4.545
239.04	27.778
239.41	16.667
239.79	47.826
240.16	16.667
240.53	21.739
240.91	23.529
241.28	19.672
241.65	37.313
242.02	43.243
242.40	50.769
242.77	41.333
243.14	26.829
243.51	30.263
243.89	35.897
244.26	37.624
244.63	41.176
245.00	33.645
245.38	39.474
245.75	27.434
246.12	35.714
246.49	32.558
246.87	33.571
247.24	34.437
247.61	38.158
247.98	38.926
248.36	41.975
248.73	42.331
249.10	33.333
249.47	39.801
249.84	44.503
250.22	32.124
250.59	37.778
250.96	36.364
251.33	33.673
251.70	37.607
252.08	38.333
252.45	44.262
252.82	37.603
253.19	37.891
253.56	39.924
253.94	38.846
254.31	35.985
254.68	36.713
255.05	40.391
255.42	34.014
255.79	37.864
256.16	35.099
256.54	34.768
256.91	32.131
257.28	32.787
257.65	35.987
258.02	35.103
258.39	37.037
258.76	44.954
259.14	40.230
259.51	39.193
259.88	38.527
260.25	37.222
260.62	41.096
260.99	40.984
261.36	39.410
261.73	38.992
262.10	39.835
262.47	41.555
262.85	41.667
263.22	38.961
263.59	36.579
263.96	36.317
264.33	38.875
264.70	39.753
265.07	36.038
265.44	42.630
265.81	36.806
266.18	37.642
266.55	37.946
266.92	35.535
267.29	40.044
267.66	40.133
268.03	38.646
268.40	38.622
268.77	39.636
269.14	36.344
269.51	39.912
269.88	39.344
270.25	36.620
270.62	37.764
270.99	39.394
271.36	39.604
271.73	38.900
272.10	38.277
272.47	38.076
272.84	39.157
273.21	37.675
273.58	37.702
273.95	36.346
274.32	35.551
274.69	36.557
275.06	34.066
275.43	36.414
275.80	37.390
276.17	35.000
276.54	33.955
276.91	35.063
277.28	37.794
277.65	37.163
278.02	36.397
278.39	37.500
278.76	36.907
279.13	36.170
279.50	35.911
279.87	35.957
280.23	32.923
280.60	35.763
280.97	34.539
281.34	35.993
281.71	38.579
282.08	36.545
282.45	33.879
282.82	34.066
283.19	35.380
283.56	33.607
283.92	36.186
284.29	36.019
284.66	37.603
285.03	34.135
285.40	34.158
285.77	36.842
286.14	35.725
286.51	35.464
286.87	34.123
287.24	35.693
287.61	33.931
287.98	32.931
288.35	34.763
288.72	33.728
289.08	33.529
289.45	31.805
289.82	30.873
290.19	32.615
290.56	33.099
290.93	32.525
291.29	33.471
291.66	31.543
292.03	31.208
292.40	31.565
292.77	30.997
293.13	30.988
293.50	30.749
293.87	31.007
294.24	31.200
294.60	30.847
294.97	29.262
295.34	30.730
295.71	27.112
296.08	28.553
296.44	30.515
296.81	28.380
297.18	29.390
297.55	28.538
297.91	28.233
298.28	26.659
298.65	29.608
299.02	28.335
299.38	29.176
299.75	27.220
300.12	27.662
300.48	27.419
300.85	27.222
301.22	28.859
301.59	25.913
301.95	25.763
302.32	27.778
302.69	26.068
303.05	26.768
303.42	26.053
303.79	27.292
304.15	26.709
304.52	25.370
304.89	25.550
305.25	26.190
305.62	26.332
305.99	26.186
306.35	26.008
306.72	25.440
307.09	26.599
307.45	26.087
307.82	25.025
308.19	24.521
308.55	24.879
308.92	25.609
309.29	25.958
309.65	26.023
310.02	25.149
310.38	24.606
310.75	25.437
311.12	26.270
311.48	25.318
311.85	25.261
312.22	25.237
312.58	23.662
312.95	24.761
313.31	25.023
313.68	25.458
314.05	25.294
314.41	25.592
314.78	24.705
315.14	24.864
315.51	25.392
315.87	25.383
316.24	26.210
316.61	24.867
316.97	25.068
317.34	24.515
317.70	24.629
318.07	24.780
318.43	25.085
318.80	24.582
319.16	25.322
319.53	23.993
319.89	23.926
320.26	24.911
320.62	23.670
320.99	24.007
321.35	23.937
321.72	25.116
322.08	24.436
322.45	25.203
322.81	24.097
323.18	23.186
323.54	24.741
323.91	24.555
324.27	23.752
324.64	23.929
325.00	24.129
325.37	24.980
325.73	23.802
326.10	25.629
326.46	25.000
326.83	25.300
327.19	25.039
327.56	24.506
327.92	24.076
328.29	23.468
328.65	23.283
329.01	22.843
329.38	24.600
329.74	25.257
330.11	24.401
330.47	24.179
330.84	24.720
331.20	23.500
331.56	23.397
331.93	24.184
332.29	23.475
332.66	24.252
333.02	22.864
333.38	24.077
333.75	23.569
334.11	23.686
334.48	23.927
334.84	24.214
335.20	22.838
335.57	23.862
335.93	22.893
336.29	22.296
336.66	22.624
337.02	22.241
337.38	23.724
337.75	22.727
338.11	24.895
338.47	23.160
338.84	23.858
339.20	23.420
339.56	22.405
339.93	22.824
340.29	22.142
340.65	23.114
341.02	23.224
341.38	24.010
341.74	22.760
342.11	22.446
342.47	22.399
342.83	23.349
343.20	24.121
343.56	23.416
343.92	22.738
344.28	22.266
344.65	22.868
345.01	21.607
345.37	22.240
345.73	21.434
346.10	21.685
346.46	23.101
346.82	22.697
347.19	22.842
347.55	21.700
347.91	22.957
348.27	22.458
348.63	22.772
349.00	22.670
349.36	23.346
349.72	22.545
350.08	22.140
350.45	23.042
350.81	22.549
351.17	21.278
351.53	21.835
351.89	22.475
352.26	23.134
352.62	21.642
352.98	21.756
353.34	21.583
353.70	22.419
354.07	22.057
354.43	21.488
354.79	22.364
355.15	21.781
355.51	21.418
355.87	20.942
356.24	21.825
356.60	21.360
356.96	22.239
357.32	21.338
357.68	21.523
358.04	21.407
358.40	22.388
358.77	21.784
359.13	20.606
359.49	21.561
359.85	21.682
360.21	21.664
360.57	21.464
360.93	21.439
361.29	21.825
361.66	22.085
362.02	22.129
362.38	21.082
362.74	20.601
363.10	21.045
363.46	21.676
363.82	20.384
364.18	22.027
364.54	21.853
364.90	20.468
365.26	21.034
365.62	22.200
365.98	21.920
366.35	20.604
366.71	21.769
367.07	19.959
367.43	21.011
367.79	21.765
368.15	22.007
368.51	20.907
368.87	21.097
369.23	20.733
369.59	21.380
369.95	21.231
370.31	20.864
370.67	21.320
371.03	20.429
371.39	20.349
371.75	21.733
372.11	21.748
372.47	21.056
372.83	22.709
373.19	20.414
373.55	19.851
373.91	20.586
374.27	21.216
374.63	21.042
374.99	20.623
375.35	21.558
375.71	20.516
376.07	20.917
376.42	20.907
376.78	20.385
377.14	21.335
377.50	20.367
377.86	21.244
378.22	21.737
378.58	20.273
378.94	20.599
379.30	21.207
379.66	21.046
380.02	20.658
380.38	21.659
380.74	21.014
381.09	20.557
381.45	19.489
381.81	21.370
382.17	20.665
382.53	21.170
382.89	20.824
383.25	21.043
383.61	19.850
383.97	20.848
384.32	21.292
384.68	20.360
385.04	21.342
385.40	21.332
385.76	21.395
386.12	20.886
386.48	21.294
386.83	20.739
387.19	20.162
387.55	20.481
387.91	21.005
388.27	20.266
388.62	20.389
388.98	20.361
389.34	21.744
389.70	21.092
390.06	20.782
390.42	20.422
390.77	21.072
391.13	20.423
391.49	22.343
391.85	20.424
392.20	20.937
392.56	21.087
392.92	20.556
393.28	21.393
393.64	20.782
393.99	21.499
394.35	21.145
394.71	21.497
395.07	20.599
395.42	20.674
395.78	20.963
396.14	21.093
396.50	20.368
396.85	21.169
397.21	19.408
397.57	21.260
397.92	20.790
398.28	19.989
398.64	20.767
399.00	20.419
399.35	20.733
399.71	20.598
400.07	20.831
400.42	21.653
400.78	20.544
401.14	20.774
401.49	20.750
401.85	21.221
402.21	20.626
402.57	21.244
402.92	20.626
403.28	20.258
403.63	20.107
403.99	20.131
404.35	20.409
404.70	20.793
405.06	20.380
405.42	21.136
405.77	20.502
406.13	20.746
406.49	20.833
406.84	20.720
407.20	19.788
407.55	20.109
407.91	20.427
408.27	20.200
408.62	20.710
408.98	20.488
409.34	20.352
409.69	20.581
410.05	20.457
410.40	21.404
410.76	19.910
411.11	21.099
411.47	20.946
411.83	20.870
412.18	21.386
412.54	20.213
412.89	20.955
413.25	20.655
413.60	20.333
413.96	20.746
414.31	20.510
414.67	20.692
415.03	19.815
415.38	20.113
415.74	20.586
416.09	21.283
416.45	20.914
416.80	20.747
417.16	19.796
417.51	20.797
417.87	20.601
418.22	20.479
418.58	19.765
418.93	20.081
419.29	20.469
419.64	20.108
420.00	19.525
420.35	21.224
420.71	20.103
421.06	20.702
421.42	20.929
421.77	20.517
422.12	19.873
422.48	19.560
422.83	20.537
423.19	19.788
423.54	20.686
423.90	20.320
424.25	19.947
424.61	19.805
424.96	19.769
425.31	20.966
425.67	20.397
426.02	19.867
426.38	20.264
426.73	18.973
427.09	21.223
427.44	19.825
427.79	20.343
428.15	20.320
428.50	20.225
428.85	19.346
429.21	21.383
429.56	19.348
429.92	20.000
430.27	20.048
430.62	20.274
430.98	19.725
431.33	19.257
431.68	19.636
432.04	20.010
432.39	20.086
432.74	19.635
433.10	20.660
433.45	19.064
433.80	20.762
434.16	19.215
434.51	19.784
434.86	20.630
435.22	20.723
435.57	21.050
435.92	19.588
436.28	19.397
436.63	19.880
436.98	19.646
437.34	20.519
437.69	20.253
438.04	19.937
438.39	19.874
438.75	19.480
439.10	19.397
439.45	20.626
439.81	19.831
440.16	19.410
440.51	20.569
440.86	19.011
441.22	19.668
441.57	19.182
441.92	19.884
442.27	20.657
442.63	20.318
442.98	20.331
443.33	19.832
443.68	21.060
444.03	20.273
444.39	20.388
444.74	19.908
445.09	19.665
445.44	19.652
445.79	20.594
446.15	20.247
446.50	18.760
446.85	20.185
447.20	20.358
447.55	20.607
447.91	19.581
448.26	19.609
448.61	19.447
448.96	20.815
449.31	19.883
449.66	20.153
450.02	19.937
450.37	19.979
450.72	19.429
451.07	19.590
451.42	19.757
451.77	19.566
452.12	19.752
452.47	20.143
452.83	19.651
453.18	19.556
453.53	18.782
453.88	19.547
454.23	20.113
454.58	20.488
454.93	20.146
455.28	19.446
455.63	18.931
455.98	19.888
456.34	20.141
456.69	19.342
457.04	20.095
457.39	19.124
457.74	20.582
458.09	19.165
458.44	20.366
458.79	19.134
459.14	19.612
459.49	20.317
459.84	19.570
460.19	19.045
460.54	19.761
460.89	19.640
461.24	19.425
461.59	20.255
461.94	18.825
462.29	19.821
462.64	19.553
462.99	19.083
463.34	19.922
463.69	19.402
464.04	20.067
464.39	18.778
464.74	20.296
465.09	20.012
465.44	19.635
465.79	20.360
466.14	19.541
466.49	19.842
466.84	20.110
467.19	20.173
467.54	19.330
467.89	19.368
468.24	20.277
468.59	18.703
468.94	18.531
469.29	20.456
469.64	18.754
469.99	18.292
470.34	18.688
470.68	19.754
471.03	18.402
471.38	19.359
471.73	18.531
472.08	19.099
472.43	19.025
472.78	18.892
473.13	18.837
473.48	19.758
473.83	19.327
474.17	19.871
474.52	19.723
474.87	19.380
475.22	19.493
475.57	18.640
475.92	19.313
476.27	19.276
476.61	19.211
476.96	18.352
477.31	18.911
477.66	19.727
478.01	18.861
478.36	19.093
478.70	19.409
479.05	19.785
479.40	18.707
479.75	19.885
480.10	18.190
480.45	18.232
480.79	18.821
481.14	18.934
481.49	19.173
481.84	19.408
482.19	19.140
482.53	19.195
482.88	18.919
483.23	18.986
483.58	19.083
483.92	18.573
484.27	18.967
484.62	18.977
484.97	18.313
485.31	18.796
485.66	18.985
486.01	19.224
486.36	20.297
486.70	20.793
487.05	20.563
487.40	19.550
487.75	18.906
488.09	19.583
488.44	18.372
488.79	18.617
489.13	18.067
489.48	18.524
489.83	17.586
490.17	17.942
490.52	18.514
490.87	18.993
491.22	18.891
491.56	19.198
491.91	18.927
492.26	18.260
492.60	19.108
492.95	18.605
493.30	18.691
493.64	18.353
493.99	19.211
494.34	18.902
494.68	18.715
495.03	19.383
495.37	18.509
495.72	19.229
496.07	18.624
496.41	18.233
496.76	18.974
497.11	19.448
497.45	18.386
497.80	18.303
498.14	18.685
498.49	18.015
498.84	18.327
499.18	18.758
499.53	18.969
499.87	19.297
500.22	18.032
500.56	18.399
500.91	19.085
501.26	19.182
501.60	18.559
501.95	19.540
502.29	18.780
502.64	18.846
502.98	18.248
503.33	18.575
503.67	18.578
504.02	18.870
504.36	18.677
504.71	18.512
505.06	19.191
505.40	18.693
505.75	18.033
506.09	19.153
506.44	18.617
506.78	19.358
507.13	18.534
507.47	18.285
507.82	18.892
508.16	18.356
508.51	18.331
508.85	18.375
509.19	18.617
509.54	18.348
509.88	19.233
510.23	18.747
510.57	19.285
510.92	18.820
511.26	17.749
511.61	17.866
511.95	18.643
512.30	18.021
512.64	17.941
512.98	18.259
513.33	19.052
513.67	18.715
514.02	18.549
514.36	19.233
514.70	18.802
515.05	18.300
515.39	18.058
515.74	19.353
516.08	18.965
516.42	18.524
516.77	18.875
517.11	18.412
517.46	18.187
517.80	18.600
518.14	19.206
518.49	18.438
518.83	18.148
519.17	18.040
519.52	18.816
519.86	18.004
520.20	19.010
520.55	17.853
520.89	18.806
521.23	18.537
521.58	18.249
521.92	18.640
522.26	18.385
522.61	18.750
522.95	18.512
523.29	18.333
523.64	18.498
523.98	18.483
524.32	18.797
524.66	18.042
525.01	17.780
525.35	17.978
525.69	18.619
526.04	17.394
526.38	18.793
526.72	18.973
527.06	19.120
527.41	18.367
527.75	19.715
528.09	17.828
528.43	17.584
528.78	18.497
529.12	17.661
529.46	18.381
529.80	18.421
530.15	18.609
530.49	18.743
530.83	19.008
531.17	17.802
531.51	18.773
531.86	19.111
532.20	18.780
532.54	18.731
532.88	18.788
533.22	18.385
533.57	18.754
533.91	18.238
534.25	18.598
534.59	18.333
534.93	19.128
535.27	18.986
535.62	18.988
535.96	19.291
536.30	19.213
536.64	18.679
536.98	19.434
537.32	18.704
537.66	18.902
538.01	19.094
538.35	18.758
538.69	17.969
539.03	19.497
539.37	18.787
539.71	18.438
540.05	18.585
540.39	18.521
540.73	18.276
541.07	19.375
541.42	18.252
541.76	17.734
542.10	18.094
542.44	18.027
542.78	18.552
543.12	18.355
543.46	17.827
543.80	18.165
544.14	18.312
544.48	18.558
544.82	19.090
545.16	19.082
545.50	18.274
545.84	17.820
546.18	19.074
546.52	19.045
546.86	18.679
547.20	18.321
547.54	17.541
547.88	17.902
548.22	18.772
548.56	18.958
548.90	18.627
549.24	18.723
549.58	17.729
549.92	17.857
550.26	18.641
550.60	18.124
550.94	18.111
551.28	17.294
551.62	18.194
551.96	18.641
552.30	19.758
552.64	18.482
552.98	19.339
553.32	18.071
553.66	19.035
554.00	19.231
554.34	19.048
554.68	18.012
555.02	17.346
555.36	19.001
555.69	18.514
556.03	18.222
556.37	17.209
556.71	18.389
557.05	18.594
557.39	18.049
557.73	18.560
558.07	18.344
558.41	18.870
558.75	18.729
559.08	18.511
559.42	18.313
559.76	18.521
560.10	18.821
560.44	18.404
560.78	19.500
561.12	19.704
561.45	19.404
561.79	18.926
562.13	18.916
562.47	17.941
562.81	19.051
563.15	17.803
563.48	18.334
563.82	18.742
564.16	18.231
564.50	18.117
564.84	18.820
565.17	18.824
565.51	18.930
565.85	18.705
566.19	18.145
566.52	17.788
566.86	18.846
567.20	18.543
567.54	18.800
567.88	19.215
568.21	19.121
568.55	18.993
568.89	19.519
569.23	19.223
569.56	19.734
569.90	20.064
570.24	19.899
570.57	19.403
570.91	19.565
571.25	19.902
571.59	19.872
571.92	19.696
572.26	20.116
572.60	20.147
572.93	20.095
573.27	19.472
573.61	20.037
573.95	19.956
574.28	20.463
574.62	19.600
574.96	19.740
575.29	19.916
575.63	19.935
575.97	19.497
576.30	19.442
576.64	19.423
576.98	20.000
577.31	19.470
577.65	20.078
577.98	20.482
578.32	19.912
578.66	20.279
578.99	19.619
579.33	19.942
579.67	19.628
580.00	19.780
580.34	19.328
580.67	19.462
581.01	19.472
581.35	19.716
581.68	20.408
582.02	20.700
582.35	20.569
582.69	20.373
583.02	20.071
583.36	19.860
583.70	19.427
584.03	19.198
584.37	19.230
584.70	19.291
585.04	19.484
585.37	19.819
585.71	19.978
586.04	20.145
586.38	19.568
586.72	19.278
587.05	19.186
587.39	19.870
587.72	20.263
588.06	19.512
588.39	20.015
588.73	19.206
589.06	19.752
589.40	20.037
589.73	18.734
590.07	19.629
590.40	20.352
590.73	19.548
591.07	19.360
591.40	18.663
591.74	19.436
592.07	19.326
592.41	19.953
592.74	19.595
593.08	19.904
593.41	20.706
593.75	19.914
594.08	20.055
594.41	19.744
594.75	19.528
595.08	19.179
595.42	19.643
595.75	18.986
596.09	19.044
596.42	19.097
596.75	19.375
597.09	19.556
597.42	18.752
597.75	18.855
598.09	19.048
598.42	18.979
598.76	18.800
599.09	20.185
599.42	19.645
599.76	19.544
600.09	19.753
600.42	20.320
600.76	19.485
601.09	19.648
601.42	19.636
601.76	19.310
602.09	19.192
602.42	19.120
602.76	19.151
603.09	19.530
603.42	19.834
603.76	19.168
604.09	20.192
604.42	19.780
604.76	19.216
605.09	19.346
605.42	19.418
605.75	18.731
606.09	19.410
606.42	18.752
606.75	19.378
607.09	19.316
607.42	19.538
607.75	19.383
608.08	19.416
608.42	18.783
608.75	18.947
609.08	19.143
609.41	19.277
609.75	19.018
610.08	19.481
610.41	18.692
610.74	18.992
611.07	18.961
611.41	19.103
611.74	19.446
612.07	18.654
612.40	19.154
612.73	18.435
613.07	18.631
613.40	19.201
613.73	18.873
614.06	18.793
614.39	19.096
614.72	18.292
615.06	18.239
615.39	18.898
615.72	18.957
616.05	18.796
616.38	19.425
616.71	18.757
617.05	18.104
617.38	19.690
617.71	19.168
618.04	18.996
618.37	18.962
618.70	18.326
619.03	18.459
619.36	17.941
619.69	17.681
620.03	18.456
620.36	19.018
620.69	18.939
621.02	18.963
621.35	17.852
621.68	18.004
622.01	17.438
622.34	18.131
622.67	18.282
623.00	17.611
623.33	18.713
623.66	19.261
623.99	18.236
624.32	19.688
624.65	17.825
624.99	18.596
625.32	18.681
625.65	17.937
625.98	17.627
626.31	18.072
626.64	18.168
626.97	17.779
627.30	17.920
627.63	17.629
627.96	18.468
628.29	18.599
628.62	15.449
628.95	17.003
629.28	17.757
629.61	18.434
629.94	17.657
630.26	16.441
630.59	17.876
630.92	17.576
631.25	18.068
631.58	18.267
631.91	17.807
632.24	16.907
632.57	17.932
632.90	17.151
633.23	17.347
633.56	16.837
633.89	16.322
634.22	18.503
634.55	17.119
