SpectraSuite Data File
++++++++++++++++++++++++++++++++++++
Date: Thu May 14 15:16:28 PDT 2015
User: schluterlab
Dark Spectrum Present: Yes
Reference Spectrum Present: Yes
Number of Sampled Component Spectra: 1
Spectrometers: USB2E3373
Integration Time (usec): 3000 (USB2E3373)
Spectra Averaged: 3 (USB2E3373)
Boxcar Smoothing: 0 (USB2E3373)
Correct for Electrical Dark: No (USB2E3373)
Strobe/Lamp Enabled: No (USB2E3373)
Correct for Detector Non-linearity: No (USB2E3373)
Correct for Stray Light: No (USB2E3373)
Number of Pixels in Processed Spectrum: 2048
>>>>>Begin Processed Spectral Data<<<<<
178.53	0.000
178.91	600.000
179.29	-4300.000
179.67	-4100.000
180.04	400.000
180.42	390.000
180.80	920.000
181.18	-3800.000
181.56	-3200.000
181.94	1000.000
182.31	-950.000
182.69	1366.667
183.07	-2100.000
183.45	1150.000
183.83	-650.000
184.20	-1066.667
184.58	4200.000
184.96	-1125.000
185.34	-488.889
185.72	-820.000
186.09	622.222
186.47	2350.000
186.85	1120.000
187.23	-566.667
187.61	-5000.000
187.98	960.000
188.36	1025.000
188.74	-1025.000
189.12	-1166.667
189.49	-175.000
189.87	-487.500
190.25	-366.667
190.63	-540.000
191.00	-400.000
191.38	0.000
191.76	-1050.000
192.14	-700.000
192.51	1850.000
192.89	-566.667
193.27	0.000
193.65	-428.571
194.02	-4300.000
194.40	-514.286
194.78	514.286
195.15	0.000
195.53	-354.545
195.91	0.000
196.29	-875.000
196.66	-184.615
197.04	-3900.000
197.42	-528.571
197.79	-2100.000
198.17	-512.500
198.55	-671.429
198.92	-355.556
199.30	-500.000
199.68	-290.909
200.05	-242.857
200.43	-1850.000
200.81	628.571
201.18	0.000
201.56	544.444
201.94	0.000
202.31	1566.667
202.69	-511.111
203.07	3200.000
203.44	-277.778
203.82	-1000.000
204.19	-375.000
204.57	-583.333
204.95	-537.500
205.32	-4000.000
205.70	800.000
206.08	-583.333
206.45	-566.667
206.83	1120.000
207.20	-850.000
207.58	-860.000
207.96	-666.667
208.33	-633.333
208.71	308.333
209.08	-450.000
209.46	0.000
209.84	700.000
210.21	2300.000
210.59	1800.000
210.96	1233.333
211.34	-600.000
211.71	-462.500
212.09	-4500.000
212.46	0.000
212.84	2450.000
213.22	-840.000
213.59	-950.000
213.97	-390.000
214.34	-1200.000
214.72	716.667
215.09	-975.000
215.47	0.000
215.84	614.286
216.22	2600.000
216.59	-760.000
216.97	-740.000
217.34	-1025.000
217.72	-525.000
218.09	-1175.000
218.47	-1275.000
218.84	0.000
219.22	780.000
219.59	-217.647
219.97	-170.000
220.34	2050.000
220.72	-422.222
221.09	-253.846
221.47	-1166.667
221.84	-280.000
222.22	-571.429
222.59	0.000
222.97	-450.000
223.34	-820.000
223.72	-3600.000
224.09	-875.000
224.46	-900.000
224.84	-620.000
225.21	-528.571
225.59	-1225.000
225.96	-975.000
226.34	-126.923
226.71	766.667
227.08	-1750.000
227.46	-226.667
227.83	-675.000
228.21	-142.105
228.58	525.000
228.95	1900.000
229.33	-291.667
229.70	-290.000
230.08	-136.842
230.45	430.000
230.82	-966.667
231.20	-235.714
231.57	-225.000
231.95	-309.091
232.32	-263.636
232.69	-145.000
233.07	-1050.000
233.44	-188.235
233.81	-360.000
234.19	-144.444
234.56	-127.273
234.93	-82.759
235.31	-157.895
235.68	-166.667
236.05	-195.000
236.43	-107.692
236.80	-72.000
237.17	-125.926
237.55	-72.727
237.92	-270.000
238.29	-51.613
238.67	-56.818
239.04	-75.000
239.41	-71.429
239.79	-69.565
240.16	-44.444
240.53	-52.174
240.91	-62.745
241.28	-36.066
241.65	-22.388
242.02	-18.919
242.40	-36.923
242.77	-26.667
243.14	-20.732
243.51	-38.158
243.89	-24.359
244.26	-12.871
244.63	-10.784
245.00	-0.935
245.38	-7.895
245.75	-14.159
246.12	3.175
246.49	0.000
246.87	0.000
247.24	1.325
247.61	-3.947
247.98	4.027
248.36	5.556
248.73	-3.681
249.10	3.825
249.47	13.433
249.84	13.089
250.22	5.181
250.59	6.111
250.96	12.727
251.33	4.592
251.70	11.538
252.08	12.500
252.45	9.836
252.82	10.331
253.19	11.719
253.56	13.688
253.94	11.538
254.31	12.879
254.68	13.986
255.05	15.961
255.42	12.245
255.79	14.563
256.16	13.907
256.54	14.570
256.91	16.721
257.28	14.098
257.65	17.834
258.02	14.159
258.39	17.094
258.76	18.349
259.14	18.678
259.51	18.156
259.88	14.448
260.25	17.222
260.62	18.904
260.99	19.399
261.36	19.303
261.73	20.690
262.10	18.407
262.47	20.107
262.85	21.970
263.22	19.481
263.59	18.158
263.96	20.460
264.33	17.136
264.70	20.741
265.07	18.854
265.44	22.222
265.81	18.981
266.18	22.449
266.55	19.420
266.92	17.084
267.29	22.757
267.66	19.734
268.03	18.996
268.40	19.207
268.77	18.907
269.14	20.925
269.51	21.053
269.88	23.566
270.25	19.920
270.62	21.941
270.99	22.424
271.36	19.208
271.73	21.415
272.10	22.044
272.47	19.639
272.84	21.888
273.21	21.242
273.58	20.363
273.95	20.000
274.32	18.061
274.69	19.149
275.06	22.161
275.43	19.039
275.80	20.106
276.17	19.444
276.54	19.776
276.91	18.784
277.28	20.796
277.65	19.749
278.02	18.934
278.39	20.109
278.76	21.617
279.13	20.745
279.50	19.759
279.87	21.467
280.23	18.486
280.60	19.661
280.97	19.737
281.34	21.562
281.71	22.335
282.08	17.608
282.45	19.804
282.82	19.152
283.19	17.609
283.56	21.639
283.92	20.871
284.29	22.275
284.66	19.048
285.03	19.231
285.40	19.784
285.77	20.433
286.14	20.611
286.51	19.330
286.87	19.115
287.24	22.289
287.61	19.432
287.98	18.580
288.35	20.266
288.72	20.414
289.08	20.351
289.45	18.639
289.82	17.169
290.19	16.954
290.56	16.901
290.93	17.689
291.29	18.457
291.66	18.044
292.03	16.825
292.40	20.136
292.77	18.598
293.13	16.915
293.50	16.820
293.87	15.839
294.24	19.600
294.60	18.078
294.97	17.852
295.34	18.566
295.71	16.646
296.08	16.150
296.44	16.422
296.81	15.469
297.18	16.438
297.55	16.981
297.91	17.082
298.28	14.573
298.65	16.290
299.02	16.765
299.38	16.590
299.75	15.888
300.12	14.699
300.48	15.899
300.85	15.748
301.22	15.324
301.59	15.525
301.95	16.610
302.32	15.000
302.69	15.663
303.05	16.431
303.42	15.632
303.79	15.937
304.15	15.037
304.52	14.376
304.89	16.230
305.25	15.735
305.62	15.778
305.99	16.392
306.35	15.625
306.72	17.787
307.09	14.721
307.45	16.046
307.82	15.439
308.19	14.531
308.55	17.454
308.92	15.482
309.29	15.709
309.65	15.107
310.02	16.040
310.38	14.862
310.75	16.117
311.12	15.628
311.48	14.663
311.85	14.720
312.22	15.275
312.58	15.962
312.95	14.627
313.31	16.170
313.68	15.842
314.05	16.170
314.41	14.390
314.78	16.076
315.14	16.606
315.51	17.175
315.87	17.462
316.24	16.438
316.61	17.318
316.97	17.195
317.34	17.372
317.70	17.729
318.07	17.019
318.43	18.878
318.80	18.729
319.16	18.455
319.53	17.995
319.89	18.843
320.26	19.573
320.62	18.174
320.99	20.591
321.35	18.669
321.72	20.930
322.08	18.936
322.45	20.687
322.81	20.126
323.18	21.062
323.54	20.862
323.91	21.975
324.27	21.601
324.64	23.090
325.00	23.217
325.37	23.587
325.73	23.884
326.10	25.304
326.46	25.000
326.83	24.660
327.19	24.409
327.56	25.771
327.92	25.806
328.29	25.484
328.65	26.131
329.01	26.481
329.38	26.706
329.74	26.370
330.11	28.596
330.47	27.885
330.84	26.270
331.20	28.667
331.56	29.116
331.93	30.460
332.29	29.576
332.66	29.402
333.02	29.481
333.38	28.272
333.75	29.882
334.11	30.609
334.48	30.116
334.84	30.501
335.20	29.975
335.57	31.619
335.93	31.322
336.29	30.865
336.66	32.128
337.02	31.104
337.38	32.228
337.75	30.496
338.11	31.876
338.47	32.589
338.84	31.980
339.20	31.087
339.56	31.713
339.93	31.691
340.29	31.804
340.65	31.306
341.02	32.961
341.38	32.013
341.74	32.284
342.11	33.226
342.47	31.533
342.83	32.609
343.20	33.115
343.56	34.322
343.92	32.906
344.28	33.750
344.65	33.411
345.01	32.449
345.37	33.593
345.73	33.593
346.10	34.009
346.46	33.940
346.82	34.307
347.19	33.461
347.55	34.294
347.91	34.398
348.27	33.080
348.63	33.892
349.00	33.632
349.36	33.755
349.72	33.185
350.08	33.878
350.45	35.589
350.81	34.163
351.17	34.586
351.53	34.723
351.89	34.776
352.26	34.478
352.62	36.194
352.98	34.504
353.34	34.951
353.70	35.208
354.07	35.097
354.43	35.611
354.79	35.004
355.15	35.835
355.51	35.819
355.87	36.425
356.24	35.970
356.60	35.698
356.96	36.916
357.32	35.762
357.68	35.212
358.04	34.880
358.40	36.119
358.77	36.111
359.13	37.075
359.49	35.613
359.85	35.823
360.21	35.366
360.57	37.258
360.93	36.248
361.29	37.544
361.66	37.726
362.02	38.831
362.38	37.597
362.74	37.709
363.10	37.895
363.46	38.643
363.82	38.991
364.18	39.550
364.54	38.382
364.90	38.997
365.26	39.379
365.62	39.400
365.98	39.959
366.35	39.060
366.71	41.020
367.07	39.783
367.43	39.987
367.79	41.141
368.15	41.137
368.51	41.069
368.87	40.431
369.23	40.667
369.59	41.735
369.95	41.109
370.31	41.526
370.67	42.435
371.03	42.175
371.39	41.706
371.75	42.572
372.11	42.480
372.47	42.519
372.83	43.325
373.19	42.161
373.55	42.412
373.91	43.490
374.27	43.661
374.63	45.602
374.99	43.966
375.35	45.065
375.71	44.129
376.07	46.030
376.42	46.159
376.78	45.743
377.14	45.352
377.50	45.731
377.86	46.552
378.22	46.587
378.58	48.395
378.94	47.887
379.30	47.569
379.66	48.031
380.02	48.759
380.38	50.288
380.74	49.239
381.09	49.942
381.45	50.170
381.81	51.874
382.17	50.831
382.53	51.637
382.89	50.339
383.25	52.989
383.61	53.009
383.97	53.651
384.32	54.426
384.68	52.610
385.04	53.846
385.40	55.981
385.76	55.100
386.12	54.578
386.48	55.941
386.83	55.423
387.19	55.968
387.55	56.279
387.91	57.249
388.27	57.564
388.62	58.190
388.98	57.755
389.34	58.928
389.70	59.791
390.06	58.141
390.42	58.373
390.77	59.603
391.13	59.624
391.49	61.655
391.85	61.879
392.20	61.388
392.56	60.189
392.92	60.414
393.28	61.305
393.64	61.676
393.99	62.929
394.35	63.376
394.71	63.593
395.07	63.293
395.42	64.306
395.78	64.839
396.14	65.359
396.50	64.252
396.85	64.103
397.21	64.675
397.57	64.370
397.92	65.922
398.28	65.291
398.64	66.076
399.00	65.497
399.35	66.859
399.71	67.609
400.07	69.568
400.42	68.859
400.78	67.882
401.14	67.900
401.49	69.016
401.85	69.884
402.21	69.930
402.57	70.951
402.92	69.917
403.28	69.731
403.63	70.227
403.99	70.071
404.35	70.153
404.70	69.915
405.06	68.533
405.42	72.541
405.77	71.538
406.13	71.691
406.49	73.480
406.84	73.130
407.20	71.884
407.55	73.107
407.91	73.224
408.27	72.085
408.62	73.298
408.98	74.405
409.34	74.839
409.69	75.958
410.05	74.385
410.40	75.580
410.76	75.547
411.11	75.219
411.47	76.536
411.83	76.367
412.18	78.072
412.54	76.349
412.89	76.484
413.25	77.201
413.60	78.231
413.96	76.981
414.31	76.374
414.67	77.937
415.03	77.354
415.38	78.247
415.74	78.681
416.09	79.087
416.45	77.646
416.80	78.580
417.16	80.268
417.51	80.511
417.87	80.319
418.22	81.078
418.58	80.235
418.93	81.141
419.29	82.491
419.64	80.972
420.00	82.611
420.35	81.246
420.71	82.826
421.06	82.231
421.42	84.060
421.77	81.691
422.12	82.030
422.48	83.973
422.83	85.597
423.19	84.828
423.54	86.504
423.90	83.932
424.25	86.773
424.61	85.706
424.96	86.601
425.31	85.616
425.67	86.581
426.02	88.600
426.38	88.232
426.73	87.444
427.09	87.889
427.44	86.073
427.79	87.839
428.15	86.644
428.50	89.888
428.85	88.289
429.21	89.947
429.56	89.240
429.92	89.189
430.27	90.458
430.62	90.914
430.98	89.966
431.33	90.909
431.68	89.607
432.04	93.195
432.39	92.769
432.74	91.438
433.10	91.563
433.45	92.698
433.80	91.416
434.16	91.167
434.51	95.427
434.86	97.123
435.22	96.865
435.57	96.226
435.92	95.270
436.28	95.620
436.63	97.051
436.98	94.310
437.34	96.731
437.69	97.523
438.04	95.611
438.39	96.841
438.75	96.348
439.10	97.357
439.45	95.249
439.81	96.949
440.16	97.373
440.51	96.600
440.86	95.664
441.22	96.463
441.57	98.113
441.92	97.624
442.27	99.596
442.63	98.808
442.98	97.705
443.33	97.475
443.68	98.712
444.03	100.282
444.39	101.156
444.74	100.715
445.09	100.659
445.44	100.263
445.79	100.958
446.15	100.565
446.50	99.380
446.85	101.313
447.20	101.692
447.55	103.609
447.91	100.785
448.26	102.696
448.61	101.488
448.96	103.219
449.31	99.417
449.66	102.124
450.02	100.527
450.37	101.811
450.72	103.714
451.07	103.075
451.42	102.715
451.77	102.390
452.12	104.402
452.47	102.971
452.83	105.968
453.18	103.269
453.53	104.365
453.88	103.589
454.23	104.124
454.58	105.223
454.93	105.158
455.28	103.552
455.63	103.752
455.98	103.687
456.34	105.183
456.69	104.821
457.04	107.624
457.39	104.767
457.74	108.277
458.09	104.558
458.44	105.981
458.79	104.384
459.14	105.821
459.49	108.829
459.84	107.083
460.19	105.275
460.54	106.871
460.89	110.270
461.24	106.839
461.59	107.637
461.94	105.705
462.29	110.302
462.64	107.061
462.99	108.286
463.34	107.982
463.69	104.689
464.04	107.838
464.39	108.184
464.74	105.530
465.09	106.747
465.44	107.994
465.79	106.663
466.14	105.993
466.49	106.474
466.84	109.256
467.19	110.462
467.54	106.992
467.89	108.161
468.24	108.199
468.59	106.427
468.94	107.751
469.29	107.079
469.64	107.502
469.99	108.540
470.34	109.158
470.68	111.005
471.03	110.413
471.38	111.184
471.73	110.923
472.08	110.977
472.43	110.295
472.78	108.942
473.13	110.430
473.48	109.970
473.83	110.157
474.17	109.320
474.52	111.305
474.87	108.638
475.22	110.761
475.57	110.073
475.92	111.349
476.27	110.703
476.61	110.073
476.96	110.219
477.31	109.406
477.66	111.280
478.01	111.439
478.36	108.824
478.70	110.394
479.05	113.701
479.40	113.722
479.75	110.375
480.10	110.279
480.45	111.304
480.79	111.066
481.14	110.478
481.49	111.131
481.84	111.010
482.19	112.129
482.53	112.418
482.88	112.760
483.23	112.272
483.58	110.437
483.92	110.993
484.27	111.304
484.62	110.479
484.97	109.448
485.31	108.307
485.66	99.514
486.01	98.873
486.36	104.087
486.70	109.971
487.05	115.095
487.40	113.350
487.75	110.407
488.09	109.608
488.44	107.737
488.79	108.229
489.13	106.770
489.48	108.621
489.83	109.014
490.17	109.680
490.52	111.125
490.87	110.914
491.22	112.738
491.56	110.452
491.91	111.906
492.26	110.428
492.60	112.462
492.95	111.365
493.30	112.864
493.64	113.447
493.99	111.579
494.34	112.848
494.68	111.820
495.03	113.700
495.37	112.783
495.72	111.293
496.07	111.919
496.41	111.111
496.76	112.844
497.11	113.461
497.45	111.869
497.80	113.594
498.14	111.973
498.49	113.235
498.84	113.665
499.18	113.540
499.53	112.377
499.87	112.484
500.22	112.956
500.56	113.135
500.91	113.593
501.26	114.182
501.60	113.168
501.95	112.115
502.29	113.910
502.64	113.686
502.98	110.440
503.33	112.613
503.67	112.473
504.02	112.434
504.36	114.745
504.71	116.169
505.06	113.279
505.40	112.706
505.75	113.206
506.09	113.904
506.44	114.485
506.78	115.275
507.13	114.799
507.47	114.922
507.82	114.347
508.16	114.771
508.51	114.909
508.85	116.013
509.19	115.917
509.54	115.802
509.88	115.590
510.23	116.756
510.57	115.853
510.92	115.675
511.26	116.210
511.61	114.631
511.95	115.520
512.30	117.134
512.64	115.992
512.98	116.908
513.33	116.583
513.67	118.103
514.02	119.111
514.36	119.795
514.70	118.281
515.05	120.229
515.39	119.423
515.74	120.042
516.08	118.806
516.42	120.042
516.77	118.297
517.11	118.773
517.46	120.414
517.80	121.486
518.14	120.947
518.49	120.770
518.83	119.053
519.17	119.332
519.52	120.650
519.86	120.697
520.20	121.086
520.55	121.084
520.89	121.734
521.23	121.217
521.58	122.599
521.92	123.796
522.26	121.936
522.61	123.438
522.95	123.933
523.29	124.483
523.64	122.365
523.98	124.358
524.32	125.158
524.66	124.018
525.01	122.310
525.35	122.573
525.69	123.898
526.04	120.436
526.38	125.230
526.72	123.587
527.06	126.628
527.41	125.248
527.75	125.059
528.09	123.849
528.43	122.558
528.78	123.295
529.12	126.147
529.46	123.777
529.80	123.856
530.15	124.058
530.49	125.563
530.83	124.675
531.17	124.194
531.51	124.067
531.86	124.399
532.20	126.159
532.54	123.040
532.88	125.515
533.22	123.217
533.57	123.485
533.91	121.773
534.25	122.442
534.59	125.115
534.93	124.109
535.27	123.606
535.62	126.492
535.96	124.811
536.30	123.502
536.64	123.844
536.98	126.568
537.32	124.259
537.66	126.076
538.01	120.483
538.35	122.838
538.69	124.639
539.03	126.119
539.37	121.908
539.71	122.342
540.05	123.261
540.39	123.594
540.73	122.647
541.07	124.157
541.42	121.264
541.76	120.107
542.10	123.040
542.44	122.107
542.78	122.080
543.12	123.302
543.46	122.222
543.80	122.122
544.14	123.040
544.48	122.163
544.82	123.639
545.16	123.912
545.50	124.206
545.84	122.474
546.18	123.889
546.52	122.038
546.86	123.962
547.20	125.382
547.54	122.472
547.88	121.218
548.22	120.351
548.56	123.464
548.90	123.582
549.24	121.824
549.58	123.596
549.92	122.321
550.26	123.883
550.60	121.953
550.94	122.186
551.28	123.960
551.62	125.000
551.96	120.906
552.30	124.410
552.64	122.838
552.98	123.581
553.32	125.531
553.66	125.531
554.00	122.888
554.34	125.097
554.68	121.175
555.02	122.208
555.36	122.880
555.69	122.806
556.03	122.699
556.37	123.905
556.71	123.843
557.05	122.173
557.39	124.088
557.73	124.240
558.07	124.371
558.41	123.920
558.75	124.273
559.08	126.026
559.42	123.457
559.76	122.863
560.10	122.505
560.44	125.132
560.78	123.438
561.12	123.584
561.45	123.358
561.79	123.321
562.13	124.338
562.47	123.551
562.81	124.810
563.15	123.485
563.48	122.996
563.82	122.249
564.16	122.653
564.50	120.322
564.84	121.947
565.17	121.294
565.51	120.829
565.85	123.634
566.19	120.737
566.52	122.645
566.86	123.090
567.20	118.434
567.54	120.871
567.88	120.591
568.21	120.553
568.55	119.185
568.89	118.974
569.23	117.828
569.56	116.139
569.90	115.645
570.24	116.358
570.57	114.785
570.91	113.809
571.25	113.220
571.59	112.497
571.92	112.260
572.26	112.361
572.60	113.241
572.93	110.938
573.27	111.857
573.61	110.852
573.95	109.468
574.28	109.087
574.62	110.277
574.96	108.624
575.29	108.372
575.63	108.847
575.97	110.156
576.30	109.524
576.64	108.065
576.98	108.724
577.31	109.549
577.65	108.605
577.98	108.245
578.32	107.924
578.66	106.785
578.99	108.908
579.33	109.404
579.67	108.228
580.00	107.597
580.34	107.461
580.67	106.553
581.01	107.443
581.35	106.468
581.68	106.389
582.02	106.824
582.35	108.418
582.69	109.511
583.02	109.475
583.36	109.427
583.70	108.975
584.03	108.327
584.37	107.702
584.70	107.262
585.04	107.370
585.37	107.247
585.71	106.451
586.04	108.498
586.38	108.542
586.72	108.950
587.05	109.798
587.39	109.748
587.72	109.737
588.06	109.091
588.39	109.510
588.73	109.286
589.06	110.638
589.40	111.524
589.73	110.958
590.07	110.577
590.40	111.697
590.73	111.205
591.07	112.733
591.40	112.247
591.74	111.884
592.07	113.561
592.41	112.263
592.74	109.727
593.08	111.401
593.41	111.082
593.75	111.092
594.08	112.633
594.41	112.051
594.75	110.893
595.08	111.709
595.42	110.649
595.75	111.334
596.09	111.522
596.42	112.361
596.75	112.505
597.09	112.606
597.42	112.118
597.75	110.662
598.09	111.151
598.42	112.103
598.76	111.540
599.09	110.716
599.42	109.487
599.76	108.848
600.09	111.445
600.42	109.710
600.76	111.625
601.09	110.687
601.42	110.711
601.76	110.172
602.09	111.294
602.42	109.924
602.76	111.402
603.09	111.050
603.42	111.850
603.76	111.029
604.09	112.881
604.42	111.560
604.76	111.111
605.09	111.328
605.42	112.919
605.75	110.846
606.09	112.169
606.42	109.522
606.75	111.544
607.09	111.022
607.42	110.520
607.75	111.489
608.08	111.800
608.42	110.721
608.75	111.982
609.08	111.418
609.41	113.983
609.75	113.214
610.08	113.984
610.41	112.022
610.74	111.807
611.07	113.588
611.41	113.991
611.74	114.965
612.07	114.119
612.40	113.878
612.73	116.870
613.07	112.812
613.40	114.341
613.73	114.251
614.06	113.199
614.39	112.828
614.72	113.100
615.06	113.234
615.39	113.533
615.72	114.787
616.05	113.745
616.38	115.792
616.71	115.099
617.05	115.655
617.38	114.179
617.71	114.849
618.04	114.949
618.37	116.995
618.70	117.138
