SpectraSuite Data File
++++++++++++++++++++++++++++++++++++
Date: Thu May 14 14:50:41 PDT 2015
User: schluterlab
Dark Spectrum Present: Yes
Reference Spectrum Present: Yes
Number of Sampled Component Spectra: 1
Spectrometers: USB2E3373
Integration Time (usec): 3000 (USB2E3373)
Spectra Averaged: 3 (USB2E3373)
Boxcar Smoothing: 0 (USB2E3373)
Correct for Electrical Dark: No (USB2E3373)
Strobe/Lamp Enabled: No (USB2E3373)
Correct for Detector Non-linearity: No (USB2E3373)
Correct for Stray Light: No (USB2E3373)
Number of Pixels in Processed Spectrum: 2048
>>>>>Begin Processed Spectral Data<<<<<
178.53	0.000
178.91	157.143
179.29	-1000.000
179.67	-1400.000
180.04	192.857
180.42	140.000
180.80	340.000
181.18	-1100.000
181.56	100.000
181.94	225.000
182.31	-250.000
182.69	266.667
183.07	-300.000
183.45	50.000
183.83	-100.000
184.20	-266.667
184.58	100.000
184.96	-200.000
185.34	-44.444
185.72	-140.000
186.09	200.000
186.47	400.000
186.85	340.000
187.23	-188.889
187.61	-1300.000
187.98	280.000
188.36	275.000
188.74	-50.000
189.12	-400.000
189.49	6.250
189.87	-175.000
190.25	-122.222
190.63	80.000
191.00	-122.222
191.38	0.000
191.76	-475.000
192.14	-216.667
192.51	650.000
192.89	-16.667
193.27	0.000
193.65	0.000
194.02	-900.000
194.40	-128.571
194.78	185.714
195.15	0.000
195.53	-36.364
195.91	0.000
196.29	-175.000
196.66	-53.846
197.04	-1200.000
197.42	-157.143
197.79	-700.000
198.17	-75.000
198.55	-128.571
198.92	22.222
199.30	-100.000
199.68	-27.273
200.05	-78.571
200.43	-650.000
200.81	200.000
201.18	0.000
201.56	66.667
201.94	0.000
202.31	400.000
202.69	-88.889
203.07	400.000
203.44	-33.333
203.82	-125.000
204.19	-33.333
204.57	-100.000
204.95	-87.500
205.32	-100.000
205.70	275.000
206.08	-250.000
206.45	-116.667
206.83	400.000
207.20	-166.667
207.58	-300.000
207.96	-266.667
208.33	16.667
208.71	150.000
209.08	33.333
209.46	0.000
209.84	200.000
210.21	350.000
210.59	500.000
210.96	366.667
211.34	-250.000
211.71	-62.500
212.09	-1300.000
212.46	0.000
212.84	800.000
213.22	-100.000
213.59	-75.000
213.97	-30.000
214.34	0.000
214.72	283.333
215.09	-225.000
215.47	0.000
215.84	228.571
216.22	850.000
216.59	-220.000
216.97	-140.000
217.34	-325.000
217.72	-12.500
218.09	-75.000
218.47	-325.000
218.84	0.000
219.22	260.000
219.59	-58.824
219.97	-10.000
220.34	650.000
220.72	-77.778
221.09	-38.462
221.47	-266.667
221.84	-100.000
222.22	-171.429
222.59	0.000
222.97	25.000
223.34	-340.000
223.72	-1100.000
224.09	-25.000
224.46	-350.000
224.84	0.000
225.21	-128.571
225.59	-150.000
225.96	-300.000
226.34	-15.385
226.71	316.667
227.08	-450.000
227.46	6.667
227.83	-100.000
228.21	-10.526
228.58	162.500
228.95	300.000
229.33	-66.667
229.70	-60.000
230.08	5.263
230.45	60.000
230.82	-100.000
231.20	-21.429
231.57	8.333
231.95	0.000
232.32	0.000
232.69	10.000
233.07	-175.000
233.44	-17.647
233.81	-110.000
234.19	16.667
234.56	9.091
234.93	-3.448
235.31	31.579
235.68	-66.667
236.05	-50.000
236.43	30.769
236.80	16.000
237.17	7.407
237.55	0.000
237.92	-130.000
238.29	0.000
238.67	-13.636
239.04	-27.778
239.41	-14.286
239.79	-13.043
240.16	-9.259
240.53	-8.696
240.91	-17.647
241.28	-1.639
241.65	4.478
242.02	-8.108
242.40	-7.692
242.77	-2.667
243.14	-6.098
243.51	-14.474
243.89	-20.513
244.26	-0.990
244.63	11.765
245.00	3.738
245.38	-5.263
245.75	-15.044
246.12	1.587
246.49	3.101
246.87	-0.714
247.24	1.325
247.61	1.974
247.98	-3.356
248.36	-3.704
248.73	-8.589
249.10	-1.639
249.47	0.995
249.84	4.188
250.22	-1.036
250.59	0.000
250.96	5.000
251.33	-6.122
251.70	4.274
252.08	0.833
252.45	1.639
252.82	-0.413
253.19	0.391
253.56	2.662
253.94	-0.385
254.31	3.409
254.68	8.042
255.05	5.212
255.42	1.361
255.79	-0.647
256.16	4.636
256.54	-1.325
256.91	3.934
257.28	-0.656
257.65	-0.955
258.02	-0.885
258.39	3.419
258.76	3.976
259.14	3.161
259.51	0.865
259.88	1.416
260.25	3.333
260.62	2.740
260.99	5.738
261.36	3.485
261.73	1.061
262.10	3.571
262.47	3.217
262.85	4.545
263.22	1.299
263.59	-0.789
263.96	1.790
264.33	2.302
264.70	3.210
265.07	5.251
265.44	4.762
265.81	0.694
266.18	3.855
266.55	2.679
266.92	1.822
267.29	2.626
267.66	1.774
268.03	1.965
268.40	3.340
268.77	0.911
269.14	1.101
269.51	4.167
269.88	4.713
270.25	3.823
270.62	4.008
270.99	3.030
271.36	5.149
271.73	2.947
272.10	6.613
272.47	3.607
272.84	3.414
273.21	1.804
273.58	4.032
273.95	4.038
274.32	2.662
274.69	0.193
275.06	3.297
275.43	1.294
275.80	4.938
276.17	1.481
276.54	3.358
276.91	3.399
277.28	3.797
277.65	3.591
278.02	3.860
278.39	1.087
278.76	2.812
279.13	1.418
279.50	2.749
279.87	3.757
280.23	1.408
280.60	3.898
280.97	3.454
281.34	0.849
281.71	4.230
282.08	4.319
282.45	1.800
282.82	3.140
283.19	0.808
283.56	3.770
283.92	4.505
284.29	4.265
284.66	3.777
285.03	2.564
285.40	2.009
285.77	1.703
286.14	3.664
286.51	3.196
286.87	2.528
287.24	3.163
287.61	1.196
287.98	1.662
288.35	2.219
288.72	3.550
289.08	2.928
289.45	3.254
289.82	2.560
290.19	1.724
290.56	0.986
290.93	2.282
291.29	2.755
291.66	1.791
292.03	1.221
292.40	4.218
292.77	2.291
293.13	2.977
293.50	2.891
293.87	2.550
294.24	5.067
294.60	3.287
294.97	0.805
295.34	4.225
295.71	1.261
296.08	2.584
296.44	2.941
296.81	2.314
297.18	0.872
297.55	3.184
297.91	2.610
298.28	1.185
298.65	4.043
299.02	2.952
299.38	3.204
299.75	2.570
300.12	2.546
300.48	2.189
300.85	3.487
301.22	3.244
301.59	3.082
301.95	2.599
302.32	2.444
302.69	1.533
303.05	3.264
303.42	2.439
303.79	2.292
304.15	2.839
304.52	1.480
304.89	2.199
305.25	3.002
305.62	2.508
305.99	3.814
306.35	2.218
306.72	2.378
307.09	2.640
307.45	3.002
307.82	2.422
308.19	3.633
308.55	4.339
308.92	2.532
309.29	3.831
309.65	3.314
310.02	2.673
310.38	3.248
310.75	3.495
311.12	4.314
311.48	3.226
311.85	3.704
312.22	3.416
312.58	3.662
312.95	3.250
313.31	3.342
313.68	4.212
314.05	4.517
314.41	4.645
314.78	3.724
315.14	4.083
315.51	4.340
315.87	4.680
316.24	5.114
316.61	4.707
316.97	3.439
317.34	4.145
317.70	4.716
318.07	4.145
318.43	5.442
318.80	6.187
319.16	4.464
319.53	4.884
319.89	4.820
320.26	6.406
320.62	5.496
320.99	7.202
321.35	5.730
321.72	7.814
322.08	5.591
322.45	6.504
322.81	6.498
323.18	6.283
323.54	7.845
323.91	8.274
324.27	8.950
324.64	8.144
325.00	7.214
325.37	7.617
325.73	8.595
326.10	9.002
326.46	10.586
326.83	9.608
327.19	8.976
327.56	11.146
327.92	9.520
328.29	10.323
328.65	9.799
329.01	10.491
329.38	11.457
329.74	11.901
330.11	11.473
330.47	12.468
330.84	12.231
331.20	12.417
331.56	11.525
331.93	12.218
332.29	12.119
332.66	12.458
333.02	12.479
333.38	11.745
333.75	13.047
334.11	13.261
334.48	13.696
334.84	12.914
335.20	13.182
335.57	14.924
335.93	14.215
336.29	11.980
336.66	13.288
337.02	13.545
337.38	13.350
337.75	13.388
338.11	14.634
338.47	13.565
338.84	14.044
339.20	13.142
339.56	12.850
339.93	12.972
340.29	14.332
340.65	13.139
341.02	14.685
341.38	14.147
341.74	13.559
342.11	15.125
342.47	13.900
342.83	12.882
343.20	13.573
343.56	13.553
343.92	14.251
344.28	14.062
344.65	13.798
345.01	14.353
345.37	13.841
345.73	12.627
346.10	13.261
346.46	13.291
346.82	13.633
347.19	13.063
347.55	14.568
347.91	12.481
348.27	13.202
348.63	14.775
349.00	12.975
349.36	13.903
349.72	12.872
350.08	13.819
350.45	13.004
350.81	14.027
351.17	12.481
351.53	14.405
351.89	13.895
352.26	13.582
352.62	12.910
352.98	13.664
353.34	13.667
353.70	13.328
354.07	14.083
354.43	12.832
354.79	14.211
355.15	14.422
355.51	15.643
355.87	12.939
356.24	14.297
356.60	14.412
356.96	13.566
357.32	13.234
357.68	14.056
358.04	13.024
358.40	13.209
358.77	13.743
359.13	13.294
359.49	13.606
359.85	14.503
360.21	13.917
360.57	13.783
360.93	12.906
361.29	14.947
361.66	14.410
362.02	13.987
362.38	13.774
362.74	13.966
363.10	13.755
363.46	13.920
363.82	14.347
364.18	14.286
364.54	15.145
364.90	14.716
365.26	13.724
365.62	16.000
365.98	14.364
366.35	15.101
366.71	15.510
367.07	14.750
367.43	14.642
367.79	14.798
368.15	14.582
368.51	15.494
368.87	15.219
369.23	15.133
369.59	14.822
369.95	15.551
370.31	16.003
370.67	14.512
371.03	15.443
371.39	15.514
371.75	14.856
372.11	15.176
372.47	15.098
372.83	15.838
373.19	15.477
373.55	15.718
373.91	14.656
374.27	15.524
374.63	16.238
374.99	16.180
375.35	16.883
375.71	16.129
376.07	16.075
376.42	16.814
376.78	16.470
377.14	17.155
377.50	17.015
377.86	17.118
378.22	18.144
378.58	17.360
378.94	17.254
379.30	17.399
379.66	17.695
380.02	18.292
380.38	18.836
380.74	17.634
381.09	18.815
381.45	18.807
381.81	18.970
382.17	19.656
382.53	18.830
382.89	18.905
383.25	18.875
383.61	19.387
383.97	19.670
384.32	20.694
384.68	19.432
385.04	20.069
385.40	20.860
385.76	21.161
386.12	20.527
386.48	21.118
386.83	21.752
387.19	21.089
387.55	20.423
387.91	22.146
388.27	21.536
388.62	21.306
388.98	21.715
389.34	22.805
389.70	22.255
390.06	22.321
390.42	21.747
390.77	23.600
391.13	22.242
391.49	23.430
391.85	22.000
392.20	23.250
392.56	23.863
392.92	23.773
393.28	23.383
393.64	23.128
393.99	24.288
394.35	23.657
394.71	24.251
395.07	23.234
395.42	23.758
395.78	25.107
396.14	25.134
396.50	23.575
396.85	24.270
397.21	23.787
397.57	24.735
397.92	24.170
398.28	23.846
398.64	23.112
399.00	23.770
399.35	24.660
399.71	24.402
400.07	24.874
400.42	24.622
400.78	25.058
401.14	25.213
401.49	24.787
401.85	25.058
402.21	25.261
402.57	24.883
402.92	24.350
403.28	24.063
403.63	24.642
403.99	24.406
404.35	24.446
404.70	24.646
405.06	25.000
405.42	24.473
405.77	25.082
406.13	24.149
406.49	24.662
406.84	24.654
407.20	24.818
407.55	24.288
407.91	24.576
408.27	23.616
408.62	24.840
408.98	24.492
409.34	23.754
409.69	25.340
410.05	25.381
410.40	25.406
410.76	23.724
411.11	24.489
411.47	24.631
411.83	25.162
412.18	25.482
412.54	24.303
412.89	24.796
413.25	24.266
413.60	24.296
413.96	24.359
414.31	23.966
414.67	24.925
415.03	24.431
415.38	25.347
415.74	24.496
416.09	24.738
416.45	23.982
416.80	23.990
417.16	23.691
417.51	25.031
417.87	24.709
418.22	24.970
418.58	24.721
418.93	24.913
419.29	24.291
419.64	24.610
420.00	24.451
420.35	24.874
420.71	24.928
421.06	24.324
421.42	24.656
421.77	24.610
422.12	24.524
422.48	24.834
422.83	25.082
423.19	25.199
423.54	25.553
423.90	25.290
424.25	25.600
424.61	24.569
424.96	24.657
425.31	25.690
425.67	24.047
426.02	24.682
426.38	25.431
426.73	25.167
427.09	25.894
427.44	24.304
427.79	25.152
428.15	25.171
428.50	25.000
428.85	25.545
429.21	25.585
429.56	25.025
429.92	26.143
430.27	25.253
430.62	25.110
430.98	25.332
431.33	24.829
431.68	25.766
432.04	26.105
432.39	26.192
432.74	25.685
433.10	25.852
433.45	25.139
433.80	26.341
434.16	25.310
434.51	25.488
434.86	26.384
435.22	26.621
435.57	26.356
435.92	25.320
436.28	26.337
436.63	26.434
436.98	26.033
437.34	26.268
437.69	25.647
438.04	25.701
438.39	26.479
438.75	25.401
439.10	26.268
439.45	26.942
439.81	25.876
440.16	24.987
440.51	27.258
440.86	25.681
441.22	26.313
441.57	26.468
441.92	25.994
442.27	26.465
442.63	25.782
442.98	27.054
443.33	26.302
443.68	26.065
444.03	26.152
444.39	26.907
444.74	26.748
445.09	26.863
445.44	26.660
445.79	26.341
446.15	26.208
446.50	26.667
446.85	25.778
447.20	26.934
447.55	27.510
447.91	26.702
448.26	26.744
448.61	26.621
448.96	27.146
449.31	25.822
449.66	26.198
450.02	27.162
450.37	26.798
450.72	27.126
451.07	27.164
451.42	27.325
451.77	25.459
452.12	26.749
452.47	26.025
452.83	26.802
453.18	26.853
453.53	26.479
453.88	25.787
454.23	26.893
454.58	26.698
454.93	26.881
455.28	26.370
455.63	27.345
455.98	26.983
456.34	27.091
456.69	26.984
457.04	26.537
457.39	26.829
457.74	27.517
458.09	26.963
458.44	27.425
458.79	26.096
459.14	27.583
459.49	27.731
459.84	26.443
460.19	26.596
460.54	27.428
460.89	27.051
461.24	26.437
461.59	27.504
461.94	25.727
462.29	27.324
462.64	26.735
462.99	26.177
463.34	26.671
463.69	26.377
464.04	26.681
464.39	26.682
464.74	25.998
465.09	26.644
465.44	27.414
465.79	26.970
466.14	26.576
466.49	27.421
466.84	27.658
467.19	26.821
467.54	25.558
467.89	26.552
468.24	26.482
468.59	25.825
468.94	25.991
469.29	25.855
469.64	25.620
469.99	26.195
470.34	26.671
470.68	26.589
471.03	26.850
471.38	25.572
471.73	26.073
472.08	26.396
472.43	26.490
472.78	26.700
473.13	26.169
473.48	27.492
473.83	26.407
474.17	25.791
474.52	26.639
474.87	25.969
475.22	26.310
475.57	26.480
475.92	25.983
476.27	27.157
476.61	26.168
476.96	26.434
477.31	26.535
477.66	27.020
478.01	26.131
478.36	25.972
478.70	25.222
479.05	26.227
479.40	26.604
479.75	26.657
480.10	26.149
480.45	25.980
480.79	25.896
481.14	25.689
481.49	25.488
481.84	27.111
482.19	26.323
482.53	26.235
482.88	26.628
483.23	26.056
483.58	26.157
483.92	25.709
484.27	25.656
484.62	26.114
484.97	25.894
485.31	26.364
485.66	24.548
486.01	24.432
486.36	25.287
486.70	26.638
487.05	27.476
487.40	27.420
487.75	27.608
488.09	26.994
488.44	25.956
488.79	26.712
489.13	26.068
489.48	25.592
489.83	25.312
490.17	25.800
490.52	25.082
490.87	26.015
491.22	25.303
491.56	25.939
491.91	26.908
492.26	25.790
492.60	26.192
492.95	26.152
493.30	25.818
493.64	26.763
493.99	26.184
494.34	25.218
494.68	25.096
495.03	25.551
495.37	25.699
495.72	25.488
496.07	25.635
496.41	26.083
496.76	25.438
497.11	26.157
497.45	25.723
497.80	25.766
498.14	25.397
498.49	26.149
498.84	26.188
499.18	25.686
499.53	26.188
499.87	25.802
500.22	25.245
500.56	25.866
500.91	25.721
501.26	25.773
501.60	25.365
501.95	25.706
502.29	25.669
502.64	25.317
502.98	25.237
503.33	24.795
503.67	25.033
504.02	26.095
504.36	26.229
504.71	26.367
505.06	25.239
505.40	25.868
505.75	26.366
506.09	25.645
506.44	26.137
506.78	26.055
507.13	25.035
507.47	25.722
507.82	24.669
508.16	25.096
508.51	25.082
508.85	26.122
509.19	25.722
509.54	25.841
509.88	25.886
510.23	25.789
510.57	26.245
510.92	24.867
511.26	25.204
511.61	24.626
511.95	25.037
512.30	25.062
512.64	25.087
512.98	25.063
513.33	26.260
513.67	25.956
514.02	26.009
514.36	25.371
514.70	25.104
515.05	25.547
515.39	25.144
515.74	26.564
516.08	25.304
516.42	25.065
516.77	25.657
517.11	24.755
517.46	24.708
517.80	25.975
518.14	26.115
518.49	24.837
518.83	25.226
519.17	24.233
519.52	24.738
519.86	24.129
520.20	25.240
520.55	25.411
520.89	24.887
521.23	25.796
521.58	25.028
521.92	25.382
522.26	24.570
522.61	25.868
522.95	24.798
523.29	25.115
523.64	24.496
523.98	25.499
524.32	25.845
524.66	25.327
525.01	24.236
525.35	24.986
525.69	24.536
526.04	24.225
526.38	24.655
526.72	24.913
527.06	24.692
527.41	24.956
527.75	25.713
528.09	24.675
528.43	24.512
528.78	24.451
529.12	24.140
529.46	25.351
529.80	24.943
530.15	24.348
530.49	24.970
530.83	24.557
531.17	25.209
531.51	25.090
531.86	25.781
532.20	25.671
532.54	24.297
532.88	24.970
533.22	24.632
533.57	24.178
533.91	23.962
534.25	23.912
534.59	25.172
534.93	24.844
535.27	25.296
535.62	25.412
535.96	25.392
536.30	25.617
536.64	26.126
536.98	25.523
537.32	25.432
537.66	24.267
538.01	24.653
538.35	24.543
538.69	24.760
539.03	24.770
539.37	24.676
539.71	24.805
540.05	24.760
540.39	24.511
540.73	24.833
541.07	24.954
541.42	24.454
541.76	23.843
542.10	24.548
542.44	24.543
542.78	24.331
543.12	25.149
543.46	25.153
543.80	24.400
544.14	24.955
544.48	25.177
544.82	25.135
545.16	23.614
545.50	25.644
545.84	24.740
546.18	25.432
546.52	23.885
546.86	23.585
547.20	24.682
547.54	25.031
547.88	23.990
548.22	24.035
548.56	24.342
548.90	24.478
549.24	25.289
549.58	25.047
549.92	24.235
550.26	23.625
550.60	24.825
550.94	24.774
551.28	24.950
551.62	25.270
551.96	23.689
552.30	24.602
552.64	25.264
552.98	24.579
553.32	25.016
553.66	24.759
554.00	24.905
554.34	24.324
554.68	24.467
555.02	23.982
555.36	25.838
555.69	24.343
556.03	24.653
556.37	25.845
556.71	25.491
557.05	24.856
557.39	24.751
557.73	25.231
558.07	24.238
558.41	25.249
558.75	24.611
559.08	24.635
559.42	24.966
559.76	25.305
560.10	24.514
560.44	24.472
560.78	24.500
561.12	24.507
561.45	24.818
561.79	24.603
562.13	25.077
562.47	23.859
562.81	24.241
563.15	24.747
563.48	25.420
563.82	24.788
564.16	23.743
564.50	24.136
564.84	24.897
565.17	24.294
565.51	24.396
565.85	24.762
566.19	24.251
566.52	25.044
566.86	24.618
567.20	24.361
567.54	25.013
567.88	24.873
568.21	24.852
568.55	25.132
568.89	24.966
569.23	24.968
569.56	24.736
569.90	25.196
570.24	24.992
570.57	25.080
570.91	24.740
571.25	24.790
571.59	24.910
571.92	25.027
572.26	24.749
572.60	24.980
572.93	25.411
573.27	25.091
573.61	24.854
573.95	24.812
574.28	24.901
574.62	24.488
574.96	24.239
575.29	24.675
575.63	24.925
575.97	25.222
576.30	24.476
576.64	24.958
576.98	24.556
577.31	24.858
577.65	25.423
577.98	24.680
578.32	24.876
578.66	24.576
578.99	24.780
579.33	25.345
579.67	25.249
580.00	25.017
580.34	24.542
580.67	25.309
581.01	25.097
581.35	24.820
581.68	24.791
582.02	25.081
582.35	25.370
582.69	25.590
583.02	25.808
583.36	25.899
583.70	25.926
584.03	25.510
584.37	25.845
584.70	25.379
585.04	25.157
585.37	25.055
585.71	24.898
586.04	24.659
586.38	25.232
586.72	25.144
587.05	25.249
587.39	25.929
587.72	25.335
588.06	25.701
588.39	25.691
588.73	25.291
589.06	25.564
589.40	25.722
589.73	26.060
590.07	25.729
590.40	25.625
590.73	25.557
591.07	25.949
591.40	25.661
591.74	25.397
592.07	25.822
592.41	24.803
592.74	25.559
593.08	25.223
593.41	25.488
593.75	25.287
594.08	26.083
594.41	25.801
594.75	25.141
595.08	25.168
595.42	25.519
595.75	25.702
596.09	25.585
596.42	25.403
596.75	25.280
597.09	26.222
597.42	25.507
597.75	25.010
598.09	25.714
598.42	25.372
598.76	24.303
599.09	25.205
599.42	25.075
599.76	24.893
600.09	25.559
600.42	25.225
600.76	25.627
601.09	24.925
601.42	25.403
601.76	25.517
602.09	25.554
602.42	25.482
602.76	25.018
603.09	25.184
603.42	25.867
603.76	25.300
604.09	26.366
604.42	25.064
604.76	24.734
605.09	25.848
605.42	25.957
605.75	25.731
606.09	25.644
606.42	25.538
606.75	24.438
607.09	25.000
607.42	26.050
607.75	25.401
608.08	25.296
608.42	25.191
608.75	25.415
609.08	25.340
609.41	25.761
609.75	24.821
610.08	26.077
610.41	25.191
610.74	25.168
611.07	24.956
611.41	25.291
611.74	25.681
612.07	25.713
612.40	25.238
612.73	25.379
613.07	25.281
613.40	25.313
613.73	25.036
614.06	26.693
614.39	25.996
614.72	25.425
615.06	25.072
615.39	25.326
615.72	24.692
616.05	25.255
616.38	25.277
616.71	25.340
617.05	24.228
617.38	25.950
617.71	26.296
618.04	24.285
618.37	26.175
618.70	25.057
619.03	25.209
619.36	25.709
619.69	25.561
620.03	24.984
620.36	25.521
620.69	25.355
621.02	25.394
621.35	26.343
621.68	26.103
622.01	25.552
622.34	24.268
622.67	24.605
623.00	24.089
623.33	25.481
623.66	25.811
623.99	24.951
624.32	25.731
624.65	24.517
624.99	26.333
625.32	26.257
625.65	25.624
625.98	25.898
626.31	25.372
626.64	26.300
626.97	24.756
627.30	24.829
627.63	25.056
627.96	26.051
628.29	26.148
628.62	24.517
628.95	25.153
629.28	24.214
629.61	25.842
629.94	25.188
630.26	24.153
630.59	25.302
630.92	24.069
631.25	26.565
631.58	25.895
631.91	25.117
632.24	25.360
632.57	25.522
632.90	24.273
633.23	24.898
633.56	25.102
633.89	25.310
634.22	24.636
634.55	25.365
634.88	25.108
635.20	25.511
635.53	25.198
635.86	24.485
636.19	24.178
636.52	24.051
636.85	25.536
637.18	24.428
637.51	24.731
