SpectraSuite Data File
++++++++++++++++++++++++++++++++++++
Date: Thu May 14 15:16:25 PDT 2015
User: schluterlab
Dark Spectrum Present: Yes
Reference Spectrum Present: Yes
Number of Sampled Component Spectra: 1
Spectrometers: USB2E3373
Integration Time (usec): 3000 (USB2E3373)
Spectra Averaged: 3 (USB2E3373)
Boxcar Smoothing: 0 (USB2E3373)
Correct for Electrical Dark: No (USB2E3373)
Strobe/Lamp Enabled: No (USB2E3373)
Correct for Detector Non-linearity: No (USB2E3373)
Correct for Stray Light: No (USB2E3373)
Number of Pixels in Processed Spectrum: 2048
>>>>>Begin Processed Spectral Data<<<<<
178.53	0.000
178.91	542.857
179.29	-4900.000
179.67	-4600.000
180.04	385.714
180.42	400.000
180.80	900.000
181.18	-4000.000
181.56	-3300.000
181.94	900.000
182.31	-1100.000
182.69	1166.667
183.07	-1500.000
183.45	925.000
183.83	-750.000
184.20	-1100.000
184.58	3800.000
184.96	-975.000
185.34	-422.222
185.72	-500.000
186.09	555.556
186.47	2250.000
186.85	1020.000
187.23	-477.778
187.61	-4700.000
187.98	880.000
188.36	1275.000
188.74	-1025.000
189.12	-1333.333
189.49	-193.750
189.87	-562.500
190.25	-388.889
190.63	-800.000
191.00	-433.333
191.38	0.000
191.76	-1025.000
192.14	-616.667
192.51	1800.000
192.89	-550.000
193.27	0.000
193.65	-557.143
194.02	-4700.000
194.40	-657.143
194.78	671.429
195.15	0.000
195.53	-263.636
195.91	0.000
196.29	-900.000
196.66	-284.615
197.04	-4000.000
197.42	-700.000
197.79	-2050.000
198.17	-562.500
198.55	-528.571
198.92	-300.000
199.30	-512.500
199.68	-300.000
200.05	-250.000
200.43	-2150.000
200.81	585.714
201.18	0.000
201.56	522.222
201.94	0.000
202.31	1600.000
202.69	-444.444
203.07	3800.000
203.44	-344.444
203.82	-1000.000
204.19	-316.667
204.57	-683.333
204.95	-512.500
205.32	-3700.000
205.70	925.000
206.08	-550.000
206.45	-700.000
206.83	960.000
207.20	-700.000
207.58	-900.000
207.96	-716.667
208.33	-566.667
208.71	333.333
209.08	-550.000
209.46	0.000
209.84	816.667
210.21	1600.000
210.59	2000.000
210.96	1200.000
211.34	-1025.000
211.71	-550.000
212.09	-3800.000
212.46	0.000
212.84	2400.000
213.22	-820.000
213.59	-1075.000
213.97	-290.000
214.34	-1466.667
214.72	900.000
215.09	-900.000
215.47	0.000
215.84	571.429
216.22	2300.000
216.59	-740.000
216.97	-780.000
217.34	-975.000
217.72	-475.000
218.09	-1100.000
218.47	-1250.000
218.84	0.000
219.22	720.000
219.59	-182.353
219.97	-160.000
220.34	2200.000
220.72	-422.222
221.09	-184.615
221.47	-1333.333
221.84	-380.000
222.22	-585.714
222.59	0.000
222.97	-525.000
223.34	-840.000
223.72	-4100.000
224.09	-950.000
224.46	-1050.000
224.84	-560.000
225.21	-642.857
225.59	-1125.000
225.96	-1100.000
226.34	-134.615
226.71	666.667
227.08	-2050.000
227.46	-266.667
227.83	-1050.000
228.21	-157.895
228.58	550.000
228.95	2300.000
229.33	-316.667
229.70	-350.000
230.08	-110.526
230.45	460.000
230.82	-1233.333
231.20	-228.571
231.57	-200.000
231.95	-263.636
232.32	-354.545
232.69	-160.000
233.07	-875.000
233.44	-200.000
233.81	-440.000
234.19	-155.556
234.56	-186.364
234.93	-100.000
235.31	-173.684
235.68	-188.889
236.05	-220.000
236.43	-73.077
236.80	-92.000
237.17	-144.444
237.55	-100.000
237.92	-380.000
238.29	-122.581
238.67	-65.909
239.04	-69.444
239.41	-76.190
239.79	-71.739
240.16	-55.556
240.53	-41.304
240.91	-66.667
241.28	-40.984
241.65	-28.358
242.02	-18.919
242.40	-38.462
242.77	-26.667
243.14	-25.610
243.51	-50.000
243.89	-33.333
244.26	-10.891
244.63	-7.843
245.00	-6.542
245.38	-9.649
245.75	-23.009
246.12	-7.143
246.49	-12.403
246.87	-5.714
247.24	-5.298
247.61	-2.632
247.98	-2.013
248.36	-4.321
248.73	-7.975
249.10	-4.918
249.47	5.473
249.84	5.759
250.22	0.000
250.59	-2.778
250.96	4.091
251.33	-4.082
251.70	6.410
252.08	5.000
252.45	6.148
252.82	11.157
253.19	6.250
253.56	9.886
253.94	9.615
254.31	4.545
254.68	11.538
255.05	7.818
255.42	7.483
255.79	6.796
256.16	9.934
256.54	6.954
256.91	9.508
257.28	6.557
257.65	6.688
258.02	11.799
258.39	11.111
258.76	8.257
259.14	13.793
259.51	8.646
259.88	10.482
260.25	13.611
260.62	14.247
260.99	14.208
261.36	12.601
261.73	9.549
262.10	9.890
262.47	12.601
262.85	13.384
263.22	10.130
263.59	8.158
263.96	11.765
264.33	14.066
264.70	13.086
265.07	14.320
265.44	16.780
265.81	12.269
266.18	15.646
266.55	13.393
266.92	12.984
267.29	17.287
267.66	14.412
268.03	13.537
268.40	11.482
268.77	12.984
269.14	14.537
269.51	11.184
269.88	15.574
270.25	14.286
270.62	14.135
270.99	15.354
271.36	16.436
271.73	13.360
272.10	16.232
272.47	16.032
272.84	14.257
273.21	14.429
273.58	15.726
273.95	14.038
274.32	12.548
274.69	13.733
275.06	16.300
275.43	15.157
275.80	13.404
276.17	12.963
276.54	14.739
276.91	14.132
277.28	15.009
277.65	13.465
278.02	13.787
278.39	14.130
278.76	13.884
279.13	15.071
279.50	16.151
279.87	16.637
280.23	12.500
280.60	14.576
280.97	15.789
281.34	12.054
281.71	14.890
282.08	14.618
282.45	12.602
282.82	14.443
283.19	14.216
283.56	13.443
283.92	15.616
284.29	15.482
284.66	15.271
285.03	14.103
285.40	12.983
285.77	12.693
286.14	14.351
286.51	14.155
286.87	11.690
287.24	15.512
287.61	13.901
287.98	13.142
288.35	14.201
288.72	14.349
289.08	15.227
289.45	13.018
289.82	14.157
290.19	14.511
290.56	12.817
290.93	13.695
291.29	15.289
291.66	11.983
292.03	12.754
292.40	15.374
292.77	12.399
293.13	11.908
293.50	11.038
293.87	12.483
294.24	14.533
294.60	13.148
294.97	10.470
295.34	12.804
295.71	11.854
296.08	12.661
296.44	13.113
296.81	12.424
297.18	11.457
297.55	11.675
297.91	11.862
298.28	11.611
298.65	12.366
299.02	11.688
299.38	11.556
299.75	10.981
300.12	8.681
300.48	10.369
300.85	12.823
301.22	10.850
301.59	10.959
301.95	10.395
302.32	12.444
302.69	11.610
303.05	11.643
303.42	10.310
303.79	11.250
304.15	11.462
304.52	10.148
304.89	10.262
305.25	10.455
305.62	11.808
305.99	11.546
306.35	11.391
306.72	10.651
307.09	10.457
307.45	11.387
307.82	10.394
308.19	10.091
308.55	12.247
308.92	10.224
309.29	11.207
309.65	11.501
310.02	10.792
310.38	11.122
310.75	10.097
311.12	11.985
311.48	11.046
311.85	11.871
312.22	11.101
312.58	11.174
312.95	10.612
313.31	11.292
313.68	11.264
314.05	13.460
314.41	12.568
314.78	11.444
315.14	12.160
315.51	13.019
315.87	12.151
316.24	12.785
316.61	11.545
316.97	12.308
317.34	12.787
317.70	13.537
318.07	12.875
318.43	13.605
318.80	15.050
319.16	14.077
319.53	12.939
319.89	13.409
320.26	15.302
320.62	13.209
320.99	13.943
321.35	13.771
321.72	14.605
322.08	14.067
322.45	15.537
322.81	14.350
323.18	15.664
323.54	14.655
323.91	15.925
324.27	15.146
324.64	16.289
325.00	15.423
325.37	17.363
325.73	16.116
326.10	17.032
326.46	17.101
326.83	18.815
327.19	16.378
327.56	18.024
327.92	16.994
328.29	18.306
328.65	18.090
329.01	19.374
329.38	19.124
329.74	19.349
330.11	19.949
330.47	19.208
330.84	19.724
331.20	19.417
331.56	18.458
331.93	19.665
332.29	19.576
332.66	19.684
333.02	19.849
333.38	19.044
333.75	20.202
334.11	20.017
334.48	19.472
334.84	19.711
335.20	21.075
335.57	20.320
335.93	20.744
336.29	19.135
336.66	20.269
337.02	20.569
337.38	20.918
337.75	20.661
338.11	20.606
338.47	20.844
338.84	20.135
339.20	19.714
339.56	20.181
339.93	20.690
340.29	19.324
340.65	21.492
341.02	21.309
341.38	22.555
341.74	20.662
342.11	21.239
342.47	19.778
342.83	20.853
343.20	20.278
343.56	20.529
343.92	21.377
344.28	20.781
344.65	21.008
345.01	21.451
345.37	20.840
345.73	20.577
346.10	20.983
346.46	20.728
346.82	21.723
347.19	21.085
347.55	21.396
347.91	20.877
348.27	21.472
348.63	20.640
349.00	20.731
349.36	20.967
349.72	20.908
350.08	20.951
350.45	21.749
350.81	20.664
351.17	20.526
351.53	21.986
351.89	21.488
352.26	21.343
352.62	21.866
352.98	22.137
353.34	21.285
353.70	20.339
354.07	20.566
354.43	22.248
354.79	21.167
355.15	21.045
355.51	22.953
355.87	22.962
356.24	22.053
356.60	20.473
356.96	21.423
357.32	21.115
357.68	21.157
358.04	20.659
358.40	21.716
358.77	21.418
359.13	21.123
359.49	20.446
359.85	22.915
360.21	23.314
360.57	21.608
360.93	22.003
361.29	22.316
361.66	21.506
362.02	22.965
362.38	22.347
362.74	22.277
363.10	22.627
363.46	22.368
363.82	22.088
364.18	23.223
364.54	23.237
364.90	22.742
365.26	22.207
365.62	23.800
365.98	23.077
366.35	23.221
366.71	22.993
367.07	23.410
367.43	23.506
367.79	23.225
368.15	23.679
368.51	23.139
368.87	23.187
369.23	23.333
369.59	23.087
369.95	23.665
370.31	24.443
370.67	24.553
371.03	24.861
371.39	24.513
371.75	24.622
372.11	24.458
372.47	24.983
372.83	25.524
373.19	24.683
373.55	24.661
373.91	24.744
374.27	25.291
374.63	26.184
374.99	25.066
375.35	26.104
375.71	25.226
376.07	24.919
376.42	25.567
376.78	26.227
377.14	25.328
377.50	26.439
377.86	26.416
378.22	27.186
378.58	26.694
378.94	27.347
379.30	26.011
379.66	27.396
380.02	28.390
380.38	28.802
380.74	28.676
381.09	27.642
381.45	28.920
381.81	29.157
382.17	29.751
382.53	29.591
382.89	29.740
383.25	29.074
383.61	29.572
383.97	30.094
384.32	30.861
384.68	29.408
385.04	30.711
385.40	31.349
385.76	30.715
386.12	30.820
386.48	31.706
386.83	31.406
387.19	30.997
387.55	31.162
387.91	31.507
388.27	31.928
388.62	32.016
388.98	32.375
389.34	34.296
389.70	32.830
390.06	31.794
390.42	32.771
390.77	33.895
391.13	32.981
391.49	33.696
391.85	33.394
392.20	33.630
392.56	34.259
392.92	34.842
393.28	35.158
393.64	34.749
393.99	35.793
394.35	35.981
394.71	35.988
395.07	36.228
395.42	34.495
395.78	35.649
396.14	36.482
396.50	35.392
396.85	34.586
397.21	36.272
397.57	36.455
397.92	36.942
398.28	36.393
398.64	35.469
399.00	35.916
399.35	37.435
399.71	36.576
400.07	37.395
400.42	37.194
400.78	37.211
401.14	37.735
401.49	37.578
401.85	38.023
402.21	39.340
402.57	38.146
402.92	37.411
403.28	38.115
403.63	38.067
403.99	38.064
404.35	37.919
404.70	38.414
405.06	38.859
405.42	39.052
405.77	38.822
406.13	38.466
406.49	38.682
406.84	40.332
407.20	39.519
407.55	40.157
407.91	39.283
408.27	39.753
408.62	40.663
408.98	40.279
409.34	40.645
409.69	40.915
410.05	40.211
410.40	40.661
410.76	40.101
411.11	40.795
411.47	41.032
411.83	41.681
412.18	41.024
412.54	40.308
412.89	40.978
413.25	42.607
413.60	42.102
413.96	41.200
414.31	41.473
414.67	41.026
415.03	41.169
415.38	42.119
415.74	40.440
416.09	42.134
416.45	40.013
416.80	41.860
417.16	42.656
417.51	42.466
417.87	42.367
418.22	43.713
418.58	42.689
418.93	43.015
419.29	42.972
419.64	43.457
420.00	41.899
420.35	43.403
420.71	42.791
421.06	41.921
421.42	44.495
421.77	43.242
422.12	43.605
422.48	44.547
422.83	44.852
423.19	44.881
423.54	45.741
423.90	44.506
424.25	44.693
424.61	44.546
424.96	44.811
425.31	44.904
425.67	44.498
426.02	45.822
426.38	45.580
426.73	44.810
427.09	45.098
427.44	45.003
427.79	45.937
428.15	45.434
428.50	45.449
428.85	45.350
429.21	47.128
429.56	45.805
429.92	46.143
430.27	47.422
430.62	46.947
430.98	46.827
431.33	47.214
431.68	46.791
432.04	47.791
432.39	47.616
432.74	46.461
433.10	47.701
433.45	46.990
433.80	46.674
434.16	47.366
434.51	48.510
434.86	49.349
435.22	50.053
435.57	49.705
435.92	47.802
436.28	46.985
436.63	50.027
436.98	48.094
437.34	48.422
437.69	49.862
438.04	49.498
438.39	48.478
438.75	48.589
439.10	49.471
439.45	49.078
439.81	49.661
440.16	50.349
440.51	50.000
440.86	49.138
441.22	50.000
441.57	50.472
441.92	48.739
442.27	51.061
442.63	50.869
442.98	51.067
443.33	50.658
443.68	51.734
444.03	51.929
444.39	52.150
444.74	52.067
445.09	50.988
445.44	51.159
445.79	52.586
446.15	51.850
446.50	51.576
446.85	52.432
447.20	51.741
447.55	52.615
447.91	52.565
448.26	51.480
448.61	51.913
448.96	52.951
449.31	51.007
449.66	52.342
450.02	52.426
450.37	53.756
450.72	52.960
451.07	53.872
451.42	53.033
451.77	51.807
452.12	53.386
452.47	52.585
452.83	54.505
453.18	53.123
453.53	54.049
453.88	53.065
454.23	54.237
454.58	54.730
454.93	53.701
455.28	53.462
455.63	53.781
455.98	53.911
456.34	54.711
456.69	54.321
457.04	55.437
457.39	54.656
457.74	54.251
458.09	54.860
458.44	55.172
458.79	54.874
459.14	54.483
459.49	56.027
459.84	54.669
460.19	54.026
460.54	56.388
460.89	56.273
461.24	54.770
461.59	55.894
461.94	54.763
462.29	56.495
462.64	55.462
462.99	55.304
463.34	57.106
463.69	54.982
464.04	55.642
464.39	56.110
464.74	54.960
465.09	56.574
465.44	55.365
465.79	55.685
466.14	55.498
466.49	55.842
466.84	57.080
467.19	56.012
467.54	55.170
467.89	56.322
468.24	55.956
468.59	57.093
468.94	55.944
469.29	55.789
469.64	57.851
469.99	56.597
470.34	57.302
470.68	57.416
471.03	57.564
471.38	56.965
471.73	58.127
472.08	57.614
472.43	57.134
472.78	57.872
473.13	58.913
473.48	57.825
473.83	57.806
474.17	57.737
474.52	58.629
474.87	57.364
475.22	58.141
475.57	56.750
475.92	57.939
476.27	59.372
476.61	57.684
476.96	58.133
477.31	58.515
477.66	59.129
478.01	58.719
478.36	58.375
478.70	58.424
479.05	60.020
479.40	59.181
479.75	57.973
480.10	58.835
480.45	58.250
480.79	57.823
481.14	58.686
481.49	59.927
481.84	58.660
482.19	59.828
482.53	60.122
482.88	59.194
483.23	60.160
483.58	58.865
483.92	58.422
484.27	58.764
484.62	58.292
484.97	58.398
485.31	56.987
485.66	53.146
486.01	53.167
486.36	56.360
486.70	59.762
487.05	63.193
487.40	60.854
487.75	59.084
488.09	58.383
488.44	57.614
488.79	57.538
489.13	56.300
489.48	57.398
489.83	57.425
490.17	58.728
490.52	58.580
490.87	59.010
491.22	59.012
491.56	59.642
491.91	61.055
492.26	59.412
492.60	60.210
492.95	59.544
493.30	60.870
493.64	60.622
493.99	59.342
494.34	59.713
494.68	60.899
495.03	59.692
495.37	60.985
495.72	60.726
496.07	60.517
496.41	60.103
496.76	61.676
497.11	61.231
497.45	61.761
497.80	61.084
498.14	61.633
498.49	61.121
498.84	60.283
499.18	60.594
499.53	61.525
499.87	60.835
500.22	60.062
500.56	60.819
500.91	61.693
501.26	62.364
501.60	61.688
501.95	60.877
502.29	61.738
502.64	62.527
502.98	60.699
503.33	60.821
503.67	60.794
504.02	61.471
504.36	62.645
504.71	63.344
505.06	62.028
505.40	63.208
505.75	62.022
506.09	61.188
506.44	62.488
506.78	63.028
507.13	62.886
507.47	64.045
507.82	61.364
508.16	63.671
508.51	62.869
508.85	64.573
509.19	63.145
509.54	63.737
509.88	64.060
510.23	64.060
510.57	64.234
510.92	63.038
511.26	62.771
511.61	62.337
511.95	63.153
512.30	63.122
512.64	63.518
512.98	63.332
513.33	64.163
513.67	65.324
514.02	65.457
514.36	64.706
514.70	66.146
515.05	66.215
515.39	66.247
515.74	65.005
516.08	65.557
516.42	65.986
516.77	67.245
517.11	64.982
517.46	66.066
517.80	66.221
518.14	67.247
518.49	66.323
518.83	64.981
519.17	64.405
519.52	64.465
519.86	66.579
520.20	65.229
520.55	65.717
520.89	67.286
521.23	65.885
521.58	66.667
521.92	68.159
522.26	65.521
522.61	69.155
522.95	66.897
523.29	67.759
523.64	66.312
523.98	67.655
524.32	68.539
524.66	67.217
525.01	66.138
525.35	67.490
525.69	67.575
526.04	66.992
526.38	66.839
526.72	68.685
527.06	69.091
527.41	66.764
527.75	70.784
528.09	67.473
528.43	66.548
528.78	66.879
529.12	66.686
529.46	67.735
529.80	68.421
530.15	68.348
530.49	68.268
530.83	68.595
531.17	68.877
531.51	68.412
531.86	68.450
532.20	69.146
532.54	67.385
532.88	68.788
533.22	66.529
533.57	66.763
533.91	67.059
534.25	67.439
534.59	66.379
534.93	69.100
535.27	67.155
535.62	67.595
535.96	68.332
536.30	67.803
536.64	67.628
536.98	68.819
537.32	68.889
537.66	69.370
538.01	66.163
538.35	68.392
538.69	66.827
539.03	68.486
539.37	68.257
539.71	67.568
540.05	67.806
540.39	67.543
540.73	66.788
541.07	68.608
541.42	66.509
541.76	67.260
542.10	68.396
542.44	69.367
542.78	67.762
543.12	67.580
543.46	66.850
543.80	66.307
544.14	66.846
544.48	66.371
544.82	67.744
545.16	67.859
545.50	67.286
545.84	66.626
546.18	69.136
546.52	67.643
546.86	67.547
547.20	67.557
547.54	67.041
547.88	67.089
548.22	65.848
548.56	67.115
548.90	69.731
549.24	67.052
549.58	67.192
549.92	68.814
550.26	67.896
550.60	67.390
550.94	68.564
551.28	66.601
551.62	68.733
551.96	65.566
552.30	67.431
552.64	66.521
552.98	68.309
553.32	69.003
553.66	68.553
554.00	69.231
554.34	67.761
554.68	67.334
555.02	67.806
555.36	68.179
555.69	66.688
556.03	66.835
556.37	68.711
556.71	68.548
557.05	67.987
557.39	68.613
557.73	67.173
558.07	68.742
558.41	69.900
558.75	68.019
559.08	68.824
559.42	67.764
559.76	68.521
560.10	67.984
560.44	68.470
560.78	68.812
561.12	67.611
561.45	67.397
561.79	66.239
562.13	67.776
562.47	67.324
562.81	67.722
563.15	67.487
563.48	67.682
563.82	68.017
564.16	67.111
564.50	66.925
564.84	66.431
565.17	68.000
565.51	65.880
565.85	67.933
566.19	66.993
566.52	66.647
566.86	66.497
567.20	64.818
567.54	66.543
567.88	66.259
568.21	65.958
568.55	66.331
568.89	66.500
569.23	64.090
569.56	64.283
569.90	64.683
570.24	64.216
570.57	64.272
570.91	63.625
571.25	62.511
571.59	63.151
571.92	63.113
572.26	62.652
572.60	62.981
572.93	62.622
573.27	62.602
573.61	62.308
573.95	61.835
574.28	61.901
574.62	61.733
574.96	60.918
575.29	61.710
575.63	61.700
575.97	62.108
576.30	60.622
576.64	60.916
576.98	61.162
577.31	61.104
577.65	61.659
577.98	61.126
578.32	60.838
578.66	61.157
578.99	61.540
579.33	61.494
579.67	61.129
580.00	61.182
580.34	60.144
580.67	60.349
581.01	60.688
581.35	60.140
581.68	59.698
582.02	61.042
582.35	61.657
582.69	61.392
583.02	61.615
583.36	62.066
583.70	61.600
584.03	60.811
584.37	60.232
584.70	59.584
585.04	59.754
585.37	59.965
585.71	60.496
586.04	60.612
586.38	61.444
586.72	61.143
587.05	61.269
587.39	61.930
587.72	61.938
588.06	61.243
588.39	61.065
588.73	61.032
589.06	61.597
589.40	62.415
589.73	62.339
590.07	61.472
590.40	62.001
590.73	62.177
591.07	62.323
591.40	61.392
591.74	63.196
592.07	61.876
592.41	61.356
592.74	60.774
593.08	62.070
593.41	62.788
593.75	61.552
594.08	63.072
594.41	62.179
594.75	62.737
595.08	62.685
595.42	61.656
595.75	61.414
596.09	62.962
596.42	63.096
596.75	61.791
597.09	62.263
597.42	62.098
597.75	62.172
598.09	61.944
598.42	63.289
598.76	61.597
599.09	61.944
599.42	60.342
599.76	61.704
600.09	62.362
600.42	61.261
600.76	61.922
601.09	61.898
601.42	61.758
601.76	61.828
602.09	61.330
602.42	61.250
602.76	61.734
603.09	61.931
603.42	61.814
603.76	62.685
604.09	62.598
604.42	62.055
604.76	62.253
605.09	62.744
605.42	61.324
605.75	62.308
606.09	61.515
606.42	61.036
606.75	61.094
607.09	62.481
607.42	61.195
607.75	62.564
608.08	62.155
608.42	61.507
608.75	62.479
609.08	62.479
609.41	62.638
609.75	62.232
610.08	63.237
610.41	61.088
610.74	61.429
611.07	62.211
611.41	62.960
611.74	63.926
612.07	63.394
612.40	63.451
612.73	63.667
613.07	63.178
613.40	63.523
613.73	62.831
614.06	63.248
614.39	62.828
614.72	62.834
615.06	62.849
615.39	62.397
615.72	63.412
616.05	62.943
616.38	64.178
616.71	64.734
617.05	63.099
617.38	63.082
617.71	62.635
618.04	64.490
618.37	63.770
618.70	65.441
619.03	65.114
619.36	64.118
619.69	65.022
620.03	65.599
620.36	64.356
620.69	65.145
621.02	67.126
621.35	66.618
621.68	66.377
622.01	66.690
622.34	66.109
622.67	66.323
623.00	66.194
623.33	65.096
623.66	66.472
623.99	65.174
624.32	64.652
624.65	64.479
624.99	65.085
625.32	65.251
625.65	65.475
625.98	64.610
626.31	66.336
626.64	65.861
626.97	66.542
627.30	65.831
627.63	64.966
627.96	66.967
628.29	64.669
628.62	66.499
628.95	68.361
629.28	67.290
629.61	68.350
629.94	67.029
630.26	67.119
