SpectraSuite Data File
++++++++++++++++++++++++++++++++++++
Date: Thu May 14 14:32:30 PDT 2015
User: schluterlab
Dark Spectrum Present: Yes
Reference Spectrum Present: Yes
Number of Sampled Component Spectra: 1
Spectrometers: USB2E3373
Integration Time (usec): 3000 (USB2E3373)
Spectra Averaged: 3 (USB2E3373)
Boxcar Smoothing: 0 (USB2E3373)
Correct for Electrical Dark: No (USB2E3373)
Strobe/Lamp Enabled: No (USB2E3373)
Correct for Detector Non-linearity: No (USB2E3373)
Correct for Stray Light: No (USB2E3373)
Number of Pixels in Processed Spectrum: 2048
>>>>>Begin Processed Spectral Data<<<<<
178.53	0.000
178.91	-214.286
179.29	500.000
179.67	2600.000
180.04	-57.143
180.42	-190.000
180.80	-240.000
181.18	1900.000
181.56	2400.000
181.94	-350.000
182.31	675.000
182.69	-533.333
183.07	950.000
183.45	-425.000
183.83	416.667
184.20	633.333
184.58	-2400.000
184.96	300.000
185.34	311.111
185.72	340.000
186.09	-66.667
186.47	-650.000
186.85	-140.000
187.23	166.667
187.61	1700.000
187.98	-220.000
188.36	-250.000
188.74	275.000
189.12	500.000
189.49	93.750
189.87	212.500
190.25	233.333
190.63	380.000
191.00	233.333
191.38	0.000
191.76	175.000
192.14	233.333
192.51	-750.000
192.89	366.667
193.27	0.000
193.65	242.857
194.02	1300.000
194.40	300.000
194.78	-242.857
195.15	0.000
195.53	209.091
195.91	0.000
196.29	550.000
196.66	153.846
197.04	800.000
197.42	285.714
197.79	750.000
198.17	225.000
198.55	185.714
198.92	255.556
199.30	187.500
199.68	200.000
200.05	207.143
200.43	400.000
200.81	-71.429
201.18	0.000
201.56	22.222
201.94	0.000
202.31	-466.667
202.69	88.889
203.07	-2900.000
203.44	133.333
203.82	325.000
204.19	208.333
204.57	350.000
204.95	150.000
205.32	2300.000
205.70	-550.000
206.08	300.000
206.45	433.333
206.83	-120.000
207.20	150.000
207.58	300.000
207.96	216.667
208.33	300.000
208.71	-58.333
209.08	433.333
209.46	0.000
209.84	-100.000
210.21	-1050.000
210.59	-950.000
210.96	-466.667
211.34	600.000
211.71	212.500
212.09	900.000
212.46	0.000
212.84	-400.000
213.22	220.000
213.59	425.000
213.97	150.000
214.34	466.667
214.72	-133.333
215.09	375.000
215.47	0.000
215.84	-414.286
216.22	-1000.000
216.59	420.000
216.97	120.000
217.34	350.000
217.72	300.000
218.09	650.000
218.47	200.000
218.84	0.000
219.22	-340.000
219.59	123.529
219.97	105.000
220.34	-350.000
220.72	211.111
221.09	207.692
221.47	533.333
221.84	200.000
222.22	142.857
222.59	0.000
222.97	300.000
223.34	220.000
223.72	900.000
224.09	275.000
224.46	600.000
224.84	380.000
225.21	228.571
225.59	500.000
225.96	425.000
226.34	57.692
226.71	-333.333
227.08	750.000
227.46	133.333
227.83	400.000
228.21	100.000
228.58	-150.000
228.95	-650.000
229.33	141.667
229.70	160.000
230.08	84.211
230.45	-140.000
230.82	333.333
231.20	107.143
231.57	158.333
231.95	109.091
232.32	109.091
232.69	75.000
233.07	425.000
233.44	141.176
233.81	180.000
234.19	150.000
234.56	63.636
234.93	82.759
235.31	68.421
235.68	72.222
236.05	70.000
236.43	103.846
236.80	92.000
237.17	81.481
237.55	48.485
237.92	130.000
238.29	77.419
238.67	34.091
239.04	69.444
239.41	50.000
239.79	43.478
240.16	40.741
240.53	39.130
240.91	29.412
241.28	26.230
241.65	50.746
242.02	32.432
242.40	26.154
242.77	40.000
243.14	17.073
243.51	19.737
243.89	28.205
244.26	31.683
244.63	25.490
245.00	23.364
245.38	21.053
245.75	11.504
246.12	30.952
246.49	17.829
246.87	28.571
247.24	21.854
247.61	19.079
247.98	19.463
248.36	20.988
248.73	15.951
249.10	20.219
249.47	28.358
249.84	23.037
250.22	14.508
250.59	18.889
250.96	16.818
251.33	19.388
251.70	15.385
252.08	20.833
252.45	21.311
252.82	18.595
253.19	16.406
253.56	18.251
253.94	16.538
254.31	16.288
254.68	18.182
255.05	18.567
255.42	17.007
255.79	15.858
256.16	16.556
256.54	14.901
256.91	18.033
257.28	17.049
257.65	14.013
258.02	14.159
258.39	15.100
258.76	18.349
259.14	14.368
259.51	15.274
259.88	12.181
260.25	17.222
260.62	19.452
260.99	17.760
261.36	18.231
261.73	14.589
262.10	15.659
262.47	13.941
262.85	17.172
263.22	10.909
263.59	12.105
263.96	15.090
264.33	16.113
264.70	13.827
265.07	16.706
265.44	17.234
265.81	13.657
266.18	15.420
266.55	14.509
266.92	11.845
267.29	15.536
267.66	15.965
268.03	17.686
268.40	13.361
268.77	12.756
269.14	11.894
269.51	15.789
269.88	14.754
270.25	15.292
270.62	16.034
270.99	14.747
271.36	16.634
271.73	13.163
272.10	14.028
272.47	12.224
272.84	14.257
273.21	15.230
273.58	13.710
273.95	13.654
274.32	14.449
274.69	12.186
275.06	14.103
275.43	11.645
275.80	14.109
276.17	13.519
276.54	15.485
276.91	10.376
277.28	14.828
277.65	15.619
278.02	15.625
278.39	12.862
278.76	12.478
279.13	13.475
279.50	16.151
279.87	15.206
280.23	10.739
280.60	14.407
280.97	13.816
281.34	10.017
281.71	12.352
282.08	13.621
282.45	12.766
282.82	13.658
283.19	12.116
283.56	13.115
283.92	14.414
284.29	13.270
284.66	13.465
285.03	12.981
285.40	13.138
285.77	11.765
286.14	13.282
286.51	12.329
286.87	11.058
287.24	13.253
287.61	11.061
287.98	12.538
288.35	12.722
288.72	12.870
289.08	12.738
289.45	10.651
289.82	10.693
290.19	11.063
290.56	11.831
290.93	11.270
291.29	11.708
291.66	10.744
292.03	10.583
292.40	12.925
292.77	11.186
293.13	11.231
293.50	11.958
293.87	11.141
294.24	11.467
294.60	12.010
294.97	9.933
295.34	10.883
295.71	10.593
296.08	10.207
296.44	9.314
296.81	9.988
297.18	10.461
297.55	10.377
297.91	8.778
298.28	8.768
298.65	11.058
299.02	8.973
299.38	10.069
299.75	11.215
300.12	10.417
300.48	9.217
300.85	9.899
301.22	10.179
301.59	8.105
301.95	10.169
302.32	10.111
302.69	9.858
303.05	9.793
303.42	9.645
303.79	10.208
304.15	9.043
304.52	8.668
304.89	8.691
305.25	10.041
305.62	9.091
305.99	8.866
306.35	8.266
306.72	9.617
307.09	9.645
307.45	8.385
307.82	9.183
308.19	9.788
308.55	9.836
308.92	9.250
309.29	8.525
309.65	9.162
310.02	8.020
310.38	9.547
310.75	8.447
311.12	8.917
311.48	9.091
311.85	9.212
312.22	8.539
312.58	9.859
312.95	8.413
313.31	9.304
313.68	8.333
314.05	9.214
314.41	8.834
314.78	8.810
315.14	9.982
315.51	10.157
315.87	9.811
316.24	8.493
316.61	10.124
316.97	8.145
317.34	8.642
317.70	9.956
318.07	10.229
318.43	10.289
318.80	10.117
319.16	8.498
319.53	8.912
319.89	7.888
320.26	10.943
320.62	7.890
320.99	9.695
321.35	8.872
321.72	10.605
322.08	8.206
322.45	9.304
322.81	9.206
323.18	9.912
323.54	9.483
323.91	9.609
324.27	9.552
324.64	9.824
325.00	8.872
325.37	9.419
325.73	9.421
326.10	9.489
326.46	10.586
326.83	10.328
327.19	9.449
327.56	9.012
327.92	10.386
328.29	8.710
328.65	8.626
329.01	8.799
329.38	9.604
329.74	10.103
330.11	9.332
330.47	8.846
330.84	9.475
331.20	9.667
331.56	8.666
331.93	9.958
332.29	9.407
332.66	10.050
333.02	8.878
333.38	9.480
333.75	9.007
334.11	9.675
334.48	9.653
334.84	10.535
335.20	9.068
335.57	9.781
335.93	9.669
336.29	9.151
336.66	9.083
337.02	9.448
337.38	9.609
337.75	10.000
338.11	10.093
338.47	9.843
338.84	8.714
339.20	9.436
339.56	9.802
339.93	8.292
340.29	10.386
340.65	9.327
341.02	9.657
341.38	9.943
341.74	8.797
342.11	8.850
342.47	8.658
342.83	9.340
343.20	9.403
343.56	9.383
343.92	8.647
344.28	8.594
344.65	10.388
345.01	8.736
345.37	9.953
345.73	7.794
346.10	9.126
346.46	8.940
346.82	9.963
347.19	9.626
347.55	8.953
347.91	8.618
348.27	9.408
348.63	9.216
349.00	8.874
349.36	9.145
349.72	8.929
350.08	9.658
350.45	8.669
350.81	9.578
351.17	8.195
351.53	9.249
351.89	9.036
352.26	8.209
352.62	9.104
352.98	8.397
353.34	7.543
353.70	8.320
354.07	8.346
354.43	8.960
354.79	8.452
355.15	8.536
355.51	9.064
355.87	8.153
356.24	9.278
356.60	8.795
356.96	9.118
357.32	8.476
357.68	9.224
358.04	8.009
358.40	8.134
358.77	8.991
359.13	8.567
359.49	7.955
359.85	8.194
360.21	9.182
360.57	7.968
360.93	8.392
361.29	9.053
361.66	8.834
362.02	9.395
362.38	8.925
362.74	8.450
363.10	9.422
363.46	8.795
363.82	9.020
364.18	8.445
364.54	8.368
364.90	8.495
365.26	7.793
365.62	8.933
365.98	8.713
366.35	9.060
366.71	7.619
367.07	8.119
367.43	8.339
367.79	8.096
368.15	8.629
368.51	8.322
368.87	8.818
369.23	8.733
369.59	8.128
369.95	8.587
370.31	8.778
370.67	8.391
371.03	8.380
371.39	8.529
371.75	8.391
372.11	8.740
372.47	8.192
372.83	9.031
373.19	8.005
373.55	9.079
373.91	8.180
374.27	8.732
374.63	8.593
374.99	8.289
375.35	8.701
375.71	8.774
376.07	8.586
376.42	7.872
376.78	8.825
377.14	8.671
377.50	8.033
377.86	9.113
378.22	8.623
378.58	8.918
378.94	8.509
379.30	8.729
379.66	8.230
380.02	8.425
380.38	7.834
380.74	7.662
381.09	8.479
381.45	8.693
381.81	8.724
382.17	8.551
382.53	8.772
382.89	8.916
383.25	8.499
383.61	7.697
383.97	8.068
384.32	8.792
384.68	7.715
385.04	9.427
385.40	8.544
385.76	8.851
386.12	9.216
386.48	9.059
386.83	8.880
387.19	8.806
387.55	8.392
387.91	8.505
388.27	9.065
388.62	8.591
388.98	8.517
389.34	8.544
389.70	8.309
390.06	8.467
390.42	8.554
390.77	9.272
391.13	8.275
391.49	8.877
391.85	8.545
392.20	8.778
392.56	9.155
392.92	8.615
393.28	8.568
393.64	8.547
393.99	9.297
394.35	9.287
394.71	8.743
395.07	8.084
395.42	8.567
395.78	8.653
396.14	8.259
396.50	8.135
396.85	8.825
397.21	8.462
397.57	8.068
397.92	8.763
398.28	8.039
398.64	8.924
399.00	7.853
399.35	8.901
399.71	8.696
400.07	8.422
400.42	8.673
400.78	8.565
401.14	9.163
401.49	8.869
401.85	8.198
402.21	8.691
402.57	8.803
402.92	8.629
403.28	7.728
403.63	7.399
403.99	7.779
404.35	8.812
404.70	9.178
405.06	8.967
405.42	8.372
405.77	9.487
406.13	8.158
406.49	8.502
406.84	8.366
407.20	8.161
407.55	8.177
407.91	8.548
408.27	9.128
408.62	8.551
408.98	9.112
409.34	7.918
409.69	8.467
410.05	8.910
410.40	9.049
410.76	9.030
411.11	8.884
411.47	8.477
411.83	9.465
412.18	9.096
412.54	8.714
412.89	8.906
413.25	8.465
413.60	8.788
413.96	9.091
414.31	8.669
414.67	9.183
415.03	9.292
415.38	8.638
415.74	8.674
416.09	9.870
416.45	9.330
416.80	9.058
417.16	9.068
417.51	9.029
417.87	8.522
418.22	8.922
418.58	8.674
418.93	9.837
419.29	9.001
419.64	7.803
420.00	8.368
420.35	8.366
420.71	8.558
421.06	9.201
421.42	9.117
421.77	7.862
422.12	8.404
422.48	8.653
422.83	9.146
423.19	8.541
423.54	8.407
423.90	8.283
424.25	9.013
424.61	8.152
424.96	9.281
425.31	8.864
425.67	8.105
426.02	8.799
426.38	8.726
426.73	8.650
427.09	9.804
427.44	7.974
427.79	9.508
428.15	8.505
428.50	8.820
428.85	8.496
429.21	8.936
429.56	8.144
429.92	8.256
430.27	8.867
430.62	8.647
430.98	8.559
431.33	8.016
431.68	8.477
432.04	8.786
432.39	8.998
432.74	9.018
433.10	8.924
433.45	8.584
433.80	9.227
434.16	9.039
434.51	8.376
434.86	8.415
435.22	8.714
435.57	8.550
435.92	8.459
436.28	8.874
436.63	8.575
436.98	8.535
437.34	8.568
437.69	8.586
438.04	8.302
438.39	8.041
438.75	8.246
439.10	9.355
439.45	9.335
439.81	8.362
440.16	8.525
440.51	8.974
440.86	8.282
441.22	8.950
441.57	8.910
441.92	8.875
442.27	8.737
442.63	9.538
442.98	9.285
443.33	9.100
443.68	8.771
444.03	9.595
444.39	9.154
444.74	8.780
445.09	8.768
445.44	8.693
445.79	8.812
446.15	8.890
446.50	9.612
446.85	9.193
447.20	8.269
447.55	9.257
447.91	8.482
448.26	8.034
448.61	9.245
448.96	9.227
449.31	8.961
449.66	8.115
450.02	8.966
450.37	9.057
450.72	8.988
451.07	9.169
451.42	8.608
451.77	9.005
452.12	9.368
452.47	8.794
452.83	8.784
453.18	8.990
453.53	8.501
453.88	8.669
454.23	10.056
454.58	9.576
454.93	8.252
455.28	9.512
455.63	8.641
455.98	8.939
456.34	9.187
456.69	8.583
457.04	8.983
457.39	9.368
457.74	9.116
458.09	8.786
458.44	9.483
458.79	8.406
459.14	8.495
459.49	9.111
459.84	9.234
460.19	8.384
460.54	8.688
460.89	8.999
461.24	9.023
461.59	9.242
461.94	8.614
462.29	8.567
462.64	8.811
462.99	9.102
463.34	9.409
463.69	10.023
464.04	9.728
464.39	8.800
464.74	9.578
465.09	8.593
465.44	9.388
465.79	8.778
466.14	8.807
466.49	8.368
466.84	8.760
467.19	8.786
467.54	8.696
467.89	8.621
468.24	8.920
468.59	8.107
468.94	8.741
469.29	8.218
469.64	9.282
469.99	9.305
470.34	9.530
470.68	9.091
471.03	9.234
471.38	9.026
471.73	9.363
472.08	9.074
472.43	8.429
472.78	9.068
473.13	8.913
473.48	9.668
473.83	9.170
474.17	9.027
474.52	8.539
474.87	9.690
475.22	9.521
475.57	8.775
475.92	8.910
476.27	8.626
476.61	8.930
476.96	8.394
477.31	9.356
477.66	9.969
478.01	8.795
478.36	8.624
478.70	8.916
479.05	8.180
479.40	9.674
479.75	10.038
480.10	9.048
480.45	9.207
480.79	9.252
481.14	9.191
481.49	9.405
481.84	9.095
482.19	8.602
482.53	9.182
482.88	8.684
483.23	8.582
483.58	8.734
483.92	8.289
484.27	8.891
484.62	8.663
484.97	9.176
485.31	8.694
485.66	8.426
486.01	7.886
486.36	7.699
486.70	7.900
487.05	8.142
487.40	8.428
487.75	8.422
488.09	8.707
488.44	8.909
488.79	9.612
489.13	8.762
489.48	9.243
489.83	8.612
490.17	8.384
490.52	8.990
490.87	9.349
491.22	8.406
491.56	9.130
491.91	9.115
492.26	9.606
492.60	9.139
492.95	9.215
493.30	8.785
493.64	9.417
493.99	9.035
494.34	8.232
494.68	9.036
495.03	9.207
495.37	8.833
495.72	9.206
496.07	9.071
496.41	9.009
496.76	9.008
497.11	8.620
497.45	8.718
497.80	9.596
498.14	8.481
498.49	8.686
498.84	9.644
499.18	8.862
499.53	9.865
499.87	9.538
500.22	9.083
500.56	8.502
500.91	9.611
501.26	9.045
501.60	9.147
501.95	9.596
502.29	9.258
502.64	9.357
502.98	8.714
503.33	8.942
503.67	9.071
504.02	8.713
504.36	9.607
504.71	8.957
505.06	9.095
505.40	9.689
505.75	9.290
506.09	9.392
506.44	9.192
506.78	9.725
507.13	9.682
507.47	9.522
507.82	9.422
508.16	8.939
508.51	9.470
508.85	9.211
509.19	9.616
509.54	9.990
509.88	9.422
510.23	10.102
510.57	10.391
510.92	10.256
511.26	9.380
511.61	9.271
511.95	9.126
512.30	9.847
512.64	8.896
512.98	9.755
513.33	10.181
513.67	9.587
514.02	9.453
514.36	9.821
514.70	9.688
515.05	9.906
515.39	10.184
515.74	10.339
516.08	10.565
516.42	10.570
516.77	10.147
517.11	9.747
517.46	10.286
517.80	10.743
518.14	10.337
518.49	10.249
518.83	10.484
519.17	10.232
519.52	10.954
519.86	10.507
520.20	10.596
520.55	10.131
520.89	10.417
521.23	10.664
521.58	10.282
521.92	10.142
522.26	9.851
522.61	10.012
522.95	10.265
523.29	10.460
523.64	10.762
523.98	10.496
524.32	11.404
524.66	10.814
525.01	10.872
525.35	9.937
525.69	9.977
526.04	10.276
526.38	10.230
526.72	10.438
527.06	10.557
527.41	10.729
527.75	10.808
528.09	10.508
528.43	10.776
528.78	10.925
529.12	10.321
529.46	10.512
529.80	11.156
530.15	10.667
530.49	10.380
530.83	10.921
531.17	10.753
531.51	10.830
531.86	11.659
532.20	10.122
532.54	11.011
532.88	10.970
533.22	10.607
533.57	10.791
533.91	10.887
534.25	10.684
534.59	10.057
534.93	10.300
535.27	10.366
535.62	10.574
535.96	10.633
536.30	10.106
536.64	11.291
536.98	10.886
537.32	10.926
537.66	12.165
538.01	11.118
538.35	10.414
538.69	10.397
539.03	11.097
539.37	10.542
539.71	11.471
540.05	11.151
540.39	10.452
540.73	11.050
541.07	10.975
541.42	11.282
541.76	10.202
542.10	10.374
542.44	10.658
542.78	11.253
543.12	10.667
543.46	10.134
543.80	10.612
544.14	11.071
544.48	11.052
544.82	10.592
545.16	10.972
545.50	11.324
545.84	10.533
546.18	12.284
546.52	10.701
546.86	10.063
547.20	10.369
547.54	10.924
547.88	11.151
548.22	10.468
548.56	10.825
548.90	10.567
549.24	11.125
549.58	11.104
549.92	11.097
550.26	11.974
550.60	11.168
550.94	11.125
551.28	11.551
551.62	11.658
551.96	11.003
552.30	12.046
552.64	11.574
552.98	11.104
553.32	10.932
553.66	11.318
554.00	11.917
554.34	11.068
554.68	11.362
555.02	11.104
555.36	11.637
555.69	10.762
556.03	10.530
556.37	11.765
556.71	11.604
557.05	11.502
557.39	11.812
557.73	11.493
558.07	10.596
558.41	11.362
558.75	11.427
559.08	11.900
559.42	11.523
559.76	12.415
560.10	10.650
560.44	11.544
560.78	11.938
561.12	11.638
561.45	11.314
561.79	11.355
562.13	11.337
562.47	11.036
562.81	10.759
563.15	11.806
563.48	11.436
563.82	11.427
564.16	11.326
564.50	11.085
564.84	11.327
565.17	11.588
565.51	10.242
565.85	10.570
566.19	11.175
566.52	10.825
566.86	10.753
567.20	10.712
567.54	11.312
567.88	10.958
568.21	10.474
568.55	10.552
568.89	10.350
569.23	10.266
569.56	9.887
569.90	9.729
570.24	10.017
570.57	9.493
570.91	9.400
571.25	9.517
571.59	9.880
571.92	9.622
572.26	9.397
572.60	9.692
572.93	9.852
573.27	9.525
573.61	9.502
573.95	9.323
574.28	9.203
574.62	9.163
574.96	8.910
575.29	9.319
575.63	9.309
575.97	9.317
576.30	9.524
576.64	9.186
576.98	9.294
577.31	9.286
577.65	9.286
577.98	9.074
578.32	8.825
578.66	8.914
578.99	9.113
579.33	9.160
579.67	9.248
580.00	9.485
580.34	9.206
580.67	9.289
581.01	9.238
581.35	9.040
581.68	8.926
582.02	8.893
582.35	9.207
582.69	9.066
583.02	9.232
583.36	9.468
583.70	8.953
584.03	9.479
584.37	9.677
584.70	9.340
585.04	9.230
585.37	9.346
585.71	9.450
586.04	9.049
586.38	9.424
586.72	9.225
587.05	9.312
587.39	9.025
587.72	9.258
588.06	9.405
588.39	9.385
588.73	10.000
589.06	9.819
589.40	9.680
589.73	10.347
590.07	9.947
590.40	10.412
590.73	10.110
591.07	10.797
591.40	10.575
591.74	9.897
592.07	11.003
592.41	10.174
592.74	10.472
593.08	9.777
593.41	9.711
593.75	9.598
594.08	9.543
594.41	9.840
594.75	10.063
595.08	9.522
595.42	10.065
595.75	9.816
596.09	10.030
596.42	9.961
596.75	10.652
597.09	11.111
597.42	10.250
597.75	10.153
598.09	11.032
598.42	10.495
598.76	9.935
599.09	10.324
599.42	9.688
599.76	9.805
600.09	9.977
600.42	9.977
600.76	9.974
601.09	9.559
601.42	9.921
601.76	9.966
602.09	9.793
602.42	10.033
602.76	10.258
603.09	10.316
603.42	9.538
603.76	10.007
604.09	9.901
604.42	10.128
604.76	9.855
605.09	10.331
605.42	10.686
605.75	10.500
606.09	10.228
606.42	10.179
606.75	9.783
607.09	9.831
607.42	10.520
607.75	10.199
608.08	10.182
608.42	9.714
608.75	11.111
609.08	10.187
609.41	10.454
609.75	10.625
610.08	10.862
610.41	10.323
610.74	10.126
611.07	10.124
611.41	10.404
611.74	10.808
612.07	11.033
612.40	10.219
612.73	10.220
613.07	11.051
613.40	11.357
613.73	10.833
614.06	10.648
614.39	10.107
614.72	10.432
615.06	10.683
615.39	10.343
615.72	10.379
616.05	10.733
616.38	11.403
616.71	11.651
617.05	10.170
617.38	11.825
617.71	11.177
618.04	11.279
618.37	11.202
618.70	11.369
619.03	11.171
619.36	10.974
619.69	10.955
620.03	11.299
620.36	11.288
620.69	11.166
621.02	11.745
621.35	11.829
621.68	12.509
622.01	11.530
622.34	10.600
622.67	11.340
623.00	10.391
623.33	11.413
623.66	10.830
623.99	11.784
624.32	11.566
624.65	10.746
624.99	10.988
625.32	11.496
625.65	11.463
625.98	11.254
626.31	12.403
626.64	12.234
626.97	11.178
627.30	11.086
627.63	11.853
627.96	12.913
628.29	12.607
628.62	13.014
628.95	12.007
629.28	12.914
629.61	13.384
629.94	11.799
630.26	12.458
630.59	13.126
630.92	11.948
631.25	13.685
631.58	12.994
631.91	12.652
632.24	13.833
632.57	12.619
632.90	13.541
633.23	14.082
633.56	12.755
633.89	12.810
634.22	13.825
634.55	13.883
634.88	12.446
635.20	14.855
635.53	12.994
635.86	14.410
636.19	13.150
636.52	13.713
636.85	13.585
637.18	13.410
637.51	13.656
637.83	15.172
638.16	13.825
638.49	13.146
638.82	12.740
639.15	13.173
639.48	14.434
639.81	14.203
640.13	14.723
640.46	11.515
640.79	13.848
641.12	14.161
641.45	13.927
641.77	15.276
642.10	14.567
642.43	15.691
642.76	14.499
643.09	13.836
643.41	13.165
643.74	14.207
644.07	16.138
644.40	14.144
644.73	14.804
645.05	15.712
645.38	14.676
645.71	14.516
646.04	16.643
646.36	14.453
646.69	15.031
647.02	16.972
647.35	17.252
647.67	15.137
