SpectraSuite Data File
++++++++++++++++++++++++++++++++++++
Date: Thu May 14 14:43:19 PDT 2015
User: schluterlab
Dark Spectrum Present: Yes
Reference Spectrum Present: Yes
Number of Sampled Component Spectra: 1
Spectrometers: USB2E3373
Integration Time (usec): 3000 (USB2E3373)
Spectra Averaged: 3 (USB2E3373)
Boxcar Smoothing: 0 (USB2E3373)
Correct for Electrical Dark: No (USB2E3373)
Strobe/Lamp Enabled: No (USB2E3373)
Correct for Detector Non-linearity: No (USB2E3373)
Correct for Stray Light: No (USB2E3373)
Number of Pixels in Processed Spectrum: 2048
>>>>>Begin Processed Spectral Data<<<<<
178.53	0.000
178.91	-71.429
179.29	0.000
179.67	-300.000
180.04	78.571
180.42	40.000
180.80	-40.000
181.18	-600.000
181.56	700.000
181.94	-200.000
182.31	225.000
182.69	33.333
183.07	200.000
183.45	275.000
183.83	116.667
184.20	100.000
184.58	500.000
184.96	-75.000
185.34	88.889
185.72	120.000
186.09	100.000
186.47	-50.000
186.85	120.000
187.23	-55.556
187.61	-700.000
187.98	-20.000
188.36	-25.000
188.74	200.000
189.12	66.667
189.49	12.500
189.87	-12.500
190.25	55.556
190.63	-20.000
191.00	-111.111
191.38	0.000
191.76	0.000
192.14	33.333
192.51	-250.000
192.89	183.333
193.27	0.000
193.65	128.571
194.02	100.000
194.40	71.429
194.78	85.714
195.15	0.000
195.53	63.636
195.91	0.000
196.29	225.000
196.66	0.000
197.04	-500.000
197.42	85.714
197.79	50.000
198.17	12.500
198.55	71.429
198.92	122.222
199.30	-25.000
199.68	163.636
200.05	71.429
200.43	400.000
200.81	114.286
201.18	0.000
201.56	77.778
201.94	0.000
202.31	333.333
202.69	-111.111
203.07	-100.000
203.44	111.111
203.82	75.000
204.19	-8.333
204.57	16.667
204.95	50.000
205.32	-1300.000
205.70	100.000
206.08	-16.667
206.45	16.667
206.83	180.000
207.20	83.333
207.58	-40.000
207.96	-33.333
208.33	133.333
208.71	33.333
209.08	50.000
209.46	0.000
209.84	83.333
210.21	150.000
210.59	100.000
210.96	66.667
211.34	275.000
211.71	25.000
212.09	-300.000
212.46	0.000
212.84	250.000
213.22	-120.000
213.59	50.000
213.97	70.000
214.34	100.000
214.72	66.667
215.09	325.000
215.47	0.000
215.84	85.714
216.22	200.000
216.59	300.000
216.97	-200.000
217.34	-125.000
217.72	100.000
218.09	-25.000
218.47	0.000
218.84	0.000
219.22	-100.000
219.59	47.059
219.97	30.000
220.34	400.000
220.72	-44.444
221.09	38.462
221.47	366.667
221.84	80.000
222.22	-42.857
222.59	0.000
222.97	37.500
223.34	-120.000
223.72	0.000
224.09	150.000
224.46	-125.000
224.84	180.000
225.21	14.286
225.59	-125.000
225.96	-100.000
226.34	23.077
226.71	183.333
227.08	0.000
227.46	40.000
227.83	25.000
228.21	31.579
228.58	-50.000
228.95	-150.000
229.33	100.000
229.70	50.000
230.08	126.316
230.45	-30.000
230.82	333.333
231.20	21.429
231.57	116.667
231.95	63.636
232.32	63.636
232.69	20.000
233.07	-75.000
233.44	23.529
233.81	10.000
234.19	77.778
234.56	63.636
234.93	58.621
235.31	73.684
235.68	5.556
236.05	25.000
236.43	65.385
236.80	76.000
237.17	51.852
237.55	18.182
237.92	110.000
238.29	54.839
238.67	34.091
239.04	19.444
239.41	19.048
239.79	30.435
240.16	40.741
240.53	47.826
240.91	37.255
241.28	62.295
241.65	49.254
242.02	32.432
242.40	23.077
242.77	44.000
243.14	31.707
243.51	31.579
243.89	35.897
244.26	33.663
244.63	29.412
245.00	28.037
245.38	39.474
245.75	29.204
246.12	34.127
246.49	33.333
246.87	39.286
247.24	33.775
247.61	39.474
247.98	36.242
248.36	30.247
248.73	33.129
249.10	24.044
249.47	36.816
249.84	41.361
250.22	26.943
250.59	34.444
250.96	32.727
251.33	30.102
251.70	35.470
252.08	36.667
252.45	39.754
252.82	34.711
253.19	33.594
253.56	32.700
253.94	36.538
254.31	34.848
254.68	37.063
255.05	34.528
255.42	31.633
255.79	32.686
256.16	36.755
256.54	34.106
256.91	32.787
257.28	35.738
257.65	33.439
258.02	27.729
258.39	30.199
258.76	41.896
259.14	32.184
259.51	31.412
259.88	33.994
260.25	35.556
260.62	36.712
260.99	33.880
261.36	36.461
261.73	34.483
262.10	34.066
262.47	35.657
262.85	34.848
263.22	32.208
263.59	33.158
263.96	33.760
264.33	34.527
264.70	35.309
265.07	34.129
265.44	36.281
265.81	30.787
266.18	33.107
266.55	37.500
266.92	31.435
267.29	35.449
267.66	31.486
268.03	35.153
268.40	33.403
268.77	32.118
269.14	32.819
269.51	32.237
269.88	33.197
270.25	34.809
270.62	36.498
270.99	35.556
271.36	34.455
271.73	33.595
272.10	34.469
272.47	35.070
272.84	31.526
273.21	34.269
273.58	34.677
273.95	31.923
274.32	31.749
274.69	32.882
275.06	33.516
275.43	30.314
275.80	32.804
276.17	31.852
276.54	31.530
276.91	31.485
277.28	32.007
277.65	32.136
278.02	31.618
278.39	33.152
278.76	31.986
279.13	31.383
279.50	32.818
279.87	31.664
280.23	30.458
280.60	32.034
280.97	32.895
281.34	32.598
281.71	34.179
282.08	29.402
282.45	31.097
282.82	29.356
283.19	29.402
283.56	30.984
283.92	33.483
284.29	31.596
284.66	32.512
285.03	30.609
285.40	29.521
285.77	31.115
286.14	31.603
286.51	30.746
286.87	30.174
287.24	31.175
287.61	29.297
287.98	30.363
288.35	31.657
288.72	29.734
289.08	30.747
289.45	28.107
289.82	29.367
290.19	29.741
290.56	28.169
290.93	29.672
291.29	28.375
291.66	27.824
292.03	27.273
292.40	28.027
292.77	28.032
293.13	27.470
293.50	25.493
293.87	26.846
294.24	28.667
294.60	25.790
294.97	25.101
295.34	25.736
295.71	25.221
296.08	26.357
296.44	25.123
296.81	26.066
297.18	23.412
297.55	25.590
297.91	23.369
298.28	23.815
298.65	24.257
299.02	23.022
299.38	22.654
299.75	24.299
300.12	23.611
300.48	23.387
300.85	23.960
301.22	24.161
301.59	22.489
301.95	23.051
302.32	22.667
302.69	22.563
303.05	23.939
303.42	24.169
303.79	22.708
304.15	21.241
304.52	22.199
304.89	22.408
305.25	22.257
305.62	23.511
305.99	23.196
306.35	22.077
306.72	23.164
307.09	21.117
307.45	22.774
307.82	21.998
308.19	21.998
308.55	23.626
308.92	21.616
309.29	20.881
309.65	21.637
310.02	22.970
310.38	21.850
310.75	22.913
311.12	22.339
311.48	22.581
311.85	21.368
312.22	21.537
312.58	20.845
312.95	21.702
313.31	21.500
313.68	19.872
314.05	22.042
314.41	21.767
314.78	22.797
315.14	21.506
315.51	22.068
315.87	21.512
316.24	22.831
316.61	20.959
316.97	21.719
317.34	21.429
317.70	21.397
318.07	21.958
318.43	22.364
318.80	21.990
319.16	22.575
319.53	21.165
319.89	21.823
320.26	21.619
320.62	20.833
320.99	21.884
321.35	21.165
321.72	22.140
322.08	22.092
322.45	22.042
322.81	21.570
323.18	22.124
323.54	20.862
323.91	22.509
324.27	21.084
324.64	23.090
325.00	22.139
325.37	22.359
325.73	22.231
326.10	21.736
326.46	21.661
326.83	22.338
327.19	22.913
327.56	21.976
327.92	21.558
328.29	21.613
328.65	20.938
329.01	21.404
329.38	22.831
329.74	23.373
330.11	22.346
330.47	23.083
330.84	22.394
331.20	22.000
331.56	21.317
331.93	22.594
332.29	22.203
332.66	22.924
333.02	22.446
333.38	21.728
333.75	22.138
334.11	21.351
334.48	22.690
334.84	21.750
335.20	21.662
335.57	22.091
335.93	22.066
336.29	20.050
336.66	21.783
337.02	21.488
337.38	22.619
337.75	21.818
338.11	21.867
338.47	22.002
338.84	20.474
339.20	20.472
339.56	21.252
339.93	20.854
340.29	21.095
340.65	20.681
341.02	22.346
341.38	21.261
341.74	20.985
342.11	21.641
342.47	20.413
342.83	22.222
343.20	21.668
343.56	21.010
343.92	21.137
344.28	22.188
344.65	20.930
345.01	20.749
345.37	21.540
345.73	20.187
346.10	20.983
346.46	20.411
346.82	21.873
347.19	20.703
347.55	21.017
347.91	21.397
348.27	21.168
348.63	21.554
349.00	20.507
349.36	20.297
349.72	21.057
350.08	20.951
350.45	20.837
350.81	20.513
351.17	19.925
351.53	19.560
351.89	21.109
352.26	21.493
352.62	20.000
352.98	20.687
353.34	20.015
353.70	19.877
354.07	20.566
354.43	20.046
354.79	19.970
355.15	19.720
355.51	20.906
355.87	20.643
356.24	20.760
356.60	20.325
356.96	22.016
357.32	20.446
357.68	19.693
358.04	19.910
358.40	20.821
358.77	19.883
359.13	20.089
359.49	18.736
359.85	19.507
360.21	20.373
360.57	20.388
360.93	19.535
361.29	20.421
361.66	18.755
362.02	20.668
362.38	19.606
362.74	19.902
363.10	20.358
363.46	19.460
363.82	20.384
364.18	21.253
364.54	19.986
364.90	20.669
365.26	18.828
365.62	20.333
365.98	19.946
366.35	20.067
366.71	20.952
367.07	20.095
367.43	20.814
367.79	20.372
368.15	19.866
368.51	20.162
368.87	20.379
369.23	19.800
369.59	20.014
369.95	19.473
370.31	19.919
370.67	19.601
371.03	20.360
371.39	19.140
371.75	19.739
372.11	19.851
372.47	19.228
372.83	20.615
373.19	19.013
373.55	18.360
373.91	18.882
374.27	19.793
374.63	19.553
374.99	19.562
375.35	20.325
375.71	18.839
376.07	19.238
376.42	19.270
376.78	19.826
377.14	19.214
377.50	18.912
377.86	19.951
378.22	19.222
378.58	19.857
378.94	18.897
379.30	19.391
379.66	19.518
380.02	19.331
380.38	19.643
380.74	19.887
381.09	18.525
381.45	20.000
381.81	19.262
382.17	19.952
382.53	20.058
382.89	19.582
383.25	18.875
383.61	18.692
383.97	19.022
384.32	19.617
384.68	18.503
385.04	19.954
385.40	19.151
385.76	20.223
386.12	19.988
386.48	19.706
386.83	19.726
387.19	19.003
387.55	19.366
387.91	19.521
388.27	20.266
388.62	19.931
388.98	20.305
389.34	19.623
389.70	20.105
390.06	18.532
390.42	19.940
390.77	20.470
391.13	19.542
391.49	19.686
391.85	19.576
392.20	20.463
392.56	19.551
392.92	20.120
393.28	19.790
393.64	18.939
393.99	20.163
394.35	19.977
394.71	20.240
395.07	18.922
395.42	19.475
395.78	20.780
396.14	19.846
396.50	19.240
396.85	19.738
397.21	20.769
397.57	19.494
397.92	20.046
398.28	19.989
398.64	18.936
399.00	19.215
399.35	19.267
399.71	19.783
400.07	19.147
400.42	19.383
400.78	18.924
401.14	19.750
401.49	19.557
401.85	19.709
402.21	20.394
402.57	20.246
402.92	19.031
403.28	19.438
403.63	19.511
403.99	19.596
404.35	19.045
404.70	19.093
405.06	18.967
405.42	19.087
405.77	19.793
406.13	19.071
406.49	19.876
406.84	20.166
407.20	19.061
407.55	18.595
407.91	19.233
408.27	19.788
408.62	19.139
408.98	19.791
409.34	18.710
409.69	20.148
410.05	19.812
410.40	19.258
410.76	19.630
411.11	18.936
411.47	20.209
411.83	19.577
412.18	19.819
412.54	19.858
412.89	20.664
413.25	19.357
413.60	19.472
413.96	19.988
414.31	18.980
414.67	19.917
415.03	20.000
415.38	18.789
415.74	19.792
416.09	19.803
416.45	19.850
416.80	19.217
417.16	19.221
417.51	20.237
417.87	18.394
418.22	19.162
418.58	19.517
418.93	19.674
419.29	20.160
419.64	19.448
420.00	19.585
420.35	19.989
420.71	19.357
421.06	18.516
421.42	20.069
421.77	19.278
422.12	19.556
422.48	18.331
422.83	19.770
423.19	19.363
423.54	19.524
423.90	18.995
424.25	19.413
424.61	19.346
424.96	20.044
425.31	19.480
425.67	19.270
426.02	19.812
426.38	19.805
426.73	19.141
427.09	20.473
427.44	19.880
427.79	19.514
428.15	19.292
428.50	19.101
428.85	19.403
429.21	19.787
429.56	19.793
429.92	18.526
430.27	19.133
430.62	19.687
430.98	19.085
431.33	19.306
431.68	18.774
432.04	19.553
432.39	18.854
432.74	19.121
433.10	19.200
433.45	18.227
433.80	20.118
434.16	19.370
434.51	19.938
434.86	19.327
435.22	19.182
435.57	20.224
435.92	19.588
436.28	19.625
436.63	19.825
436.98	19.055
437.34	20.124
437.69	18.767
438.04	19.302
438.39	19.357
438.75	19.148
439.10	20.560
439.45	19.452
439.81	18.249
440.16	19.249
440.51	19.955
440.86	19.122
441.22	19.507
441.57	20.021
441.92	19.302
442.27	19.949
442.63	19.374
442.98	19.210
443.33	19.621
443.68	19.772
444.03	19.285
444.39	20.065
444.74	19.347
445.09	18.601
445.44	19.758
445.79	19.540
446.15	19.990
446.50	19.845
446.85	19.796
447.20	19.149
447.55	19.299
447.91	19.267
448.26	19.239
448.61	19.766
448.96	20.762
449.31	19.194
449.66	19.063
450.02	19.620
450.37	20.192
450.72	19.699
451.07	19.305
451.42	19.122
451.77	18.510
452.12	19.865
452.47	20.024
452.83	19.595
453.18	18.914
453.53	19.184
453.88	18.774
454.23	19.379
454.58	19.849
454.93	19.539
455.28	19.506
455.63	20.068
455.98	19.665
456.34	19.965
456.69	19.577
457.04	19.622
457.39	20.067
457.74	20.190
458.09	18.616
458.44	20.259
458.79	19.082
459.14	20.294
459.49	20.204
459.84	19.675
460.19	19.767
460.54	20.045
460.89	19.428
461.24	18.736
461.59	20.919
461.94	18.597
462.29	19.597
462.64	20.097
462.99	19.586
463.34	20.441
463.69	20.106
464.04	20.011
464.39	20.179
464.74	19.555
465.09	19.608
465.44	19.742
465.79	20.148
466.14	19.229
466.49	20.211
466.84	19.118
467.19	19.884
467.54	19.448
467.89	19.023
468.24	19.889
468.59	19.050
468.94	18.998
469.29	18.836
469.64	19.072
469.99	19.567
470.34	19.183
470.68	20.301
471.03	20.367
471.38	19.948
471.73	19.636
472.08	20.178
472.43	19.747
472.78	19.584
473.13	19.532
473.48	20.000
473.83	20.081
474.17	19.402
474.52	19.904
474.87	19.103
475.22	19.606
475.57	19.574
475.92	19.861
476.27	19.649
476.61	19.107
476.96	19.395
477.31	19.653
477.66	20.567
478.01	19.522
478.36	19.342
478.70	20.000
479.05	20.297
479.40	19.694
479.75	19.837
480.10	19.375
480.45	19.872
480.79	20.544
481.14	19.807
481.49	19.309
481.84	19.669
482.19	19.742
482.53	19.851
482.88	20.160
483.23	19.564
483.58	19.738
483.92	19.282
484.27	19.517
484.62	19.224
484.97	19.596
485.31	18.444
485.66	18.877
486.01	19.132
486.36	19.930
486.70	19.846
487.05	19.889
487.40	19.178
487.75	18.601
488.09	18.456
488.44	18.218
488.79	18.583
489.13	18.899
489.48	19.340
489.83	18.833
490.17	19.077
490.52	19.458
490.87	19.247
491.22	19.454
491.56	19.497
491.91	19.756
492.26	19.775
492.60	19.152
492.95	20.360
493.30	20.574
493.64	19.755
493.99	19.298
494.34	19.469
494.68	19.143
495.03	19.427
495.37	19.352
495.72	19.728
496.07	20.202
496.41	19.305
496.76	19.933
497.11	19.703
497.45	19.551
497.80	19.991
498.14	19.773
498.49	19.301
498.84	20.064
499.18	19.568
499.53	20.179
499.87	19.780
500.22	18.878
500.56	19.478
500.91	19.680
501.26	19.818
501.60	19.487
501.95	19.974
502.29	19.789
502.64	19.633
502.98	19.888
503.33	20.562
503.67	19.189
504.02	19.396
504.36	19.705
504.71	19.890
505.06	19.418
505.40	19.835
505.75	19.900
506.09	19.797
506.44	19.963
506.78	20.183
507.13	20.609
507.47	19.422
507.82	20.218
508.16	19.790
508.51	18.940
508.85	19.509
509.19	20.275
509.54	19.789
509.88	20.641
510.23	20.447
510.57	20.686
510.92	19.497
511.26	19.721
511.61	19.025
511.95	19.668
512.30	19.793
512.64	19.590
512.98	20.010
513.33	20.464
513.67	20.143
514.02	20.337
514.36	19.898
514.70	20.417
515.05	19.917
515.39	19.895
515.74	20.785
516.08	19.229
516.42	20.931
516.77	20.400
517.11	20.217
517.46	20.255
517.80	20.150
518.14	21.055
518.49	20.174
518.83	20.277
519.17	20.140
519.52	19.811
519.86	20.591
520.20	20.714
520.55	20.427
520.89	20.495
521.23	19.430
521.58	20.847
521.92	20.283
522.26	20.160
522.61	19.965
522.95	20.473
523.29	22.126
523.64	19.955
523.98	20.650
524.32	21.777
524.66	20.319
525.01	21.008
525.35	20.563
525.69	19.780
526.04	20.379
526.38	21.379
526.72	20.300
527.06	20.528
527.41	20.350
527.75	21.021
528.09	20.307
528.43	20.426
528.78	20.520
529.12	20.470
529.46	19.843
529.80	20.938
530.15	20.870
530.49	19.395
530.83	20.484
531.17	19.773
531.51	21.239
531.86	21.394
532.20	21.524
532.54	19.150
532.88	21.212
533.22	20.094
533.57	21.293
533.91	20.034
534.25	20.520
534.59	20.517
534.93	20.034
535.27	19.887
535.62	21.546
535.96	20.802
536.30	21.387
536.64	20.961
536.98	21.279
537.32	20.741
537.66	19.713
538.01	20.785
538.35	20.280
538.69	20.613
539.03	22.502
539.37	21.025
539.71	19.940
540.05	21.403
540.39	20.171
540.73	19.186
541.07	19.926
541.42	19.965
541.76	20.166
542.10	20.748
542.44	20.767
542.78	20.985
543.12	20.203
543.46	20.574
543.80	20.084
544.14	19.509
544.48	20.863
544.82	20.706
545.16	20.572
545.50	19.952
545.84	20.208
546.18	20.926
546.52	20.637
546.86	20.314
547.20	21.565
547.54	20.225
547.88	20.494
548.22	20.058
548.56	20.246
548.90	20.239
549.24	21.155
549.58	20.631
549.92	20.536
550.26	20.647
550.60	20.294
550.94	20.375
551.28	20.990
551.62	21.698
551.96	20.906
552.30	21.224
552.64	20.597
552.98	21.335
553.32	21.222
553.66	21.865
554.00	20.681
554.34	21.943
554.68	20.723
555.02	21.288
555.36	21.631
555.69	19.987
556.03	20.807
556.37	20.588
556.71	20.672
557.05	20.703
557.39	20.770
557.73	20.277
558.07	20.530
558.41	21.462
558.75	20.554
559.08	21.434
559.42	21.193
559.76	21.370
560.10	20.764
560.44	20.251
560.78	21.687
561.12	20.443
561.45	21.290
561.79	20.879
562.13	21.442
562.47	19.482
562.81	20.823
563.15	20.328
563.48	20.075
563.82	20.314
564.16	20.109
564.50	21.037
564.84	20.354
565.17	21.235
565.51	20.771
565.85	20.843
566.19	20.392
566.52	20.070
566.86	20.713
567.20	19.304
567.54	20.393
567.88	21.509
568.21	20.603
568.55	20.480
568.89	21.062
569.23	20.997
569.56	20.555
569.90	20.741
570.24	20.944
570.57	19.917
570.91	19.565
571.25	19.931
571.59	20.067
571.92	19.670
572.26	19.931
572.60	19.629
572.93	19.427
573.27	19.416
573.61	19.428
573.95	19.981
574.28	19.902
574.62	19.327
574.96	19.806
575.29	19.365
575.63	19.450
575.97	19.569
576.30	19.146
576.64	19.089
576.98	19.362
577.31	19.974
577.65	19.583
577.98	19.503
578.32	19.581
578.66	19.544
578.99	18.882
579.33	19.231
579.67	18.903
580.00	18.521
580.34	19.001
580.67	18.778
581.01	19.083
581.35	19.579
581.68	19.556
582.02	19.723
582.35	20.026
582.69	19.620
583.02	19.380
583.36	19.100
583.70	19.177
584.03	18.575
584.37	18.884
584.70	18.778
585.04	19.135
585.37	19.686
585.71	19.698
586.04	19.309
586.38	19.406
586.72	19.153
587.05	19.161
587.39	19.297
587.72	19.761
588.06	19.947
588.39	19.368
588.73	19.524
589.06	19.103
589.40	19.852
589.73	19.377
590.07	19.595
590.40	20.385
590.73	19.335
591.07	20.365
591.40	19.635
591.74	19.475
592.07	20.016
592.41	19.637
592.74	19.702
593.08	20.828
593.41	20.356
593.75	20.000
594.08	20.267
594.41	20.000
594.75	19.960
595.08	19.448
595.42	19.481
595.75	19.696
596.09	19.451
596.42	19.635
596.75	19.413
597.09	19.919
597.42	19.269
597.75	19.561
598.09	19.603
598.42	19.260
598.76	19.641
599.09	19.936
599.42	19.812
599.76	19.412
600.09	20.020
600.42	20.554
600.76	19.089
601.09	19.449
601.42	19.739
601.76	19.483
602.09	19.478
602.42	19.629
602.76	19.520
603.09	19.567
603.42	19.798
603.76	18.816
604.09	20.156
604.42	18.972
604.76	19.064
605.09	19.426
605.42	19.258
605.75	19.385
606.09	19.448
606.42	19.993
606.75	20.052
607.09	18.587
607.42	19.692
607.75	19.265
608.08	19.100
608.42	18.984
608.75	19.527
609.08	19.100
609.41	19.012
609.75	19.330
610.08	20.229
610.41	19.074
610.74	19.034
611.07	19.938
611.41	20.628
611.74	19.400
612.07	20.009
612.40	19.867
612.73	19.071
613.07	19.315
613.40	19.779
613.73	19.981
614.06	19.823
614.39	19.048
614.72	19.068
615.06	19.346
615.39	19.236
615.72	19.384
616.05	19.573
616.38	19.425
616.71	19.592
617.05	18.956
617.38	20.653
617.71	20.140
618.04	20.022
618.37	20.546
618.70	20.532
619.03	18.757
619.36	19.236
619.69	18.578
620.03	19.900
620.36	19.509
620.69	19.679
621.02	19.816
621.35	19.376
621.68	21.114
622.01	20.142
622.34	19.038
622.67	20.137
623.00	19.636
623.33	20.770
623.66	20.104
623.99	20.013
624.32	21.053
624.65	19.305
624.99	19.441
625.32	20.640
625.65	19.555
625.98	19.458
626.31	20.269
626.64	20.366
626.97	20.255
627.30	18.603
627.63	19.655
627.96	20.270
628.29	19.844
628.62	20.319
628.95	20.684
629.28	20.901
629.61	20.286
629.94	20.251
630.26	20.593
630.59	20.121
630.92	19.481
631.25	20.483
631.58	20.151
631.91	21.931
632.24	20.461
632.57	20.778
632.90	19.458
633.23	21.327
633.56	21.327
633.89	19.628
634.22	20.686
634.55	20.251
