SpectraSuite Data File
++++++++++++++++++++++++++++++++++++
Date: Thu May 14 14:31:15 PDT 2015
User: schluterlab
Dark Spectrum Present: Yes
Reference Spectrum Present: Yes
Number of Sampled Component Spectra: 1
Spectrometers: USB2E3373
Integration Time (usec): 3000 (USB2E3373)
Spectra Averaged: 3 (USB2E3373)
Boxcar Smoothing: 0 (USB2E3373)
Correct for Electrical Dark: No (USB2E3373)
Strobe/Lamp Enabled: No (USB2E3373)
Correct for Detector Non-linearity: No (USB2E3373)
Correct for Stray Light: No (USB2E3373)
Number of Pixels in Processed Spectrum: 2048
>>>>>Begin Processed Spectral Data<<<<<
178.53	0.000
178.91	-271.429
179.29	1000.000
179.67	2400.000
180.04	28.571
180.42	-140.000
180.80	-180.000
181.18	600.000
181.56	2400.000
181.94	-0.000
182.31	450.000
182.69	-500.000
183.07	1100.000
183.45	-350.000
183.83	233.333
184.20	566.667
184.58	-1800.000
184.96	175.000
185.34	111.111
185.72	180.000
186.09	-22.222
186.47	-450.000
186.85	-140.000
187.23	144.444
187.61	700.000
187.98	-140.000
188.36	-250.000
188.74	400.000
189.12	533.333
189.49	168.750
189.87	312.500
190.25	255.556
190.63	540.000
191.00	88.889
191.38	0.000
191.76	350.000
192.14	133.333
192.51	-650.000
192.89	433.333
193.27	0.000
193.65	157.143
194.02	1000.000
194.40	285.714
194.78	-271.429
195.15	0.000
195.53	245.455
195.91	0.000
196.29	600.000
196.66	184.615
197.04	800.000
197.42	285.714
197.79	750.000
198.17	137.500
198.55	157.143
198.92	244.444
199.30	200.000
199.68	172.727
200.05	142.857
200.43	550.000
200.81	-200.000
201.18	0.000
201.56	88.889
201.94	0.000
202.31	-333.333
202.69	111.111
203.07	-1700.000
203.44	200.000
203.82	300.000
204.19	175.000
204.57	83.333
204.95	162.500
205.32	1200.000
205.70	-275.000
206.08	316.667
206.45	316.667
206.83	-100.000
207.20	250.000
207.58	200.000
207.96	233.333
208.33	233.333
208.71	-75.000
209.08	350.000
209.46	0.000
209.84	-133.333
210.21	-900.000
210.59	-800.000
210.96	-133.333
211.34	275.000
211.71	150.000
212.09	1300.000
212.46	0.000
212.84	-350.000
213.22	160.000
213.59	100.000
213.97	180.000
214.34	433.333
214.72	-166.667
215.09	400.000
215.47	0.000
215.84	-128.571
216.22	-850.000
216.59	360.000
216.97	280.000
217.34	375.000
217.72	212.500
218.09	350.000
218.47	275.000
218.84	0.000
219.22	-280.000
219.59	123.529
219.97	100.000
220.34	-450.000
220.72	111.111
221.09	200.000
221.47	566.667
221.84	200.000
222.22	42.857
222.59	0.000
222.97	187.500
223.34	200.000
223.72	1100.000
224.09	475.000
224.46	225.000
224.84	300.000
225.21	128.571
225.59	425.000
225.96	400.000
226.34	84.615
226.71	-16.667
227.08	800.000
227.46	153.333
227.83	125.000
228.21	136.842
228.58	-125.000
228.95	-200.000
229.33	208.333
229.70	140.000
230.08	136.842
230.45	-110.000
230.82	633.333
231.20	171.429
231.57	150.000
231.95	72.727
232.32	218.182
232.69	100.000
233.07	475.000
233.44	105.882
233.81	70.000
234.19	111.111
234.56	68.182
234.93	113.793
235.31	100.000
235.68	105.556
236.05	85.000
236.43	92.308
236.80	92.000
237.17	111.111
237.55	66.667
237.92	140.000
238.29	41.935
238.67	47.727
239.04	58.333
239.41	47.619
239.79	65.217
240.16	33.333
240.53	45.652
240.91	35.294
241.28	26.230
241.65	44.776
242.02	36.486
242.40	24.615
242.77	21.333
243.14	15.854
243.51	19.737
243.89	26.923
244.26	24.752
244.63	18.627
245.00	29.907
245.38	15.789
245.75	20.354
246.12	26.190
246.49	20.155
246.87	22.857
247.24	19.205
247.61	25.658
247.98	16.779
248.36	20.370
248.73	9.816
249.10	12.568
249.47	18.408
249.84	23.037
250.22	12.435
250.59	16.667
250.96	17.727
251.33	14.796
251.70	23.504
252.08	16.667
252.45	15.574
252.82	11.983
253.19	9.375
253.56	15.970
253.94	9.615
254.31	14.773
254.68	17.832
255.05	18.893
255.42	15.646
255.79	11.650
256.16	13.245
256.54	10.596
256.91	13.443
257.28	14.098
257.65	10.828
258.02	8.555
258.39	9.972
258.76	16.820
259.14	14.080
259.51	14.697
259.88	11.615
260.25	15.556
260.62	14.795
260.99	12.842
261.36	12.064
261.73	10.875
262.10	12.912
262.47	13.941
262.85	14.141
263.22	10.130
263.59	8.947
263.96	14.834
264.33	8.951
264.70	12.593
265.07	12.888
265.44	13.832
265.81	11.806
266.18	12.698
266.55	11.830
266.92	14.123
267.29	12.254
267.66	12.639
268.03	12.882
268.40	13.152
268.77	10.251
269.14	9.912
269.51	12.500
269.88	11.680
270.25	11.871
270.62	11.392
270.99	13.737
271.36	12.079
271.73	10.609
272.10	13.026
272.47	12.826
272.84	11.245
273.21	11.222
273.58	10.282
273.95	8.654
274.32	10.646
274.69	9.671
275.06	11.172
275.43	8.318
275.80	11.993
276.17	9.074
276.54	11.381
276.91	8.229
277.28	9.403
277.65	10.772
278.02	10.662
278.39	8.877
278.76	8.787
279.13	8.156
279.50	12.199
279.87	11.807
280.23	9.507
280.60	11.186
280.97	9.868
281.34	8.659
281.71	12.521
282.08	10.133
282.45	9.165
282.82	9.262
283.19	10.016
283.56	10.000
283.92	10.060
284.29	11.374
284.66	9.195
285.03	8.013
285.40	10.665
285.77	9.598
286.14	11.603
286.51	9.589
286.87	10.111
287.24	9.187
287.61	8.072
287.98	8.610
288.35	9.763
288.72	8.580
289.08	9.517
289.45	9.467
289.82	8.735
290.19	9.914
290.56	9.577
290.93	8.417
291.29	8.264
291.66	8.815
292.03	8.412
292.40	9.932
292.77	8.221
293.13	9.472
293.50	8.279
293.87	8.456
294.24	9.600
294.60	8.597
294.97	8.188
295.34	10.243
295.71	7.945
296.08	8.656
296.44	7.598
296.81	8.039
297.18	8.219
297.55	7.783
297.91	7.711
298.28	6.517
298.65	8.205
299.02	8.146
299.38	8.810
299.75	7.944
300.12	7.523
300.48	7.028
300.85	9.111
301.22	8.613
301.59	7.877
301.95	8.136
302.32	8.111
302.69	7.119
303.05	8.052
303.42	8.647
303.79	8.542
304.15	7.676
304.52	6.977
304.89	7.330
305.25	9.731
305.62	7.315
305.99	7.423
306.35	7.460
306.72	8.480
307.09	7.411
307.45	7.867
307.82	7.467
308.19	7.366
308.55	8.968
308.92	7.400
309.29	7.567
309.65	7.602
310.02	7.822
310.38	6.791
310.75	8.350
311.12	8.725
311.48	6.745
311.85	6.933
312.22	7.875
312.58	8.075
312.95	8.413
313.31	8.040
313.68	9.615
314.05	9.395
314.41	8.561
314.78	8.629
315.14	8.893
315.51	8.403
315.87	8.011
316.24	8.037
316.61	8.526
316.97	8.235
317.34	9.083
317.70	8.996
318.07	9.083
318.43	9.269
318.80	9.866
319.16	8.326
319.53	7.455
319.89	9.027
320.26	8.274
320.62	8.333
320.99	8.126
321.35	8.872
321.72	10.326
322.08	9.558
322.45	9.485
322.81	9.928
323.18	9.646
323.54	9.052
323.91	9.253
324.27	9.639
324.64	9.404
325.00	8.872
325.37	8.272
325.73	9.256
326.10	8.921
326.46	10.261
326.83	10.809
327.19	9.764
327.56	10.277
327.92	9.599
328.29	9.677
328.65	8.961
329.01	9.814
329.38	10.699
329.74	9.932
330.11	9.247
330.47	10.868
330.84	9.905
331.20	10.500
331.56	10.399
331.93	10.460
332.29	10.085
332.66	10.548
333.02	9.631
333.38	9.480
333.75	10.354
334.11	9.842
334.48	10.809
334.84	9.856
335.20	10.747
335.57	10.540
335.93	9.835
336.29	9.401
336.66	9.588
337.02	10.284
337.38	10.714
337.75	9.917
338.11	10.261
338.47	10.587
338.84	10.491
339.20	9.941
339.56	10.461
339.93	10.591
340.29	10.628
340.65	10.706
341.02	11.971
341.38	10.267
341.74	9.685
342.11	10.217
342.47	10.087
342.83	10.789
343.20	9.812
343.56	11.067
343.92	10.729
344.28	10.234
344.65	11.938
345.01	10.608
345.37	10.809
345.73	9.197
346.10	9.906
346.46	9.731
346.82	10.861
347.19	10.772
347.55	10.243
347.91	10.475
348.27	10.698
348.63	11.120
349.00	9.396
349.36	11.524
349.72	10.938
350.08	10.475
350.45	10.266
350.81	10.407
351.17	10.150
351.53	10.690
351.89	10.706
352.26	10.224
352.62	11.343
352.98	10.611
353.34	10.381
353.70	11.017
354.07	10.507
354.43	9.719
354.79	10.845
355.15	11.332
355.51	11.257
355.87	10.845
356.24	10.722
356.60	10.495
356.96	10.304
357.32	10.409
357.68	10.029
358.04	9.731
358.40	10.075
358.77	10.746
359.13	10.192
359.49	9.740
359.85	10.515
360.21	11.765
360.57	10.768
360.93	10.790
361.29	10.526
361.66	10.717
362.02	10.926
362.38	10.752
362.74	10.615
363.10	11.142
363.46	10.388
363.82	10.582
364.18	10.274
364.54	10.719
364.90	11.237
365.26	9.793
365.62	11.733
365.98	10.892
366.35	10.671
366.71	11.905
367.07	11.164
367.43	11.556
367.79	12.409
368.15	12.241
368.51	11.908
368.87	12.214
369.23	11.333
369.59	11.270
369.95	11.427
370.31	12.154
370.67	11.486
371.03	11.911
371.39	11.619
371.75	11.829
372.11	11.314
372.47	11.374
372.83	11.780
373.19	11.408
373.55	11.992
373.91	10.838
374.27	12.484
374.63	11.976
374.99	11.406
375.35	11.753
375.71	12.258
376.07	11.362
376.42	12.217
376.78	12.244
377.14	11.978
377.50	12.966
377.86	12.685
378.22	12.814
378.58	12.604
378.94	11.972
379.30	12.654
379.66	12.463
380.02	12.752
380.38	13.191
380.74	12.563
381.09	11.963
381.45	12.955
381.81	13.407
382.17	13.064
382.53	13.333
382.89	13.375
383.25	13.423
383.61	13.021
383.97	13.722
384.32	13.278
384.68	13.457
385.04	13.765
385.40	13.612
385.76	13.423
386.12	13.824
386.48	14.412
386.83	14.541
387.19	14.137
387.55	13.615
387.91	13.356
388.27	14.434
388.62	14.032
388.98	14.439
389.34	14.791
389.70	14.817
390.06	13.558
390.42	14.578
390.77	15.051
391.13	13.908
391.49	15.519
391.85	13.697
392.20	14.413
392.56	15.357
392.92	14.940
393.28	15.368
393.64	14.022
393.99	15.340
394.35	15.537
394.71	15.509
395.07	14.371
395.42	15.648
395.78	15.113
396.14	14.973
396.50	15.321
396.85	14.252
397.21	16.036
397.57	15.548
397.92	15.292
398.28	14.612
398.64	14.989
399.00	14.974
399.35	16.387
399.71	14.891
400.07	15.778
400.42	15.891
400.78	14.988
401.14	15.879
401.49	15.406
401.85	15.756
402.21	15.527
402.57	15.728
402.92	16.076
403.28	14.988
403.63	15.155
403.99	15.143
404.35	15.236
404.70	16.147
405.06	15.543
405.42	15.574
405.77	15.649
406.13	15.991
406.49	15.484
406.84	16.399
407.20	15.707
407.55	15.627
407.91	15.713
408.27	15.960
408.62	15.358
408.98	15.206
409.34	14.721
409.69	15.760
410.05	16.354
410.40	15.951
410.76	16.096
411.11	15.839
411.47	16.339
411.83	16.285
412.18	16.325
412.54	16.123
412.89	16.182
413.25	15.519
413.60	16.140
413.96	16.375
414.31	16.261
414.67	16.637
415.03	15.938
415.38	16.393
415.74	16.677
416.09	16.718
416.45	16.406
416.80	16.218
417.16	18.008
417.51	16.314
417.87	16.922
418.22	17.365
418.58	17.100
418.93	17.579
419.29	16.769
419.64	16.867
420.00	16.973
420.35	16.957
420.71	17.174
421.06	15.986
421.42	16.227
421.77	15.832
422.12	16.543
422.48	17.307
422.83	16.539
423.19	15.809
423.54	17.367
423.90	16.510
424.25	16.853
424.61	16.361
424.96	16.365
425.31	17.622
425.67	16.801
426.02	16.879
426.38	17.049
426.73	17.355
427.09	18.397
427.44	16.821
427.79	17.689
428.15	17.180
428.50	16.348
428.85	17.853
429.21	17.660
429.56	16.486
429.92	17.052
430.27	17.590
430.62	17.440
430.98	17.609
431.33	17.107
431.68	17.146
432.04	17.217
432.39	17.300
432.74	18.208
433.10	18.929
433.45	17.559
433.80	17.972
434.16	17.459
434.51	18.088
434.86	18.512
435.22	18.172
435.57	17.571
435.92	17.307
436.28	18.146
436.63	18.023
436.98	17.552
437.34	18.320
437.69	17.611
438.04	18.139
438.39	18.208
438.75	17.820
439.10	19.027
439.45	17.887
439.81	17.684
440.16	18.713
440.51	18.673
440.86	17.621
441.22	18.596
441.57	18.396
441.92	18.235
442.27	18.586
442.63	18.728
442.98	18.677
443.33	18.464
443.68	19.078
444.03	18.721
444.39	19.186
444.74	18.683
445.09	18.601
445.44	19.125
445.79	18.726
446.15	19.168
446.50	18.863
446.85	19.358
447.20	18.472
447.55	19.456
447.91	18.063
448.26	19.133
448.61	18.544
448.96	19.528
449.31	18.558
449.66	19.172
450.02	18.776
450.37	19.393
450.72	19.268
451.07	19.476
451.42	19.122
451.77	18.177
452.12	19.018
452.47	19.489
452.83	19.032
453.18	18.739
453.53	18.955
453.88	19.713
454.23	18.983
454.58	19.559
454.93	19.478
455.28	19.687
455.63	20.409
455.98	20.056
456.34	19.376
456.69	19.224
457.04	19.208
457.39	19.235
457.74	20.190
458.09	19.605
458.44	19.881
458.79	19.134
459.14	19.088
459.49	19.298
459.84	19.780
460.19	18.823
460.54	19.989
460.89	20.011
461.24	20.172
461.59	21.140
461.94	19.053
462.29	20.325
462.64	20.398
462.99	20.904
463.34	20.376
463.69	20.281
464.04	19.956
464.39	20.011
464.74	20.125
465.09	19.723
465.44	19.689
465.79	19.989
466.14	19.802
466.49	19.895
466.84	20.716
467.19	20.867
467.54	20.094
467.89	20.402
468.24	20.776
468.59	19.514
468.94	20.047
469.29	20.216
469.64	20.470
469.99	21.033
470.34	20.668
470.68	22.078
471.03	21.873
471.38	21.060
471.73	21.196
472.08	20.622
472.43	20.891
472.78	21.599
473.13	21.113
473.48	21.088
473.83	21.358
474.17	21.043
474.52	20.265
474.87	20.764
475.22	20.789
475.57	20.561
475.92	20.906
476.27	21.353
476.61	21.080
476.96	20.125
477.31	21.584
477.66	21.931
478.01	22.420
478.36	21.685
478.70	21.182
479.05	21.421
479.40	22.063
479.75	21.566
480.10	20.654
480.45	21.696
480.79	21.769
481.14	21.232
481.49	20.536
481.84	21.715
482.19	21.677
482.53	21.819
482.88	21.843
483.23	21.254
483.58	21.528
483.92	20.833
484.27	21.169
484.62	20.710
484.97	21.229
485.31	21.190
485.66	20.389
486.01	19.206
486.36	19.195
486.70	19.444
487.05	20.365
487.40	21.268
487.75	21.756
488.09	22.626
488.44	22.256
488.79	23.676
489.13	22.266
489.48	22.524
489.83	21.972
490.17	21.628
490.52	21.305
490.87	22.377
491.22	21.924
491.56	22.014
491.91	22.198
492.26	21.636
492.60	22.431
492.95	22.027
493.30	22.143
493.64	22.120
493.99	22.105
494.34	21.951
494.68	21.285
495.03	22.643
495.37	21.838
495.72	22.268
496.07	21.560
496.41	21.750
496.76	22.352
497.11	22.081
497.45	22.184
497.80	22.612
498.14	22.086
498.49	22.656
498.84	22.121
499.18	22.447
499.53	22.691
499.87	22.813
500.22	22.306
500.56	22.627
500.91	22.609
501.26	22.818
501.60	21.608
501.95	23.057
502.29	22.378
502.64	22.825
502.98	22.649
503.33	22.073
503.67	22.285
504.02	22.285
504.36	22.922
504.71	22.692
505.06	23.829
505.40	22.852
505.75	23.679
506.09	23.987
506.44	23.909
506.78	24.312
507.13	23.836
507.47	23.496
507.82	23.485
508.16	23.709
508.51	23.066
508.85	23.524
509.19	24.680
509.54	23.919
509.88	23.604
510.23	24.332
510.57	24.215
510.92	24.335
511.26	24.146
511.61	23.515
511.95	24.353
512.30	24.225
512.64	23.038
512.98	24.512
513.33	25.151
513.67	23.814
514.02	24.578
514.36	24.552
514.70	24.896
515.05	25.339
515.39	24.882
515.74	26.087
516.08	24.194
516.42	25.118
516.77	24.921
517.11	24.188
517.46	24.602
517.80	26.296
518.14	26.224
518.49	25.325
518.83	25.492
519.17	25.040
519.52	24.790
519.86	25.607
520.20	25.399
520.55	25.794
520.89	25.732
521.23	25.851
521.58	25.706
521.92	26.799
522.26	26.174
522.61	25.058
522.95	25.779
523.29	26.034
523.64	25.561
523.98	25.670
524.32	26.934
524.66	26.295
525.01	25.481
525.35	25.675
525.69	25.232
526.04	25.431
526.38	26.839
526.72	27.336
527.06	25.806
527.41	26.239
527.75	27.435
528.09	26.092
528.43	25.636
528.78	25.780
529.12	26.835
529.46	26.251
529.80	26.087
530.15	26.087
530.49	25.386
530.83	26.741
531.17	26.344
531.51	26.895
531.86	26.923
532.20	26.951
532.54	26.092
532.88	26.121
533.22	26.400
533.57	26.947
533.91	26.712
534.25	26.343
534.59	26.437
534.93	25.920
535.27	25.915
535.62	27.629
535.96	27.775
536.30	25.617
536.64	27.808
536.98	27.429
537.32	27.469
537.66	27.760
538.01	26.767
538.35	26.431
538.69	25.962
539.03	27.284
539.37	25.677
539.71	27.808
540.05	27.278
540.39	26.345
540.73	25.562
541.07	26.916
541.42	26.226
541.76	26.157
542.10	26.357
542.44	25.700
542.78	26.764
543.12	26.818
543.46	26.618
543.80	25.779
544.14	26.691
544.48	27.837
544.82	27.169
545.16	26.595
545.50	26.423
545.84	27.006
546.18	28.210
546.52	26.178
546.86	26.415
547.20	27.290
547.54	27.403
547.88	26.401
548.22	26.667
548.56	27.209
548.90	26.866
549.24	26.383
549.58	27.382
549.92	26.849
550.26	27.573
550.60	27.313
550.94	27.490
551.28	26.601
551.62	27.898
551.96	26.990
552.30	27.342
552.64	27.069
552.98	26.762
553.32	27.524
553.66	27.267
554.00	26.734
554.34	26.834
554.68	26.727
555.02	26.938
555.36	28.008
555.69	27.867
556.03	26.608
556.37	26.408
556.71	27.964
557.05	27.220
557.39	27.472
557.73	27.807
558.07	27.682
558.41	27.375
558.75	27.383
559.08	27.697
559.42	26.955
559.76	28.223
560.10	26.457
560.44	27.507
560.78	27.562
561.12	27.032
561.45	26.825
561.79	28.022
562.13	26.617
562.47	27.004
562.81	27.595
563.15	27.083
563.48	27.470
563.82	26.360
564.16	27.983
564.50	26.818
564.84	27.434
565.17	26.588
565.51	26.582
565.85	26.960
566.19	26.440
566.52	26.507
566.86	26.372
567.20	25.612
567.54	26.500
567.88	26.758
568.21	25.692
568.55	25.947
568.89	25.874
569.23	26.151
569.56	26.026
569.90	25.517
570.24	25.194
570.57	24.567
570.91	25.321
571.25	24.964
571.59	25.327
571.92	24.574
572.26	24.404
572.60	25.225
572.93	25.522
573.27	25.428
573.61	25.172
573.95	25.225
574.28	24.877
574.62	24.375
574.96	24.283
575.29	24.146
575.63	24.347
575.97	24.862
576.30	24.895
576.64	25.173
576.98	24.784
577.31	24.901
577.65	24.309
577.98	24.096
578.32	23.975
578.66	24.369
578.99	24.514
579.33	24.967
579.67	25.159
580.00	24.949
580.34	24.695
580.67	24.912
581.01	24.859
581.35	24.800
581.68	24.170
582.02	23.860
582.35	24.515
582.69	24.444
583.02	24.668
583.36	25.262
583.70	25.790
584.03	26.206
584.37	26.438
584.70	25.770
585.04	24.994
585.37	24.658
585.71	24.854
586.04	24.593
586.38	24.791
586.72	24.718
587.05	24.917
587.39	25.056
587.72	25.335
588.06	25.169
588.39	25.243
588.73	25.317
589.06	25.508
589.40	26.368
589.73	26.028
590.07	25.696
590.40	26.065
590.73	26.122
591.07	26.582
591.40	26.244
591.74	26.510
592.07	26.228
592.41	25.749
592.74	25.346
593.08	24.777
593.41	25.168
593.75	24.626
594.08	25.174
594.41	26.090
594.75	25.772
595.08	25.269
595.42	25.390
595.75	25.283
596.09	26.601
596.42	26.693
596.75	26.824
597.09	27.071
597.42	26.142
597.75	25.480
598.09	26.389
598.42	26.578
598.76	25.640
599.09	25.133
599.42	25.042
599.76	25.256
600.09	25.158
600.42	24.658
600.76	24.736
601.09	25.722
601.42	25.575
601.76	25.276
602.09	25.911
602.42	25.772
602.76	25.904
603.09	25.771
603.42	25.686
603.76	25.546
604.09	26.153
604.42	25.872
604.76	25.266
605.09	26.446
605.42	26.595
605.75	25.615
606.09	25.532
606.42	25.721
606.75	25.750
607.09	24.770
607.42	25.857
607.75	25.244
608.08	25.533
608.42	25.836
608.75	25.912
609.08	26.061
609.41	26.775
609.75	26.741
610.08	26.473
610.41	25.871
610.74	25.882
611.07	26.021
611.41	26.188
611.74	26.559
612.07	26.321
612.40	26.426
612.73	26.748
613.07	25.428
613.40	27.045
613.73	26.384
614.06	26.251
614.39	26.482
614.72	25.522
615.06	25.938
615.39	25.375
615.72	26.256
616.05	26.518
616.38	26.690
616.71	27.638
617.05	26.677
617.38	27.127
617.71	26.782
618.04	26.174
618.37	27.049
618.70	27.489
619.03	27.957
619.36	27.805
619.69	27.098
620.03	27.056
620.36	26.258
620.69	27.390
621.02	27.690
621.35	28.012
621.68	28.561
622.01	27.616
622.34	26.430
622.67	28.247
623.00	26.721
623.33	27.074
623.66	27.821
623.99	26.860
624.32	27.485
624.65	25.997
624.99	27.828
625.32	28.021
625.65	27.782
625.98	27.051
626.31	27.853
626.64	27.619
626.97	27.607
627.30	26.803
627.63	27.457
627.96	28.604
628.29	28.016
628.62	28.212
628.95	29.273
629.28	27.613
629.61	27.862
629.94	27.531
630.26	27.627
630.59	29.275
630.92	27.273
631.25	29.428
631.58	28.814
631.91	28.491
632.24	28.915
632.57	28.748
632.90	27.583
633.23	28.673
633.56	29.388
633.89	29.029
634.22	28.482
634.55	29.541
634.88	28.463
635.20	30.032
635.53	29.040
635.86	31.853
636.19	30.859
636.52	29.325
