SpectraSuite Data File
++++++++++++++++++++++++++++++++++++
Date: Thu May 14 15:02:24 PDT 2015
User: schluterlab
Dark Spectrum Present: Yes
Reference Spectrum Present: Yes
Number of Sampled Component Spectra: 1
Spectrometers: USB2E3373
Integration Time (usec): 3000 (USB2E3373)
Spectra Averaged: 3 (USB2E3373)
Boxcar Smoothing: 0 (USB2E3373)
Correct for Electrical Dark: No (USB2E3373)
Strobe/Lamp Enabled: No (USB2E3373)
Correct for Detector Non-linearity: No (USB2E3373)
Correct for Stray Light: No (USB2E3373)
Number of Pixels in Processed Spectrum: 2048
>>>>>Begin Processed Spectral Data<<<<<
178.53	0.000
178.91	414.286
179.29	-3000.000
179.67	-2100.000
180.04	300.000
180.42	140.000
180.80	540.000
181.18	-3000.000
181.56	-1900.000
181.94	650.000
182.31	-525.000
182.69	933.333
183.07	-850.000
183.45	575.000
183.83	-200.000
184.20	-733.333
184.58	2600.000
184.96	-500.000
185.34	-255.556
185.72	-420.000
186.09	322.222
186.47	1350.000
186.85	400.000
187.23	-300.000
187.61	-3400.000
187.98	380.000
188.36	725.000
188.74	-475.000
189.12	-533.333
189.49	-93.750
189.87	-237.500
190.25	-244.444
190.63	-380.000
191.00	-311.111
191.38	0.000
191.76	-450.000
192.14	-450.000
192.51	1650.000
192.89	-266.667
193.27	0.000
193.65	-385.714
194.02	-3000.000
194.40	-328.571
194.78	314.286
195.15	0.000
195.53	-181.818
195.91	0.000
196.29	-600.000
196.66	-192.308
197.04	-2200.000
197.42	-314.286
197.79	-1100.000
198.17	-412.500
198.55	-342.857
198.92	-166.667
199.30	-312.500
199.68	-200.000
200.05	-71.429
200.43	-1150.000
200.81	414.286
201.18	0.000
201.56	277.778
201.94	0.000
202.31	1066.667
202.69	-266.667
203.07	1900.000
203.44	-322.222
203.82	-675.000
204.19	-175.000
204.57	-416.667
204.95	-437.500
205.32	-2700.000
205.70	450.000
206.08	-233.333
206.45	-333.333
206.83	680.000
207.20	-316.667
207.58	-380.000
207.96	-400.000
208.33	-383.333
208.71	283.333
209.08	-250.000
209.46	0.000
209.84	450.000
210.21	950.000
210.59	1350.000
210.96	833.333
211.34	-425.000
211.71	-237.500
212.09	-2400.000
212.46	0.000
212.84	1600.000
213.22	-500.000
213.59	-375.000
213.97	-190.000
214.34	-666.667
214.72	516.667
215.09	-625.000
215.47	0.000
215.84	357.143
216.22	1600.000
216.59	-400.000
216.97	-400.000
217.34	-525.000
217.72	-187.500
218.09	-450.000
218.47	-525.000
218.84	0.000
219.22	600.000
219.59	-82.353
219.97	-65.000
220.34	1250.000
220.72	-277.778
221.09	-107.692
221.47	-766.667
221.84	-160.000
222.22	-357.143
222.59	0.000
222.97	-275.000
223.34	-660.000
223.72	-2800.000
224.09	-600.000
224.46	-675.000
224.84	-260.000
225.21	-371.429
225.59	-875.000
225.96	-650.000
226.34	-38.462
226.71	600.000
227.08	-1100.000
227.46	-113.333
227.83	-575.000
228.21	-57.895
228.58	337.500
228.95	1600.000
229.33	-133.333
229.70	-270.000
230.08	-57.895
230.45	220.000
230.82	-466.667
231.20	-128.571
231.57	-200.000
231.95	-218.182
232.32	-172.727
232.69	-25.000
233.07	-400.000
233.44	-141.176
233.81	-240.000
234.19	-33.333
234.56	-77.273
234.93	-31.034
235.31	-89.474
235.68	-61.111
236.05	-105.000
236.43	-53.846
236.80	-32.000
237.17	-29.630
237.55	-48.485
237.92	-180.000
238.29	-48.387
238.67	-47.727
239.04	-27.778
239.41	-40.476
239.79	-8.696
240.16	-16.667
240.53	-13.043
240.91	-15.686
241.28	-3.279
241.65	5.970
242.02	5.405
242.40	-9.231
242.77	-1.333
243.14	-9.756
243.51	-15.789
243.89	-6.410
244.26	15.842
244.63	13.725
245.00	11.215
245.38	13.158
245.75	8.850
246.12	12.698
246.49	10.853
246.87	10.714
247.24	11.258
247.61	15.789
247.98	10.067
248.36	12.963
248.73	7.362
249.10	16.940
249.47	17.413
249.84	18.848
250.22	15.544
250.59	17.222
250.96	23.636
251.33	16.837
251.70	22.222
252.08	23.333
252.45	23.361
252.82	20.661
253.19	20.703
253.56	20.152
253.94	19.231
254.31	23.485
254.68	27.972
255.05	21.498
255.42	17.687
255.79	20.712
256.16	20.530
256.54	19.868
256.91	23.934
257.28	26.230
257.65	21.338
258.02	21.534
258.39	21.937
258.76	25.994
259.14	25.862
259.51	21.614
259.88	21.813
260.25	22.500
260.62	23.562
260.99	23.224
261.36	25.201
261.73	24.403
262.10	23.077
262.47	24.129
262.85	27.778
263.22	25.195
263.59	20.000
263.96	21.739
264.33	21.483
264.70	25.185
265.07	24.821
265.44	25.397
265.81	22.454
266.18	25.170
266.55	25.670
266.92	24.829
267.29	26.039
267.66	23.282
268.03	23.581
268.40	24.635
268.77	20.957
269.14	21.806
269.51	25.658
269.88	25.000
270.25	22.736
270.62	24.051
270.99	22.626
271.36	23.564
271.73	24.754
272.10	25.251
272.47	25.852
272.84	24.498
273.21	22.244
273.58	23.992
273.95	22.308
274.32	23.004
274.69	22.824
275.06	24.359
275.43	19.963
275.80	24.339
276.17	22.593
276.54	25.187
276.91	21.825
277.28	22.061
277.65	22.621
278.02	23.897
278.39	23.913
278.76	23.550
279.13	23.404
279.50	24.914
279.87	21.467
280.23	19.366
280.60	24.746
280.97	22.697
281.34	24.958
281.71	25.212
282.08	23.090
282.45	24.059
282.82	21.507
283.19	22.132
283.56	24.262
283.92	23.724
284.29	26.224
284.66	23.810
285.03	22.115
285.40	24.884
285.77	23.839
286.14	22.901
286.51	24.505
286.87	22.749
287.24	22.892
287.61	24.963
287.98	23.263
288.35	23.669
288.72	21.598
289.08	24.597
289.45	21.154
289.82	22.289
290.19	24.138
290.56	22.817
290.93	23.680
291.29	20.523
291.66	20.799
292.03	20.217
292.40	23.673
292.77	22.776
293.13	22.598
293.50	21.288
293.87	21.074
294.24	22.800
294.60	21.239
294.97	19.597
295.34	21.895
295.71	20.681
296.08	19.897
296.44	20.343
296.81	20.463
297.18	21.171
297.55	20.991
297.91	20.996
298.28	19.194
298.65	20.690
299.02	21.015
299.38	20.137
299.75	19.860
300.12	21.065
300.48	21.313
300.85	20.022
301.22	21.700
301.59	18.721
301.95	21.130
302.32	21.556
302.69	20.920
303.05	20.783
303.42	20.843
303.79	19.583
304.15	21.241
304.52	18.710
304.89	20.314
305.25	18.323
305.62	20.585
305.99	20.103
306.35	19.456
306.72	22.027
307.09	20.305
307.45	19.462
307.82	20.081
308.19	20.383
308.55	21.697
308.92	20.448
309.29	20.785
309.65	20.468
310.02	19.604
310.38	19.980
310.75	20.971
311.12	21.572
311.48	20.723
311.85	20.608
312.22	20.493
312.58	21.221
312.95	20.554
313.31	20.867
313.68	22.344
314.05	21.771
314.41	22.040
314.78	21.344
315.14	20.417
315.51	20.868
315.87	21.062
316.24	22.283
316.61	22.380
316.97	23.258
317.34	20.194
317.70	22.445
318.07	22.575
318.43	21.769
318.80	21.572
319.16	21.545
319.53	19.195
319.89	21.823
320.26	22.242
320.62	20.656
320.99	20.499
321.35	21.165
321.72	22.047
322.08	21.010
322.45	22.493
322.81	24.097
323.18	22.301
323.54	22.155
323.91	24.555
324.27	22.978
324.64	24.601
325.00	23.051
325.37	23.833
325.73	23.967
326.10	23.601
326.46	24.756
326.83	24.179
327.19	23.622
327.56	25.138
327.92	23.997
328.29	24.355
328.65	24.539
329.01	25.465
329.38	25.611
329.74	24.058
330.11	25.171
330.47	25.021
330.84	25.668
331.20	26.167
331.56	25.737
331.93	27.280
332.29	26.695
332.66	25.748
333.02	24.623
333.38	25.587
333.75	24.747
334.11	25.605
334.48	25.743
334.84	26.933
335.20	25.945
335.57	26.560
335.93	26.694
336.29	25.790
336.66	25.904
337.02	26.589
337.38	26.276
337.75	26.364
338.11	26.493
338.47	26.882
338.84	26.311
339.20	25.779
339.56	25.700
339.93	25.944
340.29	26.006
340.65	25.466
341.02	26.975
341.38	26.839
341.74	25.989
342.11	25.744
342.47	26.052
342.83	27.134
343.20	25.429
343.56	25.341
343.92	26.821
344.28	24.922
344.65	27.287
345.01	25.351
345.37	26.283
345.73	26.111
346.10	26.989
346.46	26.741
346.82	28.015
347.19	26.891
347.55	26.555
347.91	26.672
348.27	27.011
348.63	26.123
349.00	26.025
349.36	27.063
349.72	26.042
350.08	26.523
350.45	27.681
350.81	26.772
351.17	26.767
351.53	26.914
351.89	27.183
352.26	26.940
352.62	26.493
352.98	27.863
353.34	26.736
353.70	27.273
354.07	26.602
354.43	27.563
354.79	27.076
355.15	26.637
355.51	28.070
355.87	27.973
356.24	28.745
356.60	26.903
356.96	27.872
357.32	27.807
357.68	27.672
358.04	26.722
358.40	27.612
358.77	27.924
359.13	27.622
359.49	27.286
359.85	27.774
360.21	27.475
360.57	26.920
360.93	27.927
361.29	27.368
361.66	27.371
362.02	28.323
362.38	28.039
362.74	29.609
363.10	28.680
363.46	28.463
363.82	29.190
364.18	28.571
364.54	29.322
364.90	28.361
365.26	28.276
365.62	29.267
365.98	29.135
366.35	28.658
366.71	29.252
367.07	28.484
367.43	29.153
367.79	29.064
368.15	29.900
368.51	29.770
368.87	28.805
369.23	28.533
369.59	29.781
369.95	28.668
370.31	29.440
370.67	30.261
371.03	29.501
371.39	29.013
371.75	29.986
372.11	30.420
372.47	29.655
372.83	29.450
373.19	30.420
373.55	30.081
373.91	28.562
374.27	29.754
374.63	30.176
374.99	30.570
375.35	29.221
375.71	29.290
376.07	29.632
376.42	30.479
376.78	31.386
377.14	30.193
377.50	31.120
377.86	31.404
378.22	31.557
378.58	31.451
378.94	30.986
379.30	31.283
379.66	31.864
380.02	31.621
380.38	31.740
380.74	30.423
381.09	31.475
381.45	31.875
381.81	33.080
382.17	32.363
382.53	32.749
382.89	31.433
383.25	32.943
383.61	32.639
383.97	32.509
384.32	33.612
384.68	31.903
385.04	32.504
385.40	32.882
385.76	33.763
386.12	31.478
386.48	32.882
386.83	33.850
387.19	32.966
387.55	32.923
387.91	32.363
388.27	33.949
388.62	33.849
388.98	32.431
389.34	33.824
389.70	33.411
390.06	33.748
390.42	33.675
390.77	33.715
391.13	33.509
391.49	33.514
391.85	33.333
392.20	33.155
392.56	33.963
392.92	33.261
393.28	33.554
393.64	33.575
393.99	33.295
394.35	34.229
394.71	35.090
395.07	33.772
395.42	33.809
395.78	35.040
396.14	33.928
396.50	33.551
396.85	33.691
397.21	33.787
397.57	33.392
397.92	34.135
398.28	33.895
398.64	33.753
399.00	33.403
399.35	33.246
399.71	33.859
400.07	33.801
400.42	33.818
400.78	33.160
401.14	33.921
401.49	35.247
401.85	34.070
402.21	34.589
402.57	34.624
402.92	33.983
403.28	33.431
403.63	33.890
403.99	32.363
404.35	33.201
404.70	32.805
405.06	32.880
405.42	33.138
405.77	34.297
406.13	33.441
406.49	34.291
406.84	33.075
407.20	33.985
407.55	33.010
407.91	33.438
408.27	32.921
408.62	32.984
408.98	33.372
409.34	33.079
409.69	33.313
410.05	34.349
410.40	33.701
410.76	33.371
411.11	34.600
411.47	33.538
411.83	34.098
412.18	33.976
412.54	33.136
412.89	33.120
413.25	32.901
413.60	33.257
413.96	33.741
414.31	33.428
414.67	33.691
415.03	32.862
415.38	34.363
415.74	33.415
416.09	33.313
416.45	32.749
416.80	33.354
417.16	33.653
417.51	32.503
417.87	33.660
418.22	33.234
418.58	33.767
418.93	34.109
419.29	34.217
419.64	33.253
420.00	33.353
420.35	33.408
420.71	32.912
421.06	32.605
421.42	33.429
421.77	32.041
422.12	32.875
422.48	33.026
422.83	32.913
423.19	33.369
423.54	34.458
423.90	33.297
424.25	33.440
424.61	33.984
424.96	33.004
425.31	33.758
425.67	33.655
426.02	33.370
426.38	33.410
426.73	32.868
427.09	34.198
427.44	33.534
427.79	32.725
428.15	33.276
428.50	33.708
428.85	32.778
429.21	35.106
429.56	32.823
429.92	33.612
430.27	34.169
430.62	34.294
430.98	34.530
431.33	34.213
431.68	33.429
432.04	34.789
432.39	33.690
432.74	33.333
433.10	33.802
433.45	32.943
433.80	32.940
434.16	34.711
434.51	34.327
434.86	35.505
435.22	34.485
435.57	34.257
435.92	33.779
436.28	35.040
436.63	33.916
436.98	33.763
437.34	35.287
437.69	34.122
438.04	34.479
438.39	34.176
438.75	33.924
439.10	34.619
439.45	33.930
439.81	33.955
440.16	33.566
440.51	34.560
440.86	33.463
441.22	33.387
441.57	34.172
441.92	33.948
442.27	35.404
442.63	34.575
442.98	34.845
443.33	34.035
443.68	35.084
444.03	35.654
444.39	35.460
444.74	35.273
445.09	35.175
445.44	34.299
445.79	34.483
446.15	34.378
446.50	33.437
446.85	33.998
447.20	34.139
447.55	34.414
447.91	34.712
448.26	33.879
448.61	34.910
448.96	34.388
449.31	34.199
449.66	34.586
450.02	34.335
450.37	35.109
450.72	34.392
451.07	34.624
451.42	33.969
451.77	33.630
452.12	34.932
452.47	33.749
452.83	34.854
453.18	33.567
453.53	33.601
453.88	33.793
454.23	34.350
454.58	34.765
454.93	33.192
455.28	35.581
455.63	34.110
455.98	34.302
456.34	34.276
456.69	33.862
457.04	33.747
457.39	33.980
457.74	34.452
458.09	33.553
458.44	34.052
458.79	33.883
459.14	33.246
459.49	33.956
459.84	34.103
460.19	34.203
460.54	34.299
460.89	34.569
461.24	34.885
461.59	34.034
461.94	34.227
462.29	34.882
462.64	34.098
462.99	34.149
463.34	33.809
463.69	34.174
464.04	34.130
464.39	34.697
464.74	34.379
465.09	34.602
465.44	33.906
465.79	33.739
466.14	33.924
466.49	33.368
466.84	33.774
467.19	34.104
467.54	32.667
467.89	33.621
468.24	34.127
468.59	32.774
468.94	33.100
469.29	33.893
469.64	33.312
469.99	33.843
470.34	33.106
470.68	34.040
471.03	34.381
471.38	33.878
471.73	33.160
472.08	34.074
472.43	33.173
472.78	34.131
473.13	33.565
473.48	33.293
473.83	33.720
474.17	33.177
474.52	34.095
474.87	33.001
475.22	33.408
475.57	34.060
475.92	33.848
476.27	33.972
476.61	34.320
476.96	33.837
477.31	33.713
477.66	33.841
478.01	33.706
478.36	33.599
478.70	33.251
479.05	34.151
479.40	34.057
479.75	32.997
480.10	33.018
480.45	33.683
480.79	34.331
481.14	33.502
481.49	33.985
481.84	34.769
482.19	33.548
482.53	34.150
482.88	34.603
483.23	34.060
483.58	32.445
483.92	33.245
484.27	33.150
484.62	32.384
484.97	32.271
485.31	32.313
485.66	30.759
486.01	30.600
486.36	32.481
486.70	34.907
487.05	35.856
487.40	34.641
487.75	34.148
488.09	33.953
488.44	33.015
488.79	32.850
489.13	33.020
489.48	32.350
489.83	32.072
490.17	32.645
490.52	32.964
490.87	32.403
491.22	33.059
491.56	32.381
491.91	33.275
492.26	32.886
492.60	32.488
492.95	32.646
493.30	32.945
493.64	33.377
493.99	32.544
494.34	32.274
494.68	32.034
495.03	32.026
495.37	33.378
495.72	32.880
496.07	32.822
496.41	32.604
496.76	32.902
497.11	32.654
497.45	33.146
497.80	32.430
498.14	31.927
498.49	32.858
498.84	32.495
499.18	32.928
499.53	32.870
499.87	33.187
500.22	32.324
500.56	32.389
500.91	33.501
501.26	33.364
501.60	31.860
501.95	33.044
502.29	33.787
502.64	33.319
502.98	32.442
503.33	33.391
503.67	33.101
504.02	32.881
504.36	33.199
504.71	32.935
505.06	32.742
505.40	33.272
505.75	32.650
506.09	32.919
506.44	33.148
506.78	33.716
507.13	32.550
507.47	33.728
507.82	33.239
508.16	33.270
508.51	32.865
508.85	33.349
509.19	33.775
509.54	33.525
509.88	33.026
510.23	34.628
510.57	34.799
510.92	33.962
511.26	33.430
511.61	32.834
511.95	33.626
512.30	34.121
512.64	32.784
512.98	33.667
513.33	34.325
513.67	32.840
514.02	34.594
514.36	34.834
514.70	34.271
515.05	34.984
515.39	34.226
515.74	34.730
516.08	34.390
516.42	35.531
516.77	34.595
517.11	33.832
517.46	34.252
517.80	34.794
518.14	36.017
518.49	34.165
518.83	34.912
519.17	34.787
519.52	34.748
519.86	33.791
520.20	35.889
520.55	35.378
520.89	35.079
521.23	34.562
521.58	35.198
521.92	34.561
522.26	35.052
522.61	34.780
522.95	35.294
523.29	35.000
523.64	35.538
523.98	36.395
524.32	36.160
524.66	34.946
525.01	35.561
525.35	34.348
525.69	34.397
526.04	34.673
526.38	34.943
526.72	34.660
527.06	35.543
527.41	35.044
527.75	36.520
528.09	36.009
528.43	33.985
528.78	34.913
529.12	34.576
529.46	35.076
529.80	35.870
530.15	35.362
530.49	35.765
530.83	36.423
531.17	35.066
531.51	34.898
531.86	34.976
532.20	34.817
532.54	34.949
532.88	34.667
533.22	35.710
533.57	35.141
533.91	34.961
534.25	35.218
534.59	35.862
534.93	35.144
535.27	35.268
535.62	35.361
535.96	35.096
536.30	34.430
536.64	35.916
536.98	36.654
537.32	36.358
537.66	36.681
538.01	34.502
538.35	35.018
538.69	35.337
539.03	35.561
539.37	34.511
539.71	35.616
540.05	35.132
540.39	34.291
540.73	34.608
541.07	35.438
541.42	34.731
541.76	34.994
542.10	35.766
542.44	34.714
542.78	35.766
543.12	35.101
543.46	34.249
543.80	35.492
544.14	34.829
544.48	34.929
544.82	34.829
545.16	34.884
545.50	35.231
545.84	34.783
546.18	37.222
546.52	35.350
546.86	34.843
547.20	35.178
547.54	34.332
547.88	34.901
548.22	34.503
548.56	35.869
548.90	35.104
549.24	35.441
549.58	34.637
549.92	34.630
550.26	34.628
550.60	35.227
550.94	34.994
551.28	34.851
551.62	35.714
551.96	33.981
552.30	34.608
552.64	34.972
552.98	35.371
553.32	34.791
553.66	35.949
554.00	35.435
554.34	35.521
554.68	34.732
555.02	35.611
555.36	35.371
555.69	34.529
556.03	35.876
556.37	35.732
556.71	34.369
557.05	34.377
557.39	35.567
557.73	34.941
558.07	34.901
558.41	35.349
558.75	35.227
559.08	35.351
559.42	34.705
559.76	34.193
560.10	34.963
560.44	34.235
560.78	35.500
561.12	34.975
561.45	35.766
561.79	35.104
562.13	35.921
562.47	33.600
562.81	35.696
563.15	34.343
563.48	36.234
563.82	34.643
564.16	33.737
564.50	34.684
564.84	34.867
565.17	34.588
565.51	33.832
565.85	35.095
566.19	35.369
566.52	35.108
566.86	34.918
567.20	33.714
567.54	34.679
567.88	35.321
568.21	35.178
568.55	35.012
568.89	35.089
569.23	35.108
569.56	35.365
569.90	34.996
570.24	34.806
570.57	34.734
570.91	34.231
571.25	34.076
571.59	34.400
571.92	35.048
572.26	35.019
572.60	35.190
572.93	34.484
573.27	35.038
573.61	34.569
573.95	34.984
574.28	34.665
574.62	34.288
574.96	34.252
575.29	34.303
575.63	34.627
575.97	34.683
576.30	34.370
576.64	34.073
576.98	34.374
577.31	34.187
577.65	34.709
577.98	34.262
578.32	34.602
578.66	34.301
578.99	35.142
579.33	35.149
579.67	34.474
580.00	34.659
580.34	34.599
580.67	33.870
581.01	34.163
581.35	33.859
581.68	34.765
582.02	34.528
582.35	35.400
582.69	35.169
583.02	34.629
583.36	35.161
583.70	34.878
584.03	34.509
584.37	34.584
584.70	34.010
585.04	33.969
585.37	33.849
585.71	34.326
586.04	34.412
586.38	34.819
586.72	34.545
587.05	34.178
587.39	34.655
587.72	35.239
588.06	34.840
588.39	34.752
588.73	34.206
589.06	34.622
589.40	35.372
589.73	34.737
590.07	35.212
590.40	35.057
590.73	34.464
591.07	35.927
591.40	34.565
591.74	34.539
592.07	34.227
592.41	34.700
592.74	34.043
593.08	34.809
593.41	34.208
593.75	34.713
594.08	34.929
594.41	35.064
594.75	34.739
595.08	35.330
595.42	35.130
595.75	35.389
596.09	35.276
596.42	34.826
596.75	35.044
597.09	36.121
597.42	34.168
597.75	34.653
598.09	34.405
598.42	35.344
598.76	34.391
599.09	34.283
599.42	33.993
599.76	34.533
600.09	34.801
600.42	35.636
600.76	35.337
601.09	34.252
601.42	34.775
601.76	34.552
602.09	35.132
602.42	33.988
602.76	34.686
603.09	34.545
603.42	34.899
603.76	35.095
604.09	35.273
604.42	35.706
604.76	35.274
605.09	36.059
605.42	35.526
605.75	35.231
606.09	34.789
606.42	34.331
606.75	35.157
607.09	34.332
607.42	34.644
607.75	35.522
608.08	35.083
608.42	34.744
608.75	35.406
609.08	34.550
609.41	34.539
609.75	35.089
610.08	35.224
610.41	34.749
610.74	33.908
611.07	34.813
611.41	35.022
611.74	35.658
612.07	35.484
612.40	34.553
612.73	35.501
613.07	35.403
613.40	34.312
613.73	35.051
614.06	35.770
614.39	34.208
614.72	35.323
615.06	35.707
615.39	34.461
615.72	34.645
616.05	35.940
616.38	35.419
616.71	35.789
617.05	35.517
617.38	35.259
617.71	34.935
618.04	36.158
618.37	34.809
618.70	36.708
619.03	35.723
619.36	36.436
619.69	35.426
620.03	35.530
620.36	35.153
620.69	35.040
621.02	34.777
621.35	36.139
621.68	35.358
622.01	34.947
622.34	34.658
622.67	35.326
623.00	33.806
623.33	35.899
623.66	35.863
623.99	33.377
624.32	36.517
624.65	35.199
624.99	36.931
625.32	35.990
625.65	36.480
625.98	35.186
626.31	35.719
626.64	36.044
626.97	34.959
627.30	34.396
627.63	34.134
627.96	36.336
628.29	34.630
628.62	35.852
628.95	35.933
629.28	35.854
629.61	35.774
629.94	34.561
630.26	35.678
630.59	35.838
630.92	34.719
