SpectraSuite Data File
++++++++++++++++++++++++++++++++++++
Date: Thu May 14 14:49:57 PDT 2015
User: schluterlab
Dark Spectrum Present: Yes
Reference Spectrum Present: Yes
Number of Sampled Component Spectra: 1
Spectrometers: USB2E3373
Integration Time (usec): 3000 (USB2E3373)
Spectra Averaged: 3 (USB2E3373)
Boxcar Smoothing: 0 (USB2E3373)
Correct for Electrical Dark: No (USB2E3373)
Strobe/Lamp Enabled: No (USB2E3373)
Correct for Detector Non-linearity: No (USB2E3373)
Correct for Stray Light: No (USB2E3373)
Number of Pixels in Processed Spectrum: 2048
>>>>>Begin Processed Spectral Data<<<<<
178.53	0.000
178.91	114.286
179.29	-1200.000
179.67	-500.000
180.04	135.714
180.42	60.000
180.80	160.000
181.18	-800.000
181.56	100.000
181.94	200.000
182.31	200.000
182.69	266.667
183.07	-250.000
183.45	-50.000
183.83	-100.000
184.20	66.667
184.58	400.000
184.96	-250.000
185.34	-55.556
185.72	140.000
186.09	144.444
186.47	300.000
186.85	320.000
187.23	-155.556
187.61	-1600.000
187.98	20.000
188.36	125.000
188.74	-200.000
189.12	-133.333
189.49	56.250
189.87	-175.000
190.25	-55.556
190.63	-120.000
191.00	-144.444
191.38	0.000
191.76	-300.000
192.14	-16.667
192.51	-50.000
192.89	116.667
193.27	0.000
193.65	-42.857
194.02	-1400.000
194.40	-57.143
194.78	114.286
195.15	0.000
195.53	-36.364
195.91	0.000
196.29	50.000
196.66	-15.385
197.04	-1400.000
197.42	-171.429
197.79	0.000
198.17	-75.000
198.55	-200.000
198.92	-22.222
199.30	-175.000
199.68	-90.909
200.05	-64.286
200.43	-400.000
200.81	71.429
201.18	0.000
201.56	144.444
201.94	0.000
202.31	400.000
202.69	-188.889
203.07	100.000
203.44	-33.333
203.82	-125.000
204.19	16.667
204.57	-100.000
204.95	-112.500
205.32	-1300.000
205.70	275.000
206.08	-150.000
206.45	-66.667
206.83	200.000
207.20	-100.000
207.58	-200.000
207.96	-100.000
208.33	16.667
208.71	58.333
209.08	100.000
209.46	0.000
209.84	266.667
210.21	450.000
210.59	450.000
210.96	633.333
211.34	-125.000
211.71	-125.000
212.09	-1700.000
212.46	0.000
212.84	700.000
213.22	-200.000
213.59	-125.000
213.97	10.000
214.34	-400.000
214.72	233.333
215.09	-300.000
215.47	0.000
215.84	228.571
216.22	750.000
216.59	-220.000
216.97	-140.000
217.34	-175.000
217.72	25.000
218.09	-175.000
218.47	-425.000
218.84	0.000
219.22	120.000
219.59	-17.647
219.97	-30.000
220.34	200.000
220.72	-100.000
221.09	15.385
221.47	-300.000
221.84	-90.000
222.22	-214.286
222.59	0.000
222.97	-87.500
223.34	-220.000
223.72	-1900.000
224.09	-275.000
224.46	-300.000
224.84	20.000
225.21	-100.000
225.59	-475.000
225.96	-125.000
226.34	-15.385
226.71	250.000
227.08	-500.000
227.46	26.667
227.83	-175.000
228.21	0.000
228.58	162.500
228.95	550.000
229.33	-25.000
229.70	-90.000
230.08	21.053
230.45	110.000
230.82	266.667
231.20	21.429
231.57	-50.000
231.95	-9.091
232.32	-72.727
232.69	-15.000
233.07	-100.000
233.44	-64.706
233.81	-110.000
234.19	22.222
234.56	-27.273
234.93	13.793
235.31	-42.105
235.68	-22.222
236.05	-60.000
236.43	30.769
236.80	48.000
237.17	-3.704
237.55	15.152
237.92	-50.000
238.29	-22.581
238.67	9.091
239.04	13.889
239.41	-7.143
239.79	-6.522
240.16	-7.407
240.53	-26.087
240.91	-21.569
241.28	-8.197
241.65	8.955
242.02	2.703
242.40	-4.615
242.77	-4.000
243.14	-10.976
243.51	-25.000
243.89	-24.359
244.26	10.891
244.63	-1.961
245.00	1.869
245.38	-7.018
245.75	-8.850
246.12	-1.587
246.49	-3.876
246.87	5.000
247.24	4.636
247.61	6.579
247.98	-2.685
248.36	2.469
248.73	-1.840
249.10	0.546
249.47	5.473
249.84	4.188
250.22	-0.518
250.59	-1.111
250.96	8.636
251.33	-5.102
251.70	3.846
252.08	3.333
252.45	4.098
252.82	-0.826
253.19	0.781
253.56	1.141
253.94	-1.538
254.31	3.409
254.68	5.944
255.05	4.235
255.42	6.122
255.79	2.589
256.16	2.649
256.54	0.331
256.91	2.623
257.28	1.311
257.65	1.592
258.02	-0.590
258.39	1.425
258.76	5.505
259.14	2.586
259.51	4.035
259.88	1.416
260.25	2.222
260.62	1.370
260.99	5.191
261.36	2.949
261.73	2.653
262.10	0.549
262.47	3.753
262.85	4.545
263.22	1.299
263.59	0.000
263.96	3.581
264.33	3.069
264.70	4.938
265.07	3.819
265.44	4.308
265.81	2.083
266.18	3.628
266.55	4.464
266.92	2.050
267.29	3.720
267.66	2.439
268.03	4.148
268.40	5.219
268.77	1.139
269.14	0.220
269.51	3.289
269.88	5.738
270.25	4.024
270.62	4.430
270.99	4.040
271.36	5.149
271.73	1.572
272.10	4.008
272.47	4.208
272.84	1.606
273.21	3.607
273.58	3.024
273.95	2.500
274.32	1.521
274.69	2.321
275.06	4.396
275.43	3.142
275.80	4.056
276.17	1.111
276.54	3.731
276.91	2.326
277.28	3.978
277.65	4.309
278.02	2.390
278.39	3.986
278.76	2.460
279.13	5.142
279.50	5.155
279.87	4.472
280.23	0.176
280.60	3.559
280.97	2.796
281.34	0.509
281.71	3.046
282.08	2.990
282.45	2.128
282.82	2.512
283.19	2.746
283.56	2.459
283.92	4.505
284.29	3.791
284.66	3.448
285.03	1.122
285.40	4.328
285.77	2.477
286.14	3.053
286.51	1.979
286.87	2.212
287.24	3.614
287.61	2.840
287.98	3.625
288.35	2.515
288.72	2.959
289.08	2.489
289.45	2.959
289.82	2.861
290.19	2.730
290.56	2.958
290.93	3.424
291.29	1.791
291.66	2.479
292.03	2.985
292.40	4.762
292.77	2.830
293.13	3.248
293.50	2.102
293.87	2.953
294.24	5.333
294.60	3.919
294.97	0.671
295.34	3.585
295.71	2.900
296.08	2.196
296.44	2.819
296.81	2.923
297.18	2.491
297.55	3.066
297.91	3.321
298.28	1.422
298.65	2.854
299.02	2.125
299.38	4.233
299.75	2.804
300.12	2.199
300.48	1.498
300.85	2.587
301.22	2.908
301.59	1.941
301.95	2.712
302.32	4.000
302.69	1.752
303.05	2.394
303.42	2.106
303.79	2.917
304.15	2.524
304.52	1.586
304.89	2.408
305.25	3.002
305.62	1.881
305.99	3.505
306.35	2.218
306.72	2.896
307.09	2.030
307.45	2.795
307.82	2.926
308.19	2.422
308.55	3.182
308.92	2.726
309.29	3.257
309.65	1.754
310.02	2.277
310.38	2.657
310.75	2.524
311.12	2.589
311.48	2.346
311.85	2.754
312.22	2.277
312.58	3.005
312.95	1.816
313.31	2.981
313.68	2.839
314.05	3.613
314.41	3.005
314.78	2.543
315.14	2.632
315.51	2.585
315.87	3.330
316.24	3.105
316.61	4.263
316.97	2.896
317.34	2.646
317.70	4.017
318.07	3.527
318.43	2.636
318.80	4.264
319.16	1.974
319.53	2.057
319.89	1.490
320.26	4.093
320.62	3.369
320.99	3.416
321.35	3.235
321.72	4.186
322.08	2.164
322.45	2.981
322.81	3.339
323.18	3.274
323.54	3.190
323.91	3.915
324.27	2.410
324.64	3.610
325.00	4.063
325.37	3.931
325.73	3.967
326.10	4.461
326.46	4.642
326.83	4.323
327.19	4.016
327.56	4.427
327.92	3.541
328.29	3.629
328.65	3.350
329.01	3.976
329.38	4.971
329.74	3.853
330.11	4.110
330.47	3.960
330.84	3.531
331.20	4.583
331.56	3.726
331.93	3.347
332.29	3.898
332.66	3.821
333.02	3.350
333.38	3.188
333.75	3.535
334.11	3.336
334.48	4.538
334.84	4.758
335.20	3.946
335.57	4.806
335.93	4.132
336.29	3.078
336.66	3.028
337.02	3.846
337.38	3.401
337.75	3.388
338.11	4.289
338.47	3.888
338.84	3.215
339.20	3.117
339.56	3.871
339.93	3.941
340.29	3.945
340.65	3.487
341.02	3.990
341.38	3.961
341.74	2.421
342.11	3.459
342.47	3.336
342.83	3.865
343.20	3.843
343.56	2.807
343.92	3.523
344.28	4.219
344.65	3.721
345.01	3.900
345.37	4.666
345.73	3.118
346.10	3.588
346.46	2.848
346.82	4.719
347.19	4.125
347.55	4.097
347.91	3.938
348.27	3.566
348.63	4.113
349.00	3.878
349.36	4.758
349.72	3.274
350.08	4.829
350.45	2.586
350.81	3.846
351.17	3.835
351.53	3.715
351.89	4.328
352.26	3.731
352.62	3.657
352.98	3.511
353.34	3.734
353.70	3.775
354.07	3.800
354.43	2.658
354.79	3.740
355.15	3.091
355.51	4.240
355.87	3.889
356.24	3.802
356.60	3.104
356.96	3.410
357.32	2.900
357.68	3.075
358.04	3.892
358.40	2.836
358.77	3.874
359.13	3.176
359.49	2.230
359.85	3.843
360.21	4.161
360.57	4.092
360.93	3.949
361.29	3.439
361.66	3.621
362.02	4.593
362.38	3.514
362.74	3.073
363.10	3.989
363.46	3.601
363.82	2.983
364.18	3.519
364.54	3.596
364.90	4.548
365.26	3.586
365.62	3.467
365.98	4.697
366.35	3.557
366.71	3.333
367.07	3.924
367.43	3.349
367.79	3.451
368.15	4.482
368.51	3.451
368.87	3.984
369.23	4.200
369.59	3.415
369.95	3.922
370.31	4.186
370.67	4.058
371.03	4.294
371.39	3.492
371.75	3.095
372.11	3.862
372.47	3.114
372.83	3.927
373.19	4.136
373.55	3.930
373.91	3.136
374.27	4.657
374.63	3.248
374.99	3.050
375.35	3.896
375.71	3.806
376.07	3.873
376.42	3.338
376.78	3.978
377.14	4.117
377.50	3.289
377.86	4.372
378.22	4.132
378.58	3.924
378.94	3.815
379.30	4.101
379.66	4.233
380.02	4.385
380.38	3.514
380.74	4.845
381.09	3.949
381.45	4.375
381.81	5.562
382.17	4.216
382.53	4.327
382.89	4.910
383.25	4.513
383.61	3.819
383.97	4.594
384.32	4.844
384.68	4.176
385.04	4.049
385.40	4.420
385.76	4.865
386.12	4.309
386.48	5.059
386.83	4.827
387.19	4.809
387.55	4.343
387.91	4.566
388.27	5.023
388.62	4.926
388.98	4.287
389.34	4.832
389.70	5.230
390.06	5.033
390.42	4.759
390.77	5.960
391.13	5.516
391.49	5.797
391.85	4.121
392.20	4.923
392.56	5.316
392.92	5.889
393.28	5.307
393.64	4.972
393.99	5.462
394.35	5.315
394.71	5.329
395.07	4.311
395.42	5.197
395.78	5.667
396.14	5.704
396.50	5.048
396.85	4.949
397.21	5.207
397.57	5.359
397.92	5.556
398.28	4.617
398.64	5.378
399.00	5.340
399.35	5.183
399.71	5.326
400.07	5.671
400.42	5.239
400.78	5.035
401.14	5.464
401.49	5.628
401.85	4.826
402.21	5.504
402.57	5.340
402.92	5.024
403.28	4.918
403.63	4.833
403.99	5.344
404.35	5.287
404.70	5.666
405.06	5.489
405.42	5.035
405.77	5.180
406.13	5.781
406.49	5.124
406.84	5.429
407.20	4.639
407.55	5.451
407.91	5.091
408.27	4.829
408.62	5.236
408.98	5.281
409.34	4.047
409.69	4.450
410.05	5.334
410.40	5.742
410.76	4.655
411.11	5.845
411.47	5.405
411.83	5.056
412.18	5.542
412.54	5.750
412.89	6.054
413.25	4.684
413.60	5.629
413.96	5.478
414.31	5.892
414.67	5.486
415.03	5.415
415.38	4.918
415.74	6.048
416.09	5.737
416.45	5.385
416.80	4.896
417.16	5.300
417.51	5.168
417.87	5.947
418.22	5.449
418.58	5.762
418.93	6.054
419.29	6.289
419.64	5.462
420.00	5.341
420.35	5.839
420.71	5.227
421.06	5.003
421.42	5.677
421.77	5.385
422.12	5.127
422.48	5.376
422.83	5.696
423.19	5.570
423.54	5.365
423.90	5.853
424.25	5.440
424.61	5.224
424.96	5.437
425.31	6.582
425.67	5.099
426.02	5.645
426.38	5.855
426.73	5.692
427.09	6.517
427.44	5.243
427.79	5.086
428.15	5.365
428.50	5.618
428.85	5.511
429.21	6.330
429.56	4.886
429.92	5.553
430.27	6.120
430.62	5.423
430.98	5.263
431.33	5.230
431.68	5.412
432.04	6.044
432.39	5.624
432.74	4.680
433.10	5.733
433.45	5.463
433.80	5.740
434.16	4.959
434.51	5.550
434.86	5.755
435.22	6.004
435.57	5.542
435.92	5.008
436.28	5.973
436.63	5.025
436.98	5.743
437.34	5.862
437.69	5.008
438.04	5.235
438.39	4.940
438.75	5.368
439.10	5.973
439.45	5.813
439.81	5.254
440.16	5.523
440.51	5.909
440.86	5.837
441.22	6.163
441.57	6.184
441.92	5.820
442.27	6.061
442.63	6.110
442.98	5.816
443.33	5.681
443.68	6.145
444.03	5.833
444.39	6.056
444.74	6.381
445.09	5.981
445.44	5.901
445.79	5.747
446.15	6.064
446.50	5.840
446.85	6.080
447.20	5.416
447.55	5.910
447.91	6.440
448.26	6.078
448.61	5.685
448.96	6.438
449.31	6.151
449.66	4.793
450.02	6.329
450.37	7.086
450.72	5.920
451.07	6.321
451.42	5.835
451.77	5.058
452.12	5.813
452.47	5.466
452.83	5.405
453.18	5.721
453.53	5.169
453.88	6.129
454.23	5.593
454.58	6.965
454.93	5.643
455.28	6.743
455.63	5.742
455.98	6.034
456.34	6.596
456.69	5.761
457.04	6.206
457.39	5.876
457.74	6.376
458.09	6.041
458.44	6.627
458.79	6.601
459.14	6.188
459.49	6.282
459.84	6.348
460.19	5.608
460.54	6.076
460.89	5.823
461.24	5.287
461.59	6.309
461.94	5.647
462.29	6.439
462.64	5.914
462.99	6.466
463.34	6.619
463.69	6.858
464.04	5.892
464.39	6.502
464.74	6.271
465.09	6.863
465.44	5.955
465.79	6.663
466.14	6.045
466.49	6.158
466.84	6.612
467.19	6.416
467.54	5.817
467.89	5.747
468.24	6.814
468.59	5.269
468.94	6.119
469.29	6.239
469.64	5.912
469.99	6.310
470.34	6.312
470.68	6.835
471.03	6.221
471.38	6.017
471.73	5.917
472.08	6.916
472.43	6.261
472.78	6.675
473.13	5.373
473.48	5.982
473.83	6.907
474.17	6.331
474.52	5.232
474.87	6.645
475.22	6.986
475.57	6.802
475.92	6.421
476.27	6.656
476.61	6.594
476.96	6.100
477.31	6.634
477.66	7.188
478.01	6.507
478.36	6.530
478.70	6.158
479.05	6.646
479.40	6.417
479.75	6.532
480.10	6.585
480.45	6.335
480.79	6.531
481.14	6.434
481.49	6.088
481.84	6.745
482.19	6.796
482.53	6.384
482.88	6.513
483.23	6.447
483.58	5.895
483.92	6.206
484.27	6.181
484.62	6.353
484.97	7.232
485.31	6.160
485.66	6.346
486.01	6.279
486.36	6.169
486.70	6.471
487.05	6.478
487.40	6.524
487.75	6.718
488.09	6.368
488.44	6.412
488.79	6.981
489.13	6.445
489.48	5.942
489.83	6.600
490.17	6.318
490.52	6.117
490.87	6.599
491.22	6.023
491.56	6.655
491.91	6.803
492.26	6.621
492.60	6.471
492.95	6.889
493.30	6.186
493.64	6.439
493.99	6.491
494.34	5.967
494.68	6.124
495.03	6.828
495.37	6.747
495.72	6.667
496.07	6.486
496.41	6.263
496.76	7.131
497.11	6.921
497.45	6.301
497.80	6.886
498.14	6.213
498.49	6.572
498.84	6.856
499.18	6.973
499.53	6.996
499.87	6.813
500.22	6.011
500.56	6.883
500.91	6.362
501.26	7.591
501.60	6.319
501.95	7.121
502.29	6.231
502.64	6.821
502.98	7.161
503.33	6.566
503.67	5.887
504.02	6.173
504.36	7.060
504.71	6.569
505.06	6.548
505.40	6.399
505.75	6.466
506.09	6.998
506.44	6.917
506.78	7.523
507.13	7.100
507.47	6.821
507.82	7.292
508.16	6.453
508.51	6.704
508.85	6.613
509.19	6.964
509.54	7.349
509.88	7.674
510.23	6.848
510.57	7.347
510.92	7.257
511.26	6.734
511.61	6.422
511.95	7.077
512.30	7.336
512.64	7.146
512.98	7.604
513.33	7.661
513.67	7.445
514.02	6.643
514.36	7.519
514.70	7.344
515.05	7.195
515.39	7.822
515.74	7.794
516.08	7.501
516.42	7.535
516.77	7.203
517.11	7.220
517.46	7.476
517.80	7.108
518.14	7.889
518.49	7.321
518.83	7.131
519.17	6.839
519.52	8.019
519.86	7.445
520.20	8.200
520.55	7.065
520.89	7.432
521.23	7.873
521.58	7.966
521.92	7.649
522.26	6.357
522.61	7.060
522.95	7.266
523.29	7.356
523.64	7.623
523.98	7.587
524.32	7.221
524.66	6.830
525.01	7.531
525.35	7.410
525.69	8.063
526.04	7.290
526.38	7.701
526.72	7.093
527.06	7.566
527.41	8.163
527.75	7.423
528.09	7.851
528.43	7.697
528.78	7.457
529.12	7.511
529.46	6.970
529.80	8.238
530.15	7.304
530.49	7.117
530.83	8.205
531.17	7.228
531.51	6.799
531.86	8.413
532.20	7.195
532.54	7.062
532.88	7.394
533.22	8.427
533.57	8.078
533.91	7.632
534.25	7.631
534.59	7.529
534.93	6.961
535.27	7.944
535.62	7.391
535.96	7.670
536.30	7.286
536.64	7.267
536.98	7.872
537.32	7.778
537.66	8.297
538.01	7.372
538.35	7.369
538.69	7.091
539.03	7.725
539.37	7.067
539.71	7.387
540.05	8.813
540.39	6.968
540.73	7.347
541.07	8.032
541.42	7.206
541.76	6.821
542.10	7.117
542.44	6.882
542.78	7.299
543.12	7.569
543.46	7.631
543.80	7.734
544.14	7.840
544.48	7.447
544.82	8.019
545.16	7.812
545.50	7.609
545.84	7.410
546.18	8.951
546.52	8.217
546.86	7.925
547.20	7.570
547.54	7.428
547.88	8.017
548.22	7.193
548.56	7.548
548.90	7.582
549.24	8.085
549.58	7.066
549.92	7.717
550.26	7.249
550.60	8.488
550.94	8.085
551.28	8.119
551.62	7.615
551.96	7.832
552.30	8.158
552.64	8.276
552.98	7.299
553.32	7.460
553.66	7.460
554.00	8.260
554.34	7.851
554.68	8.005
555.02	7.359
555.36	8.547
555.69	8.072
556.03	7.251
556.37	7.885
556.71	7.990
557.05	8.243
557.39	7.167
557.73	7.596
558.07	7.616
558.41	8.306
558.75	8.046
559.08	7.794
559.42	7.133
559.76	7.938
560.10	7.770
560.44	7.718
560.78	8.750
561.12	7.574
561.45	8.577
561.79	7.265
562.13	7.887
562.47	7.707
562.81	8.734
563.15	7.765
563.48	7.644
563.82	7.618
564.16	8.116
564.50	7.569
564.84	7.552
565.17	7.882
565.51	7.595
565.85	7.363
566.19	7.488
566.52	6.905
566.86	7.697
567.20	7.015
567.54	7.860
567.88	7.594
568.21	7.411
568.55	7.338
568.89	7.944
569.23	7.943
569.56	7.503
569.90	7.306
570.24	7.218
570.57	6.863
570.91	6.705
571.25	7.203
571.59	7.403
571.92	7.223
572.26	7.332
572.60	6.907
572.93	6.874
573.27	6.968
573.61	7.173
573.95	6.943
574.28	7.171
574.62	6.708
574.96	6.771
575.29	7.138
575.63	6.930
575.97	7.305
576.30	7.155
576.64	6.657
576.98	6.948
577.31	6.767
577.65	7.057
577.98	7.022
578.32	6.766
578.66	6.841
578.99	6.942
579.33	6.981
579.67	7.004
580.00	6.811
580.34	7.046
580.67	6.730
581.01	6.967
581.35	6.955
581.68	6.815
582.02	6.971
582.35	6.922
582.69	6.723
583.02	7.064
583.36	6.798
583.70	7.112
584.03	7.055
584.37	7.109
584.70	6.724
585.04	7.045
585.37	7.070
585.71	7.077
586.04	7.155
586.38	6.825
586.72	6.142
587.05	6.702
587.39	7.230
587.72	7.057
588.06	7.084
588.39	6.995
588.73	7.037
589.06	7.336
589.40	6.976
589.73	7.166
590.07	7.361
590.40	7.268
590.73	7.317
591.07	7.595
591.40	7.193
591.74	7.591
592.07	7.958
592.41	6.901
592.74	7.242
593.08	7.739
593.41	7.874
593.75	7.414
594.08	7.058
594.41	7.244
594.75	7.572
595.08	6.898
595.42	7.338
595.75	7.265
596.09	7.218
596.42	6.879
596.75	7.256
597.09	7.475
597.42	7.469
597.75	7.644
598.09	7.421
598.42	7.881
598.76	7.298
599.09	7.298
599.42	6.939
599.76	7.296
600.09	7.274
600.42	7.274
600.76	7.629
601.09	7.269
601.42	7.243
601.76	6.793
602.09	7.434
602.42	7.197
602.76	7.528
603.09	7.636
603.42	7.334
603.76	7.153
604.09	8.091
604.42	6.899
604.76	7.192
605.09	7.619
605.42	7.735
605.75	7.769
606.09	7.204
606.42	7.078
606.75	7.721
607.09	7.028
607.42	7.091
607.75	7.464
608.08	7.380
608.42	7.376
608.75	7.587
609.08	7.428
609.41	7.102
609.75	7.143
610.08	7.476
610.41	7.179
610.74	7.521
611.07	7.416
611.41	8.027
611.74	6.882
612.07	7.761
612.40	7.224
612.73	7.384
613.07	7.971
613.40	7.363
613.73	6.981
614.06	7.213
614.39	7.289
614.72	7.278
615.06	7.555
615.39	7.637
615.72	7.014
616.05	7.091
616.38	7.467
616.71	8.150
617.05	6.922
617.38	7.277
617.71	7.181
618.04	7.447
618.37	7.978
618.70	7.862
619.03	7.109
619.36	7.645
619.69	7.303
620.03	7.910
620.36	7.791
620.69	7.279
621.02	7.152
621.35	7.402
621.68	8.098
622.01	7.189
622.34	6.625
622.67	7.216
623.00	6.815
623.33	8.693
623.66	7.782
623.99	7.307
624.32	7.797
624.65	6.242
624.99	6.957
625.32	8.622
625.65	8.699
625.98	7.525
626.31	7.300
626.64	7.619
626.97	7.802
627.30	6.682
627.63	7.127
627.96	9.159
628.29	8.016
628.62	7.893
628.95	6.836
629.28	6.287
629.61	8.502
629.94	7.866
630.26	7.288
630.59	7.772
630.92	8.398
631.25	9.123
631.58	8.475
631.91	8.247
632.24	6.628
632.57	8.159
632.90	8.225
633.23	7.857
633.56	6.429
633.89	7.541
634.22	8.212
634.55	8.038
634.88	7.143
635.20	9.042
635.53	8.701
635.86	8.451
636.19	8.908
636.52	8.861
636.85	8.682
637.18	7.380
637.51	8.065
637.83	8.084
638.16	8.410
638.49	6.455
638.82	7.554
639.15	7.102
639.48	9.238
639.81	8.314
640.13	8.834
640.46	7.030
640.79	6.495
641.12	9.068
641.45	8.532
641.77	10.526
642.10	7.612
642.43	9.707
642.76	7.995
643.09	7.945
643.41	8.964
643.74	6.759
644.07	7.724
644.40	7.779
644.73	7.692
645.05	6.608
645.38	8.201
645.71	8.065
646.04	8.321
646.36	8.613
646.69	7.669
647.02	8.716
647.35	9.466
647.67	10.628
648.00	7.484
648.33	8.408
648.66	7.703
648.98	7.619
649.31	8.119
649.64	8.367
649.96	8.488
650.29	7.650
650.62	8.487
650.94	5.856
651.27	7.036
651.60	6.871
651.92	8.511
652.25	9.117
652.58	8.803
652.90	7.703
653.23	8.592
653.56	6.990
653.88	7.444
654.21	9.437
654.54	7.370
654.86	8.640
655.19	6.399
655.52	6.624
655.84	6.474
656.17	7.736
656.49	10.797
656.82	12.030
657.15	9.523
657.47	7.090
657.80	5.216
658.13	4.096
