SpectraSuite Data File
++++++++++++++++++++++++++++++++++++
Date: Thu May 14 15:16:32 PDT 2015
User: schluterlab
Dark Spectrum Present: Yes
Reference Spectrum Present: Yes
Number of Sampled Component Spectra: 1
Spectrometers: USB2E3373
Integration Time (usec): 3000 (USB2E3373)
Spectra Averaged: 3 (USB2E3373)
Boxcar Smoothing: 0 (USB2E3373)
Correct for Electrical Dark: No (USB2E3373)
Strobe/Lamp Enabled: No (USB2E3373)
Correct for Detector Non-linearity: No (USB2E3373)
Correct for Stray Light: No (USB2E3373)
Number of Pixels in Processed Spectrum: 2048
>>>>>Begin Processed Spectral Data<<<<<
178.53	0.000
178.91	671.429
179.29	-5100.000
179.67	-4100.000
180.04	392.857
180.42	350.000
180.80	800.000
181.18	-3500.000
181.56	-3000.000
181.94	1075.000
182.31	-900.000
182.69	1233.333
183.07	-1800.000
183.45	1075.000
183.83	-600.000
184.20	-1300.000
184.58	4000.000
184.96	-1150.000
185.34	-400.000
185.72	-620.000
186.09	511.111
186.47	2000.000
186.85	840.000
187.23	-522.222
187.61	-4600.000
187.98	980.000
188.36	975.000
188.74	-925.000
189.12	-1166.667
189.49	-218.750
189.87	-512.500
190.25	-422.222
190.63	-840.000
191.00	-466.667
191.38	0.000
191.76	-1200.000
192.14	-783.333
192.51	1550.000
192.89	-466.667
193.27	0.000
193.65	-585.714
194.02	-5100.000
194.40	-514.286
194.78	614.286
195.15	0.000
195.53	-327.273
195.91	0.000
196.29	-825.000
196.66	-330.769
197.04	-3800.000
197.42	-500.000
197.79	-2000.000
198.17	-512.500
198.55	-642.857
198.92	-433.333
199.30	-525.000
199.68	-263.636
200.05	-221.429
200.43	-1950.000
200.81	700.000
201.18	0.000
201.56	666.667
201.94	0.000
202.31	1466.667
202.69	-444.444
203.07	3800.000
203.44	-411.111
203.82	-1025.000
204.19	-308.333
204.57	-633.333
204.95	-587.500
205.32	-4000.000
205.70	1025.000
206.08	-716.667
206.45	-633.333
206.83	820.000
207.20	-550.000
207.58	-920.000
207.96	-766.667
208.33	-750.000
208.71	308.333
209.08	-683.333
209.46	0.000
209.84	700.000
210.21	1900.000
210.59	2450.000
210.96	1666.667
211.34	-950.000
211.71	-462.500
212.09	-3700.000
212.46	0.000
212.84	2750.000
213.22	-960.000
213.59	-1050.000
213.97	-290.000
214.34	-1300.000
214.72	616.667
215.09	-975.000
215.47	0.000
215.84	671.429
216.22	2250.000
216.59	-720.000
216.97	-720.000
217.34	-825.000
217.72	-562.500
218.09	-825.000
218.47	-1125.000
218.84	0.000
219.22	960.000
219.59	-247.059
219.97	-150.000
220.34	2200.000
220.72	-455.556
221.09	-300.000
221.47	-1300.000
221.84	-390.000
222.22	-542.857
222.59	0.000
222.97	-437.500
223.34	-940.000
223.72	-4300.000
224.09	-1200.000
224.46	-1275.000
224.84	-740.000
225.21	-714.286
225.59	-1075.000
225.96	-975.000
226.34	-138.462
226.71	800.000
227.08	-2100.000
227.46	-266.667
227.83	-1125.000
228.21	-231.579
228.58	662.500
228.95	2600.000
229.33	-325.000
229.70	-390.000
230.08	-147.368
230.45	400.000
230.82	-1333.333
231.20	-250.000
231.57	-275.000
231.95	-363.636
232.32	-327.273
232.69	-160.000
233.07	-800.000
233.44	-217.647
233.81	-390.000
234.19	-188.889
234.56	-181.818
234.93	-131.034
235.31	-210.526
235.68	-200.000
236.05	-260.000
236.43	-103.846
236.80	-112.000
237.17	-125.926
237.55	-90.909
237.92	-360.000
238.29	-100.000
238.67	-68.182
239.04	-105.556
239.41	-95.238
239.79	-89.130
240.16	-77.778
240.53	-86.957
240.91	-80.392
241.28	-68.852
241.65	-49.254
242.02	-43.243
242.40	-70.769
242.77	-53.333
243.14	-56.098
243.51	-67.105
243.89	-64.103
244.26	-32.673
244.63	-29.412
245.00	-32.710
245.38	-35.965
245.75	-49.558
246.12	-31.746
246.49	-38.760
246.87	-32.143
247.24	-23.179
247.61	-21.711
247.98	-27.517
248.36	-30.864
248.73	-28.834
249.10	-26.230
249.47	-13.930
249.84	-14.136
250.22	-19.689
250.59	-19.444
250.96	-13.182
251.33	-17.857
251.70	-11.966
252.08	-14.583
252.45	-9.016
252.82	-15.702
253.19	-14.844
253.56	-9.506
253.94	-15.769
254.31	-12.500
254.68	-10.490
255.05	-11.401
255.42	-13.946
255.79	-14.239
256.16	-13.576
256.54	-12.583
256.91	-12.787
257.28	-14.426
257.65	-12.102
258.02	-13.274
258.39	-6.838
258.76	-9.480
259.14	-8.908
259.51	-11.239
259.88	-13.598
260.25	-9.444
260.62	-6.575
260.99	-7.377
261.36	-6.166
261.73	-8.223
262.10	-13.462
262.47	-10.992
262.85	-4.798
263.22	-9.091
263.59	-12.632
263.96	-7.928
264.33	-9.974
264.70	-8.148
265.07	-4.535
265.44	-5.442
265.81	-6.250
266.18	-6.576
266.55	-6.696
266.92	-9.112
267.29	-7.440
267.66	-9.978
268.03	-10.480
268.40	-7.307
268.77	-9.795
269.14	-11.233
269.51	-7.018
269.88	-6.352
270.25	-5.433
270.62	-6.118
270.99	-5.455
271.36	-4.752
271.73	-5.108
272.10	-4.810
272.47	-5.611
272.84	-6.024
273.21	-4.810
273.58	-5.645
273.95	-5.962
274.32	-6.844
274.69	-7.350
275.06	-5.861
275.43	-6.470
275.80	-4.586
276.17	-7.593
276.54	-7.090
276.91	-6.619
277.28	-6.872
277.65	-7.002
278.02	-6.801
278.39	-6.703
278.76	-7.557
279.13	-7.092
279.50	-2.921
279.87	-3.757
280.23	-7.218
280.60	-5.424
280.97	-5.428
281.34	-5.603
281.71	-3.384
282.08	-5.482
282.45	-5.401
282.82	-5.338
283.19	-7.593
283.56	-6.885
283.92	-2.402
284.29	-1.896
284.66	-4.762
285.03	-5.929
285.40	-3.864
285.77	-6.037
286.14	-3.359
286.51	-4.110
286.87	-4.581
287.24	-5.572
287.61	-5.680
287.98	-5.136
288.35	-4.438
288.72	-5.325
289.08	-4.539
289.45	-5.030
289.82	-4.217
290.19	-4.741
290.56	-4.507
290.93	-4.708
291.29	-4.408
291.66	-4.545
292.03	-4.342
292.40	-2.449
292.77	-4.313
293.13	-3.654
293.50	-4.205
293.87	-4.832
294.24	-2.667
294.60	-3.034
294.97	-5.235
295.34	-2.689
295.71	-4.161
296.08	-3.876
296.44	-3.186
296.81	-3.410
297.18	-5.106
297.55	-3.656
297.91	-4.152
298.28	-4.147
298.65	-3.092
299.02	-4.132
299.38	-2.860
299.75	-3.037
300.12	-4.167
300.48	-3.341
300.85	-3.825
301.22	-3.356
301.59	-4.338
301.95	-2.938
302.32	-2.000
302.69	-2.848
303.05	-3.047
303.42	-3.437
303.79	-2.604
304.15	-2.734
304.52	-3.911
304.89	-3.770
305.25	-2.795
305.62	-2.926
305.99	-2.784
306.35	-2.823
306.72	-2.275
307.09	-2.741
307.45	-2.484
307.82	-2.119
308.19	-2.119
308.55	-1.446
308.92	-2.434
309.29	-2.299
309.65	-2.534
310.02	-3.267
310.38	-3.248
310.75	-1.748
311.12	-1.630
311.48	-2.835
311.85	-2.374
312.22	-2.372
312.58	-2.066
312.95	-2.294
313.31	-1.536
313.68	-1.465
314.05	-0.542
314.41	-1.002
314.78	-2.089
315.14	-1.361
315.51	-0.462
315.87	-0.540
316.24	-0.822
316.61	-0.089
316.97	-0.814
317.34	-0.441
317.70	0.349
318.07	0.088
318.43	1.616
318.80	1.505
319.16	1.373
319.53	0.686
319.89	0.438
320.26	1.512
320.62	0.975
320.99	2.401
321.35	1.294
321.72	2.977
322.08	2.164
322.45	3.071
322.81	4.061
323.18	2.832
323.54	3.276
323.91	4.537
324.27	4.045
324.64	4.870
325.00	4.975
325.37	5.324
325.73	5.785
326.10	6.164
326.46	6.678
326.83	7.846
327.19	7.795
327.56	7.668
327.92	8.576
328.29	8.871
328.65	7.370
329.01	9.137
329.38	10.615
329.74	11.216
330.11	10.788
330.47	10.447
330.84	11.370
331.20	12.750
331.56	12.998
331.93	12.218
332.29	12.373
332.66	13.455
333.02	12.395
333.38	12.416
333.75	12.795
334.11	13.845
334.48	14.686
334.84	14.444
335.20	13.686
335.57	13.828
335.93	14.050
336.29	13.894
336.66	14.382
337.02	14.967
337.38	15.561
337.75	14.545
338.11	15.055
338.47	15.302
338.84	13.959
339.20	13.985
339.56	14.250
339.93	15.764
340.29	14.815
340.65	15.328
341.02	16.361
341.38	16.168
341.74	15.738
342.11	15.366
342.47	14.297
342.83	15.781
343.20	15.781
343.56	16.520
343.92	16.253
344.28	14.922
344.65	16.822
345.01	14.587
345.37	15.397
345.73	14.731
346.10	15.913
346.46	15.427
346.82	16.180
347.19	15.584
347.55	16.692
347.91	15.899
348.27	15.781
348.63	15.537
349.00	15.958
349.36	16.208
349.72	16.443
350.08	15.973
350.45	16.198
350.81	15.385
351.17	15.338
351.53	15.466
351.89	17.236
352.26	15.299
352.62	15.672
352.98	16.031
353.34	14.937
353.70	15.408
354.07	16.244
354.43	15.718
354.79	15.707
355.15	15.453
355.51	16.813
355.87	14.510
356.24	15.513
356.60	16.038
356.96	16.605
357.32	14.721
357.68	15.886
358.04	15.120
358.40	16.642
358.77	15.789
359.13	15.214
359.49	16.506
359.85	15.809
360.21	15.997
360.57	15.506
360.93	15.585
361.29	16.351
361.66	15.930
362.02	17.189
362.38	15.741
362.74	16.760
363.10	16.781
363.46	16.413
363.82	15.909
364.18	16.538
364.54	17.082
364.90	17.391
365.26	17.586
365.62	17.133
365.98	16.338
366.35	16.242
366.71	18.095
367.07	17.118
367.43	16.743
367.79	17.784
368.15	18.127
368.51	17.524
368.87	16.917
369.23	17.400
369.59	17.350
369.95	17.377
370.31	17.758
370.67	16.781
371.03	17.313
371.39	16.857
371.75	17.194
372.11	17.886
372.47	17.062
372.83	17.539
373.19	18.145
373.55	17.615
373.91	16.564
374.27	18.305
374.63	17.862
374.99	17.308
375.35	17.597
375.71	17.871
376.07	18.399
376.42	18.010
376.78	19.142
377.14	18.715
377.50	18.849
377.86	18.966
378.22	18.982
378.58	19.620
378.94	18.955
379.30	19.215
379.66	19.048
380.02	19.677
380.38	19.412
380.74	19.662
381.09	19.512
381.45	20.398
381.81	20.785
382.17	20.190
382.53	19.474
382.89	20.542
383.25	20.106
383.61	19.387
383.97	19.906
384.32	20.754
384.68	19.026
385.04	21.110
385.40	21.037
385.76	20.692
386.12	20.527
386.48	21.647
386.83	21.156
387.19	20.220
387.55	20.599
387.91	21.404
388.27	20.958
388.62	20.447
388.98	20.587
389.34	21.509
389.70	20.686
390.06	21.018
390.42	21.627
390.77	22.216
391.13	21.185
391.49	21.437
391.85	20.909
392.20	21.056
392.56	20.969
392.92	22.792
393.28	21.725
393.64	21.620
393.99	22.603
394.35	21.963
394.71	21.976
395.07	21.437
395.42	21.816
395.78	21.999
396.14	22.400
396.50	21.200
396.85	21.884
397.21	22.012
397.57	21.967
397.92	21.821
398.28	21.293
398.64	21.911
399.00	21.099
399.35	21.518
399.71	22.554
400.07	22.010
400.42	22.235
400.78	21.701
401.14	21.400
401.49	22.285
401.85	22.093
402.21	22.190
402.57	22.418
402.92	21.809
403.28	20.902
403.63	21.778
403.99	22.031
404.35	22.342
404.70	22.720
405.06	22.337
405.42	22.073
405.77	22.410
406.13	22.204
406.49	22.072
406.84	22.271
407.20	22.638
407.55	22.350
407.91	22.753
408.27	22.085
408.62	21.408
408.98	21.997
409.34	21.760
409.69	22.621
410.05	22.040
410.40	21.578
410.76	21.705
411.11	21.800
411.47	22.482
411.83	22.163
412.18	22.651
412.54	22.347
412.89	21.653
413.25	22.009
413.60	21.482
413.96	23.077
414.31	22.493
414.67	22.660
415.03	22.154
415.38	22.194
415.74	21.869
416.09	22.764
416.45	22.229
416.80	22.338
417.16	22.158
417.51	22.229
417.87	22.502
418.22	22.335
418.58	21.995
418.93	23.283
419.29	22.380
419.64	21.849
420.00	22.196
420.35	22.122
420.71	22.171
421.06	21.449
421.42	22.362
421.77	21.809
422.12	21.564
422.48	23.195
422.83	23.549
423.19	22.706
423.54	22.622
423.90	22.253
424.25	22.773
424.61	22.675
424.96	22.900
425.31	23.408
425.67	22.169
426.02	22.579
426.38	22.618
426.73	21.763
427.09	24.048
427.44	22.611
427.79	22.609
428.15	22.432
428.50	22.472
428.85	23.077
429.21	23.511
429.56	22.507
429.92	23.292
430.27	22.940
430.62	23.351
430.98	22.774
431.33	22.532
431.68	22.749
432.04	22.600
432.39	24.317
432.74	23.345
433.10	22.769
433.45	23.467
433.80	23.230
434.16	23.554
434.51	23.792
434.86	24.701
435.22	23.698
435.57	23.585
435.92	23.428
436.28	22.753
436.63	23.321
436.98	23.027
437.34	23.563
437.69	22.950
438.04	23.057
438.39	23.607
438.75	22.966
439.10	23.256
439.45	23.365
439.81	23.785
440.16	23.378
440.51	22.854
440.86	22.624
441.22	23.687
441.57	23.637
441.92	23.909
442.27	23.737
442.63	23.547
442.98	23.853
443.33	23.198
443.68	24.430
444.03	25.024
444.39	24.226
444.74	23.788
445.09	23.517
445.44	23.973
445.79	24.425
446.15	23.433
446.50	23.514
446.85	24.222
447.20	24.516
447.55	23.640
447.91	23.351
448.26	24.366
448.61	23.698
448.96	24.571
449.31	23.277
449.66	23.638
450.02	23.945
450.37	24.134
450.72	23.843
451.07	23.975
451.42	23.686
451.77	23.958
452.12	24.605
452.47	24.064
452.83	24.155
453.18	23.701
453.53	24.124
453.88	23.302
454.23	24.633
454.58	24.028
454.93	24.090
455.28	24.925
455.63	22.570
455.98	24.637
456.34	23.439
456.69	24.985
457.04	24.704
457.39	23.891
457.74	25.056
458.09	24.382
458.44	24.784
458.79	24.291
459.14	24.751
459.49	24.165
459.84	25.026
460.19	23.765
460.54	24.588
460.89	24.404
461.24	23.046
461.59	24.460
461.94	24.358
462.29	25.028
462.64	24.140
462.99	24.105
463.34	25.243
463.69	24.209
464.04	25.403
464.39	25.056
464.74	23.831
465.09	24.567
465.44	23.605
465.79	25.119
466.14	24.075
466.49	24.053
466.84	24.298
467.19	25.202
467.54	24.207
467.89	24.368
468.24	24.543
468.59	24.030
468.94	23.834
469.29	24.295
469.64	23.331
469.99	24.538
470.34	24.319
470.68	23.172
471.03	25.213
471.38	24.395
471.73	24.187
472.08	24.937
472.43	25.166
472.78	24.559
473.13	24.652
473.48	23.867
473.83	24.260
474.17	23.857
474.52	24.775
474.87	24.142
475.22	24.620
475.57	24.299
475.92	25.137
476.27	24.867
476.61	24.922
476.96	23.514
477.31	25.050
477.66	25.393
478.01	24.403
478.36	25.174
478.70	24.581
479.05	24.744
479.40	25.370
479.75	24.928
480.10	24.680
480.45	25.296
480.79	25.215
481.14	25.138
481.49	25.080
481.84	24.804
482.19	25.247
482.53	24.967
482.88	25.033
483.23	24.811
483.58	24.978
483.92	24.424
484.27	24.894
484.62	24.340
484.97	25.389
485.31	24.252
485.66	23.224
486.01	23.435
486.36	24.828
486.70	26.381
487.05	27.853
487.40	26.747
487.75	25.954
488.09	25.923
488.44	25.062
488.79	24.992
489.13	24.294
489.48	24.893
489.83	24.588
490.17	24.909
490.52	23.933
490.87	25.677
491.22	25.433
491.56	25.213
491.91	24.684
492.26	24.794
492.60	25.186
492.95	24.879
493.30	24.742
493.64	25.756
493.99	24.123
494.34	24.956
494.68	24.625
495.03	25.419
495.37	25.300
495.72	25.079
496.07	24.803
496.41	25.054
496.76	25.730
497.11	25.138
497.45	24.385
497.80	24.700
498.14	23.946
498.49	24.540
498.84	25.183
499.18	24.696
499.53	25.247
499.87	24.527
500.22	23.865
500.56	24.831
500.91	24.805
501.26	25.227
501.60	24.702
501.95	25.445
502.29	25.011
502.64	25.273
502.98	25.324
503.33	25.227
503.67	24.553
504.02	24.825
504.36	25.067
504.71	24.575
505.06	24.648
505.40	23.903
505.75	24.499
506.09	24.816
506.44	25.209
506.78	25.917
507.13	23.974
507.47	24.680
507.82	25.095
508.16	24.140
508.51	25.035
508.85	25.224
509.19	25.154
509.54	25.168
509.88	24.575
510.23	25.158
510.57	24.988
510.92	23.899
511.26	24.435
511.61	24.239
511.95	23.572
512.30	24.618
512.64	24.738
512.98	24.312
513.33	24.395
513.67	24.477
514.02	24.885
514.36	24.143
514.70	24.062
515.05	24.557
515.39	23.675
515.74	25.610
516.08	24.353
516.42	25.536
516.77	24.921
517.11	24.497
517.46	24.390
517.80	24.906
518.14	24.701
518.49	24.729
518.83	24.268
519.17	23.371
519.52	24.528
519.86	24.129
520.20	24.441
520.55	24.644
520.89	24.324
521.23	24.232
521.58	24.576
521.92	24.023
522.26	23.883
522.61	23.958
522.95	23.702
523.29	24.598
523.64	24.047
523.98	24.472
524.32	24.986
524.66	24.075
525.01	24.009
525.35	23.837
525.69	23.782
526.04	23.536
526.38	24.253
526.72	23.645
527.06	24.457
527.41	23.965
527.75	24.881
528.09	24.144
528.43	24.512
528.78	24.220
529.12	23.853
529.46	23.946
529.80	23.741
530.15	23.478
530.49	23.547
530.83	23.849
531.17	23.536
531.51	24.549
531.86	24.760
532.20	23.537
532.54	23.579
532.88	23.333
533.22	24.101
533.57	23.370
533.91	23.120
534.25	24.421
534.59	23.621
534.93	22.694
535.27	23.324
535.62	23.081
535.96	23.359
536.30	22.797
536.64	24.625
536.98	24.231
537.32	24.259
537.66	23.331
538.01	23.505
538.35	23.082
538.69	23.558
539.03	23.912
539.37	23.204
539.71	23.724
540.05	23.321
540.39	23.105
540.73	22.222
541.07	22.195
541.42	22.623
541.76	23.013
542.10	23.040
542.44	22.351
542.78	22.993
543.12	23.004
543.46	22.955
543.80	24.101
544.14	22.561
544.48	23.168
544.82	23.938
545.16	22.898
545.50	22.349
545.84	22.229
546.18	23.765
546.52	22.675
546.86	22.327
547.20	22.265
547.54	21.910
547.88	22.423
548.22	21.462
548.56	22.820
548.90	22.209
549.24	23.040
549.58	22.965
549.92	21.811
550.26	23.172
550.60	22.527
550.94	21.992
551.28	22.046
551.62	22.305
551.96	21.748
552.30	21.734
552.64	21.966
552.98	22.208
553.32	21.865
553.66	22.444
554.00	22.825
554.34	22.329
554.68	21.498
555.02	21.945
555.36	22.748
555.69	21.589
556.03	22.509
556.37	22.653
556.71	21.306
557.05	22.684
557.39	21.831
557.73	23.052
558.07	22.053
558.41	21.927
558.75	21.433
559.08	20.946
559.42	21.399
559.76	21.370
560.10	21.969
560.44	22.361
560.78	22.250
561.12	22.414
561.45	22.019
561.79	21.551
562.13	23.475
562.47	22.626
562.81	21.899
563.15	21.528
563.48	21.690
563.82	21.826
564.16	20.957
564.50	21.514
564.84	20.708
565.17	21.882
565.51	21.634
565.85	21.793
566.19	21.774
566.52	22.294
566.86	21.845
567.20	20.555
567.54	21.243
567.88	21.662
568.21	21.344
568.55	21.343
568.89	20.790
569.23	21.166
569.56	21.297
569.90	20.706
570.24	21.113
570.57	21.584
570.91	20.698
571.25	21.059
571.59	21.625
571.92	21.189
572.26	20.831
572.60	21.212
572.93	20.679
573.27	21.467
573.61	20.805
573.95	20.636
574.28	20.556
574.62	20.373
574.96	20.622
575.29	20.599
575.63	20.675
575.97	20.790
576.30	20.627
576.64	20.377
576.98	20.456
577.31	20.499
577.65	21.110
577.98	20.689
578.32	20.592
578.66	20.543
578.99	20.786
579.33	20.765
579.67	20.920
580.00	20.477
580.34	20.462
580.67	20.565
581.01	20.208
581.35	20.105
581.68	20.248
582.02	20.147
582.35	20.766
582.69	21.040
583.02	20.856
583.36	20.785
583.70	20.109
584.03	20.110
584.37	19.995
584.70	19.560
585.04	19.926
585.37	19.996
585.71	19.525
586.04	20.145
586.38	20.102
586.72	19.955
587.05	19.852
587.39	20.170
587.72	20.144
588.06	19.923
588.39	20.239
588.73	19.550
589.06	20.288
589.40	20.344
589.73	20.084
590.07	20.060
590.40	20.284
590.73	19.972
591.07	19.657
591.40	18.935
591.74	19.992
592.07	20.463
592.41	19.716
592.74	19.595
593.08	20.000
593.41	20.443
593.75	20.661
594.08	20.085
594.41	20.160
594.75	19.861
595.08	19.381
595.42	20.000
595.75	19.212
596.09	20.197
596.42	19.276
596.75	19.838
597.09	19.919
597.42	19.269
597.75	19.365
598.09	19.524
598.42	20.024
598.76	19.182
599.09	19.438
599.42	19.041
599.76	19.280
600.09	20.153
600.42	19.520
600.76	19.881
601.09	19.283
601.42	19.430
601.76	19.379
602.09	19.585
602.42	19.338
602.76	19.483
603.09	19.493
603.42	19.473
603.76	18.992
604.09	19.979
604.42	19.706
604.76	19.330
605.09	18.987
605.42	18.740
605.75	19.346
606.09	19.186
606.42	18.752
606.75	19.453
607.09	18.126
607.42	18.882
607.75	18.835
608.08	19.179
608.42	19.025
608.75	18.740
609.08	18.548
609.41	18.747
609.75	18.348
610.08	19.261
610.41	18.862
610.74	18.950
611.07	19.139
611.41	18.834
611.74	18.984
612.07	19.635
612.40	18.441
612.73	18.924
613.07	19.413
613.40	19.346
613.73	18.922
614.06	18.891
614.39	19.145
614.72	19.117
615.06	18.287
615.39	18.850
615.72	19.194
616.05	18.601
616.38	19.828
616.71	18.861
617.05	18.264
617.38	19.743
617.71	19.384
618.04	18.295
618.37	19.071
618.70	18.835
619.03	19.056
619.36	17.879
619.69	19.283
620.03	18.895
620.36	18.405
620.69	17.643
621.02	18.504
621.35	19.086
621.68	20.029
622.01	17.367
622.34	17.294
622.67	17.801
623.00	17.544
623.33	19.575
623.66	18.612
623.99	17.643
624.32	19.623
624.65	17.954
624.99	18.726
625.32	19.660
625.65	17.802
625.98	18.034
626.31	19.064
626.64	18.022
626.97	18.830
627.30	17.844
627.63	18.005
627.96	19.219
628.29	18.132
628.62	18.304
628.95	17.616
629.28	17.332
629.61	18.098
