SpectraSuite Data File
++++++++++++++++++++++++++++++++++++
Date: Thu May 14 14:50:12 PDT 2015
User: schluterlab
Dark Spectrum Present: Yes
Reference Spectrum Present: Yes
Number of Sampled Component Spectra: 1
Spectrometers: USB2E3373
Integration Time (usec): 3000 (USB2E3373)
Spectra Averaged: 3 (USB2E3373)
Boxcar Smoothing: 0 (USB2E3373)
Correct for Electrical Dark: No (USB2E3373)
Strobe/Lamp Enabled: No (USB2E3373)
Correct for Detector Non-linearity: No (USB2E3373)
Correct for Stray Light: No (USB2E3373)
Number of Pixels in Processed Spectrum: 2048
>>>>>Begin Processed Spectral Data<<<<<
178.53	0.000
178.91	114.286
179.29	-1000.000
179.67	-1800.000
180.04	121.429
180.42	80.000
180.80	120.000
181.18	-1100.000
181.56	300.000
181.94	50.000
182.31	-175.000
182.69	266.667
183.07	-400.000
183.45	175.000
183.83	16.667
184.20	-33.333
184.58	800.000
184.96	-300.000
185.34	-111.111
185.72	0.000
186.09	266.667
186.47	350.000
186.85	300.000
187.23	-200.000
187.61	-1300.000
187.98	260.000
188.36	325.000
188.74	-250.000
189.12	0.000
189.49	6.250
189.87	-175.000
190.25	55.556
190.63	-40.000
191.00	-155.556
191.38	0.000
191.76	-225.000
192.14	-150.000
192.51	750.000
192.89	-66.667
193.27	0.000
193.65	-128.571
194.02	-1700.000
194.40	-28.571
194.78	128.571
195.15	0.000
195.53	-27.273
195.91	0.000
196.29	50.000
196.66	38.462
197.04	-700.000
197.42	-71.429
197.79	-450.000
198.17	-87.500
198.55	-142.857
198.92	-44.444
199.30	-87.500
199.68	36.364
200.05	-28.571
200.43	-1000.000
200.81	285.714
201.18	0.000
201.56	300.000
201.94	0.000
202.31	633.333
202.69	-111.111
203.07	300.000
203.44	-33.333
203.82	-150.000
204.19	-58.333
204.57	-166.667
204.95	-75.000
205.32	-100.000
205.70	175.000
206.08	-33.333
206.45	33.333
206.83	360.000
207.20	0.000
207.58	-200.000
207.96	-300.000
208.33	50.000
208.71	125.000
209.08	-33.333
209.46	0.000
209.84	233.333
210.21	150.000
210.59	200.000
210.96	433.333
211.34	-150.000
211.71	-62.500
212.09	-800.000
212.46	0.000
212.84	650.000
213.22	-160.000
213.59	-50.000
213.97	-60.000
214.34	-366.667
214.72	300.000
215.09	-300.000
215.47	0.000
215.84	71.429
216.22	550.000
216.59	-20.000
216.97	40.000
217.34	-150.000
217.72	25.000
218.09	-200.000
218.47	-425.000
218.84	0.000
219.22	-20.000
219.59	-52.941
219.97	10.000
220.34	500.000
220.72	-222.222
221.09	0.000
221.47	-266.667
221.84	-140.000
222.22	-157.143
222.59	0.000
222.97	-25.000
223.34	-280.000
223.72	-1500.000
224.09	-50.000
224.46	-175.000
224.84	-40.000
225.21	-71.429
225.59	-300.000
225.96	-100.000
226.34	42.308
226.71	200.000
227.08	-300.000
227.46	-26.667
227.83	-225.000
228.21	-26.316
228.58	100.000
228.95	550.000
229.33	-8.333
229.70	-130.000
230.08	5.263
230.45	80.000
230.82	-100.000
231.20	14.286
231.57	-41.667
231.95	-63.636
232.32	-54.545
232.69	0.000
233.07	-250.000
233.44	11.765
233.81	0.000
234.19	16.667
234.56	-45.455
234.93	6.897
235.31	-31.579
235.68	-11.111
236.05	-60.000
236.43	-3.846
236.80	40.000
237.17	18.519
237.55	-27.273
237.92	-130.000
238.29	3.226
238.67	-4.545
239.04	-13.889
239.41	-7.143
239.79	-15.217
240.16	11.111
240.53	-4.348
240.91	-15.686
241.28	-19.672
241.65	20.896
242.02	6.757
242.40	-13.846
242.77	4.000
243.14	-3.659
243.51	-6.579
243.89	-6.410
244.26	-0.990
244.63	3.922
245.00	2.804
245.38	-0.877
245.75	-13.274
246.12	8.730
246.49	-6.202
246.87	2.143
247.24	1.987
247.61	0.658
247.98	2.013
248.36	1.235
248.73	-2.454
249.10	1.093
249.47	3.980
249.84	6.283
250.22	1.554
250.59	2.222
250.96	5.000
251.33	-0.510
251.70	5.983
252.08	5.833
252.45	2.049
252.82	1.240
253.19	3.125
253.56	3.802
253.94	-1.923
254.31	2.652
254.68	7.343
255.05	5.863
255.42	0.340
255.79	-1.294
256.16	2.980
256.54	1.987
256.91	5.574
257.28	2.951
257.65	-2.229
258.02	1.770
258.39	3.704
258.76	4.281
259.14	2.586
259.51	4.035
259.88	1.983
260.25	0.556
260.62	4.658
260.99	7.923
261.36	6.971
261.73	0.796
262.10	-0.275
262.47	2.413
262.85	5.808
263.22	-1.558
263.59	0.263
263.96	2.302
264.33	-1.279
264.70	4.938
265.07	3.103
265.44	5.896
265.81	2.778
266.18	3.175
266.55	3.795
266.92	1.595
267.29	2.845
267.66	4.656
268.03	3.057
268.40	4.802
268.77	1.367
269.14	3.084
269.51	1.974
269.88	2.459
270.25	2.817
270.62	4.219
270.99	5.455
271.36	5.545
271.73	3.536
272.10	6.413
272.47	3.808
272.84	2.209
273.21	3.006
273.58	2.419
273.95	2.692
274.32	2.662
274.69	0.387
275.06	1.832
275.43	2.773
275.80	4.233
276.17	2.593
276.54	2.612
276.91	3.041
277.28	3.617
277.65	2.513
278.02	3.493
278.39	2.174
278.76	1.054
279.13	2.128
279.50	3.952
279.87	3.578
280.23	1.056
280.60	4.746
280.97	3.947
281.34	2.547
281.71	4.230
282.08	3.322
282.45	1.800
282.82	1.256
283.19	4.685
283.56	1.475
283.92	4.054
284.29	5.213
284.66	3.777
285.03	3.205
285.40	4.019
285.77	4.025
286.14	5.038
286.51	2.740
286.87	1.422
287.24	3.464
287.61	2.691
287.98	3.474
288.35	3.107
288.72	3.254
289.08	3.807
289.45	4.290
289.82	2.861
290.19	4.885
290.56	4.507
290.93	3.852
291.29	4.545
291.66	2.893
292.03	2.849
292.40	4.490
292.77	2.156
293.13	3.383
293.50	3.417
293.87	4.027
294.24	5.067
294.60	5.942
294.97	2.282
295.34	5.250
295.71	3.405
296.08	2.842
296.44	3.309
296.81	4.385
297.18	3.487
297.55	2.830
297.91	4.152
298.28	3.318
298.65	4.637
299.02	3.542
299.38	4.691
299.75	3.855
300.12	3.588
300.48	4.724
300.85	5.399
301.22	4.586
301.59	3.995
301.95	4.859
302.32	4.667
302.69	4.272
303.05	4.897
303.42	5.211
303.79	5.833
304.15	4.627
304.52	4.123
304.89	5.445
305.25	4.658
305.62	5.120
305.99	5.670
306.35	3.931
306.72	5.067
307.09	5.279
307.45	5.590
307.82	4.339
308.19	4.036
308.55	6.461
308.92	5.453
309.29	5.460
309.65	5.068
310.02	4.653
310.38	5.118
310.75	5.437
311.12	5.849
311.48	5.572
311.85	6.078
312.22	5.693
312.58	6.385
312.95	4.876
313.31	6.504
313.68	6.502
314.05	8.311
314.41	7.195
314.78	6.449
315.14	6.897
315.51	7.756
315.87	7.291
316.24	7.123
316.61	8.259
316.97	6.335
317.34	6.526
317.70	8.035
318.07	6.878
318.43	8.418
318.80	8.612
319.16	8.498
319.53	6.684
319.89	7.187
320.26	7.829
320.62	6.915
320.99	8.126
321.35	7.024
321.72	8.930
322.08	8.025
322.45	8.672
322.81	9.928
323.18	9.204
323.54	10.603
323.91	10.053
324.27	8.348
324.64	10.327
325.00	9.784
325.37	10.319
325.73	11.157
326.10	10.868
326.46	11.401
326.83	11.769
327.19	10.472
327.56	11.542
327.92	10.858
328.29	10.081
328.65	10.804
329.01	11.929
329.38	11.879
329.74	12.243
330.11	11.301
330.47	12.300
330.84	11.456
331.20	12.667
331.56	10.485
331.93	13.054
332.29	12.712
332.66	12.791
333.02	11.307
333.38	12.416
333.75	12.037
334.11	11.593
334.48	12.129
334.84	11.895
335.20	12.678
335.57	13.238
335.93	12.562
336.29	11.814
336.66	11.859
337.02	13.043
337.38	12.500
337.75	11.157
338.11	12.111
338.47	12.821
338.84	12.014
339.20	11.373
339.56	12.026
339.93	11.823
340.29	12.641
340.65	12.571
341.02	13.408
341.38	12.773
341.74	11.784
342.11	12.148
342.47	10.961
342.83	12.963
343.20	12.020
343.56	11.868
343.92	11.769
344.28	12.734
344.65	12.403
345.01	12.480
345.37	12.675
345.73	11.224
346.10	11.934
346.46	12.263
346.82	12.434
347.19	12.681
347.55	13.429
347.91	11.441
348.27	12.064
348.63	12.414
349.00	12.304
349.36	12.788
349.72	12.426
350.08	12.481
350.45	12.091
350.81	11.614
351.17	13.158
351.53	12.813
351.89	12.528
352.26	12.388
352.62	12.239
352.98	12.061
353.34	12.248
353.70	10.940
354.07	12.519
354.43	12.528
354.79	12.191
355.15	12.215
355.51	13.596
355.87	12.939
356.24	12.928
356.60	11.899
356.96	12.676
357.32	12.491
357.68	12.445
358.04	12.500
358.40	12.761
358.77	13.012
359.13	12.334
359.49	11.747
359.85	12.473
360.21	12.482
360.57	12.850
360.93	12.835
361.29	12.351
361.66	13.324
362.02	13.431
362.38	13.282
362.74	11.802
363.10	13.274
363.46	13.643
363.82	13.281
364.18	12.738
364.54	13.555
364.90	13.244
365.26	12.276
365.62	14.400
365.98	13.479
366.35	13.691
366.71	13.469
367.07	13.058
367.43	13.263
367.79	13.802
368.15	14.916
368.51	13.938
368.87	13.521
369.23	13.133
369.59	14.003
369.95	13.793
370.31	14.045
370.67	13.549
371.03	13.643
371.39	12.895
371.75	13.618
372.11	13.889
372.47	13.812
372.83	14.136
373.19	14.543
373.55	14.566
373.91	14.860
374.27	14.683
374.63	13.938
374.99	13.926
375.35	14.935
375.71	14.129
376.07	14.396
376.42	14.358
376.78	14.543
377.14	15.908
377.50	14.611
377.86	14.717
378.22	14.611
378.58	15.636
378.94	14.378
379.30	14.821
379.66	15.226
380.02	15.695
380.38	16.071
380.74	15.437
381.09	15.273
381.45	15.909
381.81	15.808
382.17	15.974
382.53	14.854
382.89	16.027
383.25	16.178
383.61	15.278
383.97	15.842
384.32	16.208
384.68	14.849
385.04	17.004
385.40	16.912
385.76	16.940
386.12	16.457
386.48	16.765
386.83	16.865
387.19	15.701
387.55	16.549
387.91	16.838
388.27	17.956
388.62	17.010
388.98	17.033
389.34	17.560
389.70	16.793
390.06	16.874
390.42	16.988
390.77	17.339
391.13	16.608
391.49	17.633
391.85	16.424
392.20	17.794
392.56	18.015
392.92	16.739
393.28	17.689
393.64	16.872
393.99	18.768
394.35	17.874
394.71	17.186
395.07	16.108
395.42	16.905
395.78	18.647
396.14	18.063
396.50	17.696
396.85	17.174
397.21	18.521
397.57	18.257
397.92	17.698
398.28	16.350
398.64	17.334
399.00	17.068
399.35	18.168
399.71	18.750
400.07	18.248
400.42	17.695
400.78	17.535
401.14	16.847
401.49	17.965
401.85	17.442
402.21	18.424
402.57	17.840
402.92	17.730
403.28	17.681
403.63	18.138
403.99	17.696
404.35	17.396
404.70	17.450
405.06	16.902
405.42	18.033
405.77	18.375
406.13	17.990
406.49	17.793
406.84	18.172
407.20	17.608
407.55	17.747
407.91	17.976
408.27	17.491
408.62	17.743
408.98	17.528
409.34	16.833
409.69	18.541
410.05	18.875
410.40	17.807
410.76	17.162
411.11	17.884
411.47	17.998
411.83	17.931
412.18	18.735
412.54	18.554
412.89	16.938
413.25	17.664
413.60	17.346
413.96	17.949
414.31	17.677
414.67	17.949
415.03	17.169
415.38	17.150
415.74	17.838
416.09	16.471
416.45	18.096
416.80	17.075
417.16	18.455
417.51	18.244
417.87	18.455
418.22	18.503
418.58	18.216
418.93	18.510
419.29	17.386
419.64	17.287
420.00	18.042
420.35	18.417
420.71	18.208
421.06	17.884
421.42	18.578
421.77	17.609
422.12	18.922
422.48	18.331
422.83	18.401
423.19	17.878
423.54	18.695
423.90	19.050
424.25	19.200
424.61	18.427
424.96	19.605
425.31	19.161
425.67	18.680
426.02	19.424
426.38	19.116
426.73	18.917
427.09	20.185
427.44	19.006
427.79	19.956
428.15	19.178
428.50	19.270
428.85	19.116
429.21	20.000
429.56	18.806
429.92	19.558
430.27	19.325
430.62	19.345
430.98	19.479
431.33	19.795
431.68	18.726
432.04	20.010
432.39	19.925
432.74	19.977
433.10	19.686
433.45	20.011
433.80	20.011
434.16	20.919
434.51	20.092
434.86	20.684
435.22	20.351
435.57	20.696
435.92	20.256
436.28	20.648
436.63	20.481
436.98	19.914
437.34	20.462
437.69	21.134
438.04	20.465
438.39	20.735
438.75	20.863
439.10	20.772
439.45	21.297
439.81	20.678
440.16	20.214
440.51	20.903
440.86	19.622
441.22	21.115
441.57	21.122
441.92	20.757
442.27	21.212
442.63	21.113
442.98	21.932
443.33	22.514
443.68	21.903
444.03	22.107
444.39	20.943
444.74	21.082
445.09	21.186
445.44	22.023
445.79	22.126
446.15	22.045
446.50	21.137
446.85	21.449
447.20	22.099
447.55	22.594
447.91	21.571
448.26	21.723
448.61	21.148
448.96	22.371
449.31	20.944
449.66	21.405
450.02	21.466
450.37	22.323
450.72	21.905
451.07	22.665
451.42	22.184
451.77	21.679
452.12	22.291
452.47	21.509
452.83	22.016
453.18	22.008
453.53	22.343
453.88	22.529
454.23	21.808
454.58	22.171
454.93	22.269
455.28	22.878
455.63	22.172
455.98	21.899
456.34	21.790
456.69	22.516
457.04	21.927
457.39	21.785
457.74	22.819
458.09	21.966
458.44	22.360
458.79	21.661
459.14	21.919
459.49	22.354
459.84	22.298
460.19	22.710
460.54	22.544
460.89	22.181
461.24	21.782
461.59	22.302
461.94	21.620
462.29	23.012
462.64	22.812
462.99	21.971
463.34	22.323
463.69	22.274
464.04	22.513
464.39	22.758
464.74	22.577
465.09	22.261
465.44	22.371
465.79	22.475
466.14	22.512
466.49	23.211
466.84	22.534
467.19	23.064
467.54	21.915
467.89	21.782
468.24	22.382
468.59	22.409
468.94	22.319
469.29	22.256
469.64	22.250
469.99	22.180
470.34	22.030
470.68	23.513
471.03	22.855
471.38	23.022
471.73	22.822
472.08	22.652
472.43	22.637
472.78	23.678
473.13	22.946
473.48	22.961
473.83	23.506
474.17	22.392
474.52	22.790
474.87	23.090
475.22	22.873
475.57	22.170
475.92	22.051
476.27	22.364
476.61	22.690
476.96	22.315
477.31	22.970
477.66	22.665
478.01	22.369
478.36	23.180
478.70	22.315
479.05	23.108
479.40	23.001
479.75	22.622
480.10	23.164
480.45	21.741
480.79	22.449
481.14	22.932
481.49	21.627
481.84	22.237
482.19	22.581
482.53	22.693
482.88	22.153
483.23	22.899
483.58	22.140
483.92	22.030
484.27	22.312
484.62	21.741
484.97	21.928
485.31	21.612
485.66	20.686
486.01	20.609
486.36	21.078
486.70	22.110
487.05	22.900
487.40	22.591
487.75	22.290
488.09	22.570
488.44	21.979
488.79	21.889
489.13	22.194
489.48	22.097
489.83	22.012
490.17	22.479
490.52	21.962
490.87	22.081
491.22	22.227
491.56	23.038
491.91	22.939
492.26	22.674
492.60	22.519
492.95	22.290
493.30	22.053
493.64	23.084
493.99	22.544
494.34	21.951
494.68	22.741
495.03	23.348
495.37	22.592
495.72	22.222
496.07	22.349
496.41	21.622
496.76	22.394
497.11	23.057
497.45	22.184
497.80	22.701
498.14	22.132
498.49	22.289
498.84	22.441
499.18	22.582
499.53	22.422
499.87	22.505
500.22	21.906
500.56	22.222
500.91	22.243
501.26	22.864
501.60	22.006
501.95	22.102
502.29	22.027
502.64	23.000
502.98	22.261
503.33	21.771
503.67	22.285
504.02	21.804
504.36	23.146
504.71	22.416
505.06	22.692
505.40	22.212
505.75	23.133
506.09	22.790
506.44	22.516
506.78	22.798
507.13	22.960
507.47	23.164
507.82	23.485
508.16	22.753
508.51	21.988
508.85	23.051
509.19	22.833
509.54	23.919
509.88	22.972
510.23	22.875
510.57	23.683
510.92	23.367
511.26	21.789
511.61	21.777
511.95	22.304
512.30	22.797
512.64	23.038
512.98	22.861
513.33	23.437
513.67	23.406
514.02	23.454
514.36	22.967
514.70	23.177
515.05	22.419
515.39	22.677
515.74	23.701
516.08	23.930
516.42	22.763
516.77	22.976
517.11	23.002
517.46	23.860
517.80	23.303
518.14	23.721
518.49	23.265
518.83	22.938
519.17	22.509
519.52	22.589
519.86	22.545
520.20	23.323
520.55	23.111
520.89	22.691
521.23	22.725
521.58	23.729
521.92	22.890
522.26	23.024
522.61	23.206
522.95	22.837
523.29	22.989
523.64	23.487
523.98	23.446
524.32	24.355
524.66	23.449
525.01	22.650
525.35	22.516
525.69	22.680
526.04	21.757
526.38	23.333
526.72	23.183
527.06	23.460
527.41	23.440
527.75	22.862
528.09	23.081
528.43	23.031
528.78	22.717
529.12	22.248
529.46	23.272
529.80	22.998
530.15	23.014
530.49	22.064
530.83	23.436
531.17	22.401
531.51	22.684
531.86	23.738
532.20	23.659
532.54	22.861
532.88	22.364
533.22	23.217
533.57	21.754
533.91	22.727
534.25	22.951
534.59	22.069
534.93	21.619
535.27	22.310
535.62	22.854
535.96	22.603
536.30	22.033
536.64	22.583
536.98	22.694
537.32	22.284
537.66	23.768
538.01	21.511
538.35	21.742
538.69	22.596
539.03	22.563
539.37	22.379
539.71	21.802
540.05	22.422
540.39	21.210
540.73	21.554
541.07	21.582
541.42	21.796
541.76	22.539
542.10	21.954
542.44	20.889
542.78	21.107
543.12	21.752
543.46	21.612
543.80	21.283
544.14	21.963
544.48	22.459
544.82	22.801
545.16	22.004
545.50	21.630
545.84	22.413
546.18	21.852
546.52	21.338
546.86	21.384
547.20	22.010
547.54	21.223
547.88	21.278
548.22	20.760
548.56	21.592
548.90	21.791
549.24	21.581
549.58	21.514
549.92	20.791
550.26	21.812
550.60	22.017
550.94	21.992
551.28	21.782
551.62	22.102
551.96	21.683
552.30	21.989
552.64	21.842
552.98	21.085
553.32	21.994
553.66	21.479
554.00	20.933
554.34	21.429
554.68	21.110
555.02	20.828
555.36	21.696
555.69	20.436
556.03	21.438
556.37	21.715
556.71	21.623
557.05	22.045
557.39	21.433
557.73	21.334
558.07	20.927
558.41	21.063
558.75	21.095
559.08	20.807
559.42	20.233
559.76	22.795
560.10	21.031
560.44	20.910
560.78	21.062
561.12	21.367
561.45	22.080
561.79	21.673
562.13	21.195
562.47	19.790
562.81	20.886
563.15	21.023
563.48	21.380
563.82	21.161
564.16	19.443
564.50	21.097
564.84	20.590
565.17	20.000
565.51	20.081
565.85	20.903
566.19	20.449
566.52	20.480
566.86	21.053
567.20	19.576
567.54	20.340
567.88	20.234
568.21	20.702
568.55	19.856
568.89	20.154
569.23	19.941
569.56	19.695
569.90	19.636
570.24	19.157
570.57	19.436
570.91	18.585
571.25	18.889
571.59	19.733
571.92	18.790
572.26	18.714
572.60	18.974
572.93	18.898
573.27	18.488
573.61	18.555
573.95	18.937
574.28	18.897
574.62	18.463
574.96	18.461
575.29	18.176
575.63	18.272
575.97	19.018
576.30	18.085
576.64	18.230
576.98	18.519
577.31	18.703
577.65	18.201
577.98	18.355
578.32	17.853
578.66	18.149
578.99	18.308
579.33	18.453
579.67	18.608
580.00	18.049
580.34	18.325
580.67	18.160
581.01	18.023
581.35	18.352
581.68	17.657
582.02	17.785
582.35	18.448
582.69	18.354
583.02	18.389
583.36	18.649
583.70	18.564
584.03	18.311
584.37	18.366
584.70	18.044
585.04	17.880
585.37	18.184
585.71	18.252
586.04	18.054
586.38	18.292
586.72	18.250
587.05	17.933
587.39	18.449
587.72	18.541
588.06	17.819
588.39	18.297
588.73	18.228
589.06	18.595
589.40	18.623
589.73	18.573
590.07	18.435
590.40	19.135
590.73	18.628
591.07	19.322
591.40	18.935
591.74	18.203
592.07	18.798
592.41	18.297
592.74	18.495
593.08	18.280
593.41	18.139
593.75	18.333
594.08	18.055
594.41	18.397
594.75	18.665
595.08	17.833
595.42	18.377
595.75	18.696
596.09	18.706
596.42	18.524
596.75	18.410
597.09	18.182
597.42	18.117
597.75	18.463
598.09	18.651
598.42	18.215
598.76	17.654
599.09	18.441
599.42	17.633
599.76	17.762
600.09	18.452
600.42	18.252
600.76	18.098
601.09	17.989
601.42	17.954
601.76	18.621
602.09	17.477
602.42	17.957
602.76	18.044
603.09	17.988
603.42	18.497
603.76	17.829
604.09	18.559
604.42	17.982
604.76	18.645
605.09	18.668
605.42	18.820
605.75	18.269
606.09	17.842
606.42	17.621
606.75	17.504
607.09	17.588
607.42	18.651
607.75	18.054
608.08	17.719
608.42	18.218
608.75	18.118
609.08	17.190
609.41	18.747
609.75	18.170
610.08	18.382
610.41	17.460
610.74	17.437
611.07	18.339
611.41	18.565
611.74	18.152
612.07	18.233
612.40	17.966
612.73	18.240
613.07	18.240
613.40	18.335
613.73	18.296
614.06	18.400
614.39	18.027
614.72	17.807
615.06	18.576
615.39	17.496
615.72	17.678
616.05	17.727
616.38	17.962
616.71	18.130
617.05	17.678
617.38	18.406
617.71	17.873
618.04	18.295
618.37	18.306
618.70	18.100
619.03	18.280
619.36	18.557
619.69	18.258
620.03	18.205
620.36	17.914
620.69	17.643
621.02	18.504
621.35	19.811
621.68	18.872
622.01	18.078
622.34	17.713
622.67	18.969
623.00	17.611
623.33	18.248
623.66	18.029
623.99	17.512
624.32	19.298
624.65	18.147
624.99	18.726
625.32	18.615
625.65	18.409
625.98	18.305
626.31	18.639
626.64	18.168
626.97	18.155
627.30	17.160
627.63	18.080
627.96	19.069
628.29	19.144
628.62	18.976
628.95	18.230
629.28	18.182
629.61	18.013
629.94	18.243
630.26	18.136
630.59	18.739
630.92	17.056
631.25	20.215
631.58	20.056
631.91	19.025
632.24	18.636
632.57	17.837
632.90	19.458
633.23	19.286
633.56	17.755
633.89	18.285
634.22	19.647
634.55	18.998
634.88	18.939
635.20	19.268
635.53	19.096
635.86	18.310
636.19	19.300
636.52	18.776
636.85	17.978
637.18	18.399
637.51	18.172
