SpectraSuite Data File
++++++++++++++++++++++++++++++++++++
Date: Thu May 14 14:49:54 PDT 2015
User: schluterlab
Dark Spectrum Present: Yes
Reference Spectrum Present: Yes
Number of Sampled Component Spectra: 1
Spectrometers: USB2E3373
Integration Time (usec): 3000 (USB2E3373)
Spectra Averaged: 3 (USB2E3373)
Boxcar Smoothing: 0 (USB2E3373)
Correct for Electrical Dark: No (USB2E3373)
Strobe/Lamp Enabled: No (USB2E3373)
Correct for Detector Non-linearity: No (USB2E3373)
Correct for Stray Light: No (USB2E3373)
Number of Pixels in Processed Spectrum: 2048
>>>>>Begin Processed Spectral Data<<<<<
178.53	0.000
178.91	57.143
179.29	-1400.000
179.67	-1100.000
180.04	200.000
180.42	20.000
180.80	140.000
181.18	-1300.000
181.56	0.000
181.94	75.000
182.31	-50.000
182.69	66.667
183.07	-150.000
183.45	125.000
183.83	-50.000
184.20	-333.333
184.58	400.000
184.96	-150.000
185.34	-44.444
185.72	-100.000
186.09	188.889
186.47	550.000
186.85	340.000
187.23	-11.111
187.61	-1600.000
187.98	180.000
188.36	200.000
188.74	-150.000
189.12	-200.000
189.49	-31.250
189.87	-162.500
190.25	44.444
190.63	-40.000
191.00	-133.333
191.38	0.000
191.76	-225.000
192.14	-133.333
192.51	150.000
192.89	0.000
193.27	0.000
193.65	-71.429
194.02	-1500.000
194.40	-142.857
194.78	57.143
195.15	0.000
195.53	-54.545
195.91	0.000
196.29	0.000
196.66	-46.154
197.04	-800.000
197.42	-85.714
197.79	-350.000
198.17	-150.000
198.55	-228.571
198.92	0.000
199.30	-225.000
199.68	-72.727
200.05	-28.571
200.43	-650.000
200.81	57.143
201.18	0.000
201.56	155.556
201.94	0.000
202.31	266.667
202.69	-33.333
203.07	100.000
203.44	-100.000
203.82	-250.000
204.19	-91.667
204.57	-216.667
204.95	-150.000
205.32	-200.000
205.70	175.000
206.08	-66.667
206.45	-150.000
206.83	360.000
207.20	-66.667
207.58	-380.000
207.96	-266.667
208.33	-50.000
208.71	83.333
209.08	83.333
209.46	0.000
209.84	416.667
210.21	400.000
210.59	550.000
210.96	533.333
211.34	-125.000
211.71	-62.500
212.09	-1900.000
212.46	0.000
212.84	900.000
213.22	-120.000
213.59	-275.000
213.97	10.000
214.34	-133.333
214.72	200.000
215.09	-200.000
215.47	0.000
215.84	-28.571
216.22	950.000
216.59	20.000
216.97	-100.000
217.34	-175.000
217.72	12.500
218.09	-100.000
218.47	-300.000
218.84	0.000
219.22	140.000
219.59	-17.647
219.97	-25.000
220.34	300.000
220.72	-77.778
221.09	-23.077
221.47	0.000
221.84	-30.000
222.22	-42.857
222.59	0.000
222.97	-12.500
223.34	-340.000
223.72	-900.000
224.09	-300.000
224.46	-300.000
224.84	-40.000
225.21	-200.000
225.59	-225.000
225.96	-275.000
226.34	-3.846
226.71	333.333
227.08	-800.000
227.46	-40.000
227.83	-250.000
228.21	10.526
228.58	212.500
228.95	450.000
229.33	58.333
229.70	-50.000
230.08	15.789
230.45	180.000
230.82	-300.000
231.20	21.429
231.57	-91.667
231.95	-127.273
232.32	0.000
232.69	5.000
233.07	25.000
233.44	-17.647
233.81	-110.000
234.19	-11.111
234.56	-18.182
234.93	6.897
235.31	-47.368
235.68	5.556
236.05	-75.000
236.43	7.692
236.80	40.000
237.17	22.222
237.55	3.030
237.92	-50.000
238.29	-16.129
238.67	-18.182
239.04	-19.444
239.41	-7.143
239.79	-8.696
240.16	3.704
240.53	-17.391
240.91	-25.490
241.28	-9.836
241.65	7.463
242.02	4.054
242.40	-4.615
242.77	-6.667
243.14	-13.415
243.51	-21.053
243.89	-16.667
244.26	0.000
244.63	0.980
245.00	-5.607
245.38	-0.877
245.75	-14.159
246.12	-0.794
246.49	-3.876
246.87	4.286
247.24	-2.649
247.61	-2.632
247.98	-7.383
248.36	0.000
248.73	-8.589
249.10	-2.732
249.47	1.990
249.84	4.188
250.22	-7.772
250.59	-3.333
250.96	-1.364
251.33	-4.592
251.70	-4.274
252.08	-2.083
252.45	2.869
252.82	0.826
253.19	-1.172
253.56	-3.042
253.94	-4.615
254.31	-0.379
254.68	0.350
255.05	4.560
255.42	-2.381
255.79	-2.913
256.16	-2.980
256.54	-2.980
256.91	2.295
257.28	-0.984
257.65	-4.459
258.02	-2.655
258.39	0.000
258.76	3.058
259.14	0.287
259.51	-1.441
259.88	-3.683
260.25	-1.389
260.62	1.096
260.99	2.459
261.36	2.681
261.73	0.000
262.10	-0.549
262.47	-1.877
262.85	2.020
263.22	-2.078
263.59	-3.421
263.96	-0.256
264.33	-2.558
264.70	2.222
265.07	4.057
265.44	2.721
265.81	-1.620
266.18	2.494
266.55	-0.893
266.92	-2.506
267.29	2.407
267.66	1.109
268.03	-0.655
268.40	1.670
268.77	-3.645
269.14	-1.101
269.51	0.439
269.88	1.639
270.25	-1.207
270.62	1.688
270.99	2.424
271.36	-0.990
271.73	0.786
272.10	1.403
272.47	-2.405
272.84	0.201
273.21	-1.002
273.58	-0.202
273.95	0.385
274.32	-0.760
274.69	-1.547
275.06	0.549
275.43	-1.848
275.80	1.058
276.17	-0.556
276.54	-1.119
276.91	-2.504
277.28	0.181
277.65	3.232
278.02	1.103
278.39	-1.812
278.76	-0.879
279.13	0.355
279.50	1.718
279.87	-0.894
280.23	-1.761
280.60	1.356
280.97	0.329
281.34	-0.849
281.71	1.861
282.08	0.000
282.45	-0.327
282.82	-0.157
283.19	-2.423
283.56	-0.984
283.92	1.351
284.29	1.264
284.66	2.299
285.03	-1.122
285.40	0.927
285.77	-0.774
286.14	1.374
286.51	0.609
286.87	-0.790
287.24	0.151
287.61	0.448
287.98	-0.906
288.35	-1.036
288.72	-1.331
289.08	0.439
289.45	-0.888
289.82	0.000
290.19	0.144
290.56	0.141
290.93	-0.285
291.29	-0.551
291.66	-0.689
292.03	-0.407
292.40	1.224
292.77	-0.270
293.13	0.677
293.50	-1.183
293.87	-0.537
294.24	1.067
294.60	-0.379
294.97	-1.477
295.34	-0.768
295.71	0.631
296.08	0.258
296.44	-0.368
296.81	0.609
297.18	0.125
297.55	-0.590
297.91	0.237
298.28	-2.251
298.65	-0.357
299.02	-0.472
299.38	0.801
299.75	-0.584
300.12	-0.347
300.48	-1.382
300.85	0.562
301.22	1.454
301.59	-0.114
301.95	0.565
302.32	0.556
302.69	0.329
303.05	1.415
303.42	-0.443
303.79	0.417
304.15	-0.105
304.52	-0.846
304.89	1.152
305.25	0.621
305.62	0.000
305.99	0.515
306.35	-0.504
306.72	0.414
307.09	-0.508
307.45	0.518
307.82	0.505
308.19	0.101
308.55	1.254
308.92	0.389
309.29	0.287
309.65	-0.682
310.02	0.000
310.38	-0.098
310.75	0.777
311.12	0.767
311.48	-0.293
311.85	-0.095
312.22	0.285
312.58	0.094
312.95	-0.096
313.31	0.090
313.68	1.190
314.05	0.723
314.41	0.820
314.78	-0.182
315.14	0.907
315.51	1.108
315.87	0.990
316.24	0.913
316.61	1.243
316.97	-1.086
317.34	0.265
317.70	1.485
318.07	0.088
318.43	1.105
318.80	2.508
319.16	0.000
319.53	-0.171
319.89	-0.613
320.26	1.601
320.62	-0.177
320.99	1.016
321.35	1.479
321.72	2.047
322.08	-0.902
322.45	0.361
322.81	1.264
323.18	-0.088
323.54	0.431
323.91	0.623
324.27	1.635
324.64	2.351
325.00	0.249
325.37	1.638
325.73	1.240
326.10	1.784
326.46	1.792
326.83	1.922
327.19	1.024
327.56	2.134
327.92	1.888
328.29	0.806
328.65	0.419
329.01	0.677
329.38	2.106
329.74	1.712
330.11	2.140
330.47	0.421
330.84	1.120
331.20	2.250
331.56	0.347
331.93	1.423
332.29	1.441
332.66	1.744
333.02	2.345
333.38	1.426
333.75	1.431
334.11	1.084
334.48	2.558
334.84	2.549
335.20	1.847
335.57	1.180
335.93	2.231
336.29	1.664
336.66	1.430
337.02	1.338
337.38	2.466
337.75	0.909
338.11	1.934
338.47	1.075
338.84	1.692
339.20	0.674
339.56	1.730
339.93	1.888
340.29	2.093
340.65	0.892
341.02	2.155
341.38	2.344
341.74	1.372
342.11	2.011
342.47	1.350
342.83	1.369
343.20	2.044
343.56	1.443
343.92	2.002
344.28	2.500
344.65	1.705
345.01	1.482
345.37	2.799
345.73	1.091
346.10	2.418
346.46	0.949
346.82	2.397
347.19	2.445
347.55	2.656
347.91	1.783
348.27	1.214
348.63	2.209
349.00	2.237
349.36	1.933
349.72	1.190
350.08	2.229
350.45	1.521
350.81	2.338
351.17	1.955
351.53	1.440
351.89	1.746
352.26	1.791
352.62	1.343
352.98	1.221
353.34	0.896
353.70	1.233
354.07	1.863
354.43	1.746
354.79	1.870
355.15	2.355
355.51	2.924
355.87	1.047
356.24	1.901
356.60	0.961
356.96	1.631
357.32	1.561
357.68	1.318
358.04	0.898
358.40	1.493
358.77	2.339
359.13	1.108
359.49	0.074
359.85	1.958
360.21	2.224
360.57	0.790
360.93	1.199
361.29	1.895
361.66	1.303
362.02	2.784
362.38	2.249
362.74	0.698
363.10	1.582
363.46	1.801
363.82	1.278
364.18	1.407
364.54	1.660
364.90	1.070
365.26	1.034
365.62	2.000
365.98	1.770
366.35	1.544
366.71	1.633
367.07	2.368
367.43	2.889
367.79	1.924
368.15	2.007
368.51	2.436
368.87	1.829
369.23	1.733
369.59	2.049
369.95	2.028
370.31	1.823
370.67	1.651
371.03	1.731
371.39	1.612
371.75	1.719
372.11	2.575
372.47	1.963
372.83	2.291
373.19	1.601
373.55	2.304
373.91	0.613
374.27	1.682
374.63	1.556
374.99	1.658
375.35	1.688
375.71	1.419
376.07	1.872
376.42	1.889
376.78	1.616
377.14	2.308
377.50	0.822
377.86	2.340
378.22	2.216
378.58	1.843
378.94	1.350
379.30	2.168
379.66	2.293
380.02	2.193
380.38	2.247
380.74	2.254
381.09	1.974
381.45	2.216
381.81	1.522
382.17	2.316
382.53	2.105
382.89	2.314
383.25	1.700
383.61	1.215
383.97	1.649
384.32	2.033
384.68	1.276
385.04	3.065
385.40	2.180
385.76	2.345
386.12	1.915
386.48	3.059
386.83	2.563
387.19	2.317
387.55	1.585
387.91	2.169
388.27	2.771
388.62	2.864
388.98	3.215
389.34	2.711
389.70	2.440
390.06	2.546
390.42	2.349
390.77	3.311
391.13	2.817
391.49	3.019
391.85	2.545
392.20	2.610
392.56	3.603
392.92	3.217
393.28	3.317
393.64	2.626
393.99	2.440
394.35	3.271
394.71	3.713
395.07	2.455
395.42	2.513
395.78	3.839
396.14	3.506
396.50	2.850
396.85	3.041
397.21	2.840
397.57	2.886
397.92	3.036
398.28	2.390
398.64	3.547
399.00	3.037
399.35	3.508
399.71	3.261
400.07	3.032
400.42	2.794
400.78	2.951
401.14	2.960
401.49	3.184
401.85	2.733
402.21	3.708
402.57	3.345
402.92	3.723
403.28	2.986
403.63	2.387
403.99	2.969
404.35	3.354
404.70	3.286
405.06	3.478
405.42	3.044
405.77	3.162
406.13	2.863
406.49	2.872
406.84	4.044
407.20	3.354
407.55	2.423
407.91	2.514
408.27	3.828
408.62	2.967
408.98	3.366
409.34	2.639
409.69	3.585
410.05	3.634
410.40	3.016
410.76	3.029
411.11	3.974
411.47	3.317
411.83	3.586
412.18	3.313
412.54	3.794
412.89	3.318
413.25	3.217
413.60	3.331
413.96	2.972
414.31	3.173
414.67	3.578
415.03	3.446
415.38	3.090
415.74	2.505
416.09	2.899
416.45	2.192
416.80	3.488
417.16	3.321
417.51	3.425
417.87	3.617
418.22	3.533
418.58	3.532
418.93	4.366
419.29	3.268
419.64	2.941
420.00	2.611
420.35	3.088
420.71	3.044
421.06	2.473
421.42	2.466
421.77	3.500
422.12	3.436
422.48	2.714
422.83	3.669
423.19	2.865
423.54	3.319
423.90	3.258
424.25	3.520
424.61	3.330
424.96	3.789
425.31	3.662
425.67	2.469
426.02	2.601
426.38	3.100
426.73	2.902
427.09	4.037
427.44	3.878
427.79	3.206
428.15	2.740
428.50	3.146
428.85	2.755
429.21	4.149
429.56	2.962
429.92	3.342
430.27	3.759
430.62	3.664
430.98	3.492
431.33	3.177
431.68	2.874
432.04	3.403
432.39	3.053
432.74	2.911
433.10	3.245
433.45	2.007
433.80	3.594
434.16	3.926
434.51	3.392
434.86	3.040
435.22	2.922
435.57	3.420
435.92	3.005
436.28	3.129
436.63	3.004
436.98	3.489
437.34	3.100
437.69	3.082
438.04	3.279
438.39	3.389
438.75	2.988
439.10	3.964
439.45	2.851
439.81	3.051
440.16	3.324
440.51	3.790
440.86	3.224
441.22	3.430
441.57	3.040
441.92	3.637
442.27	3.333
442.63	3.328
442.98	3.682
443.33	3.419
443.68	3.865
444.03	3.810
444.39	4.346
444.74	3.828
445.09	3.903
445.44	3.372
445.79	4.023
446.15	3.392
446.50	2.946
446.85	3.988
447.20	4.014
447.55	3.609
447.91	3.351
448.26	3.647
448.61	3.613
448.96	4.185
449.31	4.136
449.66	3.105
450.02	3.376
450.37	4.635
450.72	3.068
451.07	3.645
451.42	3.928
451.77	3.113
452.12	3.837
452.47	3.090
452.83	3.716
453.18	4.145
453.53	3.331
453.88	3.700
454.23	3.785
454.58	3.772
454.93	3.277
455.28	3.612
455.63	3.923
455.98	4.469
456.34	3.710
456.69	3.351
457.04	3.783
457.39	2.993
457.74	4.195
458.09	3.569
458.44	3.233
458.79	3.352
459.14	3.618
459.49	4.018
459.84	3.305
460.19	3.165
460.54	3.918
460.89	3.388
461.24	2.989
461.59	4.372
461.94	3.537
462.29	3.807
462.64	3.440
462.99	4.143
463.34	3.764
463.69	3.927
464.04	4.002
464.39	3.587
464.74	3.250
465.09	2.941
465.44	3.702
465.79	3.913
466.14	3.804
466.49	3.368
466.84	4.077
467.19	3.584
467.54	3.349
467.89	3.448
468.24	4.266
468.59	2.895
468.94	2.972
469.29	2.819
469.64	3.624
469.99	3.314
470.34	3.218
470.68	3.418
471.03	3.995
471.38	3.597
471.73	2.666
472.08	3.109
472.43	3.010
472.78	3.212
473.13	4.046
473.48	3.323
473.83	3.540
474.17	3.693
474.52	3.247
474.87	3.876
475.22	3.493
475.57	3.271
475.92	3.385
476.27	3.461
476.61	3.427
476.96	2.972
477.31	3.663
477.66	3.358
478.01	3.406
478.36	3.639
478.70	3.744
479.05	3.579
479.40	3.455
479.75	3.939
480.10	3.884
480.45	3.783
480.79	4.127
481.14	3.768
481.49	3.362
481.84	3.873
482.19	3.742
482.53	3.279
482.88	3.589
483.23	3.779
483.58	3.624
483.92	3.236
484.27	4.107
484.62	4.043
484.97	4.121
485.31	3.766
485.66	3.781
486.01	3.675
486.36	3.720
486.70	3.789
487.05	3.922
487.40	4.156
487.75	4.122
488.09	3.832
488.44	3.977
488.79	3.912
489.13	4.019
489.48	3.456
489.83	3.823
490.17	3.605
490.52	4.064
490.87	4.272
491.22	3.423
491.56	3.968
491.91	3.489
492.26	3.592
492.60	3.498
492.95	3.466
493.30	4.079
493.64	4.336
493.99	3.553
494.34	3.789
494.68	3.469
495.03	4.141
495.37	3.773
495.72	3.991
496.07	3.856
496.41	3.561
496.76	4.379
497.11	3.822
497.45	3.539
497.80	4.176
498.14	4.036
498.49	3.906
498.84	3.611
499.18	4.229
499.53	3.767
499.87	3.912
500.22	3.473
500.56	2.969
500.91	3.661
501.26	4.182
501.60	3.358
501.95	4.082
502.29	3.905
502.64	4.198
502.98	4.098
503.33	4.104
503.67	3.620
504.02	3.853
504.36	3.932
504.71	3.629
505.06	4.366
505.40	3.336
505.75	3.780
506.09	4.236
506.44	3.621
506.78	4.037
507.13	4.288
507.47	4.216
507.82	3.930
508.16	3.489
508.51	3.469
508.85	3.401
509.19	3.790
509.54	4.563
509.88	3.934
510.23	4.565
510.57	4.302
510.92	3.774
511.26	3.896
511.61	3.959
511.95	4.344
512.30	4.431
512.64	4.098
512.98	3.902
513.33	4.385
513.67	3.825
514.02	3.730
514.36	3.632
514.70	4.323
515.05	3.650
515.39	4.147
515.74	3.924
516.08	3.803
516.42	4.291
516.77	3.785
517.11	3.920
517.46	3.924
517.80	4.169
518.14	5.060
518.49	4.393
518.83	4.524
519.17	3.770
519.52	4.822
519.86	4.277
520.20	4.207
520.55	4.162
520.89	3.773
521.23	4.076
521.58	3.785
521.92	3.909
522.26	3.379
522.61	3.993
522.95	4.210
523.29	3.908
523.64	4.652
523.98	4.564
524.32	5.272
524.66	4.041
525.01	4.077
525.35	4.193
525.69	3.596
526.04	4.133
526.38	3.793
526.72	4.787
527.06	4.282
527.41	4.373
527.75	5.048
528.09	4.368
528.43	3.908
528.78	3.468
529.12	3.842
529.46	3.485
529.80	4.119
530.15	4.116
530.49	3.381
530.83	4.604
531.17	3.524
531.51	4.392
531.86	4.928
532.20	4.695
532.54	3.950
532.88	4.303
533.22	4.714
533.57	4.155
533.91	4.826
534.25	4.579
534.59	4.080
534.93	4.018
535.27	4.113
535.62	5.344
535.96	4.881
536.30	4.700
536.64	5.526
536.98	4.551
537.32	4.753
537.66	4.679
538.01	3.746
538.35	4.263
538.69	4.567
539.03	4.353
539.37	3.946
539.71	4.204
540.05	4.916
540.39	4.156
540.73	4.250
541.07	4.721
541.42	4.371
541.76	3.796
542.10	4.765
542.44	3.837
542.78	4.927
543.12	4.291
543.46	4.212
543.80	3.837
544.14	3.830
544.48	4.433
544.82	4.728
545.16	5.069
545.50	4.793
545.84	3.491
546.18	5.679
546.52	3.694
546.86	4.277
547.20	4.707
547.54	3.995
547.88	3.617
548.22	5.146
548.56	4.213
548.90	4.657
549.24	4.924
549.58	4.164
549.92	4.783
550.26	4.466
550.60	4.786
550.94	4.981
551.28	4.422
551.62	4.919
551.96	4.660
552.30	4.971
552.64	4.418
552.98	4.304
553.32	4.437
553.66	3.666
554.00	4.414
554.34	4.054
554.68	4.648
555.02	4.271
555.36	4.997
555.69	4.100
556.03	4.666
556.37	4.881
556.71	3.868
557.05	5.367
557.39	4.180
557.73	3.831
558.07	4.305
558.41	4.784
558.75	5.003
559.08	4.523
559.42	4.527
559.76	5.427
560.10	4.421
560.44	4.156
560.78	4.938
561.12	4.618
561.45	5.109
561.79	4.090
562.13	5.052
562.47	4.254
562.81	4.684
563.15	4.040
563.48	4.599
563.82	4.655
564.16	4.300
564.50	4.529
564.84	5.015
565.17	4.706
565.51	3.740
565.85	3.979
566.19	4.781
566.52	4.330
566.86	4.527
567.20	4.405
567.54	4.036
567.88	5.046
568.21	5.040
568.55	4.269
568.89	4.812
569.23	5.027
569.56	4.728
569.90	4.775
570.24	4.924
570.57	4.682
570.91	4.623
571.25	4.831
571.59	4.815
571.92	5.037
572.26	4.976
572.60	4.723
572.93	5.093
573.27	4.580
573.61	5.188
573.95	4.686
574.28	4.835
574.62	4.388
574.96	4.632
575.29	4.671
575.63	5.036
575.97	5.317
576.30	4.836
576.64	4.701
576.98	4.647
577.31	4.884
577.65	4.849
577.98	4.593
578.32	4.688
578.66	4.749
578.99	4.546
579.33	4.735
579.67	4.669
580.00	4.383
580.34	5.061
580.67	4.854
581.01	4.608
581.35	4.734
581.68	4.614
582.02	4.853
582.35	4.538
582.69	4.721
583.02	4.597
583.36	4.724
583.70	4.840
584.03	4.512
584.37	5.060
584.70	4.548
585.04	4.232
585.37	4.640
585.71	5.027
586.04	4.822
586.38	4.643
586.72	4.738
587.05	4.349
587.39	4.587
587.72	4.617
588.06	4.981
588.39	4.780
588.73	4.683
589.06	4.938
589.40	4.610
589.73	4.788
590.07	5.239
590.40	5.037
590.73	4.949
591.07	4.877
591.40	4.977
591.74	4.769
592.07	4.994
592.41	4.535
592.74	4.970
593.08	4.809
593.41	5.133
593.75	4.914
594.08	4.756
594.41	5.032
594.75	4.949
595.08	4.273
595.42	4.903
595.75	4.908
596.09	4.812
596.42	4.729
596.75	5.403
597.09	4.646
597.42	4.688
597.75	4.861
598.09	4.921
598.42	4.785
598.76	4.318
599.09	4.735
599.42	5.096
599.76	4.919
600.09	5.038
600.42	4.671
600.76	4.590
601.09	5.012
601.42	4.772
601.76	4.966
602.09	4.861
602.42	4.617
602.76	5.092
603.09	4.846
603.42	4.949
603.76	4.545
604.09	5.358
604.42	5.028
604.76	4.376
605.09	5.185
605.42	5.303
605.75	5.192
606.09	4.517
606.42	4.779
606.75	4.610
607.09	4.608
607.42	5.087
607.75	4.533
608.08	4.301
608.42	5.280
608.75	4.809
609.08	5.093
609.41	4.323
609.75	4.688
610.08	4.837
610.41	4.970
610.74	4.664
611.07	4.796
611.41	4.350
611.74	5.450
612.07	5.189
612.40	4.135
612.73	4.499
613.07	4.743
613.40	4.379
613.73	4.381
614.06	4.514
614.39	4.568
614.72	4.803
615.06	4.379
615.39	4.205
615.72	4.550
616.05	4.468
616.38	4.541
616.71	5.068
617.05	4.739
617.38	5.297
617.71	5.508
618.04	4.803
618.37	5.191
618.70	4.525
619.03	3.943
619.36	4.994
619.69	4.933
620.03	4.896
620.36	3.804
620.69	4.874
621.02	5.118
621.35	4.935
621.68	4.917
622.01	5.267
622.34	4.184
622.67	4.192
623.00	3.711
623.33	4.778
623.66	5.383
623.99	4.477
624.32	5.978
624.65	3.925
624.99	4.941
625.32	4.899
625.65	4.181
625.98	4.407
626.31	3.898
626.64	5.348
626.97	4.876
627.30	3.569
627.63	4.651
627.96	5.255
628.29	5.058
628.62	2.603
628.95	4.557
629.28	3.738
629.61	4.209
629.94	3.682
630.26	3.644
630.59	3.972
630.92	4.675
631.25	4.741
631.58	5.461
631.91	4.405
632.24	5.091
632.57	5.028
632.90	3.611
633.23	4.082
633.56	3.776
633.89	3.409
634.22	4.262
634.55	4.280
634.88	3.680
635.20	4.844
635.53	2.147
635.86	4.550
636.19	6.257
636.52	6.329
636.85	3.677
637.18	4.470
637.51	4.624
637.83	5.094
638.16	4.608
638.49	3.873
638.82	4.735
639.15	2.864
639.48	3.926
639.81	5.312
640.13	4.240
640.46	3.152
640.79	2.941
641.12	3.354
641.45	4.517
641.77	5.777
642.10	3.150
642.43	4.787
642.76	3.794
643.09	4.658
643.41	2.661
643.74	3.586
644.07	5.655
644.40	2.405
644.73	3.048
645.05	2.790
645.38	3.022
645.71	3.519
646.04	5.882
646.36	3.650
646.69	4.601
647.02	3.364
647.35	6.412
647.67	5.475
648.00	2.707
648.33	4.054
648.66	3.424
648.98	3.129
649.31	3.518
649.64	5.046
649.96	5.305
650.29	2.225
650.62	4.243
650.94	3.003
651.27	3.593
651.60	3.947
651.92	4.407
652.25	4.920
652.58	4.952
652.90	3.343
653.23	3.803
653.56	4.137
653.88	5.758
654.21	4.648
654.54	3.757
654.86	4.674
655.19	3.388
655.52	4.549
655.84	4.864
656.17	5.522
656.49	7.707
