SpectraSuite Data File
++++++++++++++++++++++++++++++++++++
Date: Thu May 14 14:56:07 PDT 2015
User: schluterlab
Dark Spectrum Present: Yes
Reference Spectrum Present: Yes
Number of Sampled Component Spectra: 1
Spectrometers: USB2E3373
Integration Time (usec): 3000 (USB2E3373)
Spectra Averaged: 3 (USB2E3373)
Boxcar Smoothing: 0 (USB2E3373)
Correct for Electrical Dark: No (USB2E3373)
Strobe/Lamp Enabled: No (USB2E3373)
Correct for Detector Non-linearity: No (USB2E3373)
Correct for Stray Light: No (USB2E3373)
Number of Pixels in Processed Spectrum: 2048
>>>>>Begin Processed Spectral Data<<<<<
178.53	0.000
178.91	357.143
179.29	-2500.000
179.67	-1700.000
180.04	142.857
180.42	140.000
180.80	360.000
181.18	-1600.000
181.56	-1100.000
181.94	350.000
182.31	-275.000
182.69	600.000
183.07	-1050.000
183.45	300.000
183.83	-433.333
184.20	-500.000
184.58	1300.000
184.96	-600.000
185.34	-177.778
185.72	-220.000
186.09	266.667
186.47	650.000
186.85	420.000
187.23	-266.667
187.61	-1900.000
187.98	380.000
188.36	575.000
188.74	-300.000
189.12	-366.667
189.49	-75.000
189.87	-200.000
190.25	-166.667
190.63	-340.000
191.00	-233.333
191.38	0.000
191.76	-425.000
192.14	-283.333
192.51	1000.000
192.89	-200.000
193.27	0.000
193.65	-242.857
194.02	-2000.000
194.40	-200.000
194.78	357.143
195.15	0.000
195.53	-118.182
195.91	0.000
196.29	-350.000
196.66	-115.385
197.04	-2800.000
197.42	-257.143
197.79	-1100.000
198.17	-200.000
198.55	-257.143
198.92	-11.111
199.30	-250.000
199.68	-109.091
200.05	-64.286
200.43	-800.000
200.81	285.714
201.18	0.000
201.56	400.000
201.94	0.000
202.31	666.667
202.69	-200.000
203.07	1300.000
203.44	-100.000
203.82	-575.000
204.19	-150.000
204.57	-300.000
204.95	-175.000
205.32	-2400.000
205.70	550.000
206.08	-300.000
206.45	-333.333
206.83	460.000
207.20	-100.000
207.58	-440.000
207.96	-366.667
208.33	-83.333
208.71	133.333
209.08	-333.333
209.46	0.000
209.84	366.667
210.21	800.000
210.59	900.000
210.96	566.667
211.34	-250.000
211.71	-187.500
212.09	-2500.000
212.46	0.000
212.84	1450.000
213.22	-320.000
213.59	-250.000
213.97	-240.000
214.34	-733.333
214.72	383.333
215.09	-375.000
215.47	0.000
215.84	342.857
216.22	1200.000
216.59	-320.000
216.97	-220.000
217.34	-600.000
217.72	-212.500
218.09	-500.000
218.47	-525.000
218.84	0.000
219.22	300.000
219.59	-52.941
219.97	-40.000
220.34	900.000
220.72	-177.778
221.09	-100.000
221.47	-600.000
221.84	-150.000
222.22	-357.143
222.59	0.000
222.97	-137.500
223.34	-560.000
223.72	-2600.000
224.09	-425.000
224.46	-375.000
224.84	-280.000
225.21	-271.429
225.59	-425.000
225.96	-500.000
226.34	-42.308
226.71	533.333
227.08	-1300.000
227.46	-153.333
227.83	-325.000
228.21	-52.632
228.58	237.500
228.95	650.000
229.33	-91.667
229.70	-150.000
230.08	0.000
230.45	230.000
230.82	-333.333
231.20	-85.714
231.57	-158.333
231.95	-136.364
232.32	-45.455
232.69	-35.000
233.07	-225.000
233.44	-111.765
233.81	-70.000
234.19	-55.556
234.56	-18.182
234.93	10.345
235.31	-57.895
235.68	-72.222
236.05	-80.000
236.43	-23.077
236.80	-12.000
237.17	-25.926
237.55	-21.212
237.92	-100.000
238.29	-12.903
238.67	-13.636
239.04	0.000
239.41	-4.762
239.79	2.174
240.16	-9.259
240.53	-21.739
240.91	-17.647
241.28	-3.279
241.65	13.433
242.02	24.324
242.40	1.538
242.77	6.667
243.14	6.098
243.51	10.526
243.89	5.128
244.26	16.832
244.63	29.412
245.00	17.757
245.38	16.667
245.75	8.850
246.12	20.635
246.49	9.302
246.87	22.143
247.24	17.881
247.61	27.632
247.98	24.832
248.36	24.074
248.73	21.472
249.10	19.126
249.47	34.826
249.84	28.796
250.22	22.798
250.59	23.889
250.96	29.091
251.33	24.490
251.70	26.496
252.08	28.750
252.45	29.098
252.82	24.380
253.19	25.000
253.56	31.179
253.94	25.769
254.31	24.242
254.68	29.720
255.05	31.596
255.42	27.891
255.79	27.184
256.16	29.470
256.54	24.834
256.91	25.246
257.28	26.885
257.65	24.522
258.02	28.909
258.39	24.501
258.76	33.945
259.14	31.609
259.51	30.836
259.88	29.745
260.25	26.389
260.62	30.137
260.99	31.694
261.36	30.563
261.73	29.973
262.10	29.670
262.47	32.440
262.85	32.071
263.22	28.052
263.59	30.000
263.96	30.435
264.33	30.179
264.70	29.630
265.07	32.220
265.44	31.746
265.81	27.315
266.18	31.973
266.55	29.687
266.92	29.841
267.29	28.228
267.66	28.825
268.03	30.786
268.40	29.436
268.77	25.740
269.14	25.991
269.51	28.289
269.88	30.328
270.25	26.962
270.62	30.169
270.99	29.899
271.36	33.069
271.73	30.059
272.10	29.058
272.47	29.259
272.84	28.715
273.21	30.461
273.58	30.645
273.95	26.346
274.32	26.426
274.69	28.433
275.06	30.586
275.43	28.281
275.80	29.277
276.17	27.222
276.54	27.052
276.91	28.444
277.28	28.571
277.65	28.187
278.02	28.125
278.39	28.623
278.76	27.065
279.13	29.610
279.50	29.038
279.87	31.664
280.23	26.232
280.60	28.644
280.97	29.934
281.34	28.862
281.71	29.611
282.08	29.236
282.45	26.350
282.82	28.257
283.19	26.171
283.56	27.049
283.92	27.477
284.29	30.648
284.66	30.378
285.03	25.481
285.40	28.903
285.77	31.115
286.14	29.313
286.51	27.397
286.87	26.856
287.24	30.120
287.61	27.354
287.98	26.435
288.35	28.550
288.72	27.811
289.08	26.794
289.45	27.071
289.82	26.506
290.19	26.006
290.56	27.606
290.93	27.817
291.29	27.686
291.66	26.860
292.03	26.187
292.40	27.483
292.77	26.685
293.13	25.440
293.50	24.573
293.87	24.832
294.24	26.800
294.60	26.296
294.97	23.893
295.34	24.712
295.71	24.338
296.08	25.581
296.44	25.123
296.81	24.726
297.18	24.159
297.55	22.877
297.91	24.437
298.28	22.512
298.65	23.662
299.02	23.140
299.38	24.600
299.75	22.547
300.12	24.537
300.48	23.618
300.85	24.297
301.22	24.832
301.59	23.858
301.95	24.294
302.32	25.000
302.69	24.425
303.05	25.027
303.42	24.279
303.79	24.375
304.15	24.921
304.52	23.467
304.89	24.607
305.25	23.188
305.62	24.242
305.99	23.299
306.35	24.496
306.72	24.819
307.09	23.147
307.45	24.741
307.82	22.603
308.19	22.704
308.55	24.494
308.92	25.122
309.29	25.287
309.65	25.439
310.02	23.465
310.38	24.705
310.75	25.146
311.12	25.216
311.48	24.536
311.85	24.976
312.22	24.763
312.58	23.850
312.95	23.614
313.31	24.119
313.68	24.817
314.05	23.848
314.41	24.317
314.78	24.614
315.14	24.955
315.51	25.577
315.87	24.842
316.24	25.845
316.61	25.222
316.97	23.529
317.34	23.016
317.70	26.026
318.07	25.044
318.43	24.915
318.80	25.167
319.16	24.120
319.53	23.308
319.89	23.926
320.26	24.466
320.62	23.493
320.99	24.838
321.35	23.660
321.72	24.744
322.08	23.445
322.45	24.571
322.81	25.181
323.18	23.274
323.54	24.397
323.91	24.822
324.27	24.699
324.64	25.693
325.00	24.876
325.37	24.406
325.73	25.455
326.10	24.980
326.46	24.756
326.83	25.941
327.19	25.197
327.56	26.640
327.92	25.256
328.29	25.565
328.65	25.042
329.01	25.465
329.38	25.948
329.74	26.541
330.11	26.712
330.47	25.611
330.84	27.304
331.20	25.833
331.56	25.910
331.93	26.444
332.29	26.271
332.66	26.578
333.02	25.879
333.38	24.832
333.75	26.852
334.11	26.439
334.48	25.743
334.84	26.593
335.20	24.853
335.57	26.391
335.93	26.942
336.29	25.458
336.66	25.484
337.02	26.254
337.38	27.126
337.75	25.372
338.11	27.082
338.47	25.558
338.84	25.804
339.20	25.695
339.56	25.535
339.93	26.108
340.29	25.282
340.65	26.196
341.02	25.698
341.38	26.758
341.74	27.280
342.11	27.192
342.47	24.940
342.83	26.731
343.20	26.247
343.56	26.143
343.92	25.540
344.28	26.797
344.65	26.357
345.01	26.365
345.37	27.216
345.73	25.253
346.10	26.833
346.46	26.978
346.82	26.891
347.19	27.349
347.55	26.024
347.91	26.597
348.27	26.707
348.63	26.809
349.00	26.174
349.36	26.989
349.72	26.265
350.08	26.672
350.45	26.388
350.81	26.546
351.17	26.241
351.53	26.839
351.89	26.120
352.26	26.343
352.62	26.194
352.98	26.183
353.34	25.093
353.70	26.888
354.07	26.975
354.43	25.816
354.79	25.879
355.15	25.975
355.51	27.047
355.87	26.776
356.24	26.692
356.60	26.386
356.96	27.798
357.32	25.576
357.68	26.281
358.04	26.871
358.40	27.388
358.77	27.485
359.13	26.809
359.49	26.617
359.85	26.541
360.21	25.968
360.57	27.136
360.93	26.375
361.29	26.947
361.66	27.589
362.02	27.557
362.38	26.704
362.74	26.885
363.10	27.717
363.46	27.909
363.82	26.989
364.18	27.445
364.54	27.593
364.90	28.094
365.26	27.655
365.62	27.800
365.98	27.025
366.35	27.047
366.71	28.435
367.07	26.590
367.43	27.577
367.79	27.737
368.15	27.893
368.51	27.605
368.87	27.956
369.23	27.867
369.59	27.322
369.95	27.992
370.31	27.346
370.67	27.235
371.03	28.255
371.39	28.677
371.75	28.129
372.11	28.388
372.47	28.097
372.83	28.796
373.19	27.885
373.55	27.033
373.91	28.153
374.27	28.331
374.63	28.417
374.99	28.382
375.35	28.182
375.71	28.645
376.07	27.372
376.42	28.401
376.78	28.962
377.14	29.320
377.50	29.349
377.86	29.249
378.22	29.102
378.58	29.429
378.94	29.460
379.30	29.525
379.66	29.101
380.02	29.025
380.38	29.493
380.74	29.521
381.09	29.559
381.45	29.659
381.81	30.152
382.17	29.869
382.53	28.363
382.89	28.950
383.25	29.660
383.61	30.440
383.97	29.388
384.32	30.562
384.68	28.770
385.04	29.323
385.40	30.819
385.76	30.188
386.12	29.384
386.48	29.765
386.83	30.393
387.19	29.954
387.55	29.871
387.91	30.308
388.27	30.427
388.62	29.496
388.98	30.118
389.34	30.760
389.70	31.319
390.06	30.018
390.42	30.000
390.77	30.945
391.13	30.575
391.49	31.461
391.85	30.727
392.20	31.079
392.56	31.305
392.92	30.425
393.28	30.404
393.64	31.061
393.99	32.481
394.35	31.542
394.71	31.677
395.07	30.599
395.42	30.668
395.78	32.480
396.14	31.491
396.50	31.057
396.85	31.246
397.21	30.237
397.57	30.683
397.92	31.386
398.28	30.418
398.64	30.206
399.00	30.366
399.35	30.576
399.71	29.620
400.07	31.275
400.42	31.024
400.78	31.134
401.14	31.474
401.49	31.438
401.85	31.047
402.21	30.533
402.57	31.984
402.92	31.738
403.28	30.738
403.63	29.833
403.99	30.760
404.35	31.381
404.70	30.708
405.06	30.815
405.42	31.909
405.77	30.316
406.13	31.064
406.49	31.813
406.84	30.859
407.20	30.240
407.55	29.679
407.91	31.238
408.27	30.448
408.62	31.006
408.98	30.586
409.34	30.147
409.69	31.211
410.05	31.770
410.40	31.729
410.76	30.847
411.11	31.853
411.47	30.467
411.83	30.923
412.18	30.602
412.54	30.883
412.89	31.083
413.25	31.716
413.60	31.017
413.96	31.993
414.31	30.482
414.67	31.008
415.03	30.462
415.38	31.274
415.74	30.849
416.09	31.771
416.45	30.307
416.80	29.253
417.16	30.779
417.51	31.133
417.87	30.227
418.22	31.138
418.58	30.483
418.93	31.548
419.29	30.949
419.64	30.012
420.00	30.742
420.35	30.601
420.71	30.327
421.06	29.902
421.42	30.963
421.77	29.510
422.12	29.493
422.48	31.490
422.83	31.435
423.19	31.353
423.54	31.416
423.90	30.591
424.25	30.773
424.61	30.080
424.96	30.203
425.31	31.051
425.67	30.811
426.02	31.489
426.38	30.253
426.73	30.859
427.09	31.546
427.44	29.711
427.79	30.625
428.15	30.023
428.50	29.213
428.85	30.769
429.21	30.319
429.56	30.257
429.92	30.369
430.27	30.506
430.62	30.581
430.98	30.398
431.33	30.401
431.68	30.412
432.04	31.031
432.39	29.995
432.74	31.050
433.10	31.206
433.45	30.435
433.80	30.740
434.16	30.269
434.51	31.192
434.86	30.945
435.22	31.509
435.57	31.604
435.92	30.440
436.28	30.774
436.63	31.240
436.98	29.844
437.34	30.778
437.69	31.040
438.04	31.359
438.39	30.270
438.75	29.662
439.10	31.448
439.45	30.129
439.81	30.339
440.16	30.295
440.51	31.382
440.86	30.406
441.22	30.761
441.57	30.922
441.92	31.183
442.27	30.909
442.63	31.297
442.98	30.950
443.33	30.300
443.68	30.674
444.03	32.361
444.39	30.791
444.74	31.802
445.09	31.120
445.44	31.876
445.79	30.939
446.15	30.421
446.50	31.008
446.85	30.885
447.20	31.431
447.55	31.956
447.91	30.576
448.26	31.078
448.61	31.350
448.96	31.867
449.31	30.541
449.66	29.847
450.02	30.222
450.37	30.155
450.72	31.109
451.07	30.809
451.42	30.329
451.77	30.017
452.12	32.054
452.47	30.065
452.83	30.631
453.18	30.706
453.53	30.557
453.88	31.695
454.23	31.243
454.58	30.876
454.93	30.461
455.28	32.270
455.63	30.472
455.98	31.061
456.34	31.331
456.69	30.982
457.04	30.674
457.39	30.765
457.74	30.761
458.09	30.862
458.44	30.603
458.79	29.809
459.14	30.676
459.49	31.353
459.84	30.220
460.19	30.816
460.54	31.630
460.89	31.869
461.24	29.828
461.59	31.046
461.94	30.006
462.29	30.963
462.64	30.537
462.99	30.257
463.34	30.370
463.69	30.539
464.04	30.128
464.39	30.437
464.74	30.901
465.09	30.565
465.44	31.170
465.79	30.672
466.14	30.328
466.49	30.526
466.84	31.074
467.19	31.214
467.54	30.317
467.89	29.828
468.24	31.080
468.59	30.110
468.94	30.594
469.29	30.294
469.64	29.816
469.99	30.784
470.34	30.755
470.68	31.784
471.03	30.779
471.38	30.674
471.73	30.624
472.08	30.457
472.43	30.403
472.78	30.982
473.13	30.847
473.48	30.695
473.83	31.631
474.17	30.363
474.52	31.930
474.87	31.063
475.22	31.099
475.57	31.776
475.92	32.056
476.27	31.203
476.61	31.153
476.96	30.761
477.31	30.891
477.66	31.952
478.01	31.520
478.36	30.608
478.70	30.640
479.05	31.442
479.40	30.997
479.75	30.596
480.10	31.407
480.45	31.449
480.79	31.247
481.14	31.296
481.49	30.713
481.84	31.767
482.19	31.054
482.53	31.001
482.88	32.122
483.23	31.436
483.58	31.310
483.92	30.098
484.27	31.287
484.62	30.817
484.97	30.638
485.31	30.271
485.66	28.977
486.01	29.086
486.36	30.185
486.70	32.145
487.05	33.498
487.40	32.459
487.75	31.807
488.09	31.671
488.44	30.610
488.79	31.400
489.13	30.521
489.48	30.291
489.83	30.302
490.17	30.296
490.52	29.762
490.87	30.964
491.22	31.023
491.56	30.503
491.91	30.789
492.26	30.679
492.60	30.564
492.95	30.847
493.30	30.973
493.64	31.187
493.99	30.658
494.34	30.488
494.68	30.621
495.03	30.573
495.37	31.602
495.72	31.156
496.07	30.938
496.41	30.631
496.76	31.651
497.11	30.955
497.45	31.161
497.80	30.609
498.14	31.020
498.49	31.020
498.84	31.444
499.18	31.129
499.53	30.493
499.87	31.604
500.22	30.499
500.56	31.399
500.91	31.304
501.26	32.455
501.60	30.579
501.95	31.654
502.29	31.066
502.64	31.657
502.98	30.802
503.33	31.145
503.67	31.138
504.02	31.217
504.36	31.367
504.71	31.971
505.06	31.878
505.40	31.673
505.75	31.375
506.09	31.998
506.44	31.894
506.78	31.835
507.13	31.858
507.47	32.875
507.82	31.297
508.16	31.931
508.51	31.505
508.85	32.026
509.19	32.023
509.54	32.757
509.88	32.249
510.23	32.637
510.57	33.059
510.92	32.801
511.26	31.890
511.61	32.062
511.95	32.455
512.30	32.102
512.64	31.784
512.98	32.566
513.33	32.359
513.67	32.177
514.02	32.959
514.36	33.504
514.70	32.760
515.05	33.472
515.39	32.913
515.74	33.934
516.08	33.122
516.42	32.287
516.77	33.438
517.11	32.697
517.46	33.881
517.80	33.672
518.14	33.079
518.49	33.297
518.83	33.103
519.17	33.172
519.52	32.652
519.86	32.946
520.20	32.641
520.55	33.297
520.89	33.108
521.23	33.054
521.58	32.881
521.92	33.541
522.26	32.875
522.61	33.854
522.95	32.930
523.29	32.759
523.64	33.184
523.98	34.170
524.32	33.639
524.66	33.978
525.01	32.786
525.35	33.716
525.69	32.889
526.04	33.238
526.38	33.736
526.72	33.564
527.06	34.370
527.41	34.344
527.75	34.323
528.09	33.353
528.43	33.333
528.78	32.717
529.12	33.314
529.46	33.277
529.80	34.039
530.15	33.565
530.49	33.630
530.83	33.294
531.17	33.154
531.51	33.273
531.86	33.293
532.20	33.537
532.54	33.992
532.88	33.212
533.22	33.471
533.57	32.833
533.91	33.109
534.25	33.635
534.59	34.080
534.93	33.277
535.27	33.577
535.62	33.599
535.96	33.876
536.30	32.902
536.64	34.234
536.98	33.825
537.32	34.321
537.66	33.812
538.01	32.991
538.35	32.156
538.69	32.212
539.03	34.273
539.37	32.744
539.71	33.153
540.05	33.333
540.39	32.702
540.73	31.390
541.07	33.170
541.42	32.487
541.76	32.562
542.10	32.207
542.44	32.521
542.78	32.421
543.12	33.373
543.46	32.418
543.80	32.914
544.14	32.196
544.48	33.274
544.82	32.735
545.16	33.393
545.50	32.654
545.84	32.701
546.18	34.012
546.52	33.439
546.86	33.145
547.20	32.379
547.54	32.896
547.88	32.429
548.22	32.690
548.56	32.358
548.90	32.478
549.24	33.556
549.58	32.555
549.92	32.908
550.26	33.463
550.60	31.972
550.94	32.665
551.28	32.211
551.62	33.288
551.96	31.586
552.30	33.971
552.64	31.674
552.98	33.001
553.32	34.148
553.66	32.412
554.00	32.219
554.34	32.368
554.68	32.085
555.02	32.326
555.36	33.596
555.69	31.967
556.03	31.967
556.37	32.916
556.71	32.467
557.05	32.652
557.39	32.581
557.73	32.431
558.07	31.854
558.41	32.359
558.75	32.116
559.08	32.429
559.42	32.305
559.76	33.107
560.10	31.815
560.44	32.454
560.78	32.625
561.12	32.451
561.45	32.543
561.79	32.540
562.13	33.457
562.47	32.984
562.81	32.848
563.15	32.639
563.48	32.194
563.82	32.346
564.16	31.799
564.50	31.883
564.84	31.327
565.17	32.059
565.51	31.530
565.85	31.829
566.19	32.373
566.52	32.358
566.86	31.579
567.20	32.355
567.54	32.554
567.88	32.518
568.21	32.411
568.55	32.566
568.89	32.683
569.23	31.981
569.56	31.106
569.90	31.896
570.24	31.906
570.57	32.040
570.91	31.568
571.25	31.530
571.59	31.728
571.92	31.503
572.26	32.080
572.60	31.450
572.93	31.506
573.27	31.750
573.61	31.604
573.95	31.027
574.28	31.581
574.62	31.742
574.96	31.076
575.29	31.284
575.63	31.347
575.97	31.138
576.30	31.039
576.64	31.496
576.98	31.207
577.31	32.085
577.65	31.407
577.98	31.288
578.32	30.851
578.66	31.511
578.99	31.620
579.33	32.325
579.67	31.052
580.00	31.220
580.34	30.846
580.67	31.134
581.01	31.350
581.35	30.528
581.68	30.594
582.02	31.287
582.35	31.766
582.69	31.782
583.02	32.181
583.36	31.731
583.70	31.447
584.03	31.461
584.37	31.498
584.70	30.293
585.04	29.970
585.37	30.822
585.71	30.939
586.04	30.603
586.38	31.801
586.72	31.010
587.05	31.210
587.39	30.890
587.72	30.861
588.06	31.335
588.39	31.765
588.73	31.217
589.06	31.659
589.40	31.776
589.73	30.688
590.07	31.664
590.40	30.967
590.73	31.566
591.07	31.646
591.40	30.521
591.74	31.200
592.07	31.587
592.41	31.191
592.74	31.239
593.08	30.955
593.41	31.234
593.75	31.408
594.08	31.809
594.41	31.859
594.75	31.651
595.08	31.292
595.42	30.974
595.75	30.643
596.09	32.057
596.42	31.745
596.75	31.687
597.09	31.475
597.42	31.228
597.75	30.733
598.09	31.429
598.42	31.323
598.76	31.486
599.09	30.117
599.42	30.137
599.76	30.505
600.09	31.131
600.42	30.664
600.76	31.407
601.09	30.568
601.42	30.793
601.76	30.724
602.09	30.951
602.42	30.171
602.76	30.664
603.09	30.140
603.42	30.961
603.76	30.620
604.09	32.186
604.42	30.679
604.76	30.518
605.09	31.113
605.42	30.941
605.75	30.077
606.09	30.310
606.42	30.281
606.75	30.360
607.09	31.106
607.42	30.867
607.75	31.340
608.08	30.505
608.42	30.149
608.75	30.846
609.08	30.475
609.41	30.348
609.75	30.402
610.08	31.398
610.41	30.884
610.74	29.706
611.07	30.684
611.41	30.538
611.74	30.439
612.07	31.557
612.40	30.323
612.73	31.443
613.07	30.709
613.40	31.954
613.73	30.091
614.06	31.109
614.39	30.661
614.72	30.374
615.06	29.933
615.39	29.918
615.72	31.706
616.05	29.966
616.38	31.181
616.71	30.146
617.05	29.766
617.38	30.551
617.71	30.994
618.04	31.139
618.37	31.257
618.70	30.034
619.03	31.183
619.36	30.456
619.69	31.326
620.03	31.136
620.36	31.534
620.69	30.598
621.02	31.299
621.35	30.769
621.68	31.598
622.01	29.822
622.34	29.916
622.67	30.378
623.00	29.825
623.33	30.458
623.66	31.258
623.99	30.217
624.32	31.839
624.65	30.631
624.99	31.730
625.32	31.483
625.65	31.288
625.98	29.966
626.31	30.262
626.64	30.696
626.97	30.233
627.30	29.689
627.63	29.707
627.96	30.781
628.29	29.105
628.62	30.395
628.95	31.639
629.28	30.076
629.61	29.630
629.94	29.038
630.26	30.593
630.59	30.656
630.92	31.082
631.25	30.590
