SpectraSuite Data File
++++++++++++++++++++++++++++++++++++
Date: Thu May 14 14:45:26 PDT 2015
User: schluterlab
Dark Spectrum Present: Yes
Reference Spectrum Present: Yes
Number of Sampled Component Spectra: 1
Spectrometers: USB2E3373
Integration Time (usec): 3000 (USB2E3373)
Spectra Averaged: 3 (USB2E3373)
Boxcar Smoothing: 0 (USB2E3373)
Correct for Electrical Dark: No (USB2E3373)
Strobe/Lamp Enabled: No (USB2E3373)
Correct for Detector Non-linearity: No (USB2E3373)
Correct for Stray Light: No (USB2E3373)
Number of Pixels in Processed Spectrum: 2048
>>>>>Begin Processed Spectral Data<<<<<
178.53	0.000
178.91	100.000
179.29	-1100.000
179.67	-200.000
180.04	100.000
180.42	-0.000
180.80	60.000
181.18	-800.000
181.56	0.000
181.94	-75.000
182.31	-25.000
182.69	66.667
183.07	400.000
183.45	100.000
183.83	50.000
184.20	-66.667
184.58	-0.000
184.96	0.000
185.34	-88.889
185.72	120.000
186.09	88.889
186.47	150.000
186.85	40.000
187.23	-55.556
187.61	-700.000
187.98	140.000
188.36	75.000
188.74	-75.000
189.12	-66.667
189.49	18.750
189.87	-112.500
190.25	-55.556
190.63	-120.000
191.00	-100.000
191.38	0.000
191.76	-25.000
192.14	-100.000
192.51	-250.000
192.89	-16.667
193.27	0.000
193.65	-71.429
194.02	-1700.000
194.40	42.857
194.78	-85.714
195.15	0.000
195.53	72.727
195.91	0.000
196.29	0.000
196.66	53.846
197.04	-1000.000
197.42	71.429
197.79	-300.000
198.17	-150.000
198.55	42.857
198.92	-33.333
199.30	-112.500
199.68	63.636
200.05	50.000
200.43	-300.000
200.81	71.429
201.18	0.000
201.56	55.556
201.94	0.000
202.31	200.000
202.69	55.556
203.07	-200.000
203.44	-33.333
203.82	-175.000
204.19	-8.333
204.57	0.000
204.95	12.500
205.32	-1200.000
205.70	250.000
206.08	150.000
206.45	66.667
206.83	380.000
207.20	-33.333
207.58	-120.000
207.96	-83.333
208.33	116.667
208.71	41.667
209.08	-33.333
209.46	0.000
209.84	283.333
210.21	-50.000
210.59	-0.000
210.96	300.000
211.34	0.000
211.71	37.500
212.09	100.000
212.46	0.000
212.84	350.000
213.22	-60.000
213.59	275.000
213.97	-40.000
214.34	-33.333
214.72	50.000
215.09	50.000
215.47	0.000
215.84	-0.000
216.22	500.000
216.59	-60.000
216.97	-80.000
217.34	-100.000
217.72	-37.500
218.09	-125.000
218.47	-175.000
218.84	0.000
219.22	80.000
219.59	-47.059
219.97	20.000
220.34	450.000
220.72	0.000
221.09	0.000
221.47	466.667
221.84	-50.000
222.22	-14.286
222.59	0.000
222.97	25.000
223.34	-60.000
223.72	600.000
224.09	-125.000
224.46	-75.000
224.84	220.000
225.21	14.286
225.59	-400.000
225.96	-150.000
226.34	-3.846
226.71	116.667
227.08	0.000
227.46	20.000
227.83	-175.000
228.21	57.895
228.58	50.000
228.95	50.000
229.33	75.000
229.70	90.000
230.08	63.158
230.45	100.000
230.82	0.000
231.20	14.286
231.57	16.667
231.95	45.455
232.32	-36.364
232.69	30.000
233.07	200.000
233.44	-5.882
233.81	100.000
234.19	44.444
234.56	45.455
234.93	34.483
235.31	-5.263
235.68	22.222
236.05	10.000
236.43	38.462
236.80	64.000
237.17	14.815
237.55	0.000
237.92	-110.000
238.29	19.355
238.67	6.818
239.04	33.333
239.41	19.048
239.79	21.739
240.16	9.259
240.53	-2.174
240.91	-1.961
241.28	9.836
241.65	29.851
242.02	16.216
242.40	12.308
242.77	13.333
243.14	2.439
243.51	3.947
243.89	15.385
244.26	20.792
244.63	12.745
245.00	14.953
245.38	15.789
245.75	4.425
246.12	15.079
246.49	14.729
246.87	10.714
247.24	11.258
247.61	19.737
247.98	19.463
248.36	17.284
248.73	9.816
249.10	18.579
249.47	20.896
249.84	18.848
250.22	11.399
250.59	16.667
250.96	13.636
251.33	13.265
251.70	14.530
252.08	15.417
252.45	19.262
252.82	11.983
253.19	13.281
253.56	17.110
253.94	13.846
254.31	19.697
254.68	16.783
255.05	14.984
255.42	14.286
255.79	11.974
256.16	9.934
256.54	11.589
256.91	17.705
257.28	14.426
257.65	11.783
258.02	15.634
258.39	17.094
258.76	16.208
259.14	16.092
259.51	14.121
259.88	16.147
260.25	17.222
260.62	15.068
260.99	15.847
261.36	16.086
261.73	12.467
262.10	14.835
262.47	17.694
262.85	15.909
263.22	14.805
263.59	10.789
263.96	16.368
264.33	15.345
264.70	14.815
265.07	15.752
265.44	15.646
265.81	14.815
266.18	14.512
266.55	14.509
266.92	13.895
267.29	14.004
267.66	14.856
268.03	15.284
268.40	17.537
268.77	15.490
269.14	13.436
269.51	15.789
269.88	17.828
270.25	16.499
270.62	15.401
270.99	16.162
271.36	16.238
271.73	15.717
272.10	16.834
272.47	15.030
272.84	14.056
273.21	15.832
273.58	15.726
273.95	12.885
274.32	14.259
274.69	13.153
275.06	16.300
275.43	14.048
275.80	15.168
276.17	13.704
276.54	12.500
276.91	13.238
277.28	16.275
277.65	16.876
278.02	17.279
278.39	15.942
278.76	14.938
279.13	15.248
279.50	14.261
279.87	13.596
280.23	11.268
280.60	12.373
280.97	14.474
281.34	13.922
281.71	16.751
282.08	17.442
282.45	15.385
282.82	13.030
283.19	13.086
283.56	14.590
283.92	15.766
284.29	15.798
284.66	14.943
285.03	10.417
285.40	15.301
285.77	14.861
286.14	15.573
286.51	14.155
286.87	13.112
287.24	14.006
287.61	15.097
287.98	15.408
288.35	14.349
288.72	14.201
289.08	14.641
289.45	12.870
289.82	12.349
290.19	13.937
290.56	15.211
290.93	13.980
291.29	12.259
291.66	13.774
292.03	11.126
292.40	13.469
292.77	12.129
293.13	13.532
293.50	11.170
293.87	13.423
294.24	13.467
294.60	12.895
294.97	12.215
295.34	14.341
295.71	11.097
296.08	12.532
296.44	13.113
296.81	12.058
297.18	12.204
297.55	12.264
297.91	12.100
298.28	11.256
298.65	13.199
299.02	12.279
299.38	12.357
299.75	12.266
300.12	11.921
300.48	12.097
300.85	12.936
301.22	12.975
301.59	12.215
301.95	11.977
302.32	12.556
302.69	11.610
303.05	12.731
303.42	12.306
303.79	12.188
304.15	12.618
304.52	11.734
304.89	12.984
305.25	12.112
305.62	12.330
305.99	13.402
306.35	11.694
306.72	12.823
307.09	13.096
307.45	13.147
307.82	12.210
308.19	14.127
308.55	13.308
308.92	12.658
309.29	13.410
309.65	14.035
310.02	13.366
310.38	13.484
310.75	12.718
311.12	15.436
311.48	12.610
311.85	14.720
312.22	13.757
312.58	14.930
312.95	13.862
313.31	15.266
313.68	15.476
314.05	15.899
314.41	16.302
314.78	16.349
315.14	17.060
315.51	16.159
315.87	17.192
316.24	17.717
316.61	16.963
316.97	16.923
317.34	17.989
317.70	18.341
318.07	19.400
318.43	18.622
318.80	19.816
319.16	20.086
319.53	18.680
319.89	20.070
320.26	20.552
320.62	20.479
320.99	20.776
321.35	21.072
321.72	21.674
322.08	21.371
322.45	22.584
322.81	21.480
323.18	20.973
323.54	22.931
323.91	23.577
324.27	22.633
324.64	23.762
325.00	22.886
325.37	23.833
325.73	24.463
326.10	25.791
326.46	25.489
326.83	26.902
327.19	25.118
327.56	26.798
327.92	25.649
328.29	24.758
328.65	26.382
329.01	26.904
329.38	28.812
329.74	28.253
330.11	27.997
330.47	28.644
330.84	27.390
331.20	29.083
331.56	28.943
331.93	27.615
332.29	29.068
332.66	28.904
333.02	28.141
333.38	29.027
333.75	28.872
334.11	28.691
334.48	28.383
334.84	28.887
335.20	28.547
335.57	29.089
335.93	28.595
336.29	28.453
336.66	29.268
337.02	29.933
337.38	28.401
337.75	28.595
338.11	29.100
338.47	29.363
338.84	28.596
339.20	28.391
339.56	28.254
339.93	28.325
340.29	28.261
340.65	27.981
341.02	29.529
341.38	29.507
341.74	28.168
342.11	28.238
342.47	26.688
342.83	29.227
343.20	29.027
343.56	28.228
343.92	27.542
344.28	27.031
344.65	28.372
345.01	28.393
345.37	28.538
345.73	28.527
346.10	28.627
346.46	28.085
346.82	29.363
347.19	28.724
347.55	28.528
347.91	27.415
348.27	28.907
348.63	28.027
349.00	27.591
349.36	27.955
349.72	28.571
350.08	28.826
350.45	27.909
350.81	28.205
351.17	27.895
351.53	28.810
351.89	28.322
352.26	28.806
352.62	28.134
352.98	27.786
353.34	26.736
353.70	29.122
354.07	27.869
354.43	27.259
354.79	28.272
355.15	28.477
355.51	29.167
355.87	28.048
356.24	28.593
356.60	27.790
356.96	29.429
357.32	27.658
357.68	27.672
358.04	28.593
358.40	27.910
358.77	27.339
359.13	27.179
359.49	29.145
359.85	27.846
360.21	29.125
360.57	28.356
360.93	27.574
361.29	28.702
361.66	27.951
362.02	28.601
362.38	28.742
362.74	28.073
363.10	28.680
363.46	29.086
363.82	28.409
364.18	28.783
364.54	28.354
364.90	28.094
365.26	29.724
365.62	29.533
365.98	28.455
366.35	29.262
366.71	29.252
367.07	29.973
367.43	29.284
367.79	29.396
368.15	29.231
368.51	29.567
368.87	29.458
369.23	28.467
369.59	29.372
369.95	29.412
370.31	30.317
370.67	29.574
371.03	30.055
371.39	28.408
371.75	30.261
372.11	29.743
372.47	29.587
372.83	29.974
373.19	29.686
373.55	30.149
373.91	29.721
374.27	30.530
374.63	29.702
374.99	30.305
375.35	31.169
375.71	31.226
376.07	29.567
376.42	30.605
376.78	31.386
377.14	30.568
377.50	31.309
377.86	31.158
378.22	32.036
378.58	31.153
378.94	30.458
379.30	30.990
379.66	32.099
380.02	31.795
380.38	32.373
380.74	31.606
381.09	31.127
381.45	32.330
381.81	33.021
382.17	31.948
382.53	32.164
382.89	33.070
383.25	31.477
383.61	32.060
383.97	32.686
384.32	34.330
384.68	33.353
385.04	33.892
385.40	33.883
385.76	32.767
386.12	33.513
386.48	33.294
386.83	34.327
387.19	33.256
387.55	32.923
387.91	32.991
388.27	33.603
388.62	33.963
388.98	33.277
389.34	33.942
389.70	34.340
390.06	34.044
390.42	33.253
390.77	35.220
391.13	34.566
391.49	34.903
391.85	34.303
392.20	34.698
392.56	35.558
392.92	34.896
393.28	34.494
393.64	34.581
393.99	35.270
394.35	35.280
394.71	35.629
395.07	34.311
395.42	34.894
395.78	35.588
396.14	36.482
396.50	35.214
396.85	34.347
397.21	34.201
397.57	35.336
397.92	35.052
398.28	35.796
398.64	34.382
399.00	35.131
399.35	36.597
399.71	35.163
400.07	36.440
400.42	36.088
400.78	35.706
401.14	35.970
401.49	36.327
401.85	36.279
402.21	36.501
402.57	36.502
402.92	35.875
403.28	35.773
403.63	36.277
403.99	36.283
404.35	35.986
404.70	36.261
405.06	36.033
405.42	37.119
405.77	36.859
406.13	36.305
406.49	35.923
406.84	36.122
407.20	36.501
407.55	37.008
407.91	36.769
408.27	36.396
408.62	36.707
408.98	36.854
409.34	35.543
409.69	36.527
410.05	36.401
410.40	38.805
410.76	37.241
411.11	37.288
411.47	37.592
411.83	37.331
412.18	37.831
412.54	37.759
412.89	37.253
413.25	37.020
413.60	38.196
413.96	37.296
414.31	37.167
414.67	38.342
415.03	37.477
415.38	37.327
415.74	37.263
416.09	38.927
416.45	38.009
416.80	38.372
417.16	39.400
417.51	39.103
417.87	38.627
418.22	39.521
418.58	38.848
418.93	38.475
419.29	39.889
419.64	39.256
420.00	38.932
420.35	39.304
420.71	39.230
421.06	39.735
421.42	38.819
421.77	39.903
422.12	39.852
422.48	40.041
422.83	40.361
423.19	39.682
423.54	40.265
423.90	39.371
424.25	41.387
424.61	38.921
424.96	40.582
425.31	41.401
425.67	39.989
426.02	40.398
426.38	41.906
426.73	41.127
427.09	42.157
427.44	41.070
427.79	40.741
428.15	41.381
428.50	42.472
428.85	42.997
429.21	41.968
429.56	42.053
429.92	40.786
430.27	42.410
430.62	43.283
430.98	42.105
431.33	42.278
431.68	41.906
432.04	42.255
432.39	43.492
432.74	42.580
433.10	43.158
433.45	42.642
433.80	43.026
434.16	43.647
434.51	44.039
434.86	44.680
435.22	44.740
435.57	44.988
435.92	45.131
436.28	44.824
436.63	44.839
436.98	43.156
437.34	45.490
437.69	44.194
438.04	44.632
438.39	45.491
438.75	45.102
439.10	45.507
439.45	45.165
439.81	45.311
440.16	43.861
440.51	44.537
440.86	45.081
441.22	45.070
441.57	46.226
441.92	45.490
442.27	46.162
442.63	45.703
442.98	45.144
443.33	46.186
443.68	46.085
444.03	46.660
444.39	46.509
444.74	46.095
445.09	46.224
445.44	46.997
445.79	47.079
446.15	46.454
446.50	46.098
446.85	45.963
447.20	47.002
447.55	47.228
447.91	45.864
448.26	46.670
448.61	47.396
448.96	48.873
449.31	46.660
449.66	46.405
450.02	46.941
450.37	46.457
450.72	47.524
451.07	47.267
451.42	47.314
451.77	46.693
452.12	48.194
452.47	47.772
452.83	49.212
453.18	47.869
453.53	46.812
453.88	46.273
454.23	48.644
454.58	47.475
454.93	47.876
455.28	48.766
455.63	47.129
455.98	48.324
456.34	47.644
456.69	48.266
457.04	49.586
457.39	48.060
457.74	48.602
458.09	46.897
458.44	48.599
458.79	47.808
459.14	47.981
459.49	48.727
459.84	47.954
460.19	47.474
460.54	48.779
460.89	48.491
461.24	48.276
461.59	50.138
461.94	47.690
462.29	48.656
462.64	47.858
462.99	47.395
463.34	48.929
463.69	47.890
464.04	48.749
464.39	47.870
464.74	48.974
465.09	48.904
465.44	48.605
465.79	48.228
466.14	47.681
466.49	47.895
466.84	48.320
467.19	48.439
467.54	48.766
467.89	47.989
468.24	48.255
468.59	48.292
468.94	47.902
469.29	48.650
469.64	48.252
469.99	47.674
470.34	47.834
470.68	50.034
471.03	49.574
471.38	49.117
471.73	48.309
472.08	49.302
472.43	50.572
472.78	50.315
473.13	49.368
473.48	49.426
473.83	49.855
474.17	48.242
474.52	50.451
474.87	49.059
475.22	49.859
475.57	49.065
475.92	48.432
476.27	48.669
476.61	48.910
476.96	48.905
477.31	48.614
477.66	49.161
478.01	48.297
478.36	48.903
478.70	48.227
479.05	49.796
479.40	49.013
479.75	49.280
480.10	48.697
480.45	48.861
480.79	48.254
481.14	48.759
481.49	48.841
481.84	48.564
482.19	48.473
482.53	48.929
482.88	49.047
483.23	50.067
483.58	48.865
483.92	47.739
484.27	48.645
484.62	48.061
484.97	48.328
485.31	47.342
485.66	44.207
486.01	43.583
486.36	45.278
486.70	46.532
487.05	47.147
487.40	46.320
487.75	46.132
488.09	47.309
488.44	46.640
488.79	47.083
489.13	47.791
489.48	48.777
489.83	47.284
490.17	47.550
490.52	47.783
490.87	48.139
491.22	47.920
491.56	49.019
491.91	48.190
492.26	47.772
492.60	48.229
492.95	48.355
493.30	48.947
493.64	48.576
493.99	48.202
494.34	47.256
494.68	48.137
495.03	48.458
495.37	48.691
495.72	48.980
496.07	47.984
496.41	48.391
496.76	48.666
497.11	48.493
497.45	48.295
497.80	47.534
498.14	48.481
498.49	48.483
498.84	50.091
499.18	47.998
499.53	48.834
499.87	48.527
500.22	47.818
500.56	47.998
500.91	48.009
501.26	48.955
501.60	47.459
501.95	48.459
502.29	48.486
502.64	47.748
502.98	47.412
503.33	47.343
503.67	47.318
504.02	47.855
504.36	48.928
504.71	48.186
505.06	47.794
505.40	48.263
505.75	48.907
506.09	47.698
506.44	47.261
506.78	48.394
507.13	48.179
507.47	47.845
507.82	49.006
508.16	48.088
508.51	48.289
508.85	48.607
509.19	47.797
509.54	48.703
509.88	48.179
510.23	49.053
510.57	49.396
510.92	47.992
511.26	47.427
511.61	48.334
511.95	47.779
512.30	48.794
512.64	49.225
512.98	47.874
513.33	47.883
513.67	48.904
514.02	49.668
514.36	49.463
514.70	49.531
515.05	48.905
515.39	48.451
515.74	50.477
516.08	49.076
516.42	48.980
516.77	48.738
517.11	48.014
517.46	47.720
517.80	49.546
518.14	49.674
518.49	48.156
518.83	48.909
519.17	48.950
519.52	48.323
519.86	48.574
520.20	49.734
520.55	47.864
520.89	47.917
521.23	49.023
521.58	48.531
521.92	48.725
522.26	48.855
522.61	49.884
522.95	48.616
523.29	49.425
523.64	48.206
523.98	49.743
524.32	49.685
524.66	49.459
525.01	48.584
525.35	48.133
525.69	48.318
526.04	48.163
526.38	48.161
526.72	47.809
527.06	48.504
527.41	48.921
527.75	48.931
528.09	48.288
528.43	46.832
528.78	47.514
529.12	47.420
529.46	46.599
529.80	47.540
530.15	47.594
530.49	48.102
530.83	48.170
531.17	48.268
531.51	48.375
531.86	48.257
532.20	47.744
532.54	46.499
532.88	48.121
533.22	47.260
533.57	46.105
533.91	46.857
534.25	46.976
534.59	47.356
534.93	46.633
535.27	46.704
535.62	47.356
535.96	47.008
536.30	46.416
536.64	47.387
536.98	47.540
537.32	47.593
537.66	47.286
538.01	45.317
538.35	46.163
538.69	46.334
539.03	46.720
539.37	45.524
539.71	45.886
540.05	46.403
540.39	46.638
540.73	45.780
541.07	46.658
541.42	44.714
541.76	45.670
542.10	44.994
542.44	45.554
542.78	46.046
543.12	45.113
543.46	45.116
543.80	45.084
544.14	45.482
544.48	46.277
544.82	45.601
545.16	45.379
545.50	45.177
545.84	44.152
546.18	45.617
546.52	44.968
546.86	44.843
547.20	46.374
547.54	45.006
547.88	45.449
548.22	43.158
548.56	45.056
548.90	44.358
549.24	44.985
549.58	44.543
549.92	44.260
550.26	45.113
550.60	44.927
550.94	44.955
551.28	45.215
551.62	46.294
551.96	44.207
552.30	44.423
552.64	44.431
552.98	45.165
553.32	45.595
553.66	44.695
554.00	45.965
554.34	44.402
554.68	44.739
555.02	44.612
555.36	45.496
555.69	43.434
556.03	43.127
556.37	44.055
556.71	44.008
557.05	44.281
557.39	45.123
557.73	44.518
558.07	43.907
558.41	45.050
558.75	45.504
559.08	45.164
559.42	44.513
559.76	44.505
560.10	44.072
560.44	44.723
560.78	43.688
561.12	43.781
561.45	44.343
561.79	43.468
562.13	44.547
562.47	42.293
562.81	43.101
563.15	43.056
563.48	43.630
563.82	43.289
564.16	42.580
564.50	43.862
564.84	41.829
565.17	42.647
565.51	41.715
565.85	41.390
566.19	42.339
566.52	42.130
566.86	43.237
567.20	41.979
567.54	40.786
567.88	41.386
568.21	40.860
568.55	40.959
568.89	40.626
569.23	39.839
569.56	39.039
569.90	38.596
570.24	38.853
570.57	38.679
570.91	37.600
571.25	37.634
571.59	37.768
571.92	36.007
572.26	36.580
572.60	36.637
572.93	37.044
573.27	37.286
573.61	36.448
573.95	36.344
574.28	35.646
574.62	35.562
574.96	35.112
575.29	35.647
575.63	35.204
575.97	35.593
576.30	34.937
576.64	35.409
576.98	35.604
577.31	34.910
577.65	35.576
577.98	34.789
578.32	34.675
578.66	34.508
578.99	34.630
579.33	35.482
579.67	35.335
580.00	34.525
580.34	35.079
580.67	35.260
581.01	34.812
581.35	34.229
581.68	34.374
582.02	34.023
582.35	34.824
582.69	34.810
583.02	34.592
583.36	34.771
583.70	34.833
584.03	35.037
584.37	35.078
584.70	35.061
585.04	33.946
585.37	34.688
585.71	34.477
586.04	33.862
586.38	35.399
586.72	34.796
587.05	34.638
587.39	34.779
587.72	34.880
588.06	34.429
588.39	35.001
588.73	34.630
589.06	34.904
589.40	35.679
589.73	35.701
590.07	35.942
590.40	36.579
590.73	35.878
591.07	36.634
591.40	36.003
591.74	35.970
592.07	36.013
592.41	35.923
592.74	35.392
593.08	35.159
593.41	34.996
593.75	34.914
594.08	35.111
594.41	35.865
594.75	34.806
595.08	36.137
595.42	35.260
595.75	35.131
596.09	36.361
596.42	36.224
596.75	36.241
597.09	36.202
597.42	36.273
597.75	35.947
598.09	36.032
598.42	36.148
598.76	35.308
599.09	34.745
599.42	34.395
599.76	34.731
600.09	34.968
600.42	35.335
600.76	35.106
601.09	34.617
601.42	34.604
601.76	34.724
602.09	34.703
602.42	34.460
602.76	34.723
603.09	35.866
603.42	35.043
603.76	34.355
604.09	35.557
604.42	35.193
604.76	35.198
605.09	35.381
605.42	35.447
605.75	34.808
606.09	35.162
606.42	34.367
606.75	34.708
607.09	33.986
607.42	35.183
607.75	34.896
608.08	35.241
608.42	34.623
608.75	35.531
609.08	35.059
609.41	35.642
609.75	35.893
610.08	35.708
610.41	35.089
610.74	35.126
611.07	35.124
611.41	35.605
611.74	35.612
612.07	36.092
612.40	36.312
612.73	35.697
613.07	35.746
613.40	36.285
613.73	35.628
614.06	35.918
614.39	35.811
614.72	35.226
615.06	34.986
615.39	35.669
615.72	35.498
616.05	36.085
616.38	36.630
616.71	36.729
617.05	35.463
617.38	35.474
617.71	35.799
618.04	36.643
618.37	36.066
618.70	36.199
619.03	37.754
619.36	36.498
619.69	36.387
620.03	37.790
620.36	36.933
620.69	36.151
621.02	38.320
621.35	39.985
621.68	38.756
622.01	37.580
622.34	38.215
622.67	36.495
623.00	35.965
623.33	36.961
623.66	37.484
623.99	37.656
624.32	38.402
624.65	37.066
624.99	38.882
625.32	37.949
625.65	38.098
625.98	36.746
626.31	37.775
626.64	38.901
626.97	38.710
627.30	38.421
627.63	37.734
627.96	38.964
628.29	39.377
628.62	40.050
628.95	40.491
629.28	41.037
629.61	41.162
629.94	38.243
630.26	40.254
630.59	38.860
630.92	39.394
631.25	40.340
631.58	41.808
631.91	41.612
632.24	42.363
632.57	40.797
632.90	41.625
633.23	42.653
633.56	41.429
633.89	40.599
634.22	40.852
634.55	40.814
