SpectraSuite Data File
++++++++++++++++++++++++++++++++++++
Date: Thu May 14 14:41:23 PDT 2015
User: schluterlab
Dark Spectrum Present: Yes
Reference Spectrum Present: Yes
Number of Sampled Component Spectra: 1
Spectrometers: USB2E3373
Integration Time (usec): 3000 (USB2E3373)
Spectra Averaged: 3 (USB2E3373)
Boxcar Smoothing: 0 (USB2E3373)
Correct for Electrical Dark: No (USB2E3373)
Strobe/Lamp Enabled: No (USB2E3373)
Correct for Detector Non-linearity: No (USB2E3373)
Correct for Stray Light: No (USB2E3373)
Number of Pixels in Processed Spectrum: 2048
>>>>>Begin Processed Spectral Data<<<<<
178.53	0.000
178.91	-185.714
179.29	500.000
179.67	500.000
180.04	71.429
180.42	-40.000
180.80	-140.000
181.18	1100.000
181.56	1200.000
181.94	-75.000
182.31	325.000
182.69	-100.000
183.07	450.000
183.45	-175.000
183.83	233.333
184.20	100.000
184.58	-600.000
184.96	-100.000
185.34	77.778
185.72	180.000
186.09	-22.222
186.47	-0.000
186.85	100.000
187.23	-55.556
187.61	-1200.000
187.98	20.000
188.36	-250.000
188.74	325.000
189.12	166.667
189.49	106.250
189.87	75.000
190.25	200.000
190.63	160.000
191.00	11.111
191.38	0.000
191.76	75.000
192.14	200.000
192.51	-550.000
192.89	266.667
193.27	0.000
193.65	85.714
194.02	-800.000
194.40	-14.286
194.78	-242.857
195.15	0.000
195.53	100.000
195.91	0.000
196.29	275.000
196.66	38.462
197.04	400.000
197.42	0.000
197.79	850.000
198.17	62.500
198.55	171.429
198.92	155.556
199.30	75.000
199.68	163.636
200.05	150.000
200.43	300.000
200.81	14.286
201.18	0.000
201.56	11.111
201.94	0.000
202.31	-66.667
202.69	66.667
203.07	-200.000
203.44	111.111
203.82	100.000
204.19	158.333
204.57	133.333
204.95	12.500
205.32	300.000
205.70	-250.000
206.08	233.333
206.45	133.333
206.83	120.000
207.20	50.000
207.58	100.000
207.96	100.000
208.33	216.667
208.71	8.333
209.08	183.333
209.46	0.000
209.84	-200.000
210.21	-500.000
210.59	-350.000
210.96	-166.667
211.34	250.000
211.71	62.500
212.09	1000.000
212.46	0.000
212.84	150.000
213.22	-40.000
213.59	75.000
213.97	110.000
214.34	433.333
214.72	-166.667
215.09	300.000
215.47	0.000
215.84	-85.714
216.22	-0.000
216.59	40.000
216.97	-20.000
217.34	500.000
217.72	150.000
218.09	100.000
218.47	-50.000
218.84	0.000
219.22	-140.000
219.59	70.588
219.97	60.000
220.34	-0.000
220.72	44.444
221.09	100.000
221.47	400.000
221.84	100.000
222.22	14.286
222.59	0.000
222.97	312.500
223.34	200.000
223.72	-100.000
224.09	200.000
224.46	150.000
224.84	380.000
225.21	71.429
225.59	75.000
225.96	125.000
226.34	57.692
226.71	-116.667
227.08	450.000
227.46	20.000
227.83	25.000
228.21	52.632
228.58	-100.000
228.95	-50.000
229.33	83.333
229.70	100.000
230.08	78.947
230.45	-90.000
230.82	333.333
231.20	100.000
231.57	133.333
231.95	36.364
232.32	145.455
232.69	90.000
233.07	325.000
233.44	70.588
233.81	160.000
234.19	111.111
234.56	72.727
234.93	72.414
235.31	136.842
235.68	105.556
236.05	30.000
236.43	107.692
236.80	96.000
237.17	103.704
237.55	103.030
237.92	260.000
238.29	135.484
238.67	84.091
239.04	100.000
239.41	95.238
239.79	93.478
240.16	87.037
240.53	76.087
240.91	88.235
241.28	72.131
241.65	85.075
242.02	74.324
242.40	64.615
242.77	76.000
243.14	67.073
243.51	60.526
243.89	79.487
244.26	72.277
244.63	73.529
245.00	72.897
245.38	69.298
245.75	53.097
246.12	74.603
246.49	56.589
246.87	65.000
247.24	66.887
247.61	69.079
247.98	69.799
248.36	69.136
248.73	60.123
249.10	65.027
249.47	72.637
249.84	70.681
250.22	68.912
250.59	68.889
250.96	66.818
251.33	65.816
251.70	68.376
252.08	67.500
252.45	71.721
252.82	62.810
253.19	62.500
253.56	61.977
253.94	63.077
254.31	66.667
254.68	65.385
255.05	67.427
255.42	60.204
255.79	61.165
256.16	64.570
256.54	58.940
256.91	60.000
257.28	61.967
257.65	64.013
258.02	61.947
258.39	64.957
258.76	68.502
259.14	67.529
259.51	67.723
259.88	65.722
260.25	61.111
260.62	66.575
260.99	68.852
261.36	63.271
261.73	64.721
262.10	66.758
262.47	66.220
262.85	67.172
263.22	63.636
263.59	62.895
263.96	66.752
264.33	64.194
264.70	66.914
265.07	62.053
265.44	64.626
265.81	66.435
266.18	66.667
266.55	62.946
266.92	63.781
267.29	65.864
267.66	64.745
268.03	65.502
268.40	62.839
268.77	66.287
269.14	66.300
269.51	63.158
269.88	64.344
270.25	61.167
270.62	64.557
270.99	63.838
271.36	62.178
271.73	56.582
272.10	64.729
272.47	64.529
272.84	61.044
273.21	61.122
273.58	62.903
273.95	60.769
274.32	59.316
274.69	60.928
275.06	59.341
275.43	58.410
275.80	58.201
276.17	60.370
276.54	60.634
276.91	61.717
277.28	59.313
277.65	61.221
278.02	60.110
278.39	61.413
278.76	61.863
279.13	62.057
279.50	59.107
279.87	60.286
280.23	55.986
280.60	59.322
280.97	58.553
281.34	62.139
281.71	60.237
282.08	56.811
282.45	58.101
282.82	55.259
283.19	61.228
283.56	58.525
283.92	57.207
284.29	58.136
284.66	57.964
285.03	54.167
285.40	57.187
285.77	58.978
286.14	57.557
286.51	56.621
286.87	54.818
287.24	57.380
287.61	57.100
287.98	55.589
288.35	57.249
288.72	54.290
289.08	55.637
289.45	54.734
289.82	54.217
290.19	55.172
290.56	52.394
290.93	54.636
291.29	53.030
291.66	51.240
292.03	50.204
292.40	52.245
292.77	49.326
293.13	50.203
293.50	49.671
293.87	50.738
294.24	51.467
294.60	47.788
294.97	48.188
295.34	50.832
295.71	47.793
296.08	47.804
296.44	46.936
296.81	45.798
297.18	46.700
297.55	44.811
297.91	46.145
298.28	45.261
298.65	44.828
299.02	44.156
299.38	44.279
299.75	44.276
300.12	45.139
300.48	45.392
300.85	43.982
301.22	44.072
301.59	45.776
301.95	42.147
302.32	44.556
302.69	41.950
303.05	43.308
303.42	42.018
303.79	42.708
304.15	42.166
304.52	43.235
304.89	43.037
305.25	42.133
305.62	42.111
305.99	42.371
306.35	41.129
306.72	44.467
307.09	42.030
307.45	42.547
307.82	41.070
308.19	40.767
308.55	41.176
308.92	42.162
309.29	43.008
309.65	41.326
310.02	42.079
310.38	41.437
310.75	43.786
311.12	41.898
311.48	42.815
311.85	41.975
312.22	41.746
312.58	40.376
312.95	41.013
313.31	40.921
313.68	41.117
314.05	41.825
314.41	42.077
314.78	41.871
315.14	42.015
315.51	41.274
315.87	42.304
316.24	44.110
316.61	42.718
316.97	42.624
317.34	41.799
317.70	42.009
318.07	43.474
318.43	41.667
318.80	41.806
319.16	43.004
319.53	41.560
319.89	42.156
320.26	43.505
320.62	42.642
320.99	43.767
321.35	43.530
321.72	43.535
322.08	42.651
322.45	43.451
322.81	43.141
323.18	41.681
323.54	44.828
323.91	44.306
324.27	44.320
324.64	43.913
325.00	43.118
325.37	45.045
325.73	43.636
326.10	45.337
326.46	44.300
326.83	44.115
327.19	45.433
327.56	46.166
327.92	43.824
328.29	44.113
328.65	43.132
329.01	45.178
329.38	46.504
329.74	46.147
330.11	46.747
330.47	45.493
330.84	44.961
331.20	47.000
331.56	45.147
331.93	44.770
332.29	46.610
332.66	44.934
333.02	44.556
333.38	44.715
333.75	44.865
334.11	45.121
334.48	44.802
334.84	45.709
335.20	44.836
335.57	44.604
335.93	44.380
336.29	44.260
336.66	45.164
337.02	44.398
337.38	45.408
337.75	44.132
338.11	45.332
338.47	44.748
338.84	44.670
339.20	44.061
339.56	43.081
339.93	44.253
340.29	43.961
340.65	43.633
341.02	44.453
341.38	44.786
341.74	44.471
342.11	44.650
342.47	41.859
342.83	44.283
343.20	44.971
343.56	43.865
343.92	44.275
344.28	42.578
344.65	44.109
345.01	43.136
345.37	42.535
345.73	42.011
346.10	44.228
346.46	43.592
346.82	44.644
347.19	42.781
347.55	42.944
347.91	42.051
348.27	43.247
348.63	43.564
349.00	42.655
349.36	43.346
349.72	42.113
350.08	42.496
350.45	42.738
350.81	43.137
351.17	42.932
351.53	44.428
351.89	43.888
352.26	42.687
352.62	42.836
352.98	43.130
353.34	41.374
353.70	43.683
354.07	42.548
354.43	42.445
354.79	43.156
355.15	43.194
355.51	41.740
355.87	43.082
356.24	42.205
356.60	42.276
356.96	44.552
357.32	42.230
357.68	42.606
358.04	41.916
358.40	41.940
358.77	42.763
359.13	42.614
359.49	40.743
359.85	42.350
360.21	42.539
360.57	42.139
360.93	41.961
361.29	42.246
361.66	42.288
362.02	41.893
362.38	41.321
362.74	41.830
363.10	41.678
363.46	43.698
363.82	41.832
364.18	42.435
364.54	42.324
364.90	42.876
365.26	41.310
365.62	42.333
365.98	43.091
366.35	42.886
366.71	42.789
367.07	42.558
367.43	41.891
367.79	43.796
368.15	43.211
368.51	42.760
368.87	41.933
369.23	42.600
369.59	42.486
369.95	42.394
370.31	43.619
370.67	42.572
371.03	42.936
371.39	42.915
371.75	42.847
372.11	42.344
372.47	43.128
372.83	42.866
373.19	42.161
373.55	42.005
373.91	42.672
374.27	42.432
374.63	43.978
374.99	43.634
375.35	43.636
375.71	43.742
376.07	43.512
376.42	43.640
376.78	43.008
377.14	43.668
377.50	44.908
377.86	43.781
378.22	44.611
378.58	45.184
378.94	43.897
379.30	43.878
379.66	44.327
380.02	44.547
380.38	47.062
380.74	44.732
381.09	45.703
381.45	44.375
381.81	45.960
382.17	45.843
382.53	46.082
382.89	45.598
383.25	46.131
383.61	46.759
383.97	44.994
384.32	47.787
384.68	45.302
385.04	46.501
385.40	47.967
385.76	46.952
386.12	45.422
386.48	46.941
386.83	47.855
387.19	46.466
387.55	46.009
387.91	47.260
388.27	47.055
388.62	46.506
388.98	46.926
389.34	46.847
389.70	48.112
390.06	48.609
390.42	48.133
390.77	48.525
391.13	47.770
391.49	48.490
391.85	48.606
392.20	48.458
392.56	49.025
392.92	47.274
393.28	48.867
393.64	47.654
393.99	48.693
394.35	49.474
394.71	48.922
395.07	47.665
395.42	47.915
395.78	50.152
396.14	49.614
396.50	48.872
396.85	49.374
397.21	49.704
397.57	50.589
397.92	49.714
398.28	49.864
398.64	48.856
399.00	49.058
399.35	49.424
399.71	50.054
400.07	49.803
400.42	49.942
400.78	50.231
401.14	50.085
401.49	49.744
401.85	50.930
402.21	50.579
402.57	50.469
402.92	50.177
403.28	49.824
403.63	49.582
403.99	50.416
404.35	49.858
404.70	50.142
405.06	50.163
405.42	50.000
405.77	49.891
406.13	50.297
406.49	50.563
406.84	50.249
407.20	49.525
407.55	50.697
407.91	52.043
408.27	50.000
408.62	50.553
408.98	50.145
409.34	49.736
409.69	51.483
410.05	51.055
410.40	50.812
410.76	50.701
411.11	51.490
411.47	50.860
411.83	49.971
412.18	52.289
412.54	51.986
412.89	50.815
413.25	49.661
413.60	51.465
413.96	51.632
414.31	49.972
414.67	51.282
415.03	50.769
415.38	51.009
415.74	51.130
416.09	51.511
416.45	49.969
416.80	51.652
417.16	51.149
417.51	51.059
417.87	51.318
418.22	51.796
418.58	50.310
418.93	51.688
419.29	51.665
419.64	50.660
420.00	52.047
420.35	51.825
420.71	51.580
421.06	50.201
421.42	52.523
421.77	51.265
422.12	50.423
422.48	52.483
422.83	52.738
423.19	50.981
423.54	52.323
423.90	51.132
424.25	52.587
424.61	51.435
424.96	51.181
425.31	51.433
425.67	51.154
426.02	53.127
426.38	52.870
426.73	51.563
427.09	52.710
427.44	51.884
427.79	51.686
428.15	52.340
428.50	52.079
428.85	52.181
429.21	52.713
429.56	51.876
429.92	51.744
430.27	52.434
430.62	52.809
430.98	52.878
431.33	51.564
431.68	52.011
432.04	53.174
432.39	52.812
432.74	53.139
433.10	52.731
433.45	52.174
433.80	52.736
434.16	52.169
434.51	53.135
434.86	54.235
435.22	53.666
435.57	54.422
435.92	53.701
436.28	52.730
436.63	53.741
436.98	52.764
437.34	53.326
437.69	53.275
438.04	52.935
438.39	52.326
438.75	53.735
439.10	53.753
439.45	52.935
439.81	53.277
440.16	51.421
440.51	53.902
440.86	52.974
441.22	52.894
441.57	52.935
441.92	53.201
442.27	53.687
442.63	54.545
442.98	53.148
443.33	53.235
443.68	53.667
444.03	54.280
444.39	54.508
444.74	54.058
445.09	53.928
445.44	54.004
445.79	54.262
446.15	53.443
446.50	53.333
446.85	53.940
447.20	52.660
447.55	53.975
447.91	53.717
448.26	53.277
448.61	53.454
448.96	54.131
449.31	53.234
449.66	52.778
450.02	53.059
450.37	53.383
450.72	53.767
451.07	53.759
451.42	53.553
451.77	53.141
452.12	53.950
452.47	54.605
452.83	55.180
453.18	52.831
453.53	53.303
453.88	53.120
454.23	52.825
454.58	54.962
454.93	53.944
455.28	52.920
455.63	52.757
455.98	53.352
456.34	53.651
456.69	52.322
457.04	54.669
457.39	52.605
457.74	54.474
458.09	52.773
458.44	53.448
458.79	52.708
459.14	52.963
459.49	54.612
459.84	54.460
460.19	52.415
460.54	53.776
460.89	54.050
461.24	53.506
461.59	54.068
461.94	53.166
462.29	53.863
462.64	52.625
462.99	52.417
463.34	53.472
463.69	53.283
464.04	53.474
464.39	52.578
464.74	52.965
465.09	52.941
465.44	53.433
465.79	53.940
466.14	52.944
466.49	53.789
466.84	53.884
467.19	51.965
467.54	52.233
467.89	53.218
468.24	52.410
468.59	52.808
468.94	52.972
469.29	52.130
469.64	52.765
469.99	52.645
470.34	52.723
470.68	53.178
471.03	52.325
471.38	52.387
471.73	53.576
472.08	52.475
472.43	52.619
472.78	52.645
473.13	52.718
473.48	51.480
473.83	53.685
474.17	51.934
474.52	53.698
474.87	52.215
475.22	53.239
475.57	52.544
475.92	52.514
476.27	52.875
476.61	52.129
476.96	52.138
477.31	52.624
477.66	53.673
478.01	52.567
478.36	51.745
478.70	52.167
479.05	52.658
479.40	52.567
479.75	52.594
480.10	52.392
480.45	52.233
480.79	52.517
481.14	52.206
481.49	53.294
481.84	52.611
482.19	53.075
482.53	51.902
482.88	53.345
483.23	52.157
483.58	52.227
483.92	51.596
484.27	51.693
484.62	51.650
484.97	51.711
485.31	51.531
485.66	50.851
486.01	51.985
486.36	53.651
486.70	56.230
487.05	57.132
487.40	55.329
487.75	55.547
488.09	54.015
488.44	53.422
488.79	53.794
489.13	52.317
489.48	52.000
489.83	51.549
490.17	50.628
490.52	51.026
490.87	51.311
491.22	51.343
491.56	50.341
491.91	51.592
492.26	51.233
492.60	51.202
492.95	51.031
493.30	50.515
493.64	49.890
493.99	50.088
494.34	50.305
494.68	49.979
495.03	51.542
495.37	50.866
495.72	50.794
496.07	50.438
496.41	50.536
496.76	52.002
497.11	51.380
497.45	51.230
497.80	51.088
498.14	49.932
498.49	51.149
498.84	50.960
499.18	51.102
499.53	51.121
499.87	50.901
500.22	50.312
500.56	49.843
500.91	51.579
501.26	51.591
501.60	50.199
501.95	50.630
502.29	51.909
502.64	51.159
502.98	50.561
503.33	50.626
503.67	50.283
504.02	50.482
504.36	51.430
504.71	51.585
505.06	50.568
505.40	50.960
505.75	51.047
506.09	50.552
506.44	51.346
506.78	51.606
507.13	50.438
507.47	51.350
507.82	50.284
508.16	50.813
508.51	49.133
508.85	51.346
509.19	50.545
509.54	51.537
509.88	49.976
510.23	51.676
510.57	50.894
510.92	51.717
511.26	50.505
511.61	49.638
511.95	51.147
512.30	50.812
512.64	49.475
512.98	50.825
513.33	51.361
513.67	50.994
514.02	51.814
514.36	50.639
514.70	51.146
515.05	51.512
515.39	50.761
515.74	51.750
516.08	50.291
516.42	51.439
516.77	50.946
517.11	50.438
517.46	50.371
517.80	51.203
518.14	51.904
518.49	51.356
518.83	50.878
519.17	51.427
519.52	50.000
519.86	51.320
520.20	51.012
520.55	50.767
520.89	50.957
521.23	50.586
521.58	51.299
521.92	49.972
522.26	50.630
522.61	50.116
522.95	50.980
523.29	51.437
523.64	49.944
523.98	51.626
524.32	51.920
524.66	52.020
525.01	50.793
525.35	50.086
525.69	50.754
526.04	50.115
526.38	51.149
526.72	49.769
527.06	51.906
527.41	50.904
527.75	52.138
528.09	50.885
528.43	50.266
528.78	50.289
529.12	51.261
529.46	50.703
529.80	51.144
530.15	51.536
530.49	51.839
530.83	50.590
531.17	51.673
531.51	51.805
531.86	51.082
532.20	51.829
532.54	50.688
532.88	51.818
533.22	51.503
533.57	50.952
533.91	51.347
534.25	52.911
534.59	53.218
534.93	52.971
535.27	51.831
535.62	53.610
535.96	52.876
536.30	53.114
536.64	52.132
536.98	52.091
537.32	52.284
537.66	52.339
538.01	51.420
538.35	52.010
538.69	52.103
539.03	52.790
539.37	51.943
539.71	51.952
540.05	53.118
540.39	53.362
540.73	53.005
541.07	52.483
541.42	52.097
541.76	51.423
542.10	52.473
542.44	52.984
542.78	52.920
543.12	52.861
543.46	51.832
543.80	51.379
544.14	52.843
544.48	53.014
544.82	52.005
545.16	53.071
545.50	53.625
545.84	52.725
546.18	52.901
546.52	53.376
546.86	51.887
547.20	52.735
547.54	51.810
547.88	53.406
548.22	52.281
548.56	51.960
548.90	52.478
549.24	53.252
549.58	53.375
549.92	52.296
550.26	52.621
550.60	51.563
550.94	53.493
551.28	51.749
551.62	51.887
551.96	51.133
552.30	52.008
552.64	51.898
552.98	52.963
553.32	53.569
553.66	54.019
554.00	52.585
554.34	52.574
554.68	50.549
555.02	52.431
555.36	54.372
555.69	51.121
556.03	51.955
556.37	53.191
556.71	52.505
557.05	54.121
557.39	51.825
557.73	52.774
558.07	53.576
558.41	52.957
558.75	53.212
559.08	53.375
559.42	51.166
559.76	52.103
560.10	52.244
560.44	53.166
560.78	53.875
561.12	52.463
561.45	53.893
561.79	52.747
562.13	54.837
562.47	52.774
562.81	52.215
563.15	53.030
563.48	52.766
563.82	53.023
564.16	52.877
564.50	53.695
564.84	52.625
565.17	53.412
565.51	52.877
565.85	54.632
566.19	52.419
566.52	53.774
566.86	54.160
567.20	52.909
567.54	54.700
567.88	55.199
568.21	53.706
568.55	55.012
568.89	55.788
569.23	55.682
569.56	56.077
569.90	56.415
570.24	56.459
570.57	56.928
570.91	57.532
571.25	56.841
571.59	57.195
571.92	57.463
572.26	57.438
572.60	58.176
572.93	58.002
573.27	56.898
573.61	57.861
573.95	57.927
574.28	56.739
574.62	58.254
574.96	56.573
575.29	57.347
575.63	57.404
575.97	58.204
576.30	56.921
576.64	57.266
576.98	56.925
577.31	57.797
577.65	58.976
577.98	58.114
578.32	57.989
578.66	58.406
578.99	58.816
579.33	58.871
579.67	58.522
580.00	57.361
580.34	58.246
580.67	58.120
581.01	57.810
581.35	57.919
581.68	57.551
582.02	57.736
582.35	59.454
582.69	59.682
583.02	59.895
583.36	59.889
583.70	59.373
584.03	58.723
584.37	58.726
584.70	57.531
585.04	57.963
585.37	57.556
585.71	57.584
586.04	58.432
586.38	57.985
586.72	58.210
587.05	59.120
587.39	58.290
587.72	58.541
588.06	58.438
588.39	59.149
588.73	57.989
589.06	58.916
589.40	59.465
589.73	57.808
590.07	58.720
590.40	58.452
590.73	58.218
591.07	57.856
591.40	57.076
591.74	57.353
592.07	56.841
592.41	56.625
592.74	56.585
593.08	57.707
593.41	57.772
593.75	57.960
594.08	58.831
594.41	58.686
594.75	57.954
595.08	58.042
595.42	57.890
595.75	58.185
596.09	58.184
596.42	57.793
596.75	57.391
597.09	58.141
597.42	57.290
597.75	56.527
598.09	56.706
598.42	57.298
598.76	56.668
599.09	56.355
599.42	56.487
599.76	57.280
600.09	57.658
600.42	58.158
600.76	57.728
601.09	57.351
601.42	58.050
601.76	56.759
602.09	57.255
602.42	56.670
602.76	57.122
603.09	57.342
603.42	58.671
603.76	58.175
604.09	59.049
604.42	58.385
604.76	57.268
605.09	57.439
605.42	57.257
605.75	58.038
606.09	57.447
606.42	56.257
606.75	56.259
607.09	56.336
607.42	57.148
607.75	57.991
608.08	56.906
608.42	56.711
608.75	57.794
609.08	57.088
609.41	58.006
609.75	57.188
610.08	57.256
610.41	56.797
610.74	57.437
611.07	57.282
611.41	57.130
611.74	57.829
612.07	57.129
612.40	57.367
612.73	57.213
613.07	56.675
613.40	57.218
613.73	56.668
614.06	57.360
614.39	56.220
614.72	55.798
615.06	55.775
615.39	56.114
615.72	56.635
616.05	56.824
616.38	58.325
616.71	56.374
617.05	57.242
617.38	56.447
617.71	56.965
618.04	57.798
618.37	57.814
618.70	56.052
619.03	56.571
619.36	56.042
619.69	56.118
620.03	55.304
620.36	55.153
620.69	54.904
621.02	56.824
621.35	56.604
621.68	56.038
622.01	53.950
622.34	54.881
622.67	55.945
623.00	54.993
623.33	55.474
623.66	57.458
623.99	55.168
624.32	55.491
624.65	56.178
624.99	56.957
625.32	57.152
625.65	57.114
625.98	55.051
626.31	55.634
626.64	55.824
626.97	55.289
627.30	55.049
627.63	54.839
627.96	55.480
628.29	54.942
628.62	55.332
628.95	55.478
629.28	53.951
629.61	53.788
629.94	53.473
630.26	53.390
630.59	54.750
630.92	54.026
631.25	53.220
631.58	53.955
631.91	54.733
632.24	54.851
632.57	52.277
632.90	53.962
633.23	53.163
633.56	51.939
633.89	52.789
