SpectraSuite Data File
++++++++++++++++++++++++++++++++++++
Date: Thu May 14 15:18:20 PDT 2015
User: schluterlab
Dark Spectrum Present: Yes
Reference Spectrum Present: Yes
Number of Sampled Component Spectra: 1
Spectrometers: USB2E3373
Integration Time (usec): 3000 (USB2E3373)
Spectra Averaged: 3 (USB2E3373)
Boxcar Smoothing: 0 (USB2E3373)
Correct for Electrical Dark: No (USB2E3373)
Strobe/Lamp Enabled: No (USB2E3373)
Correct for Detector Non-linearity: No (USB2E3373)
Correct for Stray Light: No (USB2E3373)
Number of Pixels in Processed Spectrum: 2048
>>>>>Begin Processed Spectral Data<<<<<
178.53	0.000
178.91	528.571
179.29	-4400.000
179.67	-4300.000
180.04	378.571
180.42	460.000
180.80	760.000
181.18	-3600.000
181.56	-3400.000
181.94	825.000
182.31	-875.000
182.69	1366.667
183.07	-2200.000
183.45	1200.000
183.83	-683.333
184.20	-1266.667
184.58	4700.000
184.96	-1100.000
185.34	-377.778
185.72	-640.000
186.09	555.556
186.47	2350.000
186.85	1100.000
187.23	-500.000
187.61	-4600.000
187.98	920.000
188.36	1075.000
188.74	-875.000
189.12	-1100.000
189.49	-206.250
189.87	-687.500
190.25	-411.111
190.63	-680.000
191.00	-544.444
191.38	0.000
191.76	-1175.000
192.14	-666.667
192.51	2100.000
192.89	-533.333
193.27	0.000
193.65	-585.714
194.02	-5300.000
194.40	-528.571
194.78	642.857
195.15	0.000
195.53	-336.364
195.91	0.000
196.29	-950.000
196.66	-269.231
197.04	-4100.000
197.42	-614.286
197.79	-2000.000
198.17	-475.000
198.55	-600.000
198.92	-322.222
199.30	-550.000
199.68	-263.636
200.05	-242.857
200.43	-2250.000
200.81	714.286
201.18	0.000
201.56	477.778
201.94	0.000
202.31	1733.333
202.69	-477.778
203.07	3300.000
203.44	-422.222
203.82	-1000.000
204.19	-325.000
204.57	-716.667
204.95	-562.500
205.32	-4400.000
205.70	875.000
206.08	-583.333
206.45	-633.333
206.83	1040.000
207.20	-716.667
207.58	-720.000
207.96	-633.333
208.33	-483.333
208.71	366.667
209.08	-400.000
209.46	0.000
209.84	866.667
210.21	1800.000
210.59	1850.000
210.96	1500.000
211.34	-875.000
211.71	-550.000
212.09	-5200.000
212.46	0.000
212.84	2550.000
213.22	-880.000
213.59	-775.000
213.97	-390.000
214.34	-1300.000
214.72	833.333
215.09	-1150.000
215.47	0.000
215.84	628.571
216.22	1850.000
216.59	-540.000
216.97	-720.000
217.34	-925.000
217.72	-400.000
218.09	-1125.000
218.47	-1225.000
218.84	0.000
219.22	700.000
219.59	-217.647
219.97	-150.000
220.34	2300.000
220.72	-433.333
221.09	-161.538
221.47	-1000.000
221.84	-390.000
222.22	-671.429
222.59	0.000
222.97	-512.500
223.34	-860.000
223.72	-3600.000
224.09	-925.000
224.46	-1150.000
224.84	-760.000
225.21	-628.571
225.59	-1075.000
225.96	-1050.000
226.34	-126.923
226.71	683.333
227.08	-1600.000
227.46	-293.333
227.83	-1075.000
228.21	-173.684
228.58	525.000
228.95	2400.000
229.33	-283.333
229.70	-390.000
230.08	-142.105
230.45	440.000
230.82	-1000.000
231.20	-242.857
231.57	-208.333
231.95	-318.182
232.32	-345.455
232.69	-140.000
233.07	-675.000
233.44	-258.824
233.81	-360.000
234.19	-161.111
234.56	-136.364
234.93	-86.207
235.31	-184.211
235.68	-205.556
236.05	-205.000
236.43	-73.077
236.80	-36.000
237.17	-107.407
237.55	-87.879
237.92	-330.000
238.29	-54.839
238.67	-50.000
239.04	-94.444
239.41	-57.143
239.79	-45.652
240.16	-14.815
240.53	-30.435
240.91	-33.333
241.28	-18.033
241.65	-5.970
242.02	-8.108
242.40	-1.538
242.77	1.333
243.14	-10.976
243.51	-3.947
243.89	-3.846
244.26	-1.980
244.63	10.784
245.00	6.542
245.38	15.789
245.75	3.540
246.12	27.778
246.49	14.729
246.87	20.000
247.24	23.841
247.61	23.684
247.98	16.107
248.36	22.222
248.73	21.472
249.10	26.230
249.47	28.358
249.84	31.414
250.22	32.124
250.59	27.778
250.96	31.818
251.33	28.571
251.70	26.923
252.08	29.167
252.45	31.557
252.82	34.711
253.19	26.953
253.56	35.741
253.94	26.154
254.31	32.197
254.68	38.462
255.05	38.111
255.42	36.054
255.79	31.392
256.16	35.099
256.54	34.106
256.91	35.410
257.28	37.377
257.65	32.166
258.02	33.923
258.39	34.188
258.76	39.144
259.14	37.356
259.51	35.735
259.88	34.278
260.25	35.000
260.62	37.534
260.99	40.710
261.36	39.678
261.73	35.809
262.10	38.736
262.47	42.091
262.85	40.657
263.22	37.403
263.59	36.579
263.96	36.061
264.33	38.619
264.70	36.543
265.07	41.289
265.44	40.136
265.81	36.111
266.18	38.095
266.55	36.607
266.92	37.358
267.29	40.481
267.66	38.581
268.03	39.520
268.40	35.908
268.77	39.863
269.14	37.225
269.51	40.351
269.88	39.754
270.25	36.016
270.62	40.506
270.99	39.394
271.36	38.812
271.73	39.489
272.10	38.878
272.47	37.675
272.84	40.161
273.21	39.479
273.58	36.492
273.95	38.077
274.32	37.452
274.69	39.458
275.06	39.377
275.43	35.675
275.80	39.330
276.17	38.519
276.54	35.634
276.91	37.746
277.28	36.890
277.65	39.677
278.02	37.684
278.39	37.500
278.76	38.840
279.13	38.475
279.50	37.629
279.87	39.177
280.23	35.563
280.60	39.153
280.97	37.993
281.34	37.691
281.71	37.394
282.08	37.375
282.45	37.807
282.82	37.049
283.19	38.449
283.56	37.705
283.92	37.237
284.29	39.968
284.66	38.095
285.03	36.699
285.40	37.403
285.77	37.152
286.14	39.084
286.51	35.616
286.87	37.757
287.24	37.048
287.61	36.323
287.98	33.233
288.35	35.355
288.72	35.207
289.08	36.018
289.45	33.876
289.82	33.434
290.19	34.052
290.56	35.775
290.93	34.665
291.29	33.471
291.66	34.298
292.03	31.615
292.40	32.789
292.77	32.480
293.13	31.935
293.50	31.800
293.87	31.812
294.24	33.067
294.60	30.468
294.97	31.141
295.34	29.449
295.71	30.391
296.08	29.457
296.44	28.676
296.81	29.598
297.18	29.763
297.55	29.953
297.91	30.605
298.28	29.028
298.65	28.775
299.02	27.863
299.38	28.604
299.75	28.154
300.12	28.588
300.48	28.456
300.85	26.434
301.22	27.852
301.59	28.539
301.95	27.232
302.32	27.444
302.69	28.368
303.05	28.727
303.42	27.273
303.79	27.083
304.15	28.812
304.52	27.801
304.89	28.377
305.25	26.294
305.62	28.213
305.99	26.598
306.35	27.520
306.72	26.887
307.09	27.208
307.45	28.157
307.82	27.346
308.19	26.640
308.55	29.122
308.92	27.945
309.29	26.533
309.65	28.265
310.02	26.337
310.38	27.657
310.75	27.379
311.12	27.613
311.48	26.979
311.85	28.775
312.22	26.565
312.58	27.418
312.95	27.247
313.31	26.558
313.68	28.022
314.05	27.552
314.41	28.780
314.78	27.248
315.14	28.221
315.51	27.886
315.87	28.353
316.24	29.498
316.61	29.041
316.97	27.240
317.34	29.541
317.70	29.869
318.07	30.776
318.43	28.146
318.80	30.017
319.16	29.013
319.53	27.164
319.89	29.273
320.26	30.071
320.62	28.901
320.99	29.732
321.35	30.037
321.72	31.628
322.08	31.019
322.45	32.340
322.81	33.664
323.18	31.504
323.54	32.672
323.91	32.829
324.27	33.133
324.64	34.005
325.00	32.670
325.37	34.234
325.73	34.132
326.10	34.550
326.46	34.772
326.83	36.349
327.19	36.220
327.56	36.680
327.92	36.192
328.29	37.258
328.65	36.851
329.01	37.817
329.38	36.984
329.74	37.500
330.11	38.955
330.47	38.248
330.84	37.382
331.20	40.250
331.56	38.128
331.93	39.079
332.29	38.814
332.66	39.203
333.02	39.531
333.38	39.430
333.75	39.899
334.11	40.367
334.48	39.191
334.84	40.612
335.20	38.707
335.57	40.472
335.93	38.678
336.29	38.519
336.66	39.108
337.02	40.468
337.38	38.435
337.75	38.512
338.11	41.379
338.47	38.627
338.84	37.648
339.20	39.090
339.56	37.891
339.93	39.737
340.29	37.923
340.65	39.416
341.02	38.308
341.38	39.369
341.74	39.790
342.11	38.616
342.47	38.920
342.83	40.499
343.20	40.147
343.56	39.214
343.92	38.991
344.28	39.922
344.65	38.062
345.01	38.456
345.37	38.725
345.73	39.127
346.10	39.158
346.46	38.924
346.82	38.951
347.19	37.892
347.55	39.378
347.91	38.782
348.27	37.785
348.63	39.375
349.00	37.882
349.36	37.770
349.72	38.095
350.08	39.376
350.45	39.011
350.81	38.914
351.17	39.098
351.53	38.817
351.89	38.497
352.26	39.030
352.62	38.134
352.98	40.458
353.34	37.565
353.70	39.985
354.07	37.779
354.43	39.560
354.79	38.818
355.15	38.852
355.51	39.839
355.87	38.070
356.24	40.000
356.60	37.768
356.96	39.807
357.32	39.331
357.68	37.921
358.04	38.847
358.40	38.134
358.77	40.351
359.13	38.479
359.49	39.182
359.85	37.636
360.21	39.024
360.57	38.550
360.93	37.800
361.29	40.421
361.66	39.681
362.02	39.666
362.38	39.494
362.74	40.014
363.10	39.202
363.46	39.543
363.82	40.057
364.18	40.816
364.54	41.217
364.90	40.736
365.26	40.138
365.62	40.667
365.98	40.027
366.35	39.396
366.71	40.068
367.07	40.054
367.43	40.578
367.79	41.606
368.15	40.870
368.51	41.069
368.87	40.366
369.23	40.467
369.59	40.710
369.95	42.461
370.31	41.188
370.67	41.403
371.03	40.997
371.39	40.766
371.75	40.784
372.11	40.921
372.47	41.706
372.83	41.296
373.19	39.426
373.55	42.412
373.91	41.036
374.27	40.362
374.63	41.881
374.99	41.578
375.35	42.532
375.71	41.097
376.07	41.833
376.42	41.499
376.78	42.324
377.14	42.171
377.50	41.303
377.86	42.426
378.22	42.455
378.58	43.757
378.94	43.251
379.30	42.824
379.66	43.034
380.02	43.393
380.38	43.894
380.74	42.930
381.09	44.135
381.45	44.091
381.81	44.204
382.17	44.181
382.53	43.743
382.89	42.099
383.25	45.018
383.61	44.444
383.97	44.759
384.32	44.258
384.68	43.735
385.04	44.997
385.40	44.431
385.76	45.428
386.12	44.524
386.48	44.765
386.83	45.888
387.19	44.496
387.55	45.129
387.91	44.863
388.27	45.266
388.62	44.616
388.98	44.896
389.34	45.728
389.70	44.741
390.06	45.767
390.42	44.940
390.77	47.020
391.13	45.599
391.49	46.377
391.85	44.606
392.20	45.789
392.56	45.954
392.92	46.565
393.28	46.379
393.64	45.698
393.99	46.949
394.35	47.196
394.71	46.886
395.07	45.749
395.42	44.660
395.78	47.105
396.14	46.643
396.50	47.506
396.85	45.259
397.21	46.154
397.57	45.701
397.92	46.392
398.28	46.279
398.64	46.053
399.00	46.545
399.35	45.969
399.71	46.196
400.07	47.052
400.42	46.158
400.78	46.238
401.14	46.158
401.49	45.935
401.85	46.512
402.21	46.582
402.57	48.826
402.92	46.099
403.28	45.726
403.63	46.241
403.99	45.843
404.35	45.708
404.70	45.779
405.06	45.217
405.42	46.429
405.77	45.692
406.13	46.840
406.49	47.410
406.84	46.039
407.20	46.618
407.55	45.669
407.91	45.820
408.27	45.347
408.62	46.364
408.98	45.850
409.34	46.276
409.69	46.910
410.05	45.780
410.40	45.940
410.76	45.205
411.11	45.880
411.47	46.007
411.83	46.737
412.18	46.145
412.54	45.940
412.89	45.925
413.25	46.388
413.60	46.697
413.96	46.387
414.31	45.382
414.67	44.842
415.03	44.431
415.38	45.523
415.74	44.716
416.09	46.453
416.45	44.771
416.80	45.594
417.16	46.296
417.51	45.704
417.87	45.616
418.22	46.587
418.58	45.663
418.93	46.449
419.29	46.671
419.64	45.798
420.00	46.291
420.35	46.210
420.71	46.353
421.06	45.313
421.42	46.560
421.77	44.750
422.12	46.564
422.48	46.749
422.83	46.550
423.19	48.276
423.54	47.456
423.90	46.218
424.25	47.093
424.61	46.556
424.96	45.524
425.31	47.346
425.67	46.323
426.02	47.316
426.38	47.015
426.73	46.596
427.09	47.232
427.44	46.313
427.79	48.148
428.15	46.461
428.50	47.416
428.85	46.900
429.21	47.181
429.56	47.285
429.92	46.634
430.27	47.663
430.62	47.826
430.98	48.008
431.33	47.556
431.68	46.216
432.04	48.502
432.39	47.402
432.74	47.146
433.10	47.918
433.45	46.656
433.80	46.835
434.16	47.211
434.51	48.356
434.86	49.457
435.22	49.097
435.57	48.054
435.92	47.913
436.28	48.066
436.63	49.317
436.98	47.665
437.34	46.731
437.69	49.312
438.04	48.334
438.39	47.731
438.75	47.814
439.10	48.414
439.45	47.624
439.81	48.418
440.16	48.097
440.51	48.718
440.86	47.193
441.22	48.232
441.57	48.532
441.92	47.672
442.27	50.152
442.63	49.528
442.98	49.306
443.33	48.553
443.68	49.009
444.03	50.753
444.39	48.682
444.74	49.515
445.09	48.555
445.44	49.737
445.79	49.952
446.15	50.462
446.50	49.044
446.85	49.805
447.20	50.145
447.55	50.418
447.91	50.524
448.26	49.154
448.61	49.309
448.96	51.127
449.31	49.205
449.66	48.911
450.02	50.422
450.37	49.654
450.72	49.731
451.07	49.601
451.42	50.491
451.77	48.805
452.12	50.903
452.47	49.317
452.83	52.365
453.18	49.971
453.53	49.914
453.88	49.034
454.23	49.718
454.58	50.319
454.93	49.879
455.28	50.331
455.63	48.891
455.98	50.894
456.34	50.589
456.69	50.206
457.04	51.241
457.39	49.667
457.74	50.951
458.09	49.588
458.44	50.916
458.79	50.077
459.14	50.603
459.49	50.764
459.84	51.626
460.19	50.250
460.54	51.221
460.89	50.926
461.24	49.655
461.59	50.526
461.94	49.971
462.29	50.504
462.64	49.125
462.99	50.157
463.34	49.578
463.69	49.121
464.04	50.417
464.39	50.224
464.74	49.373
465.09	50.692
465.44	49.624
465.79	50.185
466.14	50.026
466.49	50.316
466.84	51.460
467.19	50.289
467.54	49.236
467.89	48.276
468.24	49.695
468.59	48.639
468.94	49.417
469.29	49.310
469.64	49.396
469.99	49.458
470.34	50.062
470.68	49.146
471.03	48.985
471.38	49.444
471.73	49.480
472.08	49.937
472.43	48.405
472.78	49.055
473.13	49.305
473.48	49.305
473.83	50.319
474.17	48.945
474.52	50.271
474.87	50.000
475.22	49.972
475.57	49.013
475.92	49.577
476.27	50.799
476.61	48.806
476.96	49.791
477.31	49.752
477.66	50.472
478.01	49.975
478.36	49.352
478.70	49.803
479.05	50.767
479.40	49.556
479.75	48.991
480.10	49.124
480.45	49.271
480.79	48.798
481.14	49.265
481.49	49.250
481.84	50.218
482.19	49.806
482.53	50.372
482.88	51.086
483.23	49.711
483.58	49.476
483.92	48.715
484.27	48.815
484.62	49.092
484.97	49.300
485.31	48.926
485.66	46.314
486.01	48.587
486.36	51.676
486.70	54.865
487.05	56.834
487.40	53.726
487.75	51.883
488.09	50.578
488.44	49.014
488.79	48.162
489.13	47.828
489.48	48.350
489.83	48.732
490.17	48.036
490.52	47.496
490.87	48.773
491.22	48.440
491.56	48.677
491.91	48.452
492.26	48.853
492.60	47.530
492.95	48.486
493.30	48.902
493.64	47.832
493.99	49.123
494.34	47.430
494.68	48.822
495.03	49.075
495.37	49.134
495.72	48.662
496.07	47.765
496.41	47.018
496.76	49.625
497.11	49.554
497.45	49.245
497.80	48.734
498.14	48.571
498.49	48.024
498.84	47.532
499.18	48.223
499.53	47.713
499.87	48.615
500.22	47.863
500.56	48.358
500.91	48.421
501.26	48.273
501.60	48.078
501.95	48.198
502.29	48.267
502.64	48.972
502.98	48.016
503.33	48.639
503.67	47.405
504.02	48.292
504.36	48.928
504.71	48.140
505.06	47.613
505.40	48.126
505.75	47.814
506.09	48.250
506.44	48.561
506.78	48.532
507.13	46.980
507.47	48.982
507.82	48.011
508.16	47.562
508.51	46.835
508.85	47.992
509.19	47.134
509.54	47.454
509.88	47.547
510.23	47.644
510.57	48.043
510.92	48.766
511.26	47.379
511.61	46.644
511.95	47.340
512.30	47.415
512.64	46.727
512.98	47.074
513.33	47.480
513.67	47.782
514.02	46.909
514.36	47.161
514.70	47.604
515.05	46.872
515.39	46.772
515.74	47.084
516.08	47.332
516.42	47.200
516.77	47.056
517.11	46.106
517.46	46.288
517.80	47.408
518.14	48.477
518.49	46.800
518.83	45.822
519.17	45.665
519.52	46.226
519.86	47.202
520.20	47.977
520.55	46.440
520.89	46.509
521.23	46.231
521.58	46.497
521.92	45.552
522.26	45.533
522.61	45.891
522.95	45.675
523.29	46.207
523.64	46.973
523.98	45.693
524.32	46.762
524.66	47.638
525.01	45.923
525.35	44.687
525.69	46.462
526.04	45.235
526.38	45.575
526.72	45.905
527.06	47.390
527.41	46.064
527.75	46.496
528.09	46.340
528.43	45.885
528.78	44.740
529.12	45.700
529.46	45.082
529.80	46.911
530.15	44.754
530.49	45.552
530.83	46.222
531.17	45.400
531.51	45.187
531.86	46.394
532.20	45.183
532.54	43.986
532.88	45.212
533.22	45.374
533.57	44.778
533.91	45.791
534.25	46.637
534.59	47.011
534.93	45.557
535.27	45.803
535.62	45.935
535.96	46.136
536.30	44.653
536.64	44.865
536.98	45.818
537.32	44.198
537.66	45.415
538.01	44.411
538.35	44.580
538.69	44.832
539.03	44.819
539.37	45.583
539.71	45.405
540.05	45.863
540.39	44.988
540.73	44.627
541.07	43.838
541.42	43.119
541.76	44.247
542.10	44.451
542.44	44.702
542.78	44.586
543.12	44.756
543.46	43.284
543.80	43.465
544.14	44.584
544.48	45.272
544.82	44.045
545.16	44.723
545.50	44.817
545.84	44.703
546.18	45.309
546.52	44.586
546.86	43.459
547.20	43.830
547.54	43.258
547.88	44.786
548.22	44.094
548.56	44.353
548.90	44.776
549.24	44.255
549.58	45.174
549.92	43.686
550.26	44.401
550.60	43.395
550.94	44.049
551.28	43.300
551.62	43.261
551.96	42.524
552.30	43.850
552.64	44.928
552.98	43.980
553.32	45.531
553.66	44.759
554.00	44.704
554.34	43.629
554.68	42.802
555.02	43.364
555.36	43.984
555.69	42.281
556.03	43.884
556.37	43.742
556.71	43.881
557.05	43.578
557.39	43.331
557.73	42.668
558.07	43.576
558.41	43.920
558.75	44.016
559.08	44.050
559.42	42.730
559.76	41.655
560.10	42.934
560.44	43.338
560.78	43.500
561.12	44.089
561.45	44.647
561.79	44.261
562.13	43.993
562.47	42.417
562.81	44.304
563.15	43.687
563.48	43.630
563.82	43.652
564.16	44.397
564.50	43.266
564.84	43.186
565.17	44.353
565.51	42.348
565.85	44.062
566.19	43.491
566.52	42.949
566.86	43.973
567.20	43.284
567.54	44.769
567.88	44.241
568.21	45.010
568.55	44.412
568.89	45.847
569.23	45.416
569.56	44.822
569.90	46.579
570.24	46.206
570.57	47.081
570.91	46.479
571.25	45.994
571.59	47.008
571.92	46.215
572.26	46.956
572.60	46.738
572.93	46.507
573.27	46.586
573.61	45.421
573.95	46.370
574.28	46.064
574.62	46.271
574.96	46.295
575.29	46.067
575.63	45.623
575.97	46.587
576.30	45.621
576.64	45.741
576.98	45.968
577.31	46.540
577.65	46.513
577.98	46.668
578.32	46.810
578.66	46.796
578.99	46.836
579.33	47.043
579.67	46.011
580.00	45.651
580.34	45.659
580.67	44.947
581.01	45.911
581.35	45.821
581.68	46.247
582.02	46.466
582.35	48.027
582.69	47.503
583.02	47.094
583.36	47.484
583.70	45.967
584.03	45.404
584.37	45.915
584.70	44.377
585.04	44.083
585.37	45.073
585.71	45.674
586.04	45.729
586.38	46.100
586.72	45.500
587.05	45.920
587.39	46.048
587.72	45.837
588.06	46.132
588.39	45.507
588.73	45.529
589.06	44.921
589.40	45.544
589.73	44.666
590.07	45.259
590.40	44.625
590.73	43.478
591.07	44.006
591.40	43.896
591.74	43.521
592.07	43.768
592.41	43.454
592.74	43.734
593.08	45.446
593.41	45.757
593.75	45.747
594.08	45.320
594.41	45.737
594.75	44.271
595.08	44.616
595.42	45.130
595.75	44.850
596.09	45.341
596.42	44.357
596.75	44.153
597.09	44.727
597.42	43.703
597.75	42.846
598.09	43.452
598.42	43.707
598.76	44.402
599.09	44.429
599.42	43.748
599.76	43.612
600.09	44.645
600.42	44.478
600.76	44.353
601.09	44.142
601.42	44.387
601.76	44.172
602.09	44.067
602.42	42.784
602.76	43.727
603.09	43.906
603.42	44.436
603.76	43.763
604.09	44.003
604.42	43.743
604.76	43.189
605.09	43.199
605.42	43.381
605.75	42.500
606.09	43.822
606.42	43.050
606.75	43.066
607.09	43.011
607.42	43.237
607.75	43.494
608.08	42.699
608.42	42.120
608.75	43.035
609.08	41.681
609.41	42.435
609.75	42.812
610.08	42.832
610.41	41.801
610.74	42.395
611.07	41.696
611.41	42.735
611.74	43.418
612.07	42.169
612.40	41.065
612.73	42.885
613.07	41.711
613.40	42.348
613.73	41.358
614.06	42.198
614.39	42.225
614.72	41.194
615.06	40.953
615.39	41.083
615.72	41.896
616.05	41.185
616.38	41.726
616.71	41.379
617.05	40.735
617.38	41.413
617.71	41.091
618.04	40.529
618.37	41.257
618.70	40.724
619.03	40.382
619.36	39.519
619.69	40.615
620.03	39.736
620.36	39.448
620.69	40.160
621.02	39.436
621.35	40.784
621.68	39.479
622.01	39.004
622.34	38.773
622.67	38.969
623.00	37.854
623.33	39.748
623.66	40.272
623.99	39.039
624.32	41.261
624.65	39.447
624.99	40.637
625.32	40.170
625.65	38.705
625.98	39.051
626.31	38.483
626.64	38.535
626.97	37.809
627.30	38.117
627.63	37.284
627.96	38.213
628.29	37.977
628.62	37.028
628.95	38.212
629.28	36.703
629.61	38.468
629.94	36.653
