SpectraSuite Data File
++++++++++++++++++++++++++++++++++++
Date: Thu May 14 14:32:27 PDT 2015
User: schluterlab
Dark Spectrum Present: Yes
Reference Spectrum Present: Yes
Number of Sampled Component Spectra: 1
Spectrometers: USB2E3373
Integration Time (usec): 3000 (USB2E3373)
Spectra Averaged: 3 (USB2E3373)
Boxcar Smoothing: 0 (USB2E3373)
Correct for Electrical Dark: No (USB2E3373)
Strobe/Lamp Enabled: No (USB2E3373)
Correct for Detector Non-linearity: No (USB2E3373)
Correct for Stray Light: No (USB2E3373)
Number of Pixels in Processed Spectrum: 2048
>>>>>Begin Processed Spectral Data<<<<<
178.53	0.000
178.91	-285.714
179.29	100.000
179.67	700.000
180.04	35.714
180.42	-170.000
180.80	-80.000
181.18	1500.000
181.56	2000.000
181.94	-400.000
182.31	550.000
182.69	-533.333
183.07	1150.000
183.45	-375.000
183.83	250.000
184.20	166.667
184.58	-1600.000
184.96	525.000
185.34	133.333
185.72	360.000
186.09	-88.889
186.47	-750.000
186.85	-360.000
187.23	33.333
187.61	1200.000
187.98	-380.000
188.36	-250.000
188.74	600.000
189.12	666.667
189.49	162.500
189.87	150.000
190.25	266.667
190.63	380.000
191.00	88.889
191.38	0.000
191.76	350.000
192.14	250.000
192.51	-500.000
192.89	383.333
193.27	0.000
193.65	214.286
194.02	800.000
194.40	300.000
194.78	-171.429
195.15	0.000
195.53	209.091
195.91	0.000
196.29	450.000
196.66	153.846
197.04	1700.000
197.42	228.571
197.79	750.000
198.17	287.500
198.55	242.857
198.92	244.444
199.30	125.000
199.68	290.909
200.05	192.857
200.43	500.000
200.81	-200.000
201.18	0.000
201.56	-0.000
201.94	0.000
202.31	-500.000
202.69	100.000
203.07	-2100.000
203.44	211.111
203.82	450.000
204.19	200.000
204.57	150.000
204.95	162.500
205.32	1700.000
205.70	-175.000
206.08	233.333
206.45	316.667
206.83	-180.000
207.20	350.000
207.58	40.000
207.96	200.000
208.33	283.333
208.71	-83.333
209.08	466.667
209.46	0.000
209.84	-150.000
210.21	-800.000
210.59	-950.000
210.96	-366.667
211.34	500.000
211.71	137.500
212.09	1100.000
212.46	0.000
212.84	350.000
213.22	300.000
213.59	350.000
213.97	260.000
214.34	700.000
214.72	-233.333
215.09	475.000
215.47	0.000
215.84	-242.857
216.22	-1000.000
216.59	420.000
216.97	320.000
217.34	550.000
217.72	187.500
218.09	325.000
218.47	275.000
218.84	0.000
219.22	-440.000
219.59	100.000
219.97	110.000
220.34	-550.000
220.72	211.111
221.09	238.462
221.47	800.000
221.84	170.000
222.22	214.286
222.59	0.000
222.97	175.000
223.34	200.000
223.72	1500.000
224.09	400.000
224.46	450.000
224.84	520.000
225.21	257.143
225.59	125.000
225.96	300.000
226.34	107.692
226.71	-133.333
227.08	750.000
227.46	126.667
227.83	425.000
228.21	105.263
228.58	-187.500
228.95	-600.000
229.33	150.000
229.70	230.000
230.08	168.421
230.45	-190.000
230.82	933.333
231.20	114.286
231.57	208.333
231.95	136.364
232.32	154.545
232.69	90.000
233.07	400.000
233.44	94.118
233.81	250.000
234.19	150.000
234.56	122.727
234.93	106.897
235.31	126.316
235.68	127.778
236.05	85.000
236.43	142.308
236.80	156.000
237.17	88.889
237.55	66.667
237.92	150.000
238.29	58.065
238.67	54.545
239.04	83.333
239.41	50.000
239.79	63.043
240.16	68.519
240.53	45.652
240.91	52.941
241.28	44.262
241.65	55.224
242.02	62.162
242.40	47.692
242.77	56.000
243.14	35.366
243.51	34.211
243.89	38.462
244.26	48.515
244.63	46.078
245.00	47.664
245.38	41.228
245.75	37.168
246.12	32.540
246.49	37.209
246.87	47.857
247.24	39.735
247.61	40.789
247.98	32.215
248.36	38.889
248.73	36.810
249.10	33.333
249.47	40.299
249.84	36.126
250.22	35.233
250.59	38.333
250.96	42.273
251.33	37.755
251.70	37.179
252.08	36.250
252.45	32.787
252.82	30.579
253.19	32.031
253.56	34.221
253.94	31.538
254.31	37.879
254.68	35.315
255.05	35.831
255.42	32.993
255.79	30.421
256.16	36.755
256.54	30.132
256.91	36.393
257.28	34.754
257.65	28.981
258.02	28.909
258.39	29.630
258.76	31.498
259.14	34.483
259.51	30.259
259.88	33.144
260.25	31.111
260.62	31.233
260.99	34.426
261.36	34.853
261.73	30.239
262.10	29.396
262.47	31.099
262.85	35.101
263.22	30.649
263.59	27.105
263.96	32.225
264.33	31.714
264.70	33.333
265.07	31.026
265.44	33.560
265.81	31.250
266.18	29.932
266.55	32.366
266.92	30.524
267.29	28.446
267.66	30.820
268.03	31.004
268.40	29.228
268.77	30.524
269.14	29.075
269.51	31.360
269.88	30.943
270.25	29.376
270.62	34.599
270.99	32.323
271.36	32.475
271.73	29.862
272.10	31.062
272.47	29.058
272.84	30.120
273.21	29.659
273.58	29.234
273.95	28.846
274.32	31.369
274.69	30.561
275.06	32.418
275.43	28.096
275.80	28.924
276.17	25.556
276.54	28.358
276.91	30.769
277.28	29.114
277.65	29.084
278.02	28.125
278.39	27.355
278.76	29.350
279.13	29.787
279.50	29.897
279.87	27.549
280.23	27.289
280.60	28.475
280.97	28.618
281.34	25.806
281.71	30.795
282.08	26.910
282.45	26.187
282.82	26.060
283.19	25.525
283.56	25.902
283.92	29.279
284.29	27.646
284.66	28.900
285.03	25.321
285.40	27.357
285.77	26.006
286.14	27.634
286.51	26.180
286.87	26.540
287.24	27.711
287.61	25.411
287.98	25.227
288.35	25.592
288.72	26.627
289.08	26.940
289.45	26.331
289.82	24.398
290.19	24.569
290.56	25.211
290.93	26.676
291.29	25.069
291.66	24.793
292.03	23.609
292.40	25.034
292.77	23.585
293.13	24.087
293.50	24.179
293.87	23.490
294.24	26.133
294.60	23.388
294.97	20.940
295.34	23.944
295.71	20.681
296.08	22.610
296.44	23.284
296.81	22.168
297.18	22.291
297.55	20.637
297.91	21.590
298.28	21.564
298.65	21.284
299.02	20.189
299.38	21.167
299.75	21.963
300.12	20.949
300.48	20.853
300.85	19.123
301.22	20.917
301.59	19.977
301.95	19.548
302.32	21.889
302.69	21.139
303.05	20.457
303.42	20.732
303.79	20.104
304.15	20.400
304.52	19.027
304.89	21.047
305.25	20.807
305.62	20.376
305.99	21.753
306.35	18.750
306.72	20.476
307.09	19.695
307.45	18.634
307.82	19.072
308.19	20.484
308.55	19.961
308.92	18.500
309.29	20.785
309.65	18.519
310.02	20.396
310.38	18.701
310.75	20.194
311.12	20.422
311.48	18.084
311.85	18.803
312.22	20.209
312.58	17.653
312.95	19.216
313.31	19.422
313.68	19.322
314.05	17.886
314.41	20.492
314.78	19.437
315.14	20.417
315.51	19.575
315.87	19.172
316.24	19.726
316.61	19.361
316.97	18.281
317.34	18.519
317.70	19.476
318.07	18.166
318.43	19.218
318.80	19.314
319.16	19.657
319.53	18.166
319.89	18.493
320.26	19.484
320.62	18.440
320.99	17.821
321.35	19.316
321.72	19.535
322.08	18.215
322.45	19.874
322.81	20.217
323.18	19.735
323.54	19.310
323.91	20.018
324.27	17.986
324.64	19.647
325.00	18.823
325.37	19.083
325.73	17.603
326.10	18.735
326.46	19.300
326.83	18.255
327.19	18.898
327.56	18.498
327.92	17.939
328.29	18.468
328.65	19.012
329.01	19.543
329.38	19.208
329.74	19.264
330.11	19.264
330.47	19.292
330.84	18.519
331.20	19.167
331.56	19.064
331.93	18.410
332.29	19.661
332.66	19.850
333.02	18.090
333.38	17.953
333.75	18.519
334.11	18.349
334.48	19.059
334.84	18.946
335.20	18.220
335.57	19.562
335.93	18.678
336.29	18.386
336.66	17.830
337.02	19.565
337.38	19.218
337.75	17.107
338.11	19.260
338.47	18.445
338.84	18.359
339.20	19.377
339.56	18.204
339.93	18.555
340.29	18.357
340.65	17.032
341.02	18.196
341.38	18.593
341.74	17.272
342.11	19.308
342.47	16.839
342.83	18.760
343.20	19.052
343.56	17.883
343.92	18.415
344.28	18.047
344.65	18.992
345.01	19.423
345.37	17.341
345.73	17.615
346.10	18.253
346.46	17.959
346.82	18.352
347.19	18.105
347.55	18.361
347.91	17.013
348.27	18.134
348.63	19.040
349.00	17.375
349.36	18.141
349.72	17.634
350.08	18.499
350.45	17.338
350.81	18.100
351.17	17.218
351.53	17.741
351.89	18.071
352.26	17.537
352.62	17.985
352.98	16.870
353.34	18.148
353.70	16.872
354.07	17.213
354.43	17.236
354.79	17.053
355.15	16.556
355.51	17.251
355.87	17.277
356.24	17.110
356.60	16.851
356.96	16.605
357.32	15.911
357.68	17.130
358.04	16.392
358.40	17.463
358.77	16.886
359.13	17.061
359.49	16.580
359.85	16.534
360.21	17.145
360.57	17.014
360.93	16.573
361.29	17.404
361.66	16.293
362.02	17.606
362.38	16.796
362.74	16.620
363.10	17.607
363.46	16.066
363.82	16.903
364.18	16.749
364.54	17.012
364.90	15.920
365.26	16.345
365.62	17.400
365.98	16.882
366.35	16.711
366.71	17.347
367.07	16.441
367.43	17.925
367.79	17.186
368.15	17.993
368.51	16.982
368.87	16.264
369.23	16.467
369.59	17.077
369.95	17.377
370.31	17.556
370.67	16.575
371.03	16.205
371.39	16.991
371.75	16.369
372.11	15.854
372.47	15.708
372.83	17.277
373.19	16.011
373.55	16.396
373.91	16.360
374.27	15.589
374.63	16.644
374.99	15.716
375.35	16.104
375.71	15.871
376.07	15.817
376.42	15.428
376.78	16.781
377.14	16.532
377.50	16.445
377.86	16.626
378.22	16.168
378.58	15.577
378.94	16.315
379.30	15.876
379.66	15.755
380.02	16.099
380.38	16.071
380.74	15.662
381.09	15.970
381.45	15.568
381.81	16.335
382.17	16.508
382.53	15.731
382.89	16.084
383.25	16.354
383.61	15.856
383.97	15.371
384.32	15.969
384.68	15.429
385.04	16.079
385.40	16.500
385.76	17.175
386.12	15.679
386.48	15.471
386.83	16.031
387.19	15.643
387.55	15.317
387.91	16.210
388.27	16.397
388.62	15.979
388.98	15.567
389.34	16.146
389.70	15.863
390.06	15.157
390.42	16.205
390.77	16.075
391.13	15.962
391.49	16.123
391.85	15.636
392.20	15.896
392.56	16.421
392.92	16.303
393.28	15.699
393.64	15.363
393.99	16.851
394.35	16.822
394.71	16.168
395.07	15.689
395.42	15.591
395.78	17.063
396.14	15.686
396.50	15.736
396.85	15.504
397.21	15.680
397.57	15.783
397.92	16.438
398.28	15.970
398.64	15.847
399.00	15.602
399.35	15.393
399.71	15.598
400.07	15.946
400.42	15.716
400.78	15.856
401.14	16.619
401.49	15.804
401.85	15.581
402.21	15.933
402.57	16.138
402.92	16.371
403.28	14.871
403.63	15.274
403.99	15.736
404.35	15.179
404.70	16.204
405.06	15.000
405.42	15.749
405.77	15.758
406.13	15.181
406.49	15.259
406.84	15.623
407.20	14.980
407.55	14.597
407.91	15.651
408.27	15.371
408.62	16.114
408.98	15.496
409.34	14.252
409.69	15.513
410.05	16.471
410.40	15.777
410.76	15.592
411.11	15.839
411.47	15.295
411.83	15.755
412.18	16.386
412.54	15.768
412.89	15.250
413.25	15.124
413.60	15.451
413.96	15.501
414.31	15.694
414.67	15.504
415.03	14.769
415.38	16.078
415.74	15.333
416.09	15.731
416.45	15.404
416.80	15.545
417.16	15.709
417.51	15.380
417.87	15.819
418.22	16.048
418.58	15.799
418.93	15.891
419.29	15.290
419.64	15.486
420.00	14.540
420.35	15.553
420.71	14.589
421.06	15.239
421.42	15.138
421.77	14.647
422.12	15.169
422.48	14.900
422.83	15.827
423.19	15.332
423.54	15.819
423.90	15.848
424.25	15.253
424.61	14.868
424.96	15.541
425.31	15.393
425.67	14.868
426.02	15.163
426.38	15.040
426.73	14.844
427.09	15.975
427.44	14.255
427.79	15.533
428.15	14.384
428.50	15.281
428.85	14.696
429.21	16.117
429.56	14.808
429.92	15.037
430.27	14.988
430.62	14.851
430.98	15.052
431.33	15.591
431.68	14.655
432.04	15.896
432.39	14.890
432.74	14.612
433.10	16.117
433.45	14.493
433.80	15.021
434.16	15.186
434.51	15.673
434.86	14.984
435.22	15.143
435.57	15.448
435.92	15.582
436.28	14.619
436.63	15.620
436.98	15.405
437.34	14.938
437.69	14.970
438.04	14.860
438.39	15.623
438.75	14.887
439.10	15.011
439.45	15.484
439.81	14.859
440.16	15.228
440.51	15.329
440.86	14.230
441.22	14.630
441.57	14.780
441.92	14.549
442.27	14.848
442.63	14.605
442.98	15.315
443.33	15.729
443.68	15.510
444.03	15.287
444.39	14.933
444.74	15.314
445.09	14.698
445.44	15.490
445.79	15.421
446.15	14.748
446.50	14.419
446.85	14.835
447.20	15.474
447.55	15.690
447.91	15.026
448.26	14.799
448.61	15.834
448.96	14.968
449.31	16.066
449.66	14.434
450.02	15.295
450.37	15.237
450.72	14.801
451.07	14.692
451.42	14.789
451.77	14.953
452.12	15.011
452.47	14.082
452.83	15.203
453.18	14.653
453.53	14.819
453.88	15.130
454.23	15.198
454.58	14.974
454.93	14.260
455.28	15.172
455.63	14.952
455.98	15.028
456.34	14.488
456.69	14.638
457.04	15.012
457.39	14.302
457.74	14.933
458.09	14.662
458.44	15.625
458.79	15.111
459.14	14.316
459.49	14.714
459.84	14.638
460.19	14.770
460.54	15.559
460.89	14.664
461.24	14.425
461.59	15.329
461.94	14.718
462.29	15.006
462.64	15.027
462.99	14.375
463.34	15.055
463.69	14.947
464.04	15.286
464.39	14.182
464.74	14.481
465.09	14.937
465.44	15.397
465.79	15.336
466.14	14.435
466.49	15.316
466.84	14.711
467.19	15.665
467.54	14.101
467.89	14.368
468.24	14.349
468.59	14.592
468.94	13.753
469.29	14.877
469.64	14.812
469.99	14.914
470.34	15.285
470.68	14.491
471.03	14.211
471.38	14.061
471.73	15.150
472.08	15.038
472.43	15.051
472.78	13.980
473.13	13.970
473.48	13.958
473.83	14.393
474.17	14.361
474.52	14.071
474.87	14.839
475.22	14.254
475.57	14.226
475.92	14.335
476.27	15.389
476.61	14.746
476.96	13.712
477.31	14.554
477.66	14.900
478.01	14.082
478.36	14.506
478.70	13.892
479.05	14.673
479.40	14.116
479.75	14.986
480.10	14.069
480.45	14.540
480.79	14.059
481.14	14.522
481.49	14.221
481.84	14.708
482.19	14.581
482.53	14.604
482.88	14.400
483.23	14.451
483.58	14.498
483.92	13.652
484.27	14.225
484.62	14.191
484.97	14.386
485.31	13.868
485.66	13.584
486.01	13.389
486.36	13.240
486.70	13.520
487.05	14.501
487.40	14.256
487.75	15.369
488.09	15.244
488.44	15.783
488.79	15.514
489.13	15.098
489.48	14.136
489.83	14.366
490.17	13.690
490.52	14.737
490.87	14.509
491.22	13.821
491.56	14.804
491.91	14.392
492.26	13.630
492.60	14.211
492.95	13.822
493.30	13.805
493.64	14.279
493.99	13.333
494.34	13.807
494.68	14.347
495.03	14.009
495.37	14.115
495.72	14.739
496.07	14.549
496.41	13.170
496.76	14.095
497.11	13.843
497.45	13.466
497.80	14.482
498.14	13.968
498.49	13.695
498.84	13.665
499.18	14.170
499.53	14.036
499.87	14.154
500.22	13.001
500.56	13.810
500.91	13.867
501.26	14.591
501.60	12.992
501.95	14.329
502.29	13.953
502.64	14.167
502.98	13.805
503.33	14.212
503.67	13.171
504.02	13.441
504.36	14.298
504.71	14.148
505.06	14.097
505.40	14.031
505.75	14.162
506.09	14.134
506.44	13.788
506.78	13.899
507.13	13.923
507.47	13.785
507.82	14.205
508.16	13.719
508.51	13.737
508.85	13.651
509.19	13.832
509.54	14.313
509.88	14.230
510.23	14.279
510.57	14.548
510.92	14.175
511.26	13.949
511.61	13.520
511.95	13.860
512.30	14.476
512.64	13.193
512.98	13.607
513.33	13.558
513.67	13.972
514.02	14.103
514.36	14.373
514.70	13.438
515.05	13.921
515.39	13.963
515.74	14.422
516.08	13.893
516.42	14.390
516.77	13.880
517.11	13.925
517.46	14.210
517.80	14.645
518.14	14.091
518.49	14.154
518.83	13.677
519.17	13.463
519.52	13.994
519.86	14.678
520.20	13.632
520.55	13.801
520.89	13.626
521.23	13.735
521.58	13.672
521.92	13.824
522.26	13.402
522.61	13.657
522.95	13.841
523.29	13.103
523.64	13.621
523.98	14.033
524.32	14.670
524.66	13.660
525.01	13.420
525.35	13.613
525.69	13.225
526.04	13.835
526.38	13.793
526.72	13.552
527.06	14.311
527.41	13.936
527.75	13.599
528.09	13.577
528.43	13.203
528.78	13.988
529.12	13.131
529.46	13.153
529.80	13.844
530.15	13.971
530.49	13.345
530.83	13.577
531.17	13.501
531.51	14.320
531.86	14.303
532.20	13.963
532.54	13.824
532.88	14.364
533.22	14.319
533.57	13.849
533.91	14.310
534.25	13.510
534.59	13.563
534.93	13.922
535.27	14.085
535.62	14.383
535.96	13.306
536.30	14.160
536.64	13.694
536.98	14.391
537.32	14.259
537.66	14.348
538.01	13.958
538.35	13.642
538.69	13.882
539.03	14.531
539.37	13.840
539.71	13.814
540.05	14.688
540.39	13.631
540.73	13.661
541.07	13.489
541.42	13.763
541.76	13.760
542.10	14.053
542.44	13.094
542.78	14.416
543.12	14.005
543.46	13.675
543.80	13.309
544.14	13.405
544.48	13.652
544.82	14.542
545.16	14.431
545.50	14.320
545.84	13.717
546.18	15.000
546.52	14.076
546.86	13.836
547.20	13.168
547.54	13.920
547.88	14.346
548.22	13.216
548.56	13.049
548.90	14.507
549.24	14.468
549.58	14.006
549.92	13.520
550.26	13.786
550.60	13.976
550.94	13.519
551.28	13.663
551.62	14.690
551.96	14.110
552.30	14.213
552.64	13.628
552.98	13.600
553.32	14.405
553.66	13.441
554.00	14.502
554.34	13.964
554.68	14.332
555.02	13.403
555.36	14.201
555.69	13.261
556.03	14.250
556.37	13.267
556.71	13.253
557.05	13.291
557.39	13.404
557.73	14.597
558.07	13.642
558.41	14.751
558.75	13.252
559.08	13.709
559.42	13.512
559.76	14.654
560.10	13.731
560.44	13.127
560.78	13.750
561.12	13.362
561.45	13.747
561.79	14.408
562.13	13.925
562.47	13.748
562.81	13.418
563.15	13.699
563.48	13.797
563.82	13.603
564.16	13.144
564.50	13.290
564.84	13.805
565.17	13.824
565.51	12.888
565.85	14.133
566.19	13.364
566.52	13.283
566.86	14.375
567.20	13.268
567.54	13.808
567.88	14.220
568.21	13.488
568.55	13.717
568.89	13.799
569.23	14.449
569.56	13.560
569.90	13.863
570.24	13.524
570.57	13.823
570.91	13.472
571.25	14.145
571.59	13.304
571.92	13.619
572.26	13.896
572.60	13.923
572.93	14.222
573.27	14.189
573.61	14.002
573.95	13.571
574.28	14.296
574.62	13.643
574.96	13.410
575.29	13.637
575.63	13.999
575.97	13.940
576.30	13.768
576.64	14.054
576.98	13.508
577.31	13.535
577.65	13.723
577.98	13.498
578.32	13.569
578.66	13.343
578.99	14.090
579.33	13.873
579.67	14.143
580.00	14.116
580.34	14.354
580.67	13.791
581.01	13.890
581.35	13.365
581.68	13.611
582.02	13.844
582.35	13.729
582.69	13.514
583.02	13.736
583.36	14.212
583.70	14.519
584.03	14.423
584.37	14.169
584.70	14.328
585.04	13.950
585.37	13.809
585.71	13.851
586.04	13.959
586.38	13.904
586.72	13.688
587.05	13.431
587.39	13.762
587.72	13.947
588.06	13.854
588.39	14.015
588.73	14.074
589.06	14.249
589.40	13.952
589.73	13.978
590.07	14.655
590.40	14.807
590.73	14.599
591.07	14.408
591.40	14.230
591.74	14.388
592.07	14.048
592.41	13.801
592.74	13.703
593.08	13.535
593.41	13.328
593.75	13.333
594.08	13.875
594.41	13.622
594.75	13.550
595.08	13.661
595.42	13.929
595.75	13.626
596.09	14.232
596.42	14.045
596.75	15.129
597.09	14.869
597.42	14.501
597.75	14.112
598.09	14.365
598.42	13.993
598.76	13.642
599.09	13.777
599.42	13.610
599.76	13.800
600.09	13.413
600.42	13.680
600.76	13.771
601.09	13.906
601.42	13.732
601.76	13.828
602.09	13.867
602.42	13.704
602.76	13.985
603.09	14.134
603.42	14.126
603.76	13.918
604.09	13.840
604.42	14.055
604.76	13.584
605.09	14.081
605.42	14.394
605.75	13.769
606.09	13.886
606.42	13.499
606.75	13.156
607.09	13.287
607.42	13.372
607.75	13.834
608.08	13.852
608.42	13.664
608.75	14.386
609.08	13.115
609.41	13.586
609.75	13.661
610.08	13.808
610.41	13.042
610.74	13.571
611.07	13.632
611.41	14.395
611.74	13.626
612.07	14.353
612.40	13.593
612.73	13.545
613.07	14.083
613.40	14.052
613.73	13.144
614.06	14.279
614.39	13.605
614.72	13.246
615.06	13.282
615.39	13.678
615.72	13.555
616.05	13.162
616.38	13.976
616.71	14.002
617.05	14.164
617.38	14.179
617.71	14.525
618.04	13.869
618.37	13.880
618.70	14.480
619.03	13.620
619.36	13.194
619.69	14.350
620.03	13.434
620.36	13.926
620.69	14.189
621.02	13.517
621.35	14.078
621.68	14.027
622.01	13.238
622.34	12.971
622.67	13.677
623.00	13.293
623.33	13.404
623.66	13.230
623.99	13.562
624.32	14.620
624.65	13.256
624.99	14.044
625.32	14.435
625.65	14.160
625.98	13.695
626.31	13.111
626.64	13.919
626.97	13.578
627.30	14.199
627.63	13.578
627.96	13.814
628.29	13.852
628.62	13.014
628.95	14.110
629.28	12.659
629.61	14.478
629.94	13.975
630.26	13.729
630.59	12.608
630.92	13.074
631.25	13.775
631.58	13.371
631.91	13.496
632.24	13.064
632.57	13.947
632.90	13.340
