SpectraSuite Data File
++++++++++++++++++++++++++++++++++++
Date: Thu May 14 15:18:08 PDT 2015
User: schluterlab
Dark Spectrum Present: Yes
Reference Spectrum Present: Yes
Number of Sampled Component Spectra: 1
Spectrometers: USB2E3373
Integration Time (usec): 3000 (USB2E3373)
Spectra Averaged: 3 (USB2E3373)
Boxcar Smoothing: 0 (USB2E3373)
Correct for Electrical Dark: No (USB2E3373)
Strobe/Lamp Enabled: No (USB2E3373)
Correct for Detector Non-linearity: No (USB2E3373)
Correct for Stray Light: No (USB2E3373)
Number of Pixels in Processed Spectrum: 2048
>>>>>Begin Processed Spectral Data<<<<<
178.53	0.000
178.91	614.286
179.29	-4400.000
179.67	-4300.000
180.04	385.714
180.42	420.000
180.80	880.000
181.18	-4200.000
181.56	-4600.000
181.94	1175.000
182.31	-775.000
182.69	1166.667
183.07	-1650.000
183.45	1125.000
183.83	-700.000
184.20	-1266.667
184.58	3300.000
184.96	-1000.000
185.34	-400.000
185.72	-700.000
186.09	466.667
186.47	2100.000
186.85	1040.000
187.23	-522.222
187.61	-4500.000
187.98	920.000
188.36	1150.000
188.74	-975.000
189.12	-1233.333
189.49	-237.500
189.87	-500.000
190.25	-422.222
190.63	-720.000
191.00	-433.333
191.38	0.000
191.76	-1000.000
192.14	-500.000
192.51	1900.000
192.89	-616.667
193.27	0.000
193.65	-585.714
194.02	-4500.000
194.40	-371.429
194.78	585.714
195.15	0.000
195.53	-281.818
195.91	0.000
196.29	-975.000
196.66	-330.769
197.04	-6000.000
197.42	-757.143
197.79	-2300.000
198.17	-525.000
198.55	-671.429
198.92	-322.222
199.30	-537.500
199.68	-281.818
200.05	-257.143
200.43	-2100.000
200.81	642.857
201.18	0.000
201.56	544.444
201.94	0.000
202.31	1500.000
202.69	-477.778
203.07	4400.000
203.44	-477.778
203.82	-900.000
204.19	-275.000
204.57	-616.667
204.95	-525.000
205.32	-3400.000
205.70	1050.000
206.08	-533.333
206.45	-550.000
206.83	1080.000
207.20	-566.667
207.58	-920.000
207.96	-700.000
208.33	-666.667
208.71	358.333
209.08	-433.333
209.46	0.000
209.84	833.333
210.21	1900.000
210.59	1950.000
210.96	1500.000
211.34	-1025.000
211.71	-512.500
212.09	-4000.000
212.46	0.000
212.84	2350.000
213.22	-980.000
213.59	-1100.000
213.97	-330.000
214.34	-1100.000
214.72	800.000
215.09	-1150.000
215.47	0.000
215.84	571.429
216.22	2550.000
216.59	-800.000
216.97	-840.000
217.34	-950.000
217.72	-412.500
218.09	-1100.000
218.47	-1300.000
218.84	0.000
219.22	700.000
219.59	-200.000
219.97	-205.000
220.34	2400.000
220.72	-511.111
221.09	-269.231
221.47	-1533.333
221.84	-390.000
222.22	-642.857
222.59	0.000
222.97	-400.000
223.34	-1020.000
223.72	-4500.000
224.09	-1150.000
224.46	-1175.000
224.84	-680.000
225.21	-628.571
225.59	-1125.000
225.96	-875.000
226.34	-111.538
226.71	900.000
227.08	-2100.000
227.46	-240.000
227.83	-1050.000
228.21	-189.474
228.58	450.000
228.95	2250.000
229.33	-266.667
229.70	-350.000
230.08	-142.105
230.45	480.000
230.82	-1300.000
231.20	-278.571
231.57	-316.667
231.95	-345.455
232.32	-354.545
232.69	-195.000
233.07	-1000.000
233.44	-217.647
233.81	-450.000
234.19	-205.556
234.56	-159.091
234.93	-110.345
235.31	-178.947
235.68	-194.444
236.05	-190.000
236.43	-123.077
236.80	-128.000
237.17	-129.630
237.55	-115.152
237.92	-450.000
238.29	-129.032
238.67	-86.364
239.04	-102.778
239.41	-104.762
239.79	-80.435
240.16	-74.074
240.53	-76.087
240.91	-82.353
241.28	-59.016
241.65	-37.313
242.02	-41.892
242.40	-46.154
242.77	-42.667
243.14	-50.000
243.51	-59.211
243.89	-48.718
244.26	-25.743
244.63	-29.412
245.00	-26.168
245.38	-22.807
245.75	-45.133
246.12	-31.746
246.49	-34.109
246.87	-26.429
247.24	-14.570
247.61	-18.421
247.98	-24.832
248.36	-19.753
248.73	-22.699
249.10	-18.033
249.47	-9.453
249.84	-12.042
250.22	-22.798
250.59	-15.000
250.96	-6.818
251.33	-19.898
251.70	-12.821
252.08	-11.250
252.45	-9.836
252.82	-13.636
253.19	-10.547
253.56	-6.844
253.94	-10.769
254.31	-8.712
254.68	-5.594
255.05	-8.143
255.42	-10.884
255.79	-9.061
256.16	-8.940
256.54	-9.934
256.91	-7.541
257.28	-8.852
257.65	-11.465
258.02	-10.619
258.39	-7.692
258.76	-3.364
259.14	-2.586
259.51	-4.035
259.88	-8.215
260.25	-4.444
260.62	-6.027
260.99	-4.918
261.36	-4.558
261.73	-7.427
262.10	-7.692
262.47	-5.094
262.85	-1.768
263.22	-7.273
263.59	-8.421
263.96	-5.115
264.33	-4.604
264.70	-2.716
265.07	-2.148
265.44	-0.907
265.81	-5.787
266.18	-4.535
266.55	-4.018
266.92	-6.606
267.29	-3.282
267.66	-3.548
268.03	-1.965
268.40	-2.714
268.77	-6.606
269.14	-6.608
269.51	-3.509
269.88	-1.844
270.25	-1.006
270.62	-3.586
270.99	-1.212
271.36	-0.792
271.73	-0.393
272.10	-0.601
272.47	-2.605
272.84	-2.410
273.21	-1.804
273.58	-3.226
273.95	-3.846
274.32	-3.232
274.69	-3.288
275.06	-1.832
275.43	-2.588
275.80	-1.411
276.17	-3.148
276.54	-3.358
276.91	-3.220
277.28	-2.351
277.65	-1.077
278.02	-1.103
278.39	-1.449
278.76	-2.812
279.13	-2.128
279.50	-2.062
279.87	-0.358
280.23	-3.697
280.60	-1.356
280.97	-1.645
281.34	-2.886
281.71	-0.169
282.08	-3.488
282.45	-3.273
282.82	-2.669
283.19	-1.777
283.56	-1.967
283.92	-0.450
284.29	-0.474
284.66	-0.493
285.03	-3.846
285.40	-1.236
285.77	-2.322
286.14	-2.290
286.51	-1.065
286.87	-2.844
287.24	-1.807
287.61	-2.840
287.98	-1.360
288.35	-1.036
288.72	-2.071
289.08	-0.586
289.45	-1.627
289.82	-2.410
290.19	-0.862
290.56	0.423
290.93	-1.854
291.29	-1.928
291.66	-2.479
292.03	-1.357
292.40	-0.952
292.77	-1.213
293.13	-0.541
293.50	-1.971
293.87	-0.805
294.24	0.267
294.60	-0.253
294.97	-3.221
295.34	-0.512
295.71	-0.757
296.08	-1.292
296.44	-0.123
296.81	-0.365
297.18	0.000
297.55	-1.297
297.91	-1.186
298.28	-2.251
298.65	-1.070
299.02	-0.826
299.38	-0.343
299.75	-0.467
300.12	-1.389
300.48	-1.382
300.85	-1.237
301.22	-0.336
301.59	-0.685
301.95	0.113
302.32	0.000
302.69	-0.329
303.05	0.109
303.42	-0.111
303.79	-0.312
304.15	-0.526
304.52	-0.951
304.89	0.524
305.25	0.725
305.62	-0.940
305.99	0.825
306.35	0.706
306.72	-1.034
307.09	-1.117
307.45	0.311
307.82	-0.303
308.19	-1.009
308.55	-0.193
308.92	-0.195
309.29	1.628
309.65	0.975
310.02	0.099
310.38	-0.098
310.75	0.874
311.12	0.096
311.48	-0.391
311.85	0.190
312.22	0.000
312.58	0.376
312.95	-0.287
313.31	0.723
313.68	0.824
314.05	0.994
314.41	1.730
314.78	0.636
315.14	0.998
315.51	1.939
315.87	1.710
316.24	1.096
316.61	2.398
316.97	0.633
317.34	0.970
317.70	2.795
318.07	2.116
318.43	2.721
318.80	3.010
319.16	2.318
319.53	1.200
319.89	1.665
320.26	3.025
320.62	1.596
320.99	2.031
321.35	2.588
321.72	4.093
322.08	2.885
322.45	4.155
322.81	3.249
323.18	4.779
323.54	4.397
323.91	4.893
324.27	5.422
324.64	6.213
325.00	5.887
325.37	7.453
325.73	7.107
326.10	7.867
326.46	8.143
326.83	7.846
327.19	8.583
327.56	8.854
327.92	8.969
328.29	8.387
328.65	9.380
329.01	9.983
329.38	10.783
329.74	11.387
330.11	10.531
330.47	10.531
330.84	11.025
331.20	12.167
331.56	12.218
331.93	12.385
332.29	12.542
332.66	12.375
333.02	12.395
333.38	12.332
333.75	13.552
334.11	13.761
334.48	12.954
334.84	14.104
335.20	13.434
335.57	13.069
335.93	13.554
336.29	13.977
336.66	13.373
337.02	14.047
337.38	14.201
337.75	13.967
338.11	13.877
338.47	14.392
338.84	14.382
339.20	13.311
339.56	14.827
339.93	14.122
340.29	13.688
340.65	14.355
341.02	15.004
341.38	14.875
341.74	13.963
342.11	14.562
342.47	14.694
342.83	14.654
343.20	14.064
343.56	15.317
343.92	14.412
344.28	14.687
344.65	15.581
345.01	14.587
345.37	14.386
345.73	13.952
346.10	15.133
346.46	14.873
346.82	15.805
347.19	14.744
347.55	13.657
347.91	14.636
348.27	14.188
348.63	15.461
349.00	13.870
349.36	15.167
349.72	13.914
350.08	14.042
350.45	13.460
350.81	14.404
351.17	14.286
351.53	14.936
351.89	14.882
352.26	14.552
352.62	13.881
352.98	13.740
353.34	13.667
353.70	14.099
354.07	14.978
354.43	14.199
354.79	14.734
355.15	14.643
355.51	15.351
355.87	14.734
356.24	15.285
356.60	14.412
356.96	14.900
357.32	14.052
357.68	14.056
358.04	14.521
358.40	15.000
358.77	15.716
359.13	14.697
359.49	14.052
359.85	14.358
360.21	14.419
360.57	15.004
360.93	14.386
361.29	14.105
361.66	14.555
362.02	16.214
362.38	15.952
362.74	15.293
363.10	15.818
363.46	15.374
363.82	15.909
364.18	15.271
364.54	15.975
364.90	15.318
365.26	15.310
365.62	16.067
365.98	16.338
366.35	15.503
366.71	17.279
367.07	15.629
367.43	16.152
367.79	16.589
368.15	16.254
368.51	15.697
368.87	17.374
369.23	16.267
369.59	16.120
369.95	16.836
370.31	16.340
370.67	15.612
371.03	16.274
371.39	14.842
371.75	16.437
372.11	15.921
372.47	15.775
372.83	17.212
373.19	16.945
373.55	16.938
373.91	15.883
374.27	16.235
374.63	16.171
374.99	16.777
375.35	17.208
375.71	16.710
376.07	16.010
376.42	16.373
376.78	18.148
377.14	16.968
377.50	17.647
377.86	17.611
378.22	17.784
378.58	18.193
378.94	18.545
379.30	18.161
379.66	17.695
380.02	18.119
380.38	17.857
380.74	17.859
381.09	18.293
381.45	19.148
381.81	18.735
382.17	18.705
382.53	18.304
382.89	18.962
383.25	19.050
383.61	18.750
383.97	19.022
384.32	19.318
384.68	18.735
385.04	19.549
385.40	19.800
385.76	19.343
386.12	20.048
386.48	19.118
386.83	20.977
387.19	19.583
387.55	19.894
387.91	19.521
388.27	19.400
388.62	18.729
388.98	19.289
389.34	19.976
389.70	20.686
390.06	19.953
390.42	19.880
390.77	20.409
391.13	20.423
391.49	20.592
391.85	20.121
392.20	20.225
392.56	20.260
392.92	20.774
393.28	20.287
393.64	20.503
393.99	20.395
394.35	20.911
394.71	20.898
395.07	19.281
395.42	19.931
395.78	21.328
396.14	20.083
396.50	19.834
396.85	21.109
397.21	19.882
397.57	20.259
397.92	20.160
398.28	19.826
398.64	20.309
399.00	19.372
399.35	20.000
399.71	20.435
400.07	20.943
400.42	20.780
400.78	20.255
401.14	19.977
401.49	20.239
401.85	20.523
402.21	19.815
402.57	19.836
402.92	20.686
403.28	19.379
403.63	20.704
403.99	19.596
404.35	19.898
404.70	19.773
405.06	19.783
405.42	19.731
405.77	19.738
406.13	20.043
406.49	19.707
406.84	19.834
407.20	19.899
407.55	19.503
407.91	19.170
408.27	19.140
408.62	19.488
408.98	19.849
409.34	18.240
409.69	19.468
410.05	20.692
410.40	19.838
410.76	19.798
411.11	19.229
411.47	20.086
411.83	20.106
412.18	20.060
412.54	19.680
412.89	19.616
413.25	19.639
413.60	19.299
413.96	19.639
414.31	19.263
414.67	20.095
415.03	20.000
415.38	20.177
415.74	19.181
416.09	19.679
416.45	18.973
416.80	18.482
417.16	20.243
417.51	19.614
417.87	20.049
418.22	20.419
418.58	18.897
418.93	20.605
419.29	19.729
419.64	20.408
420.00	19.407
420.35	20.550
420.71	20.103
421.06	19.264
421.42	19.782
421.77	19.763
422.12	19.503
422.48	19.662
422.83	21.303
423.19	20.637
423.54	21.018
423.90	19.989
424.25	20.693
424.61	20.092
424.96	20.593
425.31	21.709
425.67	20.075
426.02	20.310
426.38	20.666
426.73	20.089
427.09	21.569
427.44	20.426
427.79	21.061
428.15	20.719
428.50	21.067
428.85	20.264
429.21	21.277
429.56	21.372
429.92	20.835
430.27	21.446
430.62	21.202
430.98	22.332
431.33	21.017
431.68	20.881
432.04	21.889
432.39	21.264
432.74	20.776
433.10	21.904
433.45	21.572
433.80	21.996
434.16	21.746
434.51	22.816
434.86	22.856
435.22	22.742
435.57	22.288
435.92	21.592
436.28	21.786
436.63	22.774
436.98	22.705
437.34	22.210
437.69	22.234
438.04	21.893
438.39	22.746
438.75	22.690
439.10	22.674
439.45	22.527
439.81	22.429
440.16	22.198
440.51	22.185
440.86	22.846
441.22	22.240
441.57	24.004
441.92	23.860
442.27	24.091
442.63	23.199
442.98	22.999
443.33	23.567
443.68	23.340
444.03	24.835
444.39	24.272
444.74	23.430
445.09	23.467
445.44	23.973
445.79	24.952
446.15	23.895
446.50	23.824
446.85	23.930
447.20	25.000
447.55	24.948
447.91	24.503
448.26	23.573
448.61	24.017
448.96	25.107
449.31	23.754
449.66	23.475
450.02	24.895
450.37	23.655
450.72	24.273
451.07	24.658
451.42	24.610
451.77	24.847
452.12	24.549
452.47	24.837
452.83	25.619
453.18	23.876
453.53	24.296
453.88	24.186
454.23	24.802
454.58	24.028
454.93	24.454
455.28	24.383
455.63	24.559
455.98	25.307
456.34	23.852
456.69	24.280
457.04	24.232
457.39	24.612
457.74	24.888
458.09	24.822
458.44	24.138
458.79	24.085
459.14	25.695
459.49	24.392
459.84	25.761
460.19	24.375
460.54	25.667
460.89	24.828
461.24	23.966
461.59	24.792
461.94	24.758
462.29	25.364
462.64	25.166
462.99	24.796
463.34	24.594
463.69	24.385
464.04	24.792
464.39	24.327
464.74	24.002
465.09	25.317
465.44	24.893
465.79	24.802
466.14	25.221
466.49	24.632
466.84	25.069
467.19	24.855
467.54	24.559
467.89	24.828
468.24	24.820
468.59	24.088
468.94	23.718
469.29	24.535
469.64	24.476
469.99	24.920
470.34	24.319
470.68	24.402
471.03	24.361
471.38	24.199
471.73	24.837
472.08	23.985
472.43	24.985
472.78	24.748
473.13	24.968
473.48	25.136
473.83	26.582
474.17	24.853
474.52	25.857
474.87	25.803
475.22	25.803
475.57	25.389
475.92	25.933
476.27	24.920
476.61	24.351
476.96	24.661
477.31	24.950
477.66	25.971
478.01	25.521
478.36	25.673
478.70	26.158
479.05	25.358
479.40	26.061
479.75	25.937
480.10	25.249
480.45	25.661
480.79	25.669
481.14	25.414
481.49	25.534
481.84	25.674
482.19	25.634
482.53	25.842
482.88	26.894
483.23	25.700
483.58	25.284
483.92	25.266
484.27	25.487
484.62	25.083
484.97	25.311
485.31	24.639
485.66	23.683
486.01	24.303
486.36	25.608
486.70	26.734
487.05	28.031
487.40	26.840
487.75	26.667
488.09	26.036
488.44	25.863
488.79	25.599
489.13	24.801
489.48	24.505
489.83	24.588
490.17	25.071
490.52	25.246
490.87	25.888
491.22	25.390
491.56	25.555
491.91	25.556
492.26	25.227
492.60	25.361
492.95	25.362
493.30	25.101
493.64	25.668
493.99	24.825
494.34	25.218
494.68	25.353
495.03	25.507
495.37	25.699
495.72	25.442
496.07	25.197
496.41	24.367
496.76	25.313
497.11	26.285
497.45	25.637
497.80	26.522
498.14	25.306
498.49	25.000
498.84	25.366
499.18	25.866
499.53	25.022
499.87	26.154
500.22	25.022
500.56	25.281
500.91	26.087
501.26	26.182
501.60	24.658
501.95	25.923
502.29	25.581
502.64	25.186
502.98	24.935
503.33	24.536
503.67	24.858
504.02	25.482
504.36	25.916
504.71	25.448
505.06	25.603
505.40	25.731
505.75	25.865
506.09	25.046
506.44	25.487
506.78	25.826
507.13	25.173
507.47	25.865
507.82	25.284
508.16	24.761
508.51	24.754
508.85	25.461
509.19	25.107
509.54	26.513
509.88	25.644
510.23	25.304
510.57	25.761
510.92	25.109
511.26	24.723
511.61	25.157
511.95	25.427
512.30	25.997
512.64	24.988
512.98	24.712
513.33	25.504
513.67	25.344
514.02	25.703
514.36	25.780
514.70	25.833
515.05	25.652
515.39	25.879
515.74	25.769
516.08	25.779
516.42	26.897
516.77	25.973
517.11	25.786
517.46	25.716
517.80	25.922
518.14	25.843
518.49	25.434
518.83	25.120
519.17	24.771
519.52	25.157
519.86	25.343
520.20	25.027
520.55	24.863
520.89	24.606
521.23	24.623
521.58	24.972
521.92	25.949
522.26	25.086
522.61	25.000
522.95	25.317
523.29	25.115
523.64	24.832
523.98	25.556
524.32	26.418
524.66	24.758
525.01	25.142
525.35	24.067
525.69	24.710
526.04	24.856
526.38	25.517
526.72	24.683
527.06	24.633
527.41	24.956
527.75	25.713
528.09	25.679
528.43	24.571
528.78	24.104
529.12	24.197
529.46	24.621
529.80	24.428
530.15	24.638
530.49	24.140
530.83	24.498
531.17	24.194
531.51	24.188
531.86	24.519
532.20	25.305
532.54	23.698
532.88	24.727
533.22	24.867
533.57	24.582
533.91	24.691
534.25	24.534
534.59	24.310
534.93	24.618
535.27	23.493
535.62	24.105
535.96	24.927
536.30	24.266
536.64	23.964
536.98	24.477
537.32	24.938
537.66	24.641
538.01	23.746
538.35	23.508
538.69	23.498
539.03	24.647
539.37	24.441
539.71	24.384
540.05	24.161
540.39	23.289
540.73	24.044
541.07	24.034
541.42	23.627
541.76	23.132
542.10	24.125
542.44	23.630
542.78	23.601
543.12	23.838
543.46	23.687
543.80	23.741
544.14	22.980
544.48	24.527
544.82	23.639
545.16	24.329
545.50	23.787
545.84	23.576
546.18	24.198
546.52	24.076
546.86	23.208
547.20	23.919
547.54	23.970
547.88	23.026
548.22	22.865
548.56	24.225
548.90	23.881
549.24	23.587
549.58	23.533
549.92	23.533
550.26	23.430
550.60	23.229
550.94	24.256
551.28	24.422
551.62	24.259
551.96	22.977
552.30	23.518
552.64	24.020
552.98	23.518
553.32	22.894
553.66	23.408
554.00	24.086
554.34	23.488
554.68	23.434
555.02	24.376
555.36	24.786
555.69	23.254
556.03	22.636
556.37	24.030
556.71	23.335
557.05	23.706
557.39	22.827
557.73	23.448
558.07	22.450
558.41	24.120
558.75	23.867
559.08	22.965
559.42	23.251
559.76	24.220
560.10	22.840
560.44	23.615
560.78	24.312
561.12	23.337
561.45	23.540
561.79	24.115
562.13	24.461
562.47	23.551
562.81	23.418
563.15	23.169
563.48	23.866
563.82	22.854
564.16	23.198
564.50	22.348
564.84	23.245
565.17	23.294
565.51	22.957
565.85	24.287
566.19	22.638
566.52	23.113
566.86	23.882
567.20	22.675
567.54	22.783
567.88	23.649
568.21	23.271
568.55	23.837
568.89	22.833
569.23	23.743
569.56	22.978
569.90	23.343
570.24	23.137
570.57	22.611
570.91	22.413
571.25	23.170
571.59	23.267
571.92	23.054
572.26	22.446
572.60	22.905
572.93	22.878
573.27	22.225
573.61	22.605
573.95	22.360
574.28	22.471
574.62	22.556
574.96	21.857
575.29	22.230
575.63	22.084
575.97	22.491
576.30	21.984
576.64	22.310
576.98	22.187
577.31	22.054
577.65	22.266
577.98	21.800
578.32	21.916
578.66	22.051
578.99	22.240
579.33	22.099
579.67	22.212
580.00	22.095
580.34	21.880
580.67	21.536
581.01	22.090
581.35	21.898
581.68	21.810
582.02	22.296
582.35	22.410
582.69	22.631
583.02	22.276
583.36	22.366
583.70	21.904
584.03	22.126
584.37	22.143
584.70	21.785
585.04	21.274
585.37	21.962
585.71	22.093
586.04	22.149
586.38	22.377
586.72	21.534
587.05	21.745
587.39	22.164
587.72	21.938
588.06	22.050
588.39	22.579
588.73	21.958
589.06	22.207
589.40	22.157
589.73	22.365
590.07	22.347
590.40	22.143
590.73	21.774
591.07	22.748
591.40	21.695
591.74	21.820
592.07	22.899
592.41	21.412
592.74	22.009
593.08	21.911
593.41	22.397
593.75	22.586
594.08	22.266
594.41	22.083
594.75	22.086
595.08	22.039
595.42	21.753
595.75	21.957
596.09	22.128
596.42	22.035
596.75	22.347
597.09	21.899
597.42	22.050
597.75	21.717
598.09	21.984
598.42	21.673
598.76	21.628
599.09	22.072
599.42	21.958
599.76	21.657
600.09	21.955
600.42	21.989
600.76	21.664
601.09	21.507
601.42	21.593
601.76	22.034
602.09	21.658
602.42	21.447
602.76	21.181
603.09	21.769
603.42	21.640
603.76	21.318
604.09	22.214
604.42	21.651
604.76	21.271
605.09	21.779
605.42	21.172
605.75	21.346
606.09	21.090
606.42	20.722
606.75	20.802
607.09	21.045
607.42	21.464
607.75	21.766
608.08	21.192
608.42	20.798
608.75	22.015
609.08	20.756
609.41	21.438
609.75	21.741
610.08	21.240
610.41	20.561
610.74	20.714
611.07	21.670
611.41	21.345
611.74	22.171
612.07	21.131
612.40	21.578
612.73	21.076
613.07	21.174
613.40	20.789
613.73	21.714
614.06	21.148
614.39	21.477
614.72	20.718
615.06	21.222
615.39	21.363
615.72	20.948
616.05	20.884
616.38	21.241
616.71	21.212
617.05	20.341
617.38	20.706
617.71	20.896
618.04	21.425
618.37	21.475
618.70	21.380
619.03	19.654
619.36	21.085
619.69	20.564
620.03	21.281
620.36	20.736
620.69	20.419
621.02	20.210
621.35	21.190
621.68	22.054
622.01	21.139
622.34	20.921
622.67	21.168
623.00	20.378
623.33	21.898
623.66	21.077
623.99	20.540
624.32	20.598
624.65	20.978
624.99	21.456
625.32	20.705
625.65	21.645
625.98	20.407
626.31	20.128
626.64	21.026
626.97	19.430
627.30	19.058
627.63	20.555
627.96	22.222
628.29	20.545
628.62	20.235
628.95	20.421
629.28	20.901
629.61	21.717
629.94	20.669
630.26	19.831
