SpectraSuite Data File
++++++++++++++++++++++++++++++++++++
Date: Thu May 14 14:32:24 PDT 2015
User: schluterlab
Dark Spectrum Present: Yes
Reference Spectrum Present: Yes
Number of Sampled Component Spectra: 1
Spectrometers: USB2E3373
Integration Time (usec): 3000 (USB2E3373)
Spectra Averaged: 3 (USB2E3373)
Boxcar Smoothing: 0 (USB2E3373)
Correct for Electrical Dark: No (USB2E3373)
Strobe/Lamp Enabled: No (USB2E3373)
Correct for Detector Non-linearity: No (USB2E3373)
Correct for Stray Light: No (USB2E3373)
Number of Pixels in Processed Spectrum: 2048
>>>>>Begin Processed Spectral Data<<<<<
178.53	0.000
178.91	-271.429
179.29	1300.000
179.67	1900.000
180.04	-64.286
180.42	-130.000
180.80	-180.000
181.18	2400.000
181.56	2000.000
181.94	-700.000
182.31	350.000
182.69	-466.667
183.07	850.000
183.45	-575.000
183.83	250.000
184.20	333.333
184.58	-1900.000
184.96	400.000
185.34	211.111
185.72	540.000
186.09	-100.000
186.47	-400.000
186.85	-180.000
187.23	155.556
187.61	600.000
187.98	-240.000
188.36	-375.000
188.74	600.000
189.12	666.667
189.49	131.250
189.87	250.000
190.25	288.889
190.63	300.000
191.00	122.222
191.38	0.000
191.76	250.000
192.14	333.333
192.51	-1400.000
192.89	433.333
193.27	0.000
193.65	314.286
194.02	1500.000
194.40	157.143
194.78	-185.714
195.15	0.000
195.53	136.364
195.91	0.000
196.29	500.000
196.66	161.538
197.04	2400.000
197.42	285.714
197.79	550.000
198.17	137.500
198.55	57.143
198.92	233.333
199.30	200.000
199.68	236.364
200.05	121.429
200.43	800.000
200.81	-128.571
201.18	0.000
201.56	-55.556
201.94	0.000
202.31	-500.000
202.69	111.111
203.07	-2100.000
203.44	211.111
203.82	400.000
204.19	175.000
204.57	283.333
204.95	175.000
205.32	1100.000
205.70	-550.000
206.08	250.000
206.45	333.333
206.83	-160.000
207.20	483.333
207.58	340.000
207.96	250.000
208.33	366.667
208.71	-141.667
209.08	533.333
209.46	0.000
209.84	-300.000
210.21	-950.000
210.59	-950.000
210.96	-533.333
211.34	625.000
211.71	200.000
212.09	1400.000
212.46	0.000
212.84	-500.000
213.22	260.000
213.59	350.000
213.97	290.000
214.34	733.333
214.72	-133.333
215.09	400.000
215.47	0.000
215.84	-200.000
216.22	-550.000
216.59	440.000
216.97	280.000
217.34	575.000
217.72	237.500
218.09	525.000
218.47	150.000
218.84	0.000
219.22	-200.000
219.59	100.000
219.97	95.000
220.34	-500.000
220.72	188.889
221.09	176.923
221.47	733.333
221.84	140.000
222.22	114.286
222.59	0.000
222.97	275.000
223.34	140.000
223.72	2100.000
224.09	675.000
224.46	475.000
224.84	540.000
225.21	185.714
225.59	150.000
225.96	200.000
226.34	100.000
226.71	-166.667
227.08	800.000
227.46	100.000
227.83	475.000
228.21	110.526
228.58	-175.000
228.95	-450.000
229.33	241.667
229.70	130.000
230.08	121.053
230.45	-130.000
230.82	500.000
231.20	142.857
231.57	175.000
231.95	290.909
232.32	236.364
232.69	90.000
233.07	325.000
233.44	170.588
233.81	150.000
234.19	155.556
234.56	127.273
234.93	72.414
235.31	89.474
235.68	72.222
236.05	75.000
236.43	88.462
236.80	132.000
237.17	62.963
237.55	48.485
237.92	110.000
238.29	83.871
238.67	50.000
239.04	77.778
239.41	54.762
239.79	47.826
240.16	46.296
240.53	52.174
240.91	29.412
241.28	44.262
241.65	55.224
242.02	40.541
242.40	35.385
242.77	40.000
243.14	35.366
243.51	17.105
243.89	32.051
244.26	31.683
244.63	48.039
245.00	28.972
245.38	31.579
245.75	23.009
246.12	30.952
246.49	27.132
246.87	26.429
247.24	30.464
247.61	26.974
247.98	26.846
248.36	20.370
248.73	22.086
249.10	24.590
249.47	27.861
249.84	29.319
250.22	24.870
250.59	30.000
250.96	25.000
251.33	23.469
251.70	24.786
252.08	25.000
252.45	21.721
252.82	19.421
253.19	17.969
253.56	21.673
253.94	21.538
254.31	20.833
254.68	24.126
255.05	23.779
255.42	19.388
255.79	16.505
256.16	21.192
256.54	18.543
256.91	20.328
257.28	20.656
257.65	16.561
258.02	17.109
258.39	21.083
258.76	22.018
259.14	22.414
259.51	21.326
259.88	18.414
260.25	16.111
260.62	20.548
260.99	21.585
261.36	19.571
261.73	17.772
262.10	21.429
262.47	19.839
262.85	22.727
263.22	17.922
263.59	16.842
263.96	19.693
264.33	18.926
264.70	20.247
265.07	17.900
265.44	19.501
265.81	17.130
266.18	19.501
266.55	17.187
266.92	17.540
267.29	20.788
267.66	20.399
268.03	19.432
268.40	18.789
268.77	17.995
269.14	16.520
269.51	18.421
269.88	19.877
270.25	18.310
270.62	19.409
270.99	20.404
271.36	20.396
271.73	19.450
272.10	19.439
272.47	16.633
272.84	17.871
273.21	18.637
273.58	18.145
273.95	19.615
274.32	17.681
274.69	17.602
275.06	18.864
275.43	17.560
275.80	16.931
276.17	15.741
276.54	16.418
276.91	16.279
277.28	18.083
277.65	15.978
278.02	18.566
278.39	17.210
278.76	16.169
279.13	16.312
279.50	19.416
279.87	17.889
280.23	16.021
280.60	17.966
280.97	17.270
281.34	15.620
281.71	17.259
282.08	18.272
282.45	15.712
282.82	15.228
283.19	15.186
283.56	17.213
283.92	17.868
284.29	19.115
284.66	16.749
285.03	15.385
285.40	16.383
285.77	17.028
286.14	16.183
286.51	16.134
286.87	15.956
287.24	16.416
287.61	14.350
287.98	15.408
288.35	16.420
288.72	15.828
289.08	15.081
289.45	15.089
289.82	14.910
290.19	15.517
290.56	15.775
290.93	16.262
291.29	15.152
291.66	13.499
292.03	13.297
292.40	13.741
292.77	13.881
293.13	15.697
293.50	14.192
293.87	14.362
294.24	13.867
294.60	14.286
294.97	12.215
295.34	15.365
295.71	13.493
296.08	13.566
296.44	13.113
296.81	12.667
297.18	12.951
297.55	13.679
297.91	12.456
298.28	12.559
298.65	13.199
299.02	12.869
299.38	13.730
299.75	12.150
300.12	12.963
300.48	12.327
300.85	13.048
301.22	13.199
301.59	11.301
301.95	13.107
302.32	12.444
302.69	12.158
303.05	12.622
303.42	12.749
303.79	12.708
304.15	12.093
304.52	10.782
304.89	12.775
305.25	12.319
305.62	12.748
305.99	12.990
306.35	11.593
306.72	12.306
307.09	10.355
307.45	11.594
307.82	12.008
308.19	13.118
308.55	12.633
308.92	13.048
309.29	12.069
309.65	11.404
310.02	12.079
310.38	11.122
310.75	11.262
311.12	11.505
311.48	10.655
311.85	11.016
312.22	11.195
312.58	12.394
312.95	10.899
313.31	11.292
313.68	11.447
314.05	12.827
314.41	11.111
314.78	10.899
315.14	11.071
315.51	11.634
315.87	11.251
316.24	11.689
316.61	11.812
316.97	10.498
317.34	10.670
317.70	11.965
318.07	10.935
318.43	12.075
318.80	12.207
319.16	11.674
319.53	10.626
319.89	10.342
320.26	12.011
320.62	10.638
320.99	12.558
321.35	11.275
321.72	12.186
322.08	11.091
322.45	12.014
322.81	11.733
323.18	10.265
323.54	10.690
323.91	11.744
324.27	11.360
324.64	12.594
325.00	11.692
325.37	11.630
325.73	11.322
326.10	12.247
326.46	12.296
326.83	12.090
327.19	12.126
327.56	12.016
327.92	11.408
328.29	12.419
328.65	10.888
329.01	11.506
329.38	11.542
329.74	11.729
330.11	11.301
330.47	11.794
330.84	11.886
331.20	11.333
331.56	11.612
331.93	13.138
332.29	12.119
332.66	12.209
333.02	11.725
333.38	11.745
333.75	10.522
334.11	12.260
334.48	11.469
334.84	12.065
335.20	10.411
335.57	12.057
335.93	12.149
336.29	11.398
336.66	12.027
337.02	11.622
337.38	12.160
337.75	11.570
338.11	11.690
338.47	11.828
338.84	11.421
339.20	10.868
339.56	11.367
339.93	11.576
340.29	12.238
340.65	11.030
341.02	11.971
341.38	12.530
341.74	11.703
342.11	11.102
342.47	10.802
342.83	11.433
343.20	11.938
343.56	11.067
343.92	11.369
344.28	11.328
344.65	12.171
345.01	11.934
345.37	11.897
345.73	10.678
346.10	12.168
346.46	11.313
346.82	12.135
347.19	11.001
347.55	12.291
347.91	10.921
348.27	11.153
348.63	11.424
349.00	10.589
349.36	11.822
349.72	10.640
350.08	10.921
350.45	10.951
350.81	11.086
351.17	11.278
351.53	11.979
351.89	12.149
352.26	10.970
352.62	11.418
352.98	11.374
353.34	9.559
353.70	9.630
354.07	11.624
354.43	10.934
354.79	10.471
355.15	11.185
355.51	11.184
355.87	10.471
356.24	10.951
356.60	10.273
356.96	10.230
357.32	11.004
357.68	10.761
358.04	10.180
358.40	11.119
358.77	11.404
359.13	9.970
359.49	9.740
359.85	11.095
360.21	11.047
360.57	10.840
360.93	11.072
361.29	10.947
361.66	10.717
362.02	11.482
362.38	10.471
362.74	10.405
363.10	11.004
363.46	10.942
363.82	10.014
364.18	10.556
364.54	10.788
364.90	11.237
365.26	10.414
365.62	11.667
365.98	10.211
366.35	10.604
366.71	10.068
367.07	10.825
367.43	11.162
367.79	11.015
368.15	11.304
368.51	10.149
368.87	10.059
369.23	11.067
369.59	10.246
369.95	10.886
370.31	10.196
370.67	10.867
371.03	9.765
371.39	10.343
371.75	10.110
372.11	10.095
372.47	10.765
372.83	10.995
373.19	11.007
373.55	10.705
373.91	9.543
374.27	10.414
374.63	10.893
374.99	10.809
375.35	10.844
375.71	9.935
376.07	10.587
376.42	10.139
376.78	11.187
377.14	10.917
377.50	10.247
377.86	11.392
378.22	11.018
378.58	10.285
378.94	10.094
379.30	10.838
379.66	10.229
380.02	9.983
380.38	9.505
380.74	10.535
381.09	9.814
381.45	10.511
381.81	10.948
382.17	10.511
382.53	10.175
382.89	10.722
383.25	10.610
383.61	8.912
383.97	9.835
384.32	11.423
384.68	9.513
385.04	11.047
385.40	10.666
385.76	10.727
386.12	10.174
386.48	10.647
386.83	10.608
387.19	9.502
387.55	9.272
387.91	10.445
388.27	10.046
388.62	10.825
388.98	10.152
389.34	10.548
389.70	9.471
390.06	10.420
390.42	10.663
390.77	11.017
391.13	9.448
391.49	10.870
391.85	9.030
392.20	10.024
392.56	11.164
392.92	10.687
393.28	10.392
393.64	9.665
393.99	10.343
394.35	10.456
394.71	10.659
395.07	9.940
395.42	10.166
395.78	11.213
396.14	10.873
396.50	9.739
396.85	9.720
397.21	10.355
397.57	9.953
397.92	11.111
398.28	10.158
398.64	10.240
399.00	10.105
399.35	9.895
399.71	10.163
400.07	9.882
400.42	10.186
400.78	10.648
401.14	10.643
401.49	10.119
401.85	10.581
402.21	10.313
402.57	9.918
402.92	10.461
403.28	9.836
403.63	9.785
403.99	9.679
404.35	9.835
404.70	10.425
405.06	10.326
405.42	10.363
405.77	10.305
406.13	10.319
406.49	10.191
406.84	10.416
407.20	10.117
407.55	9.691
407.91	10.119
408.27	10.365
408.62	10.588
408.98	9.983
409.34	9.619
409.69	10.198
410.05	10.785
410.40	10.847
410.76	10.712
411.11	10.286
411.47	10.934
411.83	10.817
412.18	9.819
412.54	10.551
412.89	10.652
413.25	10.440
413.60	9.707
413.96	9.790
414.31	9.972
414.67	10.972
415.03	9.477
415.38	10.277
415.74	9.957
416.09	9.562
416.45	11.021
416.80	10.343
417.16	10.664
417.51	10.399
417.87	10.300
418.22	10.599
418.58	10.409
418.93	10.710
419.29	9.309
419.64	9.724
420.00	9.674
420.35	10.275
420.71	10.281
421.06	9.718
421.42	10.378
421.77	9.962
422.12	10.042
422.48	9.933
422.83	10.296
423.19	9.973
423.54	10.232
423.90	9.939
424.25	10.187
424.61	9.644
424.96	9.610
425.31	10.722
425.67	9.930
426.02	10.127
426.38	9.816
426.73	10.268
427.09	11.130
427.44	9.995
427.79	9.674
428.15	9.932
428.50	9.607
428.85	10.850
429.21	10.691
429.56	10.316
429.92	9.926
430.27	10.072
430.62	9.819
430.98	9.887
431.33	9.971
431.68	9.674
432.04	9.954
432.39	10.927
432.74	9.817
433.10	10.654
433.45	9.476
433.80	10.783
434.16	10.744
434.51	9.969
434.86	9.392
435.22	9.245
435.57	10.613
435.92	10.072
436.28	9.386
436.63	10.486
436.98	10.038
437.34	10.485
437.69	9.356
438.04	9.783
438.39	10.281
438.75	10.238
439.10	10.729
439.45	10.006
439.81	9.661
440.16	9.866
440.51	10.145
440.86	9.561
441.22	10.504
441.57	10.010
441.92	9.651
442.27	9.747
442.63	9.687
442.98	10.085
443.33	10.100
443.68	10.456
444.03	9.878
444.39	9.940
444.74	10.413
445.09	9.782
445.44	10.169
445.79	9.914
446.15	9.815
446.50	9.406
446.85	10.603
447.20	9.816
447.55	9.885
447.91	9.319
448.26	9.249
448.61	10.308
448.96	10.622
449.31	9.968
449.66	9.695
450.02	10.338
450.37	10.495
450.72	10.118
451.07	10.421
451.42	9.763
451.77	9.450
452.12	9.763
452.47	9.745
452.83	9.797
453.18	10.333
453.53	9.190
453.88	10.271
454.23	9.887
454.58	10.795
454.93	9.405
455.28	10.235
455.63	10.574
455.98	10.279
456.34	10.306
456.69	9.465
457.04	10.225
457.39	9.313
457.74	10.235
458.09	9.775
458.44	10.291
458.79	9.593
459.14	10.225
459.49	9.394
459.84	10.336
460.19	9.939
460.54	9.426
460.89	9.741
461.24	10.287
461.59	10.072
461.94	9.355
462.29	9.518
462.64	10.561
462.99	10.295
463.34	10.058
463.69	10.844
464.04	10.673
464.39	10.202
464.74	10.205
465.09	9.631
465.44	9.871
465.79	10.048
466.14	9.588
466.49	9.684
466.84	9.917
467.19	10.058
467.54	9.342
467.89	9.943
468.24	10.249
468.59	9.844
468.94	8.916
469.29	9.418
469.64	9.854
469.99	9.624
470.34	9.901
470.68	10.731
471.03	9.627
471.38	9.287
471.73	10.143
472.08	9.327
472.43	9.874
472.78	10.202
473.13	10.367
473.48	10.211
473.83	9.867
474.17	9.730
474.52	10.222
474.87	9.635
475.22	10.254
475.57	9.709
475.92	9.507
476.27	10.170
476.61	10.644
476.96	9.645
477.31	10.149
477.66	10.703
478.01	9.405
478.36	9.771
478.70	9.606
479.05	10.378
479.40	10.069
479.75	9.414
480.10	10.185
480.45	9.982
480.79	9.887
481.14	9.605
481.49	9.632
481.84	9.661
482.19	9.505
482.53	9.838
482.88	9.615
483.23	9.960
483.58	9.520
483.92	9.574
484.27	9.356
484.62	9.488
484.97	9.876
485.31	9.222
485.66	9.722
486.01	9.363
486.36	9.291
486.70	9.008
487.05	9.033
487.40	9.519
487.75	8.982
488.09	9.214
488.44	9.155
488.79	9.477
489.13	9.703
489.48	9.709
489.83	9.336
490.17	9.437
490.52	8.949
490.87	9.772
491.22	9.272
491.56	9.898
491.91	9.987
492.26	9.996
492.60	9.357
492.95	9.697
493.30	9.682
493.64	9.549
493.99	9.912
494.34	9.016
494.68	8.865
495.03	10.132
495.37	9.987
495.72	9.569
496.07	9.772
496.41	9.095
496.76	9.508
497.11	9.342
497.45	9.452
497.80	9.907
498.14	9.206
498.49	9.191
498.84	9.872
499.18	9.987
499.53	9.417
499.87	10.198
500.22	9.394
500.56	9.627
500.91	9.840
501.26	9.773
501.60	9.501
501.95	10.291
502.29	10.268
502.64	9.882
502.98	9.534
503.33	8.812
503.67	9.420
504.02	8.888
504.36	9.294
504.71	9.784
505.06	9.914
505.40	9.186
505.75	9.654
506.09	9.945
506.44	9.610
506.78	10.000
507.13	10.604
507.47	9.948
507.82	9.612
508.16	9.895
508.51	9.376
508.85	9.353
509.19	10.611
509.54	9.894
509.88	9.713
510.23	10.199
510.57	10.198
510.92	9.337
511.26	10.005
511.61	9.319
511.95	9.566
512.30	9.946
512.64	9.545
512.98	9.955
513.33	10.333
513.67	9.587
514.02	9.709
514.36	10.946
514.70	10.000
515.05	10.323
515.39	9.764
515.74	10.445
516.08	10.777
516.42	9.733
516.77	10.252
517.11	9.335
517.46	9.756
517.80	10.689
518.14	10.609
518.49	10.195
518.83	10.112
519.17	9.532
519.52	10.010
519.86	10.665
520.20	10.170
520.55	10.460
520.89	10.079
521.23	9.994
521.58	9.548
521.92	9.745
522.26	10.137
522.61	10.648
522.95	10.208
523.29	9.540
523.64	9.641
523.98	10.553
524.32	10.602
524.66	9.846
525.01	10.136
525.35	9.477
525.69	10.035
526.04	9.759
526.38	10.172
526.72	10.611
527.06	10.440
527.41	10.437
527.75	10.808
528.09	10.272
528.43	10.302
528.78	9.653
529.12	10.149
529.46	9.668
529.80	10.584
530.15	9.449
530.49	9.431
530.83	10.626
531.17	9.916
531.51	10.048
531.86	10.577
532.20	10.488
532.54	10.233
532.88	9.818
533.22	10.489
533.57	11.079
533.91	11.167
534.25	10.175
534.59	10.747
534.93	10.243
535.27	9.408
535.62	10.290
535.96	10.169
536.30	9.694
536.64	10.751
536.98	10.578
537.32	10.988
537.66	10.044
538.01	10.453
538.35	9.440
538.69	10.276
539.03	10.362
539.37	10.895
539.71	9.910
540.05	10.012
540.39	10.086
540.73	11.293
541.07	10.055
541.42	9.746
541.76	9.905
542.10	10.314
542.44	10.110
542.78	10.280
543.12	10.012
543.46	9.585
543.80	9.652
544.14	10.054
544.48	10.757
544.82	10.114
545.16	10.495
545.50	9.287
545.84	10.839
546.18	10.741
546.52	9.873
546.86	10.440
547.20	9.478
547.54	11.049
547.88	10.428
548.22	10.526
548.56	10.415
548.90	10.567
549.24	10.578
549.58	9.842
549.92	9.885
550.26	10.227
550.60	10.466
550.94	10.349
551.28	10.627
551.62	10.310
551.96	9.579
552.30	11.409
552.64	10.516
552.98	11.042
553.32	10.225
553.66	10.482
554.00	11.097
554.34	10.875
554.68	10.587
555.02	10.381
555.36	10.651
555.69	9.930
556.03	10.214
556.37	10.200
556.71	10.717
557.05	10.479
557.39	9.622
557.73	10.370
558.07	10.596
558.41	10.100
558.75	9.804
559.08	10.856
559.42	10.494
559.76	11.194
560.10	10.583
560.44	10.422
560.78	9.812
561.12	10.099
561.45	10.219
561.79	10.806
562.13	10.536
562.47	9.864
562.81	9.937
563.15	10.227
563.48	11.374
563.82	10.701
564.16	9.994
564.50	10.489
564.84	10.088
565.17	11.118
565.51	9.781
565.85	9.620
566.19	10.196
566.52	9.830
566.86	10.130
567.20	9.516
567.54	9.241
567.88	9.633
568.21	10.375
568.55	9.784
568.89	9.850
569.23	10.182
569.56	9.887
569.90	10.406
570.24	9.848
570.57	9.782
570.91	9.247
571.25	9.575
571.59	9.602
571.92	9.595
572.26	9.344
572.60	9.255
572.93	10.075
573.27	9.385
573.61	9.582
573.95	9.590
574.28	9.227
574.62	9.095
574.96	9.153
575.29	8.967
575.63	9.101
575.97	9.126
576.30	9.006
576.64	9.377
576.98	9.431
577.31	9.286
577.65	9.410
577.98	9.206
578.32	9.266
578.66	8.820
578.99	8.601
579.33	9.315
579.67	9.180
580.00	9.283
580.34	9.599
580.67	9.135
581.01	9.000
581.35	9.429
581.68	9.068
582.02	9.316
582.35	9.207
582.69	9.220
583.02	9.251
583.36	9.139
583.70	9.089
584.03	8.735
584.37	9.183
584.70	9.218
585.04	8.951
585.37	9.103
585.71	9.169
586.04	9.379
586.38	9.331
586.72	9.276
587.05	8.903
587.39	9.299
587.72	9.282
588.06	9.284
588.39	9.534
588.73	9.339
589.06	9.029
589.40	8.881
589.73	9.030
590.07	9.052
590.40	10.480
590.73	9.226
591.07	9.382
591.40	9.526
591.74	9.062
592.07	10.313
592.41	9.306
592.74	9.762
593.08	9.459
593.41	9.216
593.75	9.167
594.08	9.300
594.41	9.006
594.75	9.598
595.08	9.388
595.42	9.221
595.75	9.590
596.09	9.692
596.42	9.137
596.75	9.765
597.09	9.737
597.42	9.376
597.75	9.526
598.09	10.079
598.42	9.811
598.76	9.629
599.09	9.790
599.42	9.822
599.76	9.211
600.09	9.510
600.42	9.376
600.76	9.346
601.09	9.525
601.42	9.063
601.76	9.931
602.09	9.400
602.42	9.160
602.76	8.930
603.09	9.508
603.42	9.393
603.76	8.985
604.09	9.972
604.42	9.578
604.76	9.437
605.09	9.892
605.42	9.370
605.75	9.538
606.09	9.518
606.42	9.084
606.75	9.145
607.09	9.293
607.42	9.518
607.75	9.691
608.08	9.511
608.42	9.351
608.75	9.494
609.08	9.423
609.41	9.307
609.75	9.420
610.08	9.894
610.41	9.686
610.74	9.538
611.07	9.591
611.41	10.314
611.74	9.838
612.07	9.724
612.40	9.316
612.73	9.340
613.07	10.171
613.40	10.202
613.73	9.533
614.06	9.814
614.39	9.232
614.72	9.558
615.06	9.625
615.39	9.908
615.72	10.047
616.05	10.248
616.38	9.637
616.71	9.457
617.05	8.999
617.38	10.540
617.71	10.205
618.04	9.984
618.37	10.164
618.70	10.407
619.03	10.096
619.36	9.433
619.69	10.698
620.03	10.232
620.36	10.184
620.69	9.439
621.02	10.761
621.35	11.248
621.68	10.051
622.01	10.534
622.34	8.996
622.67	10.172
623.00	9.244
623.33	9.954
623.66	9.663
623.99	9.348
624.32	11.371
624.65	9.846
624.99	10.078
625.32	10.320
625.65	9.238
625.98	9.898
626.31	10.064
626.64	10.476
626.97	9.827
627.30	9.491
627.63	10.128
627.96	11.036
628.29	9.883
628.62	11.335
628.95	9.465
629.28	10.110
629.61	10.943
629.94	9.289
630.26	10.085
630.59	10.708
630.92	9.784
631.25	10.644
631.58	11.205
631.91	9.841
632.24	11.335
632.57	11.195
632.90	9.729
633.23	10.612
633.56	10.714
633.89	10.331
634.22	10.291
634.55	10.647
634.88	11.364
635.20	12.379
635.53	11.299
635.86	11.918
636.19	12.407
636.52	9.705
636.85	10.725
637.18	10.603
637.51	11.505
637.83	12.071
638.16	11.175
638.49	10.681
638.82	10.034
639.15	9.393
639.48	12.471
639.81	11.316
640.13	12.132
640.46	10.788
640.79	9.926
641.12	11.553
641.45	10.665
641.77	11.938
642.10	10.499
