SpectraSuite Data File
++++++++++++++++++++++++++++++++++++
Date: Thu May 14 14:41:18 PDT 2015
User: schluterlab
Dark Spectrum Present: Yes
Reference Spectrum Present: Yes
Number of Sampled Component Spectra: 1
Spectrometers: USB2E3373
Integration Time (usec): 3000 (USB2E3373)
Spectra Averaged: 3 (USB2E3373)
Boxcar Smoothing: 0 (USB2E3373)
Correct for Electrical Dark: No (USB2E3373)
Strobe/Lamp Enabled: No (USB2E3373)
Correct for Detector Non-linearity: No (USB2E3373)
Correct for Stray Light: No (USB2E3373)
Number of Pixels in Processed Spectrum: 2048
>>>>>Begin Processed Spectral Data<<<<<
178.53	0.000
178.91	-42.857
179.29	700.000
179.67	700.000
180.04	35.714
180.42	10.000
180.80	-0.000
181.18	400.000
181.56	1800.000
181.94	-75.000
182.31	250.000
182.69	-200.000
183.07	300.000
183.45	-75.000
183.83	133.333
184.20	566.667
184.58	-300.000
184.96	200.000
185.34	111.111
185.72	380.000
186.09	11.111
186.47	-550.000
186.85	-120.000
187.23	11.111
187.61	200.000
187.98	-240.000
188.36	-200.000
188.74	275.000
189.12	-166.667
189.49	75.000
189.87	62.500
190.25	66.667
190.63	300.000
191.00	44.444
191.38	0.000
191.76	350.000
192.14	66.667
192.51	-300.000
192.89	266.667
193.27	0.000
193.65	128.571
194.02	500.000
194.40	114.286
194.78	28.571
195.15	0.000
195.53	63.636
195.91	0.000
196.29	175.000
196.66	107.692
197.04	400.000
197.42	0.000
197.79	250.000
198.17	187.500
198.55	0.000
198.92	211.111
199.30	112.500
199.68	154.545
200.05	157.143
200.43	150.000
200.81	42.857
201.18	0.000
201.56	-44.444
201.94	0.000
202.31	-300.000
202.69	33.333
203.07	-1800.000
203.44	144.444
203.82	250.000
204.19	-50.000
204.57	83.333
204.95	75.000
205.32	400.000
205.70	-100.000
206.08	183.333
206.45	266.667
206.83	60.000
207.20	166.667
207.58	60.000
207.96	100.000
208.33	350.000
208.71	-25.000
209.08	100.000
209.46	0.000
209.84	16.667
210.21	-1050.000
210.59	-300.000
210.96	66.667
211.34	225.000
211.71	137.500
212.09	1500.000
212.46	0.000
212.84	-0.000
213.22	40.000
213.59	475.000
213.97	110.000
214.34	266.667
214.72	83.333
215.09	350.000
215.47	0.000
215.84	-14.286
216.22	300.000
216.59	300.000
216.97	280.000
217.34	25.000
217.72	112.500
218.09	375.000
218.47	200.000
218.84	0.000
219.22	-60.000
219.59	70.588
219.97	110.000
220.34	-400.000
220.72	22.222
221.09	107.692
221.47	366.667
221.84	210.000
222.22	185.714
222.59	0.000
222.97	250.000
223.34	120.000
223.72	1100.000
224.09	200.000
224.46	75.000
224.84	320.000
225.21	0.000
225.59	100.000
225.96	300.000
226.34	53.846
226.71	-83.333
227.08	700.000
227.46	66.667
227.83	350.000
228.21	68.421
228.58	-37.500
228.95	100.000
229.33	125.000
229.70	160.000
230.08	84.211
230.45	-60.000
230.82	233.333
231.20	92.857
231.57	183.333
231.95	145.455
232.32	100.000
232.69	110.000
233.07	225.000
233.44	76.471
233.81	140.000
234.19	88.889
234.56	81.818
234.93	75.862
235.31	105.263
235.68	138.889
236.05	90.000
236.43	92.308
236.80	116.000
237.17	74.074
237.55	81.818
237.92	120.000
238.29	83.871
238.67	65.909
239.04	83.333
239.41	66.667
239.79	73.913
240.16	46.296
240.53	60.870
240.91	62.745
241.28	70.492
241.65	71.642
242.02	62.162
242.40	63.077
242.77	50.667
243.14	41.463
243.51	44.737
243.89	61.538
244.26	63.366
244.63	53.922
245.00	55.140
245.38	63.158
245.75	47.788
246.12	53.175
246.49	45.736
246.87	55.000
247.24	45.033
247.61	48.684
247.98	53.020
248.36	52.469
248.73	50.920
249.10	53.552
249.47	53.731
249.84	52.880
250.22	53.886
250.59	51.667
250.96	49.091
251.33	42.347
251.70	46.154
252.08	47.917
252.45	49.590
252.82	45.455
253.19	47.656
253.56	44.867
253.94	50.769
254.31	47.727
254.68	50.000
255.05	47.231
255.42	44.898
255.79	47.573
256.16	48.013
256.54	45.695
256.91	48.525
257.28	49.836
257.65	45.541
258.02	43.363
258.39	48.148
258.76	51.070
259.14	52.299
259.51	46.110
259.88	45.892
260.25	46.667
260.62	49.041
260.99	50.546
261.36	49.598
261.73	46.154
262.10	50.824
262.47	46.381
262.85	50.000
263.22	48.571
263.59	46.842
263.96	49.361
264.33	45.524
264.70	49.383
265.07	47.255
265.44	50.794
265.81	43.287
266.18	45.125
266.55	46.429
266.92	48.519
267.29	48.140
267.66	45.676
268.03	44.978
268.40	46.138
268.77	48.292
269.14	47.577
269.51	48.904
269.88	46.516
270.25	45.272
270.62	47.257
270.99	46.263
271.36	46.337
271.73	45.187
272.10	46.493
272.47	45.090
272.84	44.177
273.21	45.090
273.58	47.782
273.95	44.808
274.32	44.677
274.69	45.648
275.06	47.985
275.43	42.514
275.80	44.092
276.17	43.333
276.54	45.522
276.91	42.039
277.28	44.485
277.65	46.499
278.02	43.750
278.39	46.739
278.76	43.937
279.13	45.390
279.50	43.814
279.87	42.755
280.23	42.077
280.60	45.085
280.97	41.118
281.34	44.143
281.71	42.640
282.08	43.189
282.45	43.699
282.82	42.229
283.19	39.580
283.56	42.951
283.92	42.943
284.29	43.286
284.66	43.186
285.03	41.346
285.40	42.504
285.77	40.557
286.14	42.901
286.51	43.075
286.87	44.550
287.24	42.922
287.61	42.750
287.98	42.145
288.35	41.568
288.72	39.497
289.08	41.581
289.45	39.793
289.82	40.211
290.19	40.661
290.56	39.437
290.93	40.228
291.29	39.807
291.66	40.083
292.03	37.992
292.40	40.408
292.77	37.601
293.13	37.618
293.50	37.582
293.87	37.450
294.24	38.533
294.60	36.662
294.97	36.510
295.34	36.236
295.71	36.192
296.08	34.238
296.44	36.275
296.81	35.201
297.18	35.990
297.55	33.255
297.91	34.994
298.28	33.175
298.65	33.650
299.02	32.822
299.38	34.439
299.75	33.879
300.12	34.144
300.48	35.023
300.85	34.196
301.22	34.116
301.59	33.105
301.95	34.802
302.32	32.889
302.69	33.078
303.05	34.168
303.42	34.701
303.79	33.333
304.15	32.072
304.52	33.721
304.89	32.670
305.25	31.470
305.62	32.288
305.99	34.330
306.35	32.460
306.72	34.953
307.09	32.284
307.45	33.644
307.82	32.896
308.19	32.593
308.55	30.955
308.92	32.619
309.29	31.897
309.65	33.236
310.02	33.564
310.38	32.480
310.75	32.816
311.12	33.557
311.48	33.431
311.85	33.618
312.22	34.535
312.58	34.366
312.95	32.983
313.31	34.598
313.68	34.707
314.05	33.604
314.41	35.246
314.78	35.422
315.14	35.118
315.51	34.995
315.87	34.743
316.24	35.342
316.61	37.922
316.97	35.656
317.34	33.951
317.70	35.895
318.07	34.744
318.43	36.735
318.80	36.288
319.16	36.996
319.53	35.219
319.89	35.846
320.26	37.100
320.62	37.145
320.99	36.842
321.35	35.305
321.72	37.395
322.08	37.241
322.45	38.934
322.81	40.433
323.18	39.735
323.54	39.828
323.91	39.769
324.27	37.435
324.64	39.043
325.00	39.303
325.37	39.312
325.73	39.091
326.10	39.092
326.46	38.925
326.83	39.151
327.19	39.449
327.56	39.842
327.92	38.474
328.29	39.274
328.65	38.777
329.01	39.848
329.38	40.691
329.74	41.096
330.11	42.123
330.47	41.449
330.84	41.171
331.20	40.250
331.56	40.381
331.93	41.674
332.29	42.203
332.66	40.365
333.02	39.615
333.38	40.352
333.75	39.983
334.11	40.867
334.48	39.769
334.84	41.801
335.20	40.638
335.57	41.315
335.93	41.240
336.29	39.601
336.66	40.622
337.02	40.301
337.38	41.241
337.75	41.736
338.11	41.632
338.47	41.026
338.84	40.102
339.20	39.764
339.56	40.280
339.93	40.312
340.29	39.694
340.65	40.146
341.02	40.223
341.38	41.956
341.74	40.678
342.11	40.708
342.47	40.508
342.83	42.110
343.20	42.764
343.56	40.738
343.92	40.913
344.28	40.391
344.65	40.930
345.01	41.186
345.37	40.824
345.73	39.049
346.10	40.328
346.46	40.981
346.82	40.899
347.19	41.176
347.55	39.833
347.91	40.490
348.27	40.592
348.63	40.137
349.00	39.746
349.36	39.926
349.72	39.509
350.08	40.267
350.45	40.989
350.81	39.668
351.17	39.398
351.53	39.879
351.89	41.002
352.26	40.448
352.62	41.343
352.98	40.763
353.34	39.881
353.70	42.219
354.07	41.803
354.43	40.850
354.79	40.389
355.15	39.367
355.51	40.716
355.87	40.165
356.24	41.521
356.60	40.207
356.96	39.437
357.32	39.554
357.68	39.605
358.04	40.569
358.40	40.746
358.77	40.570
359.13	40.842
359.49	40.000
359.85	40.827
360.21	41.248
360.57	39.268
360.93	40.903
361.29	41.544
361.66	41.636
362.02	41.962
362.38	40.618
362.74	42.249
363.10	41.609
363.46	41.413
363.82	40.341
364.18	41.309
364.54	40.595
364.90	41.204
365.26	41.241
365.62	41.133
365.98	40.776
366.35	40.738
366.71	42.245
367.07	42.152
367.43	41.628
367.79	42.004
368.15	42.140
368.51	42.760
368.87	42.848
369.23	40.800
369.59	42.486
369.95	42.326
370.31	42.741
370.67	42.160
371.03	41.482
371.39	41.370
371.75	44.223
372.11	42.276
372.47	42.451
372.83	43.063
373.19	42.095
373.55	43.699
373.91	43.217
374.27	41.138
374.63	44.317
374.99	43.103
375.35	44.481
375.71	43.677
376.07	43.447
376.42	44.144
376.78	44.624
377.14	43.231
377.50	44.213
377.86	43.842
378.22	45.030
378.58	44.946
378.94	44.484
379.30	44.640
379.66	45.561
380.02	45.413
380.38	46.371
380.74	45.859
381.09	45.412
381.45	46.705
381.81	48.185
382.17	47.090
382.53	46.667
382.89	45.316
383.25	47.479
383.61	46.181
383.97	47.114
384.32	48.146
384.68	47.216
385.04	47.889
385.40	47.613
385.76	48.417
386.12	48.055
386.48	49.412
386.83	49.046
387.19	48.552
387.55	48.709
387.91	49.315
388.27	48.903
388.62	49.771
388.98	48.731
389.34	50.383
389.70	49.680
390.06	49.734
390.42	48.916
390.77	50.512
391.13	51.291
391.49	51.812
391.85	50.667
392.20	51.246
392.56	51.742
392.92	50.654
393.28	51.686
393.64	51.564
393.99	51.772
394.35	51.343
394.71	51.677
395.07	51.856
395.42	52.085
395.78	53.504
396.14	52.228
396.50	52.613
396.85	52.892
397.21	52.663
397.57	52.650
397.92	52.806
398.28	52.580
398.64	52.403
399.00	52.042
399.35	52.932
399.71	53.098
400.07	53.509
400.42	54.540
400.78	53.646
401.14	53.956
401.49	53.383
401.85	53.663
402.21	53.071
402.57	53.638
402.92	54.374
403.28	53.747
403.63	53.162
403.99	54.157
404.35	53.610
404.70	54.334
405.06	53.370
405.42	54.098
405.77	53.762
406.13	55.754
406.49	54.955
406.84	53.740
407.20	53.941
407.55	55.300
407.91	55.311
408.27	55.536
408.62	54.683
408.98	53.453
409.34	54.897
409.69	56.551
410.05	55.979
410.40	55.858
410.76	55.300
411.11	56.341
411.47	56.327
411.83	55.791
412.18	56.446
412.54	54.594
412.89	55.239
413.25	56.264
413.60	55.773
413.96	57.576
414.31	56.034
414.67	55.516
415.03	55.815
415.38	57.503
415.74	55.467
416.09	57.557
416.45	55.792
416.80	55.936
417.16	57.982
417.51	57.534
417.87	57.756
418.22	56.766
418.58	56.258
418.93	57.858
419.29	57.337
419.64	57.803
420.00	57.626
420.35	56.822
420.71	56.347
421.06	58.194
421.42	57.913
421.77	57.620
422.12	57.981
422.48	57.348
422.83	59.255
423.19	59.045
423.54	58.407
423.90	59.194
424.25	58.987
424.61	59.185
424.96	59.418
425.31	59.820
425.67	58.561
426.02	60.266
426.38	60.103
426.73	59.152
427.09	60.150
427.44	59.148
427.79	59.149
428.15	60.103
428.50	59.270
428.85	58.840
429.21	60.372
429.56	60.711
429.92	60.344
430.27	59.663
430.62	60.039
430.98	60.698
431.33	59.531
431.68	61.303
432.04	61.859
432.39	60.204
432.74	60.331
433.10	62.683
433.45	60.033
433.80	60.622
434.16	59.866
434.51	62.641
434.86	63.138
435.22	63.124
435.57	63.149
435.92	63.050
436.28	63.140
436.63	63.681
436.98	61.514
437.34	63.021
437.69	62.631
438.04	62.401
438.39	61.804
438.75	62.203
439.10	63.372
439.45	62.437
439.81	62.994
440.16	64.075
440.51	64.548
440.86	63.202
441.22	63.023
441.57	63.784
441.92	63.094
442.27	64.697
442.63	63.388
442.98	63.394
443.33	62.651
443.68	64.866
444.03	64.581
444.39	64.078
444.74	63.757
445.09	63.507
445.44	64.910
445.79	64.224
446.15	64.029
446.50	65.116
446.85	64.105
447.20	64.507
447.55	64.331
447.91	65.026
448.26	64.905
448.61	65.037
448.96	66.094
449.31	64.422
449.66	63.617
450.02	64.979
450.37	63.879
450.72	64.909
451.07	65.205
451.42	64.760
451.77	63.924
452.12	66.479
452.47	65.359
452.83	67.793
453.18	64.974
453.53	64.273
453.88	64.826
454.23	65.706
454.58	65.932
454.93	66.869
455.28	66.285
455.63	65.321
455.98	65.978
456.34	65.960
456.69	65.197
457.04	67.080
457.39	65.798
457.74	66.443
458.09	65.953
458.44	65.571
458.79	65.807
459.14	64.237
459.49	66.667
459.84	65.268
460.19	65.741
460.54	67.121
460.89	65.590
461.24	65.805
461.59	66.353
461.94	64.290
462.29	66.461
462.64	64.575
462.99	66.792
463.34	66.385
463.69	65.064
464.04	67.148
464.39	65.359
464.74	65.336
465.09	65.975
465.44	67.275
465.79	65.680
466.14	65.920
466.49	67.053
466.84	66.777
467.19	65.491
467.54	65.981
467.89	66.552
468.24	65.817
468.59	63.984
468.94	65.967
469.29	65.627
469.64	65.099
469.99	68.260
470.34	67.141
470.68	67.738
471.03	67.518
471.38	67.168
471.73	67.295
472.08	67.132
472.43	66.586
472.78	66.562
473.13	66.561
473.48	67.915
473.83	67.382
474.17	65.182
474.52	68.370
474.87	66.224
475.22	67.324
475.57	65.992
475.92	65.455
476.27	67.146
476.61	66.355
476.96	66.528
477.31	67.426
477.66	68.311
478.01	67.311
478.36	66.550
478.70	68.128
479.05	69.325
479.40	67.769
479.75	67.483
480.10	67.219
480.45	67.411
480.79	66.576
481.14	67.739
481.49	67.787
481.84	66.406
482.19	67.570
482.53	68.999
482.88	67.966
483.23	68.875
483.58	67.729
483.92	66.090
484.27	66.003
484.62	66.997
484.97	67.302
485.31	66.279
485.66	64.488
486.01	63.509
486.36	65.284
486.70	68.031
487.05	70.127
487.40	69.166
487.75	69.466
488.09	69.653
488.44	68.342
488.79	67.960
489.13	67.958
489.48	67.456
489.83	66.076
490.17	65.897
490.52	65.640
490.87	67.640
491.22	68.198
491.56	66.510
491.91	67.553
492.26	67.373
492.60	67.643
492.95	67.179
493.30	66.965
493.64	66.973
493.99	67.895
494.34	66.507
494.68	67.495
495.03	66.652
495.37	68.309
495.72	67.302
496.07	67.528
496.41	66.581
496.76	68.140
497.11	67.558
497.45	67.458
497.80	68.103
498.14	66.712
498.49	68.015
498.84	68.876
499.18	66.757
499.53	67.489
499.87	67.736
500.22	67.320
500.56	66.667
500.91	67.872
501.26	67.818
501.60	66.858
501.95	68.606
502.29	66.915
502.64	68.124
502.98	67.429
503.33	67.171
503.67	67.771
504.02	67.557
504.36	68.409
504.71	69.224
505.06	68.349
505.40	67.916
505.75	67.077
506.09	67.541
506.44	68.663
506.78	69.128
507.13	69.156
507.47	69.351
507.82	67.992
508.16	68.499
508.51	66.948
508.85	69.674
509.19	69.493
509.54	68.636
509.88	68.480
510.23	70.520
510.57	70.082
510.92	69.134
511.26	68.735
511.61	67.310
511.95	69.302
512.30	69.473
512.64	70.265
512.98	68.134
513.33	69.758
513.67	69.199
514.02	70.261
514.36	70.281
514.70	69.635
515.05	69.708
515.39	69.764
515.74	71.103
516.08	69.731
516.42	69.702
516.77	70.294
517.11	69.520
517.46	71.262
517.80	71.245
518.14	71.708
518.49	71.800
518.83	70.463
519.17	68.498
519.52	69.602
519.86	70.380
520.20	71.353
520.55	69.934
520.89	70.495
521.23	70.463
521.58	71.243
521.92	70.595
522.26	70.619
522.61	71.412
522.95	71.569
523.29	70.805
523.64	70.740
523.98	72.961
524.32	71.691
524.66	72.510
525.01	69.819
525.35	71.855
525.69	71.868
526.04	70.666
526.38	72.414
526.72	70.531
527.06	73.079
527.41	70.496
527.75	72.268
528.09	71.133
528.43	71.226
528.78	71.387
529.12	71.617
529.46	72.007
529.80	73.112
530.15	72.348
530.49	73.132
530.83	71.606
531.17	71.744
531.51	72.984
531.86	73.918
532.20	72.927
532.54	72.053
532.88	71.879
533.22	70.772
533.57	70.975
533.91	71.549
534.25	72.414
534.59	73.333
534.93	72.269
535.27	72.282
535.62	71.973
535.96	73.388
536.30	71.445
536.64	71.351
536.98	71.894
537.32	71.481
537.66	73.986
538.01	70.816
538.35	71.924
538.69	70.433
539.03	73.942
539.37	71.790
539.71	72.432
540.05	72.422
540.39	70.905
540.73	71.342
541.07	72.900
541.42	70.880
541.76	72.242
542.10	71.472
542.44	71.864
542.78	72.689
543.12	71.692
543.46	72.589
543.80	71.583
544.14	70.916
544.48	72.754
544.82	72.651
545.16	73.763
545.50	73.577
545.84	73.484
546.18	73.333
546.52	71.847
546.86	71.447
547.20	72.837
547.54	72.597
547.88	72.031
548.22	71.579
548.56	70.860
548.90	72.537
549.24	71.429
549.58	72.303
549.92	72.130
550.26	72.880
550.60	71.729
550.94	72.510
551.28	72.937
551.62	74.259
551.96	71.715
552.30	72.658
552.64	72.060
552.98	72.801
553.32	74.791
553.66	73.826
554.00	72.068
554.34	72.780
554.68	71.853
555.02	73.193
555.36	72.913
555.69	71.685
556.03	72.699
556.37	73.029
556.71	75.079
557.05	72.716
557.39	72.528
557.73	73.184
558.07	73.642
558.41	73.422
558.75	72.481
559.08	75.226
559.42	74.074
559.76	74.423
560.10	71.601
560.44	72.691
560.78	73.875
561.12	72.599
561.45	73.479
561.79	73.993
562.13	72.705
562.47	71.147
562.81	74.557
563.15	73.737
563.48	74.518
563.82	74.426
564.16	72.925
564.50	71.871
564.84	72.507
565.17	73.118
565.51	71.289
565.85	73.575
566.19	71.774
566.52	73.435
566.86	72.949
567.20	72.322
567.54	72.969
567.88	72.426
568.21	72.727
568.55	73.813
568.89	72.401
569.23	72.243
569.56	72.294
569.90	72.773
570.24	71.130
570.57	72.322
570.91	71.004
571.25	71.102
571.59	71.945
571.92	71.189
572.26	71.784
572.60	72.427
572.93	72.279
573.27	72.071
573.61	71.043
573.95	71.377
574.28	71.549
574.62	71.351
574.96	69.541
575.29	70.324
575.63	71.264
575.97	71.497
576.30	70.812
576.64	71.725
576.98	70.934
577.31	70.959
577.65	71.688
577.98	70.670
578.32	70.491
578.66	71.221
578.99	71.534
579.33	72.365
579.67	71.940
580.00	71.229
580.34	71.815
580.67	70.962
581.01	71.614
581.35	70.777
581.68	69.831
582.02	70.358
582.35	71.572
582.69	72.066
583.02	72.454
583.36	72.643
583.70	73.211
584.03	71.850
584.37	72.575
584.70	71.711
585.04	70.704
585.37	71.498
585.71	71.133
586.04	71.246
586.38	72.145
586.72	71.772
587.05	72.064
587.39	72.501
587.72	71.986
588.06	72.582
588.39	72.218
588.73	72.063
589.06	72.630
589.40	73.356
589.73	72.333
590.07	72.812
590.40	72.515
590.73	72.499
591.07	74.348
591.40	72.939
591.74	72.456
592.07	72.716
592.41	70.978
592.74	71.282
593.08	72.834
593.41	71.449
593.75	72.701
594.08	72.493
594.41	72.917
594.75	71.969
595.08	72.847
595.42	72.045
595.75	72.877
596.09	73.534
596.42	72.913
596.75	72.945
597.09	73.899
597.42	74.056
597.75	71.227
598.09	71.508
598.42	72.095
598.76	72.144
599.09	71.449
599.42	71.103
599.76	71.707
600.09	71.138
600.42	71.238
600.76	72.490
601.09	72.519
601.42	72.262
601.76	71.862
602.09	72.516
602.42	72.337
602.76	71.845
603.09	72.137
603.42	73.374
603.76	71.529
604.09	74.344
604.42	72.404
604.76	71.385
605.09	71.719
605.42	72.129
605.75	71.885
606.09	71.146
606.42	71.543
606.75	71.852
607.09	71.006
607.42	71.175
607.75	73.036
608.08	72.021
608.42	69.891
608.75	72.595
609.08	71.520
609.41	72.166
609.75	71.875
610.08	72.603
610.41	71.410
610.74	71.555
611.07	72.869
611.41	72.332
611.74	72.148
612.07	72.931
612.40	73.194
612.73	73.154
613.07	72.665
613.40	74.062
613.73	72.316
614.06	73.307
614.39	72.692
614.72	71.858
615.06	70.500
615.39	71.629
615.72	72.133
616.05	73.094
616.38	73.613
616.71	71.891
617.05	71.725
617.38	72.499
617.71	72.948
618.04	72.585
618.37	72.951
618.70	73.190
619.03	71.983
619.36	74.229
619.69	72.966
620.03	72.442
620.36	72.822
620.69	72.795
621.02	74.475
621.35	77.649
621.68	73.391
622.01	72.313
622.34	72.943
622.67	73.265
623.00	73.009
623.33	73.656
623.66	73.411
623.99	73.206
624.32	73.879
624.65	72.136
624.99	74.252
625.32	74.135
625.65	74.107
625.98	73.627
626.31	73.352
626.64	73.993
626.97	74.344
627.30	74.412
627.63	73.293
627.96	73.799
628.29	73.541
628.62	74.055
628.95	76.862
629.28	73.832
629.61	73.906
629.94	73.054
630.26	73.305
630.59	73.748
630.92	73.853
631.25	73.614
631.58	76.930
631.91	76.195
632.24	76.465
632.57	75.142
632.90	75.928
633.23	75.306
633.56	75.000
633.89	74.690
634.22	75.052
