SpectraSuite Data File
++++++++++++++++++++++++++++++++++++
Date: Thu May 14 14:29:39 PDT 2015
User: schluterlab
Dark Spectrum Present: Yes
Reference Spectrum Present: Yes
Number of Sampled Component Spectra: 1
Spectrometers: USB2E3373
Integration Time (usec): 3000 (USB2E3373)
Spectra Averaged: 3 (USB2E3373)
Boxcar Smoothing: 0 (USB2E3373)
Correct for Electrical Dark: No (USB2E3373)
Strobe/Lamp Enabled: No (USB2E3373)
Correct for Detector Non-linearity: No (USB2E3373)
Correct for Stray Light: No (USB2E3373)
Number of Pixels in Processed Spectrum: 2048
>>>>>Begin Processed Spectral Data<<<<<
178.53	0.000
178.91	-100.000
179.29	400.000
179.67	400.000
180.04	7.143
180.42	-100.000
180.80	-120.000
181.18	600.000
181.56	1600.000
181.94	-300.000
182.31	350.000
182.69	-333.333
183.07	700.000
183.45	-350.000
183.83	300.000
184.20	566.667
184.58	-1300.000
184.96	225.000
185.34	100.000
185.72	380.000
186.09	-33.333
186.47	-800.000
186.85	-40.000
187.23	66.667
187.61	1200.000
187.98	-220.000
188.36	-100.000
188.74	200.000
189.12	366.667
189.49	100.000
189.87	87.500
190.25	166.667
190.63	260.000
191.00	144.444
191.38	0.000
191.76	350.000
192.14	166.667
192.51	-700.000
192.89	166.667
193.27	0.000
193.65	171.429
194.02	300.000
194.40	171.429
194.78	-114.286
195.15	0.000
195.53	127.273
195.91	0.000
196.29	425.000
196.66	76.923
197.04	1000.000
197.42	85.714
197.79	700.000
198.17	87.500
198.55	228.571
198.92	133.333
199.30	87.500
199.68	118.182
200.05	107.143
200.43	300.000
200.81	-57.143
201.18	0.000
201.56	-77.778
201.94	0.000
202.31	-66.667
202.69	177.778
203.07	-1500.000
203.44	77.778
203.82	525.000
204.19	91.667
204.57	66.667
204.95	225.000
205.32	1800.000
205.70	-375.000
206.08	283.333
206.45	150.000
206.83	-120.000
207.20	250.000
207.58	240.000
207.96	166.667
208.33	266.667
208.71	-16.667
209.08	333.333
209.46	0.000
209.84	-116.667
210.21	-850.000
210.59	-350.000
210.96	-233.333
211.34	425.000
211.71	275.000
212.09	1900.000
212.46	0.000
212.84	200.000
213.22	140.000
213.59	600.000
213.97	200.000
214.34	633.333
214.72	-150.000
215.09	300.000
215.47	0.000
215.84	-157.143
216.22	-500.000
216.59	140.000
216.97	240.000
217.34	200.000
217.72	262.500
218.09	100.000
218.47	150.000
218.84	0.000
219.22	-320.000
219.59	123.529
219.97	115.000
220.34	-850.000
220.72	55.556
221.09	161.538
221.47	500.000
221.84	120.000
222.22	85.714
222.59	0.000
222.97	87.500
223.34	140.000
223.72	400.000
224.09	300.000
224.46	200.000
224.84	400.000
225.21	71.429
225.59	-100.000
225.96	125.000
226.34	107.692
226.71	-116.667
227.08	600.000
227.46	100.000
227.83	200.000
228.21	68.421
228.58	-150.000
228.95	-350.000
229.33	183.333
229.70	140.000
230.08	131.579
230.45	-40.000
230.82	366.667
231.20	150.000
231.57	175.000
231.95	45.455
232.32	145.455
232.69	100.000
233.07	500.000
233.44	70.588
233.81	100.000
234.19	94.444
234.56	72.727
234.93	65.517
235.31	84.211
235.68	77.778
236.05	60.000
236.43	88.462
236.80	44.000
237.17	74.074
237.55	54.545
237.92	120.000
238.29	67.742
238.67	54.545
239.04	63.889
239.41	35.714
239.79	60.870
240.16	42.593
240.53	50.000
240.91	47.059
241.28	31.148
241.65	37.313
242.02	36.486
242.40	40.000
242.77	38.667
243.14	18.293
243.51	10.526
243.89	14.103
244.26	26.733
244.63	28.431
245.00	29.907
245.38	24.561
245.75	12.389
246.12	19.841
246.49	19.380
246.87	32.857
247.24	14.570
247.61	30.921
247.98	20.134
248.36	26.543
248.73	14.724
249.10	19.126
249.47	24.876
249.84	23.037
250.22	21.244
250.59	25.000
250.96	24.091
251.33	15.816
251.70	18.803
252.08	20.833
252.45	20.902
252.82	19.421
253.19	22.656
253.56	17.490
253.94	17.692
254.31	18.561
254.68	21.329
255.05	24.104
255.42	16.667
255.79	16.181
256.16	18.543
256.54	16.887
256.91	16.393
257.28	17.705
257.65	19.745
258.02	16.814
258.39	19.373
258.76	20.489
259.14	22.126
259.51	17.291
259.88	17.280
260.25	16.389
260.62	16.712
260.99	20.492
261.36	18.231
261.73	18.568
262.10	18.956
262.47	17.426
262.85	20.455
263.22	16.623
263.59	13.947
263.96	18.159
264.33	16.368
264.70	17.778
265.07	19.093
265.44	19.274
265.81	16.667
266.18	19.955
266.55	16.518
266.92	14.123
267.29	19.912
267.66	15.743
268.03	16.157
268.40	17.745
268.77	15.262
269.14	15.419
269.51	14.254
269.88	18.238
270.25	15.694
270.62	18.143
270.99	17.778
271.36	17.426
271.73	17.682
272.10	17.034
272.47	15.832
272.84	16.466
273.21	15.631
273.58	17.742
273.95	16.731
274.32	15.779
274.69	15.280
275.06	18.315
275.43	14.603
275.80	16.402
276.17	14.630
276.54	14.179
276.91	13.596
277.28	16.817
277.65	16.338
278.02	18.015
278.39	13.587
278.76	16.344
279.13	15.426
279.50	15.636
279.87	15.742
280.23	12.852
280.60	15.424
280.97	14.309
281.34	15.789
281.71	19.289
282.08	15.781
282.45	16.367
282.82	14.600
283.19	13.570
283.56	15.902
283.92	16.216
284.29	14.534
284.66	14.286
285.03	14.583
285.40	16.538
285.77	13.777
286.14	17.099
286.51	15.221
286.87	14.376
287.24	15.512
287.61	13.303
287.98	13.746
288.35	14.645
288.72	15.237
289.08	15.081
289.45	14.349
289.82	13.253
290.19	14.368
290.56	13.380
290.93	11.412
291.29	14.050
291.66	13.636
292.03	13.026
292.40	14.150
292.77	12.938
293.13	13.532
293.50	12.746
293.87	13.020
294.24	14.800
294.60	13.401
294.97	11.812
295.34	14.853
295.71	12.358
296.08	12.403
296.44	12.868
296.81	10.962
297.18	12.329
297.55	11.085
297.91	13.523
298.28	11.967
298.65	12.010
299.02	11.452
299.38	12.929
299.75	10.981
300.12	10.880
300.48	12.558
300.85	10.911
301.22	11.745
301.59	11.416
301.95	11.299
302.32	12.333
302.69	10.843
303.05	12.949
303.42	11.308
303.79	10.833
304.15	11.356
304.52	10.888
304.89	11.518
305.25	12.215
305.62	12.644
305.99	10.825
306.35	10.685
306.72	11.169
307.09	11.675
307.45	12.215
307.82	10.898
308.19	10.394
308.55	12.343
308.92	10.711
309.29	11.303
309.65	10.136
310.02	10.594
310.38	10.630
310.75	10.777
311.12	11.505
311.48	10.166
311.85	11.016
312.22	10.721
312.58	11.455
312.95	10.134
313.31	11.472
313.68	10.989
314.05	12.014
314.41	10.747
314.78	10.990
315.14	10.980
315.51	11.450
315.87	11.251
316.24	10.959
316.61	11.456
316.97	9.955
317.34	10.758
317.70	12.052
318.07	11.552
318.43	11.735
318.80	12.291
319.16	11.674
319.53	10.626
319.89	10.692
320.26	11.833
320.62	11.259
320.99	11.819
321.35	10.998
321.72	12.279
322.08	11.181
322.45	10.659
322.81	10.108
323.18	11.327
323.54	11.552
323.91	10.943
324.27	11.102
324.64	12.427
325.00	11.111
325.37	11.384
325.73	11.570
326.10	12.328
326.46	12.378
326.83	11.930
327.19	10.236
327.56	11.858
327.92	10.071
328.29	10.161
328.65	11.223
329.01	11.421
329.38	12.216
329.74	11.130
330.11	11.387
330.47	11.373
330.84	11.542
331.20	11.083
331.56	11.005
331.93	11.464
332.29	10.424
332.66	11.379
333.02	11.558
333.38	11.326
333.75	11.616
334.11	10.842
334.48	11.056
334.84	11.555
335.20	11.251
335.57	12.142
335.93	10.661
336.29	10.899
336.66	11.186
337.02	10.702
337.38	11.905
337.75	10.413
338.11	11.943
338.47	10.670
338.84	10.829
339.20	10.194
339.56	10.956
339.93	11.576
340.29	11.353
340.65	10.706
341.02	11.971
341.38	11.803
341.74	10.896
342.11	11.826
342.47	9.690
342.83	11.433
343.20	9.730
343.56	10.505
343.92	12.090
344.28	10.625
344.65	12.093
345.01	10.686
345.37	11.820
345.73	10.678
346.10	11.778
346.46	9.415
346.82	11.236
347.19	10.084
347.55	11.002
347.91	10.104
348.27	9.939
348.63	10.967
349.00	10.515
349.36	11.078
349.72	11.458
350.08	11.664
350.45	9.354
350.81	11.538
351.17	10.376
351.53	10.842
351.89	10.554
352.26	11.045
352.62	11.418
352.98	9.389
353.34	9.709
353.70	10.401
354.07	10.432
354.43	11.010
354.79	11.219
355.15	10.375
355.51	11.550
355.87	10.396
356.24	10.722
356.60	10.200
356.96	11.045
357.32	10.409
357.68	9.883
358.04	11.078
358.40	9.701
358.77	10.819
359.13	10.709
359.49	10.112
359.85	10.152
360.21	10.760
360.57	9.404
360.93	9.379
361.29	10.526
361.66	10.282
362.02	10.926
362.38	9.065
362.74	10.615
363.10	10.454
363.46	9.972
363.82	10.014
364.18	10.345
364.54	10.650
364.90	9.699
365.26	10.621
365.62	10.733
365.98	10.551
366.35	11.141
366.71	10.340
367.07	10.217
367.43	9.915
367.79	10.418
368.15	10.033
368.51	10.758
368.87	10.059
369.23	8.733
369.59	9.768
369.95	9.601
370.31	10.331
370.67	10.248
371.03	8.795
371.39	10.141
371.75	9.629
372.11	10.027
372.47	9.140
372.83	10.537
373.19	9.673
373.55	9.485
373.91	9.475
374.27	10.479
374.63	9.878
374.99	10.477
375.35	9.935
375.71	9.806
376.07	8.844
376.42	9.383
376.78	10.193
377.14	10.356
377.50	9.551
377.86	10.345
378.22	10.240
378.58	9.750
378.94	9.742
379.30	9.842
379.66	9.759
380.02	9.521
380.38	9.965
380.74	8.958
381.09	9.930
381.45	10.682
381.81	9.836
382.17	10.333
382.53	9.181
382.89	10.045
383.25	9.848
383.61	9.664
383.97	9.776
384.32	10.586
384.68	8.701
385.04	10.642
385.40	10.018
385.76	10.844
386.12	9.814
386.48	10.353
386.83	10.369
387.19	10.023
387.55	9.272
387.91	9.304
388.27	10.393
388.62	10.137
388.98	9.024
389.34	10.194
389.70	9.762
390.06	9.473
390.42	9.639
390.77	10.596
391.13	10.094
391.49	10.205
391.85	9.455
392.20	9.727
392.56	10.337
392.92	9.760
393.28	9.784
393.64	10.223
393.99	9.762
394.35	10.572
394.71	10.659
395.07	9.222
395.42	9.709
395.78	9.933
396.14	9.863
396.50	9.679
396.85	9.600
397.21	9.645
397.57	9.835
397.92	9.679
398.28	9.723
398.64	10.069
399.00	9.476
399.35	10.105
399.71	9.728
400.07	9.826
400.42	9.662
400.78	9.028
401.14	9.562
401.49	10.006
401.85	10.000
402.21	9.444
402.57	10.211
402.92	10.461
403.28	9.602
403.63	9.248
403.99	9.501
404.35	9.835
404.70	9.972
405.06	8.859
405.42	10.246
405.77	10.142
406.13	9.670
406.49	9.403
406.84	9.529
407.20	9.726
407.55	9.328
407.91	9.868
408.27	9.128
408.62	9.657
408.98	9.228
409.34	9.208
409.69	9.518
410.05	9.730
410.40	9.803
410.76	9.703
411.11	10.462
411.47	10.012
411.83	9.935
412.18	9.337
412.54	10.196
412.89	9.895
413.25	10.045
413.60	9.879
413.96	9.674
414.31	9.632
414.67	9.481
415.03	9.723
415.38	9.710
415.74	9.774
416.09	10.302
416.45	9.706
416.80	9.792
417.16	9.579
417.51	10.274
417.87	10.362
418.22	10.240
418.58	10.037
418.93	9.371
419.29	9.926
419.64	9.784
420.00	9.377
420.35	9.994
420.71	9.707
421.06	9.776
421.42	9.748
421.77	9.316
422.12	9.461
422.48	9.063
422.83	10.515
423.19	9.708
423.54	9.845
423.90	9.994
424.25	10.027
424.61	8.783
424.96	9.940
425.31	10.191
425.67	9.232
426.02	9.629
426.38	9.127
426.73	9.766
427.09	9.804
427.44	9.285
427.79	9.011
428.15	9.018
428.50	9.944
428.85	9.644
429.21	10.479
429.56	9.477
429.92	9.287
430.27	9.205
430.62	9.331
430.98	9.444
431.33	8.993
431.68	9.626
432.04	9.599
432.39	9.695
432.74	9.247
433.10	10.438
433.45	9.365
433.80	9.818
434.16	10.382
434.51	9.918
434.86	9.175
435.22	9.671
435.57	9.257
435.92	10.184
436.28	9.556
436.63	9.448
436.98	9.232
437.34	9.696
437.69	9.301
438.04	10.048
438.39	9.879
438.75	10.127
439.10	9.989
439.45	10.173
439.81	10.169
440.16	9.759
440.51	10.033
440.86	9.283
441.22	10.129
441.57	9.853
441.92	10.039
442.27	9.192
442.63	10.233
442.98	9.712
443.33	10.047
443.68	10.753
444.03	10.019
444.39	10.125
444.74	10.669
445.09	10.086
445.44	10.432
445.79	9.914
446.15	9.661
446.50	10.078
446.85	9.971
447.20	9.768
447.55	10.460
447.91	10.419
448.26	9.831
448.61	9.989
448.96	10.730
449.31	10.233
449.66	9.314
450.02	10.179
450.37	10.229
450.72	10.118
451.07	10.023
451.42	9.590
451.77	9.561
452.12	10.271
452.47	9.210
452.83	10.529
453.18	10.566
453.53	10.339
453.88	9.663
454.23	10.282
454.58	10.215
454.93	10.376
455.28	10.777
455.63	10.631
455.98	10.223
456.34	10.542
456.69	10.053
457.04	9.929
457.39	10.200
457.74	9.787
458.09	9.720
458.44	10.129
458.79	9.644
459.14	9.858
459.49	9.904
459.84	10.703
460.19	9.939
460.54	10.562
460.89	10.641
461.24	9.310
461.59	10.791
461.94	9.698
462.29	10.470
462.64	10.139
462.99	10.358
463.34	10.707
463.69	11.137
464.04	10.450
464.39	9.305
464.74	10.490
465.09	10.150
465.44	9.925
465.79	10.841
466.14	10.526
466.49	10.000
466.84	10.193
467.19	10.116
467.54	10.458
467.89	9.540
468.24	9.640
468.59	9.554
468.94	9.557
469.29	10.078
469.64	8.646
469.99	10.134
470.34	9.901
470.68	10.253
471.03	11.067
471.38	10.007
471.73	10.598
472.08	9.708
472.43	9.633
472.78	10.894
473.13	11.125
473.48	9.909
473.83	10.795
474.17	9.906
474.52	10.824
474.87	10.244
475.22	10.085
475.57	9.969
475.92	10.105
476.27	10.170
476.61	9.709
476.96	9.906
477.31	10.594
477.66	10.283
478.01	10.269
478.36	9.721
478.70	10.246
479.05	9.765
479.40	10.020
479.75	10.471
480.10	9.901
480.45	10.210
480.79	10.522
481.14	10.340
481.49	9.677
481.84	10.226
482.19	9.935
482.53	9.882
482.88	10.013
483.23	10.360
483.58	9.738
483.92	9.486
484.27	9.822
484.62	10.107
484.97	10.614
485.31	9.926
485.66	9.668
486.01	9.178
486.36	9.154
486.70	9.152
487.05	9.350
487.40	9.566
487.75	9.440
488.09	9.580
488.44	9.710
488.79	10.152
489.13	9.776
489.48	9.864
489.83	9.738
490.17	10.247
490.52	9.934
490.87	10.575
491.22	9.792
491.56	10.196
491.91	10.685
492.26	10.212
492.60	10.188
492.95	9.785
493.30	9.413
493.64	10.556
493.99	10.439
494.34	9.408
494.68	9.764
495.03	10.441
495.37	10.342
495.72	10.113
496.07	10.429
496.41	9.610
496.76	10.300
497.11	10.658
497.45	9.625
497.80	10.706
498.14	10.023
498.49	10.110
498.84	10.101
499.18	10.076
499.53	10.448
499.87	10.681
500.22	10.107
500.56	10.436
500.91	10.755
501.26	10.500
501.60	9.810
501.95	10.682
502.29	10.136
502.64	9.926
502.98	10.397
503.33	9.849
503.67	9.856
504.02	10.070
504.36	10.679
504.71	10.381
505.06	10.641
505.40	10.238
505.75	10.109
506.09	10.912
506.44	10.074
506.78	11.009
507.13	10.143
507.47	11.085
507.82	10.701
508.16	10.134
508.51	10.127
508.85	10.203
509.19	10.564
509.54	10.855
509.88	10.491
510.23	9.762
510.57	11.358
510.92	10.982
511.26	10.342
511.61	9.657
511.95	10.347
512.30	11.078
512.64	9.845
512.98	10.055
513.33	10.887
513.67	11.015
514.02	11.037
514.36	10.895
514.70	10.729
515.05	10.740
515.39	10.761
515.74	11.082
516.08	11.358
516.42	11.303
516.77	10.726
517.11	11.088
517.46	11.082
517.80	11.277
518.14	11.099
518.49	10.738
518.83	10.910
519.17	9.962
519.52	11.006
519.86	11.404
520.20	11.076
520.55	10.624
520.89	10.980
521.23	11.837
521.58	10.847
521.92	11.275
522.26	10.596
522.61	11.227
522.95	10.900
523.29	10.920
523.64	11.211
523.98	11.124
524.32	11.633
524.66	11.155
525.01	10.646
525.35	10.109
525.69	11.253
526.04	10.620
526.38	10.862
526.72	10.554
527.06	10.792
527.41	10.671
527.75	11.401
528.09	11.452
528.43	11.782
528.78	10.520
529.12	10.894
529.46	10.961
529.80	10.984
530.15	11.072
530.49	10.795
530.83	10.744
531.17	10.872
531.51	11.011
531.86	11.118
532.20	11.220
532.54	10.832
532.88	10.909
533.22	10.961
533.57	11.021
533.91	12.121
534.25	12.041
534.59	11.379
534.93	11.092
535.27	11.268
535.62	11.484
535.96	11.854
536.30	11.340
536.64	11.832
536.98	11.931
537.32	12.222
537.66	11.541
538.01	11.541
538.35	11.571
538.69	10.937
539.03	11.956
539.37	11.484
539.71	11.832
540.05	11.511
540.39	10.452
540.73	11.111
541.07	11.465
541.42	11.931
541.76	10.854
542.10	11.580
542.44	10.780
542.78	11.071
543.12	11.263
543.46	12.027
543.80	10.492
544.14	10.952
544.48	11.820
544.82	11.490
545.16	11.449
545.50	11.504
545.84	11.390
546.18	12.099
546.52	10.828
546.86	11.069
547.20	11.387
547.54	11.860
547.88	11.332
548.22	10.994
548.56	10.884
548.90	11.881
549.24	11.368
549.58	11.987
549.92	10.587
550.26	12.168
550.60	11.997
550.94	12.613
551.28	12.541
551.62	11.523
551.96	11.650
552.30	12.110
552.64	11.512
552.98	10.605
553.32	11.447
553.66	10.547
554.00	11.791
554.34	11.326
554.68	11.685
555.02	11.367
555.36	12.229
555.69	11.595
556.03	11.538
556.37	11.827
556.71	11.287
557.05	11.565
557.39	11.745
557.73	11.030
558.07	11.854
558.41	11.960
558.75	11.968
559.08	11.065
559.42	10.974
559.76	12.212
560.10	11.855
560.44	11.214
560.78	13.188
561.12	11.392
561.45	11.983
561.79	11.294
562.13	12.200
562.47	11.221
562.81	11.519
563.15	11.616
563.48	11.622
563.82	11.427
564.16	11.750
564.50	11.442
564.84	12.330
565.17	11.471
565.51	11.392
565.85	11.164
566.19	10.945
566.52	11.293
566.86	12.281
567.20	11.365
567.54	11.683
567.88	12.130
568.21	10.870
568.55	10.791
568.89	11.121
569.23	10.604
569.56	11.333
569.90	10.371
570.24	10.422
570.57	10.552
570.91	10.227
571.25	10.616
571.59	10.437
571.92	10.714
572.26	10.720
572.60	10.183
572.93	10.465
573.27	10.452
573.61	10.508
573.95	10.391
574.28	10.114
574.62	10.095
574.96	9.837
575.29	10.267
575.63	9.771
575.97	10.084
576.30	10.141
576.64	10.021
576.98	10.068
577.31	10.074
577.65	10.111
577.98	10.279
578.32	10.075
578.66	10.008
578.99	10.055
579.33	9.893
579.67	10.199
580.00	10.205
580.34	10.384
580.67	10.128
581.01	10.082
581.35	9.994
581.68	9.689
582.02	10.277
582.35	10.145
582.69	10.144
583.02	9.961
583.36	10.331
583.70	10.134
584.03	10.295
584.37	10.121
584.70	10.147
585.04	10.323
585.37	10.340
585.71	10.313
586.04	10.106
586.38	10.422
586.72	10.078
587.05	9.926
587.39	10.371
587.72	10.144
588.06	10.469
588.39	10.281
588.73	10.423
589.06	10.751
589.40	10.449
589.73	10.829
590.07	10.842
590.40	11.021
590.73	10.852
591.07	11.057
591.40	10.848
591.74	11.129
592.07	11.165
592.41	10.726
592.74	10.650
593.08	10.987
593.41	10.994
593.75	10.402
594.08	10.603
594.41	10.545
594.75	10.993
595.08	10.262
595.42	10.942
595.75	10.849
596.09	11.352
596.42	11.143
596.75	11.386
597.09	11.111
597.42	11.005
597.75	11.015
598.09	11.627
598.42	11.460
598.76	10.623
599.09	10.431
599.42	10.660
599.76	10.961
600.09	10.944
600.42	11.078
600.76	10.535
601.09	10.953
601.42	11.054
601.76	10.552
602.09	10.829
602.42	10.796
602.76	11.255
603.09	10.683
603.42	10.947
603.76	10.817
604.09	11.143
604.42	11.009
604.76	10.312
605.09	11.249
605.42	11.364
605.75	10.615
606.09	10.489
606.42	10.945
606.75	10.982
607.09	10.599
607.42	11.407
607.75	11.293
608.08	11.365
608.42	11.165
608.75	10.738
609.08	10.611
609.41	11.381
609.75	10.759
610.08	11.126
610.41	11.257
610.74	11.218
611.07	11.679
611.41	11.211
611.74	11.640
612.07	11.875
612.40	10.789
612.73	10.660
613.07	11.687
613.40	11.694
613.73	11.700
614.06	11.089
614.39	11.273
614.72	11.451
615.06	10.972
615.39	10.585
615.72	11.280
616.05	11.316
616.38	11.705
616.71	11.912
617.05	10.437
617.38	11.610
617.71	11.987
618.04	11.765
618.37	11.639
618.70	11.821
619.03	11.529
619.36	11.714
619.69	12.300
620.03	11.551
620.36	11.595
620.69	12.647
621.02	12.008
621.35	12.192
621.68	12.437
622.01	11.459
622.34	11.506
622.67	12.234
623.00	10.931
623.33	12.011
623.66	11.803
623.99	11.916
624.32	12.736
624.65	11.197
624.99	12.289
625.32	12.084
625.65	12.070
625.98	11.186
626.31	12.190
626.64	12.308
626.97	12.003
627.30	10.858
627.63	12.828
627.96	12.387
628.29	11.984
628.62	11.335
628.95	12.796
629.28	12.489
629.61	13.721
629.94	12.887
630.26	11.525
630.59	11.572
630.92	12.381
631.25	13.238
631.58	13.371
631.91	12.090
632.24	12.200
632.57	11.765
632.90	12.538
633.23	13.673
633.56	13.163
633.89	13.120
634.22	12.162
634.55	14.301
634.88	12.771
635.20	14.209
635.53	12.542
635.86	13.651
636.19	13.574
636.52	12.342
636.85	11.542
637.18	13.721
637.51	13.011
637.83	14.839
638.16	14.862
638.49	11.972
