SpectraSuite Data File
++++++++++++++++++++++++++++++++++++
Date: Thu May 14 14:52:10 PDT 2015
User: schluterlab
Dark Spectrum Present: Yes
Reference Spectrum Present: Yes
Number of Sampled Component Spectra: 1
Spectrometers: USB2E3373
Integration Time (usec): 3000 (USB2E3373)
Spectra Averaged: 3 (USB2E3373)
Boxcar Smoothing: 0 (USB2E3373)
Correct for Electrical Dark: No (USB2E3373)
Strobe/Lamp Enabled: No (USB2E3373)
Correct for Detector Non-linearity: No (USB2E3373)
Correct for Stray Light: No (USB2E3373)
Number of Pixels in Processed Spectrum: 2048
>>>>>Begin Processed Spectral Data<<<<<
178.53	0.000
178.91	171.429
179.29	-800.000
179.67	-1400.000
180.04	207.143
180.42	100.000
180.80	440.000
181.18	-700.000
181.56	-400.000
181.94	325.000
182.31	-25.000
182.69	466.667
183.07	-250.000
183.45	175.000
183.83	-150.000
184.20	-366.667
184.58	1800.000
184.96	-450.000
185.34	-66.667
185.72	-140.000
186.09	188.889
186.47	600.000
186.85	240.000
187.23	-188.889
187.61	-1200.000
187.98	80.000
188.36	225.000
188.74	-275.000
189.12	-33.333
189.49	-37.500
189.87	-175.000
190.25	-111.111
190.63	0.000
191.00	-100.000
191.38	0.000
191.76	-275.000
192.14	-116.667
192.51	1000.000
192.89	-50.000
193.27	0.000
193.65	-57.143
194.02	-1800.000
194.40	-128.571
194.78	257.143
195.15	0.000
195.53	-63.636
195.91	0.000
196.29	-125.000
196.66	7.692
197.04	-1200.000
197.42	-57.143
197.79	-300.000
198.17	-125.000
198.55	-171.429
198.92	-33.333
199.30	-187.500
199.68	-63.636
200.05	-35.714
200.43	-1000.000
200.81	285.714
201.18	0.000
201.56	211.111
201.94	0.000
202.31	366.667
202.69	-133.333
203.07	-100.000
203.44	-55.556
203.82	-300.000
204.19	-66.667
204.57	-166.667
204.95	-175.000
205.32	-900.000
205.70	250.000
206.08	-150.000
206.45	-16.667
206.83	260.000
207.20	-83.333
207.58	-300.000
207.96	-250.000
208.33	-150.000
208.71	25.000
209.08	0.000
209.46	0.000
209.84	266.667
210.21	850.000
210.59	400.000
210.96	166.667
211.34	50.000
211.71	-175.000
212.09	-1300.000
212.46	0.000
212.84	800.000
213.22	-220.000
213.59	-250.000
213.97	60.000
214.34	-266.667
214.72	283.333
215.09	-150.000
215.47	0.000
215.84	157.143
216.22	500.000
216.59	-180.000
216.97	-180.000
217.34	-325.000
217.72	-100.000
218.09	-425.000
218.47	-150.000
218.84	0.000
219.22	80.000
219.59	-70.588
219.97	-20.000
220.34	750.000
220.72	-166.667
221.09	0.000
221.47	-300.000
221.84	10.000
222.22	-200.000
222.59	0.000
222.97	-100.000
223.34	-300.000
223.72	-1700.000
224.09	-450.000
224.46	-250.000
224.84	80.000
225.21	-142.857
225.59	-175.000
225.96	-325.000
226.34	-19.231
226.71	300.000
227.08	-100.000
227.46	-13.333
227.83	-250.000
228.21	-68.421
228.58	162.500
228.95	650.000
229.33	-16.667
229.70	-40.000
230.08	31.579
230.45	80.000
230.82	-200.000
231.20	-21.429
231.57	-33.333
231.95	-72.727
232.32	-45.455
232.69	-25.000
233.07	-200.000
233.44	-64.706
233.81	-90.000
234.19	27.778
234.56	-27.273
234.93	-10.345
235.31	-26.316
235.68	-27.778
236.05	-115.000
236.43	0.000
236.80	32.000
237.17	-7.407
237.55	-21.212
237.92	-150.000
238.29	-22.581
238.67	-11.364
239.04	-13.889
239.41	-19.048
239.79	-30.435
240.16	-9.259
240.53	-21.739
240.91	-37.255
241.28	-11.475
241.65	16.418
242.02	9.459
242.40	-20.000
242.77	-16.000
243.14	-19.512
243.51	-13.158
243.89	-8.974
244.26	2.970
244.63	-9.804
245.00	-3.738
245.38	-3.509
245.75	-18.584
246.12	-1.587
246.49	-10.078
246.87	5.714
247.24	-1.325
247.61	1.316
247.98	-6.040
248.36	-3.704
248.73	-5.521
249.10	-1.093
249.47	3.980
249.84	4.712
250.22	-3.109
250.59	1.667
250.96	1.818
251.33	-5.102
251.70	2.137
252.08	-0.833
252.45	3.279
252.82	0.000
253.19	-1.172
253.56	0.000
253.94	-6.154
254.31	-0.758
254.68	5.245
255.05	6.515
255.42	0.680
255.79	-2.589
256.16	1.325
256.54	-2.649
256.91	0.984
257.28	0.656
257.65	-2.866
258.02	-1.770
258.39	2.279
258.76	4.281
259.14	3.161
259.51	0.288
259.88	1.416
260.25	-1.111
260.62	1.370
260.99	2.459
261.36	1.340
261.73	-0.265
262.10	-1.648
262.47	-0.536
262.85	3.788
263.22	-2.597
263.59	-2.632
263.96	2.046
264.33	0.767
264.70	1.975
265.07	1.909
265.44	2.268
265.81	0.694
266.18	2.721
266.55	2.679
266.92	-0.228
267.29	1.313
267.66	0.222
268.03	1.528
268.40	2.923
268.77	-2.961
269.14	-0.661
269.51	0.658
269.88	3.279
270.25	1.408
270.62	0.633
270.99	3.434
271.36	3.168
271.73	1.572
272.10	1.002
272.47	0.200
272.84	1.406
273.21	3.006
273.58	1.210
273.95	-0.962
274.32	1.331
274.69	-0.193
275.06	1.282
275.43	-0.370
275.80	2.469
276.17	1.111
276.54	0.187
276.91	0.537
277.28	2.170
277.65	1.257
278.02	2.022
278.39	1.087
278.76	-0.176
279.13	1.241
279.50	1.890
279.87	1.968
280.23	-1.408
280.60	1.356
280.97	0.329
281.34	0.849
281.71	2.369
282.08	0.498
282.45	0.491
282.82	1.413
283.19	-1.777
283.56	1.148
283.92	2.853
284.29	3.791
284.66	2.463
285.03	-0.481
285.40	2.473
285.77	1.084
286.14	1.527
286.51	1.522
286.87	0.790
287.24	0.602
287.61	-0.299
287.98	1.057
288.35	1.923
288.72	1.331
289.08	1.318
289.45	2.071
289.82	1.355
290.19	1.580
290.56	1.408
290.93	2.853
291.29	2.617
291.66	0.413
292.03	2.307
292.40	3.265
292.77	0.809
293.13	1.488
293.50	0.394
293.87	1.074
294.24	2.800
294.60	2.781
294.97	0.268
295.34	2.561
295.71	0.126
296.08	1.550
296.44	2.206
296.81	1.583
297.18	0.996
297.55	1.887
297.91	1.423
298.28	0.711
298.65	2.021
299.02	1.653
299.38	2.746
299.75	1.986
300.12	0.579
300.48	2.189
300.85	1.912
301.22	3.244
301.59	1.142
301.95	1.808
302.32	3.222
302.69	1.972
303.05	2.829
303.42	2.217
303.79	1.562
304.15	3.155
304.52	1.797
304.89	2.723
305.25	2.484
305.62	2.508
305.99	2.887
306.35	3.327
306.72	3.102
307.09	2.234
307.45	2.381
307.82	2.624
308.19	2.119
308.55	3.375
308.92	3.408
309.29	4.310
309.65	2.729
310.02	3.663
310.38	3.150
310.75	3.786
311.12	3.739
311.48	3.324
311.85	4.558
312.22	3.416
312.58	4.507
312.95	2.677
313.31	4.607
313.68	5.952
314.05	6.052
314.41	5.464
314.78	5.631
315.14	5.989
315.51	6.464
315.87	6.391
316.24	5.845
316.61	6.483
316.97	5.430
317.34	6.614
317.70	7.162
318.07	6.526
318.43	7.398
318.80	8.110
319.16	7.124
319.53	6.255
319.89	7.713
320.26	8.897
320.62	7.713
320.99	7.664
321.35	8.318
321.72	8.930
322.08	8.566
322.45	8.762
322.81	8.845
323.18	9.115
323.54	9.397
323.91	10.943
324.27	9.983
324.64	9.824
325.00	9.784
325.37	10.319
325.73	11.901
326.10	11.679
326.46	12.296
326.83	12.730
327.19	11.260
327.56	12.964
327.92	10.936
328.29	11.290
328.65	12.228
329.01	11.506
329.38	13.058
329.74	13.955
330.11	12.928
330.47	13.479
330.84	13.781
331.20	15.083
331.56	13.778
331.93	13.473
332.29	14.831
332.66	13.870
333.02	15.410
333.38	14.262
333.75	14.646
334.11	13.928
334.48	14.934
334.84	14.698
335.20	14.861
335.57	15.177
335.93	15.372
336.29	14.725
336.66	15.391
337.02	15.803
337.38	14.881
337.75	15.620
338.11	15.896
338.47	14.971
338.84	14.975
339.20	13.648
339.56	15.486
339.93	14.943
340.29	15.862
340.65	15.004
341.02	17.638
341.38	16.653
341.74	15.496
342.11	16.090
342.47	15.330
342.83	16.103
343.20	16.353
343.56	15.237
343.92	16.493
344.28	16.250
344.65	16.047
345.01	16.225
345.37	15.241
345.73	15.121
346.10	16.459
346.46	15.427
346.82	16.105
347.19	16.348
347.55	17.147
347.91	15.973
348.27	15.857
348.63	16.146
349.00	16.257
349.36	16.059
349.72	16.369
350.08	17.459
350.45	15.741
350.81	15.913
351.17	16.090
351.53	16.452
351.89	16.705
352.26	16.119
352.62	16.045
352.98	15.649
353.34	15.086
353.70	16.872
354.07	17.437
354.43	15.642
354.79	16.156
355.15	16.998
355.51	16.740
355.87	16.081
356.24	16.502
356.60	16.851
356.96	16.160
357.32	16.357
357.68	17.570
358.04	16.467
358.40	16.791
358.77	18.202
359.13	16.100
359.49	17.100
359.85	16.316
360.21	16.714
360.57	17.588
360.93	17.207
361.29	17.544
361.66	16.944
362.02	18.302
362.38	17.428
362.74	17.249
363.10	18.707
363.46	17.867
363.82	18.253
364.18	18.297
364.54	18.949
364.90	18.328
365.26	17.586
365.62	18.467
365.98	18.176
366.35	18.121
366.71	19.456
367.07	18.200
367.43	18.779
367.79	19.111
368.15	19.933
368.51	19.553
368.87	19.399
369.23	19.133
369.59	19.262
369.95	19.337
370.31	19.311
370.67	19.945
371.03	19.183
371.39	19.476
371.75	19.670
372.11	19.919
372.47	19.838
372.83	19.764
373.19	20.080
373.55	18.631
373.91	20.245
374.27	19.987
374.63	21.110
374.99	20.557
375.35	22.013
375.71	22.258
376.07	20.465
376.42	21.599
376.78	22.312
377.14	21.522
377.50	21.379
377.86	21.552
378.22	22.515
378.58	22.830
378.94	22.653
379.30	22.086
379.66	21.634
380.02	23.601
380.38	23.387
380.74	23.324
381.09	23.751
381.45	24.205
381.81	23.829
382.17	23.931
382.53	24.211
382.89	24.041
383.25	24.678
383.61	24.016
383.97	24.617
384.32	25.837
384.68	24.884
385.04	25.506
385.40	25.575
385.76	26.026
386.12	25.793
386.48	25.824
386.83	27.771
387.19	26.767
387.55	27.113
387.91	27.226
388.27	27.829
388.62	27.262
388.98	26.847
389.34	27.519
389.70	28.356
390.06	27.472
390.42	27.470
390.77	28.296
391.13	28.462
391.49	28.321
391.85	27.697
392.20	27.461
392.56	29.829
392.92	29.008
393.28	30.182
393.64	28.324
393.99	30.215
394.35	29.322
394.71	30.240
395.07	28.383
395.42	29.583
395.78	29.372
396.14	30.125
396.50	29.691
396.85	29.278
397.21	29.882
397.57	29.859
397.92	29.954
398.28	30.092
398.64	30.092
399.00	30.052
399.35	30.209
399.71	29.674
400.07	31.106
400.42	31.024
400.78	29.861
401.14	30.279
401.49	31.609
401.85	30.988
402.21	31.402
402.57	31.984
402.92	30.733
403.28	30.269
403.63	30.489
403.99	30.701
404.35	30.244
404.70	30.085
405.06	30.380
405.42	31.616
405.77	29.826
406.13	30.254
406.49	30.011
406.84	31.136
407.20	31.247
407.55	30.588
407.91	30.358
408.27	30.448
408.62	30.599
408.98	31.050
409.34	30.205
409.69	31.644
410.05	31.477
410.40	31.323
410.76	30.566
411.11	31.502
411.47	31.450
411.83	30.570
412.18	31.145
412.54	32.662
412.89	31.083
413.25	31.885
413.60	31.591
413.96	30.769
414.31	30.482
414.67	31.425
415.03	31.262
415.38	31.652
415.74	31.643
416.09	32.634
416.45	30.933
416.80	31.946
417.16	31.545
417.51	31.818
417.87	31.269
418.22	31.557
418.58	31.660
418.93	31.839
419.29	31.874
419.64	32.053
420.00	32.760
420.35	32.847
420.71	32.510
421.06	32.145
421.42	32.225
421.77	32.795
422.12	32.717
422.48	32.770
422.83	34.118
423.19	33.369
423.54	33.462
423.90	32.413
424.25	33.173
424.61	32.090
424.96	32.784
425.31	33.439
425.67	33.548
426.02	33.592
426.38	33.639
426.73	33.482
427.09	33.679
427.44	33.315
427.79	32.891
428.15	33.847
428.50	33.539
428.85	33.927
429.21	34.574
429.56	34.008
429.92	34.103
430.27	34.410
430.62	34.978
430.98	34.776
431.33	34.555
431.68	34.339
432.04	34.332
432.39	34.869
432.74	34.532
433.10	34.505
433.45	34.114
433.80	34.603
434.16	34.556
434.51	35.303
434.86	36.265
435.22	36.716
435.57	36.026
435.92	34.947
436.28	35.267
436.63	36.046
436.98	35.212
437.34	36.584
437.69	35.553
438.04	35.854
438.39	35.497
438.75	36.414
439.10	37.315
439.45	36.780
439.81	36.271
440.16	36.729
440.51	36.120
440.86	36.020
441.22	34.673
441.57	37.107
441.92	36.227
442.27	37.323
442.63	36.165
442.98	36.660
443.33	36.612
443.68	37.066
444.03	36.500
444.39	36.477
444.74	37.213
445.09	37.050
445.44	37.039
445.79	37.069
446.15	37.256
446.50	37.571
446.85	36.868
447.20	37.814
447.55	37.918
447.91	37.330
448.26	38.478
448.61	36.823
448.96	38.466
449.31	37.275
449.66	35.784
450.02	37.500
450.37	37.773
450.72	38.213
451.07	37.756
451.42	36.915
451.77	36.798
452.12	36.795
452.47	37.493
452.83	37.894
453.18	37.011
453.53	36.358
453.88	37.659
454.23	39.492
454.58	38.305
454.93	37.257
455.28	37.688
455.63	37.919
455.98	38.212
456.34	37.102
456.69	37.801
457.04	37.707
457.39	38.137
457.74	39.206
458.09	37.617
458.44	38.578
458.79	37.597
459.14	39.014
459.49	38.653
459.84	38.143
460.19	37.424
460.54	37.876
460.89	39.015
461.24	38.333
461.59	37.963
461.94	37.821
462.29	38.186
462.64	37.296
462.99	37.539
463.34	38.546
463.69	38.277
464.04	38.966
464.39	38.565
464.74	37.799
465.09	38.408
465.44	38.412
465.79	38.181
466.14	37.780
466.49	39.158
466.84	38.898
467.19	38.150
467.54	37.368
467.89	37.816
468.24	38.227
468.59	36.885
468.94	37.762
469.29	38.152
469.64	38.398
469.99	38.177
470.34	38.428
470.68	38.824
471.03	38.048
471.38	38.653
471.73	37.711
472.08	38.579
472.43	38.531
472.78	38.980
473.13	39.001
473.48	38.973
473.83	38.305
474.17	38.687
474.52	39.988
474.87	38.372
475.22	39.437
475.57	37.591
475.92	38.576
476.27	38.605
476.61	38.629
476.96	38.947
477.31	38.465
477.66	38.825
478.01	38.841
478.36	38.534
478.70	38.079
479.05	39.877
479.40	39.585
479.75	39.433
480.10	38.986
480.45	39.198
480.79	39.274
481.14	38.741
481.49	38.392
481.84	38.686
482.19	39.742
482.53	38.653
482.88	39.123
483.23	39.884
483.58	38.690
483.92	37.677
484.27	37.468
484.62	38.243
484.97	38.997
485.31	37.768
485.66	37.321
486.01	37.729
486.36	39.232
486.70	40.591
487.05	41.284
487.40	39.749
487.75	39.109
488.09	38.377
488.44	37.546
488.79	38.651
489.13	37.256
489.48	37.748
489.83	37.304
490.17	38.072
490.52	37.562
490.87	38.832
491.22	38.215
491.56	38.183
491.91	38.552
492.26	38.598
492.60	38.741
492.95	39.184
493.30	38.727
493.64	38.371
493.99	38.553
494.34	38.545
494.68	37.987
495.03	38.943
495.37	38.615
495.72	38.776
496.07	38.344
496.41	38.524
496.76	38.824
497.11	38.938
497.45	38.886
497.80	39.227
498.14	38.912
498.49	38.741
498.84	38.940
499.18	38.641
499.53	39.193
499.87	39.429
500.22	38.646
500.56	38.911
500.91	38.993
501.26	39.636
501.60	38.356
501.95	38.993
502.29	38.306
502.64	38.916
502.98	38.050
503.33	38.661
503.67	38.814
504.02	38.135
504.36	39.053
504.71	39.136
505.06	38.745
505.40	38.940
505.75	38.525
506.09	39.595
506.44	38.904
506.78	39.771
507.13	39.142
507.47	39.081
507.82	38.778
508.16	39.197
508.51	38.256
508.85	39.112
509.19	39.792
509.54	40.730
509.88	38.222
510.23	39.679
510.57	39.439
510.92	40.010
511.26	38.336
511.61	38.098
511.95	38.555
512.30	39.045
512.64	38.781
512.98	39.470
513.33	39.919
513.67	39.215
514.02	38.886
514.36	39.335
514.70	39.896
515.05	39.312
515.39	39.318
515.74	39.926
516.08	38.774
516.42	39.351
516.77	39.590
517.11	39.041
517.46	40.562
517.80	40.353
518.14	40.152
518.49	39.371
518.83	38.425
519.17	39.580
519.52	38.732
519.86	38.332
520.20	39.989
520.55	38.554
520.89	39.302
521.23	39.587
521.58	39.322
521.92	40.057
522.26	38.946
522.61	39.236
522.95	39.735
523.29	40.460
523.64	40.022
523.98	41.015
524.32	40.630
524.66	40.467
525.01	39.694
525.35	38.828
525.69	38.863
526.04	37.830
526.38	39.310
526.72	40.369
527.06	40.469
527.41	39.534
527.75	39.192
528.09	39.315
528.43	39.787
528.78	38.150
529.12	39.220
529.46	38.392
529.80	40.332
530.15	40.058
530.49	38.434
530.83	39.669
531.17	39.307
531.51	39.471
531.86	39.964
532.20	39.573
532.54	38.959
532.88	39.333
533.22	39.599
533.57	39.238
533.91	39.169
534.25	40.136
534.59	39.080
534.93	37.691
535.27	39.775
535.62	39.909
535.96	39.628
536.30	39.718
536.64	38.979
536.98	40.037
537.32	39.074
537.66	39.738
538.01	37.764
538.35	38.063
538.69	39.123
539.03	39.301
539.37	39.282
539.71	38.979
540.05	38.189
540.39	39.059
540.73	38.555
541.07	39.485
541.42	38.512
541.76	37.248
542.10	38.963
542.44	37.576
542.78	38.200
543.12	39.213
543.46	38.706
543.80	38.129
544.14	38.779
544.48	39.007
544.82	39.856
545.16	39.117
545.50	40.024
545.84	39.314
546.18	39.383
546.52	38.981
546.86	37.925
547.20	39.249
547.54	38.826
547.88	38.336
548.22	38.246
548.56	39.263
548.90	38.687
549.24	38.359
549.58	38.612
549.92	38.903
550.26	39.288
550.60	38.992
550.94	38.810
551.28	39.274
551.62	40.499
551.96	37.670
552.30	39.261
552.64	39.639
552.98	39.364
553.32	39.035
553.66	39.164
554.00	38.903
554.34	39.254
554.68	38.412
555.02	39.093
555.36	40.302
555.69	37.732
556.03	38.714
556.37	39.424
556.71	39.252
557.05	40.256
557.39	39.549
557.73	38.111
558.07	38.079
558.41	39.668
558.75	39.621
559.08	39.388
559.42	39.163
559.76	38.331
560.10	39.652
560.44	38.588
560.78	39.062
561.12	39.039
561.45	39.964
561.79	39.683
562.13	39.556
562.47	39.704
562.81	39.430
563.15	39.205
563.48	39.341
563.82	39.359
564.16	39.370
564.50	38.975
564.84	38.407
565.17	38.529
565.51	38.895
565.85	40.143
566.19	38.018
566.52	38.385
566.86	38.766
567.20	37.738
567.54	39.989
567.88	39.450
568.21	39.476
568.55	39.424
568.89	39.128
569.23	38.699
569.56	39.117
569.90	39.237
570.24	39.831
570.57	39.641
570.91	38.151
571.25	38.993
571.59	39.104
571.92	38.593
572.26	38.565
572.60	38.739
572.93	38.185
573.27	38.410
573.61	38.301
573.95	38.553
574.28	38.262
574.62	39.154
574.96	38.421
575.29	38.246
575.63	38.254
575.97	38.491
576.30	38.071
576.64	38.774
576.98	37.813
577.31	38.392
577.65	38.671
577.98	38.837
578.32	38.481
578.66	38.654
578.99	38.419
579.33	38.550
579.67	38.395
580.00	37.559
580.34	37.805
580.67	37.842
581.01	38.360
581.35	38.106
581.68	38.545
582.02	38.941
582.35	39.132
582.69	39.754
583.02	38.834
583.36	38.899
583.70	38.537
584.03	37.821
584.37	38.213
584.70	37.775
585.04	38.572
585.37	38.489
585.71	38.447
586.04	38.970
586.38	38.440
586.72	38.782
587.05	38.680
587.39	38.394
587.72	39.043
588.06	39.579
588.39	38.885
588.73	38.995
589.06	38.544
589.40	39.705
589.73	38.914
590.07	39.058
590.40	38.911
590.73	38.706
591.07	38.757
591.40	39.152
591.74	38.355
592.07	39.017
592.41	38.801
592.74	38.481
593.08	39.554
593.41	39.983
593.75	39.856
594.08	39.715
594.41	39.936
594.75	39.156
595.08	38.863
595.42	39.481
595.75	38.973
596.09	39.105
596.42	38.803
596.75	39.869
597.09	39.758
597.42	38.021
597.75	38.612
598.09	38.770
598.42	39.164
598.76	39.396
599.09	38.590
599.42	37.613
599.76	38.296
600.09	39.239
600.42	39.573
600.76	39.828
601.09	38.832
601.42	38.139
601.76	38.379
602.09	39.635
602.42	37.841
602.76	38.635
603.09	39.060
603.42	39.415
603.76	38.548
604.09	39.993
604.42	39.193
604.76	37.938
605.09	39.011
605.42	38.636
605.75	38.154
606.09	39.530
606.42	38.599
606.75	38.493
607.09	39.132
607.42	37.958
607.75	39.039
608.08	38.950
608.42	38.170
608.75	38.391
609.08	37.861
609.41	38.244
609.75	38.482
610.08	38.918
610.41	38.828
610.74	38.613
611.07	38.988
611.41	39.238
611.74	39.353
612.07	39.130
612.40	38.403
612.73	39.267
613.07	39.756
613.40	38.787
613.73	37.795
614.06	38.763
614.39	38.970
614.72	38.816
615.06	38.210
615.39	38.183
615.72	39.005
616.05	38.028
616.38	40.161
616.71	38.767
617.05	37.966
617.38	38.684
617.71	38.337
618.04	39.611
618.37	39.508
618.70	39.649
619.03	38.829
619.36	39.519
619.69	39.334
620.03	38.104
620.36	38.405
620.69	38.433
621.02	39.108
621.35	39.913
621.68	39.479
622.01	39.004
622.34	38.633
622.67	40.137
623.00	37.989
623.33	39.814
623.66	39.364
623.99	38.446
624.32	40.091
624.65	38.160
624.99	38.882
625.32	40.431
625.65	38.975
625.98	38.305
626.31	38.838
626.64	39.707
626.97	37.434
627.30	37.965
627.63	39.385
627.96	39.114
628.29	37.354
628.62	38.539
628.95	38.475
629.28	38.573
629.61	38.047
629.94	37.573
630.26	37.458
630.59	38.687
630.92	39.048
631.25	40.161
631.58	38.983
631.91	38.425
632.24	39.001
632.57	38.330
632.90	38.415
633.23	38.061
633.56	37.551
633.89	36.880
634.22	40.021
634.55	38.831
634.88	37.987
635.20	39.935
635.53	40.226
635.86	37.595
636.19	41.145
