SpectraSuite Data File
++++++++++++++++++++++++++++++++++++
Date: Thu May 14 15:01:09 PDT 2015
User: schluterlab
Dark Spectrum Present: Yes
Reference Spectrum Present: Yes
Number of Sampled Component Spectra: 1
Spectrometers: USB2E3373
Integration Time (usec): 3000 (USB2E3373)
Spectra Averaged: 3 (USB2E3373)
Boxcar Smoothing: 0 (USB2E3373)
Correct for Electrical Dark: No (USB2E3373)
Strobe/Lamp Enabled: No (USB2E3373)
Correct for Detector Non-linearity: No (USB2E3373)
Correct for Stray Light: No (USB2E3373)
Number of Pixels in Processed Spectrum: 2048
>>>>>Begin Processed Spectral Data<<<<<
178.53	0.000
178.91	357.143
179.29	-2100.000
179.67	-1800.000
180.04	257.143
180.42	200.000
180.80	480.000
181.18	-2300.000
181.56	-1900.000
181.94	525.000
182.31	-400.000
182.69	800.000
183.07	-700.000
183.45	775.000
183.83	-433.333
184.20	-733.333
184.58	2100.000
184.96	-675.000
185.34	-244.444
185.72	-360.000
186.09	344.444
186.47	1550.000
186.85	580.000
187.23	-377.778
187.61	-2800.000
187.98	320.000
188.36	675.000
188.74	-650.000
189.12	-800.000
189.49	-118.750
189.87	-350.000
190.25	-111.111
190.63	-400.000
191.00	-344.444
191.38	0.000
191.76	-575.000
192.14	-300.000
192.51	1350.000
192.89	-350.000
193.27	0.000
193.65	-342.857
194.02	-4100.000
194.40	-185.714
194.78	257.143
195.15	0.000
195.53	-118.182
195.91	0.000
196.29	-450.000
196.66	-138.462
197.04	-2700.000
197.42	-228.571
197.79	-1150.000
198.17	-225.000
198.55	-371.429
198.92	-100.000
199.30	-200.000
199.68	-109.091
200.05	-142.857
200.43	-1050.000
200.81	471.429
201.18	0.000
201.56	466.667
201.94	0.000
202.31	633.333
202.69	-344.444
203.07	1900.000
203.44	-266.667
203.82	-500.000
204.19	-183.333
204.57	-300.000
204.95	-237.500
205.32	-1600.000
205.70	250.000
206.08	-400.000
206.45	-233.333
206.83	480.000
207.20	-366.667
207.58	-640.000
207.96	-516.667
208.33	-250.000
208.71	250.000
209.08	-383.333
209.46	0.000
209.84	283.333
210.21	1150.000
210.59	500.000
210.96	933.333
211.34	-450.000
211.71	-287.500
212.09	-2300.000
212.46	0.000
212.84	1300.000
213.22	-520.000
213.59	-600.000
213.97	-140.000
214.34	-600.000
214.72	600.000
215.09	-575.000
215.47	0.000
215.84	428.571
216.22	1350.000
216.59	-460.000
216.97	-340.000
217.34	-400.000
217.72	-200.000
218.09	-350.000
218.47	-775.000
218.84	0.000
219.22	320.000
219.59	-117.647
219.97	-65.000
220.34	1800.000
220.72	-288.889
221.09	-69.231
221.47	-733.333
221.84	-260.000
222.22	-385.714
222.59	0.000
222.97	-137.500
223.34	-540.000
223.72	-1300.000
224.09	-450.000
224.46	-550.000
224.84	-200.000
225.21	-471.429
225.59	-425.000
225.96	-925.000
226.34	-92.308
226.71	383.333
227.08	-1150.000
227.46	-66.667
227.83	-500.000
228.21	-52.632
228.58	312.500
228.95	1100.000
229.33	-125.000
229.70	-170.000
230.08	-47.368
230.45	250.000
230.82	-666.667
231.20	-150.000
231.57	-108.333
231.95	-245.455
232.32	-118.182
232.69	-60.000
233.07	-450.000
233.44	-94.118
233.81	-210.000
234.19	-66.667
234.56	-81.818
234.93	-51.724
235.31	-100.000
235.68	-127.778
236.05	-175.000
236.43	-53.846
236.80	-40.000
237.17	-62.963
237.55	-54.545
237.92	-340.000
238.29	-67.742
238.67	-29.545
239.04	-50.000
239.41	-52.381
239.79	-39.130
240.16	-27.778
240.53	-47.826
240.91	-41.176
241.28	-55.738
241.65	-26.866
242.02	-21.622
242.40	-30.769
242.77	-26.667
243.14	-24.390
243.51	-38.158
243.89	-44.872
244.26	-12.871
244.63	-26.471
245.00	-17.757
245.38	-5.263
245.75	-23.894
246.12	-7.937
246.49	-11.628
246.87	-7.143
247.24	-6.623
247.61	-8.553
247.98	-9.396
248.36	-6.790
248.73	-15.951
249.10	-8.197
249.47	0.498
249.84	-0.524
250.22	-7.254
250.59	-7.222
250.96	-2.727
251.33	-12.755
251.70	-3.419
252.08	-3.333
252.45	-4.098
252.82	-7.025
253.19	-2.734
253.56	0.000
253.94	-4.615
254.31	-4.924
254.68	-1.748
255.05	-0.651
255.42	-1.020
255.79	-3.560
256.16	-2.318
256.54	-4.967
256.91	-2.295
257.28	-2.623
257.65	-5.414
258.02	-7.080
258.39	-1.425
258.76	2.752
259.14	-0.862
259.51	-2.882
259.88	-4.533
260.25	-1.944
260.62	0.000
260.99	-0.546
261.36	-1.609
261.73	-0.531
262.10	-4.396
262.47	-3.217
262.85	-0.505
263.22	-4.156
263.59	-5.526
263.96	-2.302
264.33	-2.558
264.70	0.000
265.07	1.193
265.44	2.494
265.81	-1.157
266.18	-0.454
266.55	0.446
266.92	-3.189
267.29	1.532
267.66	-0.222
268.03	-1.092
268.40	-0.209
268.77	-2.961
269.14	-3.524
269.51	1.316
269.88	0.615
270.25	0.604
270.62	-1.055
270.99	-0.202
271.36	0.990
271.73	-0.786
272.10	0.802
272.47	-0.802
272.84	0.000
273.21	1.002
273.58	1.411
273.95	-1.154
274.32	-1.141
274.69	-0.580
275.06	0.549
275.43	-1.479
275.80	1.764
276.17	-1.667
276.54	1.119
276.91	-0.358
277.28	0.181
277.65	0.539
278.02	-0.368
278.39	1.087
278.76	-1.054
279.13	-1.418
279.50	-0.172
279.87	0.358
280.23	-1.408
280.60	2.373
280.97	0.329
281.34	-1.188
281.71	3.384
282.08	-1.495
282.45	-1.964
282.82	-0.157
283.19	-0.646
283.56	0.164
283.92	2.703
284.29	2.212
284.66	-0.164
285.03	-1.763
285.40	1.546
285.77	0.000
286.14	0.000
286.51	0.304
286.87	0.158
287.24	0.452
287.61	-0.448
287.98	0.302
288.35	1.331
288.72	0.148
289.08	1.171
289.45	-0.592
289.82	0.000
290.19	0.000
290.56	1.408
290.93	0.713
291.29	0.826
291.66	-0.138
292.03	1.493
292.40	1.088
292.77	0.943
293.13	0.812
293.50	0.526
293.87	1.611
294.24	3.200
294.60	1.896
294.97	-0.134
295.34	2.945
295.71	-0.126
296.08	-0.129
296.44	0.613
296.81	0.122
297.18	-0.747
297.55	0.825
297.91	1.542
298.28	0.118
298.65	0.713
299.02	0.236
299.38	1.144
299.75	0.818
300.12	0.000
300.48	1.267
300.85	1.800
301.22	0.447
301.59	0.799
301.95	0.452
302.32	1.556
302.69	1.314
303.05	2.394
303.42	0.776
303.79	1.250
304.15	0.841
304.52	0.423
304.89	1.361
305.25	2.277
305.62	0.836
305.99	1.237
306.35	0.907
306.72	0.827
307.09	0.508
307.45	1.553
307.82	1.514
308.19	1.514
308.55	2.411
308.92	1.850
309.29	2.107
309.65	2.047
310.02	1.584
310.38	1.772
310.75	2.816
311.12	2.972
311.48	1.760
311.85	2.374
312.22	1.992
312.58	2.723
312.95	1.625
313.31	2.620
313.68	3.480
314.05	3.252
314.41	3.825
314.78	2.816
315.14	3.811
315.51	4.524
315.87	5.131
316.24	4.384
316.61	4.440
316.97	4.615
317.34	4.850
317.70	4.716
318.07	4.762
318.43	5.697
318.80	6.355
319.16	5.150
319.53	4.884
319.89	4.820
320.26	5.605
320.62	4.699
320.99	6.279
321.35	5.453
321.72	6.791
322.08	6.132
322.45	7.227
322.81	6.498
323.18	7.611
323.54	7.931
323.91	8.363
324.27	6.885
324.64	7.557
325.00	7.131
325.37	8.763
325.73	8.760
326.10	9.813
326.46	9.283
326.83	9.768
327.19	9.921
327.56	10.277
327.92	9.756
328.29	10.000
328.65	9.548
329.01	11.421
329.38	10.952
329.74	10.959
330.11	12.243
330.47	12.300
330.84	11.197
331.20	13.417
331.56	12.738
331.93	14.142
332.29	12.373
332.66	12.874
333.02	13.149
333.38	12.416
333.75	12.795
334.11	14.178
334.48	12.541
334.84	14.104
335.20	14.022
335.57	13.406
335.93	13.719
336.29	12.562
336.66	13.625
337.02	12.124
337.38	15.221
337.75	13.388
338.11	13.793
338.47	13.896
338.84	14.129
339.20	14.322
339.56	13.921
339.93	13.793
340.29	14.654
340.65	13.625
341.02	15.403
341.38	15.521
341.74	14.770
342.11	13.918
342.47	12.788
342.83	14.654
343.20	14.227
343.56	14.194
343.92	13.611
344.28	14.687
344.65	14.574
345.01	14.743
345.37	14.386
345.73	14.030
346.10	14.587
346.46	15.032
346.82	14.981
347.19	14.439
347.55	15.250
347.91	15.379
348.27	15.099
348.63	15.080
349.00	15.735
349.36	14.572
349.72	16.071
350.08	15.379
350.45	14.981
350.81	15.385
351.17	14.887
351.53	14.253
351.89	15.186
352.26	15.821
352.62	15.821
352.98	15.725
353.34	14.414
353.70	14.792
354.07	16.468
354.43	15.490
354.79	15.632
355.15	16.703
355.51	17.032
355.87	15.557
356.24	16.046
356.60	15.152
356.96	15.789
357.32	15.911
357.68	15.300
358.04	16.018
358.40	15.149
358.77	16.813
359.13	15.214
359.49	15.985
359.85	16.461
360.21	16.428
360.57	16.009
360.93	15.585
361.29	16.632
361.66	15.351
362.02	17.954
362.38	17.147
362.74	16.550
363.10	17.607
363.46	17.175
363.82	17.045
364.18	17.664
364.54	18.050
364.90	17.726
365.26	17.379
365.62	18.467
365.98	17.223
366.35	17.785
366.71	18.912
367.07	18.606
367.43	18.253
367.79	18.182
368.15	19.599
368.51	17.997
368.87	18.615
369.23	19.200
369.59	19.057
369.95	19.135
370.31	18.906
370.67	18.569
371.03	18.767
371.39	18.670
371.75	20.014
372.11	19.783
372.47	19.634
372.83	20.092
373.19	20.414
373.55	19.512
373.91	19.768
374.27	20.116
374.63	20.771
374.99	19.496
375.35	20.974
375.71	20.258
376.07	20.658
376.42	20.718
376.78	21.815
377.14	21.709
377.50	21.505
377.86	21.860
378.22	21.976
378.58	21.522
378.94	22.359
379.30	21.558
379.66	22.634
380.02	21.870
380.38	23.329
380.74	22.592
381.09	21.893
381.45	22.955
381.81	24.063
382.17	23.990
382.53	22.924
382.89	23.251
383.25	23.740
383.61	24.074
383.97	23.439
384.32	24.222
384.68	23.376
385.04	24.754
385.40	24.455
385.76	25.381
386.12	24.895
386.48	25.294
386.83	25.507
387.19	24.739
387.55	24.648
387.91	25.000
388.27	25.924
388.62	26.060
388.98	26.058
389.34	26.341
389.70	26.496
390.06	25.933
390.42	25.964
390.77	26.671
391.13	26.115
391.49	26.812
391.85	26.303
392.20	27.521
392.56	26.521
392.92	27.317
393.28	27.474
393.64	27.430
393.99	27.484
394.35	27.512
394.71	27.904
395.07	27.485
395.42	27.299
395.78	28.641
396.14	28.164
396.50	27.791
396.85	28.026
397.21	28.225
397.57	27.444
397.92	28.007
398.28	27.376
398.64	28.089
399.00	27.330
399.35	27.487
399.71	27.989
400.07	28.636
400.42	28.754
400.78	27.951
401.14	28.515
401.49	28.937
401.85	28.081
402.21	28.853
402.57	29.519
402.92	27.955
403.28	27.635
403.63	28.341
403.99	28.682
404.35	28.141
404.70	28.385
405.06	28.261
405.42	28.279
405.77	28.790
406.13	29.119
406.49	28.097
406.84	29.474
407.20	29.234
407.55	29.194
407.91	29.541
408.27	27.680
408.62	29.494
408.98	28.845
409.34	27.859
409.69	29.419
410.05	29.191
410.40	28.828
410.76	29.557
411.11	29.924
411.47	29.607
411.83	29.336
412.18	29.819
412.54	29.283
412.89	29.045
413.25	29.458
413.60	28.719
413.96	28.963
414.31	29.348
414.67	29.398
415.03	29.292
415.38	30.454
415.74	29.322
416.09	30.105
416.45	28.929
416.80	28.825
417.16	30.077
417.51	30.448
417.87	28.633
418.22	30.539
418.58	29.616
418.93	29.744
419.29	29.285
419.64	29.292
420.00	28.902
420.35	29.534
420.71	29.925
421.06	30.017
421.42	29.874
421.77	28.918
422.12	29.440
422.48	30.261
422.83	30.449
423.19	30.186
423.54	30.033
423.90	29.818
424.25	30.933
424.61	30.080
424.96	30.093
425.31	30.520
425.67	28.878
426.02	30.050
426.38	30.195
426.73	29.911
427.09	29.931
427.44	29.765
427.79	29.961
428.15	29.737
428.50	30.449
428.85	30.023
429.21	31.277
429.56	31.046
429.92	29.828
430.27	31.325
430.62	30.581
430.98	30.448
431.33	31.036
431.68	29.693
432.04	31.437
432.39	30.584
432.74	29.795
433.10	30.990
433.45	29.543
433.80	30.472
434.16	30.372
434.51	30.370
434.86	31.542
435.22	31.350
435.57	31.073
435.92	30.328
436.28	30.944
436.63	31.131
436.98	30.542
437.34	30.496
437.69	30.930
438.04	30.672
438.39	30.729
438.75	30.880
439.10	31.448
439.45	30.464
439.81	31.356
440.16	30.831
440.51	31.215
440.86	31.017
441.22	31.297
441.57	30.818
441.92	30.989
442.27	31.515
442.63	30.551
442.98	30.630
443.33	31.615
443.68	30.624
444.03	31.468
444.39	31.577
444.74	31.853
445.09	31.221
445.44	30.822
445.79	30.795
446.15	30.884
446.50	31.163
446.85	31.274
447.20	31.963
447.55	31.067
447.91	30.524
448.26	31.660
448.61	29.915
448.96	31.223
449.31	30.912
449.66	30.773
450.02	31.224
450.37	30.900
450.72	30.571
451.07	30.581
451.42	30.503
451.77	30.517
452.12	31.208
452.47	30.422
452.83	31.363
453.18	30.823
453.53	30.557
453.88	30.922
454.23	31.525
454.58	31.225
454.93	30.886
455.28	31.005
455.63	30.699
455.98	31.453
456.34	31.272
456.69	30.511
457.04	31.028
457.39	30.488
457.74	31.152
458.09	30.203
458.44	30.873
458.79	30.376
459.14	30.362
459.49	31.466
459.84	30.273
460.19	29.484
460.54	30.324
460.89	30.916
461.24	30.460
461.59	29.773
461.94	30.006
462.29	30.739
462.64	29.873
462.99	30.195
463.34	30.694
463.69	30.012
464.04	29.405
464.39	30.101
464.74	29.932
465.09	29.642
465.44	30.418
465.79	29.931
466.14	29.911
466.49	29.526
466.84	30.854
467.19	30.173
467.54	29.083
467.89	28.391
468.24	29.363
468.59	28.720
468.94	30.186
469.29	29.394
469.64	29.180
469.99	30.975
470.34	30.198
470.68	30.554
471.03	30.714
471.38	29.235
471.73	28.544
472.08	29.695
472.43	29.500
472.78	30.856
473.13	29.077
473.48	29.970
473.83	30.470
474.17	29.836
474.52	30.307
474.87	31.229
475.22	29.239
475.57	29.232
475.92	29.866
476.27	29.606
476.61	29.647
476.96	28.884
477.31	30.149
477.66	30.640
478.01	29.232
478.36	28.514
478.70	29.803
479.05	29.857
479.40	30.109
479.75	29.731
480.10	29.180
480.45	28.988
480.79	29.342
481.14	28.860
481.49	29.850
481.84	29.721
482.19	29.419
482.53	30.389
482.88	29.730
483.23	28.991
483.58	29.520
483.92	28.945
484.27	29.424
484.62	29.497
484.97	28.771
485.31	28.757
485.66	27.572
486.01	27.184
486.36	29.313
486.70	30.604
487.05	31.874
487.40	31.019
487.75	30.076
488.09	29.755
488.44	29.408
488.79	29.275
489.13	29.580
489.48	28.000
489.83	28.330
490.17	28.757
490.52	28.407
490.87	28.553
491.22	29.116
491.56	29.608
491.91	29.394
492.26	28.646
492.60	28.422
492.95	28.960
493.30	29.538
493.64	29.172
493.99	28.904
494.34	28.354
494.68	29.079
495.03	29.339
495.37	29.561
495.72	29.025
496.07	28.659
496.41	28.228
496.76	28.941
497.11	29.682
497.45	29.262
497.80	28.610
498.14	28.798
498.49	27.849
498.84	29.022
499.18	29.105
499.53	29.013
499.87	29.626
500.22	28.272
500.56	29.240
500.91	29.062
501.26	28.636
501.60	28.458
501.95	29.266
502.29	29.267
502.64	28.684
502.98	28.516
503.33	28.078
503.67	28.042
504.02	28.240
504.36	29.044
504.71	29.260
505.06	28.377
505.40	28.565
505.75	29.235
506.09	28.913
506.44	29.062
506.78	29.174
507.13	28.861
507.47	29.891
507.82	27.746
508.16	28.489
508.51	28.504
508.85	28.389
509.19	28.565
509.54	29.779
509.88	28.460
510.23	28.655
510.57	29.193
510.92	28.399
511.26	28.956
511.61	27.426
511.95	28.990
512.30	29.444
512.64	28.186
512.98	28.614
513.33	28.629
513.67	29.730
514.02	29.586
514.36	29.616
514.70	27.708
515.05	29.771
515.39	28.924
515.74	29.109
516.08	27.945
516.42	29.723
516.77	28.917
517.11	28.417
517.46	29.056
517.80	29.984
518.14	29.652
518.49	29.501
518.83	28.845
519.17	28.810
519.52	29.769
519.86	29.461
520.20	29.553
520.55	28.970
520.89	28.716
521.23	28.699
521.58	30.226
521.92	29.745
522.26	29.611
522.61	29.282
522.95	29.066
523.29	29.655
523.64	29.540
523.98	29.036
524.32	29.857
524.66	28.571
525.01	28.482
525.35	27.455
525.69	28.074
526.04	28.243
526.38	28.333
526.72	29.008
527.06	28.915
527.41	28.805
527.75	29.869
528.09	28.394
528.43	29.544
528.78	28.208
529.12	29.186
529.46	28.949
529.80	28.432
530.15	28.522
530.49	28.707
530.83	29.280
531.17	28.734
531.51	29.001
531.86	28.966
532.20	29.634
532.54	29.144
532.88	27.939
533.22	28.874
533.57	28.909
533.91	28.676
534.25	28.999
534.59	29.080
534.93	28.806
535.27	29.127
535.62	28.653
535.96	28.995
536.30	28.378
536.64	28.709
536.98	29.213
537.32	29.383
537.66	28.821
538.01	27.311
538.35	28.502
538.69	29.147
539.03	28.081
539.37	28.504
539.71	28.589
540.05	28.837
540.39	29.095
540.73	28.840
541.07	28.571
541.42	28.825
541.76	28.529
542.10	28.166
542.44	28.076
542.78	28.832
543.12	26.460
543.46	27.778
543.80	27.338
544.14	27.947
544.48	28.546
544.82	29.264
545.16	29.577
545.50	28.640
545.84	27.618
546.18	28.642
546.52	28.280
546.86	28.868
547.20	28.753
547.54	27.903
547.88	27.908
548.22	27.953
548.56	27.501
548.90	28.597
549.24	28.511
549.58	28.391
549.92	28.125
550.26	28.091
550.60	28.015
550.94	29.366
551.28	28.515
551.62	28.437
551.96	27.120
552.30	28.553
552.64	27.754
552.98	28.010
553.32	28.875
553.66	27.074
554.00	27.806
554.34	28.185
554.68	27.372
555.02	28.778
555.36	28.600
555.69	27.546
556.03	28.058
556.37	28.723
556.71	29.042
557.05	27.732
557.39	27.140
557.73	28.666
558.07	27.550
558.41	28.505
558.75	28.195
559.08	28.880
559.42	27.709
559.76	28.155
560.10	27.461
560.44	27.441
560.78	28.312
561.12	27.771
561.45	28.041
561.79	27.839
562.13	29.267
562.47	27.189
562.81	28.734
563.15	27.904
563.48	27.222
563.82	28.053
564.16	28.104
564.50	27.712
564.84	28.201
565.17	27.353
565.51	27.503
565.85	27.850
566.19	26.555
566.52	27.501
566.86	27.731
567.20	27.243
567.54	27.828
567.88	28.033
568.21	27.569
568.55	27.482
568.89	28.507
569.23	27.926
569.56	27.941
569.90	28.118
570.24	28.702
570.57	28.191
570.91	27.802
571.25	27.683
571.59	28.333
571.92	27.612
572.26	28.004
572.60	28.256
572.93	27.804
573.27	27.423
573.61	27.607
573.95	27.337
574.28	27.260
574.62	27.171
574.96	27.305
575.29	27.627
575.63	27.674
575.97	27.760
576.30	27.510
576.64	27.583
576.98	27.563
577.31	28.011
577.65	27.879
577.98	27.391
578.32	27.468
578.66	28.213
578.99	28.097
579.33	27.835
579.67	27.924
580.00	27.354
580.34	27.072
580.67	27.251
581.01	27.326
581.35	27.216
581.68	27.276
582.02	27.557
582.35	28.132
582.69	28.019
583.02	28.443
583.36	28.117
583.70	27.971
584.03	27.190
584.37	27.796
584.70	27.042
585.04	26.761
585.37	27.022
585.71	27.098
586.04	27.521
586.38	27.437
586.72	27.024
587.05	27.245
587.39	27.350
587.72	27.177
588.06	27.466
588.39	27.483
588.73	27.804
589.06	27.511
589.40	27.750
589.73	27.314
590.07	27.818
590.40	27.924
590.73	27.501
591.07	27.178
591.40	26.439
591.74	26.908
592.07	27.162
592.41	26.696
592.74	26.660
593.08	27.293
593.41	27.238
593.75	27.155
594.08	27.477
594.41	27.917
594.75	27.233
595.08	27.591
595.42	26.721
595.75	27.252
596.09	27.923
596.42	27.302
596.75	27.441
597.09	27.515
597.42	27.334
597.75	27.362
598.09	26.944
598.42	27.503
598.76	26.519
599.09	26.842
599.42	26.483
599.76	26.312
600.09	26.860
600.42	27.027
600.76	26.915
601.09	26.485
601.42	27.154
601.76	26.586
602.09	26.984
602.42	26.754
602.76	27.048
603.09	26.468
603.42	26.770
603.76	27.167
604.09	27.005
604.42	26.716
604.76	26.332
605.09	26.526
605.42	26.396
605.75	26.385
606.09	26.876
606.42	25.830
606.75	26.424
607.09	25.422
607.42	26.089
607.75	27.237
608.08	27.151
608.42	26.401
608.75	26.202
609.08	26.188
609.41	26.423
609.75	26.473
610.08	27.309
610.41	26.211
610.74	25.966
611.07	26.909
611.41	26.457
611.74	27.529
612.07	26.414
612.40	26.046
612.73	26.699
613.07	26.601
613.40	25.553
613.73	26.577
614.06	27.233
614.39	25.219
614.72	26.104
615.06	25.217
615.39	26.341
615.72	26.114
616.05	26.712
616.38	26.387
616.71	26.280
617.05	25.932
617.38	25.950
617.71	26.404
618.04	26.174
618.37	27.978
618.70	26.188
619.03	26.464
619.36	26.079
619.69	26.073
620.03	25.675
620.36	25.644
620.69	25.972
621.02	26.575
621.35	26.996
621.68	26.537
622.01	25.907
622.34	25.453
622.67	26.392
623.00	25.236
623.33	27.074
623.66	25.616
623.99	25.280
624.32	27.160
624.65	25.611
624.99	25.488
625.32	25.865
625.65	26.231
625.98	25.288
626.31	25.726
626.64	26.447
626.97	24.306
627.30	25.361
627.63	25.881
627.96	26.126
628.29	26.148
628.62	26.532
628.95	25.504
629.28	25.404
629.61	26.010
629.94	25.021
630.26	24.407
630.59	25.907
630.92	25.801
631.25	26.208
631.58	26.554
631.91	24.649
632.24	26.609
632.57	25.237
632.90	24.574
633.23	25.306
633.56	24.898
