SpectraSuite Data File
++++++++++++++++++++++++++++++++++++
Date: Thu May 14 14:28:44 PDT 2015
User: schluterlab
Dark Spectrum Present: Yes
Reference Spectrum Present: Yes
Number of Sampled Component Spectra: 1
Spectrometers: USB2E3373
Integration Time (usec): 3000 (USB2E3373)
Spectra Averaged: 3 (USB2E3373)
Boxcar Smoothing: 0 (USB2E3373)
Correct for Electrical Dark: No (USB2E3373)
Strobe/Lamp Enabled: No (USB2E3373)
Correct for Detector Non-linearity: No (USB2E3373)
Correct for Stray Light: No (USB2E3373)
Number of Pixels in Processed Spectrum: 2048
>>>>>Begin Processed Spectral Data<<<<<
178.53	0.000
178.91	-185.714
179.29	-500.000
179.67	-100.000
180.04	57.143
180.42	-70.000
180.80	-420.000
181.18	1000.000
181.56	2600.000
181.94	-300.000
182.31	250.000
182.69	-366.667
183.07	350.000
183.45	-325.000
183.83	200.000
184.20	800.000
184.58	-600.000
184.96	250.000
185.34	255.556
185.72	280.000
186.09	22.222
186.47	-600.000
186.85	-320.000
187.23	77.778
187.61	0.000
187.98	-340.000
188.36	-250.000
188.74	175.000
189.12	500.000
189.49	162.500
189.87	112.500
190.25	233.333
190.63	240.000
191.00	122.222
191.38	0.000
191.76	25.000
192.14	300.000
192.51	-750.000
192.89	133.333
193.27	0.000
193.65	285.714
194.02	800.000
194.40	257.143
194.78	-85.714
195.15	0.000
195.53	145.455
195.91	0.000
196.29	175.000
196.66	115.385
197.04	600.000
197.42	71.429
197.79	100.000
198.17	200.000
198.55	42.857
198.92	333.333
199.30	175.000
199.68	145.455
200.05	128.571
200.43	650.000
200.81	-142.857
201.18	0.000
201.56	11.111
201.94	0.000
202.31	-300.000
202.69	122.222
203.07	-1600.000
203.44	100.000
203.82	500.000
204.19	158.333
204.57	150.000
204.95	212.500
205.32	400.000
205.70	-275.000
206.08	183.333
206.45	100.000
206.83	-140.000
207.20	250.000
207.58	20.000
207.96	250.000
208.33	216.667
208.71	-33.333
209.08	250.000
209.46	0.000
209.84	-66.667
210.21	-550.000
210.59	-500.000
210.96	-233.333
211.34	350.000
211.71	100.000
212.09	400.000
212.46	0.000
212.84	-300.000
213.22	240.000
213.59	475.000
213.97	190.000
214.34	233.333
214.72	-16.667
215.09	200.000
215.47	0.000
215.84	-114.286
216.22	-0.000
216.59	240.000
216.97	340.000
217.34	225.000
217.72	137.500
218.09	225.000
218.47	50.000
218.84	0.000
219.22	-320.000
219.59	88.235
219.97	60.000
220.34	-300.000
220.72	66.667
221.09	138.462
221.47	466.667
221.84	190.000
222.22	100.000
222.59	0.000
222.97	162.500
223.34	20.000
223.72	400.000
224.09	550.000
224.46	100.000
224.84	160.000
225.21	85.714
225.59	150.000
225.96	125.000
226.34	42.308
226.71	-66.667
227.08	900.000
227.46	80.000
227.83	250.000
228.21	105.263
228.58	-125.000
228.95	-200.000
229.33	91.667
229.70	130.000
230.08	100.000
230.45	-20.000
230.82	333.333
231.20	57.143
231.57	83.333
231.95	136.364
232.32	109.091
232.69	55.000
233.07	225.000
233.44	64.706
233.81	90.000
234.19	144.444
234.56	81.818
234.93	82.759
235.31	57.895
235.68	72.222
236.05	40.000
236.43	80.769
236.80	68.000
237.17	66.667
237.55	36.364
237.92	40.000
238.29	35.484
238.67	13.636
239.04	38.889
239.41	33.333
239.79	39.130
240.16	24.074
240.53	21.739
240.91	7.843
241.28	22.951
241.65	28.358
242.02	28.378
242.40	23.077
242.77	33.333
243.14	26.829
243.51	10.526
243.89	11.538
244.26	19.802
244.63	24.510
245.00	23.364
245.38	12.281
245.75	5.310
246.12	18.254
246.49	13.178
246.87	17.143
247.24	9.934
247.61	15.789
247.98	14.765
248.36	10.494
248.73	7.975
249.10	10.929
249.47	16.915
249.84	14.660
250.22	4.663
250.59	11.111
250.96	12.273
251.33	5.102
251.70	16.667
252.08	12.917
252.45	14.344
252.82	5.785
253.19	2.344
253.56	7.224
253.94	8.462
254.31	7.576
254.68	10.490
255.05	11.075
255.42	7.143
255.79	6.796
256.16	7.285
256.54	8.940
256.91	9.180
257.28	9.836
257.65	5.732
258.02	7.965
258.39	9.687
258.76	10.092
259.14	8.046
259.51	7.493
259.88	8.499
260.25	5.278
260.62	6.027
260.99	8.470
261.36	8.579
261.73	6.897
262.10	6.868
262.47	7.239
262.85	11.869
263.22	6.234
263.59	4.474
263.96	5.371
264.33	5.627
264.70	7.654
265.07	8.592
265.44	10.658
265.81	4.398
266.18	8.163
266.55	7.366
266.92	4.328
267.29	7.877
267.66	5.543
268.03	6.987
268.40	7.516
268.77	5.695
269.14	4.846
269.51	6.579
269.88	8.607
270.25	6.036
270.62	8.861
270.99	9.091
271.36	9.109
271.73	8.055
272.10	8.617
272.47	6.413
272.84	7.631
273.21	6.212
273.58	5.847
273.95	5.000
274.32	5.133
274.69	5.029
275.06	7.509
275.43	4.067
275.80	8.818
276.17	3.519
276.54	5.037
276.91	5.009
277.28	5.425
277.65	5.566
278.02	5.515
278.39	4.891
278.76	4.218
279.13	5.851
279.50	7.732
279.87	5.367
280.23	2.817
280.60	6.271
280.97	6.908
281.34	4.414
281.71	6.768
282.08	5.316
282.45	5.401
282.82	4.082
283.19	4.847
283.56	6.721
283.92	7.357
284.29	7.109
284.66	6.404
285.03	5.288
285.40	7.110
285.77	5.263
286.14	7.481
286.51	4.871
286.87	6.635
287.24	5.723
287.61	4.484
287.98	3.625
288.35	5.030
288.72	5.917
289.08	6.735
289.45	6.657
289.82	5.422
290.19	6.034
290.56	7.324
290.93	5.421
291.29	6.336
291.66	5.096
292.03	5.020
292.40	7.891
292.77	5.930
293.13	7.713
293.50	6.439
293.87	5.638
294.24	6.533
294.60	8.597
294.97	5.772
295.34	7.810
295.71	6.179
296.08	6.072
296.44	5.515
296.81	5.603
297.18	6.351
297.55	5.896
297.91	5.931
298.28	5.213
298.65	5.470
299.02	5.785
299.38	6.407
299.75	6.542
300.12	5.903
300.48	6.912
300.85	6.524
301.22	6.488
301.59	3.995
301.95	6.215
302.32	7.444
302.69	5.586
303.05	6.202
303.42	6.098
303.79	6.250
304.15	6.414
304.52	6.871
304.89	6.387
305.25	7.867
305.62	7.315
305.99	7.629
306.35	6.552
306.72	7.135
307.09	6.193
307.45	5.590
307.82	6.559
308.19	6.458
308.55	8.100
308.92	7.887
309.29	8.333
309.65	6.433
310.02	6.832
310.38	7.283
310.75	7.087
311.12	8.533
311.48	5.865
311.85	6.553
312.22	7.685
312.58	7.230
312.95	7.839
313.31	8.672
313.68	8.516
314.05	8.311
314.41	8.652
314.78	7.811
315.14	7.985
315.51	9.603
315.87	6.931
316.24	8.676
316.61	9.147
316.97	8.507
317.34	8.907
317.70	8.908
318.07	9.083
318.43	9.524
318.80	10.953
319.16	8.412
319.53	7.883
319.89	7.975
320.26	11.388
320.62	8.156
320.99	9.695
321.35	9.057
321.72	10.233
322.08	9.558
322.45	10.117
322.81	10.469
323.18	9.469
323.54	10.172
323.91	10.231
324.27	9.552
324.64	10.663
325.00	9.536
325.37	11.302
325.73	11.570
326.10	11.517
326.46	11.482
326.83	12.090
327.19	11.024
327.56	12.885
327.92	10.622
328.29	11.129
328.65	11.139
329.01	11.083
329.38	10.952
329.74	13.099
330.11	12.414
330.47	11.963
330.84	11.972
331.20	13.417
331.56	13.345
331.93	12.636
332.29	13.898
332.66	12.209
333.02	12.563
333.38	13.423
333.75	12.963
334.11	13.595
334.48	12.129
334.84	15.378
335.20	13.938
335.57	13.491
335.93	13.471
336.29	12.729
336.66	12.952
337.02	14.548
337.38	13.946
337.75	13.223
338.11	14.130
338.47	13.317
338.84	14.044
339.20	13.227
339.56	13.427
339.93	14.368
340.29	14.493
340.65	13.950
341.02	15.802
341.38	14.713
341.74	12.914
342.11	14.159
342.47	13.503
342.83	15.298
343.20	14.881
343.56	14.515
343.92	14.011
344.28	15.391
344.65	13.566
345.01	13.807
345.37	14.697
345.73	13.484
346.10	14.587
346.46	13.608
346.82	14.382
347.19	14.744
347.55	15.099
347.91	14.339
348.27	14.416
348.63	15.385
349.00	13.125
349.36	15.316
349.72	15.179
350.08	14.785
350.45	14.297
350.81	14.706
351.17	14.361
351.53	15.011
351.89	14.579
352.26	14.776
352.62	14.627
352.98	14.733
353.34	13.667
353.70	14.869
354.07	14.754
354.43	13.819
354.79	14.809
355.15	14.864
355.51	14.985
355.87	14.660
356.24	15.741
356.60	15.225
356.96	15.641
357.32	14.349
357.68	14.495
358.04	14.970
358.40	14.403
358.77	14.985
359.13	13.959
359.49	14.052
359.85	15.664
360.21	15.280
360.57	15.721
360.93	16.008
361.29	16.000
361.66	15.062
362.02	16.354
362.38	14.758
362.74	15.922
363.10	16.094
363.46	15.374
363.82	16.264
364.18	15.412
364.54	15.975
364.90	17.258
365.26	14.966
365.62	16.400
365.98	16.678
366.35	15.906
366.71	15.850
367.07	15.223
367.43	16.415
367.79	17.186
368.15	16.789
368.51	17.118
368.87	15.676
369.23	16.667
369.59	16.667
369.95	16.903
370.31	17.151
370.67	16.919
371.03	16.828
371.39	17.193
371.75	16.094
372.11	17.344
372.47	16.926
372.83	17.212
373.19	17.745
373.55	17.751
373.91	16.360
374.27	16.818
374.63	17.794
374.99	17.241
375.35	17.662
375.71	17.742
376.07	18.205
376.42	17.758
376.78	17.651
377.14	17.779
377.50	18.027
377.86	18.288
378.22	18.024
378.58	18.787
378.94	18.603
379.30	18.688
379.66	18.166
380.02	19.504
380.38	18.779
380.74	18.197
381.09	18.409
381.45	19.261
381.81	19.614
382.17	19.537
382.53	19.181
382.89	19.357
383.25	19.343
383.61	18.345
383.97	20.024
384.32	20.455
384.68	18.735
385.04	20.301
385.40	20.684
385.76	20.750
386.12	19.449
386.48	20.882
386.83	21.097
387.19	20.973
387.55	20.246
387.91	19.749
388.27	21.305
388.62	20.962
388.98	19.910
389.34	21.391
389.70	20.686
390.06	20.485
390.42	20.964
390.77	21.192
391.13	21.127
391.49	21.256
391.85	19.939
392.20	22.598
392.56	21.205
392.92	22.192
393.28	21.891
393.64	21.397
393.99	21.732
394.35	21.671
394.71	21.916
395.07	21.138
395.42	20.731
395.78	22.486
396.14	22.579
396.50	21.437
396.85	21.169
397.21	20.888
397.57	21.673
397.92	22.451
398.28	21.130
398.64	20.709
399.00	20.681
399.35	20.942
399.71	21.848
400.07	20.887
400.42	21.886
400.78	20.255
401.14	22.311
401.49	22.115
401.85	21.395
402.21	21.495
402.57	21.244
402.92	21.395
403.28	20.667
403.63	20.525
403.99	20.487
404.35	21.546
404.70	21.756
405.06	21.250
405.42	21.721
405.77	21.429
406.13	21.610
406.49	20.383
406.84	21.551
407.20	21.297
407.55	21.866
407.91	20.553
408.27	20.907
408.62	21.350
408.98	21.358
409.34	21.408
409.69	21.137
410.05	20.574
410.40	22.042
410.76	20.920
411.11	21.975
411.47	21.499
411.83	21.987
412.18	21.265
412.54	22.110
412.89	22.817
413.25	20.880
413.60	21.080
413.96	21.154
414.31	21.020
414.67	21.109
415.03	21.292
415.38	21.942
415.74	20.892
416.09	22.085
416.45	21.415
416.80	20.991
417.16	20.945
417.51	21.482
417.87	21.521
418.22	21.198
418.58	21.437
418.93	22.293
419.29	21.825
419.64	21.369
420.00	21.662
420.35	21.280
420.71	21.597
421.06	20.817
421.42	22.420
421.77	21.163
422.12	21.617
422.48	21.403
422.83	21.961
423.19	21.857
423.54	22.235
423.90	21.977
424.25	22.933
424.61	22.044
424.96	22.295
425.31	22.240
425.67	21.632
426.02	22.357
426.38	22.044
426.73	21.373
427.09	22.895
427.44	22.174
427.79	22.167
428.15	21.176
428.50	21.517
428.85	22.790
429.21	23.191
429.56	22.211
429.92	21.867
430.27	22.699
430.62	22.081
430.98	22.135
431.33	22.092
431.68	21.169
432.04	22.854
432.39	22.871
432.74	22.888
433.10	23.310
433.45	22.241
433.80	22.908
434.16	22.262
434.51	21.531
434.86	23.236
435.22	22.104
435.57	23.172
435.92	22.983
436.28	23.038
436.63	23.102
436.98	23.188
437.34	22.773
437.69	22.675
438.04	22.951
438.39	23.952
438.75	23.022
439.10	23.890
439.45	22.806
439.81	23.785
440.16	22.842
440.51	23.579
440.86	23.457
441.22	23.848
441.57	23.428
441.92	23.957
442.27	23.939
442.63	23.547
442.98	24.280
443.33	23.514
443.68	24.331
444.03	23.989
444.39	24.411
444.74	23.890
445.09	23.872
445.44	23.656
445.79	24.138
446.15	23.741
446.50	23.773
446.85	23.833
447.20	23.743
447.55	24.634
447.91	24.346
448.26	23.784
448.61	24.655
448.96	24.946
449.31	24.231
449.66	24.237
450.02	24.895
450.37	24.188
450.72	23.305
451.07	24.487
451.42	24.206
451.77	23.402
452.12	24.323
452.47	23.589
452.83	24.324
453.18	24.518
453.53	24.584
453.88	24.241
454.23	25.480
454.58	24.782
454.93	23.847
455.28	24.865
455.63	24.559
455.98	24.078
456.34	24.853
456.69	24.515
457.04	24.232
457.39	25.111
457.74	24.161
458.09	25.151
458.44	25.000
458.79	24.033
459.14	24.227
459.49	25.241
459.84	24.816
460.19	24.375
460.54	25.099
460.89	25.410
461.24	24.253
461.59	24.903
461.94	23.845
462.29	24.412
462.64	24.381
462.99	24.545
463.34	24.854
463.69	25.147
464.04	25.459
464.39	25.448
464.74	24.629
465.09	23.818
465.44	24.732
465.79	26.018
466.14	24.492
466.49	25.053
466.84	25.234
467.19	25.434
467.54	23.854
467.89	25.345
468.24	24.875
468.59	25.188
468.94	24.592
469.29	25.435
469.64	25.048
469.99	25.494
470.34	25.557
470.68	26.111
471.03	26.719
471.38	25.441
471.73	25.683
472.08	26.840
472.43	25.948
472.78	26.196
473.13	26.549
473.48	26.707
473.83	27.162
474.17	25.967
474.52	26.939
474.87	26.800
475.22	26.535
475.57	25.130
475.92	25.684
476.27	26.145
476.61	26.012
476.96	25.912
477.31	26.733
477.66	27.125
478.01	26.690
478.36	25.773
478.70	26.158
479.05	27.198
479.40	25.568
479.75	26.705
480.10	26.622
480.45	26.527
480.79	26.440
481.14	26.746
481.49	26.352
481.84	26.893
482.19	26.581
482.53	26.410
482.88	26.673
483.23	26.812
483.58	26.288
483.92	25.842
484.27	26.207
484.62	26.114
484.97	26.555
485.31	25.590
485.66	25.628
486.01	24.728
486.36	24.415
486.70	24.615
487.05	25.198
487.40	25.586
487.75	26.260
488.09	26.458
488.44	26.726
488.79	26.476
489.13	26.720
489.48	26.330
489.83	26.559
490.17	25.881
490.52	26.190
490.87	26.692
491.22	26.863
491.56	26.664
491.91	26.821
492.26	27.218
492.60	26.716
492.95	26.503
493.30	27.028
493.64	26.807
493.99	26.491
494.34	26.307
494.68	26.510
495.03	26.740
495.37	26.676
495.72	27.982
496.07	26.906
496.41	27.542
496.76	26.814
497.11	27.176
497.45	26.845
497.80	27.010
498.14	27.075
498.49	26.884
498.84	26.965
499.18	27.126
499.53	27.220
499.87	27.648
500.22	26.670
500.56	27.036
500.91	27.551
501.26	28.455
501.60	26.867
501.95	28.007
502.29	27.819
502.64	27.591
502.98	27.524
503.33	27.819
503.67	26.908
504.02	28.152
504.36	28.150
504.71	28.158
505.06	27.649
505.40	28.611
505.75	29.053
506.09	28.085
506.44	28.877
506.78	28.807
507.13	28.677
507.47	28.328
507.82	28.646
508.16	27.964
508.51	28.692
508.85	29.051
509.19	29.891
509.54	29.971
509.88	29.043
510.23	29.917
510.57	29.773
510.92	29.705
511.26	29.485
511.61	29.213
511.95	29.673
512.30	30.773
512.64	29.785
512.98	29.965
513.33	30.645
513.67	30.546
514.02	30.659
514.36	31.304
514.70	31.458
515.05	31.752
515.39	31.286
515.74	32.662
516.08	30.956
516.42	32.496
516.77	31.598
517.11	31.717
517.46	32.556
517.80	33.244
518.14	33.460
518.49	33.677
518.83	32.251
519.17	32.041
519.52	33.019
519.86	32.788
520.20	33.546
520.55	32.694
520.89	33.896
521.23	33.836
521.58	33.446
521.92	33.654
522.26	33.448
522.61	34.028
522.95	33.852
523.29	34.540
523.64	33.576
523.98	34.569
524.32	35.244
524.66	34.775
525.01	34.315
525.35	34.520
525.69	35.093
526.04	34.328
526.38	35.862
526.72	35.352
527.06	35.660
527.41	35.510
527.75	35.451
528.09	35.419
528.43	35.761
528.78	35.954
529.12	35.722
529.46	35.357
529.80	35.412
530.15	35.768
530.49	35.884
530.83	36.600
531.17	36.559
531.51	36.943
531.86	37.800
532.20	37.500
532.54	37.104
532.88	37.515
533.22	35.946
533.57	36.642
533.91	37.149
534.25	36.857
534.59	36.954
534.93	36.616
535.27	38.254
535.62	36.953
535.96	36.955
536.30	37.192
536.64	39.279
536.98	38.376
537.32	37.963
537.66	38.178
538.01	37.341
538.35	37.576
538.69	37.800
539.03	37.155
539.37	37.161
539.71	38.258
540.05	37.890
540.39	37.103
540.73	37.523
541.07	37.646
541.42	37.035
541.76	36.951
542.10	38.359
542.44	38.002
542.78	38.443
543.12	38.081
543.46	37.973
543.80	36.631
544.14	37.822
544.48	38.002
544.82	38.300
545.16	37.746
545.50	38.706
545.84	37.600
546.18	39.630
546.52	39.490
546.86	38.176
547.20	38.486
547.54	38.577
547.88	38.397
548.22	38.246
548.56	37.917
548.90	37.731
549.24	37.447
549.58	39.621
549.92	38.329
550.26	39.417
550.60	38.481
550.94	38.810
551.28	39.208
551.62	40.094
551.96	39.482
552.30	39.834
552.64	39.515
552.98	38.677
553.32	40.386
553.66	39.293
554.00	39.723
554.34	39.640
554.68	39.380
555.02	40.999
555.36	38.856
555.69	39.013
556.03	39.155
556.37	39.612
556.71	38.935
557.05	40.000
557.39	39.018
557.73	38.639
558.07	39.338
558.41	40.000
558.75	39.351
559.08	40.153
559.42	39.438
559.76	39.688
560.10	38.982
560.44	39.710
560.78	40.000
561.12	38.300
561.45	39.964
561.79	40.110
562.13	39.433
562.47	37.793
562.81	39.494
563.15	38.889
563.48	39.528
563.82	38.271
564.16	38.946
564.50	39.333
564.84	39.528
565.17	39.353
565.51	38.953
565.85	38.895
566.19	38.249
566.52	39.848
566.86	39.162
567.20	37.629
567.54	37.493
567.88	38.787
568.21	37.945
568.55	37.074
568.89	37.449
569.23	37.093
569.56	36.225
569.90	36.743
570.24	35.616
570.57	35.888
570.91	35.150
571.25	35.175
571.59	35.402
571.92	35.075
572.26	35.151
572.60	34.944
572.93	34.846
573.27	35.853
573.61	34.648
573.95	34.571
574.28	34.618
574.62	34.607
574.96	34.274
575.29	34.193
575.63	34.234
575.97	34.347
576.30	34.838
576.64	34.837
576.98	34.351
577.31	34.735
577.65	34.482
577.98	34.337
578.32	33.977
578.66	34.131
578.99	34.323
579.33	34.682
579.67	34.859
580.00	34.525
580.34	34.599
580.67	34.687
581.01	34.552
581.35	34.113
581.68	33.931
582.02	33.844
582.35	34.018
582.69	34.348
583.02	33.975
583.36	35.038
583.70	34.697
584.03	34.965
584.37	35.596
584.70	34.939
585.04	34.597
585.37	34.622
585.71	34.412
586.04	34.038
586.38	34.656
586.72	34.194
587.05	35.073
587.39	35.153
587.72	34.737
588.06	34.333
588.39	35.176
588.73	35.053
589.06	35.468
589.40	35.526
589.73	35.347
590.07	36.041
590.40	36.105
590.73	36.903
591.07	36.560
591.40	35.886
591.74	36.804
592.07	36.987
592.41	36.987
592.74	36.244
593.08	35.987
593.41	35.491
593.75	34.885
594.08	35.747
594.41	35.545
594.75	35.669
595.08	36.036
595.42	36.136
595.75	36.648
596.09	36.496
596.42	35.722
596.75	36.743
597.09	37.414
597.42	37.187
597.75	36.025
598.09	36.786
598.42	36.872
598.76	36.607
599.09	35.742
599.42	35.501
599.76	35.358
600.09	35.736
600.42	35.636
600.76	35.271
601.09	35.413
601.42	35.084
601.76	35.793
602.09	36.061
602.42	36.350
602.76	36.162
603.09	37.041
603.42	36.236
603.76	36.258
604.09	36.622
604.42	36.587
604.76	35.731
605.09	35.979
605.42	36.762
605.75	35.769
606.09	36.506
606.42	36.045
606.75	35.495
607.09	35.407
607.42	35.723
607.75	37.202
608.08	36.267
608.42	35.711
608.75	36.484
609.08	37.054
609.41	37.274
609.75	35.804
610.08	37.027
610.41	35.429
610.74	36.471
611.07	37.167
611.41	36.592
611.74	38.522
612.07	37.494
612.40	37.167
612.73	37.555
613.07	37.702
613.40	37.777
613.73	36.495
614.06	37.242
614.39	36.832
614.72	36.633
615.06	37.247
615.39	36.539
615.72	37.062
616.05	36.911
616.38	37.891
616.71	37.618
617.05	36.422
617.38	37.881
617.71	37.689
618.04	38.262
618.37	38.361
618.70	38.009
619.03	38.471
619.36	38.471
619.69	39.974
620.03	38.355
620.36	38.221
620.69	38.125
621.02	39.436
621.35	41.437
621.68	40.347
622.01	39.644
622.34	38.842
622.67	39.175
623.00	37.652
623.33	39.018
623.66	38.392
623.99	37.986
624.32	40.221
624.65	37.066
624.99	39.337
625.32	39.451
625.65	39.649
625.98	39.322
626.31	39.688
626.64	40.366
626.97	39.685
627.30	40.243
627.63	39.760
627.96	40.616
628.29	40.700
628.62	40.050
628.95	40.403
629.28	39.507
629.61	41.077
629.94	40.000
630.26	39.746
630.59	40.328
630.92	40.260
631.25	41.145
631.58	42.279
631.91	41.612
632.24	41.402
632.57	42.220
632.90	42.628
633.23	42.143
633.56	43.163
633.89	42.562
634.22	43.139
634.55	42.902
634.88	43.290
635.20	43.488
635.53	44.181
635.86	42.470
636.19	43.478
636.52	41.983
636.85	41.369
637.18	40.852
637.51	42.258
637.83	44.961
