SpectraSuite Data File
++++++++++++++++++++++++++++++++++++
Date: Thu May 14 14:59:48 PDT 2015
User: schluterlab
Dark Spectrum Present: Yes
Reference Spectrum Present: Yes
Number of Sampled Component Spectra: 1
Spectrometers: USB2E3373
Integration Time (usec): 3000 (USB2E3373)
Spectra Averaged: 3 (USB2E3373)
Boxcar Smoothing: 0 (USB2E3373)
Correct for Electrical Dark: No (USB2E3373)
Strobe/Lamp Enabled: No (USB2E3373)
Correct for Detector Non-linearity: No (USB2E3373)
Correct for Stray Light: No (USB2E3373)
Number of Pixels in Processed Spectrum: 2048
>>>>>Begin Processed Spectral Data<<<<<
178.53	0.000
178.91	414.286
179.29	-3400.000
179.67	-2400.000
180.04	228.571
180.42	220.000
180.80	460.000
181.18	-2900.000
181.56	-1700.000
181.94	625.000
182.31	-575.000
182.69	866.667
183.07	-1200.000
183.45	400.000
183.83	-416.667
184.20	-966.667
184.58	1900.000
184.96	-650.000
185.34	-244.444
185.72	-220.000
186.09	322.222
186.47	1350.000
186.85	640.000
187.23	-277.778
187.61	-3300.000
187.98	560.000
188.36	850.000
188.74	-450.000
189.12	-566.667
189.49	-56.250
189.87	-275.000
190.25	-200.000
190.63	-480.000
191.00	-355.556
191.38	0.000
191.76	-475.000
192.14	-550.000
192.51	650.000
192.89	-266.667
193.27	0.000
193.65	-228.571
194.02	-2800.000
194.40	-357.143
194.78	300.000
195.15	0.000
195.53	-227.273
195.91	0.000
196.29	-500.000
196.66	-192.308
197.04	-2900.000
197.42	-485.714
197.79	-800.000
198.17	-225.000
198.55	-342.857
198.92	-144.444
199.30	-275.000
199.68	-81.818
200.05	-107.143
200.43	-1100.000
200.81	442.857
201.18	0.000
201.56	355.556
201.94	0.000
202.31	633.333
202.69	-266.667
203.07	2200.000
203.44	-222.222
203.82	-475.000
204.19	-191.667
204.57	-550.000
204.95	-350.000
205.32	-1200.000
205.70	700.000
206.08	-250.000
206.45	-133.333
206.83	540.000
207.20	-400.000
207.58	-620.000
207.96	-450.000
208.33	-233.333
208.71	258.333
209.08	-216.667
209.46	0.000
209.84	383.333
210.21	550.000
210.59	1100.000
210.96	933.333
211.34	-475.000
211.71	-262.500
212.09	-2100.000
212.46	0.000
212.84	1400.000
213.22	-440.000
213.59	-550.000
213.97	-190.000
214.34	-700.000
214.72	433.333
215.09	-750.000
215.47	0.000
215.84	385.714
216.22	1100.000
216.59	-460.000
216.97	-300.000
217.34	-450.000
217.72	-162.500
218.09	-625.000
218.47	-775.000
218.84	0.000
219.22	440.000
219.59	-105.882
219.97	-90.000
220.34	1300.000
220.72	-355.556
221.09	-115.385
221.47	-800.000
221.84	-230.000
222.22	-257.143
222.59	0.000
222.97	-312.500
223.34	-560.000
223.72	-2300.000
224.09	-725.000
224.46	-425.000
224.84	-260.000
225.21	-257.143
225.59	-500.000
225.96	-675.000
226.34	-73.077
226.71	416.667
227.08	-850.000
227.46	-66.667
227.83	-350.000
228.21	-89.474
228.58	375.000
228.95	1050.000
229.33	-158.333
229.70	-190.000
230.08	-42.105
230.45	210.000
230.82	-700.000
231.20	-135.714
231.57	-175.000
231.95	-200.000
232.32	-181.818
232.69	-115.000
233.07	-825.000
233.44	-135.294
233.81	-240.000
234.19	-83.333
234.56	-86.364
234.93	-44.828
235.31	-110.526
235.68	-116.667
236.05	-115.000
236.43	-46.154
236.80	-20.000
237.17	-92.593
237.55	-54.545
237.92	-260.000
238.29	-45.161
238.67	-27.273
239.04	-50.000
239.41	-47.619
239.79	-28.261
240.16	-18.519
240.53	-45.652
240.91	-56.863
241.28	-24.590
241.65	-17.910
242.02	-16.216
242.40	-24.615
242.77	-20.000
243.14	-12.195
243.51	-36.842
243.89	-32.051
244.26	-6.931
244.63	-1.961
245.00	-5.607
245.38	-9.649
245.75	-17.699
246.12	-7.143
246.49	-6.977
246.87	-3.571
247.24	-5.298
247.61	0.000
247.98	-8.725
248.36	-10.494
248.73	-7.975
249.10	-6.557
249.47	2.985
249.84	-3.141
250.22	-6.736
250.59	-1.111
250.96	3.182
251.33	-5.612
251.70	-1.282
252.08	-0.833
252.45	1.230
252.82	0.413
253.19	-1.172
253.56	0.000
253.94	-3.077
254.31	0.000
254.68	5.245
255.05	3.257
255.42	-1.701
255.79	-1.618
256.16	0.000
256.54	0.000
256.91	2.951
257.28	6.230
257.65	-1.592
258.02	1.475
258.39	1.994
258.76	4.281
259.14	4.598
259.51	1.729
259.88	2.266
260.25	1.944
260.62	3.836
260.99	6.011
261.36	4.558
261.73	3.979
262.10	1.923
262.47	2.949
262.85	4.798
263.22	1.558
263.59	1.316
263.96	4.604
264.33	-0.512
264.70	2.963
265.07	3.103
265.44	6.576
265.81	3.241
266.18	5.896
266.55	4.241
266.92	4.328
267.29	5.252
267.66	5.543
268.03	5.459
268.40	5.846
268.77	1.367
269.14	2.643
269.51	4.386
269.88	6.148
270.25	4.024
270.62	6.962
270.99	7.677
271.36	3.762
271.73	3.733
272.10	6.814
272.47	2.806
272.84	5.221
273.21	4.609
273.58	5.847
273.95	3.846
274.32	4.183
274.69	2.901
275.06	5.128
275.43	4.251
275.80	5.644
276.17	2.778
276.54	6.343
276.91	5.903
277.28	4.159
277.65	3.950
278.02	5.882
278.39	4.167
278.76	4.745
279.13	3.191
279.50	4.639
279.87	6.261
280.23	4.401
280.60	4.915
280.97	4.605
281.34	5.263
281.71	6.937
282.08	3.987
282.45	3.601
282.82	3.454
283.19	5.008
283.56	5.738
283.92	7.357
284.29	6.793
284.66	4.433
285.03	1.442
285.40	6.646
285.77	3.406
286.14	7.786
286.51	4.414
286.87	5.371
287.24	5.422
287.61	4.634
287.98	4.230
288.35	5.325
288.72	4.438
289.08	6.296
289.45	4.142
289.82	3.614
290.19	5.891
290.56	5.211
290.93	5.991
291.29	4.821
291.66	3.444
292.03	4.342
292.40	6.531
292.77	5.256
293.13	4.465
293.50	3.811
293.87	4.698
294.24	5.333
294.60	5.057
294.97	3.356
295.34	5.634
295.71	4.414
296.08	4.134
296.44	5.637
296.81	4.385
297.18	4.483
297.55	3.656
297.91	4.626
298.28	4.858
298.65	4.162
299.02	3.660
299.38	5.492
299.75	6.075
300.12	2.894
300.48	4.608
300.85	3.600
301.22	5.034
301.59	3.881
301.95	4.181
302.32	6.111
302.69	4.053
303.05	4.135
303.42	4.545
303.79	3.958
304.15	3.785
304.52	3.805
304.89	5.026
305.25	4.555
305.62	4.807
305.99	4.124
306.35	4.435
306.72	5.688
307.09	3.452
307.45	4.141
307.82	4.844
308.19	3.935
308.55	5.786
308.92	4.382
309.29	5.747
309.65	4.191
310.02	3.960
310.38	4.724
310.75	4.563
311.12	6.328
311.48	3.715
311.85	4.274
312.22	3.985
312.58	4.413
312.95	5.067
313.31	5.059
313.68	5.861
314.05	6.143
314.41	6.284
314.78	5.995
315.14	6.715
315.51	6.648
315.87	5.941
316.24	5.297
316.61	6.750
316.97	6.335
317.34	5.026
317.70	6.638
318.07	6.349
318.43	7.228
318.80	8.110
319.16	8.412
319.53	6.855
319.89	6.135
320.26	8.986
320.62	8.245
320.99	8.680
321.35	8.780
321.72	8.651
322.08	9.017
322.45	9.033
322.81	9.838
323.18	9.823
323.54	10.000
323.91	9.253
324.27	10.327
324.64	11.755
325.00	11.443
325.37	11.876
325.73	12.149
326.10	12.652
326.46	11.971
326.83	13.531
327.19	12.441
327.56	13.281
327.92	13.297
328.29	12.984
328.65	13.233
329.01	14.890
329.38	14.827
329.74	14.897
330.11	15.839
330.47	14.912
330.84	15.245
331.20	15.917
331.56	15.251
331.93	15.816
332.29	15.763
332.66	16.196
333.02	15.997
333.38	16.695
333.75	16.077
334.11	17.264
334.48	17.244
334.84	18.607
335.20	17.464
335.57	17.538
335.93	18.099
336.29	16.639
336.66	17.914
337.02	17.308
337.38	17.857
337.75	18.099
338.11	16.989
338.47	18.197
338.84	16.667
339.20	17.018
339.56	17.628
339.93	17.077
340.29	17.955
340.65	17.680
341.02	19.473
341.38	18.189
341.74	18.160
342.11	18.021
342.47	17.951
342.83	18.921
343.20	17.907
343.56	18.364
343.92	19.616
344.28	17.187
344.65	19.535
345.01	18.565
345.37	19.207
345.73	17.693
346.10	19.579
346.46	18.750
346.82	20.075
347.19	19.022
347.55	18.285
347.91	19.094
348.27	18.361
348.63	19.573
349.00	18.717
349.36	18.959
349.72	18.155
350.08	19.242
350.45	19.087
350.81	19.155
351.17	19.624
351.53	20.015
351.89	20.046
352.26	19.254
352.62	20.000
352.98	18.931
353.34	18.969
353.70	19.800
354.07	19.449
354.43	19.210
354.79	19.970
355.15	20.235
355.51	20.175
355.87	19.372
356.24	19.772
356.60	19.734
356.96	20.979
357.32	20.595
357.68	20.059
358.04	20.584
358.40	19.851
358.77	20.395
359.13	20.606
359.49	19.777
359.85	20.740
360.21	21.234
360.57	20.029
360.93	20.240
361.29	20.421
361.66	20.999
362.02	21.503
362.38	21.504
362.74	21.578
363.10	21.871
363.46	21.122
363.82	21.804
364.18	21.182
364.54	20.747
364.90	22.341
365.26	21.862
365.62	21.933
365.98	20.899
366.35	22.483
366.71	22.585
367.07	23.139
367.43	22.062
367.79	21.898
368.15	22.207
368.51	22.801
368.87	23.253
369.23	23.667
369.59	22.814
369.95	21.704
370.31	24.105
370.67	22.971
371.03	22.992
371.39	22.565
371.75	23.246
372.11	23.442
372.47	24.848
372.83	23.887
373.19	23.816
373.55	23.103
373.91	23.790
374.27	24.515
374.63	25.372
374.99	24.536
375.35	24.545
375.71	24.645
376.07	25.307
376.42	25.693
376.78	26.227
377.14	25.951
377.50	26.376
377.86	25.800
378.22	26.108
378.58	26.932
378.94	26.819
379.30	26.772
379.66	27.043
380.02	27.813
380.38	28.168
380.74	27.718
381.09	28.804
381.45	28.182
381.81	29.040
382.17	29.157
382.53	28.713
382.89	29.458
383.25	29.660
383.61	29.398
383.97	29.918
384.32	31.100
384.68	30.684
385.04	31.116
385.40	31.644
385.76	32.122
386.12	31.358
386.48	31.529
386.83	31.406
387.19	31.228
387.55	31.514
387.91	32.420
388.27	32.910
388.62	32.245
388.98	32.318
389.34	34.119
389.70	33.934
390.06	34.103
390.42	33.976
390.77	34.136
391.13	33.744
391.49	34.058
391.85	34.485
392.20	34.875
392.56	33.609
392.92	35.333
393.28	35.655
393.64	35.084
393.99	37.130
394.35	37.091
394.71	37.186
395.07	35.509
395.42	35.979
395.78	36.746
396.14	36.482
396.50	36.580
396.85	35.540
397.21	35.858
397.57	36.514
397.92	36.942
398.28	36.502
398.64	35.584
399.00	37.068
399.35	36.649
399.71	36.087
400.07	37.507
400.42	37.951
400.78	38.657
401.14	37.507
401.49	37.408
401.85	37.442
402.21	37.775
402.57	38.439
402.92	38.121
403.28	37.061
403.63	38.604
403.99	36.401
404.35	38.431
404.70	36.714
405.06	37.609
405.42	37.412
405.77	37.786
406.13	37.925
406.49	39.189
406.84	37.618
407.20	38.066
407.55	36.826
407.91	39.032
408.27	37.868
408.62	38.220
408.98	38.189
409.34	37.009
409.69	38.319
410.05	38.863
410.40	38.225
410.76	38.138
411.11	38.340
411.47	39.619
411.83	39.389
412.18	39.458
412.54	37.759
412.89	39.290
413.25	39.616
413.60	39.460
413.96	37.995
414.31	38.130
414.67	38.342
415.03	37.477
415.38	39.029
415.74	37.996
416.09	37.754
416.45	36.944
416.80	38.005
417.16	38.761
417.51	37.920
417.87	38.381
418.22	38.802
418.58	37.856
418.93	37.660
419.29	38.533
419.64	38.836
420.00	38.813
420.35	37.675
420.71	37.967
421.06	39.850
421.42	38.532
421.77	37.372
422.12	38.002
422.48	38.761
422.83	39.814
423.19	40.000
423.54	40.155
423.90	38.653
424.25	38.720
424.61	38.002
424.96	38.715
425.31	39.809
425.67	38.379
426.02	39.624
426.38	38.691
426.73	39.397
427.09	40.081
427.44	39.487
427.79	39.303
428.15	38.813
428.50	38.371
428.85	38.519
429.21	39.628
429.56	39.980
429.92	39.165
430.27	39.518
430.62	39.961
430.98	39.302
431.33	39.443
431.68	38.793
432.04	39.868
432.39	39.796
432.74	39.212
433.10	39.805
433.45	38.796
433.80	39.485
434.16	39.050
434.51	39.723
434.86	40.717
435.22	40.170
435.57	40.212
435.92	39.399
436.28	39.420
436.63	40.961
436.98	39.828
437.34	40.981
437.69	39.956
438.04	38.921
438.39	40.092
438.75	39.679
439.10	41.015
439.45	40.525
439.81	39.379
440.16	39.303
440.51	40.245
440.86	40.189
441.22	38.960
441.57	39.727
441.92	39.719
442.27	40.758
442.63	39.642
442.98	40.608
443.33	40.558
443.68	39.445
444.03	40.405
444.39	40.222
444.74	40.735
445.09	40.294
445.44	41.043
445.79	40.852
446.15	40.185
446.50	40.775
446.85	41.051
447.20	40.135
447.55	40.900
447.91	40.262
448.26	40.486
448.61	40.383
448.96	42.275
449.31	39.873
449.66	39.924
450.02	40.401
450.37	40.863
450.72	40.581
451.07	40.376
451.42	41.363
451.77	40.634
452.12	41.648
452.47	40.642
452.83	41.160
453.18	41.214
453.53	40.724
453.88	40.364
454.23	40.621
454.58	40.221
454.93	39.806
455.28	41.481
455.63	40.193
455.98	40.223
456.34	39.517
456.69	40.976
457.04	41.608
457.39	40.798
457.74	41.667
458.09	40.692
458.44	40.517
458.79	40.588
459.14	40.220
459.49	41.483
459.84	40.399
460.19	39.700
460.54	41.170
460.89	41.609
461.24	41.322
461.59	41.339
461.94	39.703
462.29	41.545
462.64	40.435
462.99	40.615
463.34	41.207
463.69	39.390
464.04	40.523
464.39	40.303
464.74	39.453
465.09	39.043
465.44	40.236
465.79	40.825
466.14	40.698
466.49	40.632
466.84	42.590
467.19	40.347
467.54	39.542
467.89	39.253
468.24	40.997
468.59	39.780
468.94	40.443
469.29	39.952
469.64	40.559
469.99	39.516
470.34	41.337
470.68	41.285
471.03	40.341
471.38	40.746
471.73	40.767
472.08	39.023
472.43	38.892
472.78	40.050
473.13	40.139
473.48	41.329
473.83	40.395
474.17	39.332
474.52	40.469
474.87	39.867
475.22	40.732
475.57	39.200
475.92	41.165
476.27	40.362
476.61	39.979
476.96	40.980
477.31	41.040
477.66	40.399
478.01	39.654
478.36	39.681
478.70	41.182
479.05	40.951
479.40	41.510
479.75	40.586
480.10	41.023
480.45	40.839
480.79	40.181
481.14	40.303
481.49	41.254
481.84	40.818
482.19	40.688
482.53	41.758
482.88	40.895
483.23	41.307
483.58	39.956
483.92	40.337
484.27	39.839
484.62	39.810
484.97	40.163
485.31	39.599
485.66	37.348
486.01	38.837
486.36	40.793
486.70	42.967
487.05	43.899
487.40	42.489
487.75	41.552
488.09	40.603
488.44	40.074
488.79	40.675
489.13	39.464
489.48	39.495
489.83	40.121
490.17	39.530
490.52	39.778
490.87	40.821
491.22	40.858
491.56	40.614
491.91	39.948
492.26	40.502
492.60	40.840
492.95	40.763
493.30	40.520
493.64	40.823
493.99	40.439
494.34	40.244
494.68	40.728
495.03	41.189
495.37	41.323
495.72	41.497
496.07	39.571
496.41	40.069
496.76	41.493
497.11	40.892
497.45	41.303
497.80	40.915
498.14	40.816
498.49	40.671
498.84	40.356
499.18	41.161
499.53	40.987
499.87	41.187
500.22	39.581
500.56	40.081
500.91	41.373
501.26	41.364
501.60	40.875
501.95	41.815
502.29	40.851
502.64	42.020
502.98	40.466
503.33	40.994
503.67	40.427
504.02	40.893
504.36	41.644
504.71	41.158
505.06	40.928
505.40	40.814
505.75	40.392
506.09	40.700
506.44	41.783
506.78	41.743
507.13	40.802
507.47	41.734
507.82	41.619
508.16	41.539
508.51	40.694
508.85	42.230
509.19	41.307
509.54	41.547
509.88	41.865
510.23	42.448
510.57	42.049
510.92	42.284
511.26	40.356
511.61	41.526
511.95	41.288
512.30	41.753
512.64	40.880
512.98	41.521
513.33	41.331
513.67	41.611
514.02	41.492
514.36	41.586
514.70	41.823
515.05	42.596
515.39	42.520
515.74	43.319
516.08	40.835
516.42	42.543
516.77	41.746
517.11	41.362
517.46	41.622
517.80	42.758
518.14	43.036
518.49	42.516
518.83	41.724
519.17	41.303
519.52	42.086
519.86	42.450
520.20	42.652
520.55	42.059
520.89	42.342
521.23	42.323
521.58	42.429
521.92	42.720
522.26	42.383
522.61	43.519
522.95	42.907
523.29	41.897
523.64	43.386
523.98	42.727
524.32	44.355
524.66	42.402
525.01	42.016
525.35	41.872
525.69	42.111
526.04	41.160
526.38	42.874
526.72	42.445
527.06	42.815
527.41	41.808
527.75	42.755
528.09	42.975
528.43	43.339
528.78	42.486
529.12	43.693
529.46	42.777
529.80	44.165
530.15	43.246
530.49	43.179
530.83	43.034
531.17	44.086
531.51	43.321
531.86	42.969
532.20	43.354
532.54	42.609
532.88	43.091
533.22	42.958
533.57	43.624
533.91	43.434
534.25	43.019
534.59	43.391
534.93	43.237
535.27	43.211
535.62	43.604
535.96	43.812
536.30	43.537
536.64	43.243
536.98	43.604
537.32	44.259
537.66	44.230
538.01	42.175
538.35	43.057
538.69	43.630
539.03	43.409
539.37	42.933
539.71	42.402
540.05	43.765
540.39	43.093
540.73	42.502
541.07	43.777
541.42	42.764
541.76	43.179
542.10	43.245
542.44	42.205
542.78	43.735
543.12	44.458
543.46	42.918
543.80	42.926
544.14	43.447
544.48	44.149
544.82	44.165
545.16	43.709
545.50	43.439
545.84	43.356
546.18	44.012
546.52	44.268
546.86	43.396
547.20	43.639
547.54	43.134
547.88	43.038
548.22	43.684
548.56	43.534
548.90	45.015
549.24	44.742
549.58	42.902
549.92	43.240
550.26	44.142
550.60	43.586
550.94	43.338
551.28	43.102
551.62	44.003
551.96	42.848
552.30	45.252
552.64	44.119
552.98	43.169
553.32	44.437
553.66	43.859
554.00	43.632
554.34	44.273
554.68	43.964
555.02	44.152
555.36	44.379
555.69	43.626
556.03	43.317
556.37	44.368
556.71	45.149
557.05	44.153
557.39	43.597
557.73	44.584
558.07	43.576
558.41	44.585
558.75	44.692
559.08	44.607
559.42	43.553
559.76	43.826
560.10	43.537
560.44	43.931
560.78	44.125
561.12	45.074
561.45	44.221
561.79	44.444
562.13	45.903
562.47	43.650
562.81	43.987
563.15	44.381
563.48	45.805
563.82	45.284
564.16	45.064
564.50	43.802
564.84	44.307
565.17	44.353
565.51	43.843
565.85	45.903
566.19	44.297
566.52	44.646
566.86	44.992
567.20	43.556
567.54	44.344
567.88	44.648
568.21	45.208
568.55	44.988
568.89	44.757
569.23	44.782
569.56	45.682
569.90	44.833
570.24	45.261
570.57	45.446
570.91	45.346
571.25	44.750
571.59	45.255
571.92	45.096
572.26	44.362
572.60	44.854
572.93	44.615
573.27	44.788
573.61	44.653
573.95	45.059
574.28	44.219
574.62	45.475
574.96	44.486
575.29	44.349
575.63	44.144
575.97	44.599
576.30	43.523
576.64	44.548
576.98	44.556
577.31	45.116
577.65	45.646
577.98	44.804
578.32	45.008
578.66	45.138
578.99	44.993
579.33	44.398
579.67	43.994
580.00	44.549
580.34	44.284
580.67	44.395
581.01	44.245
581.35	44.750
581.68	45.058
582.02	45.847
582.35	46.202
582.69	46.100
583.02	45.786
583.36	45.718
583.70	45.035
584.03	44.684
584.37	44.631
584.70	43.961
585.04	44.315
585.37	44.631
585.71	44.876
586.04	45.134
586.38	45.775
586.72	44.924
587.05	45.536
587.39	45.151
587.72	45.909
588.06	45.793
588.39	45.432
588.73	45.053
589.06	44.836
589.40	46.220
589.73	45.533
590.07	45.225
590.40	45.335
590.73	45.281
591.07	45.607
591.40	44.829
591.74	44.277
592.07	45.432
592.41	44.519
592.74	44.622
593.08	45.892
593.41	46.340
593.75	45.920
594.08	46.350
594.41	46.346
594.75	44.603
595.08	45.929
595.42	45.909
595.75	46.174
596.09	46.391
596.42	46.327
596.75	45.851
597.09	45.697
597.42	45.928
597.75	45.590
598.09	45.714
598.42	45.879
598.76	44.746
599.09	45.568
599.42	45.424
599.76	44.965
600.09	45.512
600.42	45.646
600.76	45.740
601.09	45.470
601.42	45.108
601.76	45.276
602.09	45.068
602.42	45.547
602.76	45.351
603.09	46.219
603.42	46.712
603.76	45.983
604.09	46.167
604.42	46.422
604.76	45.358
605.09	46.111
605.42	45.694
605.75	46.000
606.09	45.502
606.42	45.275
606.75	45.690
607.09	44.969
607.42	45.626
607.75	45.721
608.08	45.699
608.42	45.828
608.75	46.600
609.08	45.416
609.41	45.390
609.75	45.670
610.08	46.218
610.41	45.624
610.74	45.546
611.07	46.314
611.41	46.771
611.74	45.497
612.07	47.125
612.40	45.960
612.73	46.406
613.07	45.819
613.40	46.054
613.73	45.787
614.06	45.927
614.39	45.335
614.72	44.978
615.06	45.236
615.39	45.916
615.72	45.877
616.05	45.653
616.38	46.569
616.71	46.134
617.05	46.592
617.38	45.586
617.71	45.464
618.04	47.167
618.37	47.268
618.70	46.719
619.03	45.818
619.36	45.746
619.69	46.381
620.03	46.077
620.36	46.196
620.69	46.206
621.02	46.588
621.35	47.460
621.68	46.927
622.01	47.117
622.34	46.444
622.67	46.460
623.00	44.197
623.33	47.379
623.66	46.887
623.99	46.807
624.32	48.018
624.65	45.495
624.99	48.244
625.32	47.877
625.65	46.392
625.98	45.085
626.31	46.563
626.64	46.960
626.97	47.112
627.30	46.317
627.63	46.662
627.96	47.973
628.29	46.537
628.62	46.012
628.95	47.239
629.28	46.389
629.61	46.128
629.94	47.531
630.26	46.949
630.59	46.200
630.92	46.494
631.25	47.764
631.58	47.363
631.91	48.172
632.24	47.646
632.57	47.059
632.90	46.239
633.23	46.837
633.56	47.041
633.89	45.764
634.22	46.881
634.55	47.912
634.88	45.563
