SpectraSuite Data File
++++++++++++++++++++++++++++++++++++
Date: Thu May 14 14:57:40 PDT 2015
User: schluterlab
Dark Spectrum Present: Yes
Reference Spectrum Present: Yes
Number of Sampled Component Spectra: 1
Spectrometers: USB2E3373
Integration Time (usec): 3000 (USB2E3373)
Spectra Averaged: 3 (USB2E3373)
Boxcar Smoothing: 0 (USB2E3373)
Correct for Electrical Dark: No (USB2E3373)
Strobe/Lamp Enabled: No (USB2E3373)
Correct for Detector Non-linearity: No (USB2E3373)
Correct for Stray Light: No (USB2E3373)
Number of Pixels in Processed Spectrum: 2048
>>>>>Begin Processed Spectral Data<<<<<
178.53	0.000
178.91	357.143
179.29	-3000.000
179.67	-2800.000
180.04	271.429
180.42	220.000
180.80	420.000
181.18	-2100.000
181.56	-1100.000
181.94	600.000
182.31	-600.000
182.69	833.333
183.07	-900.000
183.45	575.000
183.83	-250.000
184.20	-633.333
184.58	2200.000
184.96	-750.000
185.34	-277.778
185.72	-320.000
186.09	355.556
186.47	1250.000
186.85	640.000
187.23	-277.778
187.61	-1800.000
187.98	320.000
188.36	525.000
188.74	-675.000
189.12	-600.000
189.49	-68.750
189.87	-212.500
190.25	-144.444
190.63	-320.000
191.00	-311.111
191.38	0.000
191.76	-600.000
192.14	-366.667
192.51	1200.000
192.89	-183.333
193.27	0.000
193.65	-171.429
194.02	-2900.000
194.40	-271.429
194.78	371.429
195.15	0.000
195.53	-109.091
195.91	0.000
196.29	-425.000
196.66	-100.000
197.04	-1300.000
197.42	-314.286
197.79	-650.000
198.17	-150.000
198.55	-185.714
198.92	-133.333
199.30	-225.000
199.68	-163.636
200.05	-78.571
200.43	-1300.000
200.81	300.000
201.18	0.000
201.56	277.778
201.94	0.000
202.31	1033.333
202.69	-366.667
203.07	1800.000
203.44	-211.111
203.82	-325.000
204.19	-116.667
204.57	-366.667
204.95	-275.000
205.32	-2200.000
205.70	550.000
206.08	-216.667
206.45	-183.333
206.83	460.000
207.20	-466.667
207.58	-520.000
207.96	-450.000
208.33	-116.667
208.71	275.000
209.08	-200.000
209.46	0.000
209.84	483.333
210.21	1000.000
210.59	1250.000
210.96	800.000
211.34	-325.000
211.71	-325.000
212.09	-2300.000
212.46	0.000
212.84	1700.000
213.22	-420.000
213.59	-400.000
213.97	-250.000
214.34	-633.333
214.72	433.333
215.09	-725.000
215.47	0.000
215.84	271.429
216.22	950.000
216.59	-200.000
216.97	-380.000
217.34	-350.000
217.72	-225.000
218.09	-625.000
218.47	-400.000
218.84	0.000
219.22	400.000
219.59	-129.412
219.97	-65.000
220.34	1600.000
220.72	-211.111
221.09	-100.000
221.47	-600.000
221.84	-170.000
222.22	-257.143
222.59	0.000
222.97	-262.500
223.34	-540.000
223.72	-2000.000
224.09	-400.000
224.46	-600.000
224.84	-300.000
225.21	-428.571
225.59	-600.000
225.96	-650.000
226.34	-50.000
226.71	466.667
227.08	-1200.000
227.46	-80.000
227.83	-550.000
228.21	-57.895
228.58	237.500
228.95	1300.000
229.33	-158.333
229.70	-180.000
230.08	-36.842
230.45	230.000
230.82	-833.333
231.20	-157.143
231.57	-158.333
231.95	-145.455
232.32	-118.182
232.69	-45.000
233.07	-425.000
233.44	-129.412
233.81	-230.000
234.19	-88.889
234.56	-45.455
234.93	-27.586
235.31	-57.895
235.68	-122.222
236.05	-120.000
236.43	-30.769
236.80	-16.000
237.17	-22.222
237.55	-45.455
237.92	-250.000
238.29	-41.935
238.67	-36.364
239.04	-44.444
239.41	-66.667
239.79	-41.304
240.16	-42.593
240.53	-56.522
240.91	-66.667
241.28	-34.426
241.65	-25.373
242.02	-17.568
242.40	-52.308
242.77	-18.667
243.14	-23.171
243.51	-40.789
243.89	-23.077
244.26	-15.842
244.63	-5.882
245.00	-17.757
245.38	-21.053
245.75	-30.088
246.12	-12.698
246.49	-19.380
246.87	-12.143
247.24	-10.596
247.61	-7.237
247.98	-16.107
248.36	-14.815
248.73	-16.564
249.10	-12.568
249.47	-4.975
249.84	-2.094
250.22	-12.435
250.59	-10.000
250.96	-2.727
251.33	-14.286
251.70	-8.547
252.08	-9.583
252.45	-4.098
252.82	-7.851
253.19	-9.766
253.56	-8.745
253.94	-7.308
254.31	-9.091
254.68	-4.196
255.05	-2.606
255.42	-6.122
255.79	-5.825
256.16	-4.305
256.54	-7.616
256.91	-4.918
257.28	-6.885
257.65	-8.280
258.02	-8.555
258.39	-4.558
258.76	-3.058
259.14	-3.736
259.51	-7.205
259.88	-7.932
260.25	-5.556
260.62	-6.301
260.99	-2.186
261.36	-3.753
261.73	-6.101
262.10	-5.220
262.47	-5.094
262.85	-2.020
263.22	-6.234
263.59	-8.684
263.96	-4.348
264.33	-8.951
264.70	-6.173
265.07	-3.103
265.44	0.454
265.81	-3.241
266.18	-2.721
266.55	-2.902
266.92	-5.467
267.29	-2.407
267.66	-3.548
268.03	-4.148
268.40	-3.967
268.77	-5.467
269.14	-3.965
269.51	-3.509
269.88	-2.049
270.25	-1.207
270.62	-3.165
270.99	-2.222
271.36	-0.792
271.73	-1.179
272.10	-2.204
272.47	-2.806
272.84	-3.414
273.21	-3.006
273.58	-4.032
273.95	-3.654
274.32	-4.563
274.69	-4.449
275.06	-0.366
275.43	-3.882
275.80	-0.176
276.17	-3.889
276.54	-2.985
276.91	-3.578
277.28	-3.074
277.65	-3.052
278.02	-3.125
278.39	-4.891
278.76	-5.097
279.13	-2.837
279.50	-1.890
279.87	-1.968
280.23	-5.458
280.60	-1.186
280.97	-1.809
281.34	-4.244
281.71	-1.354
282.08	-3.322
282.45	-3.437
282.82	-2.198
283.19	-4.523
283.56	-4.262
283.92	-1.952
284.29	-1.896
284.66	-1.149
285.03	-4.327
285.40	-2.164
285.77	-2.477
286.14	-0.458
286.51	-2.435
286.87	-1.896
287.24	-1.807
287.61	-3.737
287.98	-2.266
288.35	-3.107
288.72	-1.331
289.08	-2.343
289.45	-2.515
289.82	-2.560
290.19	-2.155
290.56	-1.549
290.93	-1.997
291.29	-1.928
291.66	-1.791
292.03	-1.357
292.40	-1.497
292.77	-0.943
293.13	-0.406
293.50	-2.365
293.87	-2.148
294.24	-1.600
294.60	-0.885
294.97	-2.148
295.34	-0.640
295.71	-1.387
296.08	-1.550
296.44	-1.225
296.81	-0.609
297.18	-1.121
297.55	-1.179
297.91	-2.017
298.28	-2.962
298.65	-0.713
299.02	-1.063
299.38	-0.915
299.75	-0.701
300.12	-1.736
300.48	-1.498
300.85	-0.562
301.22	0.112
301.59	-1.484
301.95	-0.113
302.32	0.667
302.69	-1.314
303.05	-0.218
303.42	-0.887
303.79	0.104
304.15	0.736
304.52	-1.163
304.89	0.000
305.25	-0.207
305.62	-1.881
305.99	0.000
306.35	0.202
306.72	0.414
307.09	-1.320
307.45	-0.311
307.82	0.000
308.19	0.101
308.55	0.868
308.92	0.389
309.29	-0.287
309.65	0.000
310.02	0.891
310.38	0.000
310.75	0.680
311.12	1.726
311.48	0.587
311.85	1.045
312.22	1.518
312.58	1.127
312.95	0.765
313.31	1.716
313.68	2.106
314.05	3.071
314.41	2.823
314.78	1.907
315.14	2.178
315.51	4.247
315.87	2.790
316.24	4.292
316.61	4.529
316.97	3.439
317.34	3.351
317.70	4.716
318.07	5.026
318.43	4.932
318.80	7.191
319.16	4.979
319.53	4.799
319.89	6.135
320.26	7.117
320.62	5.851
320.99	7.110
321.35	7.579
321.72	9.023
322.08	8.206
322.45	8.943
322.81	10.108
323.18	10.619
323.54	11.293
323.91	10.765
324.27	11.360
324.64	12.846
325.00	13.018
325.37	14.414
325.73	14.050
326.10	16.221
326.46	16.368
326.83	17.294
327.19	18.110
327.56	18.103
327.92	19.040
328.29	19.113
328.65	19.849
329.01	21.489
329.38	21.567
329.74	23.373
330.11	23.031
330.47	22.999
330.84	23.428
331.20	23.333
331.56	24.177
331.93	24.686
332.29	25.593
332.66	24.751
333.02	24.037
333.38	24.832
333.75	26.010
334.11	26.188
334.48	26.320
334.84	27.528
335.20	26.868
335.57	26.813
335.93	26.777
336.29	26.206
336.66	27.334
337.02	26.923
337.38	28.231
337.75	25.702
338.11	28.175
338.47	28.453
338.84	27.073
339.20	26.032
339.56	26.524
339.93	26.765
340.29	27.053
340.65	26.521
341.02	28.093
341.38	27.890
341.74	27.603
342.11	26.468
342.47	26.450
342.83	27.456
343.20	27.964
343.56	27.426
343.92	28.343
344.28	26.797
344.65	29.690
345.01	28.003
345.37	27.760
345.73	26.578
346.10	28.471
346.46	28.165
346.82	28.090
347.19	26.814
347.55	28.983
347.91	27.712
348.27	28.832
348.63	27.418
349.00	27.890
349.36	27.584
349.72	27.232
350.08	28.975
350.45	26.996
350.81	27.677
351.17	28.797
351.53	28.961
351.89	27.259
352.26	28.134
352.62	28.209
352.98	29.542
353.34	26.811
353.70	28.197
354.07	28.018
354.43	28.626
354.79	29.319
355.15	28.403
355.51	28.655
355.87	27.375
356.24	28.137
356.60	27.494
356.96	29.207
357.32	28.401
357.68	28.111
358.04	27.844
358.40	28.881
358.77	28.070
359.13	28.582
359.49	27.955
359.85	27.774
360.21	29.125
360.57	28.571
360.93	28.984
361.29	29.263
361.66	29.037
362.02	29.715
362.38	28.461
362.74	28.841
363.10	29.711
363.46	29.778
363.82	29.688
364.18	29.346
364.54	29.115
364.90	29.097
365.26	28.621
365.62	29.600
365.98	29.272
366.35	29.060
366.71	29.388
367.07	30.785
367.43	30.138
367.79	29.529
368.15	31.371
368.51	29.499
368.87	30.960
369.23	30.133
369.59	31.762
369.95	29.615
370.31	30.587
370.67	30.605
371.03	31.302
371.39	29.819
371.75	31.155
372.11	29.268
372.47	29.790
372.83	30.825
373.19	31.488
373.55	31.233
373.91	30.948
374.27	30.660
374.63	32.138
374.99	30.968
375.35	31.818
375.71	31.935
376.07	31.440
376.42	32.368
376.78	31.635
377.14	32.502
377.50	32.005
377.86	32.882
378.22	32.275
378.58	32.878
378.94	32.042
379.30	32.396
379.66	33.039
380.02	33.295
380.38	33.353
380.74	33.465
381.09	32.520
381.45	33.068
381.81	34.602
382.17	32.957
382.53	33.801
382.89	32.167
383.25	33.705
383.61	33.565
383.97	32.862
384.32	33.612
384.68	33.295
385.04	34.991
385.40	34.708
385.76	34.408
386.12	33.573
386.48	35.118
386.83	34.565
387.19	33.951
387.55	33.568
387.91	34.589
388.27	34.642
388.62	33.333
388.98	33.897
389.34	34.649
389.70	35.328
390.06	34.991
390.42	34.398
390.77	34.979
391.13	34.918
391.49	35.507
391.85	35.455
392.20	35.469
392.56	34.731
392.92	35.333
393.28	35.268
393.64	35.475
393.99	36.374
394.35	36.449
394.71	35.090
395.07	35.210
395.42	35.751
395.78	37.112
396.14	35.651
396.50	36.461
396.85	35.540
397.21	35.385
397.57	36.278
397.92	36.598
398.28	35.470
398.64	36.213
399.00	35.759
399.35	35.550
399.71	35.924
400.07	37.451
400.42	36.671
400.78	36.574
401.14	35.800
401.49	36.669
401.85	35.640
402.21	36.790
402.57	37.031
402.92	35.934
403.28	35.714
403.63	35.800
403.99	35.986
404.35	35.247
404.70	35.921
405.06	35.707
405.42	36.358
405.77	37.895
406.13	37.007
406.49	37.387
406.84	36.898
407.20	37.004
407.55	35.978
407.91	37.775
408.27	36.160
408.62	36.824
408.98	36.854
409.34	36.305
409.69	37.083
410.05	38.628
410.40	36.659
410.76	37.072
411.11	37.522
411.47	37.654
411.83	37.272
412.18	37.410
412.54	37.285
412.89	36.962
413.25	37.246
413.60	37.967
413.96	38.578
414.31	37.507
414.67	38.402
415.03	37.969
415.38	38.020
415.74	37.324
416.09	39.235
416.45	37.570
416.80	37.515
417.16	38.250
417.51	37.547
417.87	39.424
418.22	39.162
418.58	38.538
418.93	39.290
419.29	38.656
419.64	38.355
420.00	38.398
420.35	39.865
420.71	39.288
421.06	39.678
421.42	38.647
421.77	39.634
422.12	39.271
422.48	40.348
422.83	41.785
423.19	41.273
423.54	42.035
423.90	41.248
424.25	40.853
424.61	41.332
424.96	40.692
425.31	41.932
425.67	41.868
426.02	42.114
426.38	42.480
426.73	41.853
427.09	43.022
427.44	41.016
427.79	42.123
428.15	42.865
428.50	44.326
428.85	43.226
429.21	43.564
429.56	42.547
429.92	42.801
430.27	43.325
430.62	43.136
430.98	44.319
431.33	44.379
431.68	43.487
432.04	44.997
432.39	44.724
432.74	45.091
433.10	45.809
433.45	43.924
433.80	44.957
434.16	44.886
434.51	46.917
434.86	46.851
435.22	46.227
435.57	47.229
435.92	46.633
436.28	47.270
436.63	46.750
436.98	46.216
437.34	46.449
437.69	46.450
438.04	48.123
438.39	46.065
438.75	47.427
439.10	47.939
439.45	45.836
439.81	48.475
440.16	47.882
440.51	47.715
440.86	47.582
441.22	46.892
441.57	48.585
441.92	47.818
442.27	49.293
442.63	48.932
442.98	48.559
443.33	49.290
443.68	49.207
444.03	50.094
444.39	50.532
444.74	49.668
445.09	48.961
445.44	50.211
445.79	50.335
446.15	50.771
446.50	49.871
446.85	50.146
447.20	50.967
447.55	49.738
447.91	49.476
448.26	50.476
448.61	50.903
448.96	51.288
449.31	51.326
449.66	50.218
450.02	52.426
450.37	50.400
450.72	51.023
451.07	51.481
451.42	50.953
451.77	51.140
452.12	52.596
452.47	51.337
452.83	53.491
453.18	51.956
453.53	51.407
453.88	51.022
454.23	52.316
454.58	52.873
454.93	51.517
455.28	53.341
455.63	51.052
455.98	52.458
456.34	52.532
456.69	52.381
457.04	52.955
457.39	52.550
457.74	52.237
458.09	53.103
458.44	52.856
458.79	52.656
459.14	52.596
459.49	54.499
459.84	53.568
460.19	52.971
460.54	54.003
460.89	54.526
461.24	53.506
461.59	54.289
461.94	53.851
462.29	53.639
462.64	53.168
462.99	54.175
463.34	54.121
463.69	52.872
464.04	53.530
464.39	53.587
464.74	52.395
465.09	53.287
465.44	53.326
465.79	54.098
466.14	53.622
466.49	54.158
466.84	54.821
467.19	54.624
467.54	52.115
467.89	53.908
468.24	54.072
468.59	53.735
468.94	53.730
469.29	53.929
469.64	53.020
469.99	54.175
470.34	52.723
470.68	54.887
471.03	54.813
471.38	53.761
471.73	54.486
472.08	55.584
472.43	54.244
472.78	55.605
473.13	55.563
473.48	54.683
473.83	55.659
474.17	55.041
474.52	55.442
474.87	53.931
475.22	54.648
475.57	53.738
475.92	54.405
476.27	54.526
476.61	53.790
476.96	54.171
477.31	54.752
477.66	55.929
478.01	54.143
478.36	54.038
478.70	54.926
479.05	56.237
479.40	56.022
479.75	55.139
480.10	54.856
480.45	55.469
480.79	55.692
481.14	54.412
481.49	55.157
481.84	55.744
482.19	55.570
482.53	55.750
482.88	56.402
483.23	55.136
483.58	54.803
483.92	54.965
484.27	53.514
484.62	53.795
484.97	55.132
485.31	54.629
485.66	51.175
486.01	53.149
486.36	55.824
486.70	58.687
487.05	59.806
487.40	57.511
487.75	55.751
488.09	54.382
488.44	53.884
488.79	53.963
489.13	53.621
489.48	53.903
489.83	54.769
490.17	54.638
490.52	54.475
490.87	54.399
491.22	56.066
491.56	55.290
491.91	54.950
492.26	55.128
492.60	54.700
492.95	55.551
493.30	55.356
493.64	54.577
493.99	55.175
494.34	55.618
494.68	54.218
495.03	55.463
495.37	56.236
495.72	55.918
496.07	55.521
496.41	54.397
496.76	55.713
497.11	55.414
497.45	55.891
497.80	55.398
498.14	54.694
498.49	55.239
498.84	55.073
499.18	54.791
499.53	55.516
499.87	56.000
500.22	55.031
500.56	55.466
500.91	56.018
501.26	55.182
501.60	54.750
501.95	55.493
502.29	55.375
502.64	55.750
502.98	54.357
503.33	54.384
503.67	55.648
504.02	55.560
504.36	56.524
504.71	55.168
505.06	54.934
505.40	54.662
505.75	54.781
506.09	55.157
506.44	55.571
506.78	55.688
507.13	57.031
507.47	55.898
507.82	54.830
508.16	55.449
508.51	54.946
508.85	56.164
509.19	55.377
509.54	56.532
509.88	54.832
510.23	57.115
510.57	55.824
510.92	55.201
511.26	54.882
511.61	54.322
511.95	55.100
512.30	55.884
512.64	54.473
512.98	55.428
513.33	54.889
513.67	55.686
514.02	55.084
514.36	55.703
514.70	55.104
515.05	55.631
515.39	55.013
515.74	54.984
516.08	56.260
516.42	56.201
516.77	55.783
517.11	55.338
517.46	55.620
517.80	55.746
518.14	56.148
518.49	55.694
518.83	53.858
519.17	54.066
519.52	55.556
519.86	55.174
520.20	55.059
520.55	54.491
520.89	56.025
521.23	54.997
521.58	56.554
521.92	54.674
522.26	53.666
522.61	55.208
522.95	54.960
523.29	56.322
523.64	53.475
523.98	54.649
524.32	55.759
524.66	56.688
525.01	54.360
525.35	54.509
525.69	55.278
526.04	54.018
526.38	54.368
526.72	53.922
527.06	54.721
527.41	53.469
527.75	55.701
528.09	54.368
528.43	53.464
528.78	55.029
529.12	54.071
529.46	54.356
529.80	54.691
530.15	55.072
530.49	54.626
530.83	54.250
531.17	53.226
531.51	53.971
531.86	54.207
532.20	54.024
532.54	53.082
532.88	54.182
533.22	53.035
533.57	53.260
533.91	53.255
534.25	53.420
534.59	54.943
534.93	53.198
535.27	53.577
535.62	54.861
535.96	53.632
536.30	54.113
536.64	54.234
536.98	53.813
537.32	52.654
537.66	53.400
538.01	51.903
538.35	53.045
538.69	53.966
539.03	54.016
539.37	53.298
539.71	53.574
540.05	54.556
540.39	52.995
540.73	52.641
541.07	53.525
541.42	51.388
541.76	51.186
542.10	53.559
542.44	53.532
542.78	52.311
543.12	51.549
543.46	52.198
543.80	51.739
544.14	52.843
544.48	52.482
544.82	53.262
545.16	53.309
545.50	53.206
545.84	51.072
546.18	53.086
546.52	52.675
546.86	51.824
547.20	52.990
547.54	52.122
547.88	52.080
548.22	51.170
548.56	50.790
548.90	52.358
549.24	51.793
549.58	52.744
549.92	51.658
550.26	51.909
550.60	51.755
550.94	52.652
551.28	51.023
551.62	52.089
551.96	50.162
552.30	51.689
552.64	52.645
552.98	52.090
553.32	52.926
553.66	53.569
554.00	52.774
554.34	51.351
554.68	52.808
555.02	52.891
555.36	52.926
555.69	51.249
556.03	52.081
556.37	52.879
556.71	52.822
557.05	51.693
557.39	51.294
557.73	51.321
558.07	51.192
558.41	51.894
558.75	50.980
559.08	51.775
559.42	50.617
559.76	50.678
560.10	50.234
560.44	50.792
560.78	51.875
561.12	52.032
561.45	52.129
561.79	50.977
562.13	52.002
562.47	50.678
562.81	50.127
563.15	50.821
563.48	50.777
563.82	51.632
564.16	49.667
564.50	51.311
564.84	51.032
565.17	50.706
565.51	48.964
565.85	50.594
566.19	49.539
566.52	51.200
566.86	50.255
567.20	50.136
567.54	50.133
567.88	51.427
568.21	50.642
568.55	51.319
568.89	50.159
569.23	50.106
569.56	50.293
569.90	50.249
570.24	50.927
570.57	50.160
570.91	49.969
571.25	49.176
571.59	49.819
571.92	49.600
572.26	49.709
572.60	49.713
572.93	48.928
573.27	48.469
573.61	48.624
573.95	48.531
574.28	48.820
574.62	48.749
574.96	48.147
575.29	48.182
575.63	48.764
575.97	48.479
576.30	47.126
576.64	48.199
576.98	48.155
577.31	48.182
577.65	48.638
577.98	48.532
578.32	48.189
578.66	47.644
578.99	48.106
579.33	47.688
579.67	47.189
580.00	46.820
580.34	46.924
580.67	46.911
581.01	47.447
581.35	47.652
581.68	47.613
582.02	47.704
582.35	48.602
582.69	48.666
583.02	48.514
583.36	47.731
583.70	46.898
584.03	46.460
584.37	46.433
584.70	45.966
585.04	46.036
585.37	46.885
585.71	47.033
586.04	47.248
586.38	47.400
586.72	46.979
587.05	47.301
587.39	47.794
587.72	48.134
588.06	47.292
588.39	47.249
588.73	46.614
589.06	47.319
589.40	47.296
589.73	47.108
590.07	46.054
590.40	46.518
590.73	46.554
591.07	46.649
591.40	46.501
591.74	46.065
592.07	46.935
592.41	45.899
592.74	46.255
593.08	46.752
593.41	47.507
593.75	47.213
594.08	47.289
594.41	47.308
594.75	46.098
595.08	45.828
595.42	47.370
595.75	46.367
596.09	47.103
596.42	46.363
596.75	45.735
597.09	46.020
597.42	45.967
597.75	45.668
598.09	45.000
598.42	46.643
598.76	45.969
599.09	45.710
599.42	45.391
599.76	45.229
600.09	46.213
600.42	45.612
600.76	45.641
601.09	45.105
601.42	45.280
601.76	45.172
602.09	45.104
602.42	44.348
602.76	44.945
603.09	44.567
603.42	45.376
603.76	44.926
604.09	45.422
604.42	45.101
604.76	44.292
605.09	44.475
605.42	43.860
605.75	43.923
606.09	44.905
606.42	44.874
606.75	43.703
607.09	44.547
607.42	43.699
607.75	44.431
608.08	44.002
608.42	43.329
608.75	43.532
609.08	43.803
609.41	44.993
609.75	44.821
610.08	45.119
610.41	42.863
610.74	43.655
611.07	44.405
611.41	43.677
611.74	44.480
612.07	43.291
612.40	43.774
612.73	44.499
613.07	43.325
613.40	43.600
613.73	42.610
614.06	43.474
614.39	43.392
614.72	43.086
615.06	41.675
615.39	42.871
615.72	43.365
616.05	43.468
616.38	44.097
616.71	42.581
617.05	42.652
617.38	42.536
617.71	42.549
618.04	42.742
618.37	44.372
618.70	42.930
619.03	43.489
619.36	42.972
619.69	42.409
620.03	42.938
620.36	42.270
620.69	42.566
621.02	42.323
621.35	43.106
621.68	43.384
622.01	42.135
622.34	41.004
622.67	42.955
623.00	41.296
623.33	42.933
623.66	43.126
623.99	41.540
624.32	43.340
624.65	41.763
624.99	42.848
625.32	42.195
625.65	42.481
625.98	41.492
626.31	42.169
626.64	42.418
626.97	41.110
627.30	40.319
627.63	41.785
627.96	42.868
628.29	41.089
628.62	40.638
628.95	42.156
629.28	41.461
629.61	40.657
629.94	40.669
630.26	41.695
630.59	42.228
630.92	40.606
631.25	42.755
