SpectraSuite Data File
++++++++++++++++++++++++++++++++++++
Date: Thu May 14 14:51:48 PDT 2015
User: schluterlab
Dark Spectrum Present: Yes
Reference Spectrum Present: Yes
Number of Sampled Component Spectra: 1
Spectrometers: USB2E3373
Integration Time (usec): 3000 (USB2E3373)
Spectra Averaged: 3 (USB2E3373)
Boxcar Smoothing: 0 (USB2E3373)
Correct for Electrical Dark: No (USB2E3373)
Strobe/Lamp Enabled: No (USB2E3373)
Correct for Detector Non-linearity: No (USB2E3373)
Correct for Stray Light: No (USB2E3373)
Number of Pixels in Processed Spectrum: 2048
>>>>>Begin Processed Spectral Data<<<<<
178.53	0.000
178.91	200.000
179.29	-1400.000
179.67	-800.000
180.04	171.429
180.42	160.000
180.80	380.000
181.18	-1300.000
181.56	100.000
181.94	425.000
182.31	-325.000
182.69	633.333
183.07	50.000
183.45	350.000
183.83	0.000
184.20	-366.667
184.58	800.000
184.96	-400.000
185.34	-122.222
185.72	-80.000
186.09	211.111
186.47	900.000
186.85	360.000
187.23	-222.222
187.61	-1700.000
187.98	200.000
188.36	350.000
188.74	-225.000
189.12	-233.333
189.49	-25.000
189.87	-125.000
190.25	-77.778
190.63	-200.000
191.00	-188.889
191.38	0.000
191.76	-475.000
192.14	-266.667
192.51	350.000
192.89	-33.333
193.27	0.000
193.65	-85.714
194.02	-1500.000
194.40	-28.571
194.78	214.286
195.15	0.000
195.53	-9.091
195.91	0.000
196.29	-50.000
196.66	-53.846
197.04	-1700.000
197.42	-128.571
197.79	-450.000
198.17	-37.500
198.55	-85.714
198.92	-44.444
199.30	-62.500
199.68	9.091
200.05	7.143
200.43	-800.000
200.81	257.143
201.18	0.000
201.56	311.111
201.94	0.000
202.31	533.333
202.69	-122.222
203.07	400.000
203.44	-44.444
203.82	-325.000
204.19	-41.667
204.57	-50.000
204.95	-25.000
205.32	-500.000
205.70	175.000
206.08	-133.333
206.45	-150.000
206.83	440.000
207.20	-83.333
207.58	-300.000
207.96	-233.333
208.33	-33.333
208.71	75.000
209.08	-216.667
209.46	0.000
209.84	333.333
210.21	800.000
210.59	150.000
210.96	333.333
211.34	-250.000
211.71	12.500
212.09	0.000
212.46	0.000
212.84	950.000
213.22	-240.000
213.59	-100.000
213.97	60.000
214.34	-100.000
214.72	100.000
215.09	-50.000
215.47	0.000
215.84	214.286
216.22	850.000
216.59	-120.000
216.97	-120.000
217.34	-350.000
217.72	0.000
218.09	-275.000
218.47	-350.000
218.84	0.000
219.22	80.000
219.59	-5.882
219.97	0.000
220.34	450.000
220.72	-66.667
221.09	7.692
221.47	-133.333
221.84	-60.000
222.22	-57.143
222.59	0.000
222.97	-37.500
223.34	-280.000
223.72	-200.000
224.09	-200.000
224.46	-300.000
224.84	-60.000
225.21	-257.143
225.59	-300.000
225.96	-425.000
226.34	-11.538
226.71	216.667
227.08	-350.000
227.46	-13.333
227.83	-275.000
228.21	26.316
228.58	62.500
228.95	250.000
229.33	16.667
229.70	-50.000
230.08	21.053
230.45	190.000
230.82	-233.333
231.20	-28.571
231.57	-50.000
231.95	-90.909
232.32	-54.545
232.69	-20.000
233.07	-225.000
233.44	-76.471
233.81	-90.000
234.19	0.000
234.56	22.727
234.93	-6.897
235.31	-57.895
235.68	-77.778
236.05	-15.000
236.43	30.769
236.80	4.000
237.17	-7.407
237.55	21.212
237.92	-160.000
238.29	-25.806
238.67	4.545
239.04	8.333
239.41	-14.286
239.79	-23.913
240.16	7.407
240.53	4.348
240.91	0.000
241.28	8.197
241.65	7.463
242.02	8.108
242.40	15.385
242.77	14.667
243.14	2.439
243.51	-2.632
243.89	10.256
244.26	9.901
244.63	18.627
245.00	12.150
245.38	11.404
245.75	-0.885
246.12	13.492
246.49	3.876
246.87	11.429
247.24	12.583
247.61	11.842
247.98	13.423
248.36	7.407
248.73	2.454
249.10	13.115
249.47	14.925
249.84	16.230
250.22	8.290
250.59	16.667
250.96	17.273
251.33	11.224
251.70	17.094
252.08	12.500
252.45	9.426
252.82	12.810
253.19	11.328
253.56	14.068
253.94	8.462
254.31	16.288
254.68	13.986
255.05	13.681
255.42	14.966
255.79	12.298
256.16	14.570
256.54	9.603
256.91	14.754
257.28	15.082
257.65	11.783
258.02	11.504
258.39	12.821
258.76	15.902
259.14	18.966
259.51	10.951
259.88	11.898
260.25	14.167
260.62	15.616
260.99	15.027
261.36	17.426
261.73	13.528
262.10	13.736
262.47	16.354
262.85	16.667
263.22	12.208
263.59	11.053
263.96	16.113
264.33	15.601
264.70	16.543
265.07	15.990
265.44	17.914
265.81	14.352
266.18	16.100
266.55	14.955
266.92	12.528
267.29	13.567
267.66	13.082
268.03	15.284
268.40	14.405
268.77	12.073
269.14	12.335
269.51	12.061
269.88	14.754
270.25	13.883
270.62	16.034
270.99	16.566
271.36	16.040
271.73	14.145
272.10	16.032
272.47	13.427
272.84	14.859
273.21	12.425
273.58	14.315
273.95	15.385
274.32	14.639
274.69	11.992
275.06	14.469
275.43	12.384
275.80	16.226
276.17	12.222
276.54	13.619
276.91	11.807
277.28	14.105
277.65	13.106
278.02	13.603
278.39	11.413
278.76	11.599
279.13	14.184
279.50	15.292
279.87	14.132
280.23	9.859
280.60	12.542
280.97	12.993
281.34	12.394
281.71	14.890
282.08	12.126
282.45	12.930
282.82	11.303
283.19	13.732
283.56	11.967
283.92	12.462
284.29	14.218
284.66	13.957
285.03	10.897
285.40	12.210
285.77	9.907
286.14	13.282
286.51	14.003
286.87	13.112
287.24	12.500
287.61	13.453
287.98	12.085
288.35	13.462
288.72	10.355
289.08	12.592
289.45	13.757
289.82	12.199
290.19	11.925
290.56	13.662
290.93	11.698
291.29	12.121
291.66	11.433
292.03	10.041
292.40	11.973
292.77	10.782
293.13	11.367
293.50	9.593
293.87	11.678
294.24	12.000
294.60	12.137
294.97	11.007
295.34	12.292
295.71	9.079
296.08	11.886
296.44	10.539
296.81	11.449
297.18	11.582
297.55	10.731
297.91	10.676
298.28	9.479
298.65	9.750
299.02	10.153
299.38	10.297
299.75	10.981
300.12	10.764
300.48	11.060
300.85	11.699
301.22	11.298
301.59	10.845
301.95	11.977
302.32	11.000
302.69	10.953
303.05	10.337
303.42	10.643
303.79	11.979
304.15	10.936
304.52	11.839
304.89	11.414
305.25	11.698
305.62	11.076
305.99	11.340
306.35	11.290
306.72	10.445
307.09	10.254
307.45	12.422
307.82	10.999
308.19	11.302
308.55	12.536
308.92	10.127
309.29	11.207
309.65	10.916
310.02	11.881
310.38	10.433
310.75	10.680
311.12	11.985
311.48	11.632
311.85	11.396
312.22	11.195
312.58	11.925
312.95	10.803
313.31	11.472
313.68	11.630
314.05	11.924
314.41	12.204
314.78	11.898
315.14	12.341
315.51	11.911
315.87	10.891
316.24	12.237
316.61	12.877
316.97	12.036
317.34	11.376
317.70	13.188
318.07	12.522
318.43	11.990
318.80	13.545
319.16	12.189
319.53	11.482
319.89	12.095
320.26	13.879
320.62	13.032
320.99	12.742
321.35	12.200
321.72	13.116
322.08	11.632
322.45	13.279
322.81	13.628
323.18	13.717
323.54	14.397
323.91	13.345
324.27	14.028
324.64	13.602
325.00	13.682
325.37	14.005
325.73	14.215
326.10	15.004
326.46	14.577
326.83	14.331
327.19	14.724
327.56	14.783
327.92	14.005
328.29	14.597
328.65	13.819
329.01	14.298
329.38	14.743
329.74	14.812
330.11	16.096
330.47	15.249
330.84	15.159
331.20	15.250
331.56	15.598
331.93	15.230
332.29	14.153
332.66	16.030
333.02	14.322
333.38	15.101
333.75	14.899
334.11	15.430
334.48	15.264
334.84	15.973
335.20	14.358
335.57	15.683
335.93	15.289
336.29	15.308
336.66	14.802
337.02	16.054
337.38	15.901
337.75	15.537
338.11	16.148
338.47	14.806
338.84	15.313
339.20	14.827
339.56	14.745
339.93	15.025
340.29	14.976
340.65	15.896
341.02	16.121
341.38	15.764
341.74	13.882
342.11	15.044
342.47	14.297
342.83	15.539
343.20	15.209
343.56	16.119
343.92	14.171
344.28	14.609
344.65	15.426
345.01	16.069
345.37	16.174
345.73	14.497
346.10	15.679
346.46	15.427
346.82	15.730
347.19	16.730
347.55	16.161
347.91	15.379
348.27	15.175
348.63	16.222
349.00	15.362
349.36	15.316
349.72	16.220
350.08	14.785
350.45	14.373
350.81	15.309
351.17	16.241
351.53	15.542
351.89	15.642
352.26	15.149
352.62	16.119
352.98	15.420
353.34	15.161
353.70	16.641
354.07	16.095
354.43	15.414
354.79	15.707
355.15	16.409
355.51	16.009
355.87	15.931
356.24	16.502
356.60	15.447
356.96	15.567
357.32	15.242
357.68	14.934
358.04	15.644
358.40	17.090
358.77	15.936
359.13	15.657
359.49	15.613
359.85	14.938
360.21	16.356
360.57	15.937
360.93	15.585
361.29	16.842
361.66	15.641
362.02	16.910
362.38	16.796
362.74	16.061
363.10	15.818
363.46	16.551
363.82	16.619
364.18	16.890
364.54	16.321
364.90	17.926
365.26	16.621
365.62	17.267
365.98	16.201
366.35	16.443
366.71	17.007
367.07	17.388
367.43	16.743
367.79	16.722
368.15	17.659
368.51	17.591
368.87	17.309
369.23	17.133
369.59	16.803
369.95	17.512
370.31	17.421
370.67	16.988
371.03	16.967
371.39	16.185
371.75	17.400
372.11	17.683
372.47	17.739
372.83	17.408
373.19	17.211
373.55	17.276
373.91	18.200
374.27	17.788
374.63	16.982
374.99	17.440
375.35	17.792
375.71	18.323
376.07	18.464
376.42	18.514
376.78	18.272
377.14	18.777
377.50	17.394
377.86	19.212
378.22	18.802
378.58	18.133
378.94	18.192
379.30	18.395
379.66	18.577
380.02	18.177
380.38	19.700
380.74	19.606
381.09	18.990
381.45	20.000
381.81	19.496
382.17	19.181
382.53	19.825
382.89	19.187
383.25	19.988
383.61	18.750
383.97	19.611
384.32	20.156
384.68	19.258
385.04	19.954
385.40	19.564
385.76	20.281
386.12	20.168
386.48	20.588
386.83	20.262
387.19	20.510
387.55	20.188
387.91	20.947
388.27	21.189
388.62	19.645
388.98	19.966
389.34	21.037
389.70	20.395
390.06	20.485
390.42	21.145
390.77	21.734
391.13	21.303
391.49	21.920
391.85	21.273
392.20	22.064
392.56	21.382
392.92	22.246
393.28	21.559
393.64	21.788
393.99	21.964
394.35	21.145
394.71	22.036
395.07	20.778
395.42	22.273
395.78	23.218
396.14	22.698
396.50	22.447
396.85	21.825
397.21	22.249
397.57	22.497
397.92	22.509
398.28	21.510
398.64	21.739
399.00	21.571
399.35	22.199
399.71	21.848
400.07	22.796
400.42	22.759
400.78	22.569
401.14	22.311
401.49	22.172
401.85	22.733
402.21	22.654
402.57	23.592
402.92	22.754
403.28	22.658
403.63	22.971
403.99	22.506
404.35	22.683
404.70	22.720
405.06	22.228
405.42	23.126
405.77	23.501
406.13	22.690
406.49	23.142
406.84	22.992
407.20	23.589
407.55	22.108
407.91	22.879
408.27	23.263
408.62	23.618
408.98	23.215
409.34	22.405
409.69	23.053
410.05	23.740
410.40	23.666
410.76	23.331
411.11	24.021
411.47	23.771
411.83	24.691
412.18	24.157
412.54	23.829
412.89	23.749
413.25	23.420
413.60	22.573
413.96	23.951
414.31	23.796
414.67	23.971
415.03	24.123
415.38	24.149
415.74	24.679
416.09	24.676
416.45	23.795
416.80	24.847
417.16	24.521
417.51	24.533
417.87	24.709
418.22	24.132
418.58	24.535
418.93	25.320
419.29	24.291
419.64	23.830
420.00	23.917
420.35	24.312
420.71	24.411
421.06	23.749
421.42	24.541
421.77	23.694
422.12	24.947
422.48	24.885
422.83	25.849
423.19	25.623
423.54	25.608
423.90	25.069
424.25	25.920
424.61	24.742
424.96	25.590
425.31	25.531
425.67	25.067
426.02	26.453
426.38	25.660
426.73	25.335
427.09	26.125
427.44	24.904
427.79	25.373
428.15	25.685
428.50	25.730
428.85	25.144
429.21	26.064
429.56	25.765
429.92	26.241
430.27	26.554
430.62	26.771
430.98	25.971
431.33	26.197
431.68	25.431
432.04	26.359
432.39	26.138
432.74	27.340
433.10	26.609
433.45	25.697
433.80	26.019
434.16	26.653
434.51	27.184
434.86	27.579
435.22	27.683
435.57	26.828
435.92	27.101
436.28	27.531
436.63	27.198
436.98	26.248
437.34	26.776
437.69	26.087
438.04	27.499
438.39	26.422
438.75	26.065
439.10	27.696
439.45	27.557
439.81	26.667
440.16	26.488
440.51	27.592
440.86	25.903
441.22	27.063
441.57	27.149
441.92	27.498
442.27	27.879
442.63	26.925
442.98	27.535
443.33	27.249
443.68	28.890
444.03	28.128
444.39	27.924
444.74	27.361
445.09	27.471
445.44	27.450
445.79	28.161
446.15	28.109
446.50	28.269
446.85	27.724
447.20	27.708
447.55	27.144
447.91	27.853
448.26	28.066
448.61	28.162
448.96	28.541
449.31	27.572
449.66	27.288
450.02	28.217
450.37	28.237
450.72	27.126
451.07	28.303
451.42	27.556
451.77	27.460
452.12	28.442
452.47	28.580
452.83	28.773
453.18	29.013
453.53	27.455
453.88	28.382
454.23	28.644
454.58	28.729
454.93	27.913
455.28	28.597
455.63	28.709
455.98	27.374
456.34	27.915
456.69	27.454
457.04	27.246
457.39	28.437
457.74	28.803
458.09	28.940
458.44	28.287
458.79	27.901
459.14	28.422
459.49	28.014
459.84	28.699
460.19	28.151
460.54	28.620
460.89	28.798
461.24	28.276
461.59	29.054
461.94	27.895
462.29	28.835
462.64	28.304
462.99	28.814
463.34	29.267
463.69	28.195
464.04	28.794
464.39	28.419
464.74	28.107
465.09	28.258
465.44	28.112
465.79	28.715
466.14	28.035
466.49	28.789
466.84	29.366
467.19	28.613
467.54	27.791
467.89	28.046
468.24	28.366
468.59	27.736
468.94	28.147
469.29	28.494
469.64	28.735
469.99	27.916
470.34	29.517
470.68	28.230
471.03	28.684
471.38	27.796
471.73	28.218
472.08	28.997
472.43	27.815
472.78	29.093
473.13	28.508
473.48	28.399
473.83	28.439
474.17	28.370
474.52	28.443
474.87	28.793
475.22	28.958
475.57	27.674
475.92	28.920
476.27	28.914
476.61	28.349
476.96	28.571
477.31	28.267
477.66	28.751
478.01	28.419
478.36	28.415
478.70	28.916
479.05	29.499
479.40	28.085
479.75	28.194
480.10	29.323
480.45	28.715
480.79	28.662
481.14	28.722
481.49	28.351
481.84	28.808
482.19	28.817
482.53	28.728
482.88	29.154
483.23	28.235
483.58	28.166
483.92	28.546
484.27	28.366
484.62	28.300
484.97	29.082
485.31	27.807
485.66	27.059
486.01	26.722
486.36	28.088
486.70	29.399
487.05	30.864
487.40	29.974
487.75	29.618
488.09	29.727
488.44	28.298
488.79	28.533
489.13	28.458
489.48	27.806
489.83	28.129
490.17	27.947
490.52	28.161
490.87	28.723
491.22	28.596
491.56	28.968
491.91	28.958
492.26	28.775
492.60	28.509
492.95	28.346
493.30	28.194
493.64	28.340
493.99	28.026
494.34	28.659
494.68	28.266
495.03	29.075
495.37	29.206
495.72	28.345
496.07	28.922
496.41	27.327
496.76	28.565
497.11	28.577
497.45	29.132
497.80	28.387
498.14	28.299
498.49	28.814
498.84	28.656
499.18	28.835
499.53	28.475
499.87	28.703
500.22	28.094
500.56	28.565
500.91	28.696
501.26	28.773
501.60	28.679
501.95	28.702
502.29	28.697
502.64	28.378
502.98	28.041
503.33	27.905
503.67	28.958
504.02	28.415
504.36	29.044
504.71	28.342
505.06	28.058
505.40	28.839
505.75	28.279
506.09	29.696
506.44	28.784
506.78	28.624
507.13	28.354
507.47	28.944
507.82	29.309
508.16	28.107
508.51	28.223
508.85	28.956
509.19	28.659
509.54	28.963
509.88	28.315
510.23	29.043
510.57	29.725
510.92	28.979
511.26	28.090
511.61	28.296
511.95	28.990
512.30	28.459
512.64	27.286
512.98	28.664
513.33	29.486
513.67	29.118
514.02	28.973
514.36	29.463
514.70	28.646
515.05	29.458
515.39	29.081
515.74	29.215
516.08	29.107
516.42	28.938
516.77	29.232
517.11	28.210
517.46	29.109
517.80	29.343
518.14	30.522
518.49	29.067
518.83	29.484
519.17	28.110
519.52	28.878
519.86	29.250
520.20	29.499
520.55	28.970
520.89	28.885
521.23	29.146
521.58	28.475
521.92	28.442
522.26	27.778
522.61	28.241
522.95	29.412
523.29	29.195
523.64	29.596
523.98	30.918
524.32	30.487
524.66	29.767
525.01	29.502
525.35	29.121
525.69	28.828
526.04	27.784
526.38	29.310
526.72	29.066
527.06	29.736
527.41	29.563
527.75	29.869
528.09	29.457
528.43	28.834
528.78	28.266
529.12	28.268
529.46	29.623
529.80	28.776
530.15	30.319
530.49	29.478
530.83	28.749
531.17	28.973
531.51	29.122
531.86	29.748
532.20	30.244
532.54	29.264
532.88	29.879
533.22	29.582
533.57	29.775
533.91	28.788
534.25	28.943
534.59	29.540
534.93	29.598
535.27	30.535
535.62	30.756
535.96	29.808
536.30	29.318
536.64	29.850
536.98	28.352
537.32	28.951
537.66	28.821
538.01	29.063
538.35	29.294
538.69	28.966
539.03	29.552
539.37	29.859
539.71	30.511
540.05	30.456
540.39	29.584
540.73	29.387
541.07	28.510
541.42	28.706
541.76	28.826
542.10	29.252
542.44	28.380
542.78	28.528
543.12	29.023
543.46	29.182
543.80	27.398
544.14	28.845
544.48	29.078
544.82	29.443
545.16	29.636
545.50	28.999
545.84	28.047
546.18	29.506
546.52	29.618
546.86	28.553
547.20	28.880
547.54	28.527
547.88	28.692
548.22	28.246
548.56	30.369
548.90	30.866
549.24	29.848
549.58	30.158
549.92	28.699
550.26	29.320
550.60	29.355
550.94	29.948
551.28	28.647
551.62	29.852
551.96	28.479
552.30	29.573
552.64	29.558
552.98	29.382
553.32	29.325
553.66	28.875
554.00	29.445
554.34	29.858
554.68	29.245
555.02	29.238
555.36	28.994
555.69	28.828
556.03	28.625
556.37	29.787
556.71	28.345
557.05	29.073
557.39	29.529
557.73	29.789
558.07	28.675
558.41	29.502
558.75	28.330
559.08	29.019
559.42	29.561
559.76	29.172
560.10	29.203
560.44	28.232
560.78	29.688
561.12	29.372
561.45	29.440
561.79	29.609
562.13	29.575
562.47	29.223
562.81	29.241
563.15	29.987
563.48	29.397
563.82	28.174
564.16	28.831
564.50	29.380
564.84	28.968
565.17	29.882
565.51	29.402
565.85	30.404
566.19	28.687
566.52	29.081
566.86	29.372
567.20	28.385
567.54	28.040
567.88	29.358
568.21	28.953
568.55	29.353
568.89	29.641
569.23	28.728
569.56	28.722
569.90	29.971
570.24	28.971
570.57	28.640
570.91	28.690
571.25	29.332
571.59	28.945
571.92	29.531
572.26	29.645
572.60	29.156
572.93	29.335
573.27	28.969
573.61	28.904
573.95	28.114
574.28	29.035
574.62	28.649
574.96	28.937
575.29	28.619
575.63	28.644
575.97	28.814
576.30	28.892
576.64	28.370
576.98	28.656
577.31	28.800
577.65	29.406
577.98	28.934
578.32	28.939
578.66	29.288
578.99	28.671
579.33	29.458
579.67	28.672
580.00	28.231
580.34	28.556
580.67	28.751
581.01	28.516
581.35	28.872
581.68	28.500
582.02	29.088
582.35	29.316
582.69	29.713
583.02	30.088
583.36	29.678
583.70	29.539
584.03	28.774
584.37	28.586
584.70	28.582
585.04	28.110
585.37	28.590
585.71	28.565
586.04	28.974
586.38	29.271
586.72	29.205
587.05	29.419
587.39	29.145
587.72	29.354
588.06	29.545
588.39	29.076
588.73	29.127
589.06	29.458
589.40	29.656
589.73	29.659
590.07	29.808
590.40	29.615
590.73	29.480
591.07	29.561
591.40	29.005
591.74	29.054
592.07	29.963
592.41	29.416
592.74	29.038
593.08	29.076
593.41	29.163
593.75	29.655
594.08	29.264
594.41	31.058
594.75	29.724
595.08	29.307
595.42	29.610
595.75	29.512
596.09	29.888
596.42	29.918
596.75	29.757
597.09	29.495
597.42	28.844
597.75	29.479
598.09	29.722
598.42	29.996
598.76	29.690
599.09	28.978
599.42	28.595
599.76	28.623
600.09	29.229
600.42	29.196
600.76	29.194
601.09	29.539
601.42	29.248
601.76	29.172
602.09	28.914
602.42	28.317
602.76	29.410
603.09	29.258
603.42	29.697
603.76	29.528
604.09	29.702
604.42	30.128
604.76	29.642
605.09	29.557
605.42	29.107
605.75	29.538
606.09	29.265
606.42	29.150
606.75	28.748
607.09	28.533
607.42	29.518
607.75	29.230
608.08	28.769
608.42	29.303
608.75	29.353
609.08	29.499
609.41	29.466
609.75	28.527
610.08	29.771
610.41	29.184
610.74	28.739
611.07	28.952
611.41	28.610
611.74	30.300
612.07	29.827
612.40	29.943
612.73	29.144
613.07	29.535
613.40	29.933
613.73	29.754
614.06	29.637
614.39	28.523
614.72	28.287
615.06	28.922
615.39	29.580
615.72	28.957
616.05	29.480
616.38	29.516
616.71	29.937
617.05	28.914
617.38	29.213
617.71	29.050
618.04	29.088
618.37	29.727
618.70	29.468
619.03	28.495
619.36	28.792
619.69	28.443
620.03	29.190
620.36	28.221
620.69	29.303
621.02	29.921
621.35	29.826
621.68	30.586
622.01	29.395
622.34	29.498
622.67	29.416
623.00	28.677
623.33	29.463
623.66	30.026
623.99	28.506
624.32	28.850
624.65	28.764
624.99	29.584
625.32	29.458
625.65	30.074
625.98	28.542
626.31	28.703
626.64	28.645
626.97	28.432
627.30	28.474
627.63	29.632
627.96	29.054
628.29	29.572
628.62	27.792
628.95	28.747
629.28	28.887
629.61	28.704
629.94	27.699
630.26	28.898
630.59	27.979
630.92	27.706
631.25	30.233
631.58	29.849
631.91	29.241
632.24	29.683
632.57	28.273
632.90	27.683
633.23	28.163
633.56	29.184
