SpectraSuite Data File
++++++++++++++++++++++++++++++++++++
Date: Thu May 14 15:25:27 PDT 2015
User: schluterlab
Dark Spectrum Present: Yes
Reference Spectrum Present: Yes
Number of Sampled Component Spectra: 1
Spectrometers: USB2E3373
Integration Time (usec): 3000 (USB2E3373)
Spectra Averaged: 3 (USB2E3373)
Boxcar Smoothing: 0 (USB2E3373)
Correct for Electrical Dark: No (USB2E3373)
Strobe/Lamp Enabled: No (USB2E3373)
Correct for Detector Non-linearity: No (USB2E3373)
Correct for Stray Light: No (USB2E3373)
Number of Pixels in Processed Spectrum: 2048
>>>>>Begin Processed Spectral Data<<<<<
178.53	0.000
178.91	628.571
179.29	-5800.000
179.67	-4400.000
180.04	471.429
180.42	440.000
180.80	840.000
181.18	-5000.000
181.56	-3800.000
181.94	1200.000
182.31	-1250.000
182.69	1666.667
183.07	-2050.000
183.45	1000.000
183.83	-683.333
184.20	-1700.000
184.58	4500.000
184.96	-1350.000
185.34	-500.000
185.72	-860.000
186.09	688.889
186.47	2450.000
186.85	1180.000
187.23	-577.778
187.61	-5100.000
187.98	960.000
188.36	1050.000
188.74	-1225.000
189.12	-1433.333
189.49	-212.500
189.87	-612.500
190.25	-466.667
190.63	-880.000
191.00	-566.667
191.38	0.000
191.76	-1425.000
192.14	-916.667
192.51	2650.000
192.89	-716.667
193.27	0.000
193.65	-728.571
194.02	-5500.000
194.40	-600.000
194.78	671.429
195.15	0.000
195.53	-400.000
195.91	0.000
196.29	-1000.000
196.66	-361.538
197.04	-4500.000
197.42	-614.286
197.79	-2650.000
198.17	-662.500
198.55	-685.714
198.92	-511.111
199.30	-675.000
199.68	-354.545
200.05	-328.571
200.43	-2500.000
200.81	671.429
201.18	0.000
201.56	633.333
201.94	0.000
202.31	1633.333
202.69	-588.889
203.07	4800.000
203.44	-422.222
203.82	-1200.000
204.19	-425.000
204.57	-916.667
204.95	-625.000
205.32	-5000.000
205.70	1400.000
206.08	-850.000
206.45	-850.000
206.83	1040.000
207.20	-733.333
207.58	-1000.000
207.96	-950.000
208.33	-883.333
208.71	391.667
209.08	-666.667
209.46	0.000
209.84	983.333
210.21	2400.000
210.59	2100.000
210.96	1666.667
211.34	-1225.000
211.71	-562.500
212.09	-4100.000
212.46	0.000
212.84	3050.000
213.22	-1060.000
213.59	-1450.000
213.97	-500.000
214.34	-1400.000
214.72	950.000
215.09	-1125.000
215.47	0.000
215.84	714.286
216.22	2850.000
216.59	-1040.000
216.97	-900.000
217.34	-1225.000
217.72	-587.500
218.09	-1450.000
218.47	-1375.000
218.84	0.000
219.22	880.000
219.59	-247.059
219.97	-230.000
220.34	2350.000
220.72	-433.333
221.09	-315.385
221.47	-1366.667
221.84	-420.000
222.22	-814.286
222.59	0.000
222.97	-550.000
223.34	-1080.000
223.72	-4700.000
224.09	-1100.000
224.46	-1375.000
224.84	-880.000
225.21	-742.857
225.59	-1400.000
225.96	-1200.000
226.34	-169.231
226.71	800.000
227.08	-2550.000
227.46	-346.667
227.83	-1250.000
228.21	-210.526
228.58	675.000
228.95	2850.000
229.33	-325.000
229.70	-460.000
230.08	-200.000
230.45	500.000
230.82	-1533.333
231.20	-342.857
231.57	-350.000
231.95	-372.727
232.32	-327.273
232.69	-245.000
233.07	-1075.000
233.44	-235.294
233.81	-470.000
234.19	-233.333
234.56	-172.727
234.93	-110.345
235.31	-231.579
235.68	-277.778
236.05	-235.000
236.43	-119.231
236.80	-164.000
237.17	-148.148
237.55	-121.212
237.92	-490.000
238.29	-122.581
238.67	-104.545
239.04	-125.000
239.41	-97.619
239.79	-86.957
240.16	-81.481
240.53	-82.609
240.91	-92.157
241.28	-83.607
241.65	-53.731
242.02	-35.135
242.40	-66.154
242.77	-49.333
243.14	-51.220
243.51	-55.263
243.89	-67.949
244.26	-24.752
244.63	-23.529
245.00	-24.299
245.38	-25.439
245.75	-34.513
246.12	-20.635
246.49	-20.155
246.87	-23.571
247.24	-14.570
247.61	-23.684
247.98	-22.819
248.36	-16.049
248.73	-19.018
249.10	-15.847
249.47	-7.960
249.84	-7.330
250.22	-14.508
250.59	-16.111
250.96	-11.364
251.33	-19.388
251.70	-9.402
252.08	-2.917
252.45	-6.967
252.82	-12.397
253.19	-7.031
253.56	-6.464
253.94	-3.077
254.31	-5.303
254.68	-1.748
255.05	0.651
255.42	-3.061
255.79	-5.502
256.16	-6.623
256.54	-6.623
256.91	1.311
257.28	-5.246
257.65	-7.962
258.02	-4.130
258.39	-0.570
258.76	1.835
259.14	-1.724
259.51	1.153
259.88	-3.399
260.25	-0.833
260.62	2.192
260.99	0.273
261.36	0.804
261.73	-1.326
262.10	-2.747
262.47	-2.949
262.85	2.525
263.22	0.779
263.59	-4.737
263.96	-1.790
264.33	-1.023
264.70	1.481
265.07	2.387
265.44	4.082
265.81	0.926
266.18	2.494
266.55	2.232
266.92	-1.367
267.29	2.407
267.66	1.552
268.03	1.965
268.40	2.923
268.77	1.595
269.14	-1.101
269.51	0.658
269.88	2.664
270.25	2.213
270.62	1.899
270.99	2.828
271.36	3.168
271.73	5.108
272.10	4.008
272.47	2.204
272.84	2.209
273.21	5.210
273.58	2.823
273.95	2.115
274.32	1.711
274.69	0.774
275.06	4.396
275.43	0.739
275.80	2.646
276.17	2.407
276.54	3.172
276.91	2.326
277.28	4.340
277.65	1.616
278.02	3.125
278.39	2.355
278.76	2.285
279.13	2.837
279.50	5.155
279.87	3.757
280.23	0.880
280.60	5.763
280.97	4.770
281.34	3.396
281.71	4.399
282.08	2.159
282.45	4.092
282.82	3.140
283.19	2.746
283.56	3.279
283.92	6.006
284.29	5.529
284.66	2.791
285.03	0.000
285.40	3.400
285.77	3.406
286.14	4.885
286.51	3.349
286.87	1.738
287.24	5.271
287.61	2.990
287.98	3.323
288.35	3.994
288.72	3.994
289.08	4.392
289.45	3.107
289.82	1.958
290.19	4.167
290.56	3.662
290.93	3.709
291.29	3.168
291.66	2.204
292.03	2.171
292.40	4.490
292.77	1.617
293.13	4.060
293.50	0.920
293.87	0.671
294.24	3.333
294.60	4.678
294.97	2.282
295.34	3.969
295.71	3.026
296.08	2.842
296.44	3.309
296.81	2.923
297.18	3.362
297.55	3.066
297.91	2.966
298.28	2.133
298.65	2.021
299.02	2.834
299.38	3.776
299.75	3.855
300.12	2.662
300.48	3.111
300.85	3.262
301.22	4.139
301.59	2.397
301.95	2.712
302.32	4.000
302.69	3.505
303.05	3.808
303.42	2.882
303.79	3.333
304.15	4.206
304.52	3.805
304.89	3.351
305.25	3.416
305.62	2.508
305.99	2.784
306.35	3.528
306.72	3.206
307.09	2.843
307.45	3.830
307.82	4.440
308.19	4.036
308.55	4.918
308.92	3.700
309.29	4.119
309.65	3.314
310.02	2.970
310.38	3.543
310.75	4.078
311.12	4.314
311.48	4.008
311.85	4.748
312.22	4.080
312.58	4.413
312.95	2.199
313.31	4.968
313.68	4.487
314.05	5.872
314.41	5.009
314.78	4.723
315.14	4.446
315.51	4.894
315.87	4.860
316.24	6.484
316.61	6.572
316.97	5.701
317.34	5.556
317.70	6.376
318.07	5.467
318.43	6.207
318.80	7.441
319.16	5.665
319.53	4.542
319.89	5.784
320.26	6.584
320.62	5.053
320.99	5.910
321.35	5.360
321.72	7.442
322.08	6.583
322.45	6.775
322.81	7.040
323.18	7.080
323.54	7.069
323.91	7.740
324.27	7.229
324.64	7.725
325.00	7.380
325.37	7.617
325.73	8.430
326.10	7.461
326.46	8.225
326.83	9.287
327.19	7.717
327.56	8.775
327.92	8.891
328.29	7.742
328.65	7.621
329.01	8.376
329.38	8.762
329.74	8.733
330.11	8.562
330.47	9.436
330.84	8.441
331.20	9.000
331.56	9.099
331.93	9.205
332.29	9.831
332.66	9.884
333.02	9.129
333.38	8.557
333.75	9.512
334.11	10.008
334.48	9.323
334.84	10.195
335.20	8.060
335.57	10.034
335.93	10.000
336.29	8.236
336.66	9.504
337.02	9.114
337.38	10.034
337.75	8.347
338.11	9.336
338.47	9.347
338.84	9.560
339.20	8.846
339.56	9.061
339.93	8.703
340.29	10.145
340.65	9.489
341.02	10.535
341.38	9.297
341.74	8.152
342.11	9.010
342.47	9.134
342.83	9.179
343.20	9.567
343.56	8.661
343.92	9.448
344.28	9.219
344.65	9.845
345.01	9.906
345.37	10.031
345.73	9.041
346.10	10.140
346.46	8.623
346.82	10.637
347.19	10.160
347.55	10.319
347.91	8.915
348.27	9.712
348.63	9.901
349.00	9.843
349.36	9.888
349.72	9.077
350.08	10.104
350.45	9.049
350.81	10.181
351.17	9.774
351.53	8.795
351.89	9.188
352.26	9.030
352.62	9.328
352.98	9.466
353.34	9.335
353.70	9.553
354.07	9.613
354.43	10.099
354.79	8.527
355.15	9.198
355.51	10.307
355.87	8.751
356.24	9.810
356.60	8.869
356.96	9.044
357.32	8.848
357.68	8.638
358.04	9.356
358.40	8.358
358.77	10.015
359.13	8.641
359.49	8.327
359.85	9.935
360.21	9.971
360.57	9.404
360.93	9.591
361.29	10.246
361.66	9.413
362.02	9.882
362.38	9.557
362.74	9.567
363.10	10.523
363.46	9.557
363.82	9.659
364.18	9.852
364.54	9.889
364.90	10.702
365.26	9.379
365.62	10.733
365.98	10.075
366.35	10.134
366.71	11.020
367.07	10.217
367.43	10.900
367.79	10.617
368.15	10.836
368.51	10.555
368.87	11.039
369.23	10.267
369.59	10.997
369.95	10.412
370.31	10.871
370.67	9.904
371.03	10.665
371.39	9.872
371.75	11.554
372.11	11.043
372.47	10.630
372.83	10.668
373.19	10.874
373.55	10.637
373.91	10.838
374.27	10.996
374.63	11.434
374.99	10.477
375.35	11.623
375.71	11.097
376.07	11.556
376.42	11.398
376.78	11.063
377.14	11.291
377.50	12.587
377.86	12.131
378.22	12.156
378.58	11.950
378.94	11.913
379.30	12.068
379.66	12.522
380.02	13.041
380.38	12.097
380.74	13.408
381.09	13.182
381.45	12.955
381.81	14.052
382.17	13.183
382.53	13.333
382.89	14.560
383.25	12.309
383.61	13.021
383.97	14.370
384.32	14.354
384.68	12.819
385.04	13.939
385.40	14.260
385.76	14.654
386.12	14.423
386.48	15.059
386.83	14.958
387.19	14.426
387.55	14.085
387.91	14.269
388.27	14.665
388.62	14.089
388.98	14.664
389.34	16.028
389.70	14.701
390.06	14.979
390.42	14.699
390.77	16.436
391.13	15.786
391.49	15.580
391.85	15.394
392.20	15.658
392.56	16.125
392.92	15.594
393.28	15.810
393.64	15.587
393.99	16.153
394.35	16.939
394.71	16.826
395.07	15.210
395.42	16.505
395.78	16.514
396.14	16.815
396.50	15.855
396.85	15.385
397.21	16.213
397.57	16.608
397.92	16.438
398.28	15.535
398.64	16.304
399.00	16.283
399.35	16.754
399.71	16.522
400.07	16.620
400.42	16.123
400.78	16.493
401.14	17.075
401.49	17.283
401.85	16.395
402.21	17.265
402.57	17.723
402.92	15.898
403.28	15.749
403.63	15.990
403.99	16.211
404.35	16.259
404.70	17.054
405.06	16.141
405.42	17.389
405.77	16.794
406.13	16.478
406.49	16.498
406.84	16.454
407.20	15.819
407.55	16.172
407.91	16.405
408.27	16.726
408.62	16.579
408.98	17.470
409.34	15.718
409.69	15.513
410.05	17.175
410.40	17.111
410.76	15.872
411.11	16.482
411.47	16.216
411.83	16.343
412.18	16.687
412.54	17.131
412.89	15.658
413.25	16.986
413.60	16.312
413.96	17.308
414.31	16.091
414.67	16.995
415.03	15.692
415.38	16.456
415.74	16.616
416.09	16.225
416.45	15.842
416.80	16.340
417.16	17.625
417.51	15.255
417.87	16.493
418.22	16.407
418.58	16.791
418.93	17.928
419.29	16.646
419.64	16.447
420.00	17.151
420.35	17.294
420.71	16.140
421.06	16.446
421.42	17.259
421.77	17.232
422.12	17.759
422.48	18.075
422.83	17.963
423.19	17.560
423.54	17.533
423.90	17.173
424.25	17.867
424.61	16.475
424.96	17.408
425.31	18.949
425.67	17.177
426.02	17.377
426.38	17.796
426.73	17.188
427.09	18.800
427.44	17.149
427.79	18.297
428.15	16.438
428.50	17.865
428.85	18.312
429.21	18.511
429.56	17.522
429.92	17.936
430.27	18.217
430.62	18.271
430.98	18.003
431.33	17.840
431.68	17.768
432.04	18.029
432.39	18.479
432.74	17.865
433.10	18.551
433.45	18.116
433.80	17.167
434.16	18.647
434.51	18.397
434.86	18.187
435.22	18.119
435.57	18.750
435.92	18.976
436.28	17.861
436.63	18.132
436.98	18.304
437.34	18.771
437.69	18.877
438.04	18.985
438.39	18.036
438.75	18.760
439.10	19.027
439.45	19.117
439.81	18.305
440.16	18.016
440.51	18.618
440.86	18.733
441.22	19.239
441.57	18.449
441.92	18.817
442.27	18.838
442.63	19.722
442.98	19.050
443.33	19.253
443.68	20.168
444.03	19.755
444.39	19.972
444.74	19.449
445.09	19.767
445.44	20.495
445.79	19.205
446.15	19.013
446.50	19.328
446.85	19.844
447.20	20.068
447.55	19.718
447.91	19.215
448.26	19.186
448.61	19.288
448.96	20.386
449.31	19.830
449.66	19.444
450.02	19.093
450.37	19.393
450.72	19.160
451.07	18.508
451.42	19.526
451.77	19.733
452.12	19.865
452.47	19.251
452.83	19.764
453.18	19.381
453.53	18.610
453.88	19.437
454.23	19.548
454.58	20.429
454.93	18.507
455.28	19.747
455.63	19.386
455.98	19.385
456.34	19.317
456.69	19.577
457.04	19.622
457.39	19.789
457.74	20.022
458.09	19.275
458.44	20.528
458.79	19.804
459.14	19.717
459.49	18.959
459.84	19.832
460.19	18.379
460.54	19.250
460.89	18.475
461.24	19.310
461.59	20.199
461.94	19.110
462.29	18.981
462.64	18.286
462.99	18.958
463.34	19.079
463.69	18.992
464.04	19.400
464.39	19.899
464.74	19.213
465.09	19.839
465.44	19.260
465.79	19.566
466.14	19.802
466.49	20.000
466.84	20.441
467.19	20.000
467.54	18.155
467.89	18.793
468.24	19.335
468.59	18.703
468.94	17.949
469.29	18.056
469.64	17.800
469.99	18.356
470.34	17.946
470.68	18.524
471.03	19.843
471.38	18.509
471.73	18.075
472.08	18.147
472.43	18.904
472.78	18.829
473.13	19.027
473.48	18.610
473.83	19.037
474.17	18.699
474.52	18.701
474.87	19.601
475.22	19.380
475.57	18.847
475.92	19.313
476.27	19.116
476.61	19.367
476.96	19.030
477.31	19.554
477.66	19.570
478.01	18.861
478.36	19.043
478.70	19.212
479.05	19.274
479.40	19.546
479.75	19.645
480.10	19.375
480.45	18.870
480.79	19.955
481.14	18.842
481.49	19.355
481.84	19.147
482.19	19.226
482.53	19.370
482.88	20.071
483.23	18.986
483.58	18.777
483.92	18.661
484.27	20.025
484.62	19.224
484.97	19.868
485.31	18.867
485.66	18.499
486.01	18.763
486.36	20.174
486.70	22.238
487.05	22.385
487.40	21.732
487.75	21.094
488.09	20.710
488.44	20.099
488.79	19.528
489.13	19.334
489.48	18.641
489.83	18.793
490.17	18.550
490.52	18.966
490.87	19.585
491.22	18.501
491.56	18.942
491.91	18.578
492.26	18.953
492.60	18.540
492.95	19.131
493.30	18.870
493.64	19.360
493.99	18.728
494.34	18.336
494.68	17.901
495.03	19.251
495.37	19.308
495.72	18.503
496.07	18.668
496.41	18.619
496.76	19.600
497.11	18.811
497.45	19.033
497.80	18.925
498.14	18.957
498.49	18.336
498.84	18.373
499.18	18.354
499.53	18.565
499.87	19.209
500.22	18.522
500.56	18.623
500.91	18.352
501.26	19.091
501.60	18.073
501.95	18.845
502.29	18.736
502.64	18.977
502.98	18.680
503.33	18.575
503.67	18.273
504.02	18.914
504.36	19.169
504.71	18.420
505.06	18.690
505.40	18.236
505.75	18.306
506.09	18.554
506.44	18.477
506.78	19.083
507.13	19.318
507.47	18.948
507.82	18.608
508.16	18.212
508.51	17.675
508.85	18.517
509.19	17.906
509.54	18.636
509.88	18.261
510.23	17.970
510.57	18.753
510.92	17.949
511.26	18.182
511.61	18.155
511.95	17.618
512.30	18.267
512.64	18.041
512.98	17.809
513.33	18.448
513.67	17.593
514.02	18.242
514.36	18.568
514.70	17.969
515.05	17.831
515.39	17.690
515.74	18.081
516.08	18.067
516.42	17.949
516.77	17.403
517.11	17.844
517.46	18.028
517.80	17.745
518.14	18.498
518.49	18.547
518.83	17.296
519.17	16.963
519.52	17.243
519.86	17.687
520.20	18.797
520.55	17.470
520.89	17.230
521.23	17.476
521.58	18.531
521.92	17.224
522.26	17.411
522.61	17.882
522.95	17.243
523.29	17.644
523.64	17.377
523.98	17.114
524.32	18.453
524.66	17.075
525.01	17.837
525.35	16.829
525.69	16.589
526.04	16.016
526.38	17.529
526.72	17.359
527.06	17.713
527.41	16.968
527.75	17.696
528.09	16.883
528.43	17.052
528.78	17.225
529.12	16.686
529.46	17.931
529.80	17.563
530.15	18.261
530.49	16.785
530.83	17.651
531.17	17.025
531.51	17.329
531.86	17.188
532.20	17.317
532.54	16.457
532.88	17.030
533.22	16.971
533.57	17.196
533.91	17.789
534.25	17.524
534.59	16.724
534.93	16.808
535.27	17.465
535.62	17.226
535.96	16.909
536.30	16.921
536.64	18.438
536.98	17.343
537.32	17.593
537.66	16.843
538.01	16.556
538.35	16.261
538.69	17.428
539.03	16.983
539.37	17.550
539.71	17.417
540.05	16.966
540.39	16.198
540.73	16.879
541.07	16.186
541.42	16.361
541.76	16.607
542.10	16.707
542.44	16.565
542.78	16.727
543.12	16.865
543.46	16.239
543.80	16.247
544.14	16.158
544.48	15.957
544.82	18.073
545.16	16.816
545.50	16.956
545.84	15.860
546.18	17.407
546.52	16.115
546.86	16.415
547.20	16.158
547.54	15.980
547.88	15.853
548.22	15.965
548.56	17.496
548.90	16.418
549.24	16.535
549.58	16.278
549.92	16.837
550.26	15.340
550.60	17.167
550.94	15.977
551.28	15.578
551.62	15.836
551.96	16.699
552.30	17.017
552.64	17.548
552.98	16.594
553.32	17.106
553.66	16.656
554.00	17.276
554.34	16.474
554.68	15.688
555.02	16.294
555.36	16.963
555.69	15.695
556.03	15.448
556.37	17.146
556.71	16.424
557.05	16.741
557.39	15.926
557.73	16.645
558.07	15.762
558.41	16.611
558.75	15.822
559.08	16.701
559.42	15.775
559.76	16.147
560.10	15.941
560.44	17.414
560.78	17.250
561.12	16.256
561.45	17.336
561.79	16.545
562.13	16.513
562.47	16.215
562.81	16.772
563.15	16.225
563.48	16.718
563.82	15.901
564.16	15.142
564.50	16.806
564.84	15.870
565.17	16.412
565.51	16.226
565.85	16.449
566.19	16.359
566.52	15.857
566.86	17.317
567.20	15.334
567.54	16.038
567.88	16.922
568.21	17.342
568.55	17.074
568.89	17.204
569.23	17.406
569.56	17.429
569.90	17.819
570.24	17.909
570.57	18.249
570.91	17.667
571.25	17.848
571.59	18.675
571.92	18.364
572.26	19.005
572.60	18.209
572.93	18.119
573.27	17.702
573.61	18.290
573.95	18.111
574.28	18.524
574.62	18.304
574.96	18.328
575.29	18.308
575.63	18.388
575.97	18.707
576.30	18.579
576.64	18.611
576.98	18.200
577.31	18.506
577.65	18.283
577.98	18.882
578.32	18.404
578.66	18.620
578.99	18.554
579.33	18.697
579.67	18.404
580.00	18.094
580.34	18.848
580.67	18.844
581.01	18.455
581.35	18.157
581.68	18.527
582.02	18.502
582.35	19.451
582.69	19.278
583.02	18.501
583.36	18.833
583.70	18.837
584.03	18.503
584.37	18.588
584.70	17.726
585.04	18.112
585.37	18.692
585.71	18.662
586.04	18.032
586.38	18.593
586.72	18.025
587.05	18.163
587.39	18.549
587.72	19.019
588.06	18.206
588.39	19.094
588.73	18.466
589.06	18.510
589.40	17.916
589.73	18.316
590.07	17.838
590.40	18.053
590.73	17.709
591.07	18.280
591.40	17.263
591.74	17.528
592.07	17.621
592.41	17.784
592.74	17.607
593.08	17.994
593.41	18.314
593.75	18.736
594.08	18.510
594.41	19.038
594.75	17.735
595.08	17.396
595.42	18.149
595.75	18.340
596.09	17.655
596.42	17.843
596.75	17.677
597.09	18.424
597.42	17.163
597.75	17.640
598.09	17.500
598.42	17.612
598.76	17.348
599.09	17.444
599.42	17.399
599.76	17.663
600.09	18.285
600.42	17.784
600.76	18.296
601.09	18.055
601.42	18.366
601.76	18.379
602.09	17.977
602.42	17.666
602.76	17.196
603.09	17.291
603.42	18.136
603.76	17.724
604.09	17.885
604.42	18.239
604.76	17.542
605.09	18.189
605.42	17.703
605.75	17.500
606.09	17.768
606.42	17.548
606.75	17.354
607.09	16.782
607.42	17.457
607.75	17.702
608.08	17.206
608.42	17.251
608.75	17.496
609.08	17.402
609.41	16.939
609.75	17.143
610.08	17.678
610.41	16.780
610.74	17.017
611.07	16.563
611.41	16.951
611.74	16.998
612.07	16.737
612.40	16.255
612.73	16.724
613.07	16.919
613.40	16.843
613.73	16.803
614.06	17.321
614.39	16.375
614.72	16.836
615.06	16.651
615.39	17.206
615.72	17.014
616.05	16.659
616.38	17.104
616.71	17.032
617.05	16.613
617.38	17.121
617.71	17.009
618.04	16.298
618.37	16.831
618.70	17.195
619.03	15.771
619.36	15.598
619.69	15.247
620.03	15.882
620.36	15.951
620.69	15.916
621.02	16.601
621.35	16.038
621.68	15.835
622.01	15.730
622.34	15.132
622.67	16.289
623.00	14.912
623.33	16.987
623.66	15.370
623.99	15.339
624.32	16.829
624.65	14.672
624.99	14.824
625.32	15.937
625.65	16.049
625.98	14.983
626.31	16.088
626.64	15.238
626.97	15.754
627.30	14.275
627.63	14.329
627.96	15.090
628.29	14.864
628.62	13.014
628.95	13.935
629.28	14.613
629.61	14.815
629.94	13.473
630.26	14.068
630.59	14.076
630.92	13.853
631.25	16.100
631.58	14.689
631.91	13.590
632.24	14.601
632.57	14.516
632.90	12.939
633.23	13.980
633.56	14.388
633.89	12.190
634.22	13.410
634.55	13.987
634.88	13.095
