SpectraSuite Data File
++++++++++++++++++++++++++++++++++++
Date: Thu May 14 14:32:47 PDT 2015
User: schluterlab
Dark Spectrum Present: Yes
Reference Spectrum Present: Yes
Number of Sampled Component Spectra: 1
Spectrometers: USB2E3373
Integration Time (usec): 3000 (USB2E3373)
Spectra Averaged: 3 (USB2E3373)
Boxcar Smoothing: 0 (USB2E3373)
Correct for Electrical Dark: No (USB2E3373)
Strobe/Lamp Enabled: No (USB2E3373)
Correct for Detector Non-linearity: No (USB2E3373)
Correct for Stray Light: No (USB2E3373)
Number of Pixels in Processed Spectrum: 2048
>>>>>Begin Processed Spectral Data<<<<<
178.53	0.000
178.91	-228.571
179.29	500.000
179.67	1500.000
180.04	-0.000
180.42	-180.000
180.80	-60.000
181.18	1300.000
181.56	2600.000
181.94	-175.000
182.31	525.000
182.69	-666.667
183.07	1100.000
183.45	-500.000
183.83	350.000
184.20	533.333
184.58	-1300.000
184.96	475.000
185.34	244.444
185.72	500.000
186.09	-166.667
186.47	-1050.000
186.85	-240.000
187.23	77.778
187.61	1700.000
187.98	-220.000
188.36	-225.000
188.74	150.000
189.12	666.667
189.49	193.750
189.87	150.000
190.25	211.111
190.63	480.000
191.00	122.222
191.38	0.000
191.76	375.000
192.14	233.333
192.51	-600.000
192.89	350.000
193.27	0.000
193.65	314.286
194.02	1400.000
194.40	385.714
194.78	-200.000
195.15	0.000
195.53	181.818
195.91	0.000
196.29	425.000
196.66	176.923
197.04	600.000
197.42	171.429
197.79	750.000
198.17	212.500
198.55	157.143
198.92	177.778
199.30	162.500
199.68	218.182
200.05	128.571
200.43	700.000
200.81	-157.143
201.18	0.000
201.56	-66.667
201.94	0.000
202.31	-300.000
202.69	88.889
203.07	-2100.000
203.44	288.889
203.82	450.000
204.19	141.667
204.57	266.667
204.95	125.000
205.32	1200.000
205.70	-425.000
206.08	266.667
206.45	433.333
206.83	-180.000
207.20	333.333
207.58	220.000
207.96	183.333
208.33	316.667
208.71	-141.667
209.08	316.667
209.46	0.000
209.84	-150.000
210.21	-550.000
210.59	-950.000
210.96	-500.000
211.34	425.000
211.71	200.000
212.09	1700.000
212.46	0.000
212.84	-650.000
213.22	180.000
213.59	500.000
213.97	230.000
214.34	600.000
214.72	-300.000
215.09	425.000
215.47	0.000
215.84	-314.286
216.22	-1250.000
216.59	480.000
216.97	240.000
217.34	350.000
217.72	175.000
218.09	375.000
218.47	350.000
218.84	0.000
219.22	-420.000
219.59	111.765
219.97	95.000
220.34	-650.000
220.72	177.778
221.09	184.615
221.47	666.667
221.84	110.000
222.22	228.571
222.59	0.000
222.97	175.000
223.34	240.000
223.72	1400.000
224.09	600.000
224.46	175.000
224.84	420.000
225.21	214.286
225.59	400.000
225.96	550.000
226.34	73.077
226.71	-183.333
227.08	600.000
227.46	133.333
227.83	250.000
228.21	84.211
228.58	-112.500
228.95	-700.000
229.33	208.333
229.70	270.000
230.08	157.895
230.45	-30.000
230.82	500.000
231.20	128.571
231.57	166.667
231.95	127.273
232.32	163.636
232.69	65.000
233.07	250.000
233.44	164.706
233.81	190.000
234.19	116.667
234.56	95.455
234.93	79.310
235.31	115.789
235.68	100.000
236.05	65.000
236.43	115.385
236.80	96.000
237.17	92.593
237.55	100.000
237.92	80.000
238.29	45.161
238.67	59.091
239.04	63.889
239.41	33.333
239.79	50.000
240.16	27.778
240.53	34.783
240.91	23.529
241.28	21.311
241.65	52.239
242.02	36.486
242.40	29.231
242.77	32.000
243.14	9.756
243.51	6.579
243.89	8.974
244.26	24.752
244.63	19.608
245.00	21.495
245.38	15.789
245.75	3.540
246.12	21.429
246.49	15.504
246.87	19.286
247.24	17.881
247.61	19.079
247.98	16.107
248.36	12.963
248.73	11.043
249.10	12.022
249.47	17.910
249.84	12.042
250.22	11.917
250.59	10.556
250.96	13.182
251.33	10.204
251.70	12.393
252.08	14.167
252.45	11.885
252.82	9.091
253.19	9.375
253.56	10.266
253.94	9.231
254.31	13.636
254.68	9.790
255.05	11.726
255.42	7.143
255.79	6.149
256.16	5.960
256.54	6.954
256.91	7.869
257.28	8.197
257.65	6.688
258.02	6.490
258.39	10.826
258.76	12.232
259.14	10.345
259.51	8.934
259.88	5.666
260.25	7.778
260.62	7.945
260.99	11.475
261.36	9.115
261.73	7.162
262.10	5.495
262.47	6.971
262.85	13.889
263.22	8.312
263.59	6.579
263.96	8.184
264.33	6.394
264.70	5.926
265.07	7.876
265.44	9.297
265.81	7.639
266.18	8.163
266.55	8.036
266.92	5.011
267.29	8.534
267.66	7.539
268.03	6.114
268.40	5.428
268.77	2.506
269.14	3.965
269.51	7.018
269.88	9.631
270.25	7.042
270.62	7.384
270.99	8.081
271.36	9.109
271.73	7.073
272.10	6.012
272.47	8.016
272.84	6.627
273.21	7.816
273.58	6.653
273.95	7.308
274.32	5.894
274.69	6.383
275.06	6.777
275.43	4.067
275.80	8.113
276.17	5.185
276.54	6.903
276.91	5.009
277.28	5.606
277.65	8.079
278.02	7.353
278.39	5.616
278.76	6.151
279.13	5.496
279.50	6.873
279.87	6.440
280.23	4.401
280.60	6.610
280.97	7.237
281.34	6.112
281.71	7.614
282.08	6.977
282.45	5.565
282.82	5.651
283.19	5.654
283.56	5.410
283.92	8.559
284.29	8.531
284.66	6.404
285.03	6.250
285.40	5.719
285.77	6.656
286.14	5.802
286.51	5.784
286.87	5.055
287.24	5.422
287.61	4.933
287.98	5.287
288.35	5.178
288.72	5.030
289.08	6.735
289.45	5.473
289.82	4.819
290.19	4.454
290.56	5.915
290.93	5.136
291.29	5.785
291.66	5.234
292.03	3.664
292.40	6.395
292.77	5.795
293.13	4.330
293.50	3.679
293.87	5.772
294.24	8.000
294.60	7.838
294.97	3.893
295.34	6.914
295.71	4.666
296.08	5.297
296.44	4.779
296.81	6.577
297.18	6.227
297.55	6.604
297.91	4.982
298.28	4.976
298.65	5.707
299.02	6.139
299.38	5.378
299.75	6.192
300.12	5.671
300.48	4.954
300.85	6.074
301.22	5.928
301.59	3.995
301.95	6.215
302.32	7.111
302.69	4.710
303.05	6.094
303.42	6.652
303.79	5.938
304.15	5.573
304.52	5.603
304.89	5.445
305.25	6.729
305.62	5.956
305.99	5.773
306.35	5.645
306.72	5.274
307.09	4.365
307.45	6.004
307.82	7.467
308.19	6.155
308.55	6.172
308.92	6.913
309.29	6.513
309.65	5.068
310.02	5.644
310.38	5.906
310.75	5.728
311.12	6.616
311.48	5.670
311.85	5.698
312.22	6.546
312.58	5.822
312.95	5.258
313.31	6.052
313.68	6.136
314.05	7.046
314.41	6.648
314.78	5.722
315.14	6.987
315.51	7.110
315.87	7.381
316.24	7.123
316.61	7.282
316.97	6.878
317.34	5.820
317.70	7.162
318.07	6.878
318.43	7.653
318.80	6.940
319.16	7.296
319.53	6.769
319.89	6.486
320.26	7.562
320.62	6.472
320.99	7.479
321.35	7.116
321.72	9.023
322.08	8.656
322.45	8.672
322.81	8.303
323.18	7.522
323.54	7.759
323.91	8.541
324.27	8.606
324.64	8.900
325.00	7.960
325.37	8.600
325.73	9.669
326.10	9.327
326.46	9.039
326.83	9.608
327.19	8.661
327.56	9.249
327.92	8.576
328.29	9.274
328.65	8.375
329.01	8.545
329.38	9.773
329.74	9.846
330.11	9.760
330.47	9.941
330.84	9.561
331.20	10.417
331.56	10.659
331.93	10.126
332.29	9.915
332.66	9.967
333.02	10.720
333.38	9.396
333.75	9.680
334.11	10.342
334.48	10.644
334.84	10.705
335.20	10.076
335.57	10.455
335.93	11.736
336.29	9.235
336.66	9.504
337.02	11.789
337.38	10.289
337.75	9.835
338.11	11.186
338.47	10.008
338.84	10.237
339.20	10.868
339.56	9.390
339.93	11.741
340.29	9.662
340.65	11.273
341.02	10.774
341.38	10.752
341.74	9.605
342.11	11.022
342.47	9.929
342.83	10.306
343.20	10.466
343.56	9.383
343.92	10.168
344.28	10.625
344.65	10.775
345.01	10.998
345.37	11.042
345.73	9.119
346.10	10.530
346.46	10.364
346.82	11.311
347.19	10.542
347.55	11.229
347.91	10.550
348.27	10.926
348.63	11.500
349.00	10.515
349.36	10.781
349.72	11.830
350.08	11.218
350.45	10.190
350.81	11.463
351.17	10.902
351.53	10.235
351.89	11.921
352.26	10.149
352.62	9.627
352.98	10.382
353.34	9.783
353.70	10.632
354.07	11.028
354.43	10.175
354.79	11.070
355.15	10.228
355.51	10.673
355.87	9.798
356.24	11.027
356.60	10.347
356.96	10.007
357.32	10.781
357.68	11.054
358.04	9.805
358.40	10.970
358.77	10.599
359.13	10.192
359.49	9.591
359.85	10.587
360.21	10.545
360.57	11.199
360.93	10.155
361.29	11.158
361.66	10.210
362.02	11.273
362.38	10.260
362.74	9.986
363.10	10.660
363.46	10.942
363.82	10.582
364.18	12.104
364.54	11.272
364.90	10.903
365.26	10.276
365.62	11.467
365.98	10.688
366.35	10.940
366.71	11.293
367.07	10.758
367.43	11.359
367.79	10.816
368.15	12.910
368.51	11.164
368.87	11.300
369.23	11.867
369.59	10.724
369.95	11.832
370.31	11.141
370.67	12.173
371.03	11.842
371.39	11.216
371.75	12.448
372.11	11.382
372.47	12.322
372.83	11.191
373.19	11.741
373.55	11.179
373.91	10.566
374.27	12.354
374.63	11.299
374.99	11.737
375.35	12.143
375.71	13.355
376.07	11.750
376.42	11.776
376.78	12.492
377.14	11.478
377.50	11.828
377.86	12.931
378.22	11.916
378.58	13.020
378.94	12.793
379.30	12.830
379.66	11.993
380.02	12.464
380.38	12.212
380.74	12.620
381.09	12.718
381.45	12.557
381.81	13.173
382.17	13.361
382.53	11.988
382.89	13.939
383.25	13.365
383.61	12.674
383.97	13.428
384.32	13.696
384.68	12.935
385.04	13.707
385.40	13.907
385.76	15.299
386.12	13.106
386.48	14.412
386.83	14.779
387.19	13.557
387.55	13.556
387.91	12.842
388.27	14.723
388.62	13.918
388.98	13.818
389.34	14.143
389.70	14.585
390.06	13.854
390.42	14.337
390.77	15.111
391.13	13.791
391.49	15.097
391.85	14.545
392.20	15.065
392.56	15.594
392.92	15.376
393.28	14.870
393.64	14.190
393.99	15.049
394.35	14.369
394.71	15.629
395.07	14.611
395.42	14.734
395.78	14.686
396.14	15.567
396.50	15.261
396.85	14.967
397.21	15.266
397.57	15.371
397.92	15.120
398.28	14.720
398.64	14.760
399.00	14.764
399.35	15.340
399.71	15.489
400.07	14.879
400.42	15.076
400.78	14.815
401.14	15.652
401.49	14.781
401.85	15.581
402.21	15.411
402.57	16.021
402.92	15.780
403.28	14.988
403.63	15.215
403.99	15.261
404.35	14.667
404.70	15.581
405.06	15.109
405.42	15.515
405.77	16.739
406.13	15.289
406.49	15.428
406.84	15.845
407.20	15.316
407.55	14.839
407.91	15.965
408.27	15.842
408.62	16.638
408.98	15.496
409.34	15.015
409.69	15.389
410.05	15.651
410.40	16.995
410.76	16.657
411.11	15.839
411.47	15.909
411.83	16.285
412.18	16.566
412.54	16.301
412.89	16.473
413.25	16.422
413.60	16.657
413.96	16.900
414.31	15.071
414.67	16.756
415.03	16.492
415.38	16.015
415.74	16.249
416.09	16.841
416.45	16.468
416.80	17.136
417.16	17.369
417.51	17.123
417.87	16.677
418.22	17.305
418.58	16.171
418.93	17.113
419.29	16.030
419.64	16.987
420.00	16.202
420.35	17.125
420.71	16.944
421.06	16.561
421.42	17.718
421.77	16.478
422.12	17.918
422.48	17.256
422.83	17.141
423.19	17.029
423.54	17.533
423.90	17.173
424.25	17.547
424.61	17.164
424.96	17.133
425.31	17.941
425.67	17.338
426.02	16.934
426.38	17.566
426.73	18.304
427.09	18.627
427.44	17.586
427.79	18.740
428.15	17.180
428.50	17.753
428.85	17.796
429.21	18.617
429.56	17.522
429.92	18.084
430.27	17.976
430.62	18.368
430.98	17.757
431.33	17.400
431.68	17.960
432.04	18.487
432.39	18.586
432.74	18.322
433.10	18.334
433.45	18.339
433.80	18.723
434.16	19.060
434.51	19.065
434.86	18.350
435.22	18.916
435.57	19.104
435.92	19.755
436.28	18.601
436.63	18.842
436.98	18.680
437.34	18.884
437.69	18.712
438.04	19.249
438.39	19.472
438.75	19.258
439.10	20.085
439.45	20.067
439.81	19.379
440.16	18.767
440.51	19.398
440.86	19.344
441.22	19.882
441.57	20.231
441.92	20.175
442.27	20.000
442.63	19.473
442.98	20.864
443.33	19.674
443.68	20.813
444.03	20.790
444.39	19.371
444.74	19.806
445.09	19.665
445.44	19.810
445.79	20.067
446.15	20.555
446.50	20.207
446.85	20.768
447.20	20.068
447.55	20.659
447.91	20.471
448.26	20.455
448.61	20.616
448.96	20.815
449.31	19.565
449.66	20.806
450.02	20.886
450.37	19.979
450.72	20.398
451.07	20.444
451.42	20.508
451.77	20.289
452.12	20.824
452.47	20.559
452.83	20.439
453.18	20.841
453.53	20.448
453.88	21.259
454.23	21.525
454.58	21.416
454.93	20.085
455.28	22.155
455.63	20.864
455.98	21.564
456.34	21.319
456.69	21.340
457.04	20.626
457.39	20.011
457.74	22.819
458.09	20.538
458.44	22.037
458.79	20.990
459.14	20.503
459.49	21.562
459.84	21.511
460.19	20.711
460.54	21.863
460.89	20.593
461.24	21.609
461.59	21.970
461.94	20.993
462.29	21.725
462.64	22.088
462.99	21.532
463.34	22.128
463.69	20.926
464.04	21.734
464.39	22.085
464.74	22.178
465.09	21.742
465.44	21.352
465.79	21.629
466.14	21.834
466.49	21.368
466.84	21.653
467.19	22.312
467.54	21.269
467.89	21.954
468.24	22.548
468.59	21.367
468.94	21.911
469.29	22.076
469.64	22.505
469.99	21.415
470.34	21.906
470.68	22.488
471.03	23.248
471.38	22.956
471.73	22.627
472.08	22.272
472.43	23.058
472.78	23.111
473.13	22.377
473.48	22.175
473.83	22.925
474.17	22.509
474.52	22.249
474.87	22.591
475.22	22.704
475.57	22.741
475.92	22.300
476.27	22.258
476.61	22.274
476.96	22.158
477.31	22.772
477.66	23.190
478.01	23.030
478.36	22.881
478.70	22.365
479.05	22.853
479.40	22.754
479.75	22.815
480.10	22.312
480.45	22.881
480.79	22.313
481.14	22.105
481.49	22.081
481.84	22.672
482.19	22.495
482.53	22.475
482.88	23.305
483.23	22.855
483.58	22.052
483.92	22.429
484.27	22.354
484.62	23.185
484.97	21.967
485.31	21.718
485.66	21.361
486.01	20.757
486.36	20.726
486.70	20.777
487.05	20.998
487.40	21.500
487.75	21.959
488.09	22.119
488.44	21.640
488.79	23.002
489.13	22.882
489.48	22.563
489.83	22.857
490.17	22.357
490.52	22.414
490.87	23.054
491.22	22.227
491.56	23.251
491.91	23.027
492.26	22.588
492.60	22.781
492.95	23.695
493.30	22.815
493.64	23.171
493.99	22.895
494.34	22.605
494.68	23.041
495.03	23.216
495.37	23.657
495.72	23.311
496.07	23.094
496.41	22.994
496.76	22.936
497.11	23.185
497.45	23.047
497.80	23.012
498.14	22.902
498.49	23.254
498.84	23.720
499.18	24.067
499.53	23.184
499.87	23.385
500.22	22.618
500.56	22.897
500.91	23.616
501.26	23.455
501.60	23.288
501.95	23.448
502.29	24.002
502.64	22.693
502.98	23.339
503.33	22.981
503.67	23.114
504.02	23.161
504.36	23.548
504.71	23.794
505.06	23.874
505.40	23.400
505.75	23.679
506.09	24.401
506.44	23.723
506.78	24.358
507.13	24.066
507.47	23.828
507.82	24.100
508.16	23.614
508.51	23.676
508.85	23.524
509.19	23.875
509.54	25.408
509.88	24.478
510.23	24.235
510.57	25.085
510.92	24.770
511.26	23.906
511.61	23.129
511.95	23.865
512.30	24.963
512.64	23.788
512.98	24.112
513.33	24.546
513.67	24.936
514.02	24.783
514.36	25.371
514.70	24.948
515.05	25.026
515.39	25.302
515.74	25.345
516.08	24.353
516.42	25.955
516.77	24.658
517.11	24.807
517.46	25.239
517.80	25.975
518.14	25.245
518.49	25.163
518.83	24.854
519.17	25.094
519.52	25.419
519.86	25.502
520.20	25.240
520.55	26.013
520.89	25.957
521.23	25.237
521.58	26.554
521.92	25.666
522.26	25.086
522.61	27.083
522.95	25.663
523.29	26.034
523.64	26.345
523.98	26.241
524.32	25.387
524.66	25.384
525.01	25.878
525.35	25.617
525.69	25.000
526.04	25.201
526.38	25.575
526.72	26.009
527.06	25.982
527.41	25.306
527.75	26.663
528.09	25.738
528.43	25.755
528.78	25.549
529.12	25.057
529.46	25.351
529.80	26.144
530.15	25.797
530.49	26.097
530.83	25.856
531.17	25.986
531.51	26.053
531.86	26.202
532.20	25.793
532.54	26.092
532.88	25.697
533.22	25.869
533.57	25.274
533.91	26.655
534.25	25.890
534.59	25.690
534.93	25.693
535.27	25.690
535.62	26.094
535.96	24.927
536.30	25.676
536.64	26.847
536.98	26.691
537.32	26.790
537.66	26.263
538.01	25.921
538.35	25.213
538.69	25.120
539.03	25.751
539.37	26.031
539.71	25.465
540.05	26.978
540.39	25.367
540.73	25.501
541.07	26.364
541.42	25.989
541.76	25.801
542.10	26.236
542.44	26.005
542.78	26.277
543.12	25.626
543.46	25.031
543.80	25.180
544.14	25.913
544.48	26.418
544.82	26.152
545.16	26.118
545.50	26.004
545.84	26.087
546.18	27.284
546.52	26.433
546.86	25.849
547.20	25.254
547.54	25.593
547.88	25.256
548.22	25.965
548.56	26.156
548.90	25.254
549.24	26.687
549.58	25.678
549.92	25.383
550.26	26.537
550.60	26.228
550.94	25.873
551.28	26.535
551.62	26.550
551.96	25.890
552.30	27.406
552.64	26.633
552.98	25.889
553.32	26.881
553.66	26.881
554.00	27.049
554.34	25.933
554.68	25.436
555.02	25.624
555.36	28.205
555.69	25.945
556.03	26.293
556.37	25.970
556.71	27.140
557.05	26.901
557.39	26.808
557.73	26.486
558.07	26.225
558.41	27.508
558.75	26.842
559.08	27.349
559.42	26.612
559.76	27.341
560.10	26.859
560.44	26.517
560.78	27.312
561.12	26.355
561.45	26.034
561.79	25.946
562.13	26.864
562.47	25.709
562.81	26.266
563.15	26.010
563.48	26.227
563.82	26.179
564.16	25.803
564.50	26.400
564.84	25.723
565.17	25.941
565.51	25.834
565.85	25.000
566.19	25.230
566.52	26.039
566.86	25.297
567.20	25.829
567.54	25.385
567.88	25.688
568.21	25.692
568.55	25.276
568.89	25.329
569.23	24.715
569.56	24.736
569.90	24.305
570.24	23.980
570.57	23.926
570.91	23.362
571.25	23.084
571.59	23.240
571.92	23.161
572.26	22.896
572.60	23.615
572.93	23.741
573.27	23.827
573.61	23.610
573.95	23.549
574.28	23.009
574.62	22.533
574.96	22.276
575.29	22.472
575.63	22.961
575.97	23.114
576.30	22.354
576.64	23.216
576.98	22.938
577.31	23.018
577.65	22.802
577.98	22.421
578.32	22.063
578.66	21.900
578.99	22.363
579.33	22.699
579.67	22.779
580.00	22.454
580.34	23.102
580.67	22.529
581.01	22.826
581.35	22.268
581.68	22.041
582.02	22.117
582.35	22.410
582.69	22.220
583.02	22.743
583.36	22.612
583.70	22.927
584.03	23.206
584.37	23.599
584.70	23.130
585.04	23.134
585.37	22.581
585.71	23.020
586.04	22.523
586.38	23.143
586.72	22.512
587.05	22.947
587.39	23.311
587.72	23.397
588.06	23.187
588.39	23.376
588.73	22.831
589.06	23.758
589.40	23.878
589.73	23.907
590.07	23.906
590.40	24.611
590.73	24.072
591.07	24.013
591.40	23.872
591.74	24.523
592.07	24.807
592.41	24.763
592.74	23.678
593.08	23.758
593.41	23.914
593.75	23.506
594.08	23.872
594.41	23.814
594.75	23.746
595.08	23.385
595.42	24.351
595.75	23.797
596.09	24.297
596.42	24.472
596.75	24.199
597.09	25.010
597.42	24.911
597.75	24.265
598.09	24.841
598.42	25.211
598.76	23.921
599.09	23.816
599.42	23.500
599.76	24.265
600.09	23.790
600.42	23.757
600.76	24.009
601.09	23.631
601.42	23.790
601.76	23.759
602.09	23.874
602.42	24.464
602.76	24.207
603.09	24.670
603.42	24.711
603.76	23.996
604.09	24.202
604.42	24.881
604.76	24.163
605.09	24.890
605.42	25.239
605.75	24.385
606.09	23.778
606.42	24.152
606.75	23.876
607.09	24.347
607.42	24.393
607.75	24.736
608.08	24.665
608.42	25.393
608.75	24.585
609.08	24.491
609.41	25.232
609.75	25.357
610.08	24.978
610.41	25.021
610.74	25.504
611.07	26.021
611.41	24.619
611.74	25.450
612.07	24.965
612.40	25.143
612.73	25.966
613.07	25.086
613.40	25.024
613.73	25.806
614.06	25.074
614.39	25.607
614.72	24.891
615.06	25.168
615.39	24.456
615.72	25.166
616.05	25.595
616.38	26.085
616.71	25.131
617.05	25.719
617.38	26.110
617.71	26.296
618.04	25.796
618.37	26.721
618.70	27.262
619.03	26.165
619.36	26.880
619.69	27.739
620.03	26.554
620.36	26.810
620.69	25.725
621.02	26.772
621.35	28.374
621.68	28.633
622.01	27.402
622.34	27.197
622.67	27.354
623.00	26.181
623.33	27.140
623.66	27.237
623.99	26.728
624.32	27.680
624.65	26.770
624.99	26.983
625.32	28.021
625.65	27.377
625.98	26.441
626.31	27.923
626.64	28.718
626.97	27.982
627.30	28.322
627.63	27.757
627.96	28.228
628.29	28.405
628.62	27.624
628.95	29.185
629.28	28.887
629.61	29.798
629.94	28.452
630.26	28.898
630.59	29.188
630.92	29.004
631.25	29.696
631.58	30.038
631.91	29.709
632.24	30.451
632.57	28.748
632.90	29.789
633.23	30.000
633.56	31.020
633.89	28.719
634.22	31.393
634.55	30.376
634.88	30.519
635.20	31.647
635.53	31.525
635.86	32.069
636.19	31.601
636.52	30.907
636.85	30.235
637.18	29.730
637.51	29.677
637.83	31.783
