SpectraSuite Data File
++++++++++++++++++++++++++++++++++++
Date: Thu May 14 15:02:12 PDT 2015
User: schluterlab
Dark Spectrum Present: Yes
Reference Spectrum Present: Yes
Number of Sampled Component Spectra: 1
Spectrometers: USB2E3373
Integration Time (usec): 3000 (USB2E3373)
Spectra Averaged: 3 (USB2E3373)
Boxcar Smoothing: 0 (USB2E3373)
Correct for Electrical Dark: No (USB2E3373)
Strobe/Lamp Enabled: No (USB2E3373)
Correct for Detector Non-linearity: No (USB2E3373)
Correct for Stray Light: No (USB2E3373)
Number of Pixels in Processed Spectrum: 2048
>>>>>Begin Processed Spectral Data<<<<<
178.53	0.000
178.91	357.143
179.29	-3600.000
179.67	-2500.000
180.04	264.286
180.42	260.000
180.80	380.000
181.18	-2000.000
181.56	-1800.000
181.94	650.000
182.31	-225.000
182.69	533.333
183.07	-850.000
183.45	275.000
183.83	-350.000
184.20	-666.667
184.58	2500.000
184.96	-700.000
185.34	-266.667
185.72	-220.000
186.09	300.000
186.47	1150.000
186.85	700.000
187.23	-322.222
187.61	-2500.000
187.98	540.000
188.36	725.000
188.74	-550.000
189.12	-700.000
189.49	-156.250
189.87	-250.000
190.25	-233.333
190.63	-480.000
191.00	-266.667
191.38	0.000
191.76	-350.000
192.14	-433.333
192.51	950.000
192.89	-200.000
193.27	0.000
193.65	-371.429
194.02	-2300.000
194.40	-385.714
194.78	371.429
195.15	0.000
195.53	-100.000
195.91	0.000
196.29	-475.000
196.66	-115.385
197.04	-2700.000
197.42	-300.000
197.79	-900.000
198.17	-312.500
198.55	-314.286
198.92	-188.889
199.30	-312.500
199.68	-190.909
200.05	-164.286
200.43	-1550.000
200.81	442.857
201.18	0.000
201.56	311.111
201.94	0.000
202.31	866.667
202.69	-311.111
203.07	2100.000
203.44	-211.111
203.82	-600.000
204.19	-175.000
204.57	-450.000
204.95	-300.000
205.32	-2400.000
205.70	575.000
206.08	-350.000
206.45	-366.667
206.83	720.000
207.20	-433.333
207.58	-500.000
207.96	-533.333
208.33	-333.333
208.71	166.667
209.08	-133.333
209.46	0.000
209.84	533.333
210.21	1150.000
210.59	1450.000
210.96	1066.667
211.34	-625.000
211.71	-262.500
212.09	-2300.000
212.46	0.000
212.84	1800.000
213.22	-340.000
213.59	-425.000
213.97	-120.000
214.34	-666.667
214.72	550.000
215.09	-700.000
215.47	0.000
215.84	357.143
216.22	1150.000
216.59	-400.000
216.97	-540.000
217.34	-475.000
217.72	-312.500
218.09	-750.000
218.47	-925.000
218.84	0.000
219.22	440.000
219.59	-123.529
219.97	-130.000
220.34	1100.000
220.72	-277.778
221.09	-138.462
221.47	-800.000
221.84	-240.000
222.22	-442.857
222.59	0.000
222.97	-212.500
223.34	-640.000
223.72	-2100.000
224.09	-475.000
224.46	-650.000
224.84	-440.000
225.21	-457.143
225.59	-700.000
225.96	-650.000
226.34	-50.000
226.71	550.000
227.08	-1350.000
227.46	-153.333
227.83	-525.000
228.21	-68.421
228.58	337.500
228.95	1000.000
229.33	-150.000
229.70	-140.000
230.08	-100.000
230.45	290.000
230.82	-700.000
231.20	-192.857
231.57	-250.000
231.95	-227.273
232.32	-254.545
232.69	-65.000
233.07	-625.000
233.44	-123.529
233.81	-220.000
234.19	-83.333
234.56	-95.455
234.93	-34.483
235.31	-115.789
235.68	-88.889
236.05	-145.000
236.43	-42.308
236.80	-16.000
237.17	-33.333
237.55	-42.424
237.92	-300.000
238.29	-54.839
238.67	-40.909
239.04	-50.000
239.41	-52.381
239.79	-41.304
240.16	-46.296
240.53	-65.217
240.91	-56.863
241.28	-31.148
241.65	-17.910
242.02	-6.757
242.40	-35.385
242.77	-38.667
243.14	-24.390
243.51	-31.579
243.89	-42.308
244.26	-14.851
244.63	-15.686
245.00	-17.757
245.38	-17.544
245.75	-25.664
246.12	-15.873
246.49	-20.155
246.87	-6.429
247.24	-14.570
247.61	-13.158
247.98	-14.765
248.36	-16.049
248.73	-20.245
249.10	-10.383
249.47	-8.458
249.84	-10.471
250.22	-17.098
250.59	-12.778
250.96	-5.909
251.33	-11.735
251.70	-5.556
252.08	-8.333
252.45	-5.328
252.82	-14.463
253.19	-7.031
253.56	-8.745
253.94	-9.615
254.31	-7.197
254.68	-3.846
255.05	-2.606
255.42	-9.184
255.79	-10.032
256.16	-6.954
256.54	-9.934
256.91	-6.557
257.28	-6.885
257.65	-7.962
258.02	-6.785
258.39	-7.123
258.76	-2.446
259.14	-5.172
259.51	-7.205
259.88	-4.249
260.25	-3.333
260.62	-3.836
260.99	-3.005
261.36	-5.630
261.73	-7.427
262.10	-6.319
262.47	-4.826
262.85	-0.253
263.22	-7.273
263.59	-7.105
263.96	-5.371
264.33	-8.440
264.70	-4.198
265.07	-1.909
265.44	-0.680
265.81	-5.787
266.18	-4.082
266.55	-6.027
266.92	-6.606
267.29	-1.969
267.66	-5.543
268.03	-6.332
268.40	-4.593
268.77	-7.062
269.14	-6.828
269.51	-3.070
269.88	-1.639
270.25	-3.622
270.62	-4.852
270.99	-0.606
271.36	-0.594
271.73	-1.179
272.10	-3.407
272.47	-4.008
272.84	-4.217
273.21	-5.010
273.58	-3.024
273.95	-3.846
274.32	-3.232
274.69	-4.449
275.06	-4.212
275.43	-4.436
275.80	-1.411
276.17	-3.333
276.54	-3.172
276.91	-3.936
277.28	-1.808
277.65	-2.873
278.02	-1.471
278.39	-2.717
278.76	-4.218
279.13	-4.255
279.50	-2.062
279.87	-2.326
280.23	-5.986
280.60	-1.695
280.97	-1.809
281.34	-4.754
281.71	-1.184
282.08	-2.326
282.45	-4.255
282.82	-2.669
283.19	-4.847
283.56	-4.426
283.92	-0.450
284.29	-1.422
284.66	-2.956
285.03	-4.006
285.40	-1.546
285.77	-3.715
286.14	-0.305
286.51	-2.435
286.87	-3.002
287.24	-1.958
287.61	-3.139
287.98	-2.719
288.35	-0.296
288.72	-2.071
289.08	0.293
289.45	-2.959
289.82	-2.410
290.19	-0.862
290.56	-0.704
290.93	-2.568
291.29	-2.066
291.66	-1.377
292.03	-3.799
292.40	-0.680
292.77	-0.943
293.13	-2.436
293.50	-3.679
293.87	-1.342
294.24	-1.600
294.60	-0.379
294.97	-2.416
295.34	-0.640
295.71	-1.639
296.08	-2.196
296.44	-2.083
296.81	-0.853
297.18	-1.993
297.55	-1.887
297.91	-1.661
298.28	-2.488
298.65	-1.902
299.02	-2.125
299.38	-0.458
299.75	-1.752
300.12	-1.968
300.48	-1.613
300.85	-0.787
301.22	-0.671
301.59	-2.055
301.95	-1.695
302.32	-0.778
302.69	-0.767
303.05	-0.653
303.42	-1.220
303.79	-1.042
304.15	-1.472
304.52	-1.374
304.89	-0.628
305.25	-0.725
305.62	-0.731
305.99	-0.928
306.35	-1.512
306.72	-1.344
307.09	-0.711
307.45	-0.104
307.82	-0.605
308.19	-1.009
308.55	-0.675
308.92	-0.779
309.29	-0.096
309.65	-1.072
310.02	-0.495
310.38	-1.083
310.75	-0.097
311.12	-0.096
311.48	-1.075
311.85	-1.425
312.22	-0.569
312.58	-0.188
312.95	-1.338
313.31	0.090
313.68	-0.275
314.05	1.265
314.41	-0.182
314.78	0.363
315.14	-0.635
315.51	-0.369
315.87	1.170
316.24	0.731
316.61	0.622
316.97	-0.181
317.34	-0.353
317.70	0.524
318.07	0.265
318.43	0.425
318.80	1.421
319.16	-0.343
319.53	-1.028
319.89	0.000
320.26	0.801
320.62	0.089
320.99	0.462
321.35	-0.277
321.72	1.302
322.08	0.812
322.45	0.542
322.81	-0.090
323.18	0.619
323.54	-0.517
323.91	1.601
324.27	0.861
324.64	1.175
325.00	0.332
325.37	0.737
325.73	1.570
326.10	1.135
326.46	0.733
326.83	1.681
327.19	0.866
327.56	1.344
327.92	0.865
328.29	1.129
328.65	0.503
329.01	0.761
329.38	1.348
329.74	1.027
330.11	1.884
330.47	0.674
330.84	0.861
331.20	1.750
331.56	0.867
331.93	2.008
332.29	1.017
332.66	0.914
333.02	0.251
333.38	1.258
333.75	1.094
334.11	1.251
334.48	0.908
334.84	1.614
335.20	0.924
335.57	1.855
335.93	0.331
336.29	0.499
336.66	0.841
337.02	1.171
337.38	1.020
337.75	1.074
338.11	1.598
338.47	1.075
338.84	0.254
339.20	0.421
339.56	1.071
339.93	0.575
340.29	2.254
340.65	1.298
341.02	1.836
341.38	1.940
341.74	0.646
342.11	1.287
342.47	0.477
342.83	1.208
343.20	0.491
343.56	0.882
343.92	0.400
344.28	1.562
344.65	2.326
345.01	1.092
345.37	1.477
345.73	0.624
346.10	1.014
346.46	-0.316
346.82	1.648
347.19	1.451
347.55	1.517
347.91	1.189
348.27	1.214
348.63	1.066
349.00	1.044
349.36	2.082
349.72	0.893
350.08	1.932
350.45	1.065
350.81	0.754
351.17	1.278
351.53	1.213
351.89	0.911
352.26	0.672
352.62	1.418
352.98	0.992
353.34	0.299
353.70	0.385
354.07	0.894
354.43	0.607
354.79	0.673
355.15	1.398
355.51	2.120
355.87	0.748
356.24	0.684
356.60	1.183
356.96	1.112
357.32	1.115
357.68	1.171
358.04	-0.225
358.40	0.746
358.77	1.974
359.13	0.222
359.49	-0.223
359.85	0.580
360.21	0.646
360.57	1.220
360.93	0.071
361.29	1.123
361.66	0.869
362.02	1.253
362.38	1.687
362.74	0.908
363.10	1.582
363.46	0.485
363.82	1.065
364.18	1.267
364.54	1.521
364.90	1.070
365.26	0.621
365.62	1.667
365.98	0.817
366.35	1.544
366.71	0.952
367.07	0.880
367.43	1.970
367.79	1.194
368.15	1.538
368.51	0.541
368.87	1.698
369.23	0.867
369.59	0.205
369.95	1.352
370.31	1.080
370.67	0.963
371.03	1.385
371.39	0.672
371.75	1.719
372.11	1.016
372.47	1.354
372.83	2.094
373.19	1.334
373.55	0.745
373.91	0.204
374.27	2.005
374.63	0.812
374.99	1.127
375.35	1.948
375.71	1.548
376.07	1.420
376.42	0.945
376.78	1.492
377.14	1.871
377.50	1.075
377.86	1.355
378.22	1.257
378.58	1.605
378.94	1.761
379.30	1.523
379.66	0.999
380.02	1.443
380.38	1.498
380.74	1.634
381.09	1.742
381.45	1.080
381.81	1.581
382.17	1.663
382.53	1.228
382.89	2.088
383.25	0.938
383.61	0.926
383.97	1.649
384.32	1.017
384.68	1.044
385.04	1.272
385.40	2.357
385.76	1.407
386.12	1.376
386.48	1.941
386.83	1.490
387.19	1.101
387.55	1.291
387.91	1.598
388.27	1.848
388.62	1.432
388.98	1.410
389.34	1.591
389.70	1.104
390.06	1.421
390.42	1.386
390.77	1.626
391.13	1.350
391.49	1.208
391.85	0.667
392.20	1.364
392.56	2.599
392.92	2.454
393.28	1.769
393.64	0.894
393.99	2.324
394.35	1.577
394.71	1.617
395.07	0.539
395.42	1.428
395.78	1.584
396.14	1.307
396.50	1.306
396.85	1.371
397.21	1.183
397.57	1.296
397.92	2.176
398.28	1.086
398.64	1.259
399.00	1.204
399.35	1.518
399.71	0.761
400.07	1.460
400.42	0.640
400.78	1.100
401.14	1.138
401.49	1.194
401.85	1.628
402.21	1.448
402.57	1.702
402.92	1.418
403.28	1.230
403.63	0.597
403.99	0.772
404.35	1.706
404.70	2.096
405.06	1.685
405.42	1.405
405.77	1.472
406.13	1.459
406.49	1.745
406.84	1.274
407.20	1.397
407.55	1.090
407.91	0.817
408.27	1.060
408.62	1.222
408.98	1.335
409.34	0.528
409.69	0.989
410.05	1.876
410.40	1.276
410.76	1.402
411.11	1.461
411.47	1.536
411.83	1.646
412.18	0.783
412.54	1.363
412.89	1.979
413.25	0.790
413.60	0.976
413.96	1.573
414.31	1.076
414.67	1.133
415.03	1.231
415.38	1.261
415.74	0.611
416.09	2.097
416.45	1.190
416.80	2.020
417.16	1.405
417.51	0.934
417.87	1.165
418.22	0.719
418.58	0.558
418.93	2.212
419.29	0.617
419.64	1.020
420.00	0.890
420.35	1.460
420.71	1.149
421.06	1.553
421.42	1.089
421.77	0.915
422.12	1.586
422.48	1.024
422.83	1.588
423.19	1.114
423.54	1.549
423.90	1.325
424.25	1.280
424.61	0.459
424.96	1.208
425.31	1.699
425.67	0.859
426.02	0.996
426.38	0.976
426.73	1.283
427.09	2.307
427.44	0.819
427.79	0.553
428.15	0.628
428.50	0.618
428.85	1.206
429.21	2.394
429.56	0.691
429.92	1.032
430.27	1.446
430.62	1.026
430.98	1.033
431.33	1.026
431.68	0.910
432.04	1.727
432.39	1.285
432.74	1.313
433.10	1.298
433.45	0.557
433.80	1.180
434.16	1.705
434.51	1.079
434.86	0.977
435.22	1.435
435.57	1.297
435.92	1.169
436.28	1.138
436.63	1.311
436.98	1.342
437.34	1.240
437.69	0.715
438.04	1.428
438.39	1.034
438.75	0.387
439.10	1.956
439.45	1.733
439.81	1.243
440.16	0.804
440.51	1.895
440.86	1.278
441.22	1.072
441.57	0.891
441.92	1.406
442.27	1.515
442.63	0.845
442.98	1.547
443.33	1.052
443.68	1.586
444.03	2.070
444.39	1.849
444.74	1.736
445.09	1.368
445.44	0.896
445.79	1.676
446.15	1.336
446.50	0.827
446.85	1.411
447.20	1.451
447.55	1.308
447.91	1.152
448.26	1.110
448.61	1.488
448.96	1.717
449.31	1.591
449.66	0.763
450.02	1.424
450.37	1.971
450.72	0.377
451.07	1.424
451.42	1.329
451.77	1.001
452.12	1.242
452.47	1.188
452.83	1.014
453.18	0.934
453.53	0.517
453.88	0.883
454.23	1.469
454.58	0.696
454.93	1.032
455.28	1.445
455.63	1.421
455.98	1.508
456.34	1.001
456.69	1.529
457.04	0.591
457.39	1.109
457.74	1.678
458.09	1.263
458.44	1.616
458.79	1.238
459.14	1.311
459.49	1.585
459.84	1.259
460.19	0.888
460.54	1.249
460.89	1.800
461.24	0.575
461.59	1.439
461.94	0.685
462.29	1.288
462.64	1.328
462.99	1.381
463.34	1.103
463.69	1.524
464.04	1.445
464.39	1.177
464.74	1.767
465.09	0.807
465.44	1.609
465.79	1.428
466.14	0.990
466.49	0.842
466.84	1.047
467.19	1.676
467.54	0.764
467.89	0.862
468.24	1.607
468.59	0.290
468.94	1.166
469.29	1.140
469.64	0.636
469.99	0.510
470.34	1.423
470.68	0.820
471.03	1.179
471.38	0.916
471.73	0.520
472.08	1.269
472.43	1.264
472.78	1.259
473.13	-0.253
473.48	1.390
473.83	1.567
474.17	0.762
474.52	0.722
474.87	1.772
475.22	1.521
475.57	0.883
475.92	0.996
476.27	1.810
476.61	1.558
476.96	1.147
477.31	1.733
477.66	1.679
478.01	1.220
478.36	1.346
478.70	1.330
479.05	0.869
479.40	1.333
479.75	1.921
480.10	1.279
480.45	1.459
480.79	1.497
481.14	1.379
481.49	1.181
481.84	1.871
482.19	1.505
482.53	1.224
482.88	1.639
483.23	1.867
483.58	1.441
483.92	1.108
484.27	1.143
484.62	1.155
484.97	1.905
485.31	1.654
485.66	1.998
486.01	2.013
486.36	2.189
486.70	2.441
487.05	2.179
487.40	2.136
487.75	2.417
488.09	1.719
488.44	2.035
488.79	1.956
489.13	2.317
489.48	1.359
489.83	1.449
490.17	1.458
490.52	1.847
490.87	1.311
491.22	1.256
491.56	1.664
491.91	1.788
492.26	1.904
492.60	1.530
492.95	1.404
493.30	1.793
493.64	1.883
493.99	1.535
494.34	1.132
494.68	1.627
495.03	1.674
495.37	1.332
495.72	1.633
496.07	1.665
496.41	1.373
496.76	2.002
497.11	1.231
497.45	1.467
497.80	1.688
498.14	1.406
498.49	1.425
498.84	1.463
499.18	1.619
499.53	2.152
499.87	1.538
500.22	1.781
500.56	1.170
500.91	1.465
501.26	1.864
501.60	1.502
501.95	2.084
502.29	1.624
502.64	1.618
502.98	2.330
503.33	1.728
503.67	1.483
504.02	1.620
504.36	1.698
504.71	1.516
505.06	1.410
505.40	1.463
505.75	1.321
506.09	2.026
506.44	2.182
506.78	1.835
507.13	2.075
507.47	1.516
507.82	1.941
508.16	1.195
508.51	1.360
508.85	1.323
509.19	1.563
509.54	1.825
509.88	1.117
510.23	1.263
510.57	1.933
510.92	1.500
511.26	1.347
511.61	1.497
511.95	1.611
512.30	2.117
512.64	1.649
512.98	1.701
513.33	1.361
513.67	1.581
514.02	1.277
514.36	1.893
514.70	1.302
515.05	1.512
515.39	1.942
515.74	2.863
516.08	2.007
516.42	2.512
516.77	1.788
517.11	2.269
517.46	1.803
517.80	2.459
518.14	2.612
518.49	1.573
518.83	1.703
519.17	1.292
519.52	2.463
519.86	2.323
520.20	2.077
520.55	1.424
520.89	1.971
521.23	2.010
521.58	1.695
521.92	2.380
522.26	1.088
522.61	1.505
522.95	1.499
523.29	1.782
523.64	1.065
523.98	1.768
524.32	2.235
524.66	1.594
525.01	1.246
525.35	1.608
525.69	1.856
526.04	1.493
526.38	1.897
526.72	1.788
527.06	1.173
527.41	1.866
527.75	1.722
528.09	1.653
528.43	1.658
528.78	1.503
529.12	2.064
529.46	2.024
529.80	1.602
530.15	1.449
530.49	1.483
530.83	1.889
531.17	1.434
531.51	1.324
531.86	1.743
532.20	1.707
532.54	1.975
532.88	1.576
533.22	1.886
533.57	1.616
533.91	2.413
534.25	2.205
534.59	0.920
534.93	1.415
535.27	1.577
535.62	1.706
535.96	2.731
536.30	1.821
536.64	2.222
536.98	1.907
537.32	1.728
537.66	1.871
538.01	1.269
538.35	2.071
538.69	1.322
539.03	1.839
539.37	1.767
539.71	1.862
540.05	1.439
540.39	0.917
540.73	1.882
541.07	1.717
541.42	2.304
541.76	1.246
542.10	1.508
542.44	0.609
542.78	2.251
543.12	2.801
543.46	2.198
543.80	1.739
544.14	1.376
544.48	2.246
544.82	1.556
545.16	1.908
545.50	1.138
545.84	1.286
546.18	2.654
546.52	1.465
546.86	1.447
547.20	1.972
547.54	1.935
547.88	1.688
548.22	1.930
548.56	1.521
548.90	1.373
549.24	1.581
549.58	1.640
549.92	1.276
550.26	1.748
550.60	1.851
550.94	1.294
551.28	1.782
551.62	1.954
551.96	2.395
552.30	2.294
552.64	2.240
552.98	1.809
553.32	1.801
553.66	1.929
554.00	1.765
554.34	1.995
554.68	1.679
555.02	1.511
555.36	2.170
555.69	1.025
556.03	1.324
556.37	1.564
556.71	1.015
557.05	2.236
557.39	1.261
557.73	0.859
558.07	0.596
558.41	1.993
558.75	1.487
559.08	2.018
559.42	1.097
559.76	2.103
560.10	2.076
560.44	1.781
560.78	2.938
561.12	1.724
561.45	2.311
561.79	2.076
562.13	2.588
562.47	1.665
562.81	1.709
563.15	1.326
563.48	1.429
563.82	1.995
564.16	0.909
564.50	1.967
564.84	1.416
565.17	1.235
565.51	0.978
565.85	1.485
566.19	1.843
566.52	1.404
566.86	1.245
567.20	1.523
567.54	1.699
567.88	2.039
568.21	1.680
568.55	1.871
568.89	1.952
569.23	2.408
569.56	1.993
569.90	2.423
570.24	1.990
570.57	2.149
570.91	2.511
571.25	2.285
571.59	2.505
571.92	2.026
572.26	2.409
572.60	2.184
572.93	2.561
573.27	2.388
573.61	2.409
573.95	2.622
574.28	2.476
574.62	2.296
574.96	2.603
575.29	2.357
575.63	2.472
575.97	2.563
576.30	2.517
576.64	2.458
576.98	2.323
577.31	2.475
577.65	2.311
577.98	2.523
578.32	2.243
578.66	2.620
578.99	2.539
579.33	2.446
579.67	2.312
580.00	2.675
580.34	2.247
580.67	2.096
581.01	2.228
581.35	2.455
581.68	2.378
582.02	2.606
582.35	2.499
582.69	2.446
583.02	2.317
583.36	2.403
583.70	2.272
584.03	2.136
584.37	2.641
584.70	2.054
585.04	2.302
585.37	2.320
585.71	2.352
586.04	2.268
586.38	2.530
586.72	1.955
587.05	1.816
587.39	2.319
587.72	2.464
588.06	2.224
588.39	2.514
588.73	2.037
589.06	2.398
589.40	2.151
589.73	2.442
590.07	2.321
590.40	2.535
590.73	1.979
591.07	2.457
591.40	1.944
591.74	1.431
592.07	2.558
592.41	1.735
592.74	2.165
593.08	2.357
593.41	2.537
593.75	2.213
594.08	2.242
594.41	2.244
594.75	2.258
595.08	1.985
595.42	2.273
595.75	2.486
596.09	2.643
596.42	2.006
596.75	1.891
597.09	2.545
597.42	1.986
597.75	2.078
598.09	2.778
598.42	1.890
598.76	1.949
599.09	1.994
599.42	1.911
599.76	2.113
600.09	2.236
600.42	2.302
600.76	2.312
601.09	1.726
601.42	2.231
601.76	2.345
602.09	2.073
602.42	2.072
602.76	2.325
603.09	1.909
603.42	1.770
603.76	1.480
604.09	2.520
604.42	1.982
604.76	2.169
605.09	2.034
605.42	2.313
605.75	2.346
606.09	1.717
606.42	1.970
606.75	1.537
607.09	1.690
607.42	1.811
607.75	1.876
608.08	2.289
608.42	1.894
608.75	1.783
609.08	1.613
609.41	1.897
609.75	1.473
610.08	2.331
610.41	1.699
610.74	1.849
611.07	1.909
611.41	1.659
611.74	2.032
612.07	2.151
612.40	1.616
612.73	1.858
613.07	2.054
613.40	1.925
613.73	1.974
614.06	1.570
614.39	1.361
614.72	1.892
615.06	2.214
615.39	1.788
615.72	1.659
616.05	1.991
616.38	1.816
616.71	1.985
617.05	1.278
617.38	2.675
617.71	2.322
618.04	1.889
618.37	1.803
618.70	1.584
619.03	0.777
619.36	1.911
619.69	1.730
620.03	1.507
620.36	1.166
620.69	1.049
621.02	1.837
621.35	1.524
621.68	1.229
622.01	1.637
622.34	0.279
622.67	1.031
623.00	0.135
623.33	1.593
623.66	1.167
623.99	1.251
624.32	2.404
624.65	0.965
624.99	1.430
625.32	1.894
625.65	1.079
625.98	0.475
626.31	1.063
626.64	1.245
626.97	0.525
627.30	-0.607
627.63	0.600
627.96	1.577
628.29	0.623
628.62	0.504
628.95	0.876
629.28	0.340
629.61	0.842
629.94	0.586
630.26	0.000
630.59	1.123
630.92	0.173
631.25	1.073
631.58	0.565
631.91	0.281
632.24	0.480
632.57	0.380
632.90	0.000
633.23	0.306
633.56	0.306
633.89	-0.620
634.22	0.936
634.55	0.418
634.88	-0.649
635.20	1.076
635.53	-0.339
635.86	0.650
636.19	2.121
636.52	-0.422
636.85	0.102
637.18	0.936
637.51	-0.108
637.83	1.883
638.16	0.691
638.49	-0.117
638.82	-0.113
639.15	-0.344
639.48	1.501
639.81	1.039
640.13	0.471
640.46	-2.424
640.79	-1.716
641.12	-0.621
641.45	-1.631
641.77	0.257
642.10	-0.919
642.43	1.596
642.76	0.407
643.09	-1.370
643.41	-0.280
643.74	-0.138
644.07	0.828
644.40	-1.132
644.73	-2.177
645.05	-1.468
645.38	0.144
645.71	-0.880
646.04	0.861
646.36	-0.146
646.69	-1.227
647.02	0.765
647.35	-0.305
647.67	-0.322
648.00	-1.911
648.33	-1.502
648.66	-0.571
648.98	0.136
649.31	0.000
649.64	1.195
649.96	-0.796
650.29	-1.808
