SpectraSuite Data File
++++++++++++++++++++++++++++++++++++
Date: Thu May 14 14:32:57 PDT 2015
User: schluterlab
Dark Spectrum Present: Yes
Reference Spectrum Present: Yes
Number of Sampled Component Spectra: 1
Spectrometers: USB2E3373
Integration Time (usec): 3000 (USB2E3373)
Spectra Averaged: 3 (USB2E3373)
Boxcar Smoothing: 0 (USB2E3373)
Correct for Electrical Dark: No (USB2E3373)
Strobe/Lamp Enabled: No (USB2E3373)
Correct for Detector Non-linearity: No (USB2E3373)
Correct for Stray Light: No (USB2E3373)
Number of Pixels in Processed Spectrum: 2048
>>>>>Begin Processed Spectral Data<<<<<
178.53	0.000
178.91	-257.143
179.29	900.000
179.67	1900.000
180.04	-21.429
180.42	-180.000
180.80	-100.000
181.18	2200.000
181.56	1800.000
181.94	-475.000
182.31	700.000
182.69	-433.333
183.07	900.000
183.45	-425.000
183.83	266.667
184.20	433.333
184.58	-1400.000
184.96	275.000
185.34	333.333
185.72	360.000
186.09	-11.111
186.47	-1050.000
186.85	-280.000
187.23	133.333
187.61	200.000
187.98	-220.000
188.36	-400.000
188.74	500.000
189.12	833.333
189.49	187.500
189.87	300.000
190.25	288.889
190.63	380.000
191.00	100.000
191.38	0.000
191.76	375.000
192.14	216.667
192.51	-950.000
192.89	383.333
193.27	0.000
193.65	300.000
194.02	1500.000
194.40	414.286
194.78	-185.714
195.15	0.000
195.53	318.182
195.91	0.000
196.29	500.000
196.66	130.769
197.04	1500.000
197.42	71.429
197.79	900.000
198.17	200.000
198.55	271.429
198.92	222.222
199.30	112.500
199.68	181.818
200.05	157.143
200.43	650.000
200.81	-128.571
201.18	0.000
201.56	-122.222
201.94	0.000
202.31	-266.667
202.69	77.778
203.07	-700.000
203.44	255.556
203.82	550.000
204.19	100.000
204.57	333.333
204.95	162.500
205.32	1600.000
205.70	-550.000
206.08	383.333
206.45	300.000
206.83	-200.000
207.20	333.333
207.58	120.000
207.96	416.667
208.33	383.333
208.71	-116.667
209.08	316.667
209.46	0.000
209.84	-166.667
210.21	-1250.000
210.59	-1000.000
210.96	-500.000
211.34	825.000
211.71	187.500
212.09	1300.000
212.46	0.000
212.84	-700.000
213.22	500.000
213.59	450.000
213.97	230.000
214.34	766.667
214.72	-150.000
215.09	650.000
215.47	0.000
215.84	-214.286
216.22	-200.000
216.59	480.000
216.97	420.000
217.34	425.000
217.72	225.000
218.09	250.000
218.47	450.000
218.84	0.000
219.22	-380.000
219.59	147.059
219.97	135.000
220.34	-650.000
220.72	144.444
221.09	215.385
221.47	700.000
221.84	120.000
222.22	342.857
222.59	0.000
222.97	250.000
223.34	420.000
223.72	1800.000
224.09	475.000
224.46	300.000
224.84	560.000
225.21	242.857
225.59	400.000
225.96	250.000
226.34	88.462
226.71	-266.667
227.08	800.000
227.46	146.667
227.83	400.000
228.21	115.789
228.58	-150.000
228.95	-900.000
229.33	183.333
229.70	270.000
230.08	178.947
230.45	-120.000
230.82	700.000
231.20	142.857
231.57	158.333
231.95	227.273
232.32	218.182
232.69	160.000
233.07	275.000
233.44	58.824
233.81	210.000
234.19	177.778
234.56	172.727
234.93	117.241
235.31	136.842
235.68	155.556
236.05	115.000
236.43	107.692
236.80	112.000
237.17	107.407
237.55	60.606
237.92	180.000
238.29	96.774
238.67	65.909
239.04	63.889
239.41	80.952
239.79	89.130
240.16	75.926
240.53	63.043
240.91	35.294
241.28	52.459
241.65	53.731
242.02	60.811
242.40	44.615
242.77	58.667
243.14	48.780
243.51	51.316
243.89	48.718
244.26	43.564
244.63	55.882
245.00	38.318
245.38	42.982
245.75	35.398
246.12	46.825
246.49	42.636
246.87	47.143
247.24	41.722
247.61	42.105
247.98	46.980
248.36	40.741
248.73	36.810
249.10	38.251
249.47	40.796
249.84	45.026
250.22	37.824
250.59	44.444
250.96	39.545
251.33	34.694
251.70	40.598
252.08	36.667
252.45	40.164
252.82	39.256
253.19	34.375
253.56	38.403
253.94	33.077
254.31	34.091
254.68	42.657
255.05	33.876
255.42	33.333
255.79	31.715
256.16	34.437
256.54	32.119
256.91	37.377
257.28	35.738
257.65	31.847
258.02	33.923
258.39	30.769
258.76	40.367
259.14	37.069
259.51	38.329
259.88	32.861
260.25	35.556
260.62	35.342
260.99	34.973
261.36	37.265
261.73	31.565
262.10	31.319
262.47	33.244
262.85	33.081
263.22	32.727
263.59	33.947
263.96	32.737
264.33	31.969
264.70	35.309
265.07	36.038
265.44	34.694
265.81	36.111
266.18	34.467
266.55	33.705
266.92	32.574
267.29	32.823
267.66	31.929
268.03	33.624
268.40	32.568
268.77	33.941
269.14	31.718
269.51	33.991
269.88	33.811
270.25	31.791
270.62	32.911
270.99	36.162
271.36	32.475
271.73	31.238
272.10	36.072
272.47	31.062
272.84	30.321
273.21	34.269
273.58	31.048
273.95	34.038
274.32	30.989
274.69	31.335
275.06	31.868
275.43	29.945
275.80	32.451
276.17	29.815
276.54	32.090
276.91	29.338
277.28	31.465
277.65	30.880
278.02	31.985
278.39	32.971
278.76	28.471
279.13	29.255
279.50	31.615
279.87	32.558
280.23	29.225
280.60	33.390
280.97	31.579
281.34	30.900
281.71	32.826
282.08	30.399
282.45	29.787
282.82	29.356
283.19	29.887
283.56	30.656
283.92	30.180
284.29	32.385
284.66	30.870
285.03	28.686
285.40	29.830
285.77	30.031
286.14	29.618
286.51	29.680
286.87	27.646
287.24	30.120
287.61	29.297
287.98	28.097
288.35	29.142
288.72	26.923
289.08	28.697
289.45	27.663
289.82	27.108
290.19	28.161
290.56	27.606
290.93	26.391
291.29	28.237
291.66	26.860
292.03	24.288
292.40	27.619
292.77	25.337
293.13	25.710
293.50	26.413
293.87	26.443
294.24	27.867
294.60	27.054
294.97	24.295
295.34	25.096
295.71	23.707
296.08	24.806
296.44	25.735
296.81	24.239
297.18	24.658
297.55	24.057
297.91	23.132
298.28	22.749
298.65	23.306
299.02	24.793
299.38	23.684
299.75	22.313
300.12	22.222
300.48	23.848
300.85	24.184
301.22	23.714
301.59	23.288
301.95	23.729
302.32	23.667
302.69	22.563
303.05	23.830
303.42	23.503
303.79	21.875
304.15	21.661
304.52	22.516
304.89	22.723
305.25	23.085
305.62	21.630
305.99	22.577
306.35	21.875
306.72	23.371
307.09	21.624
307.45	21.222
307.82	22.099
308.19	23.108
308.55	24.012
308.92	22.590
309.29	22.989
309.65	24.172
310.02	22.673
310.38	23.425
310.75	24.466
311.12	24.736
311.48	22.776
311.85	24.691
312.22	23.529
312.58	25.070
312.95	23.518
313.31	24.210
313.68	25.000
314.05	25.655
314.41	25.137
314.78	25.522
315.14	27.677
315.51	26.777
315.87	26.283
316.24	26.393
316.61	26.199
316.97	26.968
317.34	26.984
317.70	27.860
318.07	28.660
318.43	29.337
318.80	29.431
319.16	29.013
319.53	29.220
319.89	28.922
320.26	30.249
320.62	31.472
320.99	30.379
321.35	32.348
321.72	33.581
322.08	31.650
322.45	33.424
322.81	33.845
323.18	33.628
323.54	33.879
323.91	36.032
324.27	35.370
324.64	35.684
325.00	37.728
325.37	38.247
325.73	40.083
326.10	39.092
326.46	39.902
326.83	40.512
327.19	41.496
327.56	42.372
327.92	42.565
328.29	42.661
328.65	43.216
329.01	44.416
329.38	45.240
329.74	46.747
330.11	45.462
330.47	46.841
330.84	47.545
331.20	46.750
331.56	48.007
331.93	48.452
332.29	49.915
332.66	49.751
333.02	48.576
333.38	49.581
333.75	49.663
334.11	50.626
334.48	50.248
334.84	51.912
335.20	49.622
335.57	50.927
335.93	51.818
336.29	51.331
336.66	50.967
337.02	50.502
337.38	52.721
337.75	52.149
338.11	52.986
338.47	51.696
338.84	53.553
339.20	52.401
339.56	50.165
339.93	50.411
340.29	50.886
340.65	50.365
341.02	53.791
341.38	52.789
341.74	51.897
342.11	53.017
342.47	52.502
342.83	54.106
343.20	54.129
343.56	54.451
343.92	53.483
344.28	53.359
344.65	52.946
345.01	52.574
345.37	53.033
345.73	52.455
346.10	53.510
346.46	52.927
346.82	53.558
347.19	53.705
347.55	53.035
347.91	52.675
348.27	54.628
348.63	52.551
349.00	53.095
349.36	52.937
349.72	53.646
350.08	53.640
350.45	53.840
350.81	54.072
351.17	53.383
351.53	52.388
351.89	54.062
352.26	53.955
352.62	54.328
352.98	55.954
353.34	53.174
353.70	55.778
354.07	53.130
354.43	54.290
354.79	53.104
355.15	53.790
355.51	53.947
355.87	54.076
356.24	55.437
356.60	54.545
356.96	54.781
357.32	53.903
357.68	54.832
358.04	54.117
358.40	54.328
358.77	55.409
359.13	54.874
359.49	55.539
359.85	56.128
360.21	55.739
360.57	53.769
360.93	55.924
361.29	55.649
361.66	56.046
362.02	55.393
362.38	55.235
362.74	55.587
363.10	55.915
363.46	57.271
363.82	56.392
364.18	57.002
364.54	57.607
364.90	57.592
365.26	56.483
365.62	55.733
365.98	57.318
366.35	56.174
366.71	57.891
367.07	57.645
367.43	57.058
367.79	57.797
368.15	59.064
368.51	57.645
368.87	57.871
369.23	56.933
369.59	57.719
369.95	57.336
370.31	57.596
370.67	58.322
371.03	57.687
371.39	58.160
371.75	58.253
372.11	57.995
372.47	59.986
372.83	59.490
373.19	58.906
373.55	59.553
373.91	58.691
374.27	59.379
374.63	59.540
374.99	59.085
375.35	60.130
375.71	60.065
376.07	60.684
376.42	61.083
376.78	61.653
377.14	61.510
377.50	60.974
377.86	61.700
378.22	61.198
378.58	62.901
378.94	62.793
379.30	62.273
379.66	61.670
380.02	63.128
380.38	63.652
380.74	64.000
381.09	63.473
381.45	64.205
381.81	65.281
382.17	64.489
382.53	64.561
382.89	64.165
383.25	65.533
383.61	63.947
383.97	64.547
384.32	65.730
384.68	65.719
385.04	66.455
385.40	65.999
385.76	68.464
386.12	66.846
386.48	66.176
386.83	69.368
387.19	68.134
387.55	66.373
387.91	66.553
388.27	67.898
388.62	66.609
388.98	67.118
389.34	69.122
389.70	68.216
390.06	68.265
390.42	69.217
390.77	68.573
391.13	68.721
391.49	68.780
391.85	68.970
392.20	68.446
392.56	68.754
392.92	69.902
393.28	70.094
393.64	69.441
393.99	71.005
394.35	70.269
394.71	71.677
395.07	69.641
395.42	69.617
395.78	71.968
396.14	70.648
396.50	70.131
396.85	69.708
397.21	70.710
397.57	71.319
397.92	70.733
398.28	71.374
398.64	71.339
399.00	69.634
399.35	70.262
399.71	70.815
400.07	72.094
400.42	71.478
400.78	71.528
401.14	72.339
401.49	72.314
401.85	72.326
402.21	73.696
402.57	71.655
402.92	73.286
403.28	71.604
403.63	72.375
403.99	72.684
404.35	69.983
404.70	72.238
405.06	70.326
405.42	72.482
405.77	73.773
406.13	73.096
406.49	73.198
406.84	71.413
407.20	72.275
407.55	73.168
407.91	73.979
408.27	72.674
408.62	73.880
408.98	73.244
409.34	72.199
409.69	75.031
410.05	72.978
410.40	75.116
410.76	73.808
411.11	74.226
411.47	74.570
411.83	74.250
412.18	75.241
412.54	75.578
412.89	73.632
413.25	74.944
413.60	74.612
413.96	74.068
414.31	72.975
414.67	73.822
415.03	72.554
415.38	74.716
415.74	73.855
416.09	76.311
416.45	73.450
416.80	74.969
417.16	76.437
417.51	74.720
417.87	74.004
418.22	75.449
418.58	76.518
418.93	75.320
419.29	76.819
419.64	75.450
420.00	75.786
420.35	76.474
420.71	75.531
421.06	74.296
421.42	76.433
421.77	74.906
422.12	75.053
422.48	76.600
422.83	76.287
423.19	75.756
423.54	76.770
423.90	75.207
424.25	77.707
424.61	76.751
424.96	76.991
425.31	77.017
425.67	76.543
426.02	77.532
426.38	77.382
426.73	77.009
427.09	78.028
427.44	78.263
427.79	76.783
428.15	76.256
428.50	76.910
428.85	77.727
429.21	77.926
429.56	77.690
429.92	76.658
430.27	77.687
430.62	77.626
430.98	77.177
431.33	75.709
431.68	75.766
432.04	78.162
432.39	77.933
432.74	78.368
433.10	79.178
433.45	79.320
433.80	78.702
434.16	78.254
434.51	79.805
434.86	80.347
435.22	80.287
435.57	80.778
435.92	79.188
436.28	79.181
436.63	81.049
436.98	77.724
437.34	80.947
437.69	78.646
438.04	79.693
438.39	77.771
438.75	80.354
439.10	79.968
439.45	80.045
439.81	80.734
440.16	79.357
440.51	79.208
440.86	78.766
441.22	78.778
441.57	80.922
441.92	77.789
442.27	80.404
442.63	78.043
442.98	78.709
443.33	79.221
443.68	78.295
444.03	80.856
444.39	80.629
444.74	78.969
445.09	78.713
445.44	81.033
445.79	80.125
446.15	79.805
446.50	80.724
446.85	79.864
447.20	80.174
447.55	80.858
447.91	80.105
448.26	80.603
448.61	81.615
448.96	81.921
449.31	79.958
449.66	80.011
450.02	80.696
450.37	80.021
450.72	81.055
451.07	80.296
451.42	80.994
451.77	79.878
452.12	81.603
452.47	79.917
452.83	83.502
453.18	81.261
453.53	80.988
453.88	81.060
454.23	81.525
454.58	81.486
454.93	82.221
455.28	83.022
455.63	81.751
455.98	81.285
456.34	81.979
456.69	81.952
457.04	81.856
457.39	81.208
457.74	82.271
458.09	82.208
458.44	81.735
458.79	79.938
459.14	81.122
459.49	82.626
459.84	82.057
460.19	81.954
460.54	82.737
460.89	81.472
461.24	81.839
461.59	81.240
461.94	80.947
462.29	81.691
462.64	81.473
462.99	82.109
463.34	84.685
463.69	81.008
464.04	82.268
464.39	82.399
464.74	81.699
465.09	82.872
465.44	80.955
465.79	81.703
466.14	81.032
466.49	81.000
466.84	83.526
467.19	82.486
467.54	81.434
467.89	81.207
468.24	81.884
468.59	82.108
468.94	81.177
469.29	83.623
469.64	83.217
469.99	83.110
470.34	83.292
470.68	83.527
471.03	83.759
471.38	84.565
471.73	83.420
472.08	83.439
472.43	82.721
472.78	83.438
473.13	83.439
473.48	85.438
473.83	84.156
474.17	82.181
474.52	84.185
474.87	82.503
475.22	83.887
475.57	81.983
475.92	81.633
476.27	82.268
476.61	82.451
476.96	82.586
477.31	81.782
477.66	83.998
478.01	82.562
478.36	82.901
478.70	81.823
479.05	83.793
479.40	83.268
479.75	82.949
480.10	82.378
480.45	82.088
480.79	81.950
481.14	82.399
481.49	82.144
481.84	83.943
482.19	82.796
482.53	83.778
482.88	83.429
483.23	83.904
483.58	82.969
483.92	82.934
484.27	83.108
484.62	81.889
484.97	82.154
485.31	81.169
485.66	80.124
486.01	75.974
486.36	76.642
486.70	77.778
487.05	78.288
487.40	78.500
487.75	81.094
488.09	82.079
488.44	80.672
488.79	82.462
489.13	82.947
489.48	83.417
489.83	82.575
490.17	81.531
490.52	81.773
490.87	83.080
491.22	83.449
491.56	82.509
491.91	83.733
492.26	82.778
492.60	82.947
492.95	82.580
493.30	84.088
493.64	84.494
493.99	83.026
494.34	83.232
494.68	83.255
495.03	83.216
495.37	83.799
495.72	83.900
496.07	82.734
496.41	81.639
496.76	83.778
497.11	82.930
497.45	84.463
497.80	82.763
498.14	82.676
498.49	83.869
498.84	83.455
499.18	84.121
499.53	84.753
499.87	84.527
500.22	82.725
500.56	84.031
500.91	83.524
501.26	84.182
501.60	83.120
501.95	83.239
502.29	83.765
502.64	84.390
502.98	82.010
503.33	82.505
503.67	82.992
504.02	83.056
504.36	84.674
504.71	84.704
505.06	82.901
505.40	84.781
505.75	84.199
506.09	84.254
506.44	83.658
506.78	84.220
507.13	84.601
507.47	84.368
507.82	83.807
508.16	84.799
508.51	83.591
508.85	84.695
509.19	85.126
509.54	85.303
509.88	85.284
510.23	85.381
510.57	86.322
510.92	85.341
511.26	83.790
511.61	84.259
511.95	84.529
512.30	85.229
512.64	84.358
512.98	84.742
513.33	85.333
513.67	84.243
514.02	85.488
514.36	86.547
514.70	86.510
515.05	86.861
515.39	86.142
515.74	87.116
516.08	86.371
516.42	87.650
516.77	87.119
517.11	85.147
517.46	87.699
517.80	87.066
518.14	87.323
518.49	87.852
518.83	86.376
519.17	85.891
519.52	85.377
519.86	86.272
520.20	86.422
520.55	85.816
520.89	86.768
521.23	86.767
521.58	88.701
521.92	86.232
522.26	87.113
522.61	87.789
522.95	88.870
523.29	89.080
523.64	87.836
523.98	88.306
524.32	89.857
524.66	87.479
525.01	86.297
525.35	87.249
525.69	87.471
526.04	86.338
526.38	87.471
526.72	86.967
527.06	87.097
527.41	86.472
527.75	88.955
528.09	88.784
528.43	87.626
528.78	86.936
529.12	87.901
529.46	86.284
529.80	87.414
530.15	88.696
530.49	89.798
530.83	88.607
531.17	88.710
531.51	88.568
531.86	88.702
532.20	88.902
532.54	86.355
532.88	88.606
533.22	86.152
533.57	86.844
533.91	86.588
534.25	87.564
534.59	88.218
534.93	86.587
535.27	86.592
535.62	86.811
535.96	89.250
536.30	87.838
536.64	87.628
536.98	88.807
537.32	88.704
537.66	89.270
538.01	86.647
538.35	87.515
538.69	87.981
539.03	87.615
539.37	85.984
539.71	86.667
540.05	87.530
540.39	87.164
540.73	87.128
541.07	87.554
541.42	86.946
541.76	86.062
542.10	87.214
542.44	86.663
542.78	86.557
543.12	86.174
543.46	85.775
543.80	85.791
544.14	87.911
544.48	86.761
544.82	88.031
545.16	86.762
545.50	87.537
545.84	86.283
546.18	89.136
546.52	88.344
546.86	86.478
547.20	87.277
547.54	87.890
547.88	87.402
548.22	84.678
548.56	86.191
548.90	87.761
549.24	86.991
549.58	87.634
549.92	87.691
550.26	87.702
550.60	86.918
550.94	87.128
551.28	87.789
551.62	89.286
551.96	87.573
552.30	87.827
552.64	86.434
552.98	88.771
553.32	88.553
553.66	88.360
554.00	88.714
554.34	88.546
554.68	86.056
555.02	88.502
555.36	87.508
555.69	87.828
556.03	87.957
556.37	86.984
556.71	89.157
557.05	88.882
557.39	88.520
557.73	87.649
558.07	87.086
558.41	87.575
558.75	89.655
559.08	89.562
559.42	88.889
559.76	87.449
560.10	87.140
560.44	88.127
560.78	87.500
561.12	87.438
561.45	88.747
561.79	86.630
562.13	88.047
562.47	85.450
562.81	87.152
563.15	88.889
563.48	88.999
563.82	87.787
564.16	86.675
564.50	87.723
564.84	87.021
565.17	87.353
565.51	85.270
565.85	87.233
566.19	86.924
566.52	86.951
566.86	87.097
567.20	86.623
567.54	85.289
567.88	86.086
568.21	84.239
568.55	85.228
568.89	84.521
569.23	83.566
569.56	82.728
569.90	82.074
570.24	81.619
570.57	82.104
570.91	80.251
571.25	79.317
571.59	79.015
571.92	79.904
572.26	79.910
572.60	79.716
572.93	79.738
573.27	80.556
573.61	79.487
573.95	79.145
574.28	77.575
574.62	78.467
574.96	77.327
575.29	77.550
575.63	77.547
575.97	78.659
576.30	79.151
576.64	79.194
576.98	78.428
577.31	78.274
577.65	78.518
577.98	76.431
578.32	76.779
578.66	76.611
578.99	77.063
579.33	78.124
579.67	78.196
580.00	77.973
580.34	77.727
580.67	78.575
581.01	78.819
581.35	77.927
581.68	76.539
582.02	76.645
582.35	76.998
582.69	77.455
583.02	77.331
583.36	78.456
583.70	79.823
584.03	78.954
584.37	79.363
584.70	79.487
585.04	78.284
585.37	79.209
585.71	77.476
586.04	78.137
586.38	77.971
586.72	78.591
587.05	78.818
587.39	78.260
587.72	79.282
588.06	78.844
588.39	80.134
588.73	79.339
589.06	80.164
589.40	82.575
589.73	81.587
590.07	81.598
590.40	82.049
590.73	79.816
591.07	82.949
591.40	82.659
591.74	83.347
592.07	83.191
592.41	82.256
592.74	80.795
593.08	80.764
593.41	79.440
593.75	79.511
594.08	80.794
594.41	79.936
594.75	79.874
595.08	81.023
595.42	81.461
595.75	80.852
596.09	80.888
596.42	81.082
596.75	83.250
597.09	84.162
597.42	81.724
597.75	80.439
598.09	82.817
598.42	82.911
598.76	80.741
599.09	81.203
599.42	79.651
599.76	80.092
600.09	80.447
600.42	79.880
600.76	80.086
601.09	80.485
601.42	80.192
601.76	80.517
602.09	80.450
602.42	80.807
602.76	81.697
603.09	81.278
603.42	81.973
603.76	80.761
604.09	82.647
604.42	81.725
604.76	80.860
605.09	82.808
605.42	82.257
605.75	82.462
606.09	82.755
606.42	80.773
606.75	81.372
607.09	80.952
607.42	80.771
607.75	81.282
608.08	81.610
608.42	81.298
608.75	82.546
609.08	81.197
609.41	83.547
609.75	82.366
610.08	83.465
610.41	82.243
610.74	82.773
611.07	83.215
611.41	81.928
611.74	83.880
612.07	84.011
612.40	83.127
612.73	85.232
613.07	84.303
613.40	84.552
613.73	84.304
614.06	84.593
614.39	82.556
614.72	82.630
615.06	83.109
615.39	82.455
615.72	84.550
616.05	82.224
616.38	84.763
616.71	83.647
617.05	84.398
617.38	84.056
617.71	84.665
618.04	84.350
618.37	87.104
618.70	85.464
619.03	87.634
619.36	86.621
619.69	86.739
620.03	87.696
620.36	85.706
620.69	86.737
621.02	88.648
621.35	92.308
621.68	90.166
622.01	87.544
622.34	89.470
622.67	87.904
623.00	88.799
623.33	88.719
623.66	88.975
623.99	88.479
624.32	87.199
624.65	86.744
624.99	89.922
625.32	87.133
625.65	90.290
625.98	87.051
626.31	89.369
626.64	90.696
626.97	89.272
627.30	91.116
627.63	91.448
627.96	89.640
628.29	91.206
628.62	91.604
628.95	93.339
629.28	93.288
629.61	90.572
629.94	90.544
630.26	92.373
630.59	92.314
630.92	90.823
631.25	94.544
631.58	94.350
631.91	93.065
632.24	95.485
632.57	93.548
