SpectraSuite Data File
++++++++++++++++++++++++++++++++++++
Date: Thu May 14 14:44:59 PDT 2015
User: schluterlab
Dark Spectrum Present: Yes
Reference Spectrum Present: Yes
Number of Sampled Component Spectra: 1
Spectrometers: USB2E3373
Integration Time (usec): 3000 (USB2E3373)
Spectra Averaged: 3 (USB2E3373)
Boxcar Smoothing: 0 (USB2E3373)
Correct for Electrical Dark: No (USB2E3373)
Strobe/Lamp Enabled: No (USB2E3373)
Correct for Detector Non-linearity: No (USB2E3373)
Correct for Stray Light: No (USB2E3373)
Number of Pixels in Processed Spectrum: 2048
>>>>>Begin Processed Spectral Data<<<<<
178.53	0.000
178.91	71.429
179.29	-100.000
179.67	900.000
180.04	100.000
180.42	30.000
180.80	120.000
181.18	-700.000
181.56	400.000
181.94	-75.000
182.31	25.000
182.69	166.667
183.07	50.000
183.45	-0.000
183.83	50.000
184.20	233.333
184.58	-500.000
184.96	-275.000
185.34	44.444
185.72	120.000
186.09	166.667
186.47	250.000
186.85	100.000
187.23	-55.556
187.61	-400.000
187.98	120.000
188.36	100.000
188.74	100.000
189.12	-133.333
189.49	-6.250
189.87	-125.000
190.25	-44.444
190.63	0.000
191.00	0.000
191.38	0.000
191.76	0.000
192.14	-33.333
192.51	200.000
192.89	100.000
193.27	0.000
193.65	-57.143
194.02	-700.000
194.40	-57.143
194.78	28.571
195.15	0.000
195.53	45.455
195.91	0.000
196.29	175.000
196.66	38.462
197.04	-400.000
197.42	-14.286
197.79	-50.000
198.17	37.500
198.55	-57.143
198.92	44.444
199.30	-37.500
199.68	54.545
200.05	85.714
200.43	-400.000
200.81	200.000
201.18	0.000
201.56	88.889
201.94	0.000
202.31	166.667
202.69	-33.333
203.07	-1300.000
203.44	166.667
203.82	175.000
204.19	8.333
204.57	-33.333
204.95	-12.500
205.32	-200.000
205.70	25.000
206.08	-166.667
206.45	16.667
206.83	60.000
207.20	0.000
207.58	-20.000
207.96	-66.667
208.33	66.667
208.71	58.333
209.08	66.667
209.46	0.000
209.84	200.000
210.21	-50.000
210.59	-350.000
210.96	-33.333
211.34	350.000
211.71	-37.500
212.09	-600.000
212.46	0.000
212.84	50.000
213.22	-120.000
213.59	125.000
213.97	60.000
214.34	-133.333
214.72	66.667
215.09	-75.000
215.47	0.000
215.84	-71.429
216.22	250.000
216.59	-120.000
216.97	20.000
217.34	75.000
217.72	50.000
218.09	25.000
218.47	-75.000
218.84	0.000
219.22	-60.000
219.59	0.000
219.97	-15.000
220.34	300.000
220.72	11.111
221.09	84.615
221.47	133.333
221.84	0.000
222.22	-142.857
222.59	0.000
222.97	62.500
223.34	-20.000
223.72	-600.000
224.09	125.000
224.46	-150.000
224.84	-20.000
225.21	-42.857
225.59	-100.000
225.96	-25.000
226.34	3.846
226.71	233.333
227.08	-100.000
227.46	53.333
227.83	150.000
228.21	36.842
228.58	100.000
228.95	350.000
229.33	16.667
229.70	-10.000
230.08	89.474
230.45	-30.000
230.82	266.667
231.20	92.857
231.57	58.333
231.95	27.273
232.32	63.636
232.69	15.000
233.07	0.000
233.44	-5.882
233.81	90.000
234.19	100.000
234.56	36.364
234.93	58.621
235.31	100.000
235.68	44.444
236.05	25.000
236.43	96.154
236.80	100.000
237.17	29.630
237.55	-3.030
237.92	40.000
238.29	41.935
238.67	22.727
239.04	41.667
239.41	54.762
239.79	32.609
240.16	40.741
240.53	43.478
240.91	45.098
241.28	32.787
241.65	40.299
242.02	41.892
242.40	36.923
242.77	46.667
243.14	41.463
243.51	22.368
243.89	26.923
244.26	42.574
244.63	47.059
245.00	46.729
245.38	34.211
245.75	30.088
246.12	47.619
246.49	33.333
246.87	44.286
247.24	44.371
247.61	43.421
247.98	42.953
248.36	37.037
248.73	33.129
249.10	42.623
249.47	42.786
249.84	45.026
250.22	39.896
250.59	43.333
250.96	46.818
251.33	42.347
251.70	38.034
252.08	39.167
252.45	44.672
252.82	40.909
253.19	39.844
253.56	44.106
253.94	42.308
254.31	44.318
254.68	44.406
255.05	43.648
255.42	37.075
255.79	40.129
256.16	42.053
256.54	42.053
256.91	44.262
257.28	43.934
257.65	43.949
258.02	38.643
258.39	41.026
258.76	44.648
259.14	42.241
259.51	41.499
259.88	40.793
260.25	40.278
260.62	44.384
260.99	43.716
261.36	42.359
261.73	40.849
262.10	43.681
262.47	41.555
262.85	44.192
263.22	39.481
263.59	42.105
263.96	40.921
264.33	42.455
264.70	45.679
265.07	41.050
265.44	47.846
265.81	40.046
266.18	44.671
266.55	40.402
266.92	42.597
267.29	44.420
267.66	42.794
268.03	44.541
268.40	43.424
268.77	42.825
269.14	40.088
269.51	43.421
269.88	42.623
270.25	40.241
270.62	43.882
270.99	42.020
271.36	39.604
271.73	40.472
272.10	44.489
272.47	40.882
272.84	41.165
273.21	42.084
273.58	40.323
273.95	37.115
274.32	41.255
274.69	40.426
275.06	39.744
275.43	37.708
275.80	39.506
276.17	39.259
276.54	40.485
276.91	39.535
277.28	40.868
277.65	41.831
278.02	40.257
278.39	41.486
278.76	38.489
279.13	40.957
279.50	40.722
279.87	38.998
280.23	38.204
280.60	39.661
280.97	40.132
281.34	41.596
281.71	42.809
282.08	39.369
282.45	38.625
282.82	39.717
283.19	37.803
283.56	39.836
283.92	40.090
284.29	41.864
284.66	38.588
285.03	38.141
285.40	38.176
285.77	38.854
286.14	38.473
286.51	38.052
286.87	38.073
287.24	39.157
287.61	38.416
287.98	37.160
288.35	37.722
288.72	35.503
289.08	37.042
289.45	34.320
289.82	35.693
290.19	35.489
290.56	36.620
290.93	35.521
291.29	35.262
291.66	36.777
292.03	33.921
292.40	35.510
292.77	33.962
293.13	33.153
293.50	31.932
293.87	32.483
294.24	35.467
294.60	31.226
294.97	32.752
295.34	33.419
295.71	30.265
296.08	32.946
296.44	31.005
296.81	31.669
297.18	32.254
297.55	30.778
297.91	30.249
298.28	31.280
298.65	30.083
299.02	30.460
299.38	29.748
299.75	29.439
300.12	29.514
300.48	31.336
300.85	28.571
301.22	29.978
301.59	29.110
301.95	29.605
302.32	30.000
302.69	28.806
303.05	29.489
303.42	29.823
303.79	29.688
304.15	29.863
304.52	29.175
304.89	28.586
305.25	26.190
305.62	29.049
305.99	27.938
306.35	28.730
306.72	29.473
307.09	28.325
307.45	28.468
307.82	28.254
308.19	27.649
308.55	28.737
308.92	27.751
309.29	27.969
309.65	27.096
310.02	27.030
310.38	27.067
310.75	28.252
311.12	28.859
311.48	29.912
311.85	27.255
312.22	28.748
312.58	27.230
312.95	27.916
313.31	27.823
313.68	28.480
314.05	28.004
314.41	28.142
314.78	27.157
315.14	27.858
315.51	28.070
315.87	26.823
316.24	29.498
316.61	26.465
316.97	27.511
317.34	26.984
317.70	28.035
318.07	28.131
318.43	27.891
318.80	27.676
319.16	26.781
319.53	25.107
319.89	27.958
320.26	27.135
320.62	25.532
320.99	26.500
321.35	26.617
321.72	27.070
322.08	27.412
322.45	27.371
322.81	27.617
323.18	26.903
323.54	28.362
323.91	29.626
324.27	25.904
324.64	28.715
325.00	25.373
325.37	26.699
325.73	27.025
326.10	27.737
326.46	27.117
326.83	28.263
327.19	26.929
327.56	26.008
327.92	26.751
328.29	26.613
328.65	25.628
329.01	26.734
329.38	26.116
329.74	27.055
330.11	28.253
330.47	25.779
330.84	26.615
331.20	27.167
331.56	26.170
331.93	27.197
332.29	26.610
332.66	26.578
333.02	26.214
333.38	25.419
333.75	26.347
334.11	25.521
334.48	26.403
334.84	27.443
335.20	26.280
335.57	27.234
335.93	26.281
336.29	25.957
336.66	26.241
337.02	27.090
337.38	27.126
337.75	26.116
338.11	26.409
338.47	25.393
338.84	26.819
339.20	25.442
339.56	25.947
339.93	26.355
340.29	26.329
340.65	25.142
341.02	26.736
341.38	27.567
341.74	25.343
342.11	26.066
342.47	25.814
342.83	25.040
343.20	26.247
343.56	25.662
343.92	25.620
344.28	24.766
344.65	26.744
345.01	25.741
345.37	26.594
345.73	25.331
346.10	25.351
346.46	24.921
346.82	25.543
347.19	25.821
347.55	25.797
347.91	26.077
348.27	24.962
348.63	25.362
349.00	24.758
349.36	24.758
349.72	25.521
350.08	25.483
350.45	24.715
350.81	25.490
351.17	25.789
351.53	25.246
351.89	25.285
352.26	24.478
352.62	24.701
352.98	25.191
353.34	24.122
353.70	24.114
354.07	24.069
354.43	25.588
354.79	24.308
355.15	23.400
355.51	24.635
355.87	23.710
356.24	25.323
356.60	24.612
356.96	24.388
357.32	24.535
357.68	23.426
358.04	24.251
358.40	24.254
358.77	24.561
359.13	23.929
359.49	24.164
359.85	24.148
360.21	25.179
360.57	23.690
360.93	23.695
361.29	24.000
361.66	23.389
362.02	25.122
362.38	23.331
362.74	23.953
363.10	24.003
363.46	23.961
363.82	22.940
364.18	23.786
364.54	23.790
364.90	23.411
365.26	24.690
365.62	24.067
365.98	24.370
366.35	23.289
366.71	24.014
367.07	24.290
367.43	24.228
367.79	23.822
368.15	24.883
368.51	24.222
368.87	23.906
369.23	23.867
369.59	23.907
369.95	23.529
370.31	23.903
370.67	23.728
371.03	24.100
371.39	23.439
371.75	23.796
372.11	23.780
372.47	24.103
372.83	23.757
373.19	25.150
373.55	23.848
373.91	23.108
374.27	23.997
374.63	24.019
374.99	23.939
375.35	23.766
375.71	23.935
376.07	23.886
376.42	23.741
376.78	23.679
377.14	23.331
377.50	23.593
377.86	24.323
378.22	23.772
378.58	23.722
378.94	23.063
379.30	23.023
379.66	23.633
380.02	23.370
380.38	23.963
380.74	22.817
381.09	23.810
381.45	23.693
381.81	24.766
382.17	23.872
382.53	23.392
382.89	23.984
383.25	24.326
383.61	23.090
383.97	23.852
384.32	24.163
384.68	23.840
385.04	24.349
385.40	25.162
385.76	24.091
386.12	23.758
386.48	24.353
386.83	24.195
387.19	23.696
387.55	23.298
387.91	23.002
388.27	24.249
388.62	24.284
388.98	24.422
389.34	24.632
389.70	24.463
390.06	24.038
390.42	24.157
390.77	24.383
391.13	24.883
391.49	24.758
391.85	24.606
392.20	24.259
392.56	24.867
392.92	24.373
393.28	24.157
393.64	23.408
393.99	24.521
394.35	25.117
394.71	24.551
395.07	23.293
395.42	24.557
395.78	24.741
396.14	24.421
396.50	23.575
396.85	24.150
397.21	24.438
397.57	23.852
397.92	24.170
398.28	23.846
398.64	23.913
399.00	23.298
399.35	23.822
399.71	24.076
400.07	24.481
400.42	24.622
400.78	24.306
401.14	24.417
401.49	24.446
401.85	24.186
402.21	24.855
402.57	24.765
402.92	24.882
403.28	23.829
403.63	23.329
403.99	23.397
404.35	24.332
404.70	24.023
405.06	23.533
405.42	24.063
405.77	23.882
406.13	23.339
406.49	24.437
406.84	23.546
407.20	23.756
407.55	23.985
407.91	23.947
408.27	25.029
408.62	24.607
408.98	24.376
409.34	22.522
409.69	24.166
410.05	23.681
410.40	25.000
410.76	24.397
411.11	24.138
411.47	24.079
411.83	24.162
412.18	24.096
412.54	23.711
412.89	24.505
413.25	24.492
413.60	23.894
413.96	23.193
414.31	23.399
414.67	24.270
415.03	24.123
415.38	24.086
415.74	24.130
416.09	24.676
416.45	23.982
416.80	24.113
417.16	23.691
417.51	23.973
417.87	24.157
418.22	24.371
418.58	23.730
418.93	24.680
419.29	24.353
419.64	23.349
420.00	23.561
420.35	23.807
420.71	23.837
421.06	23.922
421.42	23.796
421.77	23.802
422.12	23.784
422.48	23.349
422.83	25.082
423.19	23.448
423.54	24.170
423.90	23.523
424.25	23.893
424.61	23.020
424.96	23.943
425.31	24.257
425.67	23.994
426.02	23.575
426.38	23.307
426.73	23.940
427.09	24.683
427.44	23.648
427.79	24.268
428.15	22.774
428.50	24.101
428.85	23.708
429.21	23.617
429.56	22.952
429.92	23.096
430.27	23.759
430.62	23.742
430.98	24.004
431.33	23.900
431.68	23.420
432.04	23.870
432.39	24.049
432.74	23.858
433.10	23.148
433.45	22.631
433.80	23.391
434.16	23.037
434.51	23.792
434.86	23.290
435.22	23.273
435.57	24.233
435.92	23.873
436.28	23.322
436.63	24.358
436.98	23.403
437.34	23.168
437.69	23.005
438.04	23.691
438.39	23.665
438.75	22.800
439.10	24.524
439.45	23.533
439.81	24.068
440.16	23.217
440.51	24.192
440.86	23.513
441.22	23.044
441.57	23.480
441.92	23.618
442.27	23.434
442.63	24.044
442.98	23.639
443.33	23.567
443.68	23.935
444.03	24.882
444.39	23.578
444.74	24.043
445.09	23.923
445.44	24.236
445.79	23.420
446.15	23.381
446.50	23.618
446.85	23.249
447.20	23.839
447.55	22.856
447.91	23.298
448.26	23.256
448.61	23.964
448.96	24.893
449.31	23.224
449.66	22.658
450.02	23.365
450.37	24.134
450.72	22.659
451.07	23.462
451.42	22.877
451.77	22.679
452.12	23.758
452.47	22.816
452.83	23.986
453.18	23.176
453.53	23.607
453.88	22.971
454.23	23.672
454.58	23.331
454.93	22.755
455.28	23.239
455.63	22.854
455.98	23.631
456.34	23.204
456.69	23.222
457.04	22.813
457.39	22.783
457.74	23.714
458.09	22.900
458.44	23.599
458.79	22.537
459.14	23.440
459.49	22.920
459.84	23.085
460.19	22.821
460.54	23.737
460.89	22.975
461.24	22.989
461.59	23.243
461.94	22.362
462.29	23.348
462.64	22.993
462.99	22.850
463.34	23.621
463.69	23.036
464.04	24.180
464.39	22.982
464.74	22.748
465.09	23.068
465.44	22.854
465.79	22.845
466.14	22.199
466.49	23.368
466.84	22.700
467.19	22.775
467.54	22.797
467.89	22.989
468.24	23.102
468.59	22.235
468.94	21.853
469.29	22.376
469.64	22.950
469.99	22.626
470.34	22.215
470.68	22.761
471.03	23.445
471.38	22.695
471.73	22.497
472.08	23.160
472.43	22.155
472.78	22.670
473.13	22.250
473.48	22.840
473.83	23.215
474.17	23.154
474.52	23.211
474.87	21.429
475.22	22.648
475.57	21.963
475.92	21.354
476.27	22.790
476.61	22.326
476.96	22.993
477.31	22.426
477.66	23.400
478.01	22.064
478.36	22.283
478.70	23.005
479.05	22.290
479.40	22.952
479.75	22.863
480.10	22.928
480.45	21.878
480.79	22.313
481.14	22.656
481.49	22.535
481.84	22.672
482.19	22.667
482.53	22.562
482.88	22.109
483.23	22.543
483.58	22.751
483.92	22.385
484.27	22.269
484.62	21.865
484.97	22.434
485.31	22.034
485.66	21.685
486.01	21.071
486.36	22.287
486.70	23.298
487.05	24.624
487.40	24.379
487.75	24.377
488.09	24.148
488.44	23.551
488.79	23.170
489.13	23.027
489.48	22.524
489.83	21.650
490.17	21.750
490.52	21.921
490.87	22.420
491.22	21.794
491.56	22.782
491.91	22.372
492.26	22.155
492.60	21.600
492.95	22.115
493.30	21.739
493.64	22.076
493.99	22.105
494.34	21.864
494.68	21.927
495.03	22.819
495.37	21.926
495.72	22.404
496.07	21.823
496.41	21.879
496.76	21.852
497.11	21.529
497.45	21.752
497.80	22.790
498.14	22.268
498.49	22.105
498.84	22.486
499.18	22.447
499.53	22.780
499.87	22.374
500.22	20.926
500.56	21.952
500.91	21.739
501.26	21.909
501.60	21.608
501.95	22.579
502.29	21.413
502.64	22.650
502.98	22.994
503.33	21.425
503.67	21.675
504.02	22.373
504.36	22.297
504.71	22.049
505.06	21.464
505.40	22.349
505.75	22.268
506.09	21.823
506.44	22.563
506.78	21.927
507.13	21.807
507.47	21.791
507.82	22.064
508.16	22.180
508.51	22.082
508.85	21.540
509.19	21.743
509.54	21.854
509.88	22.390
510.23	22.001
510.57	22.958
510.92	22.254
511.26	21.260
511.61	21.101
511.95	22.401
512.30	22.403
512.64	21.189
512.98	22.011
513.33	22.228
513.67	21.469
514.02	22.228
514.36	22.558
514.70	22.135
515.05	22.315
515.39	22.572
515.74	22.004
516.08	21.342
516.42	22.344
516.77	21.451
517.11	21.506
517.46	21.951
517.80	22.822
518.14	22.797
518.49	22.017
518.83	21.714
519.17	21.217
519.52	22.065
519.86	21.489
520.20	21.353
520.55	20.865
520.89	22.072
521.23	21.776
521.58	22.203
521.92	21.190
522.26	21.191
522.61	21.354
522.95	22.030
523.29	22.356
523.64	21.805
523.98	22.875
524.32	23.152
524.66	22.709
525.01	22.367
525.35	20.850
525.69	20.824
526.04	21.412
526.38	22.069
526.72	21.799
527.06	22.639
527.41	22.041
527.75	22.565
528.09	21.901
528.43	21.966
528.78	21.850
529.12	22.362
529.46	22.035
529.80	22.140
530.15	22.261
530.49	21.352
530.83	22.668
531.17	23.059
531.51	21.841
531.86	22.716
532.20	22.317
532.54	22.023
532.88	21.818
533.22	22.098
533.57	22.331
533.91	22.615
534.25	22.612
534.59	22.471
534.93	22.128
535.27	22.310
535.62	23.479
535.96	23.242
536.30	22.855
536.64	23.183
536.98	22.694
537.32	22.531
537.66	22.146
538.01	21.813
538.35	22.533
538.69	22.296
539.03	23.728
539.37	23.145
539.71	22.402
540.05	22.302
540.39	22.005
540.73	21.858
541.07	22.931
541.42	22.327
541.76	22.954
542.10	22.738
542.44	22.229
542.78	22.080
543.12	22.467
543.46	22.039
543.80	21.942
544.14	22.322
544.48	23.759
544.82	23.339
545.16	22.302
545.50	22.349
545.84	21.862
546.18	24.012
546.52	22.866
546.86	23.082
547.20	23.219
547.54	22.659
547.88	22.483
548.22	22.339
548.56	23.230
548.90	22.925
549.24	23.222
549.58	22.524
549.92	22.513
550.26	23.236
550.60	22.272
550.94	23.027
551.28	23.564
551.62	23.585
551.96	22.848
552.30	24.028
552.64	22.464
552.98	23.768
553.32	23.280
553.66	23.215
554.00	23.140
554.34	23.616
554.68	22.208
555.02	22.865
555.36	23.340
555.69	23.318
556.03	22.825
556.37	23.717
556.71	22.765
557.05	22.812
557.39	23.291
557.73	23.382
558.07	23.510
558.41	23.588
558.75	23.124
559.08	22.547
559.42	23.045
559.76	23.541
560.10	23.510
560.44	23.483
560.78	23.063
561.12	22.845
561.45	24.027
561.79	23.626
562.13	23.352
562.47	23.058
562.81	22.658
563.15	22.727
563.48	23.369
563.82	23.700
564.16	22.895
564.50	23.123
564.84	22.537
565.17	23.588
565.51	23.072
565.85	24.406
566.19	23.272
566.52	23.757
566.86	23.656
567.20	22.730
567.54	22.464
567.88	24.006
568.21	24.061
568.55	24.029
568.89	24.921
569.23	24.292
569.56	23.955
569.90	24.198
570.24	24.115
570.57	24.695
570.91	24.189
571.25	24.559
571.59	24.436
571.92	25.107
572.26	24.537
572.60	25.198
572.93	25.160
573.27	24.867
573.61	24.934
573.95	24.690
574.28	25.088
574.62	24.920
574.96	24.107
575.29	24.807
575.63	24.717
575.97	24.982
576.30	24.599
576.64	24.529
576.98	24.875
577.31	24.726
577.65	25.196
577.98	24.699
578.32	24.453
578.66	24.896
578.99	24.903
579.33	24.967
579.67	25.657
580.00	25.017
580.34	25.131
580.67	24.823
581.01	24.816
581.35	24.235
581.68	23.904
582.02	24.788
582.35	25.173
582.69	25.385
583.02	25.565
583.36	25.775
583.70	25.494
584.03	25.702
584.37	25.500
584.70	25.134
585.04	24.483
585.37	24.591
585.71	24.315
586.04	24.659
586.38	25.023
586.72	24.517
587.05	24.610
587.39	24.832
587.72	25.191
588.06	25.508
588.39	25.716
588.73	25.079
589.06	25.198
589.40	24.954
589.73	24.775
590.07	24.934
590.40	25.321
590.73	24.708
591.07	24.832
591.40	24.495
591.74	24.722
592.07	25.173
592.41	23.856
592.74	24.104
593.08	24.522
593.41	24.934
593.75	25.115
594.08	25.568
594.41	24.904
594.75	24.776
595.08	24.764
595.42	25.130
595.75	24.701
596.09	25.246
596.42	25.188
596.75	25.203
597.09	24.970
597.42	23.917
597.75	24.500
598.09	24.603
598.42	24.648
598.76	23.691
599.09	24.101
599.42	23.969
599.76	24.298
600.09	24.958
600.42	24.191
600.76	25.000
601.09	24.129
601.42	24.545
601.76	24.724
602.09	24.339
602.42	24.100
602.76	24.834
603.09	25.110
603.42	24.783
603.76	24.524
604.09	24.947
604.42	24.147
604.76	24.353
605.09	24.132
605.42	24.482
605.75	23.962
606.09	24.449
606.42	23.677
606.75	23.838
607.09	23.810
607.42	25.202
607.75	24.033
608.08	23.994
608.42	24.869
608.75	24.378
609.08	23.727
609.41	24.349
609.75	24.330
610.08	25.022
610.41	24.129
610.74	24.664
611.07	24.600
611.41	24.170
611.74	24.573
612.07	24.404
612.40	23.337
612.73	24.694
613.07	24.010
613.40	24.302
613.73	24.218
614.06	24.239
614.39	23.129
614.72	24.260
615.06	22.859
615.39	23.828
615.72	23.697
616.05	23.458
616.38	24.319
616.71	23.668
617.05	23.003
617.38	24.559
617.71	25.216
618.04	24.015
618.37	25.027
618.70	23.812
619.03	23.716
619.36	23.921
619.69	23.511
620.03	23.289
620.36	23.374
620.69	23.196
621.02	25.656
621.35	24.528
621.68	24.729
622.01	23.203
622.34	22.803
622.67	23.230
623.00	22.672
623.33	22.960
623.66	23.541
623.99	23.502
624.32	24.431
624.65	23.359
624.99	24.317
625.32	23.645
625.65	23.938
625.98	23.254
626.31	23.600
626.64	23.883
626.97	23.331
627.30	23.235
627.63	23.931
627.96	23.724
628.29	23.191
628.62	23.342
628.95	23.839
629.28	21.920
629.61	23.316
629.94	22.176
630.26	21.441
630.59	21.330
630.92	21.645
631.25	23.077
631.58	22.222
631.91	22.587
632.24	22.382
632.57	21.632
632.90	22.467
633.23	21.939
633.56	22.041
633.89	22.624
634.22	22.973
634.55	21.712
