SpectraSuite Data File
++++++++++++++++++++++++++++++++++++
Date: Thu May 14 14:43:51 PDT 2015
User: schluterlab
Dark Spectrum Present: Yes
Reference Spectrum Present: Yes
Number of Sampled Component Spectra: 1
Spectrometers: USB2E3373
Integration Time (usec): 3000 (USB2E3373)
Spectra Averaged: 3 (USB2E3373)
Boxcar Smoothing: 0 (USB2E3373)
Correct for Electrical Dark: No (USB2E3373)
Strobe/Lamp Enabled: No (USB2E3373)
Correct for Detector Non-linearity: No (USB2E3373)
Correct for Stray Light: No (USB2E3373)
Number of Pixels in Processed Spectrum: 2048
>>>>>Begin Processed Spectral Data<<<<<
178.53	0.000
178.91	-42.857
179.29	-500.000
179.67	-100.000
180.04	92.857
180.42	-40.000
180.80	80.000
181.18	-200.000
181.56	600.000
181.94	25.000
182.31	-25.000
182.69	66.667
183.07	-200.000
183.45	75.000
183.83	116.667
184.20	200.000
184.58	-300.000
184.96	-25.000
185.34	11.111
185.72	340.000
186.09	111.111
186.47	150.000
186.85	160.000
187.23	-55.556
187.61	-1400.000
187.98	60.000
188.36	175.000
188.74	-250.000
189.12	133.333
189.49	62.500
189.87	-87.500
190.25	177.778
190.63	160.000
191.00	22.222
191.38	0.000
191.76	-75.000
192.14	33.333
192.51	-350.000
192.89	150.000
193.27	0.000
193.65	57.143
194.02	-300.000
194.40	85.714
194.78	42.857
195.15	0.000
195.53	81.818
195.91	0.000
196.29	50.000
196.66	15.385
197.04	700.000
197.42	71.429
197.79	50.000
198.17	0.000
198.55	0.000
198.92	200.000
199.30	-100.000
199.68	27.273
200.05	14.286
200.43	-150.000
200.81	85.714
201.18	0.000
201.56	77.778
201.94	0.000
202.31	33.333
202.69	122.222
203.07	200.000
203.44	44.444
203.82	-50.000
204.19	-50.000
204.57	-250.000
204.95	0.000
205.32	-200.000
205.70	-0.000
206.08	-33.333
206.45	83.333
206.83	260.000
207.20	16.667
207.58	-20.000
207.96	-16.667
208.33	150.000
208.71	16.667
209.08	200.000
209.46	0.000
209.84	216.667
210.21	-150.000
210.59	-50.000
210.96	300.000
211.34	275.000
211.71	-12.500
212.09	700.000
212.46	0.000
212.84	900.000
213.22	-80.000
213.59	200.000
213.97	60.000
214.34	66.667
214.72	50.000
215.09	75.000
215.47	0.000
215.84	-28.571
216.22	400.000
216.59	80.000
216.97	-80.000
217.34	25.000
217.72	50.000
218.09	25.000
218.47	150.000
218.84	0.000
219.22	60.000
219.59	0.000
219.97	25.000
220.34	-150.000
220.72	122.222
221.09	46.154
221.47	-33.333
221.84	-30.000
222.22	28.571
222.59	0.000
222.97	100.000
223.34	20.000
223.72	400.000
224.09	-50.000
224.46	-125.000
224.84	80.000
225.21	-114.286
225.59	50.000
225.96	-150.000
226.34	-3.846
226.71	83.333
227.08	100.000
227.46	40.000
227.83	50.000
228.21	15.789
228.58	50.000
228.95	-200.000
229.33	108.333
229.70	60.000
230.08	131.579
230.45	30.000
230.82	66.667
231.20	100.000
231.57	100.000
231.95	136.364
232.32	63.636
232.69	80.000
233.07	-125.000
233.44	29.412
233.81	120.000
234.19	127.778
234.56	27.273
234.93	6.897
235.31	21.053
235.68	16.667
236.05	35.000
236.43	46.154
236.80	52.000
237.17	22.222
237.55	33.333
237.92	-30.000
238.29	9.677
238.67	47.727
239.04	44.444
239.41	21.429
239.79	36.957
240.16	22.222
240.53	34.783
240.91	7.843
241.28	29.508
241.65	34.328
242.02	31.081
242.40	16.923
242.77	18.667
243.14	13.415
243.51	23.684
243.89	17.949
244.26	27.723
244.63	36.275
245.00	36.449
245.38	27.193
245.75	7.965
246.12	29.365
246.49	26.357
246.87	23.571
247.24	29.139
247.61	24.342
247.98	24.832
248.36	21.605
248.73	25.767
249.10	29.508
249.47	33.333
249.84	30.890
250.22	24.870
250.59	25.000
250.96	26.364
251.33	24.490
251.70	25.214
252.08	25.417
252.45	29.098
252.82	26.860
253.19	21.875
253.56	24.715
253.94	25.000
254.31	29.924
254.68	30.070
255.05	26.710
255.42	22.789
255.79	28.803
256.16	21.523
256.54	27.483
256.91	24.918
257.28	26.230
257.65	22.930
258.02	22.419
258.39	26.496
258.76	29.969
259.14	28.448
259.51	23.055
259.88	26.629
260.25	25.000
260.62	28.767
260.99	28.415
261.36	27.614
261.73	23.873
262.10	27.198
262.47	29.491
262.85	30.303
263.22	26.494
263.59	20.263
263.96	27.366
264.33	24.297
264.70	26.420
265.07	27.446
265.44	27.438
265.81	28.009
266.18	26.304
266.55	24.330
266.92	24.829
267.29	28.228
267.66	24.834
268.03	28.384
268.40	24.217
268.77	24.374
269.14	24.449
269.51	24.123
269.88	25.000
270.25	23.340
270.62	26.371
270.99	28.687
271.36	26.931
271.73	26.130
272.10	26.854
272.47	23.447
272.84	25.703
273.21	25.050
273.58	23.790
273.95	25.192
274.32	24.144
274.69	23.985
275.06	25.641
275.43	24.030
275.80	24.515
276.17	22.963
276.54	22.015
276.91	24.687
277.28	27.125
277.65	24.417
278.02	26.103
278.39	23.913
278.76	26.011
279.13	25.177
279.50	26.460
279.87	25.939
280.23	21.127
280.60	25.593
280.97	24.013
281.34	24.278
281.71	26.058
282.08	23.754
282.45	22.586
282.82	22.920
283.19	23.263
283.56	24.426
283.92	25.225
284.29	25.118
284.66	23.317
285.03	21.955
285.40	23.957
285.77	23.529
286.14	23.664
286.51	25.266
286.87	22.907
287.24	22.289
287.61	22.272
287.98	22.205
288.35	23.669
288.72	21.450
289.08	22.401
289.45	23.225
289.82	22.892
290.19	22.989
290.56	23.099
290.93	22.254
291.29	21.625
291.66	21.212
292.03	18.318
292.40	22.041
292.77	20.620
293.13	20.298
293.50	18.397
293.87	20.268
294.24	20.667
294.60	20.986
294.97	20.268
295.34	21.127
295.71	18.033
296.08	19.897
296.44	20.343
296.81	18.270
297.18	18.929
297.55	18.396
297.91	18.861
298.28	19.550
298.65	18.074
299.02	17.473
299.38	18.650
299.75	19.509
300.12	17.477
300.48	19.585
300.85	18.448
301.22	18.345
301.59	17.580
301.95	18.079
302.32	17.556
302.69	18.291
303.05	17.737
303.42	17.960
303.79	17.292
304.15	17.876
304.52	17.019
304.89	18.220
305.25	17.805
305.62	17.346
305.99	18.557
306.35	16.431
306.72	19.545
307.09	16.548
307.45	18.530
307.82	18.668
308.19	17.760
308.55	17.840
308.92	17.235
309.29	16.475
309.65	17.349
310.02	17.129
310.38	17.815
310.75	16.796
311.12	17.737
311.48	16.618
311.85	16.619
312.22	17.457
312.58	17.559
312.95	16.922
313.31	17.615
313.68	17.308
314.05	18.970
314.41	17.851
314.78	17.620
315.14	17.514
315.51	18.190
315.87	17.192
316.24	16.895
316.61	18.561
316.97	17.738
317.34	19.929
317.70	19.389
318.07	19.400
318.43	19.133
318.80	19.147
319.16	19.142
319.53	17.909
319.89	18.580
320.26	20.196
320.62	19.947
320.99	20.314
321.35	20.148
321.72	20.000
322.08	20.920
322.45	21.861
322.81	20.217
323.18	21.062
323.54	20.948
323.91	21.975
324.27	22.203
324.64	23.510
325.00	22.056
325.37	24.079
325.73	24.380
326.10	24.818
326.46	24.756
326.83	25.781
327.19	25.118
327.56	25.455
327.92	25.177
328.29	26.371
328.65	26.884
329.01	26.396
329.38	27.548
329.74	27.997
330.11	28.168
330.47	27.970
330.84	28.165
331.20	27.250
331.56	28.336
331.93	30.293
332.29	29.322
332.66	28.738
333.02	28.643
333.38	29.027
333.75	28.030
334.11	30.525
334.48	30.116
334.84	29.567
335.20	29.555
335.57	29.427
335.93	30.083
336.29	28.785
336.66	28.343
337.02	29.431
337.38	30.867
337.75	29.091
338.11	31.539
338.47	29.198
338.84	30.034
339.20	29.739
339.56	28.748
339.93	30.049
340.29	28.583
340.65	29.603
341.02	30.088
341.38	30.396
341.74	29.459
342.11	30.732
342.47	28.991
342.83	30.193
343.20	30.417
343.56	30.393
343.92	29.864
344.28	30.078
344.65	30.000
345.01	29.719
345.37	29.549
345.73	29.072
346.10	31.123
346.46	29.826
346.82	30.412
347.19	30.328
347.55	29.287
347.91	29.049
348.27	29.666
348.63	29.551
349.00	29.530
349.36	29.368
349.72	29.390
350.08	30.461
350.45	29.354
350.81	29.563
351.17	29.624
351.53	29.265
351.89	28.550
352.26	28.582
352.62	30.373
352.98	29.084
353.34	28.827
353.70	28.737
354.07	29.508
354.43	29.461
354.79	29.020
355.15	30.169
355.51	29.678
355.87	30.965
356.24	29.658
356.60	28.603
356.96	29.948
357.32	28.699
357.68	29.575
358.04	29.042
358.40	29.851
358.77	29.825
359.13	29.321
359.49	28.773
359.85	29.877
360.21	28.838
360.57	29.146
360.93	28.914
361.29	30.526
361.66	28.747
362.02	29.576
362.38	30.007
362.74	28.980
363.10	30.399
363.46	29.917
363.82	30.114
364.18	29.275
364.54	31.051
364.90	29.699
365.26	29.517
365.62	30.267
365.98	30.633
366.35	29.463
366.71	30.680
367.07	30.650
367.43	30.204
367.79	31.121
368.15	31.639
368.51	29.702
368.87	29.850
369.23	30.200
369.59	30.260
369.95	30.426
370.31	30.250
370.67	30.330
371.03	30.956
371.39	30.289
371.75	30.880
372.11	30.759
372.47	30.873
372.83	30.825
373.19	30.954
373.55	30.352
373.91	31.493
374.27	31.889
374.63	31.867
374.99	31.764
375.35	32.727
375.71	31.355
376.07	30.923
376.42	30.730
376.78	33.188
377.14	33.188
377.50	32.511
377.86	33.867
378.22	32.515
378.58	32.937
378.94	32.570
379.30	33.333
379.66	33.921
380.02	33.526
380.38	33.525
380.74	33.746
381.09	34.262
381.45	33.864
381.81	34.426
382.17	33.729
382.53	34.912
382.89	34.481
383.25	34.584
383.61	35.764
383.97	34.982
384.32	35.347
384.68	33.759
385.04	35.454
385.40	35.769
385.76	36.284
386.12	35.189
386.48	35.941
386.83	36.949
387.19	35.226
387.55	36.502
387.91	35.788
388.27	36.778
388.62	36.598
388.98	35.928
389.34	37.478
389.70	37.478
390.06	36.353
390.42	37.831
390.77	37.508
391.13	37.207
391.49	36.534
391.85	37.576
392.20	37.426
392.56	37.803
392.92	37.241
393.28	38.198
393.64	38.380
393.99	39.163
394.35	38.785
394.71	37.904
395.07	37.784
395.42	38.892
395.78	39.793
396.14	39.037
396.50	38.242
396.85	37.925
397.21	37.041
397.57	37.750
397.92	38.889
398.28	38.566
398.64	38.043
399.00	37.958
399.35	39.215
399.71	38.533
400.07	39.023
400.42	38.533
400.78	38.657
401.14	38.532
401.49	39.341
401.85	38.953
402.21	38.992
402.57	39.202
402.92	38.180
403.28	38.232
403.63	38.246
403.99	38.717
404.35	38.317
404.70	38.300
405.06	38.098
405.42	38.993
405.77	38.659
406.13	38.466
406.49	38.514
406.84	38.670
407.20	39.072
407.55	38.098
407.91	38.781
408.27	37.986
408.62	39.267
408.98	38.886
409.34	37.771
409.69	39.184
410.05	38.687
410.40	39.849
410.76	38.643
411.11	40.094
411.47	39.128
411.83	39.271
412.18	38.193
412.54	38.174
412.89	38.591
413.25	38.826
413.60	38.656
413.96	39.510
414.31	37.847
414.67	38.342
415.03	39.138
415.38	39.092
415.74	38.119
416.09	38.927
416.45	38.510
416.80	39.902
417.16	38.761
417.51	38.543
417.87	38.565
418.22	38.862
418.58	38.352
418.93	38.882
419.29	38.163
419.64	39.436
420.00	39.644
420.35	39.135
420.71	38.943
421.06	39.160
421.42	39.106
421.77	38.288
422.12	39.323
422.48	38.966
422.83	38.992
423.19	39.469
423.54	39.215
423.90	39.647
424.25	40.320
424.61	39.208
424.96	38.605
425.31	39.490
425.67	39.130
426.02	39.402
426.38	40.758
426.73	39.676
427.09	39.735
427.44	39.596
427.79	39.469
428.15	39.384
428.50	40.562
428.85	39.839
429.21	42.181
429.56	39.832
429.92	39.410
430.27	40.241
430.62	40.498
430.98	40.580
431.33	39.394
431.68	39.224
432.04	40.274
432.39	41.189
432.74	40.297
433.10	40.346
433.45	40.134
433.80	40.075
434.16	40.548
434.51	40.236
434.86	41.422
435.22	41.658
435.57	42.394
435.92	40.512
436.28	41.468
436.63	41.507
436.98	40.472
437.34	41.263
437.69	39.846
438.04	41.248
438.39	40.724
438.75	39.292
439.10	41.966
439.45	41.755
439.81	40.960
440.16	41.072
440.51	41.583
440.86	41.467
441.22	42.015
441.57	42.453
441.92	40.931
442.27	42.273
442.63	41.729
442.98	40.608
443.33	42.346
443.68	41.427
444.03	42.568
444.39	42.487
444.74	42.215
445.09	41.156
445.44	43.256
445.79	41.427
446.15	41.778
446.50	42.222
446.85	42.218
447.20	42.747
447.55	42.312
447.91	42.775
448.26	42.072
448.61	42.136
448.96	43.133
449.31	42.365
449.66	43.083
450.02	41.614
450.37	41.982
450.72	42.734
451.07	42.711
451.42	42.808
451.77	41.690
452.12	41.817
452.47	42.602
452.83	43.525
453.18	43.433
453.53	42.791
453.88	42.739
454.23	42.655
454.58	43.645
454.93	42.900
455.28	43.769
455.63	43.036
455.98	42.514
456.34	43.757
456.69	44.444
457.04	42.671
457.39	43.792
457.74	44.463
458.09	41.790
458.44	43.534
458.79	43.992
459.14	43.471
459.49	43.916
459.84	43.652
460.19	43.531
460.54	44.861
460.89	43.462
461.24	43.678
461.59	43.996
461.94	42.213
462.29	44.457
462.64	44.357
462.99	42.812
463.34	43.997
463.69	42.966
464.04	43.635
464.39	43.722
464.74	43.330
465.09	44.406
465.44	43.884
465.79	44.209
466.14	42.678
466.49	44.211
466.84	44.959
467.19	43.410
467.54	44.360
467.89	43.046
468.24	42.825
468.59	43.196
468.94	43.007
469.29	43.371
469.64	43.420
469.99	43.595
470.34	43.688
470.68	44.019
471.03	42.960
471.38	44.016
471.73	43.888
472.08	44.036
472.43	43.648
472.78	43.955
473.13	44.564
473.48	43.202
473.83	45.154
474.17	42.966
474.52	44.859
474.87	44.463
475.22	44.563
475.57	44.081
475.92	43.703
476.27	42.865
476.61	43.821
476.96	43.796
477.31	44.059
477.66	44.911
478.01	43.823
478.36	44.118
478.70	44.286
479.05	45.706
479.40	45.064
479.75	44.092
480.10	43.865
480.45	43.892
480.79	43.810
481.14	43.428
481.49	44.434
481.84	44.082
482.19	44.344
482.53	45.693
482.88	45.724
483.23	45.353
483.58	44.410
483.92	42.952
484.27	43.734
484.62	43.771
484.97	43.468
485.31	43.083
485.66	42.074
486.01	42.585
486.36	43.977
486.70	45.392
487.05	46.097
487.40	44.486
487.75	44.504
488.09	44.238
488.44	43.157
488.79	44.182
489.13	44.280
489.48	43.806
489.83	43.219
490.17	42.730
490.52	44.048
490.87	43.613
491.22	44.367
491.56	43.814
491.91	44.178
492.26	44.743
492.60	44.250
492.95	44.713
493.30	43.971
493.64	43.933
493.99	44.123
494.34	43.772
494.68	43.426
495.03	43.965
495.37	44.563
495.72	44.308
496.07	44.785
496.41	43.801
496.76	44.912
497.11	44.713
497.45	44.756
497.80	44.825
498.14	44.218
498.49	44.669
498.84	43.647
499.18	44.130
499.53	44.305
499.87	44.352
500.22	44.301
500.56	43.590
500.91	44.897
501.26	45.727
501.60	43.526
501.95	45.028
502.29	44.362
502.64	44.469
502.98	43.313
503.33	44.017
503.67	43.829
504.02	43.827
504.36	45.353
504.71	43.776
505.06	43.702
505.40	43.739
505.75	43.625
506.09	44.429
506.44	43.872
506.78	45.046
507.13	43.707
507.47	44.529
507.82	44.223
508.16	44.981
508.51	43.835
508.85	44.828
509.19	44.623
509.54	44.813
509.88	43.856
510.23	44.002
510.57	44.224
510.92	44.315
511.26	44.348
511.61	43.264
511.95	43.729
512.30	43.624
512.64	44.028
512.98	43.272
513.33	44.153
513.67	45.232
514.02	44.865
514.36	44.450
514.70	44.583
515.05	44.578
515.39	43.517
515.74	44.963
516.08	44.163
516.42	44.532
516.77	43.901
517.11	43.528
517.46	44.592
517.80	44.254
518.14	45.267
518.49	44.197
518.83	43.214
519.17	44.265
519.52	43.291
519.86	44.773
520.20	44.462
520.55	42.990
520.89	45.045
521.23	43.495
521.58	46.102
521.92	44.249
522.26	43.414
522.61	45.081
522.95	43.195
523.29	44.713
523.64	45.123
523.98	44.609
524.32	44.298
524.66	45.134
525.01	44.621
525.35	43.538
525.69	43.910
526.04	42.365
526.38	44.828
526.72	44.060
527.06	44.751
527.41	43.673
527.75	44.715
528.09	44.746
528.43	43.221
528.78	43.584
529.12	43.062
529.46	43.845
529.80	43.593
530.15	44.174
530.49	44.306
530.83	44.451
531.17	43.608
531.51	43.201
531.86	44.471
532.20	44.817
532.54	44.345
532.88	43.939
533.22	44.137
533.57	44.085
533.91	43.939
534.25	43.188
534.59	44.425
534.93	44.256
535.27	44.732
535.62	44.684
535.96	44.393
536.30	43.831
536.64	43.844
536.98	43.973
537.32	43.580
537.66	43.731
538.01	42.417
538.35	43.788
538.69	44.291
539.03	43.777
539.37	43.581
539.71	42.643
540.05	43.465
540.39	43.276
540.73	42.927
541.07	43.409
541.42	43.001
541.76	43.654
542.10	42.521
542.44	43.544
542.78	44.526
543.12	44.279
543.46	42.369
543.80	43.225
544.14	42.968
544.48	44.917
544.82	43.387
545.16	44.603
545.50	43.080
545.84	42.621
546.18	44.568
546.52	43.822
546.86	43.145
547.20	44.148
547.54	42.509
547.88	42.797
548.22	43.743
548.56	44.178
548.90	43.642
549.24	43.647
549.58	43.659
549.92	43.048
550.26	43.689
550.60	42.693
550.94	43.855
551.28	42.046
551.62	43.464
551.96	42.265
552.30	44.105
552.64	43.435
552.98	43.543
553.32	43.408
553.66	43.215
554.00	44.010
554.34	43.050
554.68	43.060
555.02	43.233
555.36	44.050
555.69	42.217
556.03	43.758
556.37	43.742
556.71	45.022
557.05	43.387
557.39	44.127
557.73	43.131
558.07	43.377
558.41	44.053
558.75	43.543
559.08	43.911
559.42	42.318
559.76	44.166
560.10	43.403
560.44	42.348
560.78	44.625
561.12	43.719
561.45	43.309
561.79	42.796
562.13	43.315
562.47	42.972
562.81	43.228
563.15	42.803
563.48	43.505
563.82	43.229
564.16	42.944
564.50	42.670
564.84	42.891
565.17	44.059
565.51	43.383
565.85	42.815
566.19	42.915
566.52	43.593
566.86	42.445
567.20	41.490
567.54	42.804
567.88	43.272
568.21	42.441
568.55	43.981
568.89	43.395
569.23	42.924
569.56	43.689
569.90	43.656
570.24	43.406
570.57	42.656
570.91	42.774
571.25	42.060
571.59	42.861
571.92	42.217
572.26	43.039
572.60	42.179
572.93	42.638
573.27	42.737
573.61	42.245
573.95	42.146
574.28	41.766
574.62	41.928
574.96	42.126
575.29	41.617
575.63	41.742
575.97	42.060
576.30	42.043
576.64	41.875
576.98	42.096
577.31	41.897
577.65	42.468
577.98	42.489
578.32	41.791
578.66	41.726
578.99	41.429
579.33	42.219
579.67	41.092
580.00	41.380
580.34	41.514
580.67	41.968
581.01	41.692
581.35	41.672
581.68	42.449
582.02	41.857
582.35	42.897
582.69	43.072
583.02	42.646
583.36	42.103
583.70	42.422
584.03	40.845
584.37	41.669
584.70	40.856
585.04	41.734
585.37	42.355
585.71	41.338
586.04	42.470
586.38	41.783
586.72	41.865
587.05	42.185
587.39	41.760
587.72	42.249
588.06	42.094
588.39	42.221
588.73	42.011
589.06	42.269
589.40	42.286
589.73	41.870
590.07	42.275
590.40	42.664
590.73	41.923
591.07	43.187
591.40	41.952
591.74	41.812
592.07	42.144
592.41	42.074
592.74	42.421
593.08	42.675
593.41	43.132
593.75	41.667
594.08	42.775
594.41	42.019
594.75	41.481
595.08	41.958
595.42	41.981
595.75	42.396
596.09	42.426
596.42	42.709
596.75	41.799
597.09	43.111
597.42	41.478
597.75	41.709
598.09	41.944
598.42	42.380
598.76	41.918
599.09	41.901
599.42	42.239
599.76	41.532
600.09	42.476
600.42	41.708
600.76	41.678
601.09	42.283
601.42	41.366
601.76	41.310
602.09	41.565
602.42	40.676
602.76	41.808
603.09	41.593
603.42	41.691
603.76	41.438
604.09	42.832
604.42	41.688
604.76	42.390
605.09	41.604
605.42	41.866
605.75	42.115
606.09	41.993
606.42	41.189
606.75	41.604
607.09	40.822
607.42	41.888
607.75	42.243
608.08	41.910
608.42	40.871
608.75	41.376
609.08	40.789
609.41	41.200
609.75	41.384
610.08	42.040
610.41	40.909
610.74	41.681
611.07	42.052
611.41	42.287
611.74	41.663
612.07	41.094
612.40	41.825
612.73	41.467
613.07	42.396
613.40	41.675
613.73	41.839
614.06	41.658
614.39	41.545
614.72	40.660
615.06	41.145
615.39	41.131
615.72	41.943
616.05	41.234
616.38	42.886
616.71	41.327
617.05	41.587
617.38	41.734
617.71	41.523
618.04	41.284
618.37	42.678
618.70	43.156
619.03	41.637
619.36	41.430
619.69	40.423
620.03	41.620
620.36	41.227
620.69	40.901
621.02	41.273
621.35	42.598
621.68	41.359
622.01	42.135
622.34	41.841
622.67	42.131
623.00	41.633
623.33	41.539
623.66	41.569
623.99	41.935
624.32	43.145
624.65	41.377
624.99	42.198
625.32	42.195
625.65	42.819
625.98	40.610
626.31	41.743
626.64	41.319
626.97	40.210
627.30	41.306
627.63	40.735
627.96	41.967
628.29	41.556
628.62	40.722
628.95	41.893
629.28	41.546
629.61	42.256
629.94	40.000
630.26	41.356
630.59	41.537
630.92	40.606
631.25	42.039
631.58	43.315
631.91	41.050
632.24	42.267
632.57	41.841
632.90	42.126
633.23	42.755
633.56	41.735
633.89	41.529
634.22	41.060
634.55	43.006
634.88	39.827
