SpectraSuite Data File
++++++++++++++++++++++++++++++++++++
Date: Thu May 14 15:17:44 PDT 2015
User: schluterlab
Dark Spectrum Present: Yes
Reference Spectrum Present: Yes
Number of Sampled Component Spectra: 1
Spectrometers: USB2E3373
Integration Time (usec): 3000 (USB2E3373)
Spectra Averaged: 3 (USB2E3373)
Boxcar Smoothing: 0 (USB2E3373)
Correct for Electrical Dark: No (USB2E3373)
Strobe/Lamp Enabled: No (USB2E3373)
Correct for Detector Non-linearity: No (USB2E3373)
Correct for Stray Light: No (USB2E3373)
Number of Pixels in Processed Spectrum: 2048
>>>>>Begin Processed Spectral Data<<<<<
178.53	0.000
178.91	528.571
179.29	-4400.000
179.67	-4800.000
180.04	428.571
180.42	420.000
180.80	940.000
181.18	-4200.000
181.56	-3200.000
181.94	1175.000
182.31	-900.000
182.69	1266.667
183.07	-1750.000
183.45	1075.000
183.83	-483.333
184.20	-1466.667
184.58	4100.000
184.96	-1100.000
185.34	-433.333
185.72	-760.000
186.09	544.444
186.47	2150.000
186.85	820.000
187.23	-455.556
187.61	-4200.000
187.98	900.000
188.36	1150.000
188.74	-1150.000
189.12	-1500.000
189.49	-212.500
189.87	-575.000
190.25	-388.889
190.63	-900.000
191.00	-444.444
191.38	0.000
191.76	-1125.000
192.14	-650.000
192.51	1900.000
192.89	-566.667
193.27	0.000
193.65	-485.714
194.02	-4900.000
194.40	-542.857
194.78	514.286
195.15	0.000
195.53	-336.364
195.91	0.000
196.29	-775.000
196.66	-300.000
197.04	-5000.000
197.42	-728.571
197.79	-2550.000
198.17	-537.500
198.55	-528.571
198.92	-344.444
199.30	-550.000
199.68	-318.182
200.05	-200.000
200.43	-1850.000
200.81	657.143
201.18	0.000
201.56	555.556
201.94	0.000
202.31	1400.000
202.69	-444.444
203.07	3800.000
203.44	-400.000
203.82	-1025.000
204.19	-258.333
204.57	-650.000
204.95	-562.500
205.32	-3700.000
205.70	825.000
206.08	-800.000
206.45	-616.667
206.83	1080.000
207.20	-633.333
207.58	-1020.000
207.96	-800.000
208.33	-566.667
208.71	275.000
209.08	-650.000
209.46	0.000
209.84	700.000
210.21	1800.000
210.59	1950.000
210.96	1433.333
211.34	-900.000
211.71	-537.500
212.09	-4600.000
212.46	0.000
212.84	2500.000
213.22	-880.000
213.59	-1050.000
213.97	-380.000
214.34	-1233.333
214.72	800.000
215.09	-1000.000
215.47	0.000
215.84	642.857
216.22	2650.000
216.59	-680.000
216.97	-900.000
217.34	-1000.000
217.72	-550.000
218.09	-1025.000
218.47	-1175.000
218.84	0.000
219.22	760.000
219.59	-205.882
219.97	-170.000
220.34	2200.000
220.72	-400.000
221.09	-207.692
221.47	-1166.667
221.84	-440.000
222.22	-657.143
222.59	0.000
222.97	-475.000
223.34	-860.000
223.72	-4800.000
224.09	-1025.000
224.46	-850.000
224.84	-580.000
225.21	-600.000
225.59	-1075.000
225.96	-950.000
226.34	-146.154
226.71	783.333
227.08	-2200.000
227.46	-266.667
227.83	-975.000
228.21	-173.684
228.58	525.000
228.95	2300.000
229.33	-300.000
229.70	-360.000
230.08	-147.368
230.45	470.000
230.82	-1100.000
231.20	-228.571
231.57	-283.333
231.95	-372.727
232.32	-281.818
232.69	-165.000
233.07	-1100.000
233.44	-229.412
233.81	-480.000
234.19	-144.444
234.56	-136.364
234.93	-100.000
235.31	-189.474
235.68	-222.222
236.05	-265.000
236.43	-146.154
236.80	-156.000
237.17	-122.222
237.55	-100.000
237.92	-500.000
238.29	-109.677
238.67	-86.364
239.04	-108.333
239.41	-95.238
239.79	-67.391
240.16	-51.852
240.53	-91.304
240.91	-86.275
241.28	-60.656
241.65	-46.269
242.02	-40.541
242.40	-67.692
242.77	-53.333
243.14	-50.000
243.51	-51.316
243.89	-53.846
244.26	-22.772
244.63	-35.294
245.00	-28.037
245.38	-29.825
245.75	-42.478
246.12	-19.841
246.49	-27.132
246.87	-13.571
247.24	-9.934
247.61	-10.526
247.98	-18.792
248.36	-18.519
248.73	-22.699
249.10	-13.115
249.47	-3.980
249.84	-6.283
250.22	-13.472
250.59	-11.667
250.96	-2.727
251.33	-10.204
251.70	-6.410
252.08	-8.333
252.45	-5.328
252.82	-10.331
253.19	-7.031
253.56	-5.703
253.94	-6.923
254.31	-6.439
254.68	-2.448
255.05	-6.515
255.42	-6.803
255.79	-5.502
256.16	-6.291
256.54	-10.596
256.91	-7.213
257.28	-5.246
257.65	-5.414
258.02	-5.015
258.39	-5.413
258.76	-0.612
259.14	-3.161
259.51	-4.323
259.88	-5.666
260.25	-3.333
260.62	-0.822
260.99	-2.186
261.36	-0.268
261.73	-3.714
262.10	-7.143
262.47	-1.877
262.85	-0.253
263.22	-3.117
263.59	-5.526
263.96	-2.046
264.33	-2.046
264.70	-1.728
265.07	0.716
265.44	1.587
265.81	-2.315
266.18	-0.680
266.55	-0.446
266.92	-3.872
267.29	-0.219
267.66	-1.109
268.03	-1.965
268.40	-0.835
268.77	-0.911
269.14	-2.863
269.51	-0.219
269.88	2.254
270.25	0.402
270.62	0.422
270.99	2.424
271.36	1.584
271.73	-1.179
272.10	3.607
272.47	1.002
272.84	-0.201
273.21	-0.200
273.58	1.210
273.95	1.346
274.32	-1.521
274.69	-1.161
275.06	0.549
275.43	0.185
275.80	2.646
276.17	-0.370
276.54	-0.373
276.91	0.179
277.28	0.000
277.65	1.975
278.02	0.919
278.39	-0.181
278.76	-1.230
279.13	-0.709
279.50	1.718
279.87	1.252
280.23	-1.232
280.60	2.203
280.97	1.151
281.34	-1.358
281.71	2.200
282.08	0.498
282.45	0.000
282.82	-1.099
283.19	-1.777
283.56	-0.328
283.92	2.553
284.29	1.580
284.66	0.985
285.03	-0.641
285.40	1.391
285.77	0.774
286.14	1.527
286.51	0.152
286.87	0.474
287.24	0.904
287.61	0.747
287.98	1.511
288.35	1.036
288.72	1.036
289.08	2.343
289.45	0.592
289.82	0.602
290.19	0.431
290.56	1.549
290.93	1.569
291.29	1.928
291.66	0.964
292.03	-0.136
292.40	1.088
292.77	0.809
293.13	0.812
293.50	0.131
293.87	-0.268
294.24	2.267
294.60	2.908
294.97	0.000
295.34	1.536
295.71	1.892
296.08	0.517
296.44	1.103
296.81	1.583
297.18	1.619
297.55	1.415
297.91	1.068
298.28	0.118
298.65	1.665
299.02	1.181
299.38	2.975
299.75	2.336
300.12	1.736
300.48	0.922
300.85	2.250
301.22	0.783
301.59	0.457
301.95	1.469
302.32	2.778
302.69	1.972
303.05	1.197
303.42	2.439
303.79	1.562
304.15	1.052
304.52	2.114
304.89	1.885
305.25	1.760
305.62	1.149
305.99	1.134
306.35	1.310
306.72	1.965
307.09	1.827
307.45	2.277
307.82	1.312
308.19	1.615
308.55	2.797
308.92	1.071
309.29	3.065
309.65	0.975
310.02	1.287
310.38	0.984
310.75	1.262
311.12	2.780
311.48	0.880
311.85	1.709
312.22	1.898
312.58	1.127
312.95	2.199
313.31	1.807
313.68	2.015
314.05	2.529
314.41	3.005
314.78	2.725
315.14	2.722
315.51	2.678
315.87	3.240
316.24	2.283
316.61	3.286
316.97	2.081
317.34	1.587
317.70	3.493
318.07	2.293
318.43	3.061
318.80	4.097
319.16	2.918
319.53	2.656
319.89	2.892
320.26	3.470
320.62	3.280
320.99	3.693
321.35	2.865
321.72	4.465
322.08	2.525
322.45	5.059
322.81	4.242
323.18	4.248
323.54	4.397
323.91	5.605
324.27	4.733
324.64	5.793
325.00	5.556
325.37	5.487
325.73	5.620
326.10	6.407
326.46	7.248
326.83	7.126
327.19	6.929
327.56	6.561
327.92	6.058
328.29	6.935
328.65	7.538
329.01	7.191
329.38	7.414
329.74	8.647
330.11	8.219
330.47	7.582
330.84	8.355
331.20	8.667
331.56	9.012
331.93	9.791
332.29	8.390
332.66	9.551
333.02	9.631
333.38	9.312
333.75	9.091
334.11	10.175
334.48	9.818
334.84	11.725
335.20	9.404
335.57	10.624
335.93	11.322
336.29	10.233
336.66	10.008
337.02	11.204
337.38	9.949
337.75	11.653
338.11	11.606
338.47	11.414
338.84	10.575
339.20	10.615
339.56	10.791
339.93	11.576
340.29	11.997
340.65	11.922
341.02	11.333
341.38	12.369
341.74	10.734
342.11	10.941
342.47	10.802
342.83	12.560
343.20	12.919
343.56	12.109
343.92	12.170
344.28	11.250
344.65	12.248
345.01	11.856
345.37	12.364
345.73	11.769
346.10	13.027
346.46	11.788
346.82	12.285
347.19	12.529
347.55	13.354
347.91	11.813
348.27	12.291
348.63	13.328
349.00	11.782
349.36	12.491
349.72	12.872
350.08	12.630
350.45	12.548
350.81	12.368
351.17	12.256
351.53	12.206
351.89	13.440
352.26	12.090
352.62	12.612
352.98	12.672
353.34	11.949
353.70	12.789
354.07	13.860
354.43	13.060
354.79	13.239
355.15	13.392
355.51	14.035
355.87	12.939
356.24	13.384
356.60	13.230
356.96	13.343
357.32	13.532
357.68	12.811
358.04	12.650
358.40	12.537
358.77	14.327
359.13	14.106
359.49	12.491
359.85	13.706
360.21	13.128
360.57	12.132
360.93	13.963
361.29	14.175
361.66	13.686
362.02	15.031
362.38	14.406
362.74	14.316
363.10	14.718
363.46	14.058
363.82	14.063
364.18	14.286
364.54	14.246
364.90	14.381
365.26	13.793
365.62	16.133
365.98	14.568
366.35	15.235
366.71	14.694
367.07	15.426
367.43	14.970
367.79	14.798
368.15	15.452
368.51	15.156
368.87	15.023
369.23	15.667
369.59	14.822
369.95	15.686
370.31	15.800
370.67	15.475
371.03	15.859
371.39	15.379
371.75	15.543
372.11	15.921
372.47	15.775
372.83	16.492
373.19	15.544
373.55	16.531
373.91	15.269
374.27	15.977
374.63	17.321
374.99	15.782
375.35	16.494
375.71	16.258
376.07	17.237
376.42	16.814
376.78	16.843
377.14	16.968
377.50	17.457
377.86	17.303
378.22	17.545
378.58	17.895
378.94	17.899
379.30	17.750
379.66	17.637
380.02	18.292
380.38	18.894
380.74	18.028
381.09	18.235
381.45	18.977
381.81	20.141
382.17	18.409
382.53	18.304
382.89	18.679
383.25	18.933
383.61	18.808
383.97	18.787
384.32	19.199
384.68	18.619
385.04	19.954
385.40	20.389
385.76	20.106
386.12	19.090
386.48	20.294
386.83	20.262
387.19	19.930
387.55	19.425
387.91	20.548
388.27	20.670
388.62	20.676
388.98	19.797
389.34	20.566
389.70	19.814
390.06	19.538
390.42	20.783
390.77	20.891
391.13	21.127
391.49	20.954
391.85	20.909
392.20	21.293
392.56	21.500
392.92	20.992
393.28	21.780
393.64	22.067
393.99	21.034
394.35	21.554
394.71	21.078
395.07	20.479
395.42	21.017
395.78	22.730
396.14	21.747
396.50	21.021
396.85	21.765
397.21	21.243
397.57	21.437
397.92	21.649
398.28	20.369
398.64	20.824
399.00	21.047
399.35	21.204
399.71	21.141
400.07	21.168
400.42	21.886
400.78	22.164
401.14	22.425
401.49	21.944
401.85	21.570
402.21	21.784
402.57	21.948
402.92	21.809
403.28	21.897
403.63	21.599
403.99	21.675
404.35	21.205
404.70	21.360
405.06	21.739
405.42	21.136
405.77	22.301
406.13	21.934
406.49	21.509
406.84	22.271
407.20	21.688
407.55	21.623
407.91	21.433
408.27	21.084
408.62	21.524
408.98	21.997
409.34	20.704
409.69	21.323
410.05	21.864
410.40	22.100
410.76	21.705
411.11	21.683
411.47	21.437
411.83	21.634
412.18	22.651
412.54	21.873
412.89	22.701
413.25	21.275
413.60	21.712
413.96	22.494
414.31	21.076
414.67	23.256
415.03	21.908
415.38	22.951
415.74	22.236
416.09	22.949
416.45	22.229
416.80	21.848
417.16	22.222
417.51	21.980
417.87	21.827
418.22	22.335
418.58	22.491
418.93	23.166
419.29	22.688
419.64	23.289
420.00	23.145
420.35	22.740
420.71	22.343
421.06	22.082
421.42	23.165
421.77	22.833
422.12	23.520
422.48	23.400
422.83	24.808
423.19	24.562
423.54	24.004
423.90	24.130
424.25	25.760
424.61	25.144
424.96	24.382
425.31	25.159
425.67	24.584
426.02	24.958
426.38	24.971
426.73	25.614
427.09	25.663
427.44	24.631
427.79	25.484
428.15	25.913
428.50	25.843
428.85	25.201
429.21	26.489
429.56	25.222
429.92	26.388
430.27	26.554
430.62	26.527
430.98	26.955
431.33	26.344
431.68	27.203
432.04	26.866
432.39	27.638
432.74	27.683
433.10	27.366
433.45	27.035
433.80	27.951
434.16	27.738
434.51	28.006
434.86	29.045
435.22	28.693
435.57	28.833
435.92	27.769
436.28	28.783
436.63	29.110
436.98	28.127
437.34	27.959
437.69	29.279
438.04	28.926
438.39	29.006
438.75	28.500
439.10	29.070
439.45	29.514
439.81	29.718
440.16	30.027
440.51	29.320
440.86	29.461
441.22	29.314
441.57	29.350
441.92	29.680
442.27	30.455
442.63	29.309
442.98	31.537
443.33	30.984
443.68	31.764
444.03	31.138
444.39	31.438
444.74	31.649
445.09	30.917
445.44	30.875
445.79	30.939
446.15	32.066
446.50	30.853
446.85	31.858
447.20	31.480
447.55	31.590
447.91	31.466
448.26	31.078
448.61	31.828
448.96	32.242
449.31	31.654
449.66	31.481
450.02	32.226
450.37	32.552
450.72	32.508
451.07	32.175
451.42	32.062
451.77	31.406
452.12	33.239
452.47	31.491
452.83	32.432
453.18	31.524
453.53	32.395
453.88	31.253
454.23	33.390
454.58	33.546
454.93	32.585
455.28	33.654
455.63	32.689
455.98	32.291
456.34	31.743
456.69	33.392
457.04	32.506
457.39	32.927
457.74	34.452
458.09	32.784
458.44	33.405
458.79	32.697
459.14	33.141
459.49	33.447
459.84	33.368
460.19	33.981
460.54	34.355
460.89	33.563
461.24	33.276
461.59	33.758
461.94	32.687
462.29	35.050
462.64	34.218
462.99	34.777
463.34	35.107
463.69	33.411
464.04	34.130
464.39	33.913
464.74	32.668
465.09	34.256
465.44	33.155
465.79	34.268
466.14	33.872
466.49	34.211
466.84	34.490
467.19	33.815
467.54	33.960
467.89	34.368
468.24	34.681
468.59	34.105
468.94	35.023
469.29	34.493
469.64	33.948
469.99	33.907
470.34	34.035
470.68	34.792
471.03	35.887
471.38	35.186
471.73	34.980
472.08	35.406
472.43	35.039
472.78	35.202
473.13	35.082
473.48	35.891
473.83	35.810
474.17	35.053
474.52	35.719
474.87	34.773
475.22	35.775
475.57	34.735
475.92	35.241
476.27	36.315
476.61	35.826
476.96	35.923
477.31	35.347
477.66	37.146
478.01	36.045
478.36	35.494
478.70	35.961
479.05	36.656
479.40	36.624
479.75	36.695
480.10	36.191
480.45	36.418
480.79	35.964
481.14	36.581
481.49	36.165
481.84	36.684
482.19	37.075
482.53	36.380
482.88	37.794
483.23	36.639
483.58	36.332
483.92	35.771
484.27	36.791
484.62	35.726
484.97	36.198
485.31	35.164
485.66	33.081
486.01	33.019
486.36	34.333
486.70	36.898
487.05	38.352
487.40	38.263
487.75	37.812
488.09	37.532
488.44	36.221
488.79	36.358
489.13	35.554
489.48	37.087
489.83	35.815
490.17	36.412
490.52	36.535
490.87	36.760
491.22	37.045
491.56	37.244
491.91	36.459
492.26	36.910
492.60	36.686
492.95	36.771
493.30	37.158
493.64	36.881
493.99	37.895
494.34	36.629
494.68	36.660
495.03	37.401
495.37	37.062
495.72	36.961
496.07	36.854
496.41	36.765
496.76	37.740
497.11	37.452
497.45	38.066
497.80	37.450
498.14	38.141
498.49	37.868
498.84	37.751
499.18	36.977
499.53	37.937
499.87	37.890
500.22	37.711
500.56	37.877
500.91	37.162
501.26	38.091
501.60	38.003
501.95	37.212
502.29	38.306
502.64	38.610
502.98	37.101
503.33	37.495
503.67	37.244
504.02	37.434
504.36	38.919
504.71	38.907
505.06	38.336
505.40	38.026
505.75	38.115
506.09	38.536
506.44	38.301
506.78	39.679
507.13	39.096
507.47	38.749
507.82	38.494
508.16	38.289
508.51	38.115
508.85	38.781
509.19	38.465
509.54	38.761
509.88	38.757
510.23	39.437
510.57	39.439
510.92	38.703
511.26	38.865
511.61	37.373
511.95	38.555
512.30	39.586
512.64	37.681
512.98	38.069
513.33	40.121
513.67	39.266
514.02	39.908
514.36	39.591
514.70	39.844
515.05	40.615
515.39	40.262
515.74	40.880
516.08	40.306
516.42	40.136
516.77	40.431
517.11	39.608
517.46	40.403
517.80	40.620
518.14	40.588
518.49	39.751
518.83	39.276
519.17	39.634
519.52	41.038
519.86	38.912
520.20	40.415
520.55	40.471
520.89	40.935
521.23	39.810
521.58	41.073
521.92	41.473
522.26	39.805
522.61	39.815
522.95	40.600
523.29	40.230
523.64	39.910
523.98	41.529
524.32	41.261
524.66	40.694
525.01	39.468
525.35	40.207
525.69	41.357
526.04	40.815
526.38	40.690
526.72	40.254
527.06	40.938
527.41	41.399
527.75	41.093
528.09	41.381
528.43	40.438
528.78	39.249
529.12	40.596
529.46	39.292
529.80	41.304
530.15	41.043
530.49	40.807
530.83	40.378
531.17	40.562
531.51	40.674
531.86	41.767
532.20	41.951
532.54	40.575
532.88	40.606
533.22	40.306
533.57	39.354
533.91	40.292
534.25	40.927
534.59	40.920
534.93	40.804
535.27	40.620
535.62	41.046
535.96	41.546
536.30	40.776
536.64	40.781
536.98	40.221
537.32	41.420
537.66	41.984
538.01	39.154
538.35	41.291
538.69	41.046
539.03	41.876
539.37	40.577
539.71	40.661
540.05	39.688
540.39	40.770
540.73	39.709
541.07	41.754
541.42	40.047
541.76	40.154
542.10	40.410
542.44	39.464
542.78	40.815
543.12	40.822
543.46	39.927
543.80	37.950
544.14	39.617
544.48	40.662
544.82	41.053
545.16	40.310
545.50	41.043
545.84	40.539
546.18	41.296
546.52	42.102
546.86	40.692
547.20	41.158
547.54	40.949
547.88	40.567
548.22	41.170
548.56	40.667
548.90	41.970
549.24	39.939
549.58	41.451
549.92	40.753
550.26	40.583
550.60	41.608
550.94	42.626
551.28	41.452
551.62	41.981
551.96	40.065
552.30	40.408
552.64	40.261
552.98	41.485
553.32	41.350
553.66	41.093
554.00	41.866
554.34	42.021
554.68	40.671
555.02	40.670
555.36	42.341
555.69	41.063
556.03	40.668
556.37	42.804
556.71	42.295
557.05	41.661
557.39	42.402
557.73	40.819
558.07	41.126
558.41	42.525
558.75	41.988
559.08	41.614
559.42	41.015
559.76	42.537
560.10	42.398
560.44	42.282
560.78	41.875
561.12	42.057
561.45	41.727
561.79	42.063
562.13	43.068
562.47	40.691
562.81	42.152
563.15	43.182
563.48	41.889
563.82	42.563
564.16	41.490
564.50	41.299
564.84	41.121
565.17	42.118
565.51	40.794
565.85	42.458
566.19	41.071
566.52	41.077
566.86	41.483
567.20	41.001
567.54	41.954
567.88	42.508
568.21	41.551
568.55	40.432
568.89	41.489
569.23	40.938
569.56	40.758
569.90	40.378
570.24	40.169
570.57	39.609
570.91	39.406
571.25	39.861
571.59	39.326
571.92	39.312
572.26	39.121
572.60	39.312
572.93	39.048
573.27	39.421
573.61	39.121
573.95	39.281
574.28	38.893
574.62	38.654
574.96	38.311
575.29	38.445
575.63	38.231
575.97	38.611
576.30	38.786
576.64	38.440
576.98	37.836
577.31	37.976
577.65	38.444
577.98	38.272
578.32	38.536
578.66	38.485
578.99	38.685
579.33	39.395
579.67	38.917
580.00	38.323
580.34	38.591
580.67	38.394
581.01	38.468
581.35	37.970
581.68	38.012
582.02	38.274
582.35	39.132
582.69	39.583
583.02	39.955
583.36	39.269
583.70	39.923
584.03	39.381
584.37	39.620
584.70	38.460
585.04	39.014
585.37	38.268
585.71	39.029
586.04	38.639
586.38	39.624
586.72	39.809
587.05	39.754
587.39	39.317
587.72	39.904
588.06	39.724
588.39	39.258
588.73	39.630
589.06	40.181
589.40	40.934
589.73	40.488
590.07	40.351
590.40	40.568
590.73	40.332
591.07	41.586
591.40	40.630
591.74	40.103
592.07	41.454
592.41	41.640
592.74	40.575
593.08	40.955
593.41	40.478
593.75	39.655
594.08	40.745
594.41	41.474
594.75	40.551
595.08	40.646
595.42	40.779
595.75	40.685
596.09	41.342
596.42	40.917
596.75	41.220
597.09	42.020
597.42	41.200
597.75	40.337
598.09	42.143
598.42	41.697
598.76	41.039
599.09	40.584
599.42	40.127
599.76	40.740
600.09	40.107
600.42	41.308
600.76	40.423
601.09	40.259
601.42	40.989
601.76	40.724
602.09	41.637
602.42	40.131
602.76	40.738
603.09	41.630
603.42	40.318
603.76	40.698
604.09	41.767
604.42	41.468
604.76	41.210
605.09	42.321
605.42	41.467
605.75	41.615
606.09	41.247
606.42	40.131
606.75	40.780
607.09	39.977
607.42	41.426
607.75	41.462
608.08	41.042
608.42	41.798
608.75	41.708
609.08	41.129
609.41	42.479
609.75	42.232
610.08	42.788
610.41	40.952
610.74	41.513
611.07	41.874
611.41	42.197
611.74	43.095
612.07	41.608
612.40	42.348
612.73	42.983
613.07	42.005
613.40	42.541
613.73	42.561
614.06	42.787
614.39	41.448
614.72	43.037
615.06	41.675
615.39	40.744
615.72	42.701
616.05	42.351
616.38	43.794
616.71	43.260
617.05	42.918
617.38	41.948
617.71	43.413
618.04	42.742
618.37	43.934
618.70	43.439
619.03	43.548
619.36	43.650
619.69	42.921
620.03	43.566
620.36	44.601
620.69	44.355
621.02	44.160
621.35	45.864
621.68	45.119
622.01	44.555
622.34	44.700
622.67	44.674
623.00	43.117
623.33	45.322
623.66	45.525
623.99	44.766
624.32	46.134
624.65	42.600
624.99	43.693
625.32	44.938
625.65	45.111
625.98	43.593
626.31	45.571
626.64	44.689
626.97	44.261
627.30	44.799
627.63	44.936
627.96	46.847
628.29	45.292
628.62	45.928
628.95	48.028
629.28	45.200
629.61	45.707
629.94	45.607
630.26	44.915
630.59	45.855
630.92	45.801
631.25	46.333
631.58	47.834
631.91	46.860
632.24	47.358
632.57	45.731
632.90	46.841
