SpectraSuite Data File
++++++++++++++++++++++++++++++++++++
Date: Thu May 14 14:31:35 PDT 2015
User: schluterlab
Dark Spectrum Present: Yes
Reference Spectrum Present: Yes
Number of Sampled Component Spectra: 1
Spectrometers: USB2E3373
Integration Time (usec): 3000 (USB2E3373)
Spectra Averaged: 3 (USB2E3373)
Boxcar Smoothing: 0 (USB2E3373)
Correct for Electrical Dark: No (USB2E3373)
Strobe/Lamp Enabled: No (USB2E3373)
Correct for Detector Non-linearity: No (USB2E3373)
Correct for Stray Light: No (USB2E3373)
Number of Pixels in Processed Spectrum: 2048
>>>>>Begin Processed Spectral Data<<<<<
178.53	0.000
178.91	-257.143
179.29	200.000
179.67	1700.000
180.04	-14.286
180.42	-190.000
180.80	-320.000
181.18	1000.000
181.56	2500.000
181.94	-275.000
182.31	475.000
182.69	-300.000
183.07	650.000
183.45	-575.000
183.83	316.667
184.20	566.667
184.58	-1800.000
184.96	225.000
185.34	266.667
185.72	520.000
186.09	-88.889
186.47	-400.000
186.85	-300.000
187.23	200.000
187.61	1600.000
187.98	-500.000
188.36	-375.000
188.74	275.000
189.12	700.000
189.49	143.750
189.87	125.000
190.25	177.778
190.63	380.000
191.00	111.111
191.38	0.000
191.76	25.000
192.14	216.667
192.51	-800.000
192.89	283.333
193.27	0.000
193.65	271.429
194.02	1400.000
194.40	157.143
194.78	-200.000
195.15	0.000
195.53	200.000
195.91	0.000
196.29	325.000
196.66	115.385
197.04	1200.000
197.42	228.571
197.79	400.000
198.17	162.500
198.55	100.000
198.92	166.667
199.30	150.000
199.68	181.818
200.05	128.571
200.43	550.000
200.81	-128.571
201.18	0.000
201.56	-144.444
201.94	0.000
202.31	-466.667
202.69	233.333
203.07	-2300.000
203.44	188.889
203.82	425.000
204.19	108.333
204.57	400.000
204.95	250.000
205.32	800.000
205.70	-450.000
206.08	250.000
206.45	283.333
206.83	-80.000
207.20	366.667
207.58	140.000
207.96	66.667
208.33	316.667
208.71	-100.000
209.08	483.333
209.46	0.000
209.84	-66.667
210.21	-900.000
210.59	-600.000
210.96	-466.667
211.34	650.000
211.71	200.000
212.09	2000.000
212.46	0.000
212.84	-650.000
213.22	420.000
213.59	325.000
213.97	130.000
214.34	566.667
214.72	-266.667
215.09	550.000
215.47	0.000
215.84	-228.571
216.22	-400.000
216.59	460.000
216.97	400.000
217.34	350.000
217.72	237.500
218.09	600.000
218.47	450.000
218.84	0.000
219.22	-260.000
219.59	105.882
219.97	65.000
220.34	-450.000
220.72	211.111
221.09	230.769
221.47	633.333
221.84	190.000
222.22	271.429
222.59	0.000
222.97	350.000
223.34	180.000
223.72	2100.000
224.09	475.000
224.46	200.000
224.84	440.000
225.21	300.000
225.59	475.000
225.96	475.000
226.34	107.692
226.71	-250.000
227.08	850.000
227.46	200.000
227.83	200.000
228.21	115.789
228.58	-112.500
228.95	-850.000
229.33	175.000
229.70	190.000
230.08	147.368
230.45	-110.000
230.82	666.667
231.20	100.000
231.57	191.667
231.95	154.545
232.32	272.727
232.69	130.000
233.07	550.000
233.44	129.412
233.81	100.000
234.19	133.333
234.56	81.818
234.93	110.345
235.31	110.526
235.68	116.667
236.05	105.000
236.43	126.923
236.80	144.000
237.17	103.704
237.55	78.788
237.92	220.000
238.29	93.548
238.67	72.727
239.04	77.778
239.41	42.857
239.79	60.870
240.16	64.815
240.53	50.000
240.91	45.098
241.28	54.098
241.65	56.716
242.02	47.297
242.40	53.846
242.77	49.333
243.14	36.585
243.51	43.421
243.89	51.282
244.26	58.416
244.63	50.980
245.00	37.383
245.38	41.228
245.75	37.168
246.12	40.476
246.49	37.209
246.87	42.143
247.24	39.735
247.61	36.184
247.98	40.268
248.36	38.889
248.73	41.104
249.10	36.066
249.47	42.786
249.84	38.220
250.22	34.197
250.59	37.222
250.96	37.727
251.33	38.776
251.70	36.752
252.08	35.833
252.45	37.295
252.82	35.950
253.19	30.469
253.56	36.882
253.94	33.077
254.31	37.500
254.68	36.014
255.05	35.179
255.42	35.034
255.79	31.068
256.16	33.113
256.54	30.132
256.91	31.148
257.28	34.754
257.65	31.847
258.02	31.563
258.39	28.490
258.76	34.557
259.14	32.759
259.51	33.141
259.88	30.595
260.25	34.167
260.62	35.342
260.99	35.246
261.36	38.338
261.73	28.647
262.10	34.341
262.47	32.172
262.85	33.838
263.22	30.390
263.59	26.842
263.96	30.691
264.33	28.900
264.70	28.889
265.07	33.652
265.44	33.333
265.81	33.565
266.18	32.200
266.55	31.250
266.92	28.929
267.29	31.729
267.66	31.042
268.03	32.096
268.40	32.150
268.77	32.574
269.14	28.855
269.51	31.360
269.88	33.811
270.25	29.980
270.62	31.224
270.99	30.303
271.36	31.485
271.73	31.631
272.10	34.269
272.47	29.860
272.84	33.133
273.21	28.457
273.58	32.056
273.95	29.423
274.32	30.798
274.69	28.627
275.06	29.304
275.43	28.281
275.80	28.748
276.17	29.074
276.54	29.478
276.91	27.191
277.28	30.741
277.65	28.905
278.02	29.779
278.39	31.703
278.76	27.241
279.13	30.496
279.50	29.210
279.87	30.769
280.23	26.761
280.60	29.322
280.97	29.934
281.34	28.693
281.71	30.964
282.08	30.565
282.45	26.514
282.82	28.414
283.19	27.302
283.56	29.016
283.92	30.931
284.29	29.384
284.66	30.049
285.03	26.442
285.40	27.821
285.77	26.471
286.14	28.244
286.51	26.941
286.87	28.278
287.24	28.313
287.61	26.756
287.98	27.190
288.35	27.663
288.72	28.994
289.08	28.551
289.45	25.148
289.82	25.151
290.19	29.023
290.56	28.169
290.93	27.532
291.29	27.686
291.66	26.860
292.03	26.594
292.40	26.259
292.77	25.606
293.13	26.522
293.50	26.150
293.87	26.443
294.24	27.067
294.60	28.066
294.97	25.101
295.34	26.633
295.71	23.329
296.08	25.711
296.44	24.755
296.81	25.579
297.18	24.533
297.55	23.703
297.91	24.674
298.28	24.882
298.65	25.208
299.02	24.557
299.38	25.858
299.75	24.182
300.12	25.463
300.48	25.000
300.85	24.972
301.22	25.727
301.59	23.516
301.95	24.633
302.32	24.444
302.69	24.863
303.05	25.136
303.42	25.166
303.79	25.521
304.15	23.764
304.52	25.159
304.89	23.665
305.25	23.706
305.62	24.138
305.99	24.433
306.35	25.403
306.72	26.474
307.09	24.873
307.45	25.569
307.82	25.732
308.19	25.530
308.55	25.554
308.92	25.803
309.29	25.287
309.65	25.439
310.02	25.842
310.38	26.575
310.75	26.699
311.12	27.133
311.48	27.370
311.85	27.825
312.22	27.894
312.58	27.230
312.95	26.577
313.31	26.739
313.68	28.755
314.05	28.726
314.41	29.508
314.78	27.884
315.14	28.584
315.51	29.178
315.87	29.523
316.24	31.233
316.61	30.728
316.97	30.407
317.34	30.776
317.70	30.830
318.07	31.570
318.43	30.272
318.80	31.773
319.16	31.416
319.53	31.534
319.89	30.675
320.26	31.762
320.62	31.206
320.99	32.964
321.35	32.625
321.72	34.047
322.08	32.822
322.45	32.159
322.81	33.303
323.18	33.009
323.54	33.879
323.91	33.897
324.27	34.337
324.64	34.425
325.00	33.250
325.37	33.989
325.73	34.959
326.10	34.469
326.46	35.749
326.83	36.029
327.19	34.173
327.56	36.680
327.92	35.012
328.29	34.516
328.65	35.930
329.01	36.125
329.38	35.973
329.74	37.671
330.11	37.414
330.47	36.479
330.84	36.520
331.20	37.417
331.56	37.002
331.93	37.573
332.29	37.288
332.66	37.542
333.02	36.265
333.38	36.577
333.75	37.290
334.11	37.364
334.48	37.789
334.84	37.978
335.20	37.196
335.57	38.786
335.93	37.851
336.29	36.938
336.66	36.333
337.02	36.873
337.38	37.755
337.75	36.694
338.11	38.856
338.47	37.883
338.84	38.494
339.20	37.405
339.56	36.903
339.93	37.685
340.29	36.795
340.65	35.929
341.02	37.590
341.38	37.833
341.74	37.530
342.11	37.088
342.47	37.411
342.83	37.923
343.20	37.612
343.56	38.091
343.92	37.390
344.28	37.266
344.65	37.519
345.01	38.222
345.37	37.403
345.73	35.620
346.10	36.739
346.46	37.816
346.82	36.854
347.19	38.121
347.55	37.253
347.91	37.593
348.27	36.571
348.63	36.862
349.00	35.794
349.36	36.952
349.72	35.565
350.08	36.627
350.45	37.262
350.81	37.330
351.17	37.368
351.53	37.377
351.89	37.054
352.26	36.343
352.62	37.388
352.98	36.794
353.34	36.893
353.70	36.826
354.07	37.258
354.43	37.509
354.79	37.023
355.15	36.497
355.51	37.573
355.87	37.023
356.24	37.871
356.60	36.585
356.96	37.361
357.32	36.803
357.68	36.164
358.04	36.602
358.40	36.940
358.77	38.085
359.13	37.666
359.49	37.100
359.85	36.403
360.21	37.374
360.57	37.186
360.93	38.152
361.29	38.246
361.66	37.219
362.02	38.344
362.38	38.159
362.74	38.478
363.10	37.827
363.46	39.266
363.82	38.707
364.18	38.987
364.54	38.382
364.90	38.930
365.26	39.586
365.62	38.333
365.98	36.964
366.35	38.591
366.71	39.184
367.07	38.566
367.43	39.002
367.79	39.947
368.15	39.599
368.51	38.227
368.87	38.472
369.23	39.533
369.59	40.164
369.95	39.621
370.31	39.973
370.67	39.133
371.03	39.197
371.39	38.684
371.75	40.509
372.11	39.634
372.47	40.420
372.83	39.398
373.19	39.026
373.55	40.989
373.91	40.900
374.27	40.492
374.63	41.610
374.99	40.915
375.35	41.818
375.71	40.839
376.07	41.252
376.42	41.121
376.78	41.765
377.14	40.299
377.50	42.062
377.86	42.796
378.22	43.772
378.58	42.568
378.94	41.960
379.30	42.238
379.66	42.152
380.02	42.874
380.38	43.779
380.74	44.113
381.09	43.438
381.45	43.750
381.81	45.023
382.17	43.884
382.53	44.854
382.89	43.679
383.25	45.955
383.61	45.718
383.97	44.582
384.32	46.890
384.68	44.838
385.04	46.270
385.40	46.788
385.76	47.479
386.12	45.841
386.48	46.529
386.83	47.735
387.19	46.060
387.55	46.244
387.91	47.432
388.27	48.441
388.62	47.766
388.98	45.742
389.34	48.438
389.70	49.390
390.06	49.201
390.42	47.711
390.77	49.247
391.13	47.711
391.49	49.577
391.85	48.000
392.20	48.754
392.56	49.084
392.92	49.891
393.28	49.309
393.64	49.385
393.99	49.448
394.35	49.124
394.71	50.419
395.07	48.383
395.42	49.457
395.78	51.188
396.14	49.733
396.50	50.178
396.85	49.135
397.21	50.296
397.57	50.177
397.92	50.057
398.28	49.538
398.64	48.913
399.00	48.639
399.35	50.209
399.71	49.348
400.07	49.579
400.42	50.116
400.78	50.810
401.14	49.573
401.49	50.370
401.85	51.221
402.21	51.275
402.57	51.056
402.92	49.882
403.28	48.419
403.63	49.821
403.99	50.950
404.35	49.801
404.70	49.915
405.06	50.598
405.42	50.468
405.77	51.200
406.13	50.189
406.49	50.619
406.84	51.025
407.20	50.084
407.55	49.849
407.91	50.660
408.27	50.412
408.62	50.320
408.98	51.538
409.34	50.381
409.69	51.792
410.05	50.703
410.40	51.682
410.76	51.094
411.11	51.490
411.47	50.983
411.83	51.793
412.18	50.783
412.54	50.741
412.89	51.164
413.25	51.242
413.60	50.948
413.96	51.865
414.31	49.972
414.67	50.924
415.03	50.646
415.38	51.828
415.74	50.886
416.09	52.437
416.45	51.472
416.80	50.857
417.16	51.660
417.51	51.432
417.87	52.912
418.22	51.437
418.58	52.416
418.93	52.503
419.29	53.329
419.64	53.721
420.00	51.632
420.35	52.835
420.71	53.188
421.06	52.559
421.42	52.924
421.77	53.096
422.12	51.533
422.48	52.279
422.83	53.560
423.19	52.785
423.54	53.761
423.90	52.457
424.25	53.867
424.61	53.502
424.96	54.201
425.31	53.185
425.67	54.160
426.02	53.625
426.38	53.789
426.73	53.739
427.09	55.421
427.44	53.850
427.79	55.832
428.15	55.023
428.50	54.775
428.85	53.961
429.21	55.266
429.56	55.972
429.92	55.086
430.27	56.000
430.62	55.642
430.98	55.730
431.33	54.692
431.68	54.789
432.04	56.323
432.39	56.829
432.74	55.594
433.10	56.679
433.45	56.633
433.80	56.062
434.16	56.250
434.51	57.605
434.86	57.438
435.22	57.705
435.57	58.432
435.92	57.485
436.28	58.020
436.63	59.093
436.98	57.434
437.34	57.666
437.69	57.843
438.04	58.488
438.39	58.185
438.75	58.993
439.10	59.725
439.45	58.971
439.81	59.661
440.16	58.713
440.51	59.922
440.86	59.422
441.22	59.110
441.57	60.063
441.92	59.408
442.27	60.505
442.63	59.960
442.98	60.139
443.33	60.863
443.68	62.091
444.03	62.418
444.39	61.073
444.74	60.898
445.09	60.061
445.44	63.435
445.79	61.207
446.15	61.202
446.50	62.067
446.85	61.527
447.20	60.977
447.55	61.977
447.91	61.990
448.26	61.998
448.61	61.530
448.96	63.627
449.31	61.400
449.66	62.255
450.02	61.973
450.37	62.493
450.72	63.778
451.07	63.383
451.42	61.236
451.77	62.034
452.12	64.221
452.47	64.290
452.83	64.527
453.18	62.872
453.53	63.929
453.88	63.114
454.23	62.881
454.58	64.597
454.93	63.956
455.28	65.141
455.63	65.094
455.98	64.134
456.34	64.193
456.69	63.962
457.04	64.598
457.39	65.576
457.74	64.430
458.09	63.756
458.44	63.901
458.79	64.415
459.14	64.709
459.49	65.761
459.84	64.900
460.19	65.353
460.54	66.837
460.89	66.331
461.24	66.034
461.59	65.744
461.94	64.746
462.29	65.454
462.64	65.963
462.99	67.169
463.34	67.618
463.69	65.416
464.04	66.259
464.39	65.807
464.74	66.477
465.09	67.589
465.44	66.202
465.79	66.367
466.14	65.242
466.49	65.789
466.84	67.273
467.19	67.283
467.54	64.924
467.89	66.667
468.24	66.648
468.59	66.474
468.94	66.434
469.29	67.307
469.64	67.832
469.99	66.667
470.34	67.574
470.68	68.968
471.03	67.976
471.38	67.822
471.73	69.961
472.08	67.766
472.43	68.694
472.78	68.703
473.13	68.900
473.48	69.245
473.83	69.414
474.17	68.992
474.52	68.190
474.87	69.324
475.22	69.915
475.57	68.847
475.92	68.591
476.27	68.530
476.61	68.484
476.96	69.135
477.31	69.505
477.66	69.622
478.01	69.293
478.36	68.245
478.70	69.409
479.05	71.779
479.40	69.250
479.75	69.308
480.10	70.204
480.45	69.827
480.79	69.796
481.14	68.980
481.49	69.650
481.84	70.148
482.19	70.151
482.53	69.873
482.88	70.891
483.23	70.165
483.58	69.083
483.92	69.592
484.27	70.745
484.62	68.729
484.97	69.635
485.31	70.116
485.66	68.890
486.01	68.403
486.36	67.641
486.70	68.112
487.05	67.373
487.40	67.147
487.75	68.066
488.09	68.442
488.44	66.769
488.79	69.376
489.13	68.646
489.48	70.408
489.83	68.813
490.17	69.380
490.52	69.951
490.87	70.854
491.22	71.317
491.56	69.966
491.91	70.781
492.26	70.662
492.60	70.660
492.95	70.689
493.30	71.717
493.64	71.879
493.99	71.009
494.34	70.296
494.68	71.563
495.03	71.366
495.37	70.839
495.72	72.154
496.07	72.261
496.41	71.557
496.76	71.852
497.11	72.272
497.45	71.731
497.80	71.390
498.14	71.338
498.49	72.105
498.84	73.172
499.18	72.425
499.53	72.825
499.87	72.879
500.22	72.618
500.56	72.515
500.91	73.181
501.26	73.500
501.60	72.912
501.95	72.471
502.29	72.663
502.64	72.672
502.98	71.829
503.33	72.700
503.67	73.136
504.02	72.242
504.36	74.710
504.71	74.047
505.06	72.669
505.40	72.669
505.75	72.769
506.09	73.665
506.44	75.070
506.78	74.908
507.13	73.813
507.47	75.414
507.82	74.384
508.16	74.426
508.51	74.684
508.85	75.579
509.19	75.651
509.54	75.456
509.88	75.231
510.23	75.862
510.57	75.834
510.92	76.101
511.26	75.132
511.61	74.360
511.95	74.817
512.30	75.628
512.64	74.613
512.98	76.138
513.33	75.504
513.67	76.594
514.02	76.035
514.36	77.954
514.70	76.927
515.05	75.704
515.39	76.430
515.74	78.049
516.08	76.281
516.42	77.028
516.77	78.654
517.11	75.967
517.46	77.784
517.80	78.033
518.14	78.128
518.49	77.874
518.83	76.583
519.17	77.975
519.52	76.468
519.86	76.610
520.20	76.784
520.55	77.437
520.89	78.097
521.23	77.722
521.58	79.266
521.92	78.244
522.26	77.090
522.61	79.630
522.95	78.662
523.29	79.080
523.64	76.513
523.98	79.407
524.32	79.542
524.66	79.624
525.01	78.369
525.35	77.542
525.69	77.552
526.04	76.980
526.38	78.046
526.72	78.547
527.06	78.944
527.41	79.417
527.75	79.572
528.09	77.922
528.43	79.337
528.78	78.092
529.12	78.268
529.46	78.078
529.80	78.547
530.15	79.884
530.49	79.359
530.83	78.749
531.17	78.793
531.51	79.422
531.86	80.409
532.20	80.427
532.54	77.379
532.88	79.212
533.22	78.315
533.57	77.149
533.91	79.349
534.25	78.858
534.59	78.908
534.93	77.872
535.27	77.972
535.62	79.250
535.96	77.920
536.30	78.378
536.64	79.279
536.98	79.889
537.32	80.000
537.66	79.913
538.01	76.918
538.35	77.954
538.69	78.666
539.03	79.951
539.37	78.033
539.71	77.898
540.05	78.837
540.39	77.995
540.73	77.778
541.07	79.399
541.42	77.614
541.76	77.046
542.10	77.744
542.44	77.832
542.78	77.798
543.12	77.175
543.46	77.961
543.80	77.338
544.14	77.259
544.48	78.546
544.82	78.516
545.16	77.877
545.50	79.269
545.84	78.200
546.18	78.457
546.52	78.662
546.86	77.296
547.20	79.135
547.54	76.904
547.88	78.541
548.22	78.012
548.56	77.999
548.90	78.030
549.24	77.994
549.58	78.612
549.92	79.401
550.26	78.252
550.60	77.664
550.94	77.878
551.28	78.020
551.62	81.065
551.96	77.476
552.30	78.330
552.64	78.656
552.98	78.915
553.32	80.579
553.66	79.035
554.00	79.634
554.34	78.443
554.68	77.082
555.02	79.041
555.36	80.145
555.69	77.963
556.03	78.689
556.37	79.099
556.71	80.025
557.05	78.466
557.39	81.088
557.73	79.392
558.07	79.272
558.41	79.468
558.75	80.122
559.08	79.749
559.42	77.778
559.76	78.901
560.10	78.835
560.44	79.288
560.78	81.000
561.12	79.002
561.45	80.414
561.79	79.060
562.13	79.113
562.47	78.422
562.81	78.418
563.15	78.535
563.48	79.988
563.82	78.416
564.16	77.710
564.50	77.950
564.84	79.646
565.17	77.647
565.51	76.812
565.85	79.929
566.19	77.823
566.52	77.531
566.86	78.212
567.20	77.270
567.54	78.067
567.88	77.829
568.21	77.717
568.55	76.211
568.89	77.939
569.23	76.595
569.56	77.022
569.90	75.232
570.24	76.054
570.57	76.010
570.91	73.913
571.25	73.850
571.59	73.615
571.92	73.188
572.26	73.531
572.60	74.038
572.93	73.142
573.27	73.729
573.61	74.060
573.95	73.246
574.28	72.647
574.62	72.988
574.96	72.078
575.29	72.086
575.63	72.118
575.97	71.928
576.30	71.996
576.64	72.465
576.98	72.415
577.31	73.500
577.65	74.164
577.98	72.816
578.32	71.851
578.66	71.749
578.99	71.227
579.33	71.476
579.67	72.348
580.00	72.129
580.34	72.600
580.67	72.264
581.01	72.566
581.35	71.693
581.68	72.760
582.02	71.775
582.35	72.937
582.69	72.460
583.02	72.622
583.36	72.746
583.70	73.120
584.03	72.474
584.37	72.402
584.70	72.714
585.04	72.286
585.37	73.707
585.71	72.794
586.04	73.536
586.38	73.027
586.72	72.048
587.05	73.753
587.39	74.794
587.72	73.971
588.06	74.202
588.39	73.214
588.73	73.439
589.06	74.125
589.40	74.155
589.73	74.132
590.07	74.038
590.40	75.389
590.73	75.186
591.07	75.242
591.40	75.544
591.74	75.199
592.07	75.802
592.41	74.882
592.74	74.796
593.08	74.713
593.41	75.707
593.75	73.736
594.08	74.341
594.41	74.071
594.75	74.095
595.08	74.630
595.42	74.903
595.75	73.716
596.09	74.551
596.42	75.134
596.75	75.724
597.09	75.960
597.42	75.089
597.75	74.520
598.09	74.841
598.42	75.392
598.76	74.666
599.09	74.297
599.42	74.455
599.76	73.225
600.09	73.240
600.42	74.708
600.76	74.670
601.09	73.913
601.42	73.807
601.76	74.241
602.09	73.981
602.42	74.627
602.76	75.203
603.09	75.110
603.42	75.289
603.76	74.489
604.09	75.834
604.42	74.679
604.76	73.478
605.09	74.830
605.42	75.518
605.75	74.808
606.09	73.796
606.42	74.134
606.75	73.013
607.09	72.427
607.42	74.104
607.75	74.443
608.08	74.546
608.42	73.438
608.75	75.083
609.08	73.090
609.41	74.195
609.75	75.848
610.08	74.846
610.41	74.427
610.74	74.958
611.07	75.533
611.41	76.054
611.74	77.044
612.07	75.129
612.40	76.759
612.73	76.626
613.07	74.328
613.40	74.976
613.73	75.108
614.06	76.300
614.39	74.247
614.72	74.672
615.06	73.340
615.39	73.562
615.72	74.882
616.05	74.211
616.38	76.287
616.71	73.563
617.05	74.547
617.38	74.478
617.71	76.404
618.04	75.067
618.37	75.738
618.70	76.810
619.03	77.180
619.36	77.189
619.69	75.977
620.03	76.397
620.36	76.012
620.69	75.324
621.02	76.969
621.35	78.084
621.68	77.802
622.01	77.082
622.34	76.918
622.67	76.907
623.00	74.966
623.33	77.173
623.66	76.719
623.99	77.617
624.32	76.543
624.65	76.062
624.99	76.463
625.32	75.833
625.65	78.827
625.98	74.983
626.31	75.762
626.64	76.337
626.97	77.569
627.30	77.449
627.63	76.519
627.96	78.228
628.29	77.665
628.62	77.834
628.95	80.105
629.28	77.740
629.61	80.387
629.94	77.071
630.26	77.373
630.59	77.375
630.92	76.970
631.25	79.696
631.58	79.944
631.91	78.913
632.24	79.539
632.57	78.083
