SpectraSuite Data File
++++++++++++++++++++++++++++++++++++
Date: Thu May 14 15:16:13 PDT 2015
User: schluterlab
Dark Spectrum Present: Yes
Reference Spectrum Present: Yes
Number of Sampled Component Spectra: 1
Spectrometers: USB2E3373
Integration Time (usec): 3000 (USB2E3373)
Spectra Averaged: 3 (USB2E3373)
Boxcar Smoothing: 0 (USB2E3373)
Correct for Electrical Dark: No (USB2E3373)
Strobe/Lamp Enabled: No (USB2E3373)
Correct for Detector Non-linearity: No (USB2E3373)
Correct for Stray Light: No (USB2E3373)
Number of Pixels in Processed Spectrum: 2048
>>>>>Begin Processed Spectral Data<<<<<
178.53	0.000
178.91	571.429
179.29	-5400.000
179.67	-4500.000
180.04	450.000
180.42	440.000
180.80	840.000
181.18	-3700.000
181.56	-3200.000
181.94	975.000
182.31	-1150.000
182.69	1433.333
183.07	-2100.000
183.45	1075.000
183.83	-666.667
184.20	-1066.667
184.58	3600.000
184.96	-950.000
185.34	-433.333
185.72	-620.000
186.09	511.111
186.47	2350.000
186.85	980.000
187.23	-555.556
187.61	-4400.000
187.98	880.000
188.36	975.000
188.74	-875.000
189.12	-1400.000
189.49	-218.750
189.87	-425.000
190.25	-300.000
190.63	-660.000
191.00	-466.667
191.38	0.000
191.76	-1175.000
192.14	-583.333
192.51	2200.000
192.89	-633.333
193.27	0.000
193.65	-471.429
194.02	-4800.000
194.40	-471.429
194.78	585.714
195.15	0.000
195.53	-354.545
195.91	0.000
196.29	-800.000
196.66	-246.154
197.04	-3700.000
197.42	-571.429
197.79	-2250.000
198.17	-525.000
198.55	-557.143
198.92	-377.778
199.30	-537.500
199.68	-272.727
200.05	-135.714
200.43	-2250.000
200.81	657.143
201.18	0.000
201.56	522.222
201.94	0.000
202.31	1266.667
202.69	-522.222
203.07	3300.000
203.44	-477.778
203.82	-1175.000
204.19	-425.000
204.57	-850.000
204.95	-487.500
205.32	-4300.000
205.70	950.000
206.08	-700.000
206.45	-683.333
206.83	920.000
207.20	-666.667
207.58	-1040.000
207.96	-800.000
208.33	-616.667
208.71	383.333
209.08	-650.000
209.46	0.000
209.84	700.000
210.21	1800.000
210.59	1650.000
210.96	1300.000
211.34	-900.000
211.71	-400.000
212.09	-4200.000
212.46	0.000
212.84	2500.000
213.22	-840.000
213.59	-750.000
213.97	-360.000
214.34	-1433.333
214.72	733.333
215.09	-975.000
215.47	0.000
215.84	685.714
216.22	2350.000
216.59	-780.000
216.97	-800.000
217.34	-1075.000
217.72	-425.000
218.09	-900.000
218.47	-1125.000
218.84	0.000
219.22	780.000
219.59	-211.765
219.97	-165.000
220.34	2350.000
220.72	-477.778
221.09	-276.923
221.47	-1133.333
221.84	-380.000
222.22	-600.000
222.59	0.000
222.97	-425.000
223.34	-960.000
223.72	-4600.000
224.09	-825.000
224.46	-1025.000
224.84	-740.000
225.21	-685.714
225.59	-1125.000
225.96	-950.000
226.34	-107.692
226.71	666.667
227.08	-2250.000
227.46	-220.000
227.83	-1050.000
228.21	-200.000
228.58	425.000
228.95	2200.000
229.33	-300.000
229.70	-410.000
230.08	-121.053
230.45	460.000
230.82	-1333.333
231.20	-292.857
231.57	-308.333
231.95	-336.364
232.32	-336.364
232.69	-115.000
233.07	-950.000
233.44	-194.118
233.81	-380.000
234.19	-161.111
234.56	-150.000
234.93	-117.241
235.31	-184.211
235.68	-194.444
236.05	-205.000
236.43	-73.077
236.80	-80.000
237.17	-122.222
237.55	-87.879
237.92	-390.000
238.29	-103.226
238.67	-59.091
239.04	-63.889
239.41	-76.190
239.79	-50.000
240.16	-48.148
240.53	-63.043
240.91	-56.863
241.28	-27.869
241.65	-1.493
242.02	-14.865
242.40	-36.923
242.77	-18.667
243.14	-18.293
243.51	-30.263
243.89	-7.692
244.26	1.980
244.63	1.961
245.00	-7.477
245.38	-8.772
245.75	-10.619
246.12	1.587
246.49	0.000
246.87	9.286
247.24	5.960
247.61	8.553
247.98	6.711
248.36	11.728
248.73	6.748
249.10	12.022
249.47	17.910
249.84	21.466
250.22	14.508
250.59	11.667
250.96	17.727
251.33	15.816
251.70	13.675
252.08	15.833
252.45	24.180
252.82	19.008
253.19	15.625
253.56	19.392
253.94	19.615
254.31	23.106
254.68	22.727
255.05	24.756
255.42	19.728
255.79	22.330
256.16	28.477
256.54	24.834
256.91	24.918
257.28	20.984
257.65	22.293
258.02	19.469
258.39	24.786
258.76	25.994
259.14	27.586
259.51	26.801
259.88	24.646
260.25	27.222
260.62	26.027
260.99	26.230
261.36	23.861
261.73	26.260
262.10	25.824
262.47	25.737
262.85	28.535
263.22	28.312
263.59	21.579
263.96	27.110
264.33	24.041
264.70	28.395
265.07	30.310
265.44	28.571
265.81	26.389
266.18	30.612
266.55	27.009
266.92	27.790
267.29	27.352
267.66	29.268
268.03	29.039
268.40	26.305
268.77	27.335
269.14	27.533
269.51	27.412
269.88	27.254
270.25	29.980
270.62	27.637
270.99	28.081
271.36	27.525
271.73	28.487
272.10	29.860
272.47	27.054
272.84	29.116
273.21	28.657
273.58	27.823
273.95	29.038
274.32	28.137
274.69	26.112
275.06	29.304
275.43	24.954
275.80	27.690
276.17	25.370
276.54	29.104
276.91	28.444
277.28	26.763
277.65	28.725
278.02	29.044
278.39	26.087
278.76	28.998
279.13	28.191
279.50	28.866
279.87	28.623
280.23	26.056
280.60	28.136
280.97	29.276
281.34	28.183
281.71	30.118
282.08	28.073
282.45	27.005
282.82	27.943
283.19	26.333
283.56	26.230
283.92	27.628
284.29	27.014
284.66	27.915
285.03	25.321
285.40	27.821
285.77	26.316
286.14	29.160
286.51	26.941
286.87	26.382
287.24	27.861
287.61	27.504
287.98	26.435
288.35	26.331
288.72	26.183
289.08	27.233
289.45	24.852
289.82	27.711
290.19	24.569
290.56	26.620
290.93	25.392
291.29	24.242
291.66	25.482
292.03	23.066
292.40	26.803
292.77	24.394
293.13	25.981
293.50	22.470
293.87	23.893
294.24	23.467
294.60	22.756
294.97	20.805
295.34	23.688
295.71	22.699
296.08	24.160
296.44	21.446
296.81	21.924
297.18	22.914
297.55	22.524
297.91	21.827
298.28	19.550
298.65	22.949
299.02	20.779
299.38	22.654
299.75	21.846
300.12	21.875
300.48	21.429
300.85	22.047
301.22	21.365
301.59	21.575
301.95	21.582
302.32	20.889
302.69	21.139
303.05	21.872
303.42	20.621
303.79	21.875
304.15	20.189
304.52	21.036
304.89	20.209
305.25	20.186
305.62	20.167
305.99	21.340
306.35	20.363
306.72	21.510
307.09	19.086
307.45	21.118
307.82	21.998
308.19	19.475
308.55	20.829
308.92	19.961
309.29	19.923
309.65	19.786
310.02	20.495
310.38	19.685
310.75	20.000
311.12	20.901
311.48	20.332
311.85	19.563
312.22	19.734
312.58	19.437
312.95	18.929
313.31	20.325
313.68	20.696
314.05	19.603
314.41	19.763
314.78	19.709
315.14	21.779
315.51	20.406
315.87	19.622
316.24	20.822
316.61	21.226
316.97	19.729
317.34	19.577
317.70	20.437
318.07	20.282
318.43	20.493
318.80	21.488
319.16	19.399
319.53	17.909
319.89	18.755
320.26	20.730
320.62	19.149
320.99	20.591
321.35	19.686
321.72	20.744
322.08	19.387
322.45	20.506
322.81	21.390
323.18	19.292
323.54	19.828
323.91	20.819
324.27	19.191
324.64	20.067
325.00	20.481
325.37	20.066
325.73	21.157
326.10	21.249
326.46	21.498
326.83	21.057
327.19	20.394
327.56	20.474
327.92	21.086
328.29	19.113
328.65	19.765
329.01	21.151
329.38	21.061
329.74	20.890
330.11	20.634
330.47	20.977
330.84	19.121
331.20	21.167
331.56	21.144
331.93	20.669
332.29	20.593
332.66	20.515
333.02	19.347
333.38	19.715
333.75	20.034
334.11	20.767
334.48	20.050
334.84	21.071
335.20	19.731
335.57	20.405
335.93	20.083
336.29	19.052
336.66	18.923
337.02	19.649
337.38	19.728
337.75	19.917
338.11	20.774
338.47	20.265
338.84	19.120
339.20	19.040
339.56	20.099
339.93	19.212
340.29	20.129
340.65	20.114
341.02	20.431
341.38	20.695
341.74	19.613
342.11	20.113
342.47	18.110
342.83	20.370
343.20	20.442
343.56	19.006
343.92	18.975
344.28	19.219
344.65	20.078
345.01	19.891
345.37	19.907
345.73	17.615
346.10	18.487
346.46	19.304
346.82	19.026
347.19	20.244
347.55	19.044
347.91	19.837
348.27	19.499
348.63	20.259
349.00	18.867
349.36	19.703
349.72	18.750
350.08	19.094
350.45	18.783
350.81	18.627
351.17	19.098
351.53	19.105
351.89	19.210
352.26	19.030
352.62	18.881
352.98	19.313
353.34	18.596
353.70	19.414
354.07	19.374
354.43	17.464
354.79	19.596
355.15	18.985
355.51	18.787
355.87	19.671
356.24	18.099
356.60	18.625
356.96	18.013
357.32	19.108
357.68	18.960
358.04	19.461
358.40	18.806
358.77	18.640
359.13	18.464
359.49	18.216
359.85	19.072
360.21	18.867
360.57	18.019
360.93	17.630
361.29	19.789
361.66	18.320
362.02	19.137
362.38	18.763
362.74	18.156
363.10	18.226
363.46	18.352
363.82	17.969
364.18	17.452
364.54	19.018
364.90	18.863
365.26	17.241
365.62	18.933
365.98	18.380
366.35	19.060
366.71	19.796
367.07	19.012
367.43	19.370
367.79	19.509
368.15	18.863
368.51	19.486
368.87	18.811
369.23	19.200
369.59	17.964
369.95	18.999
370.31	19.514
370.67	18.913
371.03	18.767
371.39	17.797
371.75	17.607
372.11	19.106
372.47	17.942
372.83	18.979
373.19	19.079
373.55	18.360
373.91	18.200
374.27	18.241
374.63	18.539
374.99	19.032
375.35	19.740
375.71	18.774
376.07	17.560
376.42	18.703
376.78	19.142
377.14	19.089
377.50	19.292
377.86	19.520
378.22	18.743
378.58	19.441
378.94	17.899
379.30	18.512
379.66	19.283
380.02	19.042
380.38	20.161
380.74	18.761
381.09	18.815
381.45	18.636
381.81	19.496
382.17	18.884
382.53	19.181
382.89	18.454
383.25	19.461
383.61	18.345
383.97	18.021
384.32	19.438
384.68	18.619
385.04	19.375
385.40	20.153
385.76	19.988
386.12	19.150
386.48	19.824
386.83	19.905
387.19	19.003
387.55	18.955
387.91	19.064
388.27	19.457
388.62	19.244
388.98	18.556
389.34	20.035
389.70	18.826
390.06	18.117
390.42	19.217
390.77	20.108
391.13	19.366
391.49	19.263
391.85	19.091
392.20	20.403
392.56	19.315
392.92	20.120
393.28	20.066
393.64	19.553
393.99	19.930
394.35	19.977
394.71	19.281
395.07	19.641
395.42	19.018
395.78	19.622
396.14	19.846
396.50	19.359
396.85	19.738
397.21	19.645
397.57	19.906
397.92	20.218
398.28	19.011
398.64	19.050
399.00	19.319
399.35	19.791
399.71	19.891
400.07	20.382
400.42	20.023
400.78	20.718
401.14	20.148
401.49	20.580
401.85	19.884
402.21	19.699
402.57	20.070
402.92	19.326
403.28	19.496
403.63	19.570
403.99	20.131
404.35	19.443
404.70	19.830
405.06	19.674
405.42	18.618
405.77	20.229
406.13	19.881
406.49	20.327
406.84	19.945
407.20	19.843
407.55	19.685
407.91	19.296
408.27	20.024
408.62	20.593
408.98	19.791
409.34	18.416
409.69	19.592
410.05	20.223
410.40	20.360
410.76	19.462
411.11	20.339
411.47	19.595
411.83	20.400
412.18	21.145
412.54	20.391
412.89	19.558
413.25	20.090
413.60	19.931
413.96	20.338
414.31	20.000
414.67	20.274
415.03	20.000
415.38	20.681
415.74	19.609
416.09	20.111
416.45	18.222
416.80	19.339
417.16	20.179
417.51	20.112
417.87	20.172
418.22	19.820
418.58	18.587
418.93	20.722
419.29	19.852
419.64	19.808
420.00	18.754
420.35	19.427
420.71	19.357
421.06	20.184
421.42	19.553
421.77	19.440
422.12	19.715
422.48	20.430
422.83	21.030
423.19	19.469
423.54	20.796
423.90	19.658
424.25	19.947
424.61	18.944
424.96	19.714
425.31	19.851
425.67	19.646
426.02	20.863
426.38	20.207
426.73	19.141
427.09	20.934
427.44	19.115
427.79	19.514
428.15	19.521
428.50	19.551
428.85	19.690
429.21	19.521
429.56	19.348
429.92	20.049
430.27	20.096
430.62	19.590
430.98	20.364
431.33	19.941
431.68	20.546
432.04	20.620
432.39	19.657
432.74	20.320
433.10	20.173
433.45	19.287
433.80	20.172
434.16	19.267
434.51	19.784
434.86	20.684
435.22	20.776
435.57	20.460
435.92	19.143
436.28	18.771
436.63	20.153
436.98	19.431
437.34	20.180
437.69	19.318
438.04	19.408
438.39	19.874
438.75	19.314
439.10	20.930
439.45	19.955
439.81	19.322
440.16	19.786
440.51	18.673
440.86	20.122
441.22	19.346
441.57	19.602
441.92	19.738
442.27	21.061
442.63	20.169
442.98	20.811
443.33	20.358
443.68	20.119
444.03	20.790
444.39	19.972
444.74	20.470
445.09	19.868
445.44	20.548
445.79	20.833
446.15	20.349
446.50	19.070
446.85	20.525
447.20	20.068
447.55	20.450
447.91	19.005
448.26	20.243
448.61	19.341
448.96	19.957
449.31	19.565
449.66	19.118
450.02	19.462
450.37	20.884
450.72	19.806
451.07	19.761
451.42	20.046
451.77	19.733
452.12	20.542
452.47	19.608
452.83	19.820
453.18	18.681
453.53	19.931
453.88	18.940
454.23	19.831
454.58	20.081
454.93	19.053
455.28	19.145
455.63	19.955
455.98	20.782
456.34	19.729
456.69	20.400
457.04	19.326
457.39	19.235
457.74	19.743
458.09	19.330
458.44	19.666
458.79	19.649
459.14	20.031
459.49	19.921
459.84	20.094
460.19	18.601
460.54	20.613
460.89	18.899
461.24	19.195
461.59	19.812
461.94	19.053
462.29	20.213
462.64	18.467
462.99	18.832
463.34	19.533
463.69	19.402
464.04	20.567
464.39	19.451
464.74	19.327
465.09	19.089
465.44	20.118
465.79	20.254
466.14	20.115
466.49	19.684
466.84	20.441
467.19	19.711
467.54	18.801
467.89	18.333
468.24	20.000
468.59	18.819
468.94	18.881
469.29	18.776
469.64	19.644
469.99	18.802
470.34	18.750
470.68	18.660
471.03	19.843
471.38	18.770
471.73	19.051
472.08	18.338
472.43	19.025
472.78	19.395
473.13	19.785
473.48	19.094
473.83	19.153
474.17	19.695
474.52	19.663
474.87	19.878
475.22	19.549
475.57	19.782
475.92	20.010
476.27	20.021
476.61	19.418
476.96	19.030
477.31	19.950
477.66	20.147
478.01	19.522
478.36	19.840
478.70	19.803
479.05	20.706
479.40	19.102
479.75	20.557
480.10	19.943
480.45	19.508
480.79	20.136
481.14	20.037
481.49	19.718
481.84	19.974
482.19	19.957
482.53	20.376
482.88	20.204
483.23	20.231
483.58	18.952
483.92	18.661
484.27	19.052
484.62	19.596
484.97	19.673
485.31	19.289
485.66	18.742
486.01	19.649
486.36	20.618
486.70	22.511
487.05	22.781
487.40	22.104
487.75	21.450
488.09	20.428
488.44	19.883
488.79	19.224
489.13	19.768
489.48	18.718
489.83	19.517
490.17	19.563
490.52	19.499
490.87	19.966
491.22	19.541
491.56	19.454
491.91	19.756
492.26	19.342
492.60	19.633
492.95	19.789
493.30	19.812
493.64	19.141
493.99	18.991
494.34	18.598
494.68	19.315
495.03	19.692
495.37	19.618
495.72	19.274
496.07	20.158
496.41	19.091
496.76	20.434
497.11	19.406
497.45	19.767
497.80	19.502
498.14	19.773
498.49	19.485
498.84	19.561
499.18	19.928
499.53	19.641
499.87	19.736
500.22	19.056
500.56	19.928
500.91	19.542
501.26	20.682
501.60	19.046
501.95	19.453
502.29	20.448
502.64	20.332
502.98	19.931
503.33	19.352
503.67	19.451
504.02	19.746
504.36	20.286
504.71	19.384
505.06	19.418
505.40	20.064
505.75	19.718
506.09	19.475
506.44	19.313
506.78	20.046
507.13	19.733
507.47	20.038
507.82	19.602
508.16	19.407
508.51	19.831
508.85	19.934
509.19	19.754
509.54	20.461
509.88	19.378
510.23	19.961
510.57	20.638
510.92	20.174
511.26	19.336
511.61	19.169
511.95	19.766
512.30	19.793
512.64	19.890
512.98	19.360
513.33	19.909
513.67	19.378
514.02	19.469
514.36	20.205
514.70	19.635
515.05	19.917
515.39	19.633
515.74	20.414
516.08	19.546
516.42	20.408
516.77	20.347
517.11	19.649
517.46	19.406
517.80	20.096
518.14	19.913
518.49	19.523
518.83	19.745
519.17	18.955
519.52	19.602
519.86	20.011
520.20	20.128
520.55	20.318
520.89	19.144
521.23	19.654
521.58	20.339
521.92	20.283
522.26	19.931
522.61	19.502
522.95	20.127
523.29	19.310
523.64	19.843
523.98	20.650
524.32	20.516
524.66	20.034
525.01	19.309
525.35	19.874
525.69	20.012
526.04	19.747
526.38	19.310
526.72	20.185
527.06	19.883
527.41	19.650
527.75	19.774
528.09	20.012
528.43	19.597
528.78	18.960
529.12	19.725
529.46	19.449
529.80	20.023
530.15	20.116
530.49	19.217
530.83	19.540
531.17	19.654
531.51	19.976
531.86	19.832
532.20	20.000
532.54	19.090
532.88	20.182
533.22	19.859
533.57	19.677
533.91	20.202
534.25	20.237
534.59	19.770
534.93	20.091
535.27	19.549
535.62	20.296
535.96	20.046
536.30	19.918
536.64	20.120
536.98	20.849
537.32	19.938
537.66	19.963
538.01	20.302
538.35	20.341
538.69	18.990
539.03	20.785
539.37	19.670
539.71	19.520
540.05	19.964
540.39	19.071
540.73	19.004
541.07	19.926
541.42	19.256
541.76	19.098
542.10	19.602
542.44	19.123
542.78	20.316
543.12	20.262
543.46	20.330
543.80	18.585
544.14	20.168
544.48	21.040
544.82	20.048
545.16	20.155
545.50	18.814
545.84	20.637
546.18	19.938
546.52	19.299
546.86	20.000
547.20	19.911
547.54	19.975
547.88	19.168
548.22	19.240
548.56	20.538
548.90	20.537
549.24	19.149
549.58	20.126
549.92	19.770
550.26	20.129
550.60	19.719
550.94	19.340
551.28	20.396
551.62	19.609
551.96	19.029
552.30	19.503
552.64	20.286
552.98	18.902
553.32	20.579
553.66	20.386
554.00	19.546
554.34	19.562
554.68	19.819
555.02	19.580
555.36	20.118
555.69	18.386
556.03	20.050
556.37	20.275
556.71	20.038
557.05	20.575
557.39	19.575
557.73	19.353
558.07	19.669
558.41	20.465
558.75	19.878
559.08	19.485
559.42	19.273
559.76	19.267
560.10	19.357
560.44	19.657
560.78	19.625
561.12	19.828
561.45	19.891
561.79	20.879
562.13	20.333
562.47	19.051
562.81	19.873
563.15	19.760
563.48	20.012
563.82	19.528
564.16	19.079
564.50	20.501
564.84	20.177
565.17	20.176
565.51	19.448
565.85	19.715
566.19	19.585
566.52	19.895
566.86	20.430
567.20	20.392
567.54	19.915
567.88	20.438
568.21	19.960
568.55	20.767
568.89	20.881
569.23	20.279
569.56	20.516
569.90	21.133
570.24	21.484
570.57	22.065
570.91	21.096
571.25	21.522
571.59	21.264
571.92	21.162
572.26	21.652
572.60	21.977
572.93	21.180
573.27	21.354
573.61	21.175
573.95	21.559
574.28	21.374
574.62	21.623
574.96	21.791
575.29	21.591
575.63	21.460
575.97	21.078
576.30	21.021
576.64	21.403
576.98	21.321
577.31	21.463
577.65	21.709
577.98	21.574
578.32	21.493
578.66	21.674
578.99	21.667
579.33	21.610
579.67	21.215
580.00	20.949
580.34	21.291
580.67	20.786
581.01	20.965
581.35	21.625
581.68	21.668
582.02	22.264
582.35	22.378
582.69	22.032
583.02	22.220
583.36	21.709
583.70	21.518
584.03	21.190
584.37	20.884
584.70	21.002
585.04	20.856
585.37	20.681
585.71	21.510
586.04	21.907
586.38	21.309
586.72	21.158
587.05	20.645
587.39	21.167
587.72	21.435
588.06	21.494
588.39	21.583
588.73	20.899
589.06	21.050
589.40	21.543
589.73	20.951
590.07	20.889
590.40	21.062
590.73	20.573
591.07	20.514
591.40	20.412
591.74	19.913
592.07	20.300
592.41	20.584
592.74	20.305
593.08	21.274
593.41	21.172
593.75	21.609
594.08	21.387
594.41	21.538
594.75	20.923
595.08	20.390
595.42	20.260
595.75	20.536
596.09	20.976
596.42	20.745
596.75	21.073
597.09	21.131
597.42	20.660
597.75	20.110
598.09	20.635
598.42	20.667
598.76	19.870
599.09	19.936
599.42	19.846
599.76	20.766
600.09	21.288
600.42	20.954
600.76	20.707
601.09	20.345
601.42	20.597
601.76	20.724
602.09	21.051
602.42	20.211
602.76	20.996
603.09	20.374
603.42	20.918
603.76	20.719
604.09	21.079
604.42	20.514
604.76	20.396
605.09	20.263
605.42	20.614
605.75	20.154
606.09	20.007
606.42	19.993
606.75	20.390
607.09	19.816
607.42	20.077
607.75	20.477
608.08	20.126
608.42	20.073
608.75	20.564
609.08	19.907
609.41	20.026
609.75	20.089
610.08	20.536
610.41	19.626
610.74	20.126
611.07	19.805
611.41	20.628
611.74	20.323
612.07	20.290
612.40	19.629
612.73	20.049
613.07	19.707
613.40	19.538
613.73	19.836
614.06	20.265
614.39	19.339
614.72	19.990
615.06	19.297
615.39	19.333
615.72	19.668
616.05	19.427
616.38	20.383
616.71	18.913
617.05	19.649
617.38	19.690
617.71	19.708
618.04	19.266
618.37	19.672
618.70	19.457
619.03	18.638
619.36	19.482
619.69	18.962
620.03	19.648
620.36	18.650
620.69	19.062
621.02	18.504
621.35	18.433
621.68	18.366
622.01	18.648
622.34	18.619
622.67	18.213
623.00	18.286
623.33	18.912
623.66	18.872
623.99	18.762
624.32	20.533
624.65	19.176
624.99	18.401
625.32	18.877
625.65	19.150
625.98	17.763
626.31	18.498
626.64	18.315
626.97	18.230
627.30	18.071
627.63	18.005
627.96	19.369
628.29	18.521
628.62	18.640
628.95	16.477
629.28	17.842
629.61	18.182
629.94	16.653
