SpectraSuite Data File
++++++++++++++++++++++++++++++++++++
Date: Thu May 14 14:35:14 PDT 2015
User: schluterlab
Dark Spectrum Present: Yes
Reference Spectrum Present: Yes
Number of Sampled Component Spectra: 1
Spectrometers: USB2E3373
Integration Time (usec): 3000 (USB2E3373)
Spectra Averaged: 3 (USB2E3373)
Boxcar Smoothing: 0 (USB2E3373)
Correct for Electrical Dark: No (USB2E3373)
Strobe/Lamp Enabled: No (USB2E3373)
Correct for Detector Non-linearity: No (USB2E3373)
Correct for Stray Light: No (USB2E3373)
Number of Pixels in Processed Spectrum: 2048
>>>>>Begin Processed Spectral Data<<<<<
178.53	0.000
178.91	-228.571
179.29	900.000
179.67	1600.000
180.04	-35.714
180.42	-70.000
180.80	-280.000
181.18	2400.000
181.56	2500.000
181.94	-475.000
182.31	550.000
182.69	-666.667
183.07	950.000
183.45	-400.000
183.83	183.333
184.20	600.000
184.58	-2300.000
184.96	300.000
185.34	200.000
185.72	560.000
186.09	-155.556
186.47	-1000.000
186.85	-220.000
187.23	144.444
187.61	1300.000
187.98	-440.000
188.36	-325.000
188.74	350.000
189.12	533.333
189.49	168.750
189.87	225.000
190.25	266.667
190.63	480.000
191.00	55.556
191.38	0.000
191.76	350.000
192.14	266.667
192.51	-400.000
192.89	383.333
193.27	0.000
193.65	385.714
194.02	800.000
194.40	257.143
194.78	-214.286
195.15	0.000
195.53	127.273
195.91	0.000
196.29	800.000
196.66	184.615
197.04	1600.000
197.42	157.143
197.79	700.000
198.17	225.000
198.55	171.429
198.92	244.444
199.30	175.000
199.68	290.909
200.05	107.143
200.43	500.000
200.81	-185.714
201.18	0.000
201.56	-44.444
201.94	0.000
202.31	-566.667
202.69	166.667
203.07	-2100.000
203.44	200.000
203.82	375.000
204.19	191.667
204.57	250.000
204.95	175.000
205.32	1400.000
205.70	-325.000
206.08	183.333
206.45	383.333
206.83	-220.000
207.20	250.000
207.58	320.000
207.96	200.000
208.33	233.333
208.71	-116.667
209.08	466.667
209.46	0.000
209.84	-300.000
210.21	-1050.000
210.59	-1050.000
210.96	-733.333
211.34	500.000
211.71	300.000
212.09	2100.000
212.46	0.000
212.84	-400.000
213.22	420.000
213.59	550.000
213.97	190.000
214.34	466.667
214.72	-150.000
215.09	325.000
215.47	0.000
215.84	-328.571
216.22	-150.000
216.59	340.000
216.97	380.000
217.34	475.000
217.72	337.500
218.09	550.000
218.47	375.000
218.84	0.000
219.22	-300.000
219.59	135.294
219.97	90.000
220.34	-500.000
220.72	244.444
221.09	100.000
221.47	466.667
221.84	200.000
222.22	157.143
222.59	0.000
222.97	250.000
223.34	260.000
223.72	1500.000
224.09	575.000
224.46	375.000
224.84	380.000
225.21	285.714
225.59	250.000
225.96	325.000
226.34	76.923
226.71	-166.667
227.08	800.000
227.46	100.000
227.83	275.000
228.21	157.895
228.58	-162.500
228.95	-850.000
229.33	125.000
229.70	180.000
230.08	163.158
230.45	-40.000
230.82	433.333
231.20	200.000
231.57	158.333
231.95	172.727
232.32	236.364
232.69	105.000
233.07	375.000
233.44	70.588
233.81	140.000
234.19	138.889
234.56	100.000
234.93	55.172
235.31	89.474
235.68	94.444
236.05	55.000
236.43	80.769
236.80	104.000
237.17	81.481
237.55	42.424
237.92	130.000
238.29	70.968
238.67	47.727
239.04	58.333
239.41	40.476
239.79	50.000
240.16	25.926
240.53	45.652
240.91	29.412
241.28	45.902
241.65	50.746
242.02	21.622
242.40	21.538
242.77	40.000
243.14	25.610
243.51	26.316
243.89	20.513
244.26	28.713
244.63	23.529
245.00	26.168
245.38	21.930
245.75	15.929
246.12	19.841
246.49	12.403
246.87	25.000
247.24	23.841
247.61	25.658
247.98	17.450
248.36	22.222
248.73	14.724
249.10	14.754
249.47	19.403
249.84	21.990
250.22	15.026
250.59	22.778
250.96	15.909
251.33	11.735
251.70	15.385
252.08	16.250
252.45	18.443
252.82	13.223
253.19	12.891
253.56	14.829
253.94	15.385
254.31	12.500
254.68	14.336
255.05	17.590
255.42	11.565
255.79	10.680
256.16	10.265
256.54	10.265
256.91	13.770
257.28	12.459
257.65	8.599
258.02	9.440
258.39	12.251
258.76	17.431
259.14	13.793
259.51	13.545
259.88	9.065
260.25	10.278
260.62	12.877
260.99	12.295
261.36	13.405
261.73	10.610
262.10	12.363
262.47	11.260
262.85	14.394
263.22	10.390
263.59	8.158
263.96	11.509
264.33	9.974
264.70	11.111
265.07	13.842
265.44	13.605
265.81	8.102
266.18	11.111
266.55	11.384
266.92	10.023
267.29	11.379
267.66	11.530
268.03	10.917
268.40	10.856
268.77	8.884
269.14	7.489
269.51	11.404
269.88	11.475
270.25	10.865
270.62	10.127
270.99	13.939
271.36	11.089
271.73	12.770
272.10	12.425
272.47	11.022
272.84	9.438
273.21	11.022
273.58	11.089
273.95	8.462
274.32	9.316
274.69	7.157
275.06	10.256
275.43	8.318
275.80	10.935
276.17	8.519
276.54	8.582
276.91	8.587
277.28	9.042
277.65	9.156
278.02	10.110
278.39	7.971
278.76	9.666
279.13	10.461
279.50	10.825
279.87	10.555
280.23	8.451
280.60	9.492
280.97	8.553
281.34	8.149
281.71	11.168
282.08	10.299
282.45	9.165
282.82	10.361
283.19	7.270
283.56	8.197
283.92	8.559
284.29	10.111
284.66	10.016
285.03	7.051
285.40	8.810
285.77	8.514
286.14	8.855
286.51	9.893
286.87	8.689
287.24	8.283
287.61	9.567
287.98	9.215
288.35	7.692
288.72	8.284
289.08	10.395
289.45	7.988
289.82	8.133
290.19	9.195
290.56	9.859
290.93	8.559
291.29	8.815
291.66	7.713
292.03	8.820
292.40	9.796
292.77	9.164
293.13	9.337
293.50	8.541
293.87	8.591
294.24	11.067
294.60	8.850
294.97	7.248
295.34	11.140
295.71	8.197
296.08	9.302
296.44	8.211
296.81	9.501
297.18	8.219
297.55	7.311
297.91	9.134
298.28	9.123
298.65	10.583
299.02	9.799
299.38	10.183
299.75	9.229
300.12	9.144
300.48	9.908
300.85	9.449
301.22	10.626
301.59	7.991
301.95	10.734
302.32	10.778
302.69	10.077
303.05	10.555
303.42	10.310
303.79	9.062
304.15	9.043
304.52	9.091
304.89	9.215
305.25	10.352
305.62	10.136
305.99	9.588
306.35	10.786
306.72	10.134
307.09	9.746
307.45	10.352
307.82	9.990
308.19	10.091
308.55	11.572
308.92	10.321
309.29	10.632
309.65	10.819
310.02	9.802
310.38	9.646
310.75	10.874
311.12	11.122
311.48	11.339
311.85	10.541
312.22	11.765
312.58	12.207
312.95	11.472
313.31	12.376
313.68	12.546
314.05	13.189
314.41	14.117
314.78	12.897
315.14	13.067
315.51	14.035
315.87	14.581
316.24	14.247
316.61	14.565
316.97	14.118
317.34	13.845
317.70	15.808
318.07	14.903
318.43	15.136
318.80	16.388
319.16	15.794
319.53	14.567
319.89	15.863
320.26	16.726
320.62	15.071
320.99	16.713
321.35	18.115
321.72	18.326
322.08	17.403
322.45	17.615
322.81	17.419
323.18	18.142
323.54	18.190
323.91	19.039
324.27	18.675
324.64	18.892
325.00	18.740
325.37	20.639
325.73	19.669
326.10	21.330
326.46	20.765
326.83	22.258
327.19	20.394
327.56	20.711
327.92	21.400
328.29	20.645
328.65	20.687
329.01	21.320
329.38	22.746
329.74	22.175
330.11	23.373
330.47	23.168
330.84	23.256
331.20	23.333
331.56	23.310
331.93	23.682
332.29	23.136
332.66	23.422
333.02	24.121
333.38	23.238
333.75	23.485
334.11	24.187
334.48	22.855
334.84	24.894
335.20	23.090
335.57	24.030
335.93	24.215
336.29	23.045
336.66	23.213
337.02	24.666
337.38	24.320
337.75	23.802
338.11	23.970
338.47	23.656
338.84	22.927
339.20	23.505
339.56	23.229
339.93	22.496
340.29	24.396
340.65	23.925
341.02	24.102
341.38	24.252
341.74	22.518
342.11	23.733
342.47	23.272
342.83	23.510
343.20	24.203
343.56	24.459
343.92	24.019
344.28	23.594
344.65	24.574
345.01	22.543
345.37	23.484
345.73	23.071
346.10	22.543
346.46	23.180
346.82	24.270
347.19	24.141
347.55	24.355
347.91	23.477
348.27	22.838
348.63	23.077
349.00	23.415
349.36	24.238
349.72	24.033
350.08	23.551
350.45	23.270
350.81	23.756
351.17	23.459
351.53	23.730
351.89	23.614
352.26	22.313
352.62	23.582
352.98	23.130
353.34	23.898
353.70	23.035
354.07	22.876
354.43	23.538
354.79	22.364
355.15	23.032
355.51	23.977
355.87	23.261
356.24	24.563
356.60	22.321
356.96	23.277
357.32	23.792
357.68	23.133
358.04	21.856
358.40	23.358
358.77	23.538
359.13	23.855
359.49	23.271
359.85	22.770
360.21	24.462
360.57	23.690
360.93	23.413
361.29	23.368
361.66	22.375
362.02	24.635
362.38	24.455
362.74	23.883
363.10	22.971
363.46	23.892
363.82	23.722
364.18	23.786
364.54	23.997
364.90	22.809
365.26	23.517
365.62	23.667
365.98	24.166
366.35	23.893
366.71	24.150
367.07	23.342
367.43	23.244
367.79	23.424
368.15	24.415
368.51	23.884
368.87	22.338
369.23	23.800
369.59	23.361
369.95	23.935
370.31	24.240
370.67	23.865
371.03	23.823
371.39	22.767
371.75	24.003
372.11	23.306
372.47	24.374
372.83	24.673
373.19	23.749
373.55	23.509
373.91	24.404
374.27	24.191
374.63	24.425
374.99	23.408
375.35	23.636
375.71	24.258
376.07	24.919
376.42	24.370
376.78	24.487
377.14	24.205
377.50	25.111
377.86	25.123
378.22	24.132
378.58	24.792
378.94	24.531
379.30	24.253
379.66	24.927
380.02	24.812
380.38	24.482
380.74	24.845
381.09	24.913
381.45	25.341
381.81	26.171
382.17	24.466
382.53	24.795
382.89	25.000
383.25	25.498
383.61	24.016
383.97	25.029
384.32	25.179
384.68	24.188
385.04	24.812
385.40	25.751
385.76	25.615
386.12	25.733
386.48	26.647
386.83	25.149
387.19	25.203
387.55	25.704
387.91	25.171
388.27	25.115
388.62	25.086
388.98	25.324
389.34	25.575
389.70	25.741
390.06	26.525
390.42	26.024
390.77	26.610
391.13	26.056
391.49	26.751
391.85	26.303
392.20	25.741
392.56	26.344
392.92	26.172
393.28	26.258
393.64	25.140
393.99	26.322
394.35	26.460
394.71	25.928
395.07	24.790
395.42	26.670
395.78	27.605
396.14	26.619
396.50	26.603
396.85	26.595
397.21	26.213
397.57	27.562
397.92	26.460
398.28	25.801
398.64	26.373
399.00	24.555
399.35	25.183
399.71	26.250
400.07	25.716
400.42	26.251
400.78	26.562
401.14	25.839
401.49	26.549
401.85	26.163
402.21	27.057
402.57	27.347
402.92	26.300
403.28	25.995
403.63	26.014
403.99	26.306
404.35	25.526
404.70	26.402
405.06	27.065
405.42	26.522
405.77	26.827
406.13	27.012
406.49	26.239
406.84	26.704
407.20	26.551
407.55	26.529
407.91	26.838
408.27	26.090
408.62	26.585
408.98	26.872
409.34	25.572
409.69	26.020
410.05	26.671
410.40	26.450
410.76	26.528
411.11	27.060
411.47	26.720
411.83	26.984
412.18	26.627
412.54	26.437
412.89	26.834
413.25	26.016
413.60	26.364
413.96	26.573
414.31	25.892
414.67	26.834
415.03	26.338
415.38	26.608
415.74	27.062
416.09	27.452
416.45	26.863
416.80	26.928
417.16	26.820
417.51	25.965
417.87	26.609
418.22	27.246
418.58	25.960
418.93	26.717
419.29	26.880
419.64	25.750
420.00	26.172
420.35	26.783
420.71	27.226
421.06	26.049
421.42	26.720
421.77	26.279
422.12	26.638
422.48	26.677
422.83	26.670
423.19	26.578
423.54	27.765
423.90	27.057
424.25	27.680
424.61	27.153
424.96	27.622
425.31	28.397
425.67	26.302
426.02	27.504
426.38	26.866
426.73	27.623
427.09	28.547
427.44	26.707
427.79	27.584
428.15	26.484
428.50	27.303
428.85	27.153
429.21	27.766
429.56	26.357
429.92	27.568
430.27	27.904
430.62	27.553
430.98	27.054
431.33	27.566
431.68	27.682
432.04	27.933
432.39	27.317
432.74	27.340
433.10	28.123
433.45	27.202
433.80	28.433
434.16	27.428
434.51	28.674
434.86	28.122
435.22	28.268
435.57	28.950
435.92	28.047
436.28	28.669
436.63	28.946
436.98	28.180
437.34	27.847
437.69	27.628
438.04	28.662
438.39	28.834
438.75	28.334
439.10	29.017
439.45	28.060
439.81	27.910
440.16	27.989
440.51	28.818
440.86	28.794
441.22	28.028
441.57	28.459
441.92	27.692
442.27	28.182
442.63	28.316
442.98	27.908
443.33	28.090
443.68	28.940
444.03	28.598
444.39	28.525
444.74	28.739
445.09	28.028
445.44	27.924
445.79	28.257
446.15	28.469
446.50	28.992
446.85	28.210
447.20	28.772
447.55	28.713
447.91	29.110
448.26	28.066
448.61	28.162
448.96	29.024
449.31	27.890
449.66	27.996
450.02	29.325
450.37	28.183
450.72	28.256
451.07	28.474
451.42	29.347
451.77	28.016
452.12	28.725
452.47	28.283
452.83	28.829
453.18	29.247
453.53	27.972
453.88	28.216
454.23	28.079
454.58	29.193
454.93	28.398
455.28	28.838
455.63	28.368
455.98	28.492
456.34	27.915
456.69	27.396
457.04	28.251
457.39	28.548
457.74	28.244
458.09	28.885
458.44	27.640
458.79	27.334
459.14	27.740
459.49	29.145
459.84	28.017
460.19	27.096
460.54	29.074
460.89	28.639
461.24	28.678
461.59	28.832
461.94	27.724
462.29	27.884
462.64	28.244
462.99	28.123
463.34	29.332
463.69	28.429
464.04	29.016
464.39	27.803
464.74	28.449
465.09	28.547
465.44	27.790
465.79	27.604
466.14	26.733
466.49	28.053
466.84	28.320
467.19	27.861
467.54	28.613
467.89	27.989
468.24	28.920
468.59	27.041
468.94	26.923
469.29	27.594
469.64	27.146
469.99	28.107
470.34	27.908
470.68	29.050
471.03	28.553
471.38	28.777
471.73	27.308
472.08	27.728
472.43	29.320
472.78	28.086
473.13	27.876
473.48	28.399
473.83	28.497
474.17	27.550
474.52	28.443
474.87	28.018
475.22	28.394
475.57	28.349
475.92	27.078
476.27	27.157
476.61	27.674
476.96	27.477
477.31	27.475
477.66	28.384
478.01	27.656
478.36	27.069
478.70	26.946
479.05	27.454
479.40	27.887
479.75	26.993
480.10	27.428
480.45	27.074
480.79	26.531
481.14	27.114
481.49	27.169
481.84	27.894
482.19	27.527
482.53	27.285
482.88	26.717
483.23	27.123
483.58	27.074
483.92	26.374
484.27	26.884
484.62	26.485
484.97	26.905
485.31	26.118
485.66	25.925
486.01	24.672
486.36	25.073
486.70	25.546
487.05	25.792
487.40	25.726
487.75	26.641
488.09	26.824
488.44	27.312
488.79	27.285
489.13	27.046
489.48	26.718
489.83	26.640
490.17	25.921
490.52	26.437
490.87	27.157
491.22	26.256
491.56	27.176
491.91	26.603
492.26	26.006
492.60	26.585
492.95	26.240
493.30	26.401
493.64	26.544
493.99	26.491
494.34	26.089
494.68	26.595
495.03	26.916
495.37	26.054
495.72	26.304
496.07	26.731
496.41	25.869
496.76	26.897
497.11	26.497
497.45	26.457
497.80	26.833
498.14	26.531
498.49	26.195
498.84	26.463
499.18	27.036
499.53	26.413
499.87	26.945
500.22	26.447
500.56	26.091
500.91	26.362
501.26	27.000
501.60	25.983
501.95	25.966
502.29	26.503
502.64	26.366
502.98	25.669
503.33	25.788
503.67	25.818
504.02	26.095
504.36	25.782
504.71	26.321
505.06	25.648
505.40	26.234
505.75	25.638
506.09	26.151
506.44	26.602
506.78	26.239
507.13	26.187
507.47	26.007
507.82	25.852
508.16	26.338
508.51	25.832
508.85	25.980
509.19	26.670
509.54	26.993
509.88	25.838
510.23	26.469
510.57	26.728
510.92	25.738
511.26	25.397
511.61	25.447
511.95	26.403
512.30	26.686
512.64	25.887
512.98	25.663
513.33	26.815
513.67	26.007
514.02	26.367
514.36	25.882
514.70	25.990
515.05	26.225
515.39	25.879
515.74	26.988
516.08	26.413
516.42	26.688
516.77	26.604
517.11	25.425
517.46	26.140
517.80	26.670
518.14	27.367
518.49	26.410
518.83	26.397
519.17	25.040
519.52	25.943
519.86	26.188
520.20	26.411
520.55	26.396
520.89	25.732
521.23	25.628
521.58	26.328
521.92	25.892
522.26	24.857
522.61	26.389
522.95	26.009
523.29	25.575
523.64	25.336
523.98	26.640
524.32	26.476
524.66	25.726
525.01	25.821
525.35	25.962
525.69	25.058
526.04	25.029
526.38	25.977
526.72	25.606
527.06	26.158
527.41	25.714
527.75	25.891
528.09	25.089
528.43	25.281
528.78	24.798
529.12	25.459
529.46	25.295
529.80	25.114
530.15	24.928
530.49	25.860
530.83	25.384
531.17	25.090
531.51	25.752
531.86	25.601
532.20	26.037
532.54	25.254
532.88	26.182
533.22	25.221
533.57	24.755
533.91	25.477
534.25	25.269
534.59	25.345
534.93	25.354
535.27	24.507
535.62	26.379
535.96	25.160
536.30	25.206
536.64	26.066
536.98	26.076
537.32	26.235
537.66	25.764
538.01	24.350
538.35	24.665
538.69	25.000
539.03	25.996
539.37	24.912
539.71	25.225
540.05	24.760
540.39	25.550
540.73	24.226
541.07	24.954
541.42	24.099
541.76	24.555
542.10	24.427
542.44	24.665
542.78	25.243
543.12	24.195
543.46	24.664
543.80	25.000
544.14	24.656
544.48	24.704
544.82	24.716
545.16	24.210
545.50	25.045
545.84	24.985
546.18	25.432
546.52	25.350
546.86	25.660
547.20	24.809
547.54	24.095
547.88	24.051
548.22	24.152
548.56	24.985
548.90	24.358
549.24	24.438
549.58	24.795
549.92	25.255
550.26	24.919
550.60	24.697
550.94	25.291
551.28	24.224
551.62	24.730
551.96	24.466
552.30	24.092
552.64	24.331
552.98	23.955
553.32	24.887
553.66	24.180
554.00	24.653
554.34	24.389
554.68	23.112
555.02	24.244
555.36	24.852
555.69	23.575
556.03	24.086
556.37	24.030
556.71	24.096
557.05	24.281
557.39	24.021
557.73	24.306
558.07	23.907
558.41	24.319
558.75	24.138
559.08	23.939
559.42	23.525
559.76	24.220
560.10	24.581
560.44	24.142
560.78	25.250
561.12	23.645
561.45	24.635
561.79	23.932
562.13	24.399
562.47	24.291
562.81	23.481
563.15	24.306
563.48	23.617
563.82	24.063
564.16	23.319
564.50	23.540
564.84	24.012
565.17	23.824
565.51	23.360
565.85	23.219
566.19	23.041
566.52	23.874
566.86	23.033
567.20	22.730
567.54	23.101
567.88	24.414
568.21	23.765
568.55	23.453
568.89	22.288
569.23	22.518
569.56	22.509
569.90	22.274
570.24	22.057
570.57	22.418
570.91	21.770
571.25	21.869
571.59	22.043
571.92	21.562
572.26	21.810
572.60	22.195
572.93	21.570
573.27	21.804
573.61	21.784
573.95	21.777
574.28	21.771
574.62	21.510
574.96	21.328
575.29	21.458
575.63	21.460
575.97	21.701
576.30	21.515
576.64	21.570
576.98	21.640
577.31	21.835
577.65	21.564
577.98	21.009
578.32	21.272
578.66	21.127
578.99	21.155
579.33	21.410
579.67	21.442
580.00	21.668
580.34	21.553
580.67	21.602
581.01	21.203
581.35	20.846
581.68	21.207
582.02	20.733
582.35	21.243
582.69	21.108
583.02	21.529
583.36	21.832
583.70	21.404
584.03	21.886
584.37	21.945
584.70	21.467
585.04	21.414
585.37	21.299
585.71	21.122
586.04	21.312
586.38	21.704
586.72	21.008
587.05	21.310
587.39	21.541
587.72	21.579
588.06	21.349
588.39	21.309
588.73	21.323
589.06	21.473
589.40	21.789
589.73	21.080
590.07	21.883
590.40	21.974
590.73	21.704
591.07	22.189
591.40	21.773
591.74	22.377
592.07	22.412
592.41	21.412
592.74	20.696
593.08	21.401
593.41	21.610
593.75	21.293
594.08	21.297
594.41	21.154
594.75	21.189
595.08	21.534
595.42	21.461
595.75	21.989
596.09	21.925
596.42	22.214
596.75	21.961
597.09	22.707
597.42	21.971
597.75	22.423
598.09	21.825
598.42	21.753
598.76	21.551
599.09	21.253
599.42	21.086
599.76	21.261
600.09	21.588
600.42	21.655
600.76	21.400
601.09	21.208
601.42	21.112
601.76	21.310
602.09	21.909
602.42	20.756
602.76	21.476
603.09	21.219
603.42	21.749
603.76	21.529
604.09	22.143
604.42	21.651
604.76	21.499
605.09	21.699
605.42	22.049
605.75	21.808
606.09	21.351
606.42	21.160
606.75	21.214
607.09	21.313
607.42	21.773
607.75	21.571
608.08	21.350
608.42	21.725
608.75	21.517
609.08	21.180
609.41	22.585
609.75	21.250
610.08	22.032
610.41	21.623
610.74	20.840
611.07	21.536
611.41	22.511
611.74	22.402
612.07	21.926
612.40	22.006
612.73	22.103
613.07	22.054
613.40	22.425
613.73	21.425
614.06	21.688
614.39	22.060
614.72	22.271
615.06	21.415
615.39	21.315
615.72	21.517
616.05	21.661
616.38	22.250
616.71	21.682
617.05	21.406
617.38	22.097
617.71	21.760
618.04	21.587
618.37	22.240
618.70	23.020
619.03	21.685
619.36	22.811
619.69	21.461
620.03	22.222
620.36	21.595
620.69	22.332
621.02	23.031
621.35	22.351
621.68	23.355
622.01	21.922
622.34	21.409
622.67	22.062
623.00	21.188
623.33	22.495
623.66	22.633
623.99	21.396
624.32	22.612
624.65	21.686
624.99	22.042
625.32	22.012
625.65	22.454
625.98	21.898
626.31	22.395
626.64	23.077
626.97	22.281
627.30	21.336
627.63	22.956
627.96	24.324
628.29	22.179
628.62	22.922
628.95	23.401
629.28	22.515
629.61	23.148
629.94	21.423
630.26	21.780
630.59	22.798
630.92	21.818
631.25	24.240
631.58	23.352
631.91	23.149
632.24	22.478
632.57	23.055
632.90	23.170
633.23	23.776
633.56	23.571
633.89	21.591
634.22	23.389
634.55	23.069
