SpectraSuite Data File
++++++++++++++++++++++++++++++++++++
Date: Thu May 14 14:30:58 PDT 2015
User: schluterlab
Dark Spectrum Present: Yes
Reference Spectrum Present: Yes
Number of Sampled Component Spectra: 1
Spectrometers: USB2E3373
Integration Time (usec): 3000 (USB2E3373)
Spectra Averaged: 3 (USB2E3373)
Boxcar Smoothing: 0 (USB2E3373)
Correct for Electrical Dark: No (USB2E3373)
Strobe/Lamp Enabled: No (USB2E3373)
Correct for Detector Non-linearity: No (USB2E3373)
Correct for Stray Light: No (USB2E3373)
Number of Pixels in Processed Spectrum: 2048
>>>>>Begin Processed Spectral Data<<<<<
178.53	0.000
178.91	-71.429
179.29	900.000
179.67	1100.000
180.04	-35.714
180.42	-190.000
180.80	-280.000
181.18	1200.000
181.56	1900.000
181.94	-300.000
182.31	675.000
182.69	-433.333
183.07	1400.000
183.45	-100.000
183.83	366.667
184.20	666.667
184.58	-1100.000
184.96	400.000
185.34	166.667
185.72	500.000
186.09	-133.333
186.47	-100.000
186.85	-200.000
187.23	44.444
187.61	500.000
187.98	-300.000
188.36	-175.000
188.74	50.000
189.12	500.000
189.49	112.500
189.87	175.000
190.25	188.889
190.63	260.000
191.00	44.444
191.38	0.000
191.76	150.000
192.14	216.667
192.51	-850.000
192.89	483.333
193.27	0.000
193.65	314.286
194.02	1600.000
194.40	342.857
194.78	-214.286
195.15	0.000
195.53	236.364
195.91	0.000
196.29	625.000
196.66	176.923
197.04	400.000
197.42	357.143
197.79	500.000
198.17	125.000
198.55	57.143
198.92	222.222
199.30	175.000
199.68	163.636
200.05	171.429
200.43	600.000
200.81	-157.143
201.18	0.000
201.56	-0.000
201.94	0.000
202.31	-433.333
202.69	144.444
203.07	-2000.000
203.44	277.778
203.82	425.000
204.19	200.000
204.57	316.667
204.95	150.000
205.32	900.000
205.70	-375.000
206.08	266.667
206.45	216.667
206.83	-200.000
207.20	383.333
207.58	280.000
207.96	133.333
208.33	233.333
208.71	-75.000
209.08	250.000
209.46	0.000
209.84	-266.667
210.21	-1100.000
210.59	-600.000
210.96	-100.000
211.34	575.000
211.71	175.000
212.09	1500.000
212.46	0.000
212.84	-300.000
213.22	20.000
213.59	325.000
213.97	230.000
214.34	533.333
214.72	-316.667
215.09	100.000
215.47	0.000
215.84	-371.429
216.22	-600.000
216.59	280.000
216.97	220.000
217.34	425.000
217.72	237.500
218.09	350.000
218.47	150.000
218.84	0.000
219.22	-260.000
219.59	135.294
219.97	130.000
220.34	-650.000
220.72	144.444
221.09	200.000
221.47	533.333
221.84	200.000
222.22	85.714
222.59	0.000
222.97	300.000
223.34	420.000
223.72	700.000
224.09	300.000
224.46	175.000
224.84	460.000
225.21	71.429
225.59	275.000
225.96	200.000
226.34	119.231
226.71	-83.333
227.08	450.000
227.46	126.667
227.83	275.000
228.21	110.526
228.58	-187.500
228.95	-600.000
229.33	158.333
229.70	260.000
230.08	173.684
230.45	-100.000
230.82	433.333
231.20	100.000
231.57	216.667
231.95	109.091
232.32	218.182
232.69	105.000
233.07	400.000
233.44	105.882
233.81	80.000
234.19	138.889
234.56	122.727
234.93	113.793
235.31	105.263
235.68	105.556
236.05	75.000
236.43	138.462
236.80	136.000
237.17	118.519
237.55	78.788
237.92	120.000
238.29	64.516
238.67	47.727
239.04	72.222
239.41	66.667
239.79	50.000
240.16	46.296
240.53	63.043
240.91	23.529
241.28	40.984
241.65	58.209
242.02	40.541
242.40	40.000
242.77	42.667
243.14	40.244
243.51	23.684
243.89	25.641
244.26	23.762
244.63	31.373
245.00	30.841
245.38	19.298
245.75	16.814
246.12	25.397
246.49	18.605
246.87	20.714
247.24	28.477
247.61	23.684
247.98	25.503
248.36	22.222
248.73	15.951
249.10	13.661
249.47	24.378
249.84	28.272
250.22	16.062
250.59	18.333
250.96	24.091
251.33	20.918
251.70	20.513
252.08	20.833
252.45	20.082
252.82	18.595
253.19	15.234
253.56	20.532
253.94	16.154
254.31	19.318
254.68	20.280
255.05	18.567
255.42	17.007
255.79	13.269
256.16	16.556
256.54	15.563
256.91	19.016
257.28	17.049
257.65	14.968
258.02	16.224
258.39	14.815
258.76	19.572
259.14	18.391
259.51	18.444
259.88	10.765
260.25	17.222
260.62	19.452
260.99	19.126
261.36	15.818
261.73	12.202
262.10	15.934
262.47	15.818
262.85	18.939
263.22	15.325
263.59	15.263
263.96	16.880
264.33	15.090
264.70	15.556
265.07	18.377
265.44	18.594
265.81	14.352
266.18	19.501
266.55	14.062
266.92	14.123
267.29	15.974
267.66	14.191
268.03	15.284
268.40	17.119
268.77	12.756
269.14	12.996
269.51	13.596
269.88	15.779
270.25	15.292
270.62	16.667
270.99	16.162
271.36	17.426
271.73	16.503
272.10	14.830
272.47	12.224
272.84	17.269
273.21	12.625
273.58	15.726
273.95	14.231
274.32	13.118
274.69	13.540
275.06	14.835
275.43	12.569
275.80	14.638
276.17	11.852
276.54	13.806
276.91	13.059
277.28	13.562
277.65	15.260
278.02	15.257
278.39	15.036
278.76	13.884
279.13	13.652
279.50	16.151
279.87	13.417
280.23	10.211
280.60	13.898
280.97	14.967
281.34	12.733
281.71	15.228
282.08	11.960
282.45	13.421
282.82	13.030
283.19	13.247
283.56	13.115
283.92	13.964
284.29	15.640
284.66	13.957
285.03	12.179
285.40	12.828
285.77	14.241
286.14	12.061
286.51	12.329
286.87	13.112
287.24	14.608
287.61	11.958
287.98	13.142
288.35	11.982
288.72	12.870
289.08	13.470
289.45	12.278
289.82	12.651
290.19	12.644
290.56	14.225
290.93	12.981
291.29	11.983
291.66	11.708
292.03	12.483
292.40	12.517
292.77	10.916
293.13	11.637
293.50	10.775
293.87	10.738
294.24	10.933
294.60	12.895
294.97	8.993
295.34	13.060
295.71	10.214
296.08	10.594
296.44	10.784
296.81	10.475
297.18	9.465
297.55	10.142
297.91	10.083
298.28	11.611
298.65	11.177
299.02	9.445
299.38	11.098
299.75	10.047
300.12	10.764
300.48	10.714
300.85	10.911
301.22	9.955
301.59	10.274
301.95	9.831
302.32	10.667
302.69	9.748
303.05	10.555
303.42	9.645
303.79	8.854
304.15	10.515
304.52	8.668
304.89	10.262
305.25	9.731
305.62	10.658
305.99	9.175
306.35	10.081
306.72	10.134
307.09	9.746
307.45	9.420
307.82	9.183
308.19	10.192
308.55	9.643
308.92	9.932
309.29	9.483
309.65	9.454
310.02	8.020
310.38	9.744
310.75	10.000
311.12	9.684
311.48	9.677
311.85	8.737
312.22	9.298
312.58	9.014
312.95	9.082
313.31	8.943
313.68	9.341
314.05	10.750
314.41	9.745
314.78	9.446
315.14	9.800
315.51	9.695
315.87	9.361
316.24	10.776
316.61	9.503
316.97	9.955
317.34	9.083
317.70	9.345
318.07	8.554
318.43	9.779
318.80	10.033
319.16	9.871
319.53	8.055
319.89	9.202
320.26	10.587
320.62	9.663
320.99	10.249
321.35	10.259
321.72	10.419
322.08	9.288
322.45	10.027
322.81	10.289
323.18	9.381
323.54	9.052
323.91	10.765
324.27	8.864
324.64	9.992
325.00	9.619
325.37	9.337
325.73	9.587
326.10	10.138
326.46	10.505
326.83	10.168
327.19	10.079
327.56	10.435
327.92	9.441
328.29	9.758
328.65	8.291
329.01	9.560
329.38	10.362
329.74	10.360
330.11	10.017
330.47	9.183
330.84	10.078
331.20	10.833
331.56	10.572
331.93	10.042
332.29	10.000
332.66	10.714
333.02	10.385
333.38	9.228
333.75	8.838
334.11	9.508
334.48	10.644
334.84	10.960
335.20	9.152
335.57	10.624
335.93	9.917
336.29	8.735
336.66	9.083
337.02	9.030
337.38	10.289
337.75	9.835
338.11	9.588
338.47	10.091
338.84	8.968
339.20	9.183
339.56	9.061
339.93	10.427
340.29	10.064
340.65	9.002
341.02	9.737
341.38	9.863
341.74	8.475
342.11	9.976
342.47	8.340
342.83	9.259
343.20	9.240
343.56	9.463
343.92	9.528
344.28	9.609
344.65	10.620
345.01	9.516
345.37	9.720
345.73	9.665
346.10	10.608
346.46	9.494
346.82	9.738
347.19	8.938
347.55	9.712
347.91	9.212
348.27	9.332
348.63	9.673
349.00	9.471
349.36	9.740
349.72	9.152
350.08	9.733
350.45	8.821
350.81	9.050
351.17	9.173
351.53	8.946
351.89	10.175
352.26	9.776
352.62	8.806
352.98	8.473
353.34	8.738
353.70	9.168
354.07	9.538
354.43	9.036
354.79	9.200
355.15	10.081
355.51	9.722
355.87	8.751
356.24	9.506
356.60	9.313
356.96	8.747
357.32	9.219
357.68	9.370
358.04	8.757
358.40	8.657
358.77	9.357
359.13	8.346
359.49	7.955
359.85	8.412
360.21	9.254
360.57	8.686
360.93	9.027
361.29	8.842
361.66	9.124
362.02	9.534
362.38	9.276
362.74	9.148
363.10	9.147
363.46	8.449
363.82	8.523
364.18	8.304
364.54	8.852
364.90	9.365
365.26	8.138
365.62	9.000
365.98	8.918
366.35	9.329
366.71	9.184
367.07	8.863
367.43	9.586
367.79	8.626
368.15	9.097
368.51	9.878
368.87	9.079
369.23	8.467
369.59	8.743
369.95	8.654
370.31	9.318
370.67	9.354
371.03	9.280
371.39	7.589
371.75	8.459
372.11	9.688
372.47	8.328
372.83	9.031
373.19	10.007
373.55	9.011
373.91	8.180
374.27	9.379
374.63	9.134
374.99	9.218
375.35	9.740
375.71	9.355
376.07	9.103
376.42	8.186
376.78	9.571
377.14	9.108
377.50	8.918
377.86	9.729
378.22	8.922
378.58	9.096
378.94	9.272
379.30	9.490
379.66	8.818
380.02	9.521
380.38	8.986
380.74	9.239
381.09	8.885
381.45	9.432
381.81	10.012
382.17	9.323
382.53	8.889
382.89	9.650
383.25	8.910
383.61	8.970
383.97	9.423
384.32	9.928
384.68	8.991
385.04	9.601
385.40	8.898
385.76	9.965
386.12	8.558
386.48	9.941
386.83	8.582
387.19	9.386
387.55	9.214
387.91	8.733
388.27	9.700
388.62	9.622
388.98	8.968
389.34	9.428
389.70	9.064
390.06	9.355
390.42	9.518
390.77	10.355
391.13	8.568
391.49	9.722
391.85	9.212
392.20	9.490
392.56	10.514
392.92	9.869
393.28	10.061
393.64	8.492
393.99	10.110
394.35	9.930
394.71	9.641
395.07	8.683
395.42	9.480
395.78	10.116
396.14	10.042
396.50	9.264
396.85	9.362
397.21	10.178
397.57	9.776
397.92	9.908
398.28	9.343
398.64	9.554
399.00	9.058
399.35	9.843
399.71	9.402
400.07	9.321
400.42	9.430
400.78	9.201
401.14	9.050
401.49	9.437
401.85	9.477
402.21	9.676
402.57	10.153
402.92	9.338
403.28	9.836
403.63	9.010
403.99	9.798
404.35	9.210
404.70	9.858
405.06	9.620
405.42	9.309
405.77	9.815
406.13	9.238
406.49	8.896
406.84	9.529
407.20	9.782
407.55	9.267
407.91	9.805
408.27	10.071
408.62	10.355
408.98	9.054
409.34	9.091
409.69	9.827
410.05	9.730
410.40	9.919
410.76	10.151
411.11	9.760
411.47	9.889
411.83	10.229
412.18	9.518
412.54	10.433
412.89	9.895
413.25	9.594
413.60	9.592
413.96	10.548
414.31	8.895
414.67	9.600
415.03	9.600
415.38	9.899
415.74	9.346
416.09	10.241
416.45	9.580
416.80	9.180
417.16	9.387
417.51	10.149
417.87	9.687
418.22	9.281
418.58	9.170
418.93	10.361
419.29	10.049
419.64	9.964
420.00	9.555
420.35	9.377
420.71	9.420
421.06	9.373
421.42	9.404
421.77	9.208
422.12	9.514
422.48	9.268
422.83	9.967
423.19	10.027
423.54	9.569
423.90	10.271
424.25	10.400
424.61	8.840
424.96	9.830
425.31	9.926
425.67	9.125
426.02	10.017
426.38	9.300
426.73	8.817
427.09	10.554
427.44	9.721
427.79	9.563
428.15	8.961
428.50	8.764
428.85	9.587
429.21	10.319
429.56	9.674
429.92	9.287
430.27	9.398
430.62	9.673
430.98	9.001
431.33	9.042
431.68	9.195
432.04	9.802
432.39	9.320
432.74	9.532
433.10	10.276
433.45	9.365
433.80	10.676
434.16	9.607
434.51	9.507
434.86	9.935
435.22	9.511
435.57	10.024
435.92	9.961
436.28	9.499
436.63	9.831
436.98	9.662
437.34	9.696
437.69	9.356
438.04	9.677
438.39	9.822
438.75	9.297
439.10	10.201
439.45	9.894
439.81	9.944
440.16	10.080
440.51	10.256
440.86	9.172
441.22	9.968
441.57	9.277
441.92	9.360
442.27	9.697
442.63	10.035
442.98	10.139
443.33	10.836
443.68	9.911
444.03	10.160
444.39	9.755
444.74	10.516
445.09	9.529
445.44	9.431
445.79	9.770
446.15	9.866
446.50	10.491
446.85	9.825
447.20	10.251
447.55	9.676
447.91	9.424
448.26	9.884
448.61	9.405
448.96	10.622
449.31	9.809
449.66	9.423
450.02	9.968
450.37	10.176
450.72	9.688
451.07	9.795
451.42	9.359
451.77	9.283
452.12	10.045
452.47	8.794
452.83	10.755
453.18	10.041
453.53	10.109
453.88	10.160
454.23	10.000
454.58	10.447
454.93	9.466
455.28	10.355
455.63	10.063
455.98	10.894
456.34	10.424
456.69	10.582
457.04	10.047
457.39	9.922
457.74	10.235
458.09	9.940
458.44	10.453
458.79	9.386
459.14	9.911
459.49	9.847
459.84	10.283
460.19	9.717
460.54	10.165
460.89	10.005
461.24	9.253
461.59	11.013
461.94	9.869
462.29	10.078
462.64	10.320
462.99	10.295
463.34	9.994
463.69	10.492
464.04	10.395
464.39	9.249
464.74	10.718
465.09	10.092
465.44	9.603
465.79	10.418
466.14	9.901
466.49	10.000
466.84	10.083
467.19	10.520
467.54	10.341
467.89	9.770
468.24	10.139
468.59	9.728
468.94	9.441
469.29	9.598
469.64	10.744
469.99	10.261
470.34	10.891
470.68	10.458
471.03	10.544
471.38	9.876
471.73	9.688
472.08	10.787
472.43	10.054
472.78	10.831
473.13	10.493
473.48	10.634
473.83	10.679
474.17	10.082
474.52	10.643
474.87	10.797
475.22	9.972
475.57	10.644
475.92	10.503
476.27	10.064
476.61	10.280
476.96	9.385
477.31	10.396
477.66	10.178
478.01	10.676
478.36	10.020
478.70	10.443
479.05	10.378
479.40	10.415
479.75	10.327
480.10	10.469
480.45	10.027
480.79	10.159
481.14	9.972
481.49	9.859
481.84	10.139
482.19	9.849
482.53	10.713
482.88	10.368
483.23	9.960
483.58	9.913
483.92	9.663
484.27	10.330
484.62	10.025
484.97	10.381
485.31	9.785
485.66	9.587
486.01	8.735
486.36	9.016
486.70	9.313
487.05	9.212
487.40	9.705
487.75	9.491
488.09	9.298
488.44	10.018
488.79	10.354
489.13	10.029
489.48	9.942
489.83	9.658
490.17	9.356
490.52	10.591
490.87	10.237
491.22	9.662
491.56	10.324
491.91	10.597
492.26	9.996
492.60	9.926
492.95	10.004
493.30	9.771
493.64	9.987
493.99	10.526
494.34	9.756
494.68	9.593
495.03	10.088
495.37	10.475
495.72	10.476
496.07	10.254
496.41	10.296
496.76	10.175
497.11	9.639
497.45	10.229
497.80	10.129
498.14	9.524
498.49	10.708
498.84	10.603
499.18	10.211
499.53	10.942
499.87	10.637
500.22	9.884
500.56	9.987
500.91	9.886
501.26	10.500
501.60	10.473
501.95	10.465
502.29	10.312
502.64	10.756
502.98	10.483
503.33	10.238
503.67	9.769
504.02	10.070
504.36	10.769
504.71	11.116
505.06	10.232
505.40	10.192
505.75	10.565
506.09	10.589
506.44	10.167
506.78	11.055
507.13	11.203
507.47	10.374
507.82	10.890
508.16	10.516
508.51	9.892
508.85	10.675
509.19	9.995
509.54	11.575
509.88	10.442
510.23	11.122
510.57	11.261
510.92	11.272
511.26	10.967
511.61	10.623
511.95	10.883
512.30	11.866
512.64	10.645
512.98	11.306
513.33	10.786
513.67	11.117
514.02	11.446
514.36	11.662
514.70	10.417
515.05	11.314
515.39	11.864
515.74	11.506
516.08	11.358
516.42	11.983
516.77	10.936
517.11	10.985
517.46	10.976
517.80	11.865
518.14	12.296
518.49	12.039
518.83	12.134
519.17	10.339
519.52	11.635
519.86	10.982
520.20	11.821
520.55	11.062
520.89	11.205
521.23	11.446
521.58	12.090
521.92	12.238
522.26	11.569
522.61	12.095
522.95	11.073
523.29	10.977
523.64	11.267
523.98	11.922
524.32	12.550
524.66	11.781
525.01	12.174
525.35	10.396
525.69	11.369
526.04	11.538
526.38	11.724
526.72	11.822
527.06	11.554
527.41	12.478
527.75	12.114
528.09	11.865
528.43	11.012
528.78	11.040
529.12	11.411
529.46	11.467
529.80	11.213
530.15	11.768
530.49	10.795
530.83	12.043
531.17	11.350
531.51	12.094
531.86	11.659
532.20	12.256
532.54	11.909
532.88	11.455
533.22	11.550
533.57	11.483
533.91	11.785
534.25	11.871
534.59	11.149
534.93	11.828
535.27	11.380
535.62	12.052
535.96	11.621
536.30	11.692
536.64	12.312
536.98	12.362
537.32	12.963
537.66	12.601
538.01	11.541
538.35	11.815
538.69	11.178
539.03	11.588
539.37	11.249
539.71	11.051
540.05	11.930
540.39	11.736
540.73	10.808
541.07	11.404
541.42	11.341
541.76	10.676
542.10	11.580
542.44	11.084
542.78	12.287
543.12	11.442
543.46	11.416
543.80	11.571
544.14	11.730
544.48	12.234
544.82	12.208
545.16	12.284
545.50	11.624
545.84	12.064
546.18	12.531
546.52	11.338
546.86	11.887
547.20	11.132
547.54	11.735
547.88	11.091
548.22	10.819
548.56	12.054
548.90	11.104
549.24	12.523
549.58	12.240
549.92	10.906
550.26	11.586
550.60	12.189
550.94	12.096
551.28	11.551
551.62	12.736
551.96	12.751
552.30	12.046
552.64	11.761
552.98	10.855
553.32	12.347
553.66	11.833
554.00	11.665
554.34	12.162
554.68	11.168
555.02	11.958
555.36	12.952
555.69	11.019
556.03	11.286
556.37	12.265
556.71	11.604
557.05	11.885
557.39	11.214
557.73	12.417
558.07	10.795
558.41	12.359
558.75	11.629
559.08	11.900
559.42	12.140
559.76	11.737
560.10	12.592
560.44	11.280
560.78	12.500
561.12	11.761
561.45	11.861
561.79	12.332
562.13	12.200
562.47	11.097
562.81	11.203
563.15	11.932
563.48	11.374
563.82	11.790
564.16	12.114
564.50	11.323
564.84	11.976
565.17	11.941
565.51	11.220
565.85	11.461
566.19	11.118
566.52	11.410
566.86	11.319
567.20	11.419
567.54	11.259
567.88	11.213
568.21	11.462
568.55	11.415
568.89	11.212
569.23	11.111
569.56	10.864
569.90	10.406
570.24	10.354
570.57	10.584
570.91	9.951
571.25	10.558
571.59	10.409
571.92	10.155
572.26	9.899
572.60	9.965
572.93	10.465
573.27	10.312
573.61	10.191
573.95	9.784
574.28	9.834
574.62	9.504
574.96	9.418
575.29	9.870
575.63	9.818
575.97	10.563
576.30	9.647
576.64	10.165
576.98	9.841
577.31	9.899
577.65	9.864
577.98	9.789
578.32	9.873
578.66	9.894
578.99	9.400
579.33	9.916
579.67	9.633
580.00	9.845
580.34	9.904
580.67	9.731
581.01	9.866
581.35	9.527
581.68	9.618
582.02	9.560
582.35	9.799
582.69	9.648
583.02	9.531
583.36	9.571
583.70	9.657
584.03	9.839
584.37	10.121
584.70	10.024
585.04	9.928
585.37	9.788
585.71	9.687
586.04	9.886
586.38	10.097
586.72	9.852
587.05	9.670
587.39	9.898
587.72	9.928
588.06	9.865
588.39	9.659
588.73	9.762
589.06	9.960
589.40	10.356
589.73	10.572
590.07	10.345
590.40	11.190
590.73	10.498
591.07	11.132
591.40	10.653
591.74	10.771
592.07	11.003
592.41	10.489
592.74	10.827
593.08	10.510
593.41	10.470
593.75	10.460
594.08	10.148
594.41	10.288
594.75	10.395
595.08	9.993
595.42	10.325
595.75	10.623
596.09	10.505
596.42	10.462
596.75	10.691
597.09	11.192
597.42	10.687
597.75	10.898
598.09	10.675
598.42	11.098
598.76	10.241
599.09	10.751
599.42	9.990
599.76	10.102
600.09	10.410
600.42	10.444
600.76	10.271
601.09	10.521
601.42	10.573
601.76	10.552
602.09	10.686
602.42	10.214
602.76	10.443
603.09	10.646
603.42	10.152
603.76	10.500
604.09	10.965
604.42	10.349
604.76	9.893
605.09	10.810
605.42	10.646
605.75	10.654
606.09	10.265
606.42	10.215
606.75	10.307
607.09	10.407
607.42	10.867
607.75	10.395
608.08	10.537
608.42	10.681
608.75	10.904
609.08	10.441
609.41	10.631
609.75	10.670
610.08	11.390
610.41	10.833
610.74	10.840
611.07	10.480
611.41	10.762
611.74	10.993
612.07	10.940
612.40	10.314
612.73	11.149
613.07	10.416
613.40	11.357
613.73	10.688
614.06	11.531
614.39	10.982
614.72	10.480
615.06	10.539
615.39	10.923
615.72	10.900
616.05	10.393
616.38	11.705
616.71	11.442
617.05	10.437
617.38	11.182
617.71	11.285
618.04	11.171
618.37	11.202
618.70	10.633
619.03	10.633
619.36	11.159
619.69	10.762
620.03	11.425
620.36	11.595
620.69	11.166
621.02	11.417
621.35	11.684
621.68	12.075
622.01	11.957
622.34	10.530
622.67	11.546
623.00	10.729
623.33	11.413
623.66	10.960
623.99	10.665
624.32	11.891
624.65	11.004
624.99	11.443
625.32	11.822
625.65	12.070
625.98	11.458
626.31	11.481
626.64	11.941
626.97	11.028
627.30	10.251
627.63	11.703
627.96	12.988
628.29	11.518
628.62	11.839
628.95	12.445
629.28	11.385
629.61	11.953
629.94	12.469
630.26	10.678
630.59	11.831
630.92	12.208
631.25	12.075
631.58	12.900
631.91	11.528
632.24	12.392
632.57	12.429
632.90	11.735
633.23	12.143
633.56	12.041
633.89	12.810
634.22	12.890
634.55	12.422
634.88	12.338
635.20	13.455
635.53	13.446
635.86	13.001
636.19	13.256
636.52	13.924
636.85	11.338
637.18	13.514
637.51	13.871
637.83	13.732
638.16	11.636
638.49	12.793
638.82	13.078
639.15	12.715
639.48	12.125
639.81	12.818
640.13	13.310
640.46	12.485
640.79	11.152
641.12	13.913
641.45	12.923
641.77	13.736
642.10	13.255
642.43	14.495
