SpectraSuite Data File
++++++++++++++++++++++++++++++++++++
Date: Thu May 14 14:30:04 PDT 2015
User: schluterlab
Dark Spectrum Present: Yes
Reference Spectrum Present: Yes
Number of Sampled Component Spectra: 1
Spectrometers: USB2E3373
Integration Time (usec): 3000 (USB2E3373)
Spectra Averaged: 3 (USB2E3373)
Boxcar Smoothing: 0 (USB2E3373)
Correct for Electrical Dark: No (USB2E3373)
Strobe/Lamp Enabled: No (USB2E3373)
Correct for Detector Non-linearity: No (USB2E3373)
Correct for Stray Light: No (USB2E3373)
Number of Pixels in Processed Spectrum: 2048
>>>>>Begin Processed Spectral Data<<<<<
178.53	0.000
178.91	-214.286
179.29	600.000
179.67	2100.000
180.04	42.857
180.42	-170.000
180.80	-180.000
181.18	1100.000
181.56	2700.000
181.94	-450.000
182.31	275.000
182.69	-233.333
183.07	750.000
183.45	-250.000
183.83	316.667
184.20	500.000
184.58	-2000.000
184.96	400.000
185.34	200.000
185.72	360.000
186.09	-44.444
186.47	-350.000
186.85	-380.000
187.23	111.111
187.61	1400.000
187.98	-180.000
188.36	-450.000
188.74	450.000
189.12	466.667
189.49	106.250
189.87	87.500
190.25	244.444
190.63	540.000
191.00	188.889
191.38	0.000
191.76	500.000
192.14	316.667
192.51	-500.000
192.89	283.333
193.27	0.000
193.65	171.429
194.02	100.000
194.40	228.571
194.78	-257.143
195.15	0.000
195.53	127.273
195.91	0.000
196.29	600.000
196.66	184.615
197.04	1300.000
197.42	142.857
197.79	400.000
198.17	50.000
198.55	185.714
198.92	122.222
199.30	125.000
199.68	136.364
200.05	178.571
200.43	950.000
200.81	-57.143
201.18	0.000
201.56	-55.556
201.94	0.000
202.31	-333.333
202.69	211.111
203.07	-1300.000
203.44	188.889
203.82	375.000
204.19	166.667
204.57	133.333
204.95	75.000
205.32	900.000
205.70	-350.000
206.08	233.333
206.45	266.667
206.83	-220.000
207.20	183.333
207.58	60.000
207.96	150.000
208.33	450.000
208.71	-66.667
209.08	300.000
209.46	0.000
209.84	-150.000
210.21	-450.000
210.59	-750.000
210.96	-533.333
211.34	300.000
211.71	187.500
212.09	1100.000
212.46	0.000
212.84	200.000
213.22	120.000
213.59	200.000
213.97	240.000
214.34	466.667
214.72	-216.667
215.09	400.000
215.47	0.000
215.84	-157.143
216.22	-250.000
216.59	420.000
216.97	300.000
217.34	275.000
217.72	200.000
218.09	350.000
218.47	375.000
218.84	0.000
219.22	-180.000
219.59	135.294
219.97	95.000
220.34	-450.000
220.72	177.778
221.09	161.538
221.47	666.667
221.84	160.000
222.22	100.000
222.59	0.000
222.97	225.000
223.34	220.000
223.72	200.000
224.09	400.000
224.46	550.000
224.84	460.000
225.21	157.143
225.59	325.000
225.96	200.000
226.34	88.462
226.71	-116.667
227.08	850.000
227.46	120.000
227.83	325.000
228.21	131.579
228.58	-87.500
228.95	-550.000
229.33	233.333
229.70	200.000
230.08	178.947
230.45	-170.000
230.82	933.333
231.20	157.143
231.57	158.333
231.95	190.909
232.32	81.818
232.69	100.000
233.07	525.000
233.44	17.647
233.81	120.000
234.19	150.000
234.56	104.545
234.93	103.448
235.31	121.053
235.68	105.556
236.05	35.000
236.43	126.923
236.80	104.000
237.17	81.481
237.55	69.697
237.92	90.000
238.29	74.194
238.67	47.727
239.04	88.889
239.41	52.381
239.79	50.000
240.16	35.185
240.53	47.826
240.91	31.373
241.28	47.541
241.65	64.179
242.02	45.946
242.40	36.923
242.77	36.000
243.14	26.829
243.51	31.579
243.89	46.154
244.26	36.634
244.63	38.235
245.00	38.318
245.38	26.316
245.75	19.469
246.12	30.952
246.49	27.907
246.87	32.143
247.24	31.788
247.61	31.579
247.98	30.872
248.36	26.543
248.73	30.061
249.10	24.044
249.47	30.846
249.84	32.461
250.22	24.870
250.59	33.889
250.96	26.818
251.33	23.980
251.70	25.214
252.08	26.667
252.45	30.328
252.82	28.512
253.19	23.828
253.56	22.053
253.94	25.000
254.31	28.030
254.68	30.070
255.05	26.384
255.42	24.830
255.79	22.330
256.16	24.503
256.54	25.166
256.91	25.902
257.28	23.279
257.65	24.522
258.02	23.599
258.39	23.647
258.76	26.300
259.14	26.149
259.51	25.937
259.88	22.380
260.25	20.833
260.62	23.288
260.99	27.596
261.36	27.614
261.73	24.934
262.10	25.824
262.47	24.129
262.85	28.788
263.22	21.039
263.59	21.053
263.96	23.529
264.33	24.552
264.70	25.185
265.07	23.866
265.44	25.624
265.81	21.991
266.18	24.490
266.55	23.214
266.92	21.868
267.29	23.195
267.66	22.173
268.03	22.707
268.40	24.008
268.77	20.273
269.14	21.586
269.51	24.781
269.88	22.951
270.25	22.535
270.62	24.051
270.99	24.848
271.36	22.772
271.73	23.183
272.10	21.042
272.47	23.848
272.84	20.482
273.21	22.645
273.58	22.984
273.95	22.500
274.32	18.061
274.69	22.244
275.06	23.443
275.43	22.551
275.80	22.751
276.17	20.556
276.54	21.455
276.91	21.467
277.28	22.423
277.65	21.903
278.02	24.265
278.39	21.739
278.76	20.914
279.13	20.390
279.50	22.337
279.87	21.825
280.23	19.366
280.60	22.203
280.97	21.217
281.34	20.374
281.71	21.489
282.08	21.927
282.45	21.768
282.82	20.722
283.19	20.032
283.56	21.803
283.92	21.622
284.29	23.223
284.66	22.003
285.03	18.910
285.40	23.802
285.77	19.040
286.14	21.679
286.51	20.548
286.87	20.853
287.24	21.235
287.61	19.581
287.98	19.335
288.35	19.822
288.72	21.302
289.08	21.816
289.45	18.935
289.82	20.633
290.19	20.833
290.56	21.127
290.93	19.544
291.29	19.421
291.66	18.044
292.03	19.539
292.40	20.952
292.77	17.385
293.13	17.997
293.50	18.397
293.87	19.463
294.24	19.333
294.60	20.354
294.97	18.255
295.34	19.718
295.71	17.781
296.08	17.442
296.44	19.730
296.81	19.488
297.18	17.435
297.55	18.514
297.91	19.810
298.28	18.128
298.65	18.074
299.02	17.710
299.38	18.650
299.75	18.925
300.12	17.245
300.48	19.009
300.85	17.998
301.22	18.121
301.59	17.580
301.95	17.966
302.32	18.333
302.69	18.291
303.05	18.172
303.42	17.960
303.79	19.062
304.15	18.191
304.52	18.076
304.89	18.325
305.25	17.702
305.62	16.719
305.99	18.351
306.35	18.649
306.72	17.063
307.09	17.665
307.45	17.702
307.82	17.659
308.19	17.457
308.55	18.322
308.92	18.403
309.29	19.061
309.65	18.908
310.02	18.515
310.38	18.307
310.75	19.223
311.12	19.463
311.48	18.475
311.85	20.038
312.22	19.450
312.58	19.061
312.95	19.216
313.31	19.512
313.68	18.864
314.05	20.687
314.41	19.763
314.78	19.709
315.14	20.417
315.51	20.314
315.87	21.242
316.24	21.187
316.61	21.492
316.97	19.910
317.34	19.224
317.70	20.961
318.07	20.635
318.43	21.259
318.80	21.405
319.16	20.687
319.53	18.595
319.89	19.982
320.26	21.708
320.62	21.188
320.99	22.068
321.35	22.366
321.72	22.977
322.08	21.641
322.45	23.397
322.81	23.646
323.18	22.478
323.54	23.879
323.91	23.132
324.27	22.547
324.64	23.762
325.00	22.886
325.37	24.079
325.73	25.537
326.10	24.980
326.46	25.081
326.83	24.820
327.19	26.378
327.56	26.166
327.92	26.042
328.29	25.887
328.65	26.968
329.01	28.596
329.38	27.633
329.74	29.795
330.11	29.623
330.47	29.655
330.84	30.233
331.20	30.417
331.56	30.243
331.93	30.711
332.29	32.288
332.66	31.977
333.02	30.905
333.38	30.621
333.75	32.407
334.11	32.027
334.48	31.766
334.84	32.540
335.20	32.326
335.57	33.221
335.93	32.397
336.29	32.196
336.66	33.137
337.02	32.609
337.38	32.653
337.75	32.314
338.11	32.885
338.47	33.085
338.84	33.249
339.20	31.255
339.56	31.549
339.93	32.677
340.29	32.528
340.65	32.847
341.02	33.440
341.38	34.600
341.74	32.688
342.11	32.824
342.47	31.771
342.83	33.253
343.20	34.260
343.56	33.039
343.92	32.426
344.28	32.500
344.65	32.171
345.01	32.059
345.37	32.037
345.73	30.943
346.10	32.917
346.46	31.962
346.82	31.760
347.19	33.002
347.55	32.777
347.91	31.426
348.27	32.246
348.63	32.140
349.00	31.544
349.36	32.268
349.72	31.622
350.08	32.689
350.45	31.407
350.81	31.599
351.17	30.677
351.53	32.525
351.89	31.663
352.26	31.343
352.62	31.045
352.98	32.137
353.34	31.143
353.70	31.972
354.07	32.638
354.43	31.663
354.79	32.087
355.15	32.450
355.51	31.213
355.87	32.461
356.24	31.939
356.60	29.786
356.96	31.579
357.32	32.565
357.68	30.600
358.04	32.036
358.40	31.119
358.77	31.067
359.13	32.127
359.49	30.558
359.85	31.109
360.21	30.990
360.57	30.438
360.93	31.453
361.29	29.684
361.66	30.920
362.02	32.916
362.38	32.045
362.74	31.494
363.10	31.293
363.46	31.787
363.82	31.392
364.18	31.738
364.54	31.674
364.90	31.906
365.26	31.310
365.62	31.933
365.98	31.314
366.35	30.671
366.71	31.701
367.07	31.597
367.43	31.714
367.79	32.382
368.15	31.839
368.51	31.326
368.87	30.895
369.23	32.067
369.59	32.240
369.95	31.170
370.31	31.668
370.67	32.118
371.03	31.648
371.39	31.028
371.75	31.224
372.11	31.165
372.47	31.618
372.83	31.021
373.19	31.755
373.55	32.114
373.91	32.038
374.27	31.501
374.63	32.409
374.99	31.565
375.35	31.494
375.71	31.355
376.07	31.311
376.42	31.864
376.78	31.883
377.14	31.503
377.50	32.764
377.86	32.574
378.22	31.796
378.58	32.164
378.94	32.277
379.30	32.220
379.66	32.040
380.02	31.852
380.38	32.200
380.74	31.887
381.09	31.127
381.45	31.250
381.81	32.494
382.17	32.185
382.53	32.339
382.89	32.336
383.25	31.887
383.61	31.424
383.97	32.273
384.32	32.297
384.68	31.613
385.04	32.851
385.40	32.646
385.76	32.649
386.12	31.239
386.48	31.412
386.83	32.598
387.19	30.997
387.55	31.808
387.91	32.648
388.27	31.928
388.62	31.844
388.98	31.359
389.34	32.469
389.70	32.714
390.06	31.498
390.42	31.988
390.77	32.571
391.13	32.277
391.49	31.461
391.85	31.455
392.20	32.681
392.56	32.250
392.92	31.570
393.28	32.062
393.64	31.285
393.99	32.539
394.35	31.776
394.71	32.754
395.07	31.138
395.42	31.411
395.78	32.358
396.14	31.016
396.50	31.710
396.85	30.888
397.21	30.828
397.57	30.506
397.92	31.787
398.28	31.016
398.64	31.465
399.00	30.209
399.35	30.000
399.71	30.489
400.07	30.264
400.42	29.919
400.78	29.745
401.14	31.645
401.49	31.325
401.85	30.988
402.21	30.533
402.57	30.458
402.92	30.556
403.28	28.923
403.63	30.131
403.99	30.404
404.35	29.676
404.70	30.878
405.06	29.293
405.42	30.562
405.77	30.807
406.13	29.606
406.49	29.673
406.84	29.695
407.20	29.793
407.55	29.134
407.91	29.353
408.27	29.388
408.62	29.727
408.98	29.600
409.34	28.856
409.69	29.110
410.05	29.777
410.40	30.162
410.76	29.725
411.11	29.106
411.47	29.853
411.83	30.041
412.18	29.699
412.54	29.046
412.89	29.104
413.25	29.458
413.60	29.523
413.96	29.196
414.31	29.065
414.67	28.623
415.03	29.415
415.38	29.634
415.74	28.589
416.09	29.673
416.45	28.428
416.80	29.192
417.16	29.502
417.51	29.763
417.87	29.798
418.22	29.341
418.58	29.554
418.93	30.093
419.29	30.333
419.64	29.892
420.00	29.852
420.35	30.320
420.71	30.155
421.06	29.787
421.42	29.644
421.77	29.295
422.12	29.545
422.48	30.364
422.83	30.668
423.19	29.973
423.54	31.084
423.90	31.364
424.25	30.667
424.61	30.023
424.96	30.533
425.31	31.369
425.67	31.562
426.02	31.489
426.38	31.573
426.73	31.417
427.09	32.295
427.44	32.059
427.79	31.675
428.15	31.221
428.50	32.022
428.85	32.262
429.21	33.670
429.56	32.182
429.92	31.548
430.27	31.855
430.62	32.926
430.98	32.366
431.33	32.111
431.68	31.849
432.04	33.520
432.39	33.048
432.74	33.333
433.10	33.694
433.45	32.664
433.80	32.886
434.16	34.969
434.51	34.481
434.86	34.962
435.22	34.910
435.57	35.731
435.92	34.446
436.28	35.097
436.63	34.844
436.98	34.783
437.34	34.837
437.69	34.893
438.04	34.268
438.39	34.808
438.75	34.698
439.10	35.465
439.45	35.159
439.81	34.859
440.16	34.799
440.51	35.284
440.86	35.409
441.22	35.102
441.57	36.530
441.92	35.500
442.27	36.212
442.63	36.016
442.98	36.233
443.33	35.981
443.68	37.958
444.03	37.253
444.39	35.830
444.74	36.498
445.09	35.732
445.44	37.092
445.79	36.877
446.15	36.742
446.50	36.899
446.85	37.160
447.20	37.186
447.55	37.552
447.91	38.168
448.26	37.896
448.61	37.620
448.96	38.734
449.31	37.275
449.66	36.329
450.02	38.133
450.37	38.412
450.72	38.428
451.07	37.870
451.42	38.186
451.77	38.021
452.12	39.729
452.47	38.206
452.83	40.034
453.18	38.237
453.53	38.713
453.88	37.604
454.23	39.096
454.58	40.395
454.93	38.835
455.28	40.277
455.63	38.545
455.98	38.771
456.34	40.165
456.69	38.859
457.04	40.662
457.39	39.302
457.74	40.492
458.09	39.923
458.44	39.817
458.79	38.886
459.14	39.696
459.49	41.370
459.84	41.238
460.19	40.589
460.54	40.716
460.89	40.921
461.24	39.483
461.59	40.730
461.94	39.418
462.29	41.153
462.64	39.710
462.99	41.933
463.34	40.623
463.69	40.504
464.04	42.190
464.39	41.143
464.74	40.137
465.09	41.003
465.44	40.880
465.79	40.719
466.14	40.907
466.49	40.316
466.84	41.928
467.19	42.428
467.54	41.657
467.89	43.391
468.24	41.717
468.59	41.343
468.94	41.084
469.29	41.092
469.64	41.322
469.99	42.129
470.34	42.698
470.68	43.677
471.03	43.484
471.38	43.950
471.73	42.003
472.08	43.084
472.43	43.107
472.78	42.695
473.13	42.099
473.48	42.719
473.83	44.980
474.17	43.142
474.52	43.957
474.87	43.411
475.22	45.014
475.57	42.731
475.92	42.260
476.27	43.237
476.61	43.354
476.96	42.544
477.31	43.564
477.66	44.229
478.01	43.416
478.36	42.822
478.70	43.251
479.05	44.070
479.40	45.015
479.75	43.276
480.10	42.634
480.45	44.075
480.79	43.991
481.14	43.290
481.49	43.389
481.84	43.777
482.19	44.430
482.53	43.419
482.88	44.440
483.23	44.331
483.58	44.061
483.92	43.484
484.27	43.692
484.62	43.111
484.97	44.323
485.31	43.471
485.66	42.425
486.01	41.477
486.36	40.977
486.70	40.768
487.05	41.878
487.40	42.721
487.75	43.181
488.09	44.125
488.44	42.848
488.79	44.384
489.13	44.786
489.48	44.388
489.83	44.386
490.17	44.147
490.52	43.719
490.87	45.389
491.22	44.844
491.56	45.179
491.91	44.919
492.26	45.392
492.60	44.731
492.95	45.678
493.30	45.764
493.64	45.160
493.99	44.737
494.34	44.643
494.68	45.139
495.03	45.242
495.37	45.717
495.72	45.397
496.07	46.450
496.41	44.573
496.76	44.954
497.11	45.308
497.45	45.188
497.80	45.313
498.14	46.531
498.49	46.967
498.84	46.572
499.18	45.299
499.53	45.830
499.87	45.978
500.22	45.993
500.56	46.604
500.91	47.918
501.26	46.545
501.60	45.294
501.95	46.505
502.29	46.336
502.64	45.824
502.98	45.858
503.33	45.788
503.67	45.355
504.02	46.673
504.36	47.587
504.71	46.348
505.06	46.703
505.40	46.252
505.75	46.767
506.09	47.376
506.44	48.004
506.78	47.798
507.13	46.473
507.47	47.987
507.82	48.059
508.16	48.040
508.51	47.257
508.85	47.237
509.19	46.945
509.54	48.655
509.88	48.324
510.23	49.004
510.57	48.719
510.92	48.186
511.26	47.908
511.61	47.851
511.95	47.731
512.30	49.385
512.64	47.926
512.98	48.774
513.33	48.891
513.67	50.025
514.02	48.799
514.36	49.719
514.70	49.531
515.05	50.156
515.39	49.134
515.74	50.371
516.08	50.291
516.42	50.654
516.77	49.422
517.11	49.304
517.46	50.424
517.80	50.027
518.14	50.871
518.49	50.054
518.83	50.665
519.17	50.673
519.52	49.686
519.86	50.317
520.20	50.479
520.55	50.055
520.89	51.520
521.23	50.140
521.58	51.356
521.92	50.652
522.26	49.885
522.61	50.810
522.95	50.807
523.29	51.092
523.64	50.841
523.98	50.941
524.32	53.123
524.66	51.053
525.01	49.943
525.35	50.661
525.69	51.044
526.04	49.943
526.38	51.782
526.72	50.461
527.06	51.554
527.41	51.020
527.75	52.375
528.09	52.007
528.43	51.273
528.78	51.040
529.12	51.950
529.46	50.365
529.80	50.400
530.15	52.000
530.49	51.957
530.83	51.181
531.17	52.031
531.51	52.046
531.86	52.404
532.20	51.829
532.54	50.569
532.88	51.697
533.22	51.385
533.57	51.760
533.91	51.740
534.25	50.594
534.59	51.379
534.93	50.990
535.27	51.268
535.62	51.791
535.96	53.109
536.30	51.351
536.64	51.471
536.98	50.984
537.32	52.284
537.66	51.965
538.01	51.782
538.35	51.888
538.69	50.901
539.03	52.177
539.37	50.530
539.71	50.811
540.05	52.158
540.39	50.856
540.73	51.548
541.07	51.318
541.42	51.270
541.76	49.585
542.10	50.663
542.44	51.096
542.78	52.007
543.12	51.371
543.46	50.488
543.80	50.600
544.14	50.628
544.48	50.887
544.82	51.945
545.16	53.727
545.50	52.067
545.84	51.010
546.18	52.963
546.52	52.611
546.86	51.384
547.20	52.990
547.54	50.874
547.88	50.633
548.22	50.585
548.56	50.790
548.90	52.299
549.24	51.611
549.58	52.114
549.92	52.360
550.26	52.621
550.60	51.500
550.94	52.523
551.28	52.211
551.62	51.146
551.96	51.133
552.30	52.900
552.64	51.213
552.98	52.651
553.32	52.540
553.66	52.669
554.00	52.900
554.34	51.866
554.68	51.259
555.02	51.774
555.36	53.189
555.69	50.609
556.03	51.828
556.37	52.691
556.71	51.997
557.05	51.374
557.39	53.019
557.73	51.915
558.07	52.384
558.41	53.555
558.75	53.347
559.08	52.749
559.42	51.509
559.76	51.764
560.10	53.583
560.44	52.639
560.78	52.250
561.12	52.340
561.45	51.764
561.79	52.625
562.13	52.742
562.47	51.665
562.81	51.709
563.15	52.778
563.48	52.704
563.82	51.572
564.16	51.847
564.50	51.609
564.84	51.268
565.17	51.882
565.51	50.806
565.85	52.078
566.19	49.885
566.52	52.487
566.86	52.066
567.20	51.495
567.54	51.089
567.88	51.580
568.21	51.038
568.55	50.647
568.89	49.887
569.23	49.852
569.56	48.496
569.90	48.325
570.24	48.297
570.57	47.338
570.91	47.459
571.25	46.312
571.59	46.591
571.92	46.908
572.26	45.844
572.60	45.973
572.93	46.702
573.27	46.951
573.61	46.215
573.95	46.953
574.28	46.041
574.62	45.771
574.96	45.501
575.29	45.230
575.63	45.438
575.97	46.012
576.30	45.645
576.64	46.337
576.98	45.558
577.31	46.014
577.65	46.100
577.98	45.520
578.32	44.935
578.66	45.288
578.99	45.136
579.33	46.398
579.67	45.172
580.00	46.258
580.34	45.790
580.67	46.183
581.01	45.759
581.35	45.607
581.68	45.714
582.02	45.423
582.35	45.117
582.69	45.895
583.02	46.234
583.36	46.375
583.70	46.149
584.03	46.820
584.37	47.198
584.70	47.164
585.04	46.826
585.37	46.399
585.71	45.998
586.04	46.367
586.38	46.448
586.72	46.428
587.05	46.457
587.39	46.422
587.72	46.364
588.06	46.204
588.39	47.324
588.73	47.090
589.06	47.771
589.40	48.310
589.73	48.329
590.07	48.077
590.40	48.918
590.73	49.205
591.07	49.851
591.40	49.184
591.74	49.364
592.07	49.208
592.41	48.580
592.74	47.675
593.08	48.089
593.41	47.886
593.75	47.356
594.08	48.319
594.41	48.141
594.75	47.924
595.08	48.351
595.42	48.604
595.75	47.950
596.09	48.560
596.42	48.334
596.75	50.251
597.09	49.818
597.42	48.987
597.75	49.275
598.09	48.849
598.42	48.975
598.76	48.720
599.09	47.846
599.42	47.972
599.76	48.003
600.09	48.182
600.42	47.881
600.76	48.018
601.09	47.627
601.42	47.751
601.76	48.207
602.09	48.570
602.42	48.455
602.76	48.672
603.09	49.413
603.42	48.410
603.76	48.027
604.09	49.681
604.42	49.138
604.76	48.744
605.09	49.661
605.42	49.043
605.75	48.692
606.09	48.302
606.42	47.793
606.75	47.564
607.09	47.619
607.42	47.746
607.75	48.339
608.08	48.737
608.42	48.126
608.75	49.088
609.08	48.727
609.41	49.625
609.75	49.196
610.08	49.516
610.41	48.726
610.74	49.202
611.07	49.112
611.41	49.955
611.74	50.393
612.07	49.603
612.40	49.905
612.73	50.611
613.07	50.367
613.40	49.423
613.73	49.591
614.06	49.068
614.39	48.834
614.72	48.617
615.06	48.653
615.39	48.623
615.72	48.957
616.05	49.199
616.38	50.605
616.71	49.739
617.05	50.160
617.38	50.562
617.71	50.810
618.04	49.379
618.37	49.727
618.70	51.471
619.03	51.016
619.36	50.925
619.69	50.929
620.03	51.412
620.36	50.552
620.69	50.524
621.02	51.444
621.35	54.064
621.68	53.796
622.01	53.096
622.34	51.674
622.67	52.027
623.00	50.337
623.33	51.891
623.66	51.038
623.99	51.679
624.32	51.592
624.65	51.609
624.99	51.951
625.32	52.449
625.65	52.124
625.98	51.254
626.31	51.169
626.64	52.381
626.97	53.338
627.30	52.240
627.63	52.738
627.96	52.928
628.29	53.852
628.62	53.065
628.95	54.338
629.28	52.591
629.61	53.620
629.94	52.636
630.26	52.119
630.59	53.282
630.92	53.160
631.25	55.009
631.58	55.932
631.91	56.607
632.24	54.947
632.57	53.985
632.90	54.865
