SpectraSuite Data File
++++++++++++++++++++++++++++++++++++
Date: Thu May 14 14:32:54 PDT 2015
User: schluterlab
Dark Spectrum Present: Yes
Reference Spectrum Present: Yes
Number of Sampled Component Spectra: 1
Spectrometers: USB2E3373
Integration Time (usec): 3000 (USB2E3373)
Spectra Averaged: 3 (USB2E3373)
Boxcar Smoothing: 0 (USB2E3373)
Correct for Electrical Dark: No (USB2E3373)
Strobe/Lamp Enabled: No (USB2E3373)
Correct for Detector Non-linearity: No (USB2E3373)
Correct for Stray Light: No (USB2E3373)
Number of Pixels in Processed Spectrum: 2048
>>>>>Begin Processed Spectral Data<<<<<
178.53	0.000
178.91	-157.143
179.29	800.000
179.67	500.000
180.04	-35.714
180.42	-160.000
180.80	-320.000
181.18	700.000
181.56	2600.000
181.94	-250.000
182.31	500.000
182.69	-566.667
183.07	950.000
183.45	-275.000
183.83	350.000
184.20	900.000
184.58	-1400.000
184.96	450.000
185.34	200.000
185.72	400.000
186.09	-88.889
186.47	-450.000
186.85	-100.000
187.23	111.111
187.61	2100.000
187.98	-240.000
188.36	-300.000
188.74	150.000
189.12	400.000
189.49	125.000
189.87	262.500
190.25	288.889
190.63	440.000
191.00	166.667
191.38	0.000
191.76	400.000
192.14	283.333
192.51	-800.000
192.89	450.000
193.27	0.000
193.65	271.429
194.02	900.000
194.40	385.714
194.78	-142.857
195.15	0.000
195.53	200.000
195.91	0.000
196.29	550.000
196.66	215.385
197.04	2600.000
197.42	300.000
197.79	1150.000
198.17	262.500
198.55	185.714
198.92	288.889
199.30	112.500
199.68	181.818
200.05	171.429
200.43	800.000
200.81	-128.571
201.18	0.000
201.56	-200.000
201.94	0.000
202.31	-300.000
202.69	155.556
203.07	-2100.000
203.44	188.889
203.82	350.000
204.19	150.000
204.57	400.000
204.95	125.000
205.32	1600.000
205.70	-725.000
206.08	333.333
206.45	283.333
206.83	-180.000
207.20	433.333
207.58	260.000
207.96	250.000
208.33	516.667
208.71	-125.000
209.08	483.333
209.46	0.000
209.84	-333.333
210.21	-1050.000
210.59	-800.000
210.96	-366.667
211.34	550.000
211.71	150.000
212.09	1500.000
212.46	0.000
212.84	-550.000
213.22	360.000
213.59	425.000
213.97	260.000
214.34	400.000
214.72	-166.667
215.09	475.000
215.47	0.000
215.84	-314.286
216.22	-1200.000
216.59	380.000
216.97	340.000
217.34	500.000
217.72	262.500
218.09	350.000
218.47	400.000
218.84	0.000
219.22	-400.000
219.59	147.059
219.97	85.000
220.34	-650.000
220.72	200.000
221.09	246.154
221.47	766.667
221.84	230.000
222.22	257.143
222.59	0.000
222.97	300.000
223.34	220.000
223.72	1600.000
224.09	500.000
224.46	400.000
224.84	440.000
225.21	200.000
225.59	475.000
225.96	475.000
226.34	84.615
226.71	-200.000
227.08	1150.000
227.46	246.667
227.83	700.000
228.21	178.947
228.58	-300.000
228.95	-50.000
229.33	191.667
229.70	230.000
230.08	163.158
230.45	-50.000
230.82	533.333
231.20	178.571
231.57	191.667
231.95	254.545
232.32	227.273
232.69	170.000
233.07	300.000
233.44	117.647
233.81	160.000
234.19	183.333
234.56	113.636
234.93	113.793
235.31	136.842
235.68	144.444
236.05	85.000
236.43	103.846
236.80	152.000
237.17	88.889
237.55	57.576
237.92	150.000
238.29	77.419
238.67	61.364
239.04	63.889
239.41	45.238
239.79	60.870
240.16	53.704
240.53	65.217
240.91	54.902
241.28	55.738
241.65	73.134
242.02	62.162
242.40	47.692
242.77	40.000
243.14	45.122
243.51	30.263
243.89	47.436
244.26	32.673
244.63	39.216
245.00	28.972
245.38	37.719
245.75	22.124
246.12	31.746
246.49	31.783
246.87	33.571
247.24	35.762
247.61	31.579
247.98	28.188
248.36	24.691
248.73	27.607
249.10	28.415
249.47	31.841
249.84	33.508
250.22	22.280
250.59	30.000
250.96	27.727
251.33	23.469
251.70	24.786
252.08	24.583
252.45	36.066
252.82	21.488
253.19	24.219
253.56	26.236
253.94	24.615
254.31	28.409
254.68	30.070
255.05	24.756
255.42	26.531
255.79	22.654
256.16	26.821
256.54	24.172
256.91	27.213
257.28	26.557
257.65	22.293
258.02	21.829
258.39	24.217
258.76	28.135
259.14	25.575
259.51	25.648
259.88	24.929
260.25	23.889
260.62	26.575
260.99	27.869
261.36	28.150
261.73	22.812
262.10	24.725
262.47	25.469
262.85	27.273
263.22	23.377
263.59	21.316
263.96	25.575
264.33	21.228
264.70	27.160
265.07	24.821
265.44	26.531
265.81	25.000
266.18	26.984
266.55	24.330
266.92	21.868
267.29	26.039
267.66	23.282
268.03	22.271
268.40	20.459
268.77	22.779
269.14	22.907
269.51	23.684
269.88	25.205
270.25	23.139
270.62	23.840
270.99	26.263
271.36	24.752
271.73	22.593
272.10	25.050
272.47	21.443
272.84	22.088
273.21	23.046
273.58	22.984
273.95	21.346
274.32	23.004
274.69	24.758
275.06	23.993
275.43	20.887
275.80	21.869
276.17	21.852
276.54	22.575
276.91	23.614
277.28	23.508
277.65	21.903
278.02	24.081
278.39	21.377
278.76	21.265
279.13	21.631
279.50	21.993
279.87	21.109
280.23	20.070
280.60	24.068
280.97	21.546
281.34	21.053
281.71	21.320
282.08	22.093
282.45	21.931
282.82	19.466
283.19	20.517
283.56	21.967
283.92	22.523
284.29	23.539
284.66	22.824
285.03	18.910
285.40	21.175
285.77	21.517
286.14	21.832
286.51	20.548
286.87	20.379
287.24	21.687
287.61	20.628
287.98	18.127
288.35	20.710
288.72	20.118
289.08	20.351
289.45	19.822
289.82	20.181
290.19	18.822
290.56	20.282
290.93	19.686
291.29	19.421
291.66	17.906
292.03	17.368
292.40	19.728
292.77	18.464
293.13	16.644
293.50	18.528
293.87	18.255
294.24	19.067
294.60	19.469
294.97	16.242
295.34	18.310
295.71	17.024
296.08	16.925
296.44	16.667
296.81	17.296
297.18	16.936
297.55	16.038
297.91	16.133
298.28	16.232
298.65	17.479
299.02	17.119
299.38	16.819
299.75	17.523
300.12	15.394
300.48	16.244
300.85	15.973
301.22	16.443
301.59	15.982
301.95	16.045
302.32	17.667
302.69	16.101
303.05	15.343
303.42	16.186
303.79	16.875
304.15	16.404
304.52	17.759
304.89	16.963
305.25	16.356
305.62	16.614
305.99	15.979
306.35	16.331
306.72	16.443
307.09	15.127
307.45	18.323
307.82	16.852
308.19	16.044
308.55	16.876
308.92	15.969
309.29	17.912
309.65	15.205
310.02	16.337
310.38	16.339
310.75	17.961
311.12	17.066
311.48	16.716
311.85	17.094
312.22	17.742
312.58	17.277
312.95	17.782
313.31	18.609
313.68	18.132
314.05	19.061
314.41	19.308
314.78	18.892
315.14	18.966
315.51	21.053
315.87	20.252
316.24	21.279
316.61	21.314
316.97	20.995
317.34	20.282
317.70	21.834
318.07	22.222
318.43	22.704
318.80	22.575
319.16	23.605
319.53	22.793
319.89	22.699
320.26	24.733
320.62	24.113
320.99	24.469
321.35	25.046
321.72	27.349
322.08	25.609
322.45	27.913
322.81	27.978
323.18	28.142
323.54	28.966
323.91	29.004
324.27	29.432
324.64	31.066
325.00	29.934
325.37	30.713
325.73	31.653
326.10	32.685
326.46	33.143
326.83	32.986
327.19	34.882
327.56	34.941
327.92	34.146
328.29	34.597
328.65	36.683
329.01	36.633
329.38	38.500
329.74	38.442
330.11	39.212
330.47	37.995
330.84	38.674
331.20	39.917
331.56	41.248
331.93	40.084
332.29	41.441
332.66	40.698
333.02	40.955
333.38	41.191
333.75	41.667
334.11	41.118
334.48	42.079
334.84	43.331
335.20	41.814
335.57	43.002
335.93	42.066
336.29	42.928
336.66	44.239
337.02	42.140
337.38	43.452
337.75	43.388
338.11	42.977
338.47	43.507
338.84	45.008
339.20	42.291
339.56	43.493
339.93	44.253
340.29	43.237
340.65	43.066
341.02	44.374
341.38	43.816
341.74	43.180
342.11	44.972
342.47	42.176
342.83	44.364
343.20	44.235
343.56	45.549
343.92	44.756
344.28	45.391
344.65	45.194
345.01	43.838
345.37	44.323
345.73	43.258
346.10	44.150
346.46	43.750
346.82	43.596
347.19	44.461
347.55	44.613
347.91	43.165
348.27	44.310
348.63	43.793
349.00	43.699
349.36	44.833
349.72	43.378
350.08	45.468
350.45	45.171
350.81	45.023
351.17	44.962
351.53	46.020
351.89	46.014
352.26	46.045
352.62	44.478
352.98	45.496
353.34	45.183
353.70	45.223
354.07	46.349
354.43	45.862
354.79	44.951
355.15	44.812
355.51	46.711
355.87	45.999
356.24	46.540
356.60	44.863
356.96	45.960
357.32	43.941
357.68	44.949
358.04	45.509
358.40	44.776
358.77	45.687
359.13	46.012
359.49	44.981
359.85	47.063
360.21	43.902
360.57	45.729
360.93	45.557
361.29	45.263
361.66	46.271
362.02	45.859
362.38	46.100
362.74	47.277
363.10	47.593
363.46	46.399
363.82	47.656
364.18	46.868
364.54	46.611
364.90	46.957
365.26	46.276
365.62	47.533
365.98	47.515
366.35	47.114
366.71	47.483
367.07	47.294
367.43	47.078
367.79	48.839
368.15	48.094
368.51	48.106
368.87	48.334
369.23	47.933
369.59	49.112
369.95	48.614
370.31	49.966
370.67	49.312
371.03	47.853
371.39	47.817
371.75	49.587
372.11	48.713
372.47	48.680
372.83	50.589
373.19	48.566
373.55	52.236
373.91	50.307
374.27	48.577
374.63	51.083
374.99	50.265
375.35	50.779
375.71	50.516
376.07	50.742
376.42	50.378
376.78	50.653
377.14	51.716
377.50	53.068
377.86	51.786
378.22	51.677
378.58	52.259
378.94	51.819
379.30	52.665
379.66	52.028
380.02	52.856
380.38	52.880
380.74	52.789
381.09	53.542
381.45	52.898
381.81	55.035
382.17	52.613
382.53	54.444
382.89	52.144
383.25	55.217
383.61	53.819
383.97	55.006
384.32	55.801
384.68	54.698
385.04	54.251
385.40	55.804
385.76	55.393
386.12	56.014
386.48	56.647
386.83	56.138
387.19	56.373
387.55	55.986
387.91	55.822
388.27	55.139
388.62	55.956
388.98	56.232
389.34	57.278
389.70	58.048
390.06	56.720
390.42	56.687
390.77	58.338
391.13	57.453
391.49	58.816
391.85	57.152
392.20	57.711
392.56	58.949
392.92	56.870
393.28	57.103
393.64	57.151
393.99	58.222
394.35	58.995
394.71	58.263
395.07	57.904
395.42	58.938
395.78	61.121
396.14	60.606
396.50	58.729
396.85	58.915
397.21	59.467
397.57	58.304
397.92	59.049
398.28	58.827
398.64	58.467
399.00	58.377
399.35	59.162
399.71	59.293
400.07	59.517
400.42	59.488
400.78	59.491
401.14	59.932
401.49	61.114
401.85	61.337
402.21	60.660
402.57	60.915
402.92	61.466
403.28	60.012
403.63	60.501
403.99	60.570
404.35	60.830
404.70	60.453
405.06	59.511
405.42	60.948
405.77	61.123
406.13	60.238
406.49	59.516
406.84	59.446
407.20	61.151
407.55	62.205
407.91	61.471
408.27	60.247
408.62	62.653
408.98	60.940
409.34	60.176
409.69	61.125
410.05	62.309
410.40	61.427
410.76	62.142
411.11	61.543
411.47	61.916
411.83	61.787
412.18	63.554
412.54	62.122
412.89	61.001
413.25	60.835
413.60	62.550
413.96	62.005
414.31	61.076
414.67	61.360
415.03	61.538
415.38	63.745
415.74	62.370
416.09	63.479
416.45	62.054
416.80	61.383
417.16	62.644
417.51	62.827
417.87	62.845
418.22	62.515
418.58	61.834
418.93	63.970
419.29	63.255
419.64	62.185
420.00	63.561
420.35	62.156
420.71	61.804
421.06	64.060
421.42	62.213
421.77	62.897
422.12	61.786
422.48	62.468
422.83	63.636
423.19	62.812
423.54	65.155
423.90	63.446
424.25	64.960
424.61	64.237
424.96	63.042
425.31	63.482
425.67	62.534
426.02	65.136
426.38	65.155
426.73	63.672
427.09	66.494
427.44	62.753
427.79	64.787
428.15	63.584
428.50	63.427
428.85	63.548
429.21	65.745
429.56	64.215
429.92	64.128
430.27	64.482
430.62	65.901
430.98	65.076
431.33	64.858
431.68	62.692
432.04	65.719
432.39	65.131
432.74	64.441
433.10	65.116
433.45	64.939
433.80	66.738
434.16	64.514
434.51	66.084
434.86	65.852
435.22	66.684
435.57	67.866
435.92	66.055
436.28	67.292
436.63	65.811
436.98	64.412
437.34	67.136
437.69	65.162
438.04	66.420
438.39	65.939
438.75	66.187
439.10	66.279
439.45	66.294
439.81	66.441
440.16	65.845
440.51	66.555
440.86	66.370
441.22	66.238
441.57	66.981
441.92	64.597
442.27	65.101
442.63	65.872
442.98	66.756
443.33	66.176
443.68	67.839
444.03	67.780
444.39	66.898
444.74	66.462
445.09	66.194
445.44	67.861
445.79	66.331
446.15	66.290
446.50	66.873
446.85	67.267
447.20	65.764
447.55	67.730
447.91	67.068
448.26	66.808
448.61	66.312
448.96	69.742
449.31	66.596
449.66	67.211
450.02	66.245
450.37	66.436
450.72	66.362
451.07	66.800
451.42	67.013
451.77	66.259
452.12	67.720
452.47	67.796
452.83	69.257
453.18	67.484
453.53	67.088
453.88	66.814
454.23	67.514
454.58	69.240
454.93	67.658
455.28	67.429
455.63	67.652
455.98	67.654
456.34	66.019
456.69	68.313
457.04	67.908
457.39	67.960
457.74	68.400
458.09	66.063
458.44	66.595
458.79	67.870
459.14	67.278
459.49	66.384
459.84	67.261
460.19	67.296
460.54	67.859
460.89	67.867
461.24	68.218
461.59	68.899
461.94	66.800
462.29	68.813
462.64	68.316
462.99	69.617
463.34	70.019
463.69	67.878
464.04	69.150
464.39	66.031
464.74	67.047
465.09	67.993
465.44	67.650
465.79	67.160
466.14	66.910
466.49	67.842
466.84	66.997
467.19	66.474
467.54	67.450
467.89	67.874
468.24	68.366
468.59	68.095
468.94	66.725
469.29	68.086
469.64	67.133
469.99	68.388
470.34	69.431
470.68	69.788
471.03	69.548
471.38	69.784
471.73	69.116
472.08	69.289
472.43	69.296
472.78	68.514
473.13	68.774
473.48	70.332
473.83	69.182
474.17	68.054
474.52	68.611
474.87	67.996
475.22	67.775
475.57	68.847
475.92	67.048
476.27	67.998
476.61	68.172
476.96	68.457
477.31	68.564
477.66	68.678
478.01	69.293
478.36	67.647
478.70	67.882
479.05	69.530
479.40	68.954
479.75	68.252
480.10	68.830
480.45	68.551
480.79	68.753
481.14	68.290
481.49	68.832
481.84	68.973
482.19	68.774
482.53	70.004
482.88	68.587
483.23	68.875
483.58	68.428
483.92	67.021
484.27	67.655
484.62	67.987
484.97	67.341
485.31	67.617
485.66	66.541
486.01	62.696
486.36	62.406
486.70	63.552
487.05	64.521
487.40	65.173
487.75	67.913
488.09	68.667
488.44	68.681
488.79	69.140
489.13	69.660
489.48	69.087
489.83	68.571
490.17	68.327
490.52	67.734
490.87	67.936
491.22	68.847
491.56	67.363
491.91	69.647
492.26	68.066
492.60	68.299
492.95	68.056
493.30	69.610
493.64	68.682
493.99	67.588
494.34	67.291
494.68	68.266
495.03	67.885
495.37	69.285
495.72	68.481
496.07	68.493
496.41	68.297
496.76	68.432
497.11	68.408
497.45	68.105
497.80	68.592
498.14	69.206
498.49	68.934
498.84	68.967
499.18	68.781
499.53	68.744
499.87	68.747
500.22	67.364
500.56	68.421
500.91	70.160
501.26	69.682
501.60	68.405
501.95	68.780
502.29	69.109
502.64	68.430
502.98	67.084
503.33	66.998
503.67	68.905
504.02	68.257
504.36	68.990
504.71	69.362
505.06	68.759
505.40	68.784
505.75	68.579
506.09	68.738
506.44	69.777
506.78	70.000
507.13	68.787
507.47	71.483
507.82	69.555
508.16	68.881
508.51	68.589
508.85	69.674
509.19	70.109
509.54	69.597
509.88	69.791
510.23	70.714
510.57	71.387
510.92	69.521
511.26	68.879
511.61	68.904
511.95	69.693
512.30	70.803
512.64	69.765
512.98	69.885
513.33	70.665
513.67	70.525
514.02	70.976
514.36	71.355
514.70	71.406
515.05	70.959
515.39	71.181
515.74	71.527
516.08	69.361
516.42	71.481
516.77	70.873
517.11	70.139
517.46	70.520
517.80	71.726
518.14	71.980
518.49	71.800
518.83	69.824
519.17	71.298
519.52	70.650
519.86	70.697
520.20	71.938
520.55	70.427
520.89	72.579
521.23	72.306
521.58	71.864
521.92	71.955
522.26	70.504
522.61	72.975
522.95	71.915
523.29	72.931
523.64	71.637
523.98	73.303
524.32	72.493
524.66	73.193
525.01	71.744
525.35	71.051
525.69	72.100
526.04	70.264
526.38	72.931
526.72	72.145
527.06	72.845
527.41	72.245
527.75	72.803
528.09	71.960
528.43	72.114
528.78	70.520
529.12	71.961
529.46	71.557
529.80	71.854
530.15	73.333
530.49	71.708
530.83	72.373
531.17	72.162
531.51	72.323
531.86	72.897
532.20	73.415
532.54	71.873
532.88	72.606
533.22	71.302
533.57	71.148
533.91	72.110
534.25	70.322
534.59	72.069
534.93	70.515
535.27	70.423
535.62	71.575
535.96	72.690
536.30	71.093
536.64	72.853
536.98	72.817
537.32	72.840
537.66	72.489
538.01	71.722
538.35	72.168
538.69	72.236
539.03	72.164
539.37	70.554
539.71	72.733
540.05	71.823
540.39	71.210
540.73	70.856
541.07	72.900
541.42	70.230
541.76	70.166
542.10	73.100
542.44	71.072
542.78	71.594
543.12	71.990
543.46	71.001
543.80	70.144
544.14	69.539
544.48	72.400
544.82	71.873
545.16	71.079
545.50	70.461
545.84	71.953
546.18	72.037
546.52	72.484
546.86	72.075
547.20	73.473
547.54	72.722
547.88	72.031
548.22	70.643
548.56	70.685
548.90	72.179
549.24	71.611
549.58	71.798
549.92	72.130
550.26	73.657
550.60	72.240
550.94	73.221
551.28	72.541
551.62	74.596
551.96	73.010
552.30	72.785
552.64	71.686
552.98	72.302
553.32	72.926
553.66	72.283
554.00	72.573
554.34	72.844
554.68	71.530
555.02	72.668
555.36	73.504
555.69	71.941
556.03	72.446
556.37	73.967
556.71	72.479
557.05	72.077
557.39	72.727
557.73	72.919
558.07	72.980
558.41	73.821
558.75	72.955
559.08	73.974
559.42	73.800
559.76	73.474
560.10	73.610
560.44	72.757
560.78	72.125
561.12	71.798
561.45	72.263
561.79	72.100
562.13	72.150
562.47	72.072
562.81	71.646
563.15	72.727
563.48	72.902
563.82	72.733
564.16	71.351
564.50	71.633
564.84	71.563
565.17	69.824
565.51	71.461
565.85	71.200
566.19	72.293
566.52	72.206
566.86	70.232
567.20	68.733
567.54	70.579
567.88	69.980
568.21	69.516
568.55	70.600
568.89	69.542
569.23	68.906
569.56	68.972
569.90	67.498
570.24	67.251
570.57	67.223
570.91	65.493
571.25	64.941
571.59	65.628
571.92	65.538
572.26	65.564
572.60	65.220
572.93	66.435
573.27	66.479
573.61	65.987
573.95	65.234
574.28	64.494
574.62	64.984
574.96	63.520
575.29	63.516
575.63	64.218
575.97	65.653
576.30	64.693
576.64	65.068
576.98	64.579
577.31	64.192
577.65	64.693
577.98	63.592
578.32	63.265
578.66	62.929
578.99	63.998
579.33	65.096
579.67	65.571
580.00	65.565
580.34	64.354
580.67	65.137
581.01	64.950
581.35	64.076
581.68	63.070
582.02	62.557
582.35	63.400
582.69	64.711
583.02	64.530
583.36	65.496
583.70	67.076
584.03	66.451
584.37	67.391
584.70	66.944
585.04	65.682
585.37	64.450
585.71	64.401
586.04	64.399
586.38	64.949
586.72	65.029
587.05	64.927
587.39	65.445
587.72	65.478
588.06	65.643
588.39	65.920
588.73	66.111
589.06	66.648
589.40	68.470
589.73	67.063
590.07	67.905
590.40	67.579
590.73	67.833
591.07	68.057
591.40	68.002
591.74	68.323
592.07	68.981
592.41	67.784
592.74	67.377
593.08	66.051
593.41	65.529
593.75	65.747
594.08	66.556
594.41	66.058
594.75	66.755
595.08	66.891
595.42	66.558
595.75	67.226
596.09	67.028
596.42	68.793
596.75	69.934
597.09	69.657
597.42	67.302
597.75	67.973
598.09	67.381
598.42	68.235
598.76	67.558
599.09	66.002
599.42	65.337
599.76	64.774
600.09	66.266
600.42	65.666
600.76	66.744
601.09	65.715
601.42	65.980
601.76	66.517
602.09	67.048
602.42	66.667
602.76	67.565
603.09	67.401
603.42	66.980
603.76	67.195
604.09	67.530
604.42	67.413
604.76	67.504
605.09	69.406
605.42	68.102
605.75	67.615
606.09	66.965
606.42	67.202
606.75	67.504
607.09	66.628
607.42	67.322
607.75	66.940
608.08	67.285
608.42	66.707
608.75	68.491
609.08	67.275
609.41	67.843
609.75	69.241
610.08	69.349
610.41	67.927
610.74	67.521
611.07	69.094
611.41	69.327
611.74	69.007
612.07	70.173
612.40	68.631
612.73	71.932
613.07	70.562
613.40	69.249
613.73	69.234
614.06	69.382
614.39	67.881
614.72	68.850
615.06	69.009
615.39	67.666
615.72	68.910
616.05	69.888
616.38	70.787
616.71	69.540
617.05	69.755
617.38	70.037
617.71	70.464
618.04	69.725
618.37	70.929
618.70	71.154
619.03	71.027
619.36	72.565
619.69	73.030
620.03	73.007
620.36	70.920
620.69	71.067
621.02	72.835
621.35	76.560
621.68	75.777
622.01	73.238
622.34	71.339
622.67	72.715
623.00	72.200
623.33	73.192
623.66	72.438
623.99	71.889
624.32	73.359
624.65	72.136
624.99	71.977
625.32	73.677
625.65	73.904
625.98	72.949
626.31	73.281
626.64	74.505
626.97	75.544
627.30	75.247
627.63	76.744
627.96	76.126
628.29	74.786
628.62	75.651
628.95	77.476
629.28	76.805
629.61	76.431
629.94	75.983
630.26	75.678
630.59	77.288
630.92	75.065
631.25	77.996
631.58	80.508
631.91	77.320
632.24	78.866
632.57	77.609
