SpectraSuite Data File
++++++++++++++++++++++++++++++++++++
Date: Thu May 14 14:57:13 PDT 2015
User: schluterlab
Dark Spectrum Present: Yes
Reference Spectrum Present: Yes
Number of Sampled Component Spectra: 1
Spectrometers: USB2E3373
Integration Time (usec): 3000 (USB2E3373)
Spectra Averaged: 3 (USB2E3373)
Boxcar Smoothing: 0 (USB2E3373)
Correct for Electrical Dark: No (USB2E3373)
Strobe/Lamp Enabled: No (USB2E3373)
Correct for Detector Non-linearity: No (USB2E3373)
Correct for Stray Light: No (USB2E3373)
Number of Pixels in Processed Spectrum: 2048
>>>>>Begin Processed Spectral Data<<<<<
178.53	0.000
178.91	242.857
179.29	-2500.000
179.67	-2900.000
180.04	278.571
180.42	210.000
180.80	340.000
181.18	-2100.000
181.56	-1700.000
181.94	625.000
182.31	-500.000
182.69	966.667
183.07	-1000.000
183.45	850.000
183.83	-300.000
184.20	-466.667
184.58	1800.000
184.96	-525.000
185.34	-222.222
185.72	-160.000
186.09	288.889
186.47	1400.000
186.85	500.000
187.23	-233.333
187.61	-2800.000
187.98	220.000
188.36	600.000
188.74	-675.000
189.12	-566.667
189.49	-93.750
189.87	-312.500
190.25	-188.889
190.63	-420.000
191.00	-166.667
191.38	0.000
191.76	-475.000
192.14	-283.333
192.51	700.000
192.89	-150.000
193.27	0.000
193.65	-171.429
194.02	-2100.000
194.40	-157.143
194.78	300.000
195.15	0.000
195.53	-127.273
195.91	0.000
196.29	-300.000
196.66	-130.769
197.04	-3300.000
197.42	-300.000
197.79	-850.000
198.17	-287.500
198.55	-357.143
198.92	-188.889
199.30	-162.500
199.68	-36.364
200.05	-114.286
200.43	-1350.000
200.81	314.286
201.18	0.000
201.56	366.667
201.94	0.000
202.31	766.667
202.69	-433.333
203.07	1800.000
203.44	-111.111
203.82	-575.000
204.19	-150.000
204.57	-333.333
204.95	-287.500
205.32	-2900.000
205.70	475.000
206.08	-183.333
206.45	-50.000
206.83	680.000
207.20	-116.667
207.58	-260.000
207.96	-416.667
208.33	-250.000
208.71	216.667
209.08	-283.333
209.46	0.000
209.84	400.000
210.21	950.000
210.59	950.000
210.96	866.667
211.34	-350.000
211.71	-275.000
212.09	-1600.000
212.46	0.000
212.84	1250.000
213.22	-400.000
213.59	-300.000
213.97	-130.000
214.34	-666.667
214.72	250.000
215.09	-550.000
215.47	0.000
215.84	200.000
216.22	1100.000
216.59	-440.000
216.97	-340.000
217.34	-475.000
217.72	-237.500
218.09	-550.000
218.47	-600.000
218.84	0.000
219.22	340.000
219.59	-58.824
219.97	-60.000
220.34	1150.000
220.72	-233.333
221.09	-123.077
221.47	-566.667
221.84	-210.000
222.22	-271.429
222.59	0.000
222.97	-200.000
223.34	-540.000
223.72	-2100.000
224.09	-450.000
224.46	-725.000
224.84	-340.000
225.21	-357.143
225.59	-825.000
225.96	-425.000
226.34	-34.615
226.71	466.667
227.08	-550.000
227.46	-113.333
227.83	-450.000
228.21	-31.579
228.58	212.500
228.95	1350.000
229.33	-141.667
229.70	-140.000
230.08	-21.053
230.45	220.000
230.82	-733.333
231.20	-50.000
231.57	-183.333
231.95	-200.000
232.32	-200.000
232.69	-70.000
233.07	-325.000
233.44	-58.824
233.81	-240.000
234.19	0.000
234.56	-68.182
234.93	-24.138
235.31	-78.947
235.68	-116.667
236.05	-95.000
236.43	-15.385
236.80	-12.000
237.17	-33.333
237.55	-36.364
237.92	-310.000
238.29	-38.710
238.67	-11.364
239.04	-36.111
239.41	-35.714
239.79	-19.565
240.16	-22.222
240.53	-26.087
240.91	-37.255
241.28	-13.115
241.65	-16.418
242.02	-4.054
242.40	-15.385
242.77	-10.667
243.14	-23.171
243.51	-18.421
243.89	-25.641
244.26	-1.980
244.63	-5.882
245.00	-3.738
245.38	-8.772
245.75	-10.619
246.12	-2.381
246.49	-13.178
246.87	4.286
247.24	3.311
247.61	2.632
247.98	2.685
248.36	-0.617
248.73	-1.840
249.10	0.000
249.47	6.965
249.84	9.424
250.22	5.699
250.59	0.556
250.96	6.818
251.33	-2.041
251.70	6.410
252.08	0.417
252.45	5.328
252.82	2.479
253.19	2.344
253.56	6.844
253.94	5.385
254.31	4.167
254.68	10.490
255.05	7.492
255.42	7.823
255.79	6.472
256.16	6.954
256.54	2.649
256.91	8.197
257.28	6.885
257.65	6.051
258.02	4.425
258.39	8.262
258.76	8.563
259.14	8.621
259.51	6.628
259.88	5.099
260.25	8.611
260.62	9.315
260.99	11.475
261.36	10.456
261.73	9.019
262.10	8.242
262.47	6.702
262.85	7.828
263.22	6.494
263.59	9.737
263.96	8.184
264.33	4.092
264.70	10.617
265.07	10.979
265.44	11.565
265.81	9.028
266.18	11.111
266.55	8.036
266.92	8.656
267.29	9.847
267.66	8.869
268.03	8.079
268.40	8.977
268.77	6.834
269.14	9.251
269.51	8.333
269.88	10.246
270.25	9.256
270.62	10.338
270.99	12.929
271.36	10.891
271.73	10.020
272.10	11.222
272.47	10.822
272.84	9.237
273.21	8.617
273.58	8.871
273.95	11.154
274.32	8.365
274.69	7.737
275.06	11.905
275.43	8.133
275.80	12.522
276.17	7.778
276.54	8.209
276.91	10.197
277.28	9.946
277.65	10.413
278.02	10.846
278.39	9.058
278.76	8.612
279.13	9.574
279.50	9.450
279.87	9.660
280.23	7.218
280.60	10.169
280.97	10.033
281.34	9.338
281.71	9.645
282.08	10.299
282.45	7.365
282.82	9.733
283.19	9.370
283.56	8.525
283.92	11.862
284.29	10.585
284.66	10.673
285.03	8.333
285.40	10.201
285.77	8.204
286.14	11.145
286.51	9.132
286.87	8.215
287.24	9.187
287.61	8.969
287.98	9.215
288.35	10.059
288.72	10.651
289.08	9.663
289.45	6.805
289.82	8.735
290.19	9.770
290.56	9.577
290.93	11.270
291.29	8.678
291.66	8.815
292.03	8.005
292.40	8.980
292.77	7.278
293.13	7.848
293.50	8.016
293.87	8.591
294.24	8.000
294.60	8.723
294.97	8.054
295.34	9.603
295.71	6.936
296.08	7.881
296.44	8.578
296.81	8.404
297.18	7.098
297.55	7.901
297.91	7.473
298.28	7.938
298.65	8.086
299.02	8.264
299.38	9.153
299.75	6.192
300.12	6.713
300.48	8.180
300.85	7.424
301.22	7.159
301.59	6.050
301.95	7.006
302.32	8.889
302.69	8.215
303.05	8.052
303.42	7.650
303.79	7.604
304.15	7.571
304.52	6.765
304.89	7.539
305.25	7.246
305.62	6.061
305.99	8.144
306.35	6.855
306.72	8.687
307.09	8.122
307.45	6.108
307.82	7.064
308.19	6.357
308.55	7.522
308.92	6.816
309.29	6.992
309.65	6.823
310.02	7.525
310.38	7.087
310.75	7.184
311.12	7.478
311.48	6.061
311.85	6.553
312.22	7.590
312.58	7.793
312.95	6.597
313.31	7.678
313.68	7.326
314.05	8.130
314.41	7.195
314.78	7.357
315.14	7.350
315.51	7.941
315.87	7.471
316.24	7.763
316.61	8.082
316.97	6.516
317.34	6.878
317.70	7.948
318.07	7.584
318.43	8.503
318.80	9.197
319.16	6.609
319.53	6.769
319.89	6.924
320.26	7.651
320.62	8.067
320.99	7.479
321.35	7.486
321.72	8.279
322.08	7.033
322.45	7.407
322.81	7.310
323.18	7.522
323.54	7.155
323.91	7.384
324.27	7.487
324.64	8.396
325.00	7.463
325.37	7.289
325.73	7.355
326.10	8.516
326.46	7.166
326.83	8.327
327.19	8.268
327.56	7.589
327.92	7.160
328.29	7.177
328.65	6.784
329.01	7.614
329.38	7.329
329.74	6.935
330.11	6.849
330.47	7.666
330.84	7.924
331.20	8.083
331.56	7.539
331.93	8.870
332.29	8.051
332.66	7.641
333.02	7.454
333.38	7.299
333.75	7.407
334.11	8.507
334.48	7.343
334.84	7.647
335.20	6.549
335.57	8.432
335.93	8.678
336.29	7.155
336.66	7.738
337.02	7.358
337.38	8.673
337.75	6.694
338.11	7.569
338.47	8.106
338.84	7.445
339.20	6.403
339.56	7.908
339.93	7.635
340.29	7.568
340.65	7.299
341.02	8.699
341.38	7.922
341.74	7.667
342.11	8.367
342.47	6.275
342.83	7.568
343.20	7.032
343.56	7.538
343.92	7.446
344.28	7.891
344.65	7.752
345.01	7.566
345.37	7.932
345.73	6.859
346.10	8.580
346.46	7.199
346.82	7.865
347.19	8.709
347.55	7.587
347.91	8.470
348.27	7.511
348.63	8.149
349.00	6.115
349.36	8.030
349.72	7.292
350.08	7.281
350.45	7.452
350.81	7.391
351.17	6.316
351.53	6.444
351.89	7.973
352.26	6.567
352.62	6.940
352.98	7.023
353.34	7.543
353.70	7.088
354.07	7.004
354.43	6.226
354.79	7.255
355.15	7.506
355.51	8.480
355.87	6.582
356.24	7.681
356.60	6.652
356.96	7.191
357.32	7.658
357.68	6.589
358.04	6.362
358.40	6.866
358.77	7.602
359.13	6.721
359.49	6.245
359.85	7.179
360.21	7.030
360.57	6.317
360.93	6.629
361.29	6.596
361.66	6.589
362.02	6.889
362.38	6.606
362.74	6.285
363.10	6.946
363.46	6.371
363.82	6.747
364.18	6.826
364.54	6.570
364.90	8.227
365.26	6.138
365.62	7.600
365.98	6.603
366.35	6.846
366.71	7.279
367.07	6.834
367.43	7.157
367.79	7.631
368.15	7.157
368.51	7.307
368.87	7.511
369.23	7.467
369.59	6.421
369.95	6.761
370.31	7.562
370.67	6.878
371.03	7.064
371.39	6.985
371.75	6.327
372.11	7.927
372.47	7.380
372.83	7.723
373.19	7.272
373.55	6.911
373.91	6.680
374.27	7.374
374.63	6.563
374.99	6.233
375.35	7.403
375.71	7.226
376.07	6.714
376.42	6.423
376.78	8.080
377.14	6.987
377.50	7.021
377.86	7.266
378.22	7.904
378.58	7.432
378.94	6.984
379.30	6.444
379.66	7.172
380.02	6.924
380.38	7.373
380.74	7.493
381.09	6.794
381.45	7.443
381.81	7.436
382.17	6.651
382.53	6.608
382.89	7.619
383.25	7.210
383.61	6.308
383.97	6.832
384.32	6.579
384.68	6.555
385.04	6.825
385.40	7.425
385.76	7.268
386.12	6.822
386.48	7.765
386.83	7.807
387.19	6.721
387.55	6.397
387.91	7.363
388.27	7.794
388.62	6.243
388.98	7.671
389.34	6.953
389.70	7.205
390.06	7.223
390.42	7.048
390.77	7.345
391.13	7.101
391.49	6.643
391.85	6.485
392.20	7.295
392.56	7.620
392.92	7.252
393.28	6.633
393.64	7.542
393.99	7.844
394.35	7.769
394.71	7.605
395.07	6.527
395.42	6.796
395.78	7.434
396.14	6.833
396.50	6.235
396.85	6.977
397.21	6.805
397.57	7.303
397.92	7.560
398.28	6.898
398.64	6.236
399.00	6.492
399.35	7.382
399.71	6.250
400.07	7.019
400.42	6.403
400.78	6.655
401.14	6.830
401.49	6.424
401.85	6.802
402.21	6.199
402.57	7.218
402.92	6.028
403.28	6.499
403.63	6.086
403.99	6.354
404.35	7.391
404.70	6.912
405.06	6.957
405.42	7.201
405.77	6.979
406.13	7.077
406.49	6.532
406.84	7.258
407.20	6.875
407.55	6.541
407.91	6.474
408.27	6.890
408.62	6.864
408.98	7.255
409.34	5.865
409.69	7.169
410.05	7.327
410.40	7.193
410.76	6.618
411.11	7.130
411.47	6.880
411.83	6.584
412.18	7.229
412.54	6.817
412.89	6.927
413.25	7.393
413.60	5.974
413.96	6.760
414.31	6.742
414.67	7.096
415.03	6.708
415.38	5.675
415.74	6.170
416.09	6.663
416.45	6.700
416.80	6.548
417.16	6.130
417.51	6.663
417.87	6.560
418.22	7.784
418.58	6.320
418.93	7.451
419.29	6.473
419.64	6.363
420.00	6.291
420.35	7.131
420.71	6.088
421.06	7.073
421.42	6.995
421.77	7.054
422.12	7.082
422.48	6.708
422.83	7.393
423.19	7.003
423.54	7.024
423.90	7.454
424.25	7.840
424.61	6.085
424.96	7.084
425.31	7.219
425.67	6.495
426.02	6.807
426.38	6.889
426.73	6.808
427.09	8.420
427.44	6.554
427.79	7.242
428.15	6.164
428.50	6.910
428.85	7.463
429.21	7.500
429.56	7.108
429.92	7.224
430.27	6.988
430.62	7.230
430.98	6.788
431.33	7.429
431.68	6.849
432.04	7.212
432.39	7.177
432.74	6.507
433.10	7.085
433.45	6.577
433.80	6.599
434.16	7.283
434.51	6.732
434.86	6.678
435.22	7.120
435.57	7.075
435.92	7.290
436.28	7.679
436.63	7.264
436.98	7.676
437.34	7.215
437.69	6.824
438.04	6.822
438.39	7.237
438.75	6.973
439.10	8.245
439.45	7.378
439.81	7.232
440.16	6.971
440.51	7.525
440.86	7.504
441.22	7.449
441.57	6.918
441.92	7.468
442.27	6.869
442.63	7.203
442.98	7.204
443.33	7.259
443.68	7.532
444.03	7.949
444.39	7.906
444.74	7.402
445.09	7.907
445.44	7.429
445.79	7.471
446.15	7.605
446.50	7.080
446.85	7.928
447.20	7.398
447.55	7.322
447.91	7.173
448.26	7.558
448.61	7.120
448.96	8.315
449.31	7.582
449.66	6.645
450.02	7.911
450.37	8.471
450.72	7.320
451.07	7.232
451.42	8.434
451.77	6.559
452.12	7.111
452.47	7.308
452.83	7.376
453.18	7.064
453.53	7.754
453.88	7.565
454.23	7.571
454.58	7.893
454.93	7.403
455.28	7.104
455.63	6.993
455.98	7.933
456.34	7.244
456.69	7.407
457.04	7.388
457.39	8.149
457.74	8.333
458.09	6.809
458.44	8.351
458.79	7.220
459.14	7.866
459.49	7.244
459.84	7.608
460.19	6.219
460.54	7.893
460.89	7.517
461.24	7.759
461.59	8.135
461.94	7.188
462.29	7.447
462.64	7.966
462.99	6.717
463.34	7.073
463.69	7.562
464.04	8.282
464.39	7.904
464.74	7.127
465.09	8.478
465.44	6.706
465.79	8.355
466.14	7.556
466.49	8.421
466.84	7.493
467.19	7.977
467.54	6.639
467.89	7.529
468.24	7.978
468.59	7.122
468.94	7.168
469.29	7.319
469.64	7.247
469.99	6.565
470.34	6.683
470.68	8.066
471.03	7.728
471.38	7.717
471.73	7.152
472.08	7.043
472.43	7.526
472.78	7.368
473.13	7.965
473.48	8.036
473.83	7.777
474.17	7.913
474.52	7.517
474.87	8.306
475.22	7.662
475.57	8.255
475.92	8.064
476.27	8.094
476.61	8.411
476.96	7.716
477.31	7.475
477.66	8.447
478.01	7.677
478.36	8.275
478.70	7.931
479.05	8.384
479.40	7.799
479.75	8.886
480.10	7.769
480.45	8.387
480.79	7.937
481.14	8.410
481.49	7.633
481.84	8.877
482.19	7.570
482.53	8.483
482.88	7.975
483.23	8.270
483.58	7.642
483.92	7.713
484.27	8.129
484.62	7.921
484.97	8.398
485.31	8.131
485.66	7.507
486.01	7.867
486.36	8.036
486.70	8.574
487.05	8.617
487.40	8.776
487.75	8.550
488.09	7.777
488.44	7.861
488.79	8.229
489.13	8.472
489.48	7.922
489.83	7.606
490.17	8.060
490.52	7.718
490.87	7.699
491.22	8.579
491.56	8.532
491.91	8.635
492.26	8.698
492.60	8.483
492.95	7.942
493.30	8.023
493.64	8.147
493.99	8.465
494.34	7.840
494.68	7.837
495.03	8.194
495.37	7.945
495.72	8.118
496.07	8.326
496.41	7.851
496.76	8.674
497.11	7.558
497.45	8.330
497.80	8.041
498.14	8.299
498.49	8.548
498.84	8.638
499.18	7.872
499.53	8.072
499.87	8.615
500.22	7.524
500.56	8.097
500.91	8.513
501.26	8.273
501.60	7.821
501.95	8.424
502.29	8.030
502.64	8.789
502.98	8.067
503.33	8.078
503.67	7.501
504.02	8.056
504.36	8.356
504.71	7.901
505.06	8.004
505.40	8.364
505.75	8.834
506.09	8.794
506.44	8.542
506.78	8.532
507.13	8.529
507.47	8.622
507.82	8.759
508.16	8.270
508.51	8.017
508.85	8.550
509.19	8.290
509.54	8.646
509.88	8.742
510.23	8.354
510.57	8.845
510.92	8.757
511.26	8.658
511.61	8.112
511.95	8.150
512.30	8.912
512.64	8.496
512.98	8.604
513.33	9.022
513.67	8.159
514.02	9.198
514.36	8.849
514.70	8.438
515.05	8.551
515.39	8.819
515.74	9.120
516.08	8.980
516.42	9.367
516.77	8.465
517.11	8.355
517.46	9.332
517.80	9.139
518.14	8.977
518.49	8.568
518.83	8.036
519.17	8.293
519.52	8.700
519.86	8.817
520.20	9.265
520.55	8.708
520.89	8.502
521.23	8.766
521.58	8.757
521.92	8.839
522.26	8.477
522.61	8.449
522.95	8.131
523.29	8.851
523.64	8.520
523.98	9.013
524.32	9.914
524.66	8.936
525.01	9.117
525.35	8.731
525.69	8.759
526.04	8.209
526.38	8.333
526.72	9.516
527.06	9.091
527.41	9.155
527.75	8.551
528.09	8.560
528.43	8.467
528.78	7.919
529.12	9.174
529.46	7.982
529.80	8.295
530.15	8.696
530.49	8.304
530.83	9.032
531.17	8.722
531.51	8.484
531.86	8.954
532.20	8.902
532.54	8.199
532.88	8.485
533.22	8.603
533.57	8.656
533.91	9.147
534.25	9.214
534.59	7.989
534.93	7.923
535.27	8.169
535.62	9.494
535.96	9.181
536.30	8.696
536.64	9.309
536.98	8.549
537.32	8.642
537.66	8.734
538.01	7.674
538.35	7.978
538.69	7.692
539.03	8.522
539.37	8.009
539.71	8.348
540.05	8.993
540.39	8.007
540.73	9.168
541.07	8.338
541.42	8.506
541.76	7.948
542.10	8.203
542.44	8.100
542.78	7.908
543.12	8.105
543.46	8.791
543.80	7.974
544.14	8.318
544.48	8.865
544.82	8.677
545.16	8.766
545.50	8.268
545.84	9.675
546.18	9.506
546.52	7.707
546.86	8.491
547.20	8.842
547.54	8.989
547.88	7.474
548.22	7.778
548.56	7.899
548.90	8.418
549.24	8.875
549.58	8.833
549.92	8.546
550.26	9.126
550.60	8.041
550.94	8.409
551.28	8.449
551.62	8.491
551.96	8.544
552.30	9.050
552.64	9.210
552.98	8.484
553.32	8.296
553.66	7.974
554.00	9.142
554.34	8.816
554.68	8.457
555.02	8.870
555.36	8.941
555.69	7.751
556.03	8.386
556.37	8.698
556.71	8.307
557.05	8.498
557.39	8.361
557.73	8.785
558.07	8.742
558.41	8.505
558.75	8.316
559.08	8.907
559.42	7.888
559.76	9.362
560.10	8.439
560.44	7.652
560.78	9.688
561.12	8.744
561.45	9.732
561.79	9.402
562.13	8.749
562.47	8.446
562.81	8.861
563.15	8.838
563.48	8.452
563.82	8.222
564.16	8.419
564.50	8.045
564.84	8.024
565.17	8.471
565.51	8.573
565.85	8.076
566.19	7.949
566.52	9.011
566.86	9.111
567.20	7.450
567.54	8.603
567.88	9.021
568.21	8.053
568.55	8.249
568.89	8.625
569.23	8.534
569.56	8.363
569.90	8.517
570.24	8.027
570.57	8.210
570.91	8.053
571.25	8.620
571.59	7.932
571.92	8.129
572.26	8.258
572.60	8.108
572.93	8.266
573.27	8.233
573.61	7.888
573.95	8.303
574.28	8.409
574.62	8.004
574.96	7.918
575.29	8.262
575.63	8.016
575.97	8.168
576.30	7.772
576.64	7.874
576.98	8.041
577.31	8.081
577.65	8.089
577.98	8.057
578.32	7.961
578.66	8.010
578.99	7.946
579.33	7.803
579.67	7.752
580.00	8.002
580.34	8.159
580.67	7.480
581.01	8.222
581.35	7.812
581.68	8.110
582.02	8.192
582.35	8.205
582.69	8.125
583.02	8.185
583.36	8.113
583.70	7.998
584.03	7.847
584.37	8.146
584.70	7.946
585.04	8.021
585.37	7.998
585.71	8.069
586.04	8.168
586.38	8.171
586.72	7.746
587.05	7.879
587.39	8.227
587.72	8.182
588.06	8.462
588.39	8.116
588.73	7.910
589.06	8.409
589.40	7.744
589.73	8.098
590.07	7.991
590.40	8.283
590.73	8.271
591.07	8.079
591.40	8.359
591.74	7.830
592.07	8.486
592.41	7.965
592.74	8.165
593.08	8.503
593.41	8.778
593.75	8.420
594.08	8.391
594.41	8.782
594.75	8.236
595.08	8.176
595.42	8.052
595.75	8.654
596.09	8.268
596.42	8.133
596.75	8.259
597.09	8.485
597.42	8.423
597.75	8.075
598.09	8.730
598.42	8.444
598.76	7.757
599.09	8.224
599.42	8.046
599.76	8.320
600.09	8.675
600.42	8.842
600.76	8.421
601.09	8.098
601.42	8.685
601.76	8.207
602.09	8.292
602.42	8.215
602.76	8.007
603.09	8.260
603.42	8.382
603.76	7.681
604.09	8.588
604.42	9.064
604.76	8.409
605.09	8.696
605.42	8.134
605.75	8.154
606.09	8.361
606.42	8.172
606.75	7.759
607.09	8.180
607.42	8.593
607.75	8.245
608.08	8.445
608.42	8.263
608.75	8.292
609.08	7.555
609.41	8.513
609.75	8.616
610.08	8.663
610.41	8.326
610.74	7.857
611.07	8.304
611.41	8.117
611.74	8.453
612.07	8.181
612.40	7.224
612.73	8.557
613.07	7.775
613.40	8.999
613.73	7.800
614.06	8.783
614.39	7.872
614.72	8.588
615.06	8.470
615.39	8.410
615.72	8.768
616.05	8.694
616.38	8.426
616.71	8.621
617.05	7.721
617.38	9.149
617.71	8.261
618.04	8.365
618.37	8.470
618.70	8.484
619.03	8.363
619.36	8.261
619.69	8.072
620.03	7.972
620.36	8.773
620.69	7.403
621.02	8.727
621.35	7.475
621.68	9.689
622.01	9.039
622.34	7.462
622.67	8.110
623.00	8.300
623.33	8.825
623.66	8.755
623.99	7.505
624.32	8.837
624.65	8.237
624.99	8.518
625.32	8.818
625.65	7.889
625.98	7.254
626.31	9.213
626.64	7.985
626.97	7.277
627.30	8.125
627.63	8.027
627.96	9.309
628.29	8.327
628.62	6.885
628.95	7.011
629.28	7.816
629.61	8.249
629.94	7.699
630.26	8.220
630.59	7.254
630.92	8.918
631.25	9.392
631.58	7.910
631.91	6.748
632.24	7.397
632.57	7.780
632.90	7.623
633.23	7.857
633.56	7.857
633.89	8.264
634.22	7.588
634.55	8.664
634.88	7.900
635.20	8.827
635.53	8.362
635.86	8.126
636.19	8.908
636.52	8.966
636.85	8.172
637.18	8.836
637.51	7.957
637.83	8.527
638.16	8.295
638.49	8.568
638.82	7.554
639.15	7.216
639.48	8.545
639.81	8.199
640.13	9.305
640.46	7.030
640.79	6.005
641.12	7.578
641.45	7.779
641.77	8.986
642.10	6.693
642.43	9.441
642.76	7.453
643.09	7.945
643.41	6.723
643.74	8.138
644.07	7.586
644.40	7.779
644.73	8.418
645.05	7.342
645.38	7.626
645.71	7.625
646.04	8.608
646.36	7.445
646.69	7.209
647.02	7.798
647.35	8.397
647.67	7.568
648.00	6.688
648.33	8.408
648.66	6.419
648.98	7.211
649.31	8.119
649.64	7.171
649.96	8.488
650.29	5.981
650.62	7.638
650.94	5.856
651.27	7.036
651.60	8.480
651.92	8.055
652.25	6.802
652.58	7.428
652.90	6.541
653.23	7.746
653.56	8.274
653.88	9.691
654.21	8.451
654.54	7.948
654.86	7.649
655.19	7.152
655.52	9.098
