SpectraSuite Data File
++++++++++++++++++++++++++++++++++++
Date: Thu May 14 14:56:20 PDT 2015
User: schluterlab
Dark Spectrum Present: Yes
Reference Spectrum Present: Yes
Number of Sampled Component Spectra: 1
Spectrometers: USB2E3373
Integration Time (usec): 3000 (USB2E3373)
Spectra Averaged: 3 (USB2E3373)
Boxcar Smoothing: 0 (USB2E3373)
Correct for Electrical Dark: No (USB2E3373)
Strobe/Lamp Enabled: No (USB2E3373)
Correct for Detector Non-linearity: No (USB2E3373)
Correct for Stray Light: No (USB2E3373)
Number of Pixels in Processed Spectrum: 2048
>>>>>Begin Processed Spectral Data<<<<<
178.53	0.000
178.91	242.857
179.29	-3300.000
179.67	-1800.000
180.04	207.143
180.42	150.000
180.80	240.000
181.18	-2400.000
181.56	-800.000
181.94	450.000
182.31	-425.000
182.69	366.667
183.07	-1050.000
183.45	450.000
183.83	-350.000
184.20	-800.000
184.58	2000.000
184.96	-700.000
185.34	-300.000
185.72	-180.000
186.09	300.000
186.47	1250.000
186.85	440.000
187.23	-133.333
187.61	-2400.000
187.98	360.000
188.36	275.000
188.74	-525.000
189.12	-500.000
189.49	-31.250
189.87	-187.500
190.25	-122.222
190.63	-420.000
191.00	-288.889
191.38	0.000
191.76	-600.000
192.14	-283.333
192.51	900.000
192.89	-50.000
193.27	0.000
193.65	-285.714
194.02	-1700.000
194.40	-342.857
194.78	185.714
195.15	0.000
195.53	-163.636
195.91	0.000
196.29	-300.000
196.66	-115.385
197.04	-3400.000
197.42	-228.571
197.79	-1150.000
198.17	-250.000
198.55	-242.857
198.92	-177.778
199.30	-337.500
199.68	-172.727
200.05	-57.143
200.43	-1450.000
200.81	357.143
201.18	0.000
201.56	366.667
201.94	0.000
202.31	833.333
202.69	-255.556
203.07	900.000
203.44	11.111
203.82	-500.000
204.19	-125.000
204.57	-333.333
204.95	-312.500
205.32	-2000.000
205.70	225.000
206.08	-233.333
206.45	-150.000
206.83	640.000
207.20	-316.667
207.58	-420.000
207.96	-266.667
208.33	-200.000
208.71	166.667
209.08	-216.667
209.46	0.000
209.84	566.667
210.21	1000.000
210.59	850.000
210.96	833.333
211.34	-225.000
211.71	-200.000
212.09	-1000.000
212.46	0.000
212.84	1150.000
213.22	-480.000
213.59	-400.000
213.97	-130.000
214.34	-666.667
214.72	333.333
215.09	-550.000
215.47	0.000
215.84	200.000
216.22	1300.000
216.59	-320.000
216.97	-280.000
217.34	-500.000
217.72	-262.500
218.09	-550.000
218.47	-550.000
218.84	0.000
219.22	480.000
219.59	-105.882
219.97	-75.000
220.34	1050.000
220.72	-155.556
221.09	-84.615
221.47	-266.667
221.84	-110.000
222.22	-285.714
222.59	0.000
222.97	-187.500
223.34	-460.000
223.72	-1800.000
224.09	-475.000
224.46	-650.000
224.84	-400.000
225.21	-385.714
225.59	-500.000
225.96	-775.000
226.34	-34.615
226.71	383.333
227.08	-800.000
227.46	-20.000
227.83	-500.000
228.21	-73.684
228.58	212.500
228.95	1300.000
229.33	-116.667
229.70	-170.000
230.08	-47.368
230.45	230.000
230.82	-600.000
231.20	-64.286
231.57	-133.333
231.95	-109.091
232.32	-36.364
232.69	-40.000
233.07	-525.000
233.44	-82.353
233.81	-220.000
234.19	-27.778
234.56	-86.364
234.93	-13.793
235.31	-68.421
235.68	-55.556
236.05	-90.000
236.43	-42.308
236.80	28.000
237.17	-40.741
237.55	-36.364
237.92	-280.000
238.29	-38.710
238.67	-31.818
239.04	-27.778
239.41	-47.619
239.79	-30.435
240.16	-25.926
240.53	-36.957
240.91	-9.804
241.28	-22.951
241.65	-4.478
242.02	-13.514
242.40	-27.692
242.77	-14.667
243.14	-24.390
243.51	-17.105
243.89	-24.359
244.26	-7.921
244.63	-9.804
245.00	-2.804
245.38	-4.386
245.75	-20.354
246.12	-0.794
246.49	-10.078
246.87	-4.286
247.24	-3.311
247.61	0.000
247.98	0.671
248.36	-2.469
248.73	-4.908
249.10	-3.279
249.47	3.483
249.84	2.094
250.22	-3.109
250.59	0.556
250.96	4.091
251.33	0.000
251.70	3.419
252.08	5.833
252.45	4.098
252.82	-1.653
253.19	-2.344
253.56	3.042
253.94	1.923
254.31	1.515
254.68	5.594
255.05	6.189
255.42	2.381
255.79	2.913
256.16	-0.662
256.54	2.980
256.91	4.590
257.28	2.295
257.65	1.911
258.02	0.590
258.39	3.134
258.76	5.810
259.14	5.747
259.51	2.305
259.88	2.833
260.25	5.556
260.62	5.753
260.99	7.104
261.36	5.630
261.73	4.775
262.10	3.846
262.47	4.558
262.85	5.808
263.22	1.039
263.59	-2.632
263.96	3.325
264.33	0.512
264.70	4.444
265.07	6.205
265.44	6.122
265.81	2.778
266.18	5.215
266.55	2.902
266.92	1.822
267.29	3.282
267.66	3.548
268.03	4.148
268.40	5.010
268.77	2.961
269.14	2.203
269.51	3.509
269.88	5.533
270.25	3.823
270.62	2.110
270.99	3.636
271.36	5.545
271.73	3.536
272.10	6.814
272.47	3.006
272.84	3.414
273.21	3.407
273.58	4.839
273.95	3.077
274.32	3.802
274.69	3.482
275.06	4.762
275.43	4.251
275.80	3.527
276.17	3.889
276.54	3.358
276.91	1.968
277.28	5.244
277.65	3.411
278.02	2.757
278.39	3.986
278.76	3.163
279.13	3.546
279.50	4.639
279.87	4.293
280.23	1.056
280.60	6.271
280.97	4.112
281.34	4.244
281.71	6.768
282.08	3.987
282.45	2.291
282.82	3.454
283.19	1.454
283.56	3.279
283.92	4.354
284.29	6.477
284.66	4.433
285.03	2.724
285.40	4.637
285.77	4.334
286.14	3.817
286.51	3.653
286.87	3.160
287.24	4.217
287.61	3.737
287.98	3.021
288.35	3.107
288.72	5.325
289.08	5.710
289.45	3.846
289.82	4.367
290.19	4.598
290.56	5.775
290.93	4.993
291.29	5.372
291.66	5.096
292.03	3.528
292.40	4.626
292.77	4.178
293.13	4.871
293.50	3.679
293.87	3.356
294.24	6.000
294.60	6.068
294.97	2.953
295.34	5.378
295.71	5.044
296.08	5.426
296.44	3.554
296.81	4.263
297.18	4.732
297.55	5.307
297.91	5.457
298.28	4.384
298.65	5.945
299.02	4.959
299.38	6.751
299.75	5.374
300.12	6.134
300.48	6.336
300.85	5.062
301.22	6.376
301.59	5.251
301.95	7.458
302.32	5.889
302.69	6.243
303.05	5.876
303.42	5.876
303.79	6.146
304.15	6.204
304.52	5.814
304.89	6.702
305.25	6.315
305.62	6.270
305.99	7.526
306.35	7.258
306.72	6.618
307.09	6.396
307.45	7.350
307.82	6.660
308.19	7.972
308.55	6.654
308.92	7.108
309.29	7.088
309.65	7.505
310.02	6.733
310.38	6.890
310.75	6.990
311.12	8.533
311.48	7.625
311.85	8.357
312.22	8.065
312.58	9.014
312.95	7.553
313.31	9.033
313.68	9.249
314.05	10.569
314.41	9.107
314.78	8.992
315.14	8.893
315.51	10.619
315.87	10.891
316.24	9.863
316.61	11.279
316.97	9.502
317.34	10.582
317.70	10.830
318.07	11.111
318.43	11.480
318.80	10.953
319.16	10.730
319.53	10.111
319.89	9.465
320.26	11.566
320.62	10.993
320.99	11.542
321.35	11.183
321.72	12.744
322.08	11.001
322.45	12.376
322.81	11.823
323.18	12.301
323.54	12.672
323.91	14.591
324.27	13.769
324.64	14.777
325.00	14.760
325.37	14.578
325.73	16.446
326.10	16.464
326.46	16.531
326.83	16.493
327.19	17.795
327.56	17.233
327.92	18.568
328.29	18.306
328.65	19.012
329.01	18.528
329.38	19.545
329.74	20.719
330.11	21.404
330.47	20.640
330.84	19.983
331.20	21.417
331.56	20.104
331.93	21.674
332.29	23.220
332.66	22.924
333.02	22.194
333.38	22.651
333.75	22.391
334.11	23.436
334.48	22.772
334.84	23.025
335.20	23.594
335.57	23.019
335.93	23.636
336.29	22.962
336.66	21.362
337.02	22.993
337.38	23.980
337.75	22.479
338.11	24.558
338.47	24.069
338.84	24.450
339.20	22.915
339.56	24.382
339.93	22.496
340.29	23.430
340.65	22.384
341.02	25.379
341.38	24.656
341.74	23.487
342.11	24.457
342.47	22.399
342.83	25.362
343.20	24.285
343.56	24.940
343.92	24.179
344.28	23.672
344.65	25.349
345.01	24.415
345.37	23.717
345.73	24.786
346.10	24.727
346.46	24.446
346.82	23.521
347.19	25.363
347.55	23.900
347.91	25.186
348.27	24.810
348.63	25.590
349.00	25.578
349.36	25.130
349.72	24.702
350.08	25.632
350.45	24.183
350.81	24.510
351.17	25.038
351.53	25.398
351.89	25.968
352.26	24.328
352.62	24.254
352.98	25.420
353.34	24.421
353.70	25.578
354.07	25.633
354.43	25.057
354.79	25.206
355.15	25.313
355.51	25.439
355.87	24.383
356.24	26.464
356.60	25.277
356.96	26.464
357.32	24.238
357.68	24.597
358.04	25.973
358.40	25.896
358.77	26.316
359.13	26.883
359.49	25.651
359.85	25.743
360.21	26.184
360.57	25.844
360.93	26.798
361.29	27.439
361.66	26.647
362.02	27.209
362.38	26.915
362.74	27.235
363.10	26.754
363.46	26.524
363.82	26.136
364.18	27.516
364.54	26.625
364.90	27.893
365.26	27.724
365.62	27.000
365.98	27.502
366.35	27.718
366.71	27.279
367.07	27.064
367.43	27.315
367.79	28.467
368.15	28.763
368.51	28.146
368.87	26.911
369.23	27.933
369.59	28.142
369.95	27.383
370.31	28.224
370.67	28.680
371.03	29.432
371.39	28.005
371.75	29.780
372.11	28.117
372.47	29.384
372.83	29.516
373.19	28.486
373.55	28.997
373.91	29.039
374.27	27.943
374.63	29.364
374.99	29.708
375.35	29.610
375.71	28.645
376.07	29.761
376.42	29.912
376.78	30.392
377.14	30.193
377.50	30.424
377.86	29.926
378.22	30.120
378.58	29.786
378.94	31.045
379.30	31.049
379.66	30.982
380.02	31.968
380.38	31.279
380.74	31.211
381.09	30.952
381.45	31.591
381.81	33.138
382.17	31.235
382.53	31.871
382.89	32.280
383.25	32.356
383.61	31.887
383.97	31.567
384.32	31.758
384.68	31.903
385.04	32.215
385.40	32.823
385.76	33.587
386.12	31.897
386.48	32.765
386.83	34.505
387.19	31.692
387.55	32.042
387.91	32.420
388.27	33.430
388.62	32.932
388.98	32.205
389.34	32.764
389.70	34.108
390.06	33.037
390.42	33.072
390.77	34.437
391.13	32.746
391.49	33.756
391.85	32.606
392.20	33.274
392.56	33.018
392.92	33.097
393.28	32.781
393.64	33.296
393.99	33.469
394.35	33.762
394.71	34.371
395.07	33.533
395.42	32.496
395.78	34.430
396.14	34.878
396.50	33.789
396.85	33.035
397.21	34.024
397.57	32.686
397.92	34.250
398.28	32.754
398.64	33.924
399.00	32.827
399.35	33.979
399.71	33.804
400.07	34.250
400.42	33.353
400.78	33.912
401.14	33.409
401.49	34.224
401.85	33.547
402.21	33.314
402.57	34.918
402.92	34.220
403.28	33.255
403.63	32.518
403.99	33.254
404.35	32.746
404.70	32.691
405.06	33.261
405.42	33.841
405.77	33.642
406.13	33.063
406.49	33.277
406.84	33.075
407.20	33.594
407.55	33.979
407.91	34.129
408.27	32.391
408.62	33.450
408.98	33.314
409.34	31.730
409.69	33.313
410.05	32.239
410.40	33.121
410.76	33.427
411.11	33.606
411.47	32.924
411.83	33.980
412.18	33.735
412.54	32.247
412.89	33.586
413.25	32.731
413.60	32.740
413.96	34.033
414.31	33.371
414.67	33.572
415.03	33.538
415.38	33.165
415.74	33.965
416.09	33.806
416.45	32.436
416.80	33.660
417.16	34.163
417.51	33.998
417.87	33.906
418.22	34.132
418.58	33.953
418.93	34.750
419.29	34.834
419.64	34.334
420.00	33.353
420.35	34.194
420.71	34.233
421.06	34.388
421.42	34.346
421.77	34.303
422.12	35.307
422.48	34.460
422.83	36.583
423.19	36.286
423.54	36.892
423.90	35.229
424.25	35.840
424.61	35.419
424.96	35.420
425.31	37.208
425.67	36.339
426.02	36.801
426.38	37.141
426.73	37.667
427.09	37.832
427.44	37.794
427.79	37.811
428.15	37.500
428.50	37.416
428.85	38.002
429.21	38.617
429.56	37.266
429.92	37.494
430.27	37.542
430.62	38.935
430.98	38.465
431.33	38.514
431.68	38.458
432.04	39.411
432.39	38.190
432.74	39.098
433.10	39.805
433.45	38.685
433.80	39.700
434.16	38.120
434.51	40.288
434.86	40.825
435.22	40.489
435.57	39.976
435.92	39.733
436.28	39.306
436.63	41.617
436.98	39.291
437.34	41.488
437.69	40.286
438.04	40.137
438.39	40.322
438.75	39.513
439.10	40.751
439.45	40.637
439.81	40.734
440.16	40.161
440.51	41.416
440.86	40.133
441.22	40.622
441.57	41.352
441.92	40.883
442.27	42.576
442.63	41.431
442.98	41.782
443.33	41.084
443.68	41.427
444.03	41.863
444.39	41.886
444.74	41.603
445.09	40.902
445.44	42.518
445.79	42.002
446.15	41.624
446.50	41.034
446.85	41.148
447.20	41.925
447.55	42.364
447.91	42.670
448.26	42.970
448.61	41.764
448.96	43.240
449.31	42.312
449.66	42.375
450.02	42.247
450.37	41.982
450.72	42.626
451.07	43.223
451.42	42.692
451.77	43.413
452.12	42.551
452.47	43.018
452.83	43.412
453.18	42.790
453.53	43.079
453.88	42.684
454.23	42.938
454.58	43.471
454.93	43.447
455.28	44.371
455.63	42.752
455.98	43.575
456.34	43.345
456.69	44.092
457.04	44.740
457.39	44.013
457.74	43.904
458.09	43.602
458.44	43.103
458.79	43.218
459.14	43.209
459.49	44.029
459.84	44.596
460.19	42.810
460.54	44.747
460.89	43.833
461.24	44.253
461.59	44.881
461.94	43.754
462.29	44.681
462.64	44.780
462.99	43.817
463.34	43.997
463.69	43.845
464.04	45.581
464.39	42.489
464.74	43.786
465.09	44.521
465.44	44.474
465.79	44.104
466.14	43.095
466.49	44.053
466.84	45.399
467.19	43.988
467.54	44.066
467.89	43.333
468.24	44.211
468.59	43.833
468.94	43.531
469.29	43.971
469.64	43.992
469.99	44.614
470.34	43.255
470.68	45.660
471.03	45.318
471.38	45.389
471.73	45.644
472.08	45.622
472.43	44.792
472.78	44.899
473.13	44.501
473.48	44.773
473.83	45.270
474.17	44.783
474.52	46.182
474.87	44.850
475.22	45.183
475.57	44.860
475.92	44.649
476.27	44.409
476.61	44.548
476.96	44.838
477.31	45.693
477.66	45.960
478.01	45.806
478.36	44.566
478.70	46.059
479.05	46.268
479.40	45.656
479.75	45.485
480.10	44.623
480.45	45.624
480.79	46.077
481.14	46.278
481.49	45.934
481.84	44.386
482.19	46.280
482.53	46.699
482.88	45.680
483.23	46.109
483.58	45.852
483.92	45.080
484.27	45.385
484.62	45.050
484.97	44.907
485.31	43.858
485.66	41.075
486.01	40.406
486.36	42.033
486.70	44.621
487.05	47.088
487.40	45.902
487.75	45.852
488.09	45.309
488.44	45.129
488.79	45.025
489.13	44.605
489.48	44.427
489.83	45.392
490.17	45.808
490.52	44.745
490.87	46.320
491.22	46.707
491.56	45.648
491.91	45.966
492.26	46.646
492.60	46.261
492.95	46.599
493.30	46.437
493.64	46.781
493.99	45.614
494.34	45.427
494.68	46.809
495.03	46.696
495.37	46.693
495.72	47.302
496.07	46.713
496.41	44.745
496.76	46.038
497.11	45.648
497.45	46.483
497.80	47.579
498.14	46.531
498.49	46.094
498.84	46.938
499.18	46.334
499.53	46.457
499.87	46.242
500.22	46.082
500.56	46.109
500.91	46.453
501.26	47.818
501.60	46.443
501.95	46.591
502.29	46.775
502.64	46.874
502.98	46.721
503.33	45.572
503.67	47.013
504.02	45.841
504.36	47.721
504.71	46.624
505.06	47.112
505.40	47.532
505.75	47.404
506.09	46.639
506.44	47.772
506.78	47.936
507.13	47.211
507.47	47.371
507.82	47.064
508.16	47.610
508.51	47.398
508.85	47.048
509.19	47.229
509.54	47.743
509.88	47.450
510.23	47.790
510.57	47.366
510.92	47.557
511.26	47.138
511.61	46.789
511.95	46.803
512.30	47.218
512.64	46.027
512.98	47.174
513.33	47.833
513.67	48.496
514.02	48.441
514.36	47.724
514.70	47.865
515.05	49.114
515.39	47.664
515.74	49.099
516.08	47.861
516.42	48.980
516.77	47.792
517.11	46.777
517.46	48.462
517.80	49.172
518.14	48.368
518.49	49.078
518.83	48.483
519.17	47.604
519.52	47.432
519.86	49.155
520.20	48.456
520.55	47.755
520.89	48.818
521.23	48.018
521.58	49.718
521.92	48.669
522.26	48.797
522.61	48.611
522.95	48.616
523.29	48.448
523.64	48.543
523.98	48.089
524.32	50.716
524.66	48.549
525.01	48.641
525.35	49.282
525.69	47.912
526.04	46.843
526.38	48.908
526.72	49.135
527.06	48.915
527.41	48.571
527.75	48.812
528.09	46.694
528.43	47.069
528.78	47.746
529.12	47.878
529.46	48.173
529.80	48.055
530.15	48.058
530.49	48.873
530.83	48.288
531.17	49.940
531.51	49.218
531.86	48.017
532.20	48.232
532.54	47.277
532.88	48.606
533.22	47.024
533.57	46.913
533.91	47.363
534.25	47.880
534.59	47.414
534.93	46.972
535.27	47.155
535.62	47.186
535.96	48.402
536.30	46.357
536.64	48.709
536.98	48.585
537.32	47.716
537.66	49.095
538.01	46.586
538.35	45.798
538.69	47.055
539.03	48.007
539.37	46.938
539.71	47.207
540.05	48.441
540.39	46.516
540.73	46.509
541.07	47.823
541.42	46.131
541.76	45.967
542.10	46.864
542.44	46.102
542.78	47.141
543.12	47.080
543.46	45.910
543.80	45.683
544.14	46.918
544.48	47.872
544.82	47.397
545.16	47.406
545.50	45.956
545.84	45.254
546.18	47.531
546.52	47.643
546.86	46.792
547.20	47.074
547.54	47.191
547.88	47.197
548.22	46.491
548.56	46.284
548.90	47.940
549.24	46.809
549.58	46.498
549.92	47.130
550.26	47.055
550.60	47.160
550.94	47.671
551.28	45.875
551.62	48.315
551.96	46.861
552.30	46.590
552.64	45.986
552.98	46.663
553.32	47.460
553.66	46.881
554.00	46.469
554.34	47.812
554.68	45.126
555.02	46.124
555.36	47.074
555.69	45.612
556.03	45.082
556.37	46.058
556.71	46.100
557.05	46.070
557.39	47.711
557.73	45.178
558.07	46.026
558.41	46.379
558.75	46.450
559.08	47.738
559.42	45.130
559.76	46.744
560.10	46.149
560.44	46.900
560.78	46.375
561.12	46.613
561.45	45.742
561.79	46.154
562.13	46.827
562.47	45.006
562.81	47.089
563.15	46.528
563.48	45.805
563.82	46.312
564.16	45.609
564.50	44.934
564.84	45.841
565.17	46.118
565.51	44.764
565.85	46.021
566.19	43.952
566.52	44.939
566.86	46.180
567.20	43.883
567.54	44.450
567.88	44.343
568.21	44.121
568.55	43.981
568.89	43.078
569.23	43.177
569.56	43.103
569.90	42.124
570.24	42.934
570.57	41.982
570.91	41.090
571.25	41.597
571.59	40.857
571.92	41.205
572.26	40.948
572.60	40.868
572.93	41.024
573.27	40.770
573.61	40.233
573.95	40.350
574.28	39.851
574.62	40.041
574.96	39.943
575.29	39.150
575.63	39.871
575.97	39.281
576.30	39.946
576.64	39.728
576.98	39.749
577.31	39.838
577.65	39.435
577.98	38.893
578.32	38.776
578.66	38.824
578.99	39.033
579.33	40.084
579.67	39.619
580.00	39.402
580.34	39.114
580.67	38.967
581.01	39.507
581.35	38.515
581.68	38.864
582.02	38.648
582.35	40.020
582.69	39.891
583.02	39.768
583.36	39.515
583.70	39.650
584.03	39.645
584.37	40.163
584.70	39.364
585.04	38.642
585.37	39.174
585.71	39.115
586.04	38.639
586.38	39.763
586.72	39.584
587.05	38.961
587.39	39.965
587.72	39.426
588.06	40.111
588.39	40.179
588.73	40.026
589.06	40.576
589.40	40.904
589.73	40.681
590.07	40.418
590.40	40.297
590.73	40.368
591.07	41.251
591.40	41.563
591.74	41.494
592.07	41.575
592.41	40.536
592.74	40.185
593.08	40.701
593.41	39.924
593.75	39.425
594.08	40.200
594.41	40.769
594.75	39.887
595.08	39.872
595.42	40.779
595.75	39.974
596.09	41.037
596.42	40.846
596.75	41.297
597.09	41.576
597.42	40.564
597.75	40.455
598.09	42.024
598.42	39.646
598.76	39.855
599.09	39.836
599.42	39.490
599.76	39.881
600.09	40.274
600.42	39.439
600.76	39.993
601.09	39.628
601.42	40.027
601.76	40.276
602.09	40.100
602.42	39.477
602.76	40.775
603.09	40.896
603.42	40.137
603.76	39.429
604.09	41.270
604.42	40.734
604.76	39.954
605.09	41.045
605.42	40.670
605.75	40.154
606.09	39.231
606.42	39.548
606.75	39.280
607.09	39.670
607.42	39.538
607.75	40.094
608.08	39.937
608.42	39.500
608.75	40.381
609.08	39.219
609.41	40.185
609.75	41.250
610.08	41.601
610.41	40.229
610.74	39.748
611.07	40.409
611.41	40.897
611.74	41.016
612.07	41.187
612.40	41.445
612.73	41.858
613.07	40.978
613.40	41.386
613.73	40.636
614.06	40.677
614.39	40.622
614.72	40.175
615.06	39.894
615.39	40.793
615.72	39.905
616.05	40.797
616.38	41.473
616.71	40.387
617.05	39.989
617.38	41.306
617.71	41.307
618.04	41.230
618.37	42.131
618.70	43.100
619.03	41.637
619.36	41.615
619.69	41.576
620.03	40.866
620.36	40.920
620.69	41.949
621.02	42.782
621.35	44.267
621.68	44.902
622.01	42.206
622.34	41.632
622.67	42.474
623.00	41.970
623.33	42.269
623.66	41.115
623.99	41.870
624.32	43.405
624.65	41.763
624.99	42.198
625.32	41.346
625.65	42.886
625.98	42.508
626.31	42.027
626.64	43.077
626.97	43.136
627.30	42.293
627.63	41.635
627.96	44.069
628.29	43.658
628.62	43.745
628.95	44.435
629.28	44.095
629.61	44.949
629.94	44.017
630.26	42.712
630.59	43.351
630.92	41.905
631.25	44.812
631.58	46.798
631.91	44.424
632.24	44.476
632.57	44.782
632.90	45.838
633.23	45.714
633.56	45.612
633.89	44.628
634.22	45.426
634.55	45.511
634.88	46.212
