SpectraSuite Data File
++++++++++++++++++++++++++++++++++++
Date: Thu May 14 14:40:58 PDT 2015
User: schluterlab
Dark Spectrum Present: Yes
Reference Spectrum Present: Yes
Number of Sampled Component Spectra: 1
Spectrometers: USB2E3373
Integration Time (usec): 3000 (USB2E3373)
Spectra Averaged: 3 (USB2E3373)
Boxcar Smoothing: 0 (USB2E3373)
Correct for Electrical Dark: No (USB2E3373)
Strobe/Lamp Enabled: No (USB2E3373)
Correct for Detector Non-linearity: No (USB2E3373)
Correct for Stray Light: No (USB2E3373)
Number of Pixels in Processed Spectrum: 2048
>>>>>Begin Processed Spectral Data<<<<<
178.53	0.000
178.91	-142.857
179.29	-1000.000
179.67	-100.000
180.04	71.429
180.42	-120.000
180.80	-20.000
181.18	800.000
181.56	1800.000
181.94	-200.000
182.31	25.000
182.69	-333.333
183.07	650.000
183.45	100.000
183.83	116.667
184.20	366.667
184.58	-300.000
184.96	100.000
185.34	122.222
185.72	400.000
186.09	11.111
186.47	-350.000
186.85	-20.000
187.23	77.778
187.61	400.000
187.98	-200.000
188.36	-375.000
188.74	75.000
189.12	1000.000
189.49	62.500
189.87	50.000
190.25	88.889
190.63	180.000
191.00	22.222
191.38	0.000
191.76	275.000
192.14	200.000
192.51	-900.000
192.89	350.000
193.27	0.000
193.65	185.714
194.02	-300.000
194.40	242.857
194.78	-14.286
195.15	0.000
195.53	154.545
195.91	0.000
196.29	225.000
196.66	76.923
197.04	-200.000
197.42	71.429
197.79	400.000
198.17	100.000
198.55	142.857
198.92	100.000
199.30	137.500
199.68	145.455
200.05	78.571
200.43	450.000
200.81	-14.286
201.18	0.000
201.56	77.778
201.94	0.000
202.31	-0.000
202.69	144.444
203.07	-700.000
203.44	44.444
203.82	75.000
204.19	83.333
204.57	133.333
204.95	175.000
205.32	1100.000
205.70	-400.000
206.08	233.333
206.45	150.000
206.83	-100.000
207.20	250.000
207.58	140.000
207.96	250.000
208.33	316.667
208.71	-58.333
209.08	266.667
209.46	0.000
209.84	-33.333
210.21	-550.000
210.59	-250.000
210.96	400.000
211.34	300.000
211.71	137.500
212.09	800.000
212.46	0.000
212.84	100.000
213.22	60.000
213.59	300.000
213.97	190.000
214.34	366.667
214.72	-166.667
215.09	450.000
215.47	0.000
215.84	-57.143
216.22	-300.000
216.59	320.000
216.97	80.000
217.34	100.000
217.72	225.000
218.09	200.000
218.47	225.000
218.84	0.000
219.22	-300.000
219.59	58.824
219.97	65.000
220.34	-350.000
220.72	0.000
221.09	138.462
221.47	133.333
221.84	100.000
222.22	42.857
222.59	0.000
222.97	175.000
223.34	140.000
223.72	500.000
224.09	125.000
224.46	25.000
224.84	200.000
225.21	157.143
225.59	175.000
225.96	200.000
226.34	69.231
226.71	-133.333
227.08	500.000
227.46	40.000
227.83	250.000
228.21	63.158
228.58	-75.000
228.95	-200.000
229.33	91.667
229.70	40.000
230.08	152.632
230.45	-60.000
230.82	300.000
231.20	135.714
231.57	100.000
231.95	27.273
232.32	200.000
232.69	105.000
233.07	75.000
233.44	76.471
233.81	140.000
234.19	100.000
234.56	50.000
234.93	48.276
235.31	36.842
235.68	72.222
236.05	10.000
236.43	80.769
236.80	112.000
237.17	33.333
237.55	69.697
237.92	70.000
238.29	61.290
238.67	11.364
239.04	44.444
239.41	40.476
239.79	34.783
240.16	31.481
240.53	30.435
240.91	25.490
241.28	31.148
241.65	43.284
242.02	31.081
242.40	15.385
242.77	32.000
243.14	26.829
243.51	15.789
243.89	7.692
244.26	40.594
244.63	27.451
245.00	28.972
245.38	20.175
245.75	9.735
246.12	19.048
246.49	17.054
246.87	26.429
247.24	27.152
247.61	26.974
247.98	24.161
248.36	17.901
248.73	14.724
249.10	18.033
249.47	26.368
249.84	24.607
250.22	19.171
250.59	20.000
250.96	25.455
251.33	16.837
251.70	21.368
252.08	21.667
252.45	21.721
252.82	21.488
253.19	16.797
253.56	19.011
253.94	18.462
254.31	19.697
254.68	19.930
255.05	21.173
255.42	19.388
255.79	13.592
256.16	19.536
256.54	14.570
256.91	19.672
257.28	20.000
257.65	16.879
258.02	15.929
258.39	16.809
258.76	24.159
259.14	20.977
259.51	19.308
259.88	18.697
260.25	19.444
260.62	17.534
260.99	22.951
261.36	19.839
261.73	17.507
262.10	17.308
262.47	18.767
262.85	20.960
263.22	15.325
263.59	12.895
263.96	16.368
264.33	14.578
264.70	21.235
265.07	18.616
265.44	20.408
265.81	16.667
266.18	18.821
266.55	18.080
266.92	19.590
267.29	18.381
267.66	18.625
268.03	18.996
268.40	20.251
268.77	14.806
269.14	17.181
269.51	19.298
269.88	15.369
270.25	15.694
270.62	17.722
270.99	21.818
271.36	19.604
271.73	18.468
272.10	19.238
272.47	18.036
272.84	17.269
273.21	16.834
273.58	19.355
273.95	15.577
274.32	14.639
274.69	16.828
275.06	16.300
275.43	16.081
275.80	17.989
276.17	15.185
276.54	17.164
276.91	15.742
277.28	18.445
277.65	17.953
278.02	17.647
278.39	17.391
278.76	15.290
279.13	16.844
279.50	17.869
279.87	16.816
280.23	12.148
280.60	16.102
280.97	17.434
281.34	16.638
281.71	17.090
282.08	14.452
282.45	15.876
282.82	16.327
283.19	14.701
283.56	14.590
283.92	16.366
284.29	16.904
284.66	16.092
285.03	12.500
285.40	17.002
285.77	16.099
286.14	17.405
286.51	17.199
286.87	15.798
287.24	16.717
287.61	16.741
287.98	15.559
288.35	16.864
288.72	15.533
289.08	16.545
289.45	14.497
289.82	17.169
290.19	15.230
290.56	15.493
290.93	14.408
291.29	16.116
291.66	14.601
292.03	13.161
292.40	15.918
292.77	13.477
293.13	15.968
293.50	13.403
293.87	14.228
294.24	15.067
294.60	14.791
294.97	13.691
295.34	14.853
295.71	13.745
296.08	13.049
296.44	11.887
296.81	13.520
297.18	13.200
297.55	11.675
297.91	12.811
298.28	13.152
298.65	14.625
299.02	11.806
299.38	13.387
299.75	14.720
300.12	14.352
300.48	14.055
300.85	13.161
301.22	14.206
301.59	12.329
301.95	12.994
302.32	14.667
302.69	13.143
303.05	13.711
303.42	13.525
303.79	13.438
304.15	13.249
304.52	11.522
304.89	14.450
305.25	13.147
305.62	12.853
305.99	13.196
306.35	12.097
306.72	13.961
307.09	12.995
307.45	13.147
307.82	12.513
308.19	13.017
308.55	14.368
308.92	12.950
309.29	14.176
309.65	12.963
310.02	12.970
310.38	12.697
310.75	13.204
311.12	15.244
311.48	13.783
311.85	14.055
312.22	13.757
312.58	13.709
312.95	13.862
313.31	13.369
313.68	14.744
314.05	15.357
314.41	14.936
314.78	14.441
315.14	15.517
315.51	14.312
315.87	14.761
316.24	16.256
316.61	16.163
316.97	15.475
317.34	14.991
317.70	17.118
318.07	15.697
318.43	16.837
318.80	16.639
319.16	15.794
319.53	15.938
319.89	15.425
320.26	16.904
320.62	16.755
320.99	16.528
321.35	16.821
321.72	16.372
322.08	16.952
322.45	17.525
322.81	17.599
323.18	17.434
323.54	16.983
323.91	17.171
324.27	17.212
324.64	19.228
325.00	16.418
325.37	18.182
325.73	18.099
326.10	17.924
326.46	18.485
326.83	19.295
327.19	17.480
327.56	19.684
327.92	18.647
328.29	18.306
328.65	17.672
329.01	18.866
329.38	19.377
329.74	19.264
330.11	18.836
330.47	18.955
330.84	18.346
331.20	20.250
331.56	18.371
331.93	19.582
332.29	19.153
332.66	18.355
333.02	19.598
333.38	19.379
333.75	19.276
334.11	18.766
334.48	18.399
334.84	20.221
335.20	20.151
335.57	20.236
335.93	18.760
336.29	18.802
336.66	18.923
337.02	18.980
337.38	18.963
337.75	19.256
338.11	18.503
338.47	20.265
338.84	18.613
339.20	17.944
339.56	18.863
339.93	20.443
340.29	18.680
340.65	18.167
341.02	21.548
341.38	19.968
341.74	19.048
342.11	19.308
342.47	18.348
342.83	19.485
343.20	20.278
343.56	20.048
343.92	20.256
344.28	19.453
344.65	20.078
345.01	19.579
345.37	19.440
345.73	18.862
346.10	20.281
346.46	18.908
346.82	19.476
347.19	20.168
347.55	20.410
347.91	19.762
348.27	19.196
348.63	20.183
349.00	18.195
349.36	19.703
349.72	19.643
350.08	20.357
350.45	18.935
350.81	19.985
351.17	19.098
351.53	19.712
351.89	20.121
352.26	20.149
352.62	20.224
352.98	19.389
353.34	18.223
353.70	20.570
354.07	20.566
354.43	19.362
354.79	18.998
355.15	20.015
355.51	21.345
355.87	21.167
356.24	20.837
356.60	19.438
356.96	19.422
357.32	20.297
357.68	20.132
358.04	20.060
358.40	20.373
358.77	19.810
359.13	20.827
359.49	19.182
359.85	20.740
360.21	20.086
360.57	20.818
360.93	20.592
361.29	21.684
361.66	21.144
362.02	20.946
362.38	21.082
362.74	20.251
363.10	21.252
363.46	21.676
363.82	19.886
364.18	21.393
364.54	21.093
364.90	21.940
365.26	20.897
365.62	21.267
365.98	20.762
366.35	21.007
366.71	22.789
367.07	20.230
367.43	21.602
367.79	22.628
368.15	22.140
368.51	22.801
368.87	21.816
369.23	20.600
369.59	22.199
369.95	22.380
370.31	23.025
370.67	22.283
371.03	23.269
371.39	22.498
371.75	22.696
372.11	22.493
372.47	22.410
372.83	24.149
373.19	22.081
373.55	22.629
373.91	22.836
374.27	23.545
374.63	23.816
374.99	22.215
375.35	24.026
375.71	23.806
376.07	23.434
376.42	24.811
376.78	24.736
377.14	24.017
377.50	24.162
377.86	23.892
378.22	24.132
378.58	24.554
378.94	24.883
379.30	24.429
379.66	24.633
380.02	24.639
380.38	24.827
380.74	25.239
381.09	25.958
381.45	25.966
381.81	26.464
382.17	26.485
382.53	26.784
382.89	26.129
383.25	27.022
383.61	26.447
383.97	26.737
384.32	28.230
384.68	27.378
385.04	27.993
385.40	28.285
385.76	28.605
386.12	28.007
386.48	29.176
386.83	28.963
387.19	27.984
387.55	28.932
387.91	29.053
388.27	28.580
388.62	29.038
388.98	28.708
389.34	30.878
389.70	30.331
390.06	30.610
390.42	30.663
390.77	30.765
391.13	30.340
391.49	31.099
391.85	30.909
392.20	31.732
392.56	31.719
392.92	30.534
393.28	31.675
393.64	31.508
393.99	31.784
394.35	32.886
394.71	32.515
395.07	31.916
395.42	31.468
395.78	33.516
396.14	32.145
396.50	32.363
396.85	32.320
397.21	33.136
397.57	32.568
397.92	33.734
398.28	32.265
398.64	33.524
399.00	32.304
399.35	34.188
399.71	32.826
400.07	34.026
400.42	34.459
400.78	33.738
401.14	34.661
401.49	33.769
401.85	34.593
402.21	34.762
402.57	35.915
402.92	36.052
403.28	34.660
403.63	34.785
403.99	35.333
404.35	34.451
404.70	35.524
405.06	35.489
405.42	35.773
405.77	35.605
406.13	35.440
406.49	35.642
406.84	35.956
407.20	35.048
407.55	36.099
407.91	36.329
408.27	36.749
408.62	37.638
408.98	36.274
409.34	36.305
409.69	37.206
410.05	37.632
410.40	37.413
410.76	37.185
411.11	37.639
411.47	37.224
411.83	37.390
412.18	38.614
412.54	38.411
412.89	38.300
413.25	38.600
413.60	37.679
413.96	39.044
414.31	37.734
414.67	37.030
415.03	38.462
415.38	39.344
415.74	38.546
416.09	39.482
416.45	38.948
416.80	38.923
417.16	39.719
417.51	39.290
417.87	39.362
418.22	38.623
418.58	40.458
418.93	39.115
419.29	39.519
419.64	40.516
420.00	40.653
420.35	40.651
420.71	40.322
421.06	40.541
421.42	40.310
421.77	40.442
422.12	40.962
422.48	40.758
422.83	42.004
423.19	41.008
423.54	41.482
423.90	41.414
424.25	41.227
424.61	42.365
424.96	41.461
425.31	41.879
425.67	41.224
426.02	41.671
426.38	42.078
426.73	41.574
427.09	43.310
427.44	42.600
427.79	42.952
428.15	41.438
428.50	43.146
428.85	42.078
429.21	42.766
429.56	43.139
429.92	43.047
430.27	43.133
430.62	43.918
430.98	44.515
431.33	43.157
431.68	42.385
432.04	44.134
432.39	43.439
432.74	43.779
433.10	45.160
433.45	43.423
433.80	44.206
434.16	43.698
434.51	44.964
434.86	45.494
435.22	46.121
435.57	46.050
435.92	45.465
436.28	45.677
436.63	46.095
436.98	44.552
437.34	46.505
437.69	45.955
438.04	45.426
438.39	46.180
438.75	45.600
439.10	46.089
439.45	46.451
439.81	46.384
440.16	45.362
440.51	46.600
440.86	45.803
441.22	47.213
441.57	46.855
441.92	46.557
442.27	47.273
442.63	48.137
442.98	47.972
443.33	48.290
443.68	47.869
444.03	48.636
444.39	46.047
444.74	48.800
445.09	47.542
445.44	47.682
445.79	47.701
446.15	48.201
446.50	48.010
446.85	47.276
447.20	48.066
447.55	48.745
447.91	47.696
448.26	48.467
448.61	48.300
448.96	50.161
449.31	48.834
449.66	48.584
450.02	49.103
450.37	49.334
450.72	49.785
451.07	49.146
451.42	49.336
451.77	49.361
452.12	50.000
452.47	49.970
452.83	49.831
453.18	49.095
453.53	49.914
453.88	49.807
454.23	50.452
454.58	50.725
454.93	49.757
455.28	51.475
455.63	50.483
455.98	50.838
456.34	51.001
456.69	50.558
457.04	51.537
457.39	49.723
457.74	51.622
458.09	50.082
458.44	50.377
458.79	50.542
459.14	50.079
459.49	51.330
459.84	51.679
460.19	49.972
460.54	52.470
460.89	51.932
461.24	51.609
461.59	51.633
461.94	52.481
462.29	51.960
462.64	51.901
462.99	52.480
463.34	52.109
463.69	51.055
464.04	53.307
464.39	52.242
464.74	51.653
465.09	53.230
465.44	52.092
465.79	53.887
466.14	52.163
466.49	52.263
466.84	53.058
467.19	54.104
467.54	51.763
467.89	52.356
468.24	53.740
468.59	52.345
468.94	52.855
469.29	53.269
469.64	53.846
469.99	53.537
470.34	53.713
470.68	54.614
471.03	55.206
471.38	54.480
471.73	54.031
472.08	54.759
472.43	54.786
472.78	54.975
473.13	55.815
473.48	54.502
473.83	55.252
474.17	55.100
474.52	55.683
474.87	55.592
475.22	55.606
475.57	55.244
475.92	55.450
476.27	55.644
476.61	55.088
476.96	54.640
477.31	56.089
477.66	57.293
478.01	55.058
478.36	55.035
478.70	55.369
479.05	55.675
479.40	56.515
479.75	55.668
480.10	55.708
480.45	56.016
480.79	55.510
481.14	55.515
481.49	55.657
481.84	56.005
482.19	56.817
482.53	55.706
482.88	56.225
483.23	56.025
483.58	56.987
483.92	56.250
484.27	56.012
484.62	55.569
484.97	55.871
485.31	55.157
485.66	53.470
486.01	52.521
486.36	54.278
486.70	55.861
487.05	56.220
487.40	55.816
487.75	55.827
488.09	55.875
488.44	54.840
488.79	55.649
489.13	56.445
489.48	55.728
489.83	56.258
490.17	56.258
490.52	55.829
490.87	57.149
491.22	57.799
491.56	57.295
491.91	57.915
492.26	57.334
492.60	57.237
492.95	56.604
493.30	59.121
493.64	57.424
493.99	57.632
494.34	57.666
494.68	57.088
495.03	57.665
495.37	59.299
495.72	58.322
496.07	58.633
496.41	57.400
496.76	58.549
497.11	58.514
497.45	57.877
497.80	59.351
498.14	57.868
498.49	58.640
498.84	59.095
499.18	58.255
499.53	59.552
499.87	59.341
500.22	58.682
500.56	58.525
500.91	60.137
501.26	60.455
501.60	59.346
501.95	59.531
502.29	59.280
502.64	60.035
502.98	58.585
503.33	60.000
503.67	59.747
504.02	60.201
504.36	61.081
504.71	60.864
505.06	60.346
505.40	60.832
505.75	60.291
506.09	61.418
506.44	62.906
506.78	61.147
507.13	61.272
507.47	60.872
507.82	61.269
508.16	61.520
508.51	61.041
508.85	62.447
509.19	62.293
509.54	61.960
509.88	60.903
510.23	62.797
510.57	63.412
510.92	62.893
511.26	63.011
511.61	61.613
511.95	63.153
512.30	63.860
512.64	61.769
512.98	64.332
513.33	64.062
513.67	64.049
514.02	64.793
514.36	64.501
514.70	65.208
515.05	65.433
515.39	65.197
515.74	65.748
516.08	64.818
516.42	65.882
516.77	65.037
517.11	64.518
517.46	65.589
517.80	67.290
518.14	66.975
518.49	66.703
518.83	64.981
519.17	65.320
519.52	66.405
519.86	66.579
520.20	67.093
520.55	66.922
520.89	66.610
521.23	67.448
521.58	66.836
521.92	67.989
522.26	66.896
522.61	68.924
522.95	67.013
523.29	68.218
523.64	67.601
523.98	69.595
524.32	69.054
524.66	68.924
525.01	67.610
525.35	67.375
525.69	69.258
526.04	67.279
526.38	67.816
526.72	68.743
527.06	69.443
527.41	68.222
527.75	68.884
528.09	68.890
528.43	68.028
528.78	70.000
529.12	70.011
529.46	69.252
529.80	69.165
530.15	69.217
530.49	69.692
530.83	68.654
531.17	70.430
531.51	68.893
531.86	69.832
532.20	71.646
532.54	70.197
532.88	69.091
533.22	69.181
533.57	69.648
533.91	68.967
534.25	69.757
534.59	70.575
534.93	69.213
535.27	70.423
535.62	69.983
535.96	70.889
536.30	69.918
536.64	70.991
536.98	71.156
537.32	70.741
537.66	70.680
538.01	68.399
538.35	71.255
538.69	70.312
539.03	70.938
539.37	69.965
539.71	70.991
540.05	71.103
540.39	69.866
540.73	70.006
541.07	70.693
541.42	68.636
541.76	69.217
542.10	70.808
542.44	69.793
542.78	70.316
543.12	69.011
543.46	70.085
543.80	67.806
544.14	68.941
544.48	69.858
544.82	70.437
545.16	70.244
545.50	70.102
545.84	70.484
546.18	72.469
546.52	71.911
546.86	71.509
547.20	71.056
547.54	69.101
547.88	70.464
548.22	70.994
548.56	70.860
548.90	71.164
549.24	71.672
549.58	71.293
549.92	71.046
550.26	70.421
550.60	71.219
550.94	71.087
551.28	71.881
551.62	72.372
551.96	70.032
552.30	70.937
552.64	70.691
552.98	71.865
553.32	72.476
553.66	71.961
554.00	71.438
554.34	71.171
554.68	70.949
555.02	71.551
555.36	72.387
555.69	71.429
556.03	71.059
556.37	72.340
556.71	72.923
557.05	71.310
557.39	73.324
557.73	71.863
558.07	72.517
558.41	73.355
558.75	72.346
559.08	74.391
559.42	71.468
559.76	71.031
560.10	71.601
560.44	71.834
560.78	71.875
561.12	71.860
561.45	72.628
561.79	71.978
562.13	71.781
562.47	70.715
562.81	71.772
563.15	71.528
563.48	71.659
563.82	71.403
564.16	71.654
564.50	70.977
564.84	70.796
565.17	70.882
565.51	70.081
565.85	71.140
566.19	70.680
566.52	71.094
566.86	70.289
567.20	69.549
567.54	70.844
567.88	71.560
568.21	70.899
568.55	70.552
568.89	69.905
569.23	69.793
569.56	69.363
569.90	68.567
570.24	68.904
570.57	67.447
570.91	67.851
571.25	67.052
571.59	67.492
571.92	66.205
572.26	66.358
572.60	66.476
572.93	66.769
573.27	67.182
573.61	66.067
573.95	66.521
574.28	65.545
574.62	66.166
574.96	65.924
575.29	65.191
575.63	65.442
575.97	65.868
576.30	65.310
576.64	64.806
576.98	65.854
577.31	65.988
577.65	65.807
577.98	65.776
578.32	64.957
578.66	65.511
578.99	65.226
579.33	66.118
579.67	65.707
580.00	65.048
580.34	65.532
580.67	65.600
581.01	65.643
581.35	65.673
581.68	64.827
582.02	64.967
582.35	66.360
582.69	66.045
583.02	66.212
583.36	66.133
583.70	65.917
584.03	65.347
584.37	65.786
584.70	65.183
585.04	64.404
585.37	65.864
585.71	65.523
586.04	65.720
586.38	66.179
586.72	66.232
587.05	65.669
587.39	65.844
587.72	66.220
588.06	66.296
588.39	66.642
588.73	66.270
589.06	67.438
589.40	67.148
589.73	67.159
590.07	67.275
590.40	66.768
590.73	68.116
591.07	68.280
591.40	67.768
591.74	68.283
592.07	67.763
592.41	67.271
592.74	66.454
593.08	67.580
593.41	67.483
593.75	67.356
594.08	67.404
594.41	68.782
594.75	66.622
595.08	66.824
595.42	67.370
595.75	67.129
596.09	67.503
596.42	67.825
596.75	68.198
597.09	67.677
597.42	68.097
597.75	66.837
598.09	68.056
598.42	68.677
598.76	66.450
599.09	67.569
599.42	65.404
599.76	67.580
600.09	67.768
600.42	66.700
600.76	67.470
601.09	65.549
601.42	67.182
601.76	67.000
602.09	67.477
602.42	68.121
602.76	67.048
603.09	68.172
603.42	67.305
603.76	67.336
604.09	67.566
604.42	68.147
604.76	66.705
605.09	67.531
605.42	68.102
605.75	67.692
606.09	66.816
606.42	66.764
606.75	67.429
607.09	66.551
607.42	66.513
607.75	67.175
608.08	68.469
608.42	67.513
608.75	68.284
609.08	67.275
609.41	68.108
609.75	68.527
610.08	68.646
610.41	67.715
610.74	67.395
611.07	68.917
611.41	68.834
611.74	69.376
612.07	69.752
612.40	69.772
612.73	70.513
613.07	70.122
613.40	68.816
613.73	69.042
614.06	69.136
614.39	67.881
614.72	67.928
615.06	68.094
615.39	69.019
615.72	68.104
616.05	68.528
616.38	69.425
616.71	68.704
617.05	68.424
617.38	68.165
617.71	69.816
618.04	69.401
618.37	71.038
618.70	71.380
619.03	70.311
619.36	71.023
619.69	70.211
620.03	70.433
620.36	71.104
620.69	70.944
621.02	71.325
621.35	72.932
621.68	74.187
622.01	71.032
622.34	72.106
622.67	71.959
623.00	70.513
623.33	72.926
623.66	73.087
623.99	70.902
624.32	72.450
624.65	72.265
624.99	73.017
625.32	71.914
625.65	71.881
625.98	69.898
626.31	72.431
626.64	71.868
626.97	72.843
627.30	71.906
627.63	71.943
627.96	73.048
628.29	72.062
628.62	73.468
628.95	77.213
629.28	74.087
629.61	74.663
629.94	72.636
630.26	73.475
630.59	73.748
630.92	75.152
631.25	74.508
631.58	78.060
631.91	76.101
632.24	76.369
632.57	75.142
632.90	78.335
633.23	78.061
633.56	75.612
633.89	75.207
