SpectraSuite Data File
++++++++++++++++++++++++++++++++++++
Date: Thu May 14 14:49:08 PDT 2015
User: schluterlab
Dark Spectrum Present: Yes
Reference Spectrum Present: Yes
Number of Sampled Component Spectra: 1
Spectrometers: USB2E3373
Integration Time (usec): 3000 (USB2E3373)
Spectra Averaged: 3 (USB2E3373)
Boxcar Smoothing: 0 (USB2E3373)
Correct for Electrical Dark: No (USB2E3373)
Strobe/Lamp Enabled: No (USB2E3373)
Correct for Detector Non-linearity: No (USB2E3373)
Correct for Stray Light: No (USB2E3373)
Number of Pixels in Processed Spectrum: 2048
>>>>>Begin Processed Spectral Data<<<<<
178.53	0.000
178.91	128.571
179.29	-1900.000
179.67	-900.000
180.04	128.571
180.42	70.000
180.80	180.000
181.18	-200.000
181.56	-200.000
181.94	200.000
182.31	25.000
182.69	133.333
183.07	150.000
183.45	125.000
183.83	-83.333
184.20	-566.667
184.58	600.000
184.96	-125.000
185.34	0.000
185.72	120.000
186.09	111.111
186.47	450.000
186.85	280.000
187.23	-55.556
187.61	-1200.000
187.98	100.000
188.36	400.000
188.74	-275.000
189.12	-133.333
189.49	-6.250
189.87	-87.500
190.25	0.000
190.63	0.000
191.00	-66.667
191.38	0.000
191.76	-225.000
192.14	16.667
192.51	300.000
192.89	83.333
193.27	0.000
193.65	14.286
194.02	-600.000
194.40	-28.571
194.78	171.429
195.15	0.000
195.53	-9.091
195.91	0.000
196.29	-50.000
196.66	23.077
197.04	-1100.000
197.42	-42.857
197.79	-100.000
198.17	12.500
198.55	-128.571
198.92	-22.222
199.30	-125.000
199.68	-45.455
200.05	7.143
200.43	-950.000
200.81	200.000
201.18	0.000
201.56	55.556
201.94	0.000
202.31	466.667
202.69	-100.000
203.07	100.000
203.44	-77.778
203.82	-225.000
204.19	-16.667
204.57	33.333
204.95	-25.000
205.32	-200.000
205.70	375.000
206.08	-233.333
206.45	0.000
206.83	440.000
207.20	-66.667
207.58	-140.000
207.96	-16.667
208.33	-133.333
208.71	116.667
209.08	83.333
209.46	0.000
209.84	166.667
210.21	450.000
210.59	150.000
210.96	166.667
211.34	-75.000
211.71	-50.000
212.09	-200.000
212.46	0.000
212.84	750.000
213.22	-260.000
213.59	-150.000
213.97	0.000
214.34	-266.667
214.72	200.000
215.09	-350.000
215.47	0.000
215.84	42.857
216.22	350.000
216.59	160.000
216.97	100.000
217.34	-175.000
217.72	50.000
218.09	-200.000
218.47	-325.000
218.84	0.000
219.22	160.000
219.59	0.000
219.97	25.000
220.34	-150.000
220.72	-11.111
221.09	76.923
221.47	-166.667
221.84	-40.000
222.22	-185.714
222.59	0.000
222.97	-25.000
223.34	-240.000
223.72	-300.000
224.09	-175.000
224.46	-125.000
224.84	-20.000
225.21	-214.286
225.59	-25.000
225.96	-275.000
226.34	11.538
226.71	183.333
227.08	50.000
227.46	-93.333
227.83	0.000
228.21	0.000
228.58	-37.500
228.95	700.000
229.33	-58.333
229.70	-40.000
230.08	68.421
230.45	80.000
230.82	-166.667
231.20	0.000
231.57	33.333
231.95	-100.000
232.32	-18.182
232.69	-5.000
233.07	-175.000
233.44	17.647
233.81	-50.000
234.19	50.000
234.56	-4.545
234.93	0.000
235.31	5.263
235.68	-22.222
236.05	-50.000
236.43	30.769
236.80	76.000
237.17	7.407
237.55	0.000
237.92	-120.000
238.29	-19.355
238.67	-22.727
239.04	-2.778
239.41	2.381
239.79	-13.043
240.16	-14.815
240.53	-6.522
240.91	-29.412
241.28	3.279
241.65	2.985
242.02	8.108
242.40	1.538
242.77	8.000
243.14	-4.878
243.51	-9.211
243.89	-1.282
244.26	9.901
244.63	18.627
245.00	7.477
245.38	1.754
245.75	-0.885
246.12	13.492
246.49	7.752
246.87	8.571
247.24	8.609
247.61	7.895
247.98	9.396
248.36	9.877
248.73	7.362
249.10	5.464
249.47	12.438
249.84	10.471
250.22	2.073
250.59	7.778
250.96	12.273
251.33	6.122
251.70	7.265
252.08	12.500
252.45	7.787
252.82	7.025
253.19	3.125
253.56	9.506
253.94	3.462
254.31	8.712
254.68	11.189
255.05	10.749
255.42	8.503
255.79	5.825
256.16	7.947
256.54	7.616
256.91	8.852
257.28	7.869
257.65	6.051
258.02	5.605
258.39	7.123
258.76	9.480
259.14	8.908
259.51	11.239
259.88	5.382
260.25	4.722
260.62	9.041
260.99	10.929
261.36	7.775
261.73	7.427
262.10	9.066
262.47	8.043
262.85	10.606
263.22	3.636
263.59	3.421
263.96	8.440
264.33	5.882
264.70	6.173
265.07	10.263
265.44	11.338
265.81	8.102
266.18	8.844
266.55	7.812
266.92	6.378
267.29	8.972
267.66	8.426
268.03	6.987
268.40	10.230
268.77	5.239
269.14	3.084
269.51	6.360
269.88	9.016
270.25	9.256
270.62	9.705
270.99	9.899
271.36	10.297
271.73	7.859
272.10	7.415
272.47	5.210
272.84	6.827
273.21	9.820
273.58	8.065
273.95	8.846
274.32	7.034
274.69	7.157
275.06	8.059
275.43	7.579
275.80	8.289
276.17	5.926
276.54	5.784
276.91	6.440
277.28	8.499
277.65	7.361
278.02	6.618
278.39	6.703
278.76	5.624
279.13	7.447
279.50	8.591
279.87	7.871
280.23	5.986
280.60	6.949
280.97	7.895
281.34	6.791
281.71	7.445
282.08	7.143
282.45	7.365
282.82	6.907
283.19	5.493
283.56	8.033
283.92	9.159
284.29	6.477
284.66	7.882
285.03	5.769
285.40	7.264
285.77	6.502
286.14	7.481
286.51	7.458
286.87	7.425
287.24	8.133
287.61	6.876
287.98	6.798
288.35	6.953
288.72	6.065
289.08	7.467
289.45	6.509
289.82	4.819
290.19	6.178
290.56	7.465
290.93	7.133
291.29	6.474
291.66	5.234
292.03	5.970
292.40	7.483
292.77	4.717
293.13	7.307
293.50	6.439
293.87	6.174
294.24	8.000
294.60	6.574
294.97	5.101
295.34	7.939
295.71	6.053
296.08	5.685
296.44	5.270
296.81	5.238
297.18	6.227
297.55	5.425
297.91	5.575
298.28	4.976
298.65	5.707
299.02	6.375
299.38	5.606
299.75	5.841
300.12	5.208
300.48	5.300
300.85	6.749
301.22	6.711
301.59	5.822
301.95	6.780
302.32	6.667
302.69	5.586
303.05	6.094
303.42	5.876
303.79	6.354
304.15	6.204
304.52	5.180
304.89	6.911
305.25	6.108
305.62	5.643
305.99	6.082
306.35	5.343
306.72	6.101
307.09	5.279
307.45	6.315
307.82	6.155
308.19	5.449
308.55	6.557
308.92	5.940
309.29	7.088
309.65	5.653
310.02	6.238
310.38	5.512
310.75	4.951
311.12	6.040
311.48	5.865
311.85	6.933
312.22	5.977
312.58	5.258
312.95	5.641
313.31	6.414
313.68	7.051
314.05	6.956
314.41	8.197
314.78	7.448
315.14	7.713
315.51	7.849
315.87	8.011
316.24	8.128
316.61	7.993
316.97	6.516
317.34	7.496
317.70	8.384
318.07	8.818
318.43	8.418
318.80	10.535
319.16	8.841
319.53	8.226
319.89	8.414
320.26	8.452
320.62	9.309
320.99	10.434
321.35	9.519
321.72	11.256
322.08	10.099
322.45	10.388
322.81	10.921
323.18	11.062
323.54	11.466
323.91	11.299
324.27	11.532
324.64	13.182
325.00	12.355
325.37	13.841
325.73	13.140
326.10	14.842
326.46	13.844
326.83	14.972
327.19	14.488
327.56	16.126
327.92	15.421
328.29	15.484
328.65	15.075
329.01	16.751
329.38	17.186
329.74	18.151
330.11	17.894
330.47	18.450
330.84	18.260
331.20	19.500
331.56	19.237
331.93	18.996
332.29	20.169
332.66	19.186
333.02	20.017
333.38	20.973
333.75	19.697
334.11	21.435
334.48	20.957
334.84	20.646
335.20	20.319
335.57	22.007
335.93	21.074
336.29	21.464
336.66	21.194
337.02	21.321
337.38	21.344
337.75	20.331
338.11	22.540
338.47	22.002
338.84	22.589
339.20	20.640
339.56	21.911
339.93	22.085
340.29	22.061
340.65	20.357
341.02	22.666
341.38	22.474
341.74	21.792
342.11	22.446
342.47	21.366
342.83	22.866
343.20	22.240
343.56	21.492
343.92	23.219
344.28	21.250
344.65	23.101
345.01	22.309
345.37	22.317
345.73	22.214
346.10	22.777
346.46	22.073
346.82	22.996
347.19	22.613
347.55	24.127
347.91	22.363
348.27	22.003
348.63	23.534
349.00	23.266
349.36	22.751
349.72	22.396
350.08	23.105
350.45	22.205
350.81	23.303
351.17	23.233
351.53	23.351
351.89	23.690
352.26	22.537
352.62	23.731
352.98	24.351
353.34	22.106
353.70	22.958
354.07	22.951
354.43	23.007
354.79	22.663
355.15	23.547
355.51	23.538
355.87	23.485
356.24	23.650
356.60	23.356
356.96	23.870
357.32	23.048
357.68	22.108
358.04	22.904
358.40	23.582
358.77	24.415
359.13	23.043
359.49	23.197
359.85	24.728
360.21	24.103
360.57	24.408
360.93	24.824
361.29	24.281
361.66	23.896
362.02	25.052
362.38	23.753
362.74	23.743
363.10	24.072
363.46	24.307
363.82	23.509
364.18	24.842
364.54	25.104
364.90	25.217
365.26	24.138
365.62	25.200
365.98	24.370
366.35	23.960
366.71	25.442
367.07	25.237
367.43	25.936
367.79	26.410
368.15	26.488
368.51	25.778
368.87	25.408
369.23	25.200
369.59	25.410
369.95	25.423
370.31	26.941
370.67	26.891
371.03	25.208
371.39	24.782
371.75	26.479
372.11	27.507
372.47	26.540
372.83	26.571
373.19	26.551
373.55	25.881
373.91	25.903
374.27	26.649
374.63	27.267
374.99	27.321
375.35	27.208
375.71	27.032
376.07	26.727
376.42	27.834
376.78	27.781
377.14	27.324
377.50	27.957
377.86	28.202
378.22	28.683
378.58	29.370
378.94	28.638
379.30	28.998
379.66	28.983
380.02	29.140
380.38	30.300
380.74	29.690
381.09	29.384
381.45	29.091
381.81	30.035
382.17	29.751
382.53	29.708
382.89	30.305
383.25	31.125
383.61	30.556
383.97	31.861
384.32	31.818
384.68	29.756
385.04	31.521
385.40	32.115
385.76	32.474
386.12	31.718
386.48	32.235
386.83	33.254
387.19	33.198
387.55	32.746
387.91	32.591
388.27	33.314
388.62	32.875
388.98	31.980
389.34	33.530
389.70	34.573
390.06	32.682
390.42	33.976
390.77	34.256
391.13	34.155
391.49	33.696
391.85	33.636
392.20	34.698
392.56	34.731
392.92	34.079
393.28	34.328
393.64	34.190
393.99	34.399
394.35	35.456
394.71	35.389
395.07	34.671
395.42	35.180
395.78	36.319
396.14	35.948
396.50	35.689
396.85	35.182
397.21	35.503
397.57	36.101
397.92	35.166
398.28	35.144
398.64	35.183
399.00	35.026
399.35	35.026
399.71	35.543
400.07	36.440
400.42	35.506
400.78	36.516
401.14	35.458
401.49	36.271
401.85	36.105
402.21	35.689
402.57	36.737
402.92	36.170
403.28	35.539
403.63	35.322
403.99	35.926
404.35	35.816
404.70	35.467
405.06	35.761
405.42	35.714
405.77	36.260
406.13	35.656
406.49	36.092
406.84	35.900
407.20	35.718
407.55	36.584
407.91	36.141
408.27	37.397
408.62	36.184
408.98	35.984
409.34	35.601
409.69	36.403
410.05	37.280
410.40	35.905
410.76	36.007
411.11	38.048
411.47	38.575
411.83	36.273
412.18	37.108
412.54	36.692
412.89	36.321
413.25	37.190
413.60	36.703
413.96	37.587
414.31	35.921
414.67	37.090
415.03	36.862
415.38	36.948
415.74	36.408
416.09	37.446
416.45	36.130
416.80	36.781
417.16	37.548
417.51	37.111
417.87	36.971
418.22	37.186
418.58	37.175
418.93	36.554
419.29	36.621
419.64	36.975
420.00	37.567
420.35	37.675
420.71	36.129
421.06	37.320
421.42	37.672
421.77	36.457
422.12	36.628
422.48	36.150
422.83	37.842
423.19	37.560
423.54	37.777
423.90	37.659
424.25	38.187
424.61	37.428
424.96	37.397
425.31	38.641
425.67	38.272
426.02	38.074
426.38	37.256
426.73	37.556
427.09	39.273
427.44	37.903
427.79	38.308
428.15	38.014
428.50	37.697
428.85	37.371
429.21	39.309
429.56	37.710
429.92	38.477
430.27	38.795
430.62	38.886
430.98	36.842
431.33	38.905
431.68	37.500
432.04	38.141
432.39	38.350
432.74	38.128
433.10	39.156
433.45	38.183
433.80	39.431
434.16	38.688
434.51	39.363
434.86	40.282
435.22	40.117
435.57	39.092
435.92	38.787
436.28	40.444
436.63	39.869
436.98	38.808
437.34	38.388
437.69	39.571
438.04	38.181
438.39	38.599
438.75	39.070
439.10	39.746
439.45	38.904
439.81	39.492
440.16	39.893
440.51	39.075
440.86	39.022
441.22	39.657
441.57	40.147
441.92	39.331
442.27	40.707
442.63	40.636
442.98	40.181
443.33	40.347
443.68	39.098
444.03	40.687
444.39	40.268
444.74	40.531
445.09	40.041
445.44	40.832
445.79	39.943
446.15	39.568
446.50	40.207
446.85	40.856
447.20	40.232
447.55	41.056
447.91	40.419
448.26	40.592
448.61	40.170
448.96	41.631
449.31	40.774
449.66	40.795
450.02	40.981
450.37	39.584
450.72	40.312
451.07	38.838
451.42	40.670
451.77	40.411
452.12	40.632
452.47	40.226
452.83	41.441
453.18	41.214
453.53	41.528
453.88	40.696
454.23	41.638
454.58	41.265
454.93	41.566
455.28	40.939
455.63	40.989
455.98	41.676
456.34	39.694
456.69	41.211
457.04	41.135
457.39	40.965
457.74	41.890
458.09	41.625
458.44	42.241
458.79	40.846
459.14	39.801
459.49	41.313
459.84	40.766
460.19	40.478
460.54	41.738
460.89	42.933
461.24	39.885
461.59	40.952
461.94	40.046
462.29	40.538
462.64	41.400
462.99	40.678
463.34	41.856
463.69	40.739
464.04	40.912
464.39	40.975
464.74	41.676
465.09	41.696
465.44	41.309
465.79	41.935
466.14	40.855
466.49	41.579
466.84	41.928
467.19	41.272
467.54	40.071
467.89	40.402
468.24	40.997
468.59	41.459
468.94	40.268
469.29	41.392
469.64	40.178
469.99	41.746
470.34	41.399
470.68	41.832
471.03	40.995
471.38	40.222
471.73	41.157
472.08	41.497
472.43	41.300
472.78	41.436
473.13	40.771
473.48	41.390
473.83	41.788
474.17	40.797
474.52	41.672
474.87	41.417
475.22	41.127
475.57	40.706
475.92	40.816
476.27	40.256
476.61	40.447
476.96	40.563
477.31	40.990
477.66	41.710
478.01	41.230
478.36	40.628
478.70	40.542
479.05	40.746
479.40	41.066
479.75	40.970
480.10	41.402
480.45	41.705
480.79	40.726
481.14	41.958
481.49	41.209
481.84	41.253
482.19	41.505
482.53	41.364
482.88	41.870
483.23	41.841
483.58	40.131
483.92	41.356
484.27	41.321
484.62	40.099
484.97	41.058
485.31	40.514
485.66	38.752
486.01	39.538
486.36	40.257
486.70	42.662
487.05	43.483
487.40	41.932
487.75	41.221
488.09	41.646
488.44	41.060
488.79	41.180
489.13	40.695
489.48	40.427
489.83	39.920
490.17	39.854
490.52	40.681
490.87	41.497
491.22	40.771
491.56	41.212
491.91	40.907
492.26	41.930
492.60	41.146
492.95	41.422
493.30	40.699
493.64	41.042
493.99	40.307
494.34	40.375
494.68	40.557
495.03	41.454
495.37	40.879
495.72	41.270
496.07	40.316
496.41	40.755
496.76	41.993
497.11	40.807
497.45	41.303
497.80	41.404
498.14	40.091
498.49	40.947
498.84	40.996
499.18	40.846
499.53	41.839
499.87	41.451
500.22	40.606
500.56	40.351
500.91	42.014
501.26	42.045
501.60	39.947
501.95	41.207
502.29	41.334
502.64	41.714
502.98	41.242
503.33	40.475
503.67	40.209
504.02	41.112
504.36	41.421
504.71	40.928
505.06	40.473
505.40	40.722
505.75	41.985
506.09	41.667
506.44	42.247
506.78	42.202
507.13	41.494
507.47	43.202
507.82	41.477
508.16	39.914
508.51	41.397
508.85	41.238
509.19	42.113
509.54	42.027
509.88	40.991
510.23	41.379
510.57	41.469
510.92	41.896
511.26	40.741
511.61	41.043
511.95	41.093
512.30	41.654
512.64	41.429
512.98	40.820
513.33	41.683
513.67	41.764
514.02	42.003
514.36	42.455
514.70	41.042
515.05	42.596
515.39	41.365
515.74	42.206
516.08	42.208
516.42	42.491
516.77	41.903
517.11	41.465
517.46	42.312
517.80	42.330
518.14	41.295
518.49	41.757
518.83	42.044
519.17	41.465
519.52	41.929
519.86	42.239
520.20	42.386
520.55	42.114
520.89	41.498
521.23	40.871
521.58	42.825
521.92	41.643
522.26	41.810
522.61	42.014
522.95	42.157
523.29	41.322
523.64	42.993
523.98	43.183
524.32	43.381
524.66	42.516
525.01	41.223
525.35	41.183
525.69	42.169
526.04	41.791
526.38	42.069
526.72	42.676
527.06	42.581
527.41	41.399
527.75	44.002
528.09	41.795
528.43	42.333
528.78	42.081
529.12	41.743
529.46	42.383
529.80	42.220
530.15	42.667
530.49	42.764
530.83	42.326
531.17	42.234
531.51	42.659
531.86	42.188
532.20	43.354
532.54	41.113
532.88	42.606
533.22	41.839
533.57	41.662
533.91	42.536
534.25	42.962
534.59	43.506
534.93	41.087
535.27	41.859
535.62	42.695
535.96	43.056
536.30	42.538
536.64	42.462
536.98	42.312
537.32	42.901
537.66	42.358
538.01	40.665
538.35	41.961
538.69	41.647
539.03	43.164
539.37	42.815
539.71	42.042
540.05	42.746
540.39	41.993
540.73	42.198
541.07	42.673
541.42	41.701
541.76	41.400
542.10	42.099
542.44	42.083
542.78	41.241
543.12	41.120
543.46	41.087
543.80	41.847
544.14	41.352
544.48	42.199
544.82	43.028
545.16	40.906
545.50	41.881
545.84	41.151
546.18	41.605
546.52	41.592
546.86	41.572
547.20	42.430
547.54	41.199
547.88	41.652
548.22	41.871
548.56	41.896
548.90	41.731
549.24	42.371
549.58	42.145
549.92	41.709
550.26	40.971
550.60	41.608
550.94	41.915
551.28	41.518
551.62	42.453
551.96	41.230
552.30	41.428
552.64	42.190
552.98	42.233
553.32	42.701
553.66	42.894
554.00	41.866
554.34	41.184
554.68	41.833
555.02	42.247
555.36	42.143
555.69	41.320
556.03	41.362
556.37	42.115
556.71	42.486
557.05	41.150
557.39	42.137
557.73	41.810
558.07	41.192
558.41	42.392
558.75	41.920
559.08	42.519
559.42	39.986
559.76	42.130
560.10	41.594
560.44	42.282
560.78	41.438
561.12	42.118
561.45	42.579
561.79	42.125
562.13	41.898
562.47	41.554
562.81	41.076
563.15	42.045
563.48	42.200
563.82	40.689
564.16	42.338
564.50	42.014
564.84	40.177
565.17	41.765
565.51	40.967
565.85	41.983
566.19	41.820
566.52	42.188
566.86	42.218
567.20	41.925
567.54	42.114
567.88	42.559
568.21	41.947
568.55	42.590
568.89	42.170
569.23	42.163
569.56	41.188
569.90	41.696
570.24	42.057
570.57	42.078
570.91	41.182
571.25	41.076
571.59	42.054
571.92	41.631
572.26	41.636
572.60	41.578
572.93	42.026
573.27	40.967
573.61	41.371
573.95	40.908
574.28	41.018
574.62	40.700
574.96	40.406
575.29	41.309
575.63	41.141
575.97	40.886
576.30	40.415
576.64	40.921
576.98	41.048
577.31	41.086
577.65	41.766
577.98	40.794
578.32	41.258
578.66	41.010
578.99	41.429
579.33	41.507
579.67	41.115
580.00	41.088
580.34	40.990
580.67	40.865
581.01	41.324
581.35	40.970
581.68	41.136
582.02	41.140
582.35	42.157
582.69	41.995
583.02	41.562
583.36	41.713
583.70	41.763
584.03	41.565
584.37	40.805
584.70	41.125
585.04	40.665
585.37	40.698
585.71	40.971
586.04	40.357
586.38	41.481
586.72	41.113
587.05	41.264
587.39	41.835
587.72	41.842
588.06	41.707
588.39	41.001
588.73	40.979
589.06	41.930
589.40	41.334
589.73	41.228
590.07	41.943
590.40	41.278
590.73	41.075
591.07	42.256
591.40	40.785
591.74	41.971
592.07	40.885
592.41	41.128
592.74	40.611
593.08	41.306
593.41	42.024
593.75	41.638
594.08	41.866
594.41	41.603
594.75	40.817
595.08	41.184
595.42	41.656
595.75	41.395
596.09	41.647
596.42	41.920
596.75	41.451
597.09	42.990
597.42	41.398
597.75	40.455
598.09	41.587
598.42	41.938
598.76	40.772
599.09	41.225
599.42	40.295
599.76	41.037
600.09	41.275
600.42	42.009
600.76	41.347
601.09	41.653
601.42	41.057
601.76	41.172
602.09	40.922
602.42	41.149
602.76	41.365
603.09	41.336
603.42	41.185
603.76	41.508
604.09	41.519
604.42	41.615
604.76	40.944
605.09	41.324
605.42	41.826
605.75	41.385
606.09	41.583
606.42	40.752
606.75	40.892
607.09	41.206
607.42	41.118
607.75	41.696
608.08	40.845
608.42	41.153
608.75	41.294
609.08	39.941
609.41	41.950
609.75	40.491
610.08	41.645
610.41	40.824
610.74	41.218
611.07	42.052
611.41	42.108
611.74	41.755
612.07	42.496
612.40	41.160
612.73	41.809
613.07	41.174
613.40	41.434
613.73	41.791
614.06	42.247
614.39	40.719
614.72	40.708
615.06	40.664
615.39	41.034
615.72	41.043
616.05	40.797
616.38	41.120
616.71	41.954
617.05	41.480
617.38	40.556
617.71	41.955
618.04	41.500
618.37	41.530
618.70	40.950
619.03	41.876
619.36	42.232
619.69	41.448
620.03	42.059
620.36	41.656
620.69	40.716
621.02	42.848
621.35	43.179
621.68	41.504
622.01	41.139
622.34	41.632
622.67	41.856
623.00	40.081
623.33	42.137
623.66	40.791
623.99	41.475
624.32	42.235
624.65	40.090
624.99	42.003
625.32	42.195
625.65	41.875
625.98	40.271
626.31	41.389
626.64	40.952
626.97	41.260
627.30	41.306
627.63	40.585
627.96	42.192
628.29	41.323
628.62	41.730
628.95	41.543
629.28	41.801
629.61	42.424
629.94	41.423
630.26	40.339
630.59	41.364
630.92	40.346
631.25	42.129
631.58	42.844
631.91	41.143
632.24	41.210
632.57	40.133
632.90	42.227
633.23	42.245
633.56	42.551
633.89	40.393
634.22	42.723
634.55	40.397
634.88	41.234
635.20	42.411
635.53	41.921
635.86	41.387
636.19	42.842
636.52	41.245
636.85	40.654
637.18	41.476
637.51	42.688
637.83	42.414
