SpectraSuite Data File
++++++++++++++++++++++++++++++++++++
Date: Thu May 14 14:43:55 PDT 2015
User: schluterlab
Dark Spectrum Present: Yes
Reference Spectrum Present: Yes
Number of Sampled Component Spectra: 1
Spectrometers: USB2E3373
Integration Time (usec): 3000 (USB2E3373)
Spectra Averaged: 3 (USB2E3373)
Boxcar Smoothing: 0 (USB2E3373)
Correct for Electrical Dark: No (USB2E3373)
Strobe/Lamp Enabled: No (USB2E3373)
Correct for Detector Non-linearity: No (USB2E3373)
Correct for Stray Light: No (USB2E3373)
Number of Pixels in Processed Spectrum: 2048
>>>>>Begin Processed Spectral Data<<<<<
178.53	0.000
178.91	-28.571
179.29	-1800.000
179.67	0.000
180.04	71.429
180.42	50.000
180.80	20.000
181.18	-700.000
181.56	1000.000
181.94	125.000
182.31	25.000
182.69	-133.333
183.07	250.000
183.45	150.000
183.83	116.667
184.20	133.333
184.58	-100.000
184.96	-50.000
185.34	22.222
185.72	300.000
186.09	66.667
186.47	-150.000
186.85	120.000
187.23	-22.222
187.61	-900.000
187.98	180.000
188.36	25.000
188.74	225.000
189.12	400.000
189.49	56.250
189.87	75.000
190.25	22.222
190.63	180.000
191.00	-122.222
191.38	0.000
191.76	100.000
192.14	150.000
192.51	-350.000
192.89	50.000
193.27	0.000
193.65	-14.286
194.02	-1400.000
194.40	171.429
194.78	-42.857
195.15	0.000
195.53	18.182
195.91	0.000
196.29	0.000
196.66	92.308
197.04	-300.000
197.42	71.429
197.79	450.000
198.17	50.000
198.55	57.143
198.92	66.667
199.30	37.500
199.68	45.455
200.05	71.429
200.43	-200.000
200.81	71.429
201.18	0.000
201.56	66.667
201.94	0.000
202.31	266.667
202.69	-55.556
203.07	-1000.000
203.44	122.222
203.82	-100.000
204.19	16.667
204.57	-133.333
204.95	62.500
205.32	-100.000
205.70	-75.000
206.08	183.333
206.45	83.333
206.83	340.000
207.20	-16.667
207.58	-60.000
207.96	83.333
208.33	0.000
208.71	-0.000
209.08	100.000
209.46	0.000
209.84	83.333
210.21	350.000
210.59	-200.000
210.96	66.667
211.34	100.000
211.71	100.000
212.09	300.000
212.46	0.000
212.84	350.000
213.22	20.000
213.59	-100.000
213.97	120.000
214.34	-100.000
214.72	166.667
215.09	-125.000
215.47	0.000
215.84	-142.857
216.22	-350.000
216.59	60.000
216.97	160.000
217.34	50.000
217.72	-25.000
218.09	125.000
218.47	25.000
218.84	0.000
219.22	-160.000
219.59	52.941
219.97	40.000
220.34	-100.000
220.72	33.333
221.09	84.615
221.47	266.667
221.84	70.000
222.22	-42.857
222.59	0.000
222.97	87.500
223.34	-20.000
223.72	-400.000
224.09	0.000
224.46	100.000
224.84	80.000
225.21	-57.143
225.59	-250.000
225.96	150.000
226.34	46.154
226.71	133.333
227.08	350.000
227.46	86.667
227.83	175.000
228.21	21.053
228.58	-0.000
228.95	-450.000
229.33	116.667
229.70	80.000
230.08	57.895
230.45	80.000
230.82	100.000
231.20	7.143
231.57	141.667
231.95	18.182
232.32	36.364
232.69	70.000
233.07	225.000
233.44	82.353
233.81	140.000
234.19	55.556
234.56	72.727
234.93	55.172
235.31	89.474
235.68	94.444
236.05	35.000
236.43	126.923
236.80	104.000
237.17	81.481
237.55	36.364
237.92	150.000
238.29	61.290
238.67	27.273
239.04	47.222
239.41	14.286
239.79	60.870
240.16	48.148
240.53	54.348
240.91	45.098
241.28	54.098
241.65	58.209
242.02	54.054
242.40	47.692
242.77	44.000
243.14	51.220
243.51	34.211
243.89	56.410
244.26	52.475
244.63	58.824
245.00	54.206
245.38	50.000
245.75	43.363
246.12	58.730
246.49	47.287
246.87	49.286
247.24	45.695
247.61	58.553
247.98	47.651
248.36	49.383
248.73	48.466
249.10	50.820
249.47	49.751
249.84	54.450
250.22	47.150
250.59	51.111
250.96	50.455
251.33	50.000
251.70	48.291
252.08	50.000
252.45	52.869
252.82	44.628
253.19	46.484
253.56	46.768
253.94	51.154
254.31	50.758
254.68	53.846
255.05	49.186
255.42	46.939
255.79	47.249
256.16	45.364
256.54	46.689
256.91	51.148
257.28	45.902
257.65	44.586
258.02	46.313
258.39	45.299
258.76	51.682
259.14	50.575
259.51	50.144
259.88	47.592
260.25	44.167
260.62	50.411
260.99	50.546
261.36	51.206
261.73	49.072
262.10	50.549
262.47	48.794
262.85	52.273
263.22	47.532
263.59	43.158
263.96	52.430
264.33	51.151
264.70	47.654
265.07	50.358
265.44	51.020
265.81	49.769
266.18	49.206
266.55	47.321
266.92	50.342
267.29	47.702
267.66	50.776
268.03	49.563
268.40	45.720
268.77	48.975
269.14	48.238
269.51	49.123
269.88	48.361
270.25	48.893
270.62	48.945
270.99	49.495
271.36	49.703
271.73	45.776
272.10	52.305
272.47	49.098
272.84	48.394
273.21	48.497
273.58	47.984
273.95	45.192
274.32	42.776
274.69	46.809
275.06	48.352
275.43	44.917
275.80	47.443
276.17	48.889
276.54	48.507
276.91	45.975
277.28	47.378
277.65	48.115
278.02	47.243
278.39	46.739
278.76	47.452
279.13	46.454
279.50	47.766
279.87	45.617
280.23	44.542
280.60	45.932
280.97	46.546
281.34	46.010
281.71	49.408
282.08	44.186
282.45	45.663
282.82	43.642
283.19	43.457
283.56	45.738
283.92	46.246
284.29	46.130
284.66	46.634
285.03	42.628
285.40	44.049
285.77	45.046
286.14	43.053
286.51	43.836
286.87	45.814
287.24	44.729
287.61	45.590
287.98	42.296
288.35	43.491
288.72	40.828
289.08	45.534
289.45	41.420
289.82	42.922
290.19	42.098
290.56	41.972
290.93	40.799
291.29	41.322
291.66	42.424
292.03	38.128
292.40	41.905
292.77	40.970
293.13	40.325
293.50	38.108
293.87	39.329
294.24	38.800
294.60	37.042
294.97	36.779
295.34	38.796
295.71	37.074
296.08	36.951
296.44	37.990
296.81	37.150
297.18	35.741
297.55	36.792
297.91	34.282
298.28	35.071
298.65	36.029
299.02	35.655
299.38	35.011
299.75	34.463
300.12	35.532
300.48	35.023
300.85	33.746
301.22	34.564
301.59	33.333
301.95	34.011
302.32	34.667
302.69	34.064
303.05	34.929
303.42	33.259
303.79	34.896
304.15	34.175
304.52	32.770
304.89	34.555
305.25	32.816
305.62	32.706
305.99	35.052
306.35	32.157
306.72	34.643
307.09	31.777
307.45	31.781
307.82	32.089
308.19	32.492
308.55	32.208
308.92	32.522
309.29	32.184
309.65	32.943
310.02	30.891
310.38	32.283
310.75	32.427
311.12	33.845
311.48	31.672
311.85	33.903
312.22	32.638
312.58	31.643
312.95	31.836
313.31	31.798
313.68	33.974
314.05	33.875
314.41	32.787
314.78	32.970
315.14	33.485
315.51	32.687
315.87	32.763
316.24	31.872
316.61	33.304
316.97	32.398
317.34	32.981
317.70	33.712
318.07	33.951
318.43	34.779
318.80	33.445
319.16	33.991
319.53	33.419
319.89	32.866
320.26	34.520
320.62	34.486
320.99	35.549
321.35	36.044
321.72	37.209
322.08	35.257
322.45	36.314
322.81	36.462
323.18	37.080
323.54	36.207
323.91	38.701
324.27	38.296
324.64	38.791
325.00	39.138
325.37	39.640
325.73	41.157
326.10	41.038
326.46	42.345
326.83	43.155
327.19	42.598
327.56	44.980
327.92	43.037
328.29	43.306
328.65	43.300
329.01	46.277
329.38	48.441
329.74	48.459
330.11	48.373
330.47	47.852
330.84	49.699
331.20	48.417
331.56	49.393
331.93	49.791
332.29	51.356
332.66	49.003
333.02	49.581
333.38	51.594
333.75	50.758
334.11	50.626
334.48	50.413
334.84	51.657
335.20	51.469
335.57	51.602
335.93	51.488
336.29	50.000
336.66	51.976
337.02	51.421
337.38	52.721
337.75	49.835
338.11	52.565
338.47	51.447
338.84	51.777
339.20	51.390
339.56	50.577
339.93	51.149
340.29	50.322
340.65	49.878
341.02	51.077
341.38	51.738
341.74	50.525
342.11	51.408
342.47	49.643
342.83	51.127
343.20	51.349
343.56	50.521
343.92	51.641
344.28	51.875
344.65	51.550
345.01	50.624
345.37	51.477
345.73	49.649
346.10	50.858
346.46	51.503
346.82	49.588
347.19	50.267
347.55	51.669
347.91	50.520
348.27	50.379
348.63	50.800
349.00	50.037
349.36	51.301
349.72	50.744
350.08	49.034
350.45	51.787
350.81	50.452
351.17	51.278
351.53	51.403
351.89	51.860
352.26	50.075
352.62	51.716
352.98	50.458
353.34	49.739
353.70	51.002
354.07	51.118
354.43	51.784
354.79	51.533
355.15	50.552
355.51	50.512
355.87	50.262
356.24	51.483
356.60	49.076
356.96	50.778
357.32	51.524
357.68	51.025
358.04	50.225
358.40	50.448
358.77	51.243
359.13	52.142
359.49	50.706
359.85	49.891
360.21	51.506
360.57	53.051
360.93	50.705
361.29	51.649
361.66	52.498
362.02	50.731
362.38	51.370
362.74	51.955
363.10	52.201
363.46	51.454
363.82	52.060
364.18	52.146
364.54	52.766
364.90	51.171
365.26	51.241
365.62	51.400
365.98	52.280
366.35	51.946
366.71	52.925
367.07	52.639
367.43	53.578
367.79	52.754
368.15	53.712
368.51	52.842
368.87	52.319
369.23	52.867
369.59	53.347
369.95	53.009
370.31	54.895
370.67	54.814
371.03	53.601
371.39	53.056
371.75	55.021
372.11	53.252
372.47	54.164
372.83	54.254
373.19	53.169
373.55	53.252
373.91	52.079
374.27	53.881
374.63	54.060
374.99	54.045
375.35	54.870
375.71	54.387
376.07	55.391
376.42	55.353
376.78	55.500
377.14	54.460
377.50	55.914
377.86	56.219
378.22	56.886
378.58	56.718
378.94	55.516
379.30	55.419
379.66	56.731
380.02	56.261
380.38	57.488
380.74	56.620
381.09	57.491
381.45	58.182
381.81	59.309
382.17	58.373
382.53	57.661
382.89	57.336
383.25	58.617
383.61	58.102
383.97	58.775
384.32	59.569
384.68	57.947
385.04	58.820
385.40	59.399
385.76	60.727
386.12	58.707
386.48	60.294
386.83	60.072
387.19	58.864
387.55	60.739
387.91	60.616
388.27	59.642
388.62	59.221
388.98	59.278
389.34	61.167
389.70	61.941
390.06	60.983
390.42	59.759
390.77	60.626
391.13	60.681
391.49	60.870
391.85	60.606
392.20	61.151
392.56	61.193
392.92	60.360
393.28	61.913
393.64	62.011
393.99	63.277
394.35	62.266
394.71	62.515
395.07	61.677
395.42	61.565
395.78	63.315
396.14	62.686
396.50	62.114
396.85	62.373
397.21	63.373
397.57	62.250
397.92	62.257
398.28	63.009
398.64	62.815
399.00	61.414
399.35	62.565
399.71	62.717
400.07	63.841
400.42	62.573
400.78	62.905
401.14	63.119
401.49	62.990
401.85	63.953
402.21	63.557
402.57	64.789
402.92	63.475
403.28	62.881
403.63	62.709
403.99	61.342
404.35	62.536
404.70	62.380
405.06	62.935
405.42	63.290
405.77	64.395
406.13	63.425
406.49	63.345
406.84	62.050
407.20	63.387
407.55	62.205
407.91	63.042
408.27	62.014
408.62	62.071
408.98	62.391
409.34	62.111
409.69	64.524
410.05	64.420
410.40	63.979
410.76	63.376
411.11	63.998
411.47	63.575
411.83	64.491
412.18	63.614
412.54	64.138
412.89	63.271
413.25	63.826
413.60	64.159
413.96	63.986
414.31	63.003
414.67	63.208
415.03	63.569
415.38	64.691
415.74	63.714
416.09	64.343
416.45	62.555
416.80	63.219
417.16	64.368
417.51	63.823
417.87	64.746
418.22	63.892
418.58	63.507
418.93	64.144
419.29	65.968
419.64	62.605
420.00	64.451
420.35	62.830
420.71	63.527
421.06	63.082
421.42	64.908
421.77	62.466
422.12	62.949
422.48	63.646
422.83	65.334
423.19	64.509
423.54	66.427
423.90	66.372
424.25	65.013
424.61	64.294
424.96	63.756
425.31	65.605
425.67	64.681
426.02	66.076
426.38	64.294
426.73	63.672
427.09	65.052
427.44	64.118
427.79	65.616
428.15	64.555
428.50	64.944
428.85	64.581
429.21	65.053
429.56	64.808
429.92	64.963
430.27	64.578
430.62	65.413
430.98	65.470
431.33	65.543
431.68	65.421
432.04	66.430
432.39	65.667
432.74	65.183
433.10	66.198
433.45	64.660
433.80	65.397
434.16	65.496
434.51	67.369
434.86	66.287
435.22	67.800
435.57	67.276
435.92	66.055
436.28	65.301
436.63	66.357
436.98	66.076
437.34	65.614
437.69	65.768
438.04	66.314
438.39	65.824
438.75	67.072
439.10	66.279
439.45	66.238
439.81	66.158
440.16	66.059
440.51	66.722
440.86	64.981
441.22	65.541
441.57	67.086
441.92	67.022
442.27	67.677
442.63	66.915
442.98	66.916
443.33	66.491
443.68	66.501
444.03	68.674
444.39	66.990
444.74	67.279
445.09	66.802
445.44	67.650
445.79	67.193
446.15	66.238
446.50	65.995
446.85	66.683
447.20	66.925
447.55	67.207
447.91	67.644
448.26	66.279
448.61	66.791
448.96	68.401
449.31	66.596
449.66	66.394
450.02	66.508
450.37	67.128
450.72	67.061
451.07	67.938
451.42	66.840
451.77	66.203
452.12	67.607
452.47	66.786
452.83	68.750
453.18	67.134
453.53	67.892
453.88	66.096
454.23	65.989
454.58	66.860
454.93	67.294
455.28	68.272
455.63	67.538
455.98	66.369
456.34	68.316
456.69	67.372
457.04	68.085
457.39	66.962
457.74	68.792
458.09	67.435
458.44	67.942
458.79	67.096
459.14	65.863
459.49	69.044
459.84	68.730
460.19	66.852
460.54	68.768
460.89	67.284
461.24	67.759
461.59	66.519
461.94	67.827
462.29	67.637
462.64	65.902
462.99	67.734
463.34	68.981
463.69	66.237
464.04	68.371
464.39	67.825
464.74	66.819
465.09	68.512
465.44	66.255
465.79	67.742
466.14	66.910
466.49	68.000
466.84	68.485
467.19	66.647
467.54	66.157
467.89	65.287
468.24	67.922
468.59	65.779
468.94	65.035
469.29	67.127
469.64	66.179
469.99	67.941
470.34	65.347
470.68	67.806
471.03	66.339
471.38	66.710
471.73	67.360
472.08	66.688
472.43	67.249
472.78	67.506
473.13	67.193
473.48	66.163
473.83	68.021
474.17	66.295
474.52	67.589
474.87	64.950
475.22	66.873
475.57	65.369
475.92	65.605
476.27	67.146
476.61	66.719
476.96	66.684
477.31	66.386
477.66	66.842
478.01	66.396
478.36	65.155
478.70	65.616
479.05	68.456
479.40	66.239
479.75	65.898
480.10	66.509
480.45	66.955
480.79	67.211
481.14	65.809
481.49	65.425
481.84	66.014
482.19	67.140
482.53	66.812
482.88	67.257
483.23	66.385
483.58	65.546
483.92	65.736
484.27	66.427
484.62	64.893
484.97	65.591
485.31	65.611
485.66	63.489
486.01	64.801
486.36	67.503
486.70	70.199
487.05	70.424
487.40	66.798
487.75	66.260
488.09	66.300
488.44	64.365
488.79	64.283
489.13	64.012
489.48	64.466
489.83	64.386
490.17	63.629
490.52	64.532
490.87	65.144
491.22	65.988
491.56	64.974
491.91	65.242
492.26	64.474
492.60	64.626
492.95	65.160
493.30	65.531
493.64	65.134
493.99	66.184
494.34	64.852
494.68	64.111
495.03	65.551
495.37	65.557
495.72	64.898
496.07	64.505
496.41	64.779
496.76	65.555
497.11	64.968
497.45	65.688
497.80	65.171
498.14	65.125
498.49	64.154
498.84	64.534
499.18	65.182
499.53	65.247
499.87	65.275
500.22	64.025
500.56	65.317
500.91	65.355
501.26	65.773
501.60	64.428
501.95	64.525
502.29	65.731
502.64	64.889
502.98	64.107
503.33	64.708
503.67	64.152
504.02	64.974
504.36	66.175
504.71	64.906
505.06	63.984
505.40	64.580
505.75	63.752
506.09	65.055
506.44	63.974
506.78	65.780
507.13	64.776
507.47	64.330
507.82	64.110
508.16	64.579
508.51	64.229
508.85	65.092
509.19	64.472
509.54	64.793
509.88	63.137
510.23	64.983
510.57	65.732
510.92	65.167
511.26	63.877
511.61	62.627
511.95	64.519
512.30	65.140
512.64	62.519
512.98	63.232
513.33	64.819
513.67	63.896
514.02	64.333
514.36	63.990
514.70	64.688
515.05	64.755
515.39	63.622
515.74	63.150
516.08	64.237
516.42	63.736
516.77	65.300
517.11	63.280
517.46	63.945
517.80	65.259
518.14	64.037
518.49	63.557
518.83	62.693
519.17	62.897
519.52	63.679
519.86	63.252
520.20	63.099
520.55	62.322
520.89	63.514
521.23	62.982
521.58	63.051
521.92	63.003
522.26	63.459
522.61	64.525
522.95	62.918
523.29	63.736
523.64	62.892
523.98	63.605
524.32	64.986
524.66	63.404
525.01	62.911
525.35	63.125
525.69	62.413
526.04	62.400
526.38	63.333
526.72	62.457
527.06	62.581
527.41	63.382
527.75	64.667
528.09	62.397
528.43	63.233
528.78	61.272
529.12	63.245
529.46	63.069
529.80	64.188
530.15	63.362
530.49	63.523
530.83	62.810
531.17	61.470
531.51	62.455
531.86	62.680
532.20	62.500
532.54	62.298
532.88	62.242
533.22	62.758
533.57	62.608
533.91	61.448
534.25	62.069
534.59	64.310
534.93	62.762
535.27	63.944
535.62	62.763
535.96	64.672
536.30	64.336
536.64	63.423
536.98	62.239
537.32	62.963
537.66	63.194
538.01	61.631
538.35	61.998
538.69	62.500
539.03	62.538
539.37	63.545
539.71	62.583
540.05	61.930
540.39	61.064
540.73	61.688
541.07	61.435
541.42	61.252
541.76	60.735
542.10	62.244
542.44	61.389
542.78	62.044
543.12	60.846
543.46	61.477
543.80	61.511
544.14	62.118
544.48	61.288
544.82	62.059
545.16	63.268
545.50	61.953
545.84	62.952
546.18	64.198
546.52	61.592
546.86	62.579
547.20	63.550
547.54	61.985
547.88	61.543
548.22	61.345
548.56	62.259
548.90	63.582
549.24	62.614
549.58	61.956
549.92	61.416
550.26	60.777
550.60	61.200
550.94	62.678
551.28	61.254
551.62	63.747
551.96	60.647
552.30	61.887
552.64	61.357
552.98	61.697
553.32	63.987
553.66	63.344
554.00	62.232
554.34	62.420
554.68	60.620
555.02	62.746
555.36	63.116
555.69	60.730
556.03	62.106
556.37	62.078
556.71	61.826
557.05	60.767
557.39	63.039
557.73	62.285
558.07	61.060
558.41	61.130
558.75	61.596
559.08	61.935
559.42	61.248
559.76	61.058
560.10	60.817
560.44	62.071
560.78	63.813
561.12	61.884
561.45	61.861
561.79	62.332
562.13	63.031
562.47	60.789
562.81	60.823
563.15	62.689
563.48	62.710
563.82	60.762
564.16	62.205
564.50	61.919
564.84	62.242
565.17	62.824
565.51	61.162
565.85	62.589
566.19	61.982
566.52	63.078
566.86	62.252
567.20	61.990
567.54	61.763
567.88	62.589
568.21	63.241
568.55	62.350
568.89	63.368
569.23	62.104
569.56	62.407
569.90	62.758
570.24	64.250
570.57	62.925
570.91	63.135
571.25	62.684
571.59	62.510
571.92	62.740
572.26	62.864
572.60	62.544
572.93	61.675
573.27	61.450
573.61	61.514
573.95	61.763
574.28	62.392
574.62	62.688
574.96	62.020
575.29	61.974
575.63	61.977
575.97	61.653
576.30	61.485
576.64	61.656
576.98	62.574
577.31	62.330
577.65	62.794
577.98	62.782
578.32	63.045
578.66	62.043
578.99	62.728
579.33	61.894
579.67	61.741
580.00	61.407
580.34	61.322
580.67	61.165
581.01	61.597
581.35	61.251
581.68	62.484
582.02	62.329
582.35	63.351
582.69	63.206
583.02	62.512
583.36	62.888
583.70	61.872
584.03	61.267
584.37	61.368
584.70	60.831
585.04	61.614
585.37	62.307
585.71	61.402
586.04	62.219
586.38	62.187
586.72	61.544
587.05	62.087
587.39	61.905
587.72	62.823
588.06	61.823
588.39	62.086
588.73	61.693
589.06	61.879
589.40	62.876
589.73	61.632
590.07	61.771
590.40	61.731
590.73	62.107
591.07	62.137
591.40	61.975
591.74	61.169
592.07	60.983
592.41	60.883
592.74	61.413
593.08	61.879
593.41	62.934
593.75	62.443
594.08	62.769
594.41	62.756
594.75	61.109
595.08	61.777
595.42	62.273
595.75	62.318
596.09	62.758
596.42	61.376
596.75	60.903
597.09	61.697
597.42	60.826
597.75	60.643
598.09	61.032
598.42	61.319
598.76	60.604
599.09	60.876
599.42	61.448
599.76	62.067
600.09	61.094
600.42	60.861
600.76	61.129
601.09	61.334
601.42	61.243
601.76	61.552
602.09	60.293
602.42	61.069
602.76	60.886
603.09	60.940
603.42	63.006
603.76	60.853
604.09	62.420
604.42	61.835
604.76	60.046
605.09	62.385
605.42	60.367
605.75	60.346
606.09	61.777
606.42	60.379
606.75	61.357
607.09	60.637
607.42	60.193
607.75	61.235
608.08	60.734
608.42	60.621
608.75	61.692
609.08	60.017
609.41	60.962
609.75	60.759
610.08	61.214
610.41	60.365
610.74	60.420
611.07	61.545
611.41	60.942
611.74	60.739
612.07	60.589
612.40	60.219
612.73	59.169
613.07	60.244
613.40	61.020
613.73	60.857
614.06	60.550
614.39	60.447
614.72	60.311
615.06	58.855
615.39	60.126
615.72	60.427
616.05	60.806
616.38	60.293
616.71	59.718
617.05	59.212
617.38	60.781
617.71	59.341
618.04	58.877
618.37	61.093
618.70	60.747
619.03	60.573
619.36	58.693
619.69	58.296
620.03	59.636
620.36	59.202
620.69	60.148
621.02	60.564
621.35	62.700
621.68	61.750
622.01	59.502
622.34	59.484
622.67	61.031
623.00	59.582
623.33	60.119
623.66	61.025
623.99	59.513
624.32	60.429
624.65	59.202
624.99	61.443
625.32	60.941
625.65	60.890
625.98	58.644
626.31	58.753
626.64	59.707
626.97	59.265
627.30	59.301
627.63	59.340
627.96	60.511
628.29	58.210
628.62	58.354
628.95	58.195
629.28	58.199
629.61	58.249
629.94	57.490
630.26	59.407
630.59	58.636
630.92	58.182
631.25	60.644
631.58	60.358
631.91	58.950
632.24	60.903
632.57	59.108
632.90	58.776
633.23	58.878
633.56	58.571
633.89	57.955
634.22	59.667
