SpectraSuite Data File
++++++++++++++++++++++++++++++++++++
Date: Thu May 14 14:57:53 PDT 2015
User: schluterlab
Dark Spectrum Present: Yes
Reference Spectrum Present: Yes
Number of Sampled Component Spectra: 1
Spectrometers: USB2E3373
Integration Time (usec): 3000 (USB2E3373)
Spectra Averaged: 3 (USB2E3373)
Boxcar Smoothing: 0 (USB2E3373)
Correct for Electrical Dark: No (USB2E3373)
Strobe/Lamp Enabled: No (USB2E3373)
Correct for Detector Non-linearity: No (USB2E3373)
Correct for Stray Light: No (USB2E3373)
Number of Pixels in Processed Spectrum: 2048
>>>>>Begin Processed Spectral Data<<<<<
178.53	0.000
178.91	385.714
179.29	-2700.000
179.67	-1600.000
180.04	257.143
180.42	180.000
180.80	420.000
181.18	-2900.000
181.56	-1700.000
181.94	575.000
182.31	-350.000
182.69	566.667
183.07	-950.000
183.45	725.000
183.83	-400.000
184.20	-766.667
184.58	1900.000
184.96	-525.000
185.34	-222.222
185.72	-220.000
186.09	344.444
186.47	1400.000
186.85	620.000
187.23	-366.667
187.61	-2700.000
187.98	140.000
188.36	650.000
188.74	-525.000
189.12	-533.333
189.49	-87.500
189.87	-300.000
190.25	-166.667
190.63	-240.000
191.00	-300.000
191.38	0.000
191.76	-625.000
192.14	-300.000
192.51	1100.000
192.89	-283.333
193.27	0.000
193.65	-242.857
194.02	-2000.000
194.40	-185.714
194.78	271.429
195.15	0.000
195.53	-181.818
195.91	0.000
196.29	-450.000
196.66	-169.231
197.04	-2800.000
197.42	-342.857
197.79	-1100.000
198.17	-300.000
198.55	-242.857
198.92	-155.556
199.30	-187.500
199.68	-118.182
200.05	-78.571
200.43	-1000.000
200.81	500.000
201.18	0.000
201.56	400.000
201.94	0.000
202.31	766.667
202.69	-255.556
203.07	1500.000
203.44	-188.889
203.82	-600.000
204.19	-141.667
204.57	-333.333
204.95	-287.500
205.32	-2400.000
205.70	400.000
206.08	-350.000
206.45	-400.000
206.83	460.000
207.20	-383.333
207.58	-420.000
207.96	-400.000
208.33	-250.000
208.71	191.667
209.08	-216.667
209.46	0.000
209.84	466.667
210.21	550.000
210.59	900.000
210.96	433.333
211.34	-375.000
211.71	-250.000
212.09	-2300.000
212.46	0.000
212.84	1550.000
213.22	-440.000
213.59	-425.000
213.97	-160.000
214.34	-666.667
214.72	550.000
215.09	-725.000
215.47	0.000
215.84	242.857
216.22	1150.000
216.59	-220.000
216.97	-400.000
217.34	-700.000
217.72	-137.500
218.09	-625.000
218.47	-575.000
218.84	0.000
219.22	440.000
219.59	-76.471
219.97	-90.000
220.34	1000.000
220.72	-244.444
221.09	-146.154
221.47	-900.000
221.84	-190.000
222.22	-400.000
222.59	0.000
222.97	-175.000
223.34	-380.000
223.72	-2000.000
224.09	-250.000
224.46	-500.000
224.84	-320.000
225.21	-314.286
225.59	-700.000
225.96	-525.000
226.34	-61.538
226.71	450.000
227.08	-1000.000
227.46	-53.333
227.83	-600.000
228.21	-110.526
228.58	225.000
228.95	1000.000
229.33	-150.000
229.70	-110.000
230.08	-21.053
230.45	380.000
230.82	-433.333
231.20	-100.000
231.57	-183.333
231.95	-227.273
232.32	-145.455
232.69	-70.000
233.07	-375.000
233.44	-105.882
233.81	-160.000
234.19	-44.444
234.56	-72.727
234.93	-44.828
235.31	-63.158
235.68	-122.222
236.05	-150.000
236.43	-26.923
236.80	-24.000
237.17	-40.741
237.55	-36.364
237.92	-280.000
238.29	-32.258
238.67	-22.727
239.04	-8.333
239.41	-21.429
239.79	-19.565
240.16	-3.704
240.53	-13.043
240.91	-7.843
241.28	-4.918
241.65	-2.985
242.02	8.108
242.40	-18.462
242.77	-8.000
243.14	-3.659
243.51	-13.158
243.89	-7.692
244.26	14.851
244.63	1.961
245.00	6.542
245.38	9.649
245.75	-2.655
246.12	11.905
246.49	15.504
246.87	18.571
247.24	8.609
247.61	14.474
247.98	14.765
248.36	14.815
248.73	9.816
249.10	11.475
249.47	17.413
249.84	19.372
250.22	10.363
250.59	18.889
250.96	21.818
251.33	13.265
251.70	20.085
252.08	15.417
252.45	17.213
252.82	19.421
253.19	17.578
253.56	21.293
253.94	12.308
254.31	17.045
254.68	23.427
255.05	19.544
255.42	16.667
255.79	14.239
256.16	18.543
256.54	21.523
256.91	20.984
257.28	18.689
257.65	15.287
258.02	15.929
258.39	17.664
258.76	25.076
259.14	20.402
259.51	19.020
259.88	17.564
260.25	20.000
260.62	21.096
260.99	22.678
261.36	20.375
261.73	18.302
262.10	21.154
262.47	21.180
262.85	20.960
263.22	18.182
263.59	17.368
263.96	23.529
264.33	20.460
264.70	23.457
265.07	22.912
265.44	23.356
265.81	19.444
266.18	21.995
266.55	19.643
266.92	19.818
267.29	24.289
267.66	18.847
268.03	19.651
268.40	22.547
268.77	20.729
269.14	17.841
269.51	19.079
269.88	21.516
270.25	19.517
270.62	21.308
270.99	21.818
271.36	23.366
271.73	24.165
272.10	19.639
272.47	21.443
272.84	22.691
273.21	22.445
273.58	20.363
273.95	20.385
274.32	19.011
274.69	21.857
275.06	19.963
275.43	18.484
275.80	19.753
276.17	22.593
276.54	19.590
276.91	20.036
277.28	20.976
277.65	22.262
278.02	20.956
278.39	22.283
278.76	20.914
279.13	21.986
279.50	21.134
279.87	20.751
280.23	19.014
280.60	22.203
280.97	20.066
281.34	19.185
281.71	22.504
282.08	22.093
282.45	20.786
282.82	22.135
283.19	19.063
283.56	19.180
283.92	21.171
284.29	21.643
284.66	24.466
285.03	18.910
285.40	21.947
285.77	21.517
286.14	23.359
286.51	20.852
286.87	20.695
287.24	22.741
287.61	21.076
287.98	18.429
288.35	20.710
288.72	20.414
289.08	21.962
289.45	18.639
289.82	20.934
290.19	21.264
290.56	20.423
290.93	21.683
291.29	21.625
291.66	20.248
292.03	18.318
292.40	23.265
292.77	21.429
293.13	20.162
293.50	19.580
293.87	20.134
294.24	20.667
294.60	20.733
294.97	18.523
295.34	21.383
295.71	18.916
296.08	20.413
296.44	19.118
296.81	21.681
297.18	18.680
297.55	19.929
297.91	19.217
298.28	19.668
298.65	20.690
299.02	19.953
299.38	20.938
299.75	18.692
300.12	21.181
300.48	20.507
300.85	19.798
301.22	19.016
301.59	20.205
301.95	20.226
302.32	20.556
302.69	20.591
303.05	21.436
303.42	21.286
303.79	19.688
304.15	19.348
304.52	21.036
304.89	20.942
305.25	21.014
305.62	18.809
305.99	21.237
306.35	20.060
306.72	21.923
307.09	20.102
307.45	20.807
307.82	20.787
308.19	19.778
308.55	21.794
308.92	21.908
309.29	20.690
309.65	20.955
310.02	21.386
310.38	20.276
310.75	20.388
311.12	20.901
311.48	20.528
311.85	21.368
312.22	20.968
312.58	21.690
312.95	21.224
313.31	22.042
313.68	21.886
314.05	22.493
314.41	22.495
314.78	21.980
315.14	22.868
315.51	23.453
315.87	23.582
316.24	21.826
316.61	23.801
316.97	22.172
317.34	22.487
317.70	23.930
318.07	23.457
318.43	24.150
318.80	23.662
319.16	23.519
319.53	21.937
319.89	23.663
320.26	25.178
320.62	22.961
320.99	24.377
321.35	24.677
321.72	24.744
322.08	24.617
322.45	24.029
322.81	25.903
323.18	23.186
323.54	24.914
323.91	25.890
324.27	25.215
324.64	25.609
325.00	24.876
325.37	26.290
325.73	27.025
326.10	28.386
326.46	28.176
326.83	28.423
327.19	28.425
327.56	27.352
327.92	29.426
328.29	28.387
328.65	29.062
329.01	29.272
329.38	30.076
329.74	30.565
330.11	31.164
330.47	31.003
330.84	31.094
331.20	31.583
331.56	30.763
331.93	32.134
332.29	31.780
332.66	31.395
333.02	31.910
333.38	31.879
333.75	31.650
334.11	32.861
334.48	32.756
334.84	33.985
335.20	31.906
335.57	33.642
335.93	33.058
336.29	31.281
336.66	33.137
337.02	32.609
337.38	32.653
337.75	32.727
338.11	31.960
338.47	32.837
338.84	32.064
339.20	31.592
339.56	31.960
339.93	32.677
340.29	32.367
340.65	32.036
341.02	32.003
341.38	32.498
341.74	31.154
342.11	32.582
342.47	31.215
342.83	33.011
343.20	33.361
343.56	32.879
343.92	32.426
344.28	31.953
344.65	32.326
345.01	31.903
345.37	32.659
345.73	32.268
346.10	33.541
346.46	32.991
346.82	31.086
347.19	32.391
347.55	32.018
347.91	33.210
348.27	31.942
348.63	32.521
349.00	31.916
349.36	31.896
349.72	32.366
350.08	32.764
350.45	32.548
350.81	32.579
351.17	32.556
351.53	32.449
351.89	32.726
352.26	32.015
352.62	31.791
352.98	33.282
353.34	31.367
353.70	34.052
354.07	31.595
354.43	32.043
354.79	31.713
355.15	32.082
355.51	33.845
355.87	32.685
356.24	33.612
356.60	30.673
356.96	32.765
357.32	33.234
357.68	32.650
358.04	32.111
358.40	32.015
358.77	32.895
359.13	32.349
359.49	31.375
359.85	33.140
360.21	34.433
360.57	32.592
360.93	32.017
361.29	33.895
361.66	33.671
362.02	34.586
362.38	34.013
362.74	33.729
363.10	34.319
363.46	34.141
363.82	33.949
364.18	34.905
364.54	33.679
364.90	33.980
365.26	34.966
365.62	34.333
365.98	34.377
366.35	34.564
366.71	34.830
367.07	35.589
367.43	34.340
367.79	35.036
368.15	35.652
368.51	35.453
368.87	35.271
369.23	34.067
369.59	35.246
369.95	35.700
370.31	36.192
370.67	36.039
371.03	35.180
371.39	35.326
371.75	36.451
372.11	36.179
372.47	35.884
372.83	36.780
373.19	35.557
373.55	36.653
373.91	35.242
374.27	35.382
374.63	36.265
374.99	36.273
375.35	37.857
375.71	37.742
376.07	36.862
376.42	36.776
376.78	38.595
377.14	37.742
377.50	37.634
377.86	38.362
378.22	39.581
378.58	38.407
378.94	39.026
379.30	38.489
379.66	39.153
380.02	40.565
380.38	40.495
380.74	39.155
381.09	39.489
381.45	39.261
381.81	41.276
382.17	40.439
382.53	40.058
382.89	39.898
383.25	41.325
383.61	40.162
383.97	42.226
384.32	41.567
384.68	40.603
385.04	41.700
385.40	43.489
385.76	42.028
386.12	42.071
386.48	42.176
386.83	42.372
387.19	41.773
387.55	43.369
387.91	43.436
388.27	43.014
388.62	42.268
388.98	42.865
389.34	44.078
389.70	43.870
390.06	44.227
390.42	43.072
390.77	44.311
391.13	43.779
391.49	43.720
391.85	43.879
392.20	43.950
392.56	45.659
392.92	44.329
393.28	44.168
393.64	44.525
393.99	45.613
394.35	45.853
394.71	45.629
395.07	45.030
395.42	44.717
395.78	46.313
396.14	46.465
396.50	45.665
396.85	44.365
397.21	46.509
397.57	45.642
397.92	44.387
398.28	46.062
398.64	46.167
399.00	44.503
399.35	46.178
399.71	45.815
400.07	45.929
400.42	46.449
400.78	45.949
401.14	46.215
401.49	46.674
401.85	46.977
402.21	45.655
402.57	45.657
402.92	45.154
403.28	45.023
403.63	46.420
403.99	44.893
404.35	45.139
404.70	45.552
405.06	45.924
405.42	46.604
405.77	45.911
406.13	44.733
406.49	46.509
406.84	46.427
407.20	45.109
407.55	44.821
407.91	45.192
408.27	45.171
408.62	45.608
408.98	46.198
409.34	45.689
409.69	46.724
410.05	46.424
410.40	46.288
410.76	46.719
411.11	46.523
411.47	46.499
411.83	47.678
412.18	47.349
412.54	46.058
412.89	46.508
413.25	46.783
413.60	46.123
413.96	46.154
414.31	46.006
414.67	45.200
415.03	46.277
415.38	46.847
415.74	45.449
416.09	46.638
416.45	45.585
416.80	45.043
417.16	45.849
417.51	46.326
417.87	47.578
418.22	46.886
418.58	46.097
418.93	46.217
419.29	46.917
419.64	45.858
420.00	46.172
420.35	47.726
420.71	47.214
421.06	46.348
421.42	46.961
421.77	47.119
422.12	46.934
422.48	46.697
422.83	48.412
423.19	48.541
423.54	48.341
423.90	46.880
424.25	47.947
424.61	47.015
424.96	48.051
425.31	48.248
425.67	47.450
426.02	47.482
426.38	47.589
426.73	47.321
427.09	48.558
427.44	47.843
427.79	46.656
428.15	48.059
428.50	47.640
428.85	46.843
429.21	49.043
429.56	47.878
429.92	47.912
430.27	48.145
430.62	48.901
430.98	48.893
431.33	48.192
431.68	48.659
432.04	47.435
432.39	48.152
432.74	47.317
433.10	48.783
433.45	47.993
433.80	48.283
434.16	49.174
434.51	48.972
434.86	50.380
435.22	50.266
435.57	48.762
435.92	49.249
436.28	49.545
436.63	49.863
436.98	48.953
437.34	49.718
437.69	48.046
438.04	47.594
438.39	49.512
438.75	49.640
439.10	48.626
439.45	48.966
439.81	48.701
440.16	48.633
440.51	49.498
440.86	48.694
441.22	49.035
441.57	49.581
441.92	50.097
442.27	50.253
442.63	48.634
442.98	50.320
443.33	50.605
443.68	49.405
444.03	49.765
444.39	50.578
444.74	50.230
445.09	48.758
445.44	49.789
445.79	50.144
446.15	49.229
446.50	49.664
446.85	48.881
447.20	49.565
447.55	49.895
447.91	49.529
448.26	49.789
448.61	49.628
448.96	49.303
449.31	48.621
449.66	49.673
450.02	48.945
450.37	48.908
450.72	48.439
451.07	49.317
451.42	50.029
451.77	48.583
452.12	49.210
452.47	48.782
452.83	50.056
453.18	49.445
453.53	48.880
453.88	48.040
454.23	49.209
454.58	49.739
454.93	47.937
455.28	49.970
455.63	50.654
455.98	48.603
456.34	49.411
456.69	48.971
457.04	49.645
457.39	48.670
457.74	50.280
458.09	48.655
458.44	48.922
458.79	49.304
459.14	49.449
459.49	50.368
459.84	50.000
460.19	48.418
460.54	49.233
460.89	49.074
461.24	47.989
461.59	49.087
461.94	48.716
462.29	50.336
462.64	48.220
462.99	47.709
463.34	49.903
463.69	47.538
464.04	49.083
464.39	48.318
464.74	48.689
465.09	48.962
465.44	49.249
465.79	50.502
466.14	49.192
466.49	49.263
466.84	50.138
467.19	49.538
467.54	47.944
467.89	48.736
468.24	47.368
468.59	48.002
468.94	48.193
469.29	47.630
469.64	47.743
469.99	47.865
470.34	46.658
470.68	48.257
471.03	47.151
471.38	46.893
471.73	48.049
472.08	49.175
472.43	47.803
472.78	47.481
473.13	48.167
473.48	48.640
473.83	48.230
474.17	47.362
474.52	49.188
474.87	47.342
475.22	47.662
475.57	48.442
475.92	48.034
476.27	48.403
476.61	47.767
476.96	48.436
477.31	48.614
477.66	48.951
478.01	46.873
478.36	46.909
478.70	48.128
479.05	48.108
479.40	49.112
479.75	47.935
480.10	47.845
480.45	47.539
480.79	47.483
481.14	47.381
481.49	47.388
481.84	48.259
482.19	48.258
482.53	49.191
482.88	47.674
483.23	47.932
483.58	47.860
483.92	47.739
484.27	46.867
484.62	47.071
484.97	47.589
485.31	46.498
485.66	44.856
486.01	47.368
486.36	50.115
486.70	52.746
487.05	52.754
487.40	50.267
487.75	48.244
488.09	47.901
488.44	45.561
488.79	46.138
489.13	46.343
489.48	45.282
489.83	46.761
490.17	46.416
490.52	45.854
490.87	46.362
491.22	46.880
491.56	46.288
491.91	46.271
492.26	45.868
492.60	45.868
492.95	46.424
493.30	47.064
493.64	46.693
493.99	45.307
494.34	45.514
494.68	46.039
495.03	46.872
495.37	46.427
495.72	46.122
496.07	46.713
496.41	45.045
496.76	47.248
497.11	46.837
497.45	46.310
497.80	46.024
498.14	45.805
498.49	46.232
498.84	45.430
499.18	45.884
499.53	45.740
499.87	45.846
500.22	46.705
500.56	45.614
500.91	46.728
501.26	47.409
501.60	45.957
501.95	46.505
502.29	47.389
502.64	46.130
502.98	45.686
503.33	45.529
503.67	46.140
504.02	45.841
504.36	46.470
504.71	45.935
505.06	46.066
505.40	46.115
505.75	45.355
506.09	45.626
506.44	45.682
506.78	47.018
507.13	46.335
507.47	46.187
507.82	45.455
508.16	45.889
508.51	45.945
508.85	46.292
509.19	45.760
509.54	45.437
509.88	46.090
510.23	45.459
510.57	46.641
510.92	46.396
511.26	45.551
511.61	46.016
511.95	45.144
512.30	45.396
512.64	45.177
512.98	45.123
513.33	46.270
513.67	45.895
514.02	45.733
514.36	46.189
514.70	45.938
515.05	46.872
515.39	45.197
515.74	46.288
516.08	45.272
516.42	46.102
516.77	45.058
517.11	45.281
517.46	45.758
517.80	45.216
518.14	45.919
518.49	45.228
518.83	45.184
519.17	44.965
519.52	44.706
519.86	45.459
520.20	46.219
520.55	44.414
520.89	44.989
521.23	45.003
521.58	44.746
521.92	44.703
522.26	44.101
522.61	44.907
522.95	44.175
523.29	45.977
523.64	44.451
523.98	46.207
524.32	45.673
524.66	45.304
525.01	44.168
525.35	44.974
525.69	44.606
526.04	44.432
526.38	44.540
526.72	44.233
527.06	45.279
527.41	43.732
527.75	46.021
528.09	45.041
528.43	45.293
528.78	44.046
529.12	45.298
529.46	43.957
529.80	45.995
530.15	45.855
530.49	45.136
530.83	45.277
531.17	44.624
531.51	44.284
531.86	44.651
532.20	45.000
532.54	43.507
532.88	44.909
533.22	42.899
533.57	45.759
533.91	44.893
534.25	44.997
534.59	45.000
534.93	45.444
535.27	46.085
535.62	45.082
535.96	44.625
536.30	44.066
536.64	46.426
536.98	44.157
537.32	44.753
537.66	44.230
538.01	44.653
538.35	45.006
538.69	45.373
539.03	44.942
539.37	44.641
539.71	45.345
540.05	44.844
540.39	44.804
540.73	44.687
541.07	43.838
541.42	43.473
541.76	43.357
542.10	44.270
542.44	43.910
542.78	44.647
543.12	45.411
543.46	43.223
543.80	43.885
544.14	45.242
544.48	43.853
544.82	44.644
545.16	44.961
545.50	43.739
545.84	44.581
546.18	45.185
546.52	45.541
546.86	43.899
547.20	44.593
547.54	42.509
547.88	43.761
548.22	44.971
548.56	44.412
548.90	44.299
549.24	45.289
549.58	44.543
549.92	43.750
550.26	43.495
550.60	44.161
550.94	43.984
551.28	41.518
551.62	42.992
551.96	44.013
552.30	44.041
552.64	44.368
552.98	44.791
553.32	44.630
553.66	44.244
554.00	43.443
554.34	44.659
554.68	42.673
555.02	42.838
555.36	44.181
555.69	42.601
556.03	43.443
556.37	44.368
556.71	44.325
557.05	44.601
557.39	43.198
557.73	43.065
558.07	43.179
558.41	44.120
558.75	44.084
559.08	43.424
559.42	42.867
559.76	43.758
560.10	42.532
560.44	44.327
560.78	45.438
561.12	44.458
561.45	44.282
561.79	44.322
562.13	44.609
562.47	43.157
562.81	42.975
563.15	43.750
563.48	44.624
563.82	43.954
564.16	43.004
564.50	43.087
564.84	43.363
565.17	44.059
565.51	42.578
565.85	44.477
566.19	43.088
566.52	44.353
566.86	44.595
567.20	43.339
567.54	45.141
567.88	45.362
568.21	45.652
568.55	45.755
568.89	45.756
569.23	45.120
569.56	46.971
569.90	46.044
570.24	46.813
570.57	46.280
570.91	45.836
571.25	46.051
571.59	46.591
571.92	46.135
572.26	46.612
572.60	45.973
572.93	45.227
573.27	45.743
573.61	45.024
573.95	45.764
574.28	46.041
574.62	46.544
574.96	46.339
575.29	45.605
575.63	45.530
575.97	45.413
576.30	45.028
576.64	45.383
576.98	45.649
577.31	46.080
577.65	46.224
577.98	46.103
578.32	46.810
578.66	47.192
578.99	46.283
579.33	45.554
579.67	45.399
580.00	45.314
580.34	45.484
580.67	45.278
581.01	45.651
581.35	45.938
581.68	46.584
582.02	46.547
582.35	47.764
582.69	47.879
583.02	46.645
583.36	46.211
583.70	45.694
584.03	44.804
584.37	44.483
584.70	43.667
585.04	44.897
585.37	45.515
585.71	46.559
586.04	45.905
586.38	46.216
586.72	45.074
587.05	45.920
587.39	45.350
587.72	46.124
588.06	45.721
588.39	45.756
588.73	45.079
589.06	45.655
589.40	45.851
589.73	45.598
590.07	44.695
590.40	45.199
590.73	44.928
591.07	45.942
591.40	44.984
591.74	44.316
592.07	44.580
592.41	44.046
592.74	45.083
593.08	46.338
593.41	46.748
593.75	46.466
594.08	46.592
594.41	46.186
594.75	45.135
595.08	44.886
595.42	45.714
595.75	45.173
596.09	45.984
596.42	45.073
596.75	44.848
597.09	44.404
597.42	43.504
597.75	45.002
598.09	44.722
598.42	44.833
598.76	44.861
599.09	45.034
599.42	44.921
599.76	45.923
600.09	45.746
600.42	45.245
600.76	45.773
601.09	45.038
601.42	44.422
601.76	44.103
602.09	44.889
602.42	44.529
602.76	44.022
603.09	45.154
603.42	45.303
603.76	45.102
604.09	45.671
604.42	44.954
604.76	44.140
605.09	44.555
605.42	44.856
605.75	44.038
606.09	44.830
606.42	44.363
606.75	44.303
607.09	43.971
607.42	44.547
607.75	45.721
608.08	44.712
608.42	44.135
608.75	44.818
609.08	44.058
609.41	43.626
609.75	43.571
610.08	44.415
610.41	45.157
610.74	44.328
611.07	45.337
611.41	44.529
611.74	44.296
612.07	44.974
612.40	44.106
612.73	44.597
613.07	44.450
613.40	45.525
613.73	43.813
614.06	43.867
614.39	44.121
614.72	43.814
615.06	43.455
615.39	43.789
615.72	44.265
616.05	44.633
616.38	44.551
616.71	43.678
617.05	43.504
617.38	43.606
617.71	43.790
618.04	43.767
618.37	44.426
618.70	43.891
619.03	42.234
619.36	42.417
619.69	43.177
620.03	43.440
620.36	42.883
620.69	42.936
621.02	43.307
621.35	43.759
621.68	42.444
622.01	42.562
622.34	42.329
622.67	43.368
623.00	41.700
623.33	43.928
623.66	44.553
623.99	43.055
624.32	42.950
624.65	42.664
624.99	44.083
625.32	44.415
625.65	43.560
625.98	42.441
626.31	43.161
626.64	42.711
626.97	42.086
627.30	41.838
627.63	42.086
627.96	42.492
628.29	42.335
628.62	42.317
628.95	42.770
629.28	42.566
629.61	42.677
629.94	41.674
630.26	41.695
630.59	42.746
630.92	41.558
