SpectraSuite Data File
++++++++++++++++++++++++++++++++++++
Date: Thu May 14 14:34:40 PDT 2015
User: schluterlab
Dark Spectrum Present: Yes
Reference Spectrum Present: Yes
Number of Sampled Component Spectra: 1
Spectrometers: USB2E3373
Integration Time (usec): 3000 (USB2E3373)
Spectra Averaged: 3 (USB2E3373)
Boxcar Smoothing: 0 (USB2E3373)
Correct for Electrical Dark: No (USB2E3373)
Strobe/Lamp Enabled: No (USB2E3373)
Correct for Detector Non-linearity: No (USB2E3373)
Correct for Stray Light: No (USB2E3373)
Number of Pixels in Processed Spectrum: 2048
>>>>>Begin Processed Spectral Data<<<<<
178.53	0.000
178.91	-271.429
179.29	500.000
179.67	1700.000
180.04	-14.286
180.42	-240.000
180.80	-240.000
181.18	1500.000
181.56	2000.000
181.94	-625.000
182.31	375.000
182.69	-533.333
183.07	800.000
183.45	-425.000
183.83	183.333
184.20	566.667
184.58	-1400.000
184.96	375.000
185.34	166.667
185.72	400.000
186.09	-33.333
186.47	-400.000
186.85	-260.000
187.23	22.222
187.61	1200.000
187.98	-460.000
188.36	-400.000
188.74	400.000
189.12	566.667
189.49	168.750
189.87	125.000
190.25	155.556
190.63	400.000
191.00	166.667
191.38	0.000
191.76	200.000
192.14	316.667
192.51	-550.000
192.89	466.667
193.27	0.000
193.65	228.571
194.02	500.000
194.40	128.571
194.78	-257.143
195.15	0.000
195.53	218.182
195.91	0.000
196.29	425.000
196.66	130.769
197.04	600.000
197.42	85.714
197.79	600.000
198.17	187.500
198.55	214.286
198.92	244.444
199.30	187.500
199.68	236.364
200.05	185.714
200.43	550.000
200.81	-200.000
201.18	0.000
201.56	-133.333
201.94	0.000
202.31	-233.333
202.69	155.556
203.07	-2400.000
203.44	144.444
203.82	275.000
204.19	175.000
204.57	300.000
204.95	250.000
205.32	500.000
205.70	-425.000
206.08	333.333
206.45	366.667
206.83	-60.000
207.20	300.000
207.58	280.000
207.96	250.000
208.33	383.333
208.71	-16.667
209.08	366.667
209.46	0.000
209.84	-233.333
210.21	-850.000
210.59	-650.000
210.96	-533.333
211.34	600.000
211.71	337.500
212.09	1100.000
212.46	0.000
212.84	-500.000
213.22	260.000
213.59	775.000
213.97	200.000
214.34	700.000
214.72	-133.333
215.09	425.000
215.47	0.000
215.84	-300.000
216.22	-500.000
216.59	360.000
216.97	260.000
217.34	400.000
217.72	62.500
218.09	400.000
218.47	100.000
218.84	0.000
219.22	-400.000
219.59	141.176
219.97	155.000
220.34	-500.000
220.72	222.222
221.09	169.231
221.47	700.000
221.84	150.000
222.22	185.714
222.59	0.000
222.97	150.000
223.34	180.000
223.72	2300.000
224.09	350.000
224.46	625.000
224.84	480.000
225.21	171.429
225.59	375.000
225.96	500.000
226.34	65.385
226.71	-66.667
227.08	700.000
227.46	146.667
227.83	50.000
228.21	142.105
228.58	-175.000
228.95	-750.000
229.33	275.000
229.70	190.000
230.08	184.211
230.45	-160.000
230.82	633.333
231.20	107.143
231.57	183.333
231.95	118.182
232.32	263.636
232.69	135.000
233.07	375.000
233.44	141.176
233.81	130.000
234.19	116.667
234.56	90.909
234.93	72.414
235.31	68.421
235.68	100.000
236.05	65.000
236.43	96.154
236.80	128.000
237.17	70.370
237.55	57.576
237.92	150.000
238.29	70.968
238.67	38.636
239.04	61.111
239.41	30.952
239.79	39.130
240.16	48.148
240.53	6.522
240.91	27.451
241.28	19.672
241.65	38.806
242.02	41.892
242.40	16.923
242.77	16.000
243.14	12.195
243.51	22.368
243.89	17.949
244.26	27.723
244.63	23.529
245.00	18.692
245.38	13.158
245.75	5.310
246.12	17.460
246.49	13.178
246.87	17.143
247.24	20.530
247.61	15.132
247.98	14.765
248.36	9.259
248.73	3.681
249.10	8.743
249.47	14.925
249.84	15.183
250.22	8.290
250.59	10.000
250.96	12.727
251.33	5.612
251.70	11.966
252.08	9.583
252.45	11.066
252.82	8.678
253.19	5.469
253.56	8.745
253.94	6.538
254.31	10.227
254.68	10.140
255.05	6.189
255.42	8.503
255.79	8.091
256.16	9.603
256.54	7.616
256.91	10.164
257.28	9.180
257.65	7.006
258.02	6.490
258.39	6.553
258.76	8.869
259.14	10.632
259.51	7.781
259.88	5.949
260.25	6.667
260.62	6.301
260.99	7.377
261.36	9.383
261.73	6.631
262.10	3.571
262.47	7.775
262.85	8.081
263.22	4.416
263.59	3.421
263.96	6.138
264.33	4.092
264.70	4.691
265.07	6.683
265.44	7.710
265.81	3.241
266.18	7.256
266.55	5.804
266.92	3.645
267.29	7.659
267.66	7.539
268.03	6.769
268.40	6.472
268.77	2.961
269.14	3.965
269.51	6.140
269.88	6.762
270.25	5.433
270.62	5.907
270.99	6.869
271.36	6.139
271.73	4.715
272.10	6.814
272.47	4.609
272.84	4.618
273.21	6.613
273.58	5.645
273.95	6.154
274.32	4.373
274.69	3.095
275.06	7.326
275.43	4.621
275.80	6.173
276.17	5.370
276.54	2.985
276.91	4.472
277.28	5.606
277.65	3.770
278.02	5.147
278.39	5.978
278.76	4.042
279.13	4.078
279.50	7.560
279.87	6.261
280.23	1.761
280.60	5.424
280.97	4.605
281.34	3.396
281.71	5.076
282.08	4.651
282.45	2.128
282.82	4.867
283.19	3.069
283.56	4.590
283.92	6.456
284.29	6.951
284.66	5.090
285.03	3.686
285.40	5.564
285.77	4.334
286.14	4.580
286.51	4.718
286.87	5.213
287.24	5.422
287.61	3.288
287.98	3.776
288.35	4.142
288.72	4.734
289.08	4.685
289.45	3.698
289.82	3.614
290.19	4.310
290.56	4.085
290.93	3.138
291.29	4.683
291.66	4.545
292.03	3.664
292.40	4.898
292.77	4.987
293.13	3.924
293.50	2.497
293.87	2.819
294.24	6.000
294.60	4.804
294.97	3.087
295.34	5.506
295.71	3.279
296.08	3.618
296.44	3.309
296.81	3.776
297.18	2.615
297.55	3.302
297.91	3.440
298.28	2.607
298.65	4.875
299.02	3.778
299.38	4.348
299.75	3.037
300.12	2.546
300.48	3.341
300.85	5.174
301.22	3.356
301.59	2.169
301.95	3.503
302.32	4.111
302.69	2.191
303.05	3.917
303.42	3.215
303.79	3.021
304.15	3.575
304.52	1.691
304.89	3.455
305.25	4.658
305.62	3.239
305.99	3.196
306.35	3.125
306.72	4.240
307.09	3.350
307.45	3.727
307.82	3.532
308.19	3.128
308.55	3.086
308.92	2.824
309.29	4.119
309.65	2.047
310.02	3.861
310.38	2.362
310.75	2.913
311.12	3.835
311.48	2.542
311.85	3.134
312.22	2.562
312.58	1.784
312.95	3.250
313.31	3.162
313.68	2.930
314.05	4.065
314.41	3.097
314.78	4.269
315.14	3.085
315.51	3.416
315.87	3.420
316.24	3.288
316.61	3.641
316.97	2.443
317.34	2.910
317.70	3.144
318.07	3.616
318.43	2.976
318.80	5.100
319.16	3.519
319.53	1.714
319.89	2.542
320.26	4.270
320.62	3.723
320.99	3.047
321.35	3.142
321.72	3.907
322.08	3.066
322.45	3.613
322.81	2.888
323.18	2.743
323.54	3.103
323.91	3.470
324.27	3.873
324.64	3.275
325.00	3.566
325.37	4.095
325.73	3.306
326.10	3.001
326.46	4.723
326.83	3.283
327.19	2.598
327.56	3.636
327.92	2.439
328.29	3.145
328.65	2.596
329.01	2.961
329.38	3.960
329.74	3.510
330.11	3.767
330.47	3.370
330.84	3.618
331.20	4.083
331.56	2.773
331.93	3.849
332.29	3.983
332.66	3.405
333.02	3.266
333.38	3.523
333.75	2.694
334.11	2.919
334.48	3.878
334.84	4.078
335.20	2.351
335.57	3.710
335.93	3.223
336.29	2.995
336.66	2.355
337.02	2.926
337.38	3.997
337.75	3.058
338.11	3.701
338.47	3.970
338.84	2.876
339.20	2.527
339.56	3.295
339.93	3.202
340.29	4.348
340.65	2.920
341.02	3.591
341.38	4.446
341.74	3.148
342.11	3.138
342.47	2.780
342.83	4.509
343.20	3.679
343.56	2.406
343.92	4.323
344.28	3.281
344.65	4.496
345.01	2.808
345.37	3.110
345.73	2.416
346.10	3.276
346.46	3.165
346.82	4.045
347.19	4.125
347.55	3.414
347.91	3.046
348.27	2.580
348.63	3.808
349.00	2.610
349.36	3.197
349.72	2.530
350.08	3.418
350.45	2.129
350.81	2.564
351.17	3.083
351.53	3.336
351.89	3.721
352.26	2.985
352.62	3.507
352.98	2.977
353.34	2.539
353.70	2.696
354.07	3.577
354.43	2.658
354.79	3.291
355.15	3.311
355.51	3.436
355.87	3.291
356.24	2.966
356.60	3.178
356.96	3.336
357.32	3.792
357.68	2.855
358.04	2.545
358.40	2.687
358.77	3.216
359.13	2.216
359.49	1.115
359.85	2.828
360.21	3.156
360.57	2.943
360.93	3.032
361.29	3.018
361.66	3.186
362.02	4.106
362.38	2.952
362.74	2.374
363.10	3.026
363.46	2.978
363.82	1.634
364.18	2.745
364.54	2.974
364.90	3.077
365.26	2.897
365.62	3.533
365.98	2.723
366.35	3.490
366.71	2.857
367.07	2.977
367.43	3.349
367.79	2.522
368.15	3.211
368.51	2.368
368.87	3.135
369.23	3.133
369.59	2.254
369.95	2.569
370.31	3.106
370.67	2.957
371.03	2.839
371.39	2.888
371.75	2.957
372.11	2.913
372.47	2.844
372.83	3.665
373.19	3.736
373.55	3.455
373.91	2.863
374.27	2.846
374.63	3.180
374.99	3.249
375.35	3.247
375.71	2.839
376.07	2.841
376.42	3.086
376.78	3.543
377.14	3.431
377.50	2.783
377.86	3.571
378.22	3.413
378.58	2.616
378.94	2.817
379.30	2.460
379.66	3.233
380.02	2.770
380.38	3.341
380.74	2.930
381.09	2.787
381.45	3.182
381.81	3.044
382.17	3.741
382.53	3.099
382.89	3.894
383.25	3.400
383.61	2.373
383.97	3.004
384.32	3.349
384.68	2.900
385.04	3.644
385.40	3.477
385.76	3.458
386.12	4.069
386.48	3.471
386.83	3.695
387.19	3.244
387.55	2.993
387.91	3.710
388.27	3.464
388.62	3.952
388.98	3.779
389.34	3.300
389.70	3.312
390.06	3.848
390.42	3.133
390.77	4.094
391.13	3.052
391.49	4.408
391.85	3.030
392.20	3.796
392.56	4.607
392.92	4.417
393.28	3.980
393.64	3.352
393.99	3.951
394.35	4.556
394.71	4.132
395.07	3.593
395.42	3.484
395.78	4.814
396.14	4.219
396.50	3.385
396.85	3.936
397.21	4.142
397.57	4.181
397.92	4.238
398.28	3.585
398.64	4.062
399.00	3.455
399.35	4.136
399.71	3.587
400.07	3.650
400.42	3.958
400.78	3.472
401.14	4.382
401.49	4.093
401.85	3.663
402.21	4.229
402.57	4.284
402.92	4.078
403.28	3.220
403.63	3.699
403.99	4.097
404.35	3.980
404.70	3.796
405.06	4.130
405.42	3.806
405.77	4.308
406.13	3.836
406.49	3.829
406.84	4.488
407.20	4.080
407.55	3.574
407.91	4.274
408.27	3.946
408.62	4.363
408.98	3.831
409.34	3.284
409.69	3.770
410.05	3.810
410.40	4.756
410.76	3.870
411.11	4.559
411.47	4.177
411.83	4.056
412.18	3.976
412.54	4.209
412.89	4.366
413.25	4.120
413.60	4.193
413.96	4.138
414.31	4.249
414.67	4.055
415.03	3.631
415.38	4.224
415.74	3.849
416.09	4.627
416.45	4.884
416.80	4.345
417.16	4.278
417.51	4.296
417.87	4.169
418.22	4.551
418.58	4.151
418.93	4.657
419.29	3.699
419.64	3.902
420.00	4.154
420.35	4.323
420.71	4.480
421.06	3.565
421.42	4.186
421.77	3.500
422.12	4.334
422.48	3.738
422.83	4.436
423.19	4.085
423.54	3.927
423.90	4.031
424.25	4.373
424.61	4.133
424.96	4.613
425.31	4.618
425.67	3.757
426.02	3.874
426.38	3.674
426.73	3.627
427.09	5.075
427.44	3.987
427.79	4.091
428.15	3.368
428.50	3.989
428.85	3.789
429.21	4.255
429.56	3.850
429.92	4.275
430.27	3.759
430.62	4.006
430.98	3.443
431.33	3.910
431.68	3.161
432.04	4.215
432.39	3.964
432.74	4.338
433.10	3.786
433.45	3.846
433.80	3.648
434.16	4.132
434.51	4.162
434.86	3.583
435.22	4.038
435.57	4.953
435.92	4.229
436.28	3.982
436.63	4.260
436.98	4.079
437.34	4.171
437.69	3.742
438.04	4.125
438.39	4.193
438.75	3.376
439.10	4.545
439.45	4.639
439.81	4.011
440.16	3.807
440.51	4.069
440.86	3.613
441.22	4.180
441.57	4.193
441.92	4.122
442.27	4.293
442.63	4.322
442.98	4.002
443.33	4.314
443.68	4.609
444.03	4.704
444.39	3.883
444.74	4.441
445.09	4.257
445.44	3.899
445.79	3.831
446.15	4.214
446.50	3.928
446.85	4.086
447.20	4.545
447.55	4.393
447.91	4.188
448.26	3.594
448.61	4.304
448.96	4.667
449.31	3.977
449.66	3.976
450.02	3.745
450.37	3.783
450.72	3.767
451.07	5.068
451.42	4.102
451.77	4.113
452.12	4.458
452.47	3.803
452.83	3.998
453.18	4.086
453.53	4.078
453.88	4.362
454.23	4.294
454.58	4.295
454.93	3.944
455.28	5.057
455.63	4.662
455.98	4.469
456.34	4.122
456.69	4.527
457.04	3.960
457.39	4.379
457.74	4.810
458.09	3.679
458.44	4.418
458.79	4.229
459.14	4.405
459.49	4.471
459.84	3.673
460.19	4.109
460.54	4.543
460.89	3.653
461.24	3.678
461.59	4.649
461.94	3.765
462.29	4.255
462.64	4.164
462.99	4.583
463.34	4.802
463.69	4.279
464.04	5.058
464.39	4.260
464.74	4.219
465.09	4.095
465.44	4.024
465.79	4.495
466.14	4.429
466.49	3.947
466.84	4.298
467.19	4.566
467.54	4.113
467.89	3.908
468.24	4.044
468.59	3.474
468.94	3.730
469.29	3.899
469.64	3.687
469.99	3.697
470.34	4.394
470.68	4.648
471.03	4.977
471.38	4.578
471.73	4.031
472.08	4.378
472.43	4.395
472.78	4.156
473.13	3.161
473.48	5.257
473.83	4.817
474.17	4.748
474.52	3.909
474.87	4.762
475.22	5.014
475.57	4.309
475.92	4.082
476.27	4.846
476.61	4.465
476.96	3.806
477.31	4.257
477.66	4.565
478.01	4.321
478.36	4.437
478.70	3.596
479.05	4.857
479.40	4.195
479.75	4.851
480.10	3.884
480.45	4.512
480.79	4.354
481.14	3.768
481.49	3.544
481.84	4.439
482.19	3.570
482.53	4.066
482.88	3.190
483.23	3.513
483.58	3.624
483.92	3.369
484.27	4.276
484.62	3.630
484.97	4.471
485.31	3.942
485.66	3.727
486.01	3.287
486.36	3.306
486.70	3.597
487.05	3.506
487.40	3.692
487.75	3.919
488.09	3.776
488.44	3.884
488.79	4.519
489.13	4.091
489.48	3.650
489.83	3.863
490.17	3.686
490.52	4.228
490.87	4.061
491.22	3.553
491.56	4.266
491.91	3.663
492.26	4.241
492.60	3.717
492.95	4.300
493.30	3.944
493.64	3.986
493.99	4.079
494.34	4.094
494.68	3.512
495.03	3.612
495.37	4.128
495.72	4.308
496.07	4.426
496.41	3.647
496.76	4.462
497.11	3.737
497.45	3.669
497.80	4.576
498.14	4.218
498.49	3.309
498.84	4.022
499.18	3.914
499.53	4.619
499.87	4.044
500.22	3.161
500.56	3.959
500.91	4.119
501.26	4.182
501.60	4.110
501.95	3.995
502.29	4.476
502.64	4.373
502.98	4.098
503.33	4.406
503.67	4.274
504.02	3.590
504.36	4.513
504.71	4.134
505.06	4.002
505.40	3.839
505.75	4.326
506.09	4.742
506.44	4.039
506.78	4.128
507.13	4.288
507.47	4.548
507.82	4.498
508.16	3.967
508.51	3.844
508.85	4.251
509.19	4.690
509.54	4.707
509.88	4.468
510.23	4.031
510.57	4.882
510.92	3.870
511.26	4.425
511.61	4.587
511.95	4.783
512.30	4.284
512.64	4.598
512.98	4.502
513.33	4.435
513.67	4.386
514.02	4.088
514.36	4.501
514.70	4.219
515.05	4.536
515.39	4.409
515.74	4.984
516.08	4.966
516.42	5.233
516.77	4.364
517.11	4.487
517.46	4.454
517.80	4.650
518.14	4.951
518.49	4.610
518.83	5.162
519.17	4.093
519.52	5.031
519.86	5.016
520.20	5.325
520.55	4.545
520.89	4.617
521.23	5.137
521.58	5.028
521.92	4.363
522.26	4.296
522.61	4.340
522.95	5.017
523.29	4.655
523.64	4.765
523.98	4.792
524.32	4.871
524.66	4.439
525.01	5.153
525.35	5.112
525.69	4.930
526.04	4.822
526.38	4.770
526.72	5.306
527.06	5.630
527.41	5.015
527.75	5.463
528.09	4.664
528.43	4.618
528.78	4.451
529.12	5.161
529.46	4.947
529.80	4.634
530.15	4.638
530.49	4.448
530.83	4.782
531.17	4.480
531.51	4.633
531.86	5.048
532.20	5.610
532.54	4.967
532.88	5.030
533.22	4.420
533.57	5.309
533.91	5.219
534.25	5.427
534.59	5.057
534.93	3.848
535.27	5.014
535.62	4.832
535.96	4.823
536.30	4.642
536.64	5.766
536.98	5.228
537.32	5.185
537.66	5.365
538.01	4.955
538.35	4.750
538.69	4.688
539.03	4.844
539.37	5.477
539.71	5.105
540.05	4.736
540.39	4.890
540.73	4.979
541.07	4.844
541.42	4.843
541.76	4.864
542.10	4.343
542.44	4.629
542.78	5.109
543.12	5.185
543.46	5.433
543.80	4.436
544.14	4.728
544.48	5.142
544.82	5.027
545.16	4.532
545.50	5.093
545.84	4.715
546.18	5.802
546.52	5.478
546.86	4.780
547.20	5.407
547.54	4.869
547.88	5.124
548.22	4.503
548.56	4.681
548.90	4.597
549.24	5.167
549.58	4.353
549.92	4.911
550.26	5.696
550.60	4.659
550.94	4.528
551.28	5.545
551.62	5.054
551.96	5.049
552.30	5.927
552.64	5.227
552.98	5.303
553.32	4.759
553.66	4.887
554.00	4.729
554.34	4.762
554.68	5.875
555.02	5.913
555.36	5.588
555.69	4.228
556.03	4.918
556.37	5.257
556.71	5.010
557.05	5.048
557.39	4.380
557.73	4.954
558.07	4.371
558.41	5.714
558.75	5.815
559.08	4.871
559.42	4.870
559.76	6.038
560.10	5.559
560.44	5.475
560.78	5.062
561.12	4.741
561.45	5.474
561.79	5.739
562.13	4.498
562.47	4.994
562.81	4.620
563.15	4.861
563.48	5.158
563.82	4.837
564.16	4.603
564.50	4.410
564.84	4.897
565.17	5.588
565.51	4.833
565.85	4.216
566.19	3.975
566.52	5.091
566.86	5.376
567.20	4.785
567.54	4.727
567.88	4.077
568.21	4.694
568.55	4.556
568.89	4.993
569.23	4.943
569.56	4.299
569.90	4.277
570.24	3.777
570.57	3.913
570.91	3.644
571.25	4.165
571.59	4.481
571.92	4.131
572.26	3.812
572.60	4.150
572.93	4.230
573.27	4.074
573.61	3.944
573.95	4.030
574.28	3.854
574.62	3.683
574.96	3.683
575.29	3.723
575.63	3.950
575.97	4.024
576.30	4.022
576.64	3.698
576.98	4.169
577.31	4.052
577.65	3.694
577.98	3.690
578.32	3.548
578.66	3.807
578.99	3.604
579.33	3.868
579.67	3.853
580.00	3.866
580.34	4.167
580.67	3.795
581.01	3.851
581.35	3.818
581.68	3.940
582.02	3.876
582.35	3.749
582.69	3.695
583.02	3.719
583.36	3.882
583.70	3.840
584.03	4.008
584.37	4.048
584.70	4.010
585.04	3.650
585.37	4.021
585.71	3.905
586.04	3.985
586.38	3.644
586.72	3.785
587.05	3.428
587.39	3.864
587.72	3.947
588.06	3.748
588.39	4.182
588.73	4.153
589.06	4.317
589.40	3.903
589.73	4.274
590.07	4.377
590.40	4.124
590.73	4.489
591.07	4.430
591.40	4.082
591.74	4.610
592.07	4.425
592.41	4.338
592.74	4.011
593.08	4.459
593.41	4.462
593.75	3.736
594.08	4.120
594.41	4.455
594.75	4.052
595.08	3.836
595.42	3.929
595.75	4.294
596.09	4.473
596.42	4.335
596.75	4.400
597.09	4.889
597.42	4.013
597.75	4.312
598.09	4.444
598.42	4.302
598.76	3.821
599.09	4.343
599.42	3.855
599.76	3.995
600.09	3.971
600.42	4.338
600.76	4.161
601.09	4.447
601.42	4.188
601.76	3.966
602.09	3.896
602.42	3.889
602.76	4.280
603.09	4.258
603.42	4.408
603.76	3.876
604.09	4.720
604.42	4.477
604.76	3.995
605.09	3.949
605.42	4.346
605.75	4.231
606.09	4.367
606.42	3.940
606.75	4.085
607.09	4.032
607.42	4.200
607.75	4.025
608.08	4.459
608.42	4.031
608.75	4.519
609.08	4.244
609.41	4.455
609.75	4.196
610.08	4.310
610.41	3.951
610.74	4.454
611.07	3.597
611.41	4.126
611.74	4.527
612.07	4.301
612.40	4.040
612.73	4.792
613.07	4.303
613.40	4.235
613.73	4.381
614.06	4.661
614.39	4.082
614.72	4.464
615.06	4.572
615.39	4.157
615.72	4.455
616.05	4.274
616.38	4.692
616.71	4.650
617.05	3.887
617.38	4.655
617.71	4.860
618.04	4.911
618.37	4.809
618.70	5.486
619.03	4.301
619.36	4.562
619.69	4.676
620.03	4.331
620.36	4.294
620.69	4.750
621.02	5.643
621.35	5.443
621.68	5.640
622.01	5.053
622.34	4.254
622.67	5.086
623.00	3.711
623.33	4.645
623.66	4.929
623.99	4.016
624.32	6.108
624.65	4.891
624.99	4.876
625.32	5.617
625.65	5.462
625.98	4.407
626.31	4.678
626.64	4.982
626.97	4.501
627.30	3.872
627.63	4.876
627.96	6.607
628.29	6.070
628.62	5.206
628.95	5.784
629.28	4.503
629.61	5.135
629.94	4.854
630.26	4.746
630.59	4.231
630.92	4.675
631.25	6.082
631.58	5.650
631.91	4.873
632.24	5.572
632.57	4.839
632.90	5.617
633.23	5.306
633.56	5.816
633.89	4.545
634.22	6.237
634.55	5.219
634.88	5.303
635.20	6.028
635.53	5.085
635.86	6.067
636.19	7.953
636.52	5.274
636.85	5.005
637.18	5.301
637.51	5.591
637.83	5.648
638.16	5.530
638.49	3.756
638.82	6.088
639.15	5.155
639.48	6.813
639.81	5.312
640.13	6.596
640.46	4.485
640.79	5.147
641.12	5.590
641.45	6.023
641.77	7.060
642.10	6.037
642.43	7.580
642.76	7.046
643.09	6.438
643.41	5.462
643.74	5.655
644.07	6.759
644.40	6.789
644.73	6.241
645.05	4.258
645.38	6.475
645.71	6.891
646.04	8.465
646.36	5.109
646.69	6.288
647.02	7.492
647.35	6.870
647.67	7.568
648.00	6.210
648.33	6.907
648.66	5.563
648.98	6.259
649.31	6.495
649.64	6.242
649.96	6.101
650.29	5.702
650.62	6.931
650.94	6.456
651.27	4.641
651.60	5.556
651.92	5.927
652.25	6.078
652.58	6.740
652.90	5.087
653.23	6.901
653.56	5.991
653.88	8.708
654.21	6.479
654.54	7.225
654.86	6.374
655.19	6.650
655.52	4.629
655.84	2.925
656.17	3.580
656.49	4.889
656.82	5.693
657.15	4.804
657.47	3.749
657.80	2.791
658.13	2.281
658.45	3.203
