SpectraSuite Data File
++++++++++++++++++++++++++++++++++++
Date: Thu May 14 15:02:15 PDT 2015
User: schluterlab
Dark Spectrum Present: Yes
Reference Spectrum Present: Yes
Number of Sampled Component Spectra: 1
Spectrometers: USB2E3373
Integration Time (usec): 3000 (USB2E3373)
Spectra Averaged: 3 (USB2E3373)
Boxcar Smoothing: 0 (USB2E3373)
Correct for Electrical Dark: No (USB2E3373)
Strobe/Lamp Enabled: No (USB2E3373)
Correct for Detector Non-linearity: No (USB2E3373)
Correct for Stray Light: No (USB2E3373)
Number of Pixels in Processed Spectrum: 2048
>>>>>Begin Processed Spectral Data<<<<<
178.53	0.000
178.91	371.429
179.29	-1900.000
179.67	-2300.000
180.04	278.571
180.42	220.000
180.80	500.000
181.18	-1700.000
181.56	-1300.000
181.94	550.000
182.31	-525.000
182.69	866.667
183.07	-1400.000
183.45	775.000
183.83	-416.667
184.20	-733.333
184.58	2300.000
184.96	-750.000
185.34	-188.889
185.72	-300.000
186.09	422.222
186.47	1400.000
186.85	580.000
187.23	-377.778
187.61	-2100.000
187.98	420.000
188.36	600.000
188.74	-625.000
189.12	-633.333
189.49	-125.000
189.87	-287.500
190.25	-188.889
190.63	-500.000
191.00	-211.111
191.38	0.000
191.76	-500.000
192.14	-416.667
192.51	1400.000
192.89	-300.000
193.27	0.000
193.65	-228.571
194.02	-3200.000
194.40	-414.286
194.78	400.000
195.15	0.000
195.53	-163.636
195.91	0.000
196.29	-375.000
196.66	-200.000
197.04	-2500.000
197.42	-314.286
197.79	-850.000
198.17	-350.000
198.55	-371.429
198.92	-211.111
199.30	-325.000
199.68	-190.909
200.05	-71.429
200.43	-1050.000
200.81	457.143
201.18	0.000
201.56	311.111
201.94	0.000
202.31	800.000
202.69	-344.444
203.07	1100.000
203.44	-233.333
203.82	-550.000
204.19	-208.333
204.57	-250.000
204.95	-287.500
205.32	-2400.000
205.70	550.000
206.08	-466.667
206.45	-300.000
206.83	720.000
207.20	-400.000
207.58	-560.000
207.96	-483.333
208.33	-333.333
208.71	216.667
209.08	-316.667
209.46	0.000
209.84	550.000
210.21	1100.000
210.59	1200.000
210.96	900.000
211.34	-500.000
211.71	-262.500
212.09	-2300.000
212.46	0.000
212.84	1300.000
213.22	-440.000
213.59	-325.000
213.97	-150.000
214.34	-833.333
214.72	450.000
215.09	-700.000
215.47	0.000
215.84	300.000
216.22	1550.000
216.59	-460.000
216.97	-600.000
217.34	-750.000
217.72	-312.500
218.09	-600.000
218.47	-475.000
218.84	0.000
219.22	440.000
219.59	-105.882
219.97	-85.000
220.34	1550.000
220.72	-200.000
221.09	-115.385
221.47	-766.667
221.84	-220.000
222.22	-300.000
222.59	0.000
222.97	-75.000
223.34	-660.000
223.72	-2500.000
224.09	-575.000
224.46	-725.000
224.84	-360.000
225.21	-385.714
225.59	-600.000
225.96	-725.000
226.34	-65.385
226.71	450.000
227.08	-1250.000
227.46	-146.667
227.83	-625.000
228.21	-105.263
228.58	237.500
228.95	1600.000
229.33	-133.333
229.70	-230.000
230.08	-73.684
230.45	360.000
230.82	-833.333
231.20	-178.571
231.57	-125.000
231.95	-245.455
232.32	-200.000
232.69	-105.000
233.07	-500.000
233.44	-194.118
233.81	-270.000
234.19	-127.778
234.56	-104.545
234.93	-37.931
235.31	-84.211
235.68	-116.667
236.05	-145.000
236.43	-15.385
236.80	-64.000
237.17	-77.778
237.55	-24.242
237.92	-280.000
238.29	-67.742
238.67	-50.000
239.04	-61.111
239.41	-45.238
239.79	-45.652
240.16	-31.481
240.53	-45.652
240.91	-58.824
241.28	-34.426
241.65	-23.881
242.02	-18.919
242.40	-41.538
242.77	-40.000
243.14	-37.805
243.51	-44.737
243.89	-33.333
244.26	-11.881
244.63	-19.608
245.00	-26.168
245.38	-23.684
245.75	-21.239
246.12	-11.111
246.49	-26.357
246.87	-5.714
247.24	-9.934
247.61	-10.526
247.98	-14.094
248.36	-10.494
248.73	-14.110
249.10	-14.208
249.47	-4.975
249.84	-5.236
250.22	-15.544
250.59	-8.333
250.96	-5.000
251.33	-13.265
251.70	-7.265
252.08	-7.917
252.45	-7.787
252.82	-7.025
253.19	-8.203
253.56	-6.464
253.94	-10.769
254.31	-6.818
254.68	-6.294
255.05	-2.280
255.42	-7.483
255.79	-8.414
256.16	-7.285
256.54	-10.927
256.91	-6.885
257.28	-4.262
257.65	-5.414
258.02	-6.490
258.39	-4.558
258.76	-2.141
259.14	-2.586
259.51	-4.899
259.88	-5.666
260.25	-3.889
260.62	-5.205
260.99	-2.186
261.36	-1.877
261.73	-4.244
262.10	-5.495
262.47	-5.898
262.85	-3.283
263.22	-4.675
263.59	-5.263
263.96	-4.348
264.33	-6.650
264.70	-6.173
265.07	-0.477
265.44	2.041
265.81	-3.935
266.18	-2.041
266.55	-1.339
266.92	-4.100
267.29	-1.532
267.66	-3.769
268.03	-6.332
268.40	-3.340
268.77	-6.150
269.14	-5.066
269.51	-5.921
269.88	-2.049
270.25	-1.207
270.62	-2.321
270.99	-0.202
271.36	-3.366
271.73	-2.358
272.10	-2.004
272.47	-3.006
272.84	-3.012
273.21	-0.802
273.58	-3.831
273.95	-2.692
274.32	-2.471
274.69	-3.482
275.06	-1.099
275.43	-2.403
275.80	-1.587
276.17	-2.593
276.54	-4.478
276.91	-2.326
277.28	-1.627
277.65	-3.411
278.02	-2.574
278.39	-2.899
278.76	-3.163
279.13	-2.305
279.50	-0.172
279.87	-1.789
280.23	-4.930
280.60	-1.017
280.97	-2.303
281.34	-2.886
281.71	0.338
282.08	-2.159
282.45	-2.946
282.82	-0.942
283.19	-2.908
283.56	-2.787
283.92	0.300
284.29	1.422
284.66	-1.642
285.03	-4.487
285.40	-0.464
285.77	-1.703
286.14	-0.458
286.51	-1.370
286.87	-1.264
287.24	-1.205
287.61	-1.794
287.98	-2.719
288.35	-2.515
288.72	-2.071
289.08	-1.318
289.45	-2.071
289.82	-1.958
290.19	-1.293
290.56	-0.423
290.93	-1.569
291.29	-2.066
291.66	-2.066
292.03	-1.493
292.40	-0.136
292.77	-1.213
293.13	-0.677
293.50	-2.365
293.87	-1.745
294.24	0.933
294.60	-0.379
294.97	-1.477
295.34	0.000
295.71	-0.757
296.08	-0.775
296.44	-0.613
296.81	0.244
297.18	-1.245
297.55	-1.297
297.91	-1.542
298.28	-1.540
298.65	-1.070
299.02	-0.945
299.38	0.114
299.75	-0.467
300.12	-1.273
300.48	-0.346
300.85	-0.112
301.22	1.342
301.59	-0.342
301.95	-0.452
302.32	1.111
302.69	-0.548
303.05	-0.326
303.42	0.554
303.79	-1.354
304.15	0.631
304.52	-0.317
304.89	-0.419
305.25	-0.518
305.62	0.313
305.99	0.619
306.35	0.605
306.72	-0.207
307.09	-0.711
307.45	0.621
307.82	-0.303
308.19	0.605
308.55	0.386
308.92	0.292
309.29	0.192
309.65	-0.390
310.02	0.495
310.38	-0.492
310.75	-0.291
311.12	1.246
311.48	-0.587
311.85	-0.380
312.22	0.190
312.58	-0.376
312.95	0.287
313.31	-0.271
313.68	1.007
314.05	0.632
314.41	0.820
314.78	0.454
315.14	1.180
315.51	1.108
315.87	0.630
316.24	0.913
316.61	0.710
316.97	-0.181
317.34	-0.088
317.70	-0.349
318.07	1.146
318.43	1.276
318.80	2.090
319.16	0.429
319.53	-0.600
319.89	0.175
320.26	1.157
320.62	0.089
320.99	0.000
321.35	0.370
321.72	1.209
322.08	0.541
322.45	0.903
322.81	1.444
323.18	0.708
323.54	0.776
323.91	0.979
324.27	1.119
324.64	2.519
325.00	0.912
325.37	1.884
325.73	1.074
326.10	1.622
326.46	2.443
326.83	2.482
327.19	2.520
327.56	1.739
327.92	1.495
328.29	1.532
328.65	0.754
329.01	1.861
329.38	1.601
329.74	2.654
330.11	1.370
330.47	2.190
330.84	2.153
331.20	2.417
331.56	2.340
331.93	2.259
332.29	1.525
332.66	1.578
333.02	2.094
333.38	1.762
333.75	1.936
334.11	1.835
334.48	2.393
334.84	2.719
335.20	2.099
335.57	2.277
335.93	2.314
336.29	1.913
336.66	1.514
337.02	2.341
337.38	3.486
337.75	1.240
338.11	1.262
338.47	2.233
338.84	2.030
339.20	1.348
339.56	1.730
339.93	2.217
340.29	2.254
340.65	2.352
341.02	2.953
341.38	3.314
341.74	1.453
342.11	2.494
342.47	0.953
342.83	2.496
343.20	2.371
343.56	2.085
343.92	2.562
344.28	1.719
344.65	2.403
345.01	2.652
345.37	2.488
345.73	1.559
346.10	2.106
346.46	1.899
346.82	3.446
347.19	2.750
347.55	2.504
347.91	2.006
348.27	1.897
348.63	2.513
349.00	2.610
349.36	2.900
349.72	1.786
350.08	2.823
350.45	1.521
350.81	1.735
351.17	2.105
351.53	2.047
351.89	2.202
352.26	2.388
352.62	1.716
352.98	1.679
353.34	1.494
353.70	1.772
354.07	1.490
354.43	1.822
354.79	1.945
355.15	1.692
355.51	3.070
355.87	1.496
356.24	1.901
356.60	1.700
356.96	1.779
357.32	1.115
357.68	0.659
358.04	1.946
358.40	1.716
358.77	2.339
359.13	1.551
359.49	0.818
359.85	1.668
360.21	2.511
360.57	1.220
360.93	1.340
361.29	1.825
361.66	1.448
362.02	3.479
362.38	2.178
362.74	2.165
363.10	2.407
363.46	1.662
363.82	1.491
364.18	2.041
364.54	1.660
364.90	1.538
365.26	1.103
365.62	2.400
365.98	1.225
366.35	2.483
366.71	2.449
367.07	1.691
367.43	2.364
367.79	3.451
368.15	2.475
368.51	1.421
368.87	2.547
369.23	2.267
369.59	1.434
369.95	1.826
370.31	2.633
370.67	1.582
371.03	2.008
371.39	1.679
371.75	1.926
372.11	2.168
372.47	1.286
372.83	2.683
373.19	2.068
373.55	1.762
373.91	0.750
374.27	2.717
374.63	2.030
374.99	2.188
375.35	2.143
375.71	2.129
376.07	2.260
376.42	2.141
376.78	2.051
377.14	2.620
377.50	1.771
377.86	2.894
378.22	1.796
378.58	1.724
378.94	2.347
379.30	1.640
379.66	1.822
380.02	2.654
380.38	2.535
380.74	2.986
381.09	2.091
381.45	3.068
381.81	2.049
382.17	3.029
382.53	2.105
382.89	2.878
383.25	1.407
383.61	1.562
383.97	3.180
384.32	2.093
384.68	1.682
385.04	2.660
385.40	2.887
385.76	3.107
386.12	2.274
386.48	2.412
386.83	2.622
387.19	1.448
387.55	1.291
387.91	1.598
388.27	2.540
388.62	2.405
388.98	2.482
389.34	2.239
389.70	2.382
390.06	2.191
390.42	2.289
390.77	3.311
391.13	2.054
391.49	2.476
391.85	2.000
392.20	2.135
392.56	2.599
392.92	2.726
393.28	2.709
393.64	2.402
393.99	2.963
394.35	2.687
394.71	2.455
395.07	1.377
395.42	2.284
395.78	2.681
396.14	2.674
396.50	1.781
396.85	2.504
397.21	2.485
397.57	1.649
397.92	2.176
398.28	1.630
398.64	1.831
399.00	2.356
399.35	2.094
399.71	2.283
400.07	2.246
400.42	1.921
400.78	1.852
401.14	2.220
401.49	2.558
401.85	1.977
402.21	2.260
402.57	2.465
402.92	2.423
403.28	1.756
403.63	1.313
403.99	2.257
404.35	2.047
404.70	2.606
405.06	2.120
405.42	2.518
405.77	2.672
406.13	1.837
406.49	1.689
406.84	2.327
407.20	1.956
407.55	1.333
407.91	1.697
408.27	2.002
408.62	2.443
408.98	2.322
409.34	1.114
409.69	1.607
410.05	2.696
410.40	2.378
410.76	2.019
411.11	2.279
411.47	2.211
411.83	2.116
412.18	2.289
412.54	2.312
412.89	2.095
413.25	2.540
413.60	2.010
413.96	1.748
414.31	2.550
414.67	1.789
415.03	1.785
415.38	1.198
415.74	1.772
416.09	2.097
416.45	2.630
416.80	2.203
417.16	1.724
417.51	1.930
417.87	2.085
418.22	2.515
418.58	2.230
418.93	2.445
419.29	1.665
419.64	1.261
420.00	2.196
420.35	2.246
420.71	1.493
421.06	1.495
421.42	2.351
421.77	1.616
422.12	2.801
422.48	1.843
422.83	1.862
423.19	2.228
423.54	1.493
423.90	2.043
424.25	2.027
424.61	1.780
424.96	2.581
425.31	2.017
425.67	1.181
426.02	2.048
426.38	1.837
426.73	1.786
427.09	2.653
427.44	1.638
427.79	1.658
428.15	1.712
428.50	0.899
428.85	1.952
429.21	1.809
429.56	1.728
429.92	2.015
430.27	1.880
430.62	1.710
430.98	2.164
431.33	1.808
431.68	2.203
432.04	1.930
432.39	2.035
432.74	2.454
433.10	1.677
433.45	1.338
433.80	2.146
434.16	2.118
434.51	1.490
434.86	1.683
435.22	2.072
435.57	1.710
435.92	1.391
436.28	1.877
436.63	1.475
436.98	1.718
437.34	1.466
437.69	0.771
438.04	2.274
438.39	2.068
438.75	1.439
439.10	1.903
439.45	1.677
439.81	1.582
440.16	1.072
440.51	2.453
440.86	1.556
441.22	1.715
441.57	1.363
441.92	2.037
442.27	1.667
442.63	2.434
442.98	2.508
443.33	1.631
443.68	2.230
444.03	2.211
444.39	2.127
444.74	2.042
445.09	1.723
445.44	2.213
445.79	2.634
446.15	2.415
446.50	1.757
446.85	2.189
447.20	2.611
447.55	1.987
447.91	2.042
448.26	1.321
448.61	2.338
448.96	2.682
449.31	1.644
449.66	1.688
450.02	1.899
450.37	2.397
450.72	1.884
451.07	1.879
451.42	1.271
451.77	1.501
452.12	2.765
452.47	2.080
452.83	1.802
453.18	1.868
453.53	1.034
453.88	1.988
454.23	1.751
454.58	2.031
454.93	1.699
455.28	1.806
455.63	1.819
455.98	2.458
456.34	2.061
456.69	1.764
457.04	1.064
457.39	1.497
457.74	2.125
458.09	1.647
458.44	2.532
458.79	1.908
459.14	1.678
459.49	1.415
459.84	1.941
460.19	1.555
460.54	1.817
460.89	1.588
461.24	1.264
461.59	2.490
461.94	1.312
462.29	1.792
462.64	1.448
462.99	1.193
463.34	1.168
463.69	2.052
464.04	2.446
464.39	1.850
464.74	1.881
465.09	1.326
465.44	2.146
465.79	2.327
466.14	1.876
466.49	2.158
466.84	1.488
467.19	1.965
467.54	1.821
467.89	1.782
468.24	2.105
468.59	1.042
468.94	1.923
469.29	1.500
469.64	1.335
469.99	1.402
470.34	1.795
470.68	1.572
471.03	1.899
471.38	1.700
471.73	1.300
472.08	1.396
472.43	1.385
472.78	1.826
473.13	1.327
473.48	1.873
473.83	2.496
474.17	1.700
474.52	1.503
474.87	2.381
475.22	1.634
475.57	1.661
475.92	2.389
476.27	1.917
476.61	1.713
476.96	1.460
477.31	2.376
477.66	2.518
478.01	2.593
478.36	2.243
478.70	2.167
479.05	1.943
479.40	2.073
479.75	2.354
480.10	2.179
480.45	2.325
480.79	2.585
481.14	2.160
481.49	1.954
481.84	2.350
482.19	2.194
482.53	1.618
482.88	2.570
483.23	2.223
483.58	1.921
483.92	2.172
484.27	2.413
484.62	1.650
484.97	2.449
485.31	2.147
485.66	2.106
486.01	2.401
486.36	2.617
486.70	2.826
487.05	2.694
487.40	2.484
487.75	2.672
488.09	2.508
488.44	2.589
488.79	2.631
489.13	2.715
489.48	1.670
489.83	2.213
490.17	1.742
490.52	2.545
490.87	2.073
491.22	2.123
491.56	2.645
491.91	1.962
492.26	2.423
492.60	2.361
492.95	2.369
493.30	1.658
493.64	2.365
493.99	1.974
494.34	2.047
494.68	1.927
495.03	2.247
495.37	1.687
495.72	2.313
496.07	2.498
496.41	1.845
496.76	1.918
497.11	2.208
497.45	2.072
497.80	2.221
498.14	1.995
498.49	2.160
498.84	2.011
499.18	1.979
499.53	2.108
499.87	1.890
500.22	1.469
500.56	2.339
500.91	1.968
501.26	2.500
501.60	1.812
501.95	2.171
502.29	2.238
502.64	2.055
502.98	2.977
503.33	2.462
503.67	1.570
504.02	2.058
504.36	2.413
504.71	2.389
505.06	2.092
505.40	1.874
505.75	2.732
506.09	2.394
506.44	2.182
506.78	2.615
507.13	2.121
507.47	2.748
507.82	2.462
508.16	1.769
508.51	1.641
508.85	2.126
509.19	2.179
509.54	2.882
509.88	1.991
510.23	2.574
510.57	2.900
510.92	2.225
511.26	2.501
511.61	1.787
511.95	2.343
512.30	2.708
512.64	1.699
512.98	2.601
513.33	2.621
513.67	2.550
514.02	2.555
514.36	2.148
514.70	2.396
515.05	2.450
515.39	2.257
515.74	2.492
516.08	2.483
516.42	2.983
516.77	2.261
517.11	2.321
517.46	2.598
517.80	2.619
518.14	3.101
518.49	2.278
518.83	2.395
519.17	2.639
519.52	3.302
519.86	3.115
520.20	2.769
520.55	2.410
520.89	1.858
521.23	2.066
521.58	2.486
521.92	2.323
522.26	2.062
522.61	2.315
522.95	2.307
523.29	1.724
523.64	2.578
523.98	2.909
524.32	3.152
524.66	1.878
525.01	2.378
525.35	2.068
525.69	2.262
526.04	2.698
526.38	2.471
526.72	2.480
527.06	3.050
527.41	2.391
527.75	3.385
528.09	2.361
528.43	2.724
528.78	2.139
529.12	2.466
529.46	2.642
529.80	2.689
530.15	2.725
530.49	1.661
530.83	2.834
531.17	2.449
531.51	2.347
531.86	3.065
532.20	2.622
532.54	1.795
532.88	1.939
533.22	2.711
533.57	2.481
533.91	2.862
534.25	2.148
534.59	2.471
534.93	2.207
535.27	2.592
535.62	3.013
535.96	2.499
536.30	2.233
536.64	1.862
536.98	2.768
537.32	3.210
537.66	2.745
538.01	2.598
538.35	2.071
538.69	2.163
539.03	2.575
539.37	3.004
539.71	2.703
540.05	3.058
540.39	2.078
540.73	2.611
541.07	2.207
541.42	2.776
541.76	2.906
542.10	2.111
542.44	1.401
542.78	2.372
543.12	2.503
543.46	2.137
543.80	2.038
544.14	1.855
544.48	2.364
544.82	2.154
545.16	2.326
545.50	2.756
545.84	2.266
546.18	3.457
546.52	2.994
546.86	2.453
547.20	2.163
547.54	2.747
547.88	2.652
548.22	2.515
548.56	2.048
548.90	1.672
549.24	3.161
549.58	2.776
549.92	2.360
550.26	2.201
550.60	2.489
550.94	3.040
551.28	2.244
551.62	2.561
551.96	2.848
552.30	3.059
552.64	3.485
552.98	2.371
553.32	2.379
553.66	2.637
554.00	3.090
554.34	2.124
554.68	2.001
555.02	2.102
555.36	3.485
555.69	2.755
556.03	2.648
556.37	3.066
556.71	2.727
557.05	2.300
557.39	2.256
557.73	2.840
558.07	1.854
558.41	2.392
558.75	2.434
559.08	2.366
559.42	1.852
559.76	2.849
560.10	1.875
560.44	1.913
560.78	3.000
561.12	2.956
561.45	2.859
561.79	2.564
562.13	3.081
562.47	1.665
562.81	2.405
563.15	2.273
563.48	2.859
563.82	2.297
564.16	1.757
564.50	2.324
564.84	2.537
565.17	2.647
565.51	3.452
565.85	2.078
566.19	2.592
566.52	2.458
566.86	2.434
567.20	2.393
567.54	2.655
567.88	2.599
568.21	2.816
568.55	2.398
568.89	2.678
569.23	2.619
569.56	2.696
569.90	3.172
570.24	2.934
570.57	2.694
570.91	2.786
571.25	2.922
571.59	3.062
571.92	2.799
572.26	2.859
572.60	2.976
572.93	3.479
573.27	2.838
573.61	3.176
573.95	3.035
574.28	3.247
574.62	2.842
574.96	2.779
575.29	2.930
575.63	2.957
575.97	3.090
576.30	3.084
576.64	2.935
576.98	3.098
577.31	3.198
577.65	3.137
577.98	3.050
578.32	2.887
578.66	2.978
578.99	3.092
579.33	3.224
579.67	3.015
580.00	2.832
580.34	3.076
580.67	2.935
581.01	3.007
581.35	3.000
581.68	2.928
582.02	3.062
582.35	3.206
582.69	3.199
583.02	3.084
583.36	3.122
583.70	2.818
584.03	3.024
584.37	2.987
584.70	2.641
585.04	2.720
585.37	2.961
585.71	3.279
586.04	2.730
586.38	2.994
586.72	2.858
587.05	2.558
587.39	2.992
587.72	3.254
588.06	3.022
588.39	3.012
588.73	3.069
589.06	3.245
589.40	2.889
589.73	2.731
590.07	3.117
590.40	3.043
590.73	2.686
591.07	2.457
591.40	2.294
591.74	2.544
592.07	3.126
592.41	2.681
592.74	2.982
593.08	3.217
593.41	3.412
593.75	2.874
594.08	2.848
594.41	3.013
594.75	2.723
595.08	2.759
595.42	2.662
595.75	2.938
596.09	2.880
596.42	2.508
596.75	3.126
597.09	2.828
597.42	2.543
597.75	2.313
598.09	3.214
598.42	2.815
598.76	2.369
599.09	2.670
599.42	2.849
599.76	2.311
600.09	2.569
600.42	2.970
600.76	2.939
601.09	2.489
601.42	2.678
601.76	2.897
602.09	2.966
602.42	2.581
602.76	2.435
603.09	2.313
603.42	2.782
603.76	2.220
604.09	3.265
604.42	2.422
604.76	2.892
605.09	2.553
605.42	2.273
605.75	2.269
606.09	2.613
606.42	2.262
606.75	2.399
607.09	2.151
607.42	2.967
607.75	2.696
608.08	2.841
608.42	2.660
608.75	2.612
609.08	2.504
609.41	2.338
609.75	2.188
610.08	2.243
610.41	2.804
610.74	2.395
611.07	2.176
611.41	2.063
611.74	3.002
612.07	2.618
612.40	1.901
612.73	1.760
613.07	2.689
613.40	2.069
613.73	2.311
614.06	2.257
614.39	2.187
614.72	2.863
615.06	2.599
615.39	2.127
615.72	2.227
616.05	2.040
616.38	2.624
616.71	2.194
617.05	1.864
617.38	2.889
617.71	1.836
618.04	2.213
618.37	2.568
618.70	2.715
619.03	1.075
619.36	2.343
619.69	2.883
620.03	1.883
620.36	2.515
620.69	1.727
621.02	2.362
621.35	2.032
621.68	2.242
622.01	2.064
622.34	1.534
622.67	1.168
623.00	0.945
623.33	1.593
623.66	1.946
623.99	1.580
624.32	2.534
624.65	1.609
624.99	1.886
625.32	2.482
625.65	1.955
625.98	1.220
626.31	1.914
626.64	2.271
626.97	1.500
627.30	0.835
627.63	1.575
627.96	2.402
628.29	1.479
628.62	1.763
628.95	2.103
629.28	1.020
629.61	2.441
629.94	1.004
630.26	1.102
630.59	0.604
630.92	1.991
631.25	0.358
631.58	1.412
631.91	1.406
632.24	0.192
632.57	0.854
632.90	0.502
633.23	0.918
633.56	1.837
633.89	0.103
634.22	0.936
634.55	0.731
634.88	0.541
635.20	1.615
635.53	0.226
635.86	2.167
636.19	2.227
636.52	1.793
636.85	1.328
637.18	1.143
637.51	1.290
637.83	1.329
638.16	0.000
638.49	0.117
638.82	0.451
639.15	-0.916
639.48	2.425
639.81	0.693
640.13	1.649
640.46	-0.848
640.79	0.000
641.12	-0.124
641.45	0.502
641.77	0.899
642.10	0.787
642.43	1.330
642.76	0.678
643.09	0.411
643.41	-0.840
643.74	-0.138
644.07	1.241
644.40	0.424
644.73	0.290
645.05	-0.734
645.38	1.583
645.71	0.440
646.04	2.726
646.36	-0.292
646.69	-1.227
647.02	0.459
647.35	1.374
647.67	-0.805
648.00	0.478
648.33	-0.150
648.66	0.285
648.98	-0.816
649.31	0.677
649.64	-0.398
649.96	2.122
650.29	-1.669
650.62	-0.283
650.94	-0.450
651.27	-1.048
651.60	-0.292
