SpectraSuite Data File
++++++++++++++++++++++++++++++++++++
Date: Thu May 14 14:29:50 PDT 2015
User: schluterlab
Dark Spectrum Present: Yes
Reference Spectrum Present: Yes
Number of Sampled Component Spectra: 1
Spectrometers: USB2E3373
Integration Time (usec): 3000 (USB2E3373)
Spectra Averaged: 3 (USB2E3373)
Boxcar Smoothing: 0 (USB2E3373)
Correct for Electrical Dark: No (USB2E3373)
Strobe/Lamp Enabled: No (USB2E3373)
Correct for Detector Non-linearity: No (USB2E3373)
Correct for Stray Light: No (USB2E3373)
Number of Pixels in Processed Spectrum: 2048
>>>>>Begin Processed Spectral Data<<<<<
178.53	0.000
178.91	-57.143
179.29	0.000
179.67	1100.000
180.04	-0.000
180.42	-140.000
180.80	-160.000
181.18	1200.000
181.56	2500.000
181.94	-325.000
182.31	300.000
182.69	-500.000
183.07	1000.000
183.45	-150.000
183.83	216.667
184.20	433.333
184.58	-1000.000
184.96	650.000
185.34	188.889
185.72	460.000
186.09	-88.889
186.47	-350.000
186.85	-100.000
187.23	88.889
187.61	400.000
187.98	-360.000
188.36	-375.000
188.74	275.000
189.12	300.000
189.49	137.500
189.87	75.000
190.25	277.778
190.63	220.000
191.00	144.444
191.38	0.000
191.76	50.000
192.14	366.667
192.51	-850.000
192.89	300.000
193.27	0.000
193.65	171.429
194.02	1900.000
194.40	242.857
194.78	-100.000
195.15	0.000
195.53	163.636
195.91	0.000
196.29	575.000
196.66	130.769
197.04	600.000
197.42	214.286
197.79	650.000
198.17	162.500
198.55	171.429
198.92	188.889
199.30	87.500
199.68	136.364
200.05	178.571
200.43	300.000
200.81	-28.571
201.18	0.000
201.56	-77.778
201.94	0.000
202.31	-0.000
202.69	133.333
203.07	-2200.000
203.44	244.444
203.82	425.000
204.19	108.333
204.57	200.000
204.95	175.000
205.32	2100.000
205.70	-400.000
206.08	216.667
206.45	333.333
206.83	-80.000
207.20	283.333
207.58	80.000
207.96	233.333
208.33	300.000
208.71	-91.667
209.08	416.667
209.46	0.000
209.84	-100.000
210.21	-550.000
210.59	-350.000
210.96	-66.667
211.34	650.000
211.71	275.000
212.09	1100.000
212.46	0.000
212.84	-150.000
213.22	160.000
213.59	250.000
213.97	170.000
214.34	533.333
214.72	-233.333
215.09	425.000
215.47	0.000
215.84	-128.571
216.22	-450.000
216.59	360.000
216.97	280.000
217.34	350.000
217.72	200.000
218.09	275.000
218.47	325.000
218.84	0.000
219.22	-160.000
219.59	135.294
219.97	115.000
220.34	-600.000
220.72	66.667
221.09	161.538
221.47	266.667
221.84	160.000
222.22	85.714
222.59	0.000
222.97	125.000
223.34	140.000
223.72	600.000
224.09	275.000
224.46	200.000
224.84	340.000
225.21	57.143
225.59	300.000
225.96	400.000
226.34	103.846
226.71	-16.667
227.08	800.000
227.46	60.000
227.83	325.000
228.21	89.474
228.58	-150.000
228.95	-250.000
229.33	133.333
229.70	140.000
230.08	157.895
230.45	-110.000
230.82	366.667
231.20	135.714
231.57	91.667
231.95	181.818
232.32	154.545
232.69	80.000
233.07	400.000
233.44	70.588
233.81	170.000
234.19	144.444
234.56	131.818
234.93	75.862
235.31	152.632
235.68	100.000
236.05	0.000
236.43	65.385
236.80	100.000
237.17	96.296
237.55	57.576
237.92	100.000
238.29	61.290
238.67	20.455
239.04	52.778
239.41	57.143
239.79	54.348
240.16	38.889
240.53	36.957
240.91	45.098
241.28	47.541
241.65	38.806
242.02	44.595
242.40	38.462
242.77	40.000
243.14	25.610
243.51	26.316
243.89	30.769
244.26	38.614
244.63	32.353
245.00	27.103
245.38	32.456
245.75	14.159
246.12	23.016
246.49	23.256
246.87	27.143
247.24	31.126
247.61	30.921
247.98	24.161
248.36	24.691
248.73	27.607
249.10	18.033
249.47	26.866
249.84	26.178
250.22	25.907
250.59	18.333
250.96	22.727
251.33	23.980
251.70	20.513
252.08	23.750
252.45	25.820
252.82	23.967
253.19	21.875
253.56	22.814
253.94	22.692
254.31	20.833
254.68	20.979
255.05	23.779
255.42	17.687
255.79	18.770
256.16	20.199
256.54	19.205
256.91	22.295
257.28	20.000
257.65	18.153
258.02	17.994
258.39	20.513
258.76	25.688
259.14	22.414
259.51	22.478
259.88	20.397
260.25	18.333
260.62	21.918
260.99	23.497
261.36	24.397
261.73	19.894
262.10	21.154
262.47	21.984
262.85	25.000
263.22	21.299
263.59	16.842
263.96	21.483
264.33	18.159
264.70	21.975
265.07	21.718
265.44	22.676
265.81	22.222
266.18	19.274
266.55	20.759
266.92	19.818
267.29	21.007
267.66	20.621
268.03	20.087
268.40	19.415
268.77	17.312
269.14	19.604
269.51	19.518
269.88	19.877
270.25	18.913
270.62	20.886
270.99	21.414
271.36	20.198
271.73	18.468
272.10	18.437
272.47	19.840
272.84	19.478
273.21	19.439
273.58	17.742
273.95	15.962
274.32	17.871
274.69	19.536
275.06	17.033
275.43	17.930
275.80	18.871
276.17	18.148
276.54	18.843
276.91	16.995
277.28	20.072
277.65	16.338
278.02	18.015
278.39	17.029
278.76	17.223
279.13	17.021
279.50	18.213
279.87	17.710
280.23	16.549
280.60	17.458
280.97	18.421
281.34	17.827
281.71	18.443
282.08	17.276
282.45	16.694
282.82	17.739
283.19	15.832
283.56	16.230
283.92	18.018
284.29	18.799
284.66	18.227
285.03	15.224
285.40	18.547
285.77	17.183
286.14	18.779
286.51	16.286
286.87	17.378
287.24	17.470
287.61	16.143
287.98	15.861
288.35	16.716
288.72	17.751
289.08	17.570
289.45	14.941
289.82	16.867
290.19	15.230
290.56	16.620
290.93	17.118
291.29	15.427
291.66	15.289
292.03	13.704
292.40	18.231
292.77	15.499
293.13	16.103
293.50	14.060
293.87	13.020
294.24	16.267
294.60	17.193
294.97	13.154
295.34	14.341
295.71	13.619
296.08	13.824
296.44	14.461
296.81	14.738
297.18	13.699
297.55	14.976
297.91	15.065
298.28	14.100
298.65	14.150
299.02	13.341
299.38	15.332
299.75	13.668
300.12	14.236
300.48	13.018
300.85	13.386
301.22	13.982
301.59	13.356
301.95	14.237
302.32	14.333
302.69	13.034
303.05	13.602
303.42	13.304
303.79	13.438
304.15	13.880
304.52	13.742
304.89	13.298
305.25	13.872
305.62	14.420
305.99	14.433
306.35	13.306
306.72	13.650
307.09	12.893
307.45	14.079
307.82	13.925
308.19	13.824
308.55	14.561
308.92	13.632
309.29	12.931
309.65	15.010
310.02	14.950
310.38	14.567
310.75	13.592
311.12	14.669
311.48	13.587
311.85	15.100
312.22	14.231
312.58	14.930
312.95	15.010
313.31	15.086
313.68	15.659
314.05	15.808
314.41	16.485
314.78	15.077
315.14	15.699
315.51	16.343
315.87	16.652
316.24	16.347
316.61	16.696
316.97	16.018
317.34	16.402
317.70	17.642
318.07	17.372
318.43	17.177
318.80	17.475
319.16	17.082
319.53	15.596
319.89	17.266
320.26	16.904
320.62	18.174
320.99	18.467
321.35	17.560
321.72	19.256
322.08	17.854
322.45	17.706
322.81	18.682
323.18	17.522
323.54	17.500
323.91	19.662
324.27	19.105
324.64	19.479
325.00	19.486
325.37	20.311
325.73	19.835
326.10	20.681
326.46	20.684
326.83	20.897
327.19	20.630
327.56	20.474
327.92	19.512
328.29	20.323
328.65	19.849
329.01	19.374
329.38	21.483
329.74	21.661
330.11	22.603
330.47	21.230
330.84	20.241
331.20	21.250
331.56	20.711
331.93	21.255
332.29	22.881
332.66	21.595
333.02	21.357
333.38	20.973
333.75	22.896
334.11	22.352
334.48	21.287
334.84	22.855
335.20	20.655
335.57	22.428
335.93	22.231
336.29	21.880
336.66	22.204
337.02	22.659
337.38	23.129
337.75	20.992
338.11	23.213
338.47	21.423
338.84	22.166
339.20	21.398
339.56	22.076
339.93	22.003
340.29	22.061
340.65	22.628
341.02	22.187
341.38	22.312
341.74	22.276
342.11	22.285
342.47	20.413
342.83	24.477
343.20	22.404
343.56	21.171
343.92	22.338
344.28	22.656
344.65	22.171
345.01	22.933
345.37	23.173
345.73	20.966
346.10	22.231
346.46	22.547
346.82	22.397
347.19	22.918
347.55	21.700
347.91	21.917
348.27	22.686
348.63	22.163
349.00	21.551
349.36	22.082
349.72	21.280
350.08	21.842
350.45	21.369
350.81	22.247
351.17	21.278
351.53	22.290
351.89	22.703
352.26	22.910
352.62	21.866
352.98	23.053
353.34	20.612
353.70	22.111
354.07	22.727
354.43	22.551
354.79	21.092
355.15	22.149
355.51	22.661
355.87	21.391
356.24	23.422
356.60	21.656
356.96	23.870
357.32	22.156
357.68	21.449
358.04	22.380
358.40	21.940
358.77	21.418
359.13	21.418
359.49	20.967
359.85	21.682
360.21	22.597
360.57	22.039
360.93	21.439
361.29	22.175
361.66	21.941
362.02	23.173
362.38	22.347
362.74	22.696
363.10	23.177
363.46	22.438
363.82	22.656
364.18	24.068
364.54	22.545
364.90	22.742
365.26	21.310
365.62	22.867
365.98	22.668
366.35	22.685
366.71	23.401
367.07	23.004
367.43	23.047
367.79	23.026
368.15	23.679
368.51	22.869
368.87	23.187
369.23	23.067
369.59	22.404
369.95	22.380
370.31	23.160
370.67	22.902
371.03	23.684
371.39	23.103
371.75	23.865
372.11	23.713
372.47	23.426
372.83	23.757
373.19	24.616
373.55	23.374
373.91	22.972
374.27	23.415
374.63	23.275
374.99	23.674
375.35	24.545
375.71	23.161
376.07	24.338
376.42	23.615
376.78	24.798
377.14	24.080
377.50	24.984
377.86	25.000
378.22	25.150
378.58	24.792
378.94	23.944
379.30	24.780
379.66	25.044
380.02	25.505
380.38	25.518
380.74	25.352
381.09	25.552
381.45	24.773
381.81	26.054
382.17	25.238
382.53	25.380
382.89	25.226
383.25	26.495
383.61	25.000
383.97	25.618
384.32	26.316
384.68	25.348
385.04	26.431
385.40	26.400
385.76	27.022
386.12	25.972
386.48	26.647
386.83	27.235
387.19	26.941
387.55	26.526
387.91	27.169
388.27	27.483
388.62	27.491
388.98	26.170
389.34	27.342
389.70	27.600
390.06	26.939
390.42	27.410
390.77	27.393
391.13	27.817
391.49	28.563
391.85	28.061
392.20	28.114
392.56	28.943
392.92	28.190
393.28	27.750
393.64	27.095
393.99	28.472
394.35	28.271
394.71	28.802
395.07	27.425
395.42	27.870
395.78	30.286
396.14	28.996
396.50	27.553
396.85	27.907
397.21	29.053
397.57	28.975
397.92	29.267
398.28	27.702
398.64	28.490
399.00	26.649
399.35	28.220
399.71	29.239
400.07	29.534
400.42	28.580
400.78	28.762
401.14	30.279
401.49	29.449
401.85	29.070
402.21	30.185
402.57	30.106
402.92	29.196
403.28	28.923
403.63	29.535
403.99	28.563
404.35	28.994
404.70	29.348
405.06	29.130
405.42	29.274
405.77	29.280
406.13	29.822
406.49	28.660
406.84	29.363
407.20	29.458
407.55	30.527
407.91	29.793
408.27	29.918
408.62	30.599
408.98	30.122
409.34	29.032
409.69	30.902
410.05	30.657
410.40	30.046
410.76	31.408
411.11	30.333
411.47	30.037
411.83	30.805
412.18	30.904
412.54	31.120
412.89	30.442
413.25	30.813
413.60	30.040
413.96	30.769
414.31	30.595
414.67	31.127
415.03	30.646
415.38	31.715
415.74	30.727
416.09	32.141
416.45	30.307
416.80	30.294
417.16	32.056
417.51	30.262
417.87	31.024
418.22	31.557
418.58	30.173
418.93	31.141
419.29	31.134
419.64	30.612
420.00	31.632
420.35	31.443
420.71	31.763
421.06	30.937
421.42	32.167
421.77	30.964
422.12	31.501
422.48	31.029
422.83	31.490
423.19	31.830
423.54	32.467
423.90	31.695
424.25	31.787
424.61	32.262
424.96	32.180
425.31	32.113
425.67	31.938
426.02	32.319
426.38	31.745
426.73	31.808
427.09	33.276
427.44	32.004
427.79	32.504
428.15	33.390
428.50	32.584
428.85	32.664
429.21	33.245
429.56	32.774
429.92	33.219
430.27	33.108
430.62	32.145
430.98	32.514
431.33	33.040
431.68	32.040
432.04	33.570
432.39	33.423
432.74	33.333
433.10	33.856
433.45	32.441
433.80	34.388
434.16	32.076
434.51	34.532
434.86	33.659
435.22	33.953
435.57	34.965
435.92	35.170
436.28	34.869
436.63	35.172
436.98	33.763
437.34	34.273
437.69	34.012
438.04	34.162
438.39	34.922
438.75	34.090
439.10	35.042
439.45	34.768
439.81	34.124
440.16	34.048
440.51	34.560
440.86	34.797
441.22	35.745
441.57	35.639
441.92	34.724
442.27	34.899
442.63	33.979
442.98	35.592
443.33	34.561
443.68	34.936
444.03	36.453
444.39	35.090
444.74	35.375
445.09	34.871
445.44	36.512
445.79	35.201
446.15	35.560
446.50	35.452
446.85	35.506
447.20	35.638
447.55	34.937
447.91	35.340
448.26	35.571
448.61	35.494
448.96	36.427
449.31	35.684
449.66	36.057
450.02	35.970
450.37	36.388
450.72	35.630
451.07	36.959
451.42	35.760
451.77	35.019
452.12	37.585
452.47	37.077
452.83	36.092
453.18	35.377
453.53	35.956
453.88	36.444
454.23	36.271
454.58	37.377
454.93	36.044
455.28	36.183
455.63	36.839
455.98	36.983
456.34	37.633
456.69	36.626
457.04	37.116
457.39	36.973
457.74	37.136
458.09	36.738
458.44	36.530
458.79	36.307
459.14	36.550
459.49	36.389
459.84	36.988
460.19	37.035
460.54	37.479
460.89	36.792
461.24	36.839
461.59	36.801
461.94	36.167
462.29	38.242
462.64	37.477
462.99	37.602
463.34	37.962
463.69	37.046
464.04	38.355
464.39	37.444
464.74	37.286
465.09	36.851
465.44	36.534
465.79	36.859
466.14	36.634
466.49	36.632
466.84	38.072
467.19	37.399
467.54	37.074
467.89	37.126
468.24	38.283
468.59	38.159
468.94	37.529
469.29	37.073
469.64	38.144
469.99	38.113
470.34	38.181
470.68	38.414
471.03	38.572
471.38	37.802
471.73	38.296
472.08	38.008
472.43	37.688
472.78	37.846
473.13	38.622
473.48	38.006
473.83	38.073
474.17	38.042
474.52	39.206
474.87	37.763
475.22	38.141
475.57	37.487
475.92	38.278
476.27	37.220
476.61	38.214
476.96	38.686
477.31	38.465
477.66	38.562
478.01	38.383
478.36	37.188
478.70	38.473
479.05	39.059
479.40	38.944
479.75	38.184
480.10	38.939
480.45	38.149
480.79	38.639
481.14	38.006
481.49	39.255
481.84	38.512
482.19	38.366
482.53	38.391
482.88	39.256
483.23	38.684
483.58	38.079
483.92	38.076
484.27	38.357
484.62	37.583
484.97	38.453
485.31	37.733
485.66	37.159
486.01	35.531
486.36	35.849
486.70	35.806
487.05	36.371
487.40	36.615
487.75	36.972
488.09	37.729
488.44	37.207
488.79	38.111
489.13	38.414
489.48	38.447
489.83	38.270
490.17	38.113
490.52	38.300
490.87	38.621
491.22	39.125
491.56	38.951
491.91	39.032
492.26	39.031
492.60	39.353
492.95	38.877
493.30	39.399
493.64	38.852
493.99	39.561
494.34	38.589
494.68	38.887
495.03	39.427
495.37	38.837
495.72	38.730
496.07	38.913
496.41	39.082
496.76	40.075
497.11	38.981
497.45	38.843
497.80	39.005
498.14	39.592
498.49	39.476
498.84	39.488
499.18	40.216
499.53	38.789
499.87	39.341
500.22	38.157
500.56	38.866
500.91	39.725
501.26	39.545
501.60	38.621
501.95	39.557
502.29	39.315
502.64	40.140
502.98	39.474
503.33	38.661
503.67	38.857
504.02	38.616
504.36	39.187
504.71	39.320
505.06	39.472
505.40	39.625
505.75	39.390
506.09	40.055
506.44	40.297
506.78	40.505
507.13	39.880
507.47	40.313
507.82	40.862
508.16	40.057
508.51	39.475
508.85	39.773
509.19	39.839
509.54	40.394
509.88	40.165
510.23	41.622
510.57	40.744
510.92	40.203
511.26	40.308
511.61	39.739
511.95	40.068
512.30	40.522
512.64	40.730
512.98	40.170
513.33	41.431
513.67	40.796
514.02	41.594
514.36	40.205
514.70	40.938
515.05	41.137
515.39	41.680
515.74	41.782
516.08	40.676
516.42	41.811
516.77	42.534
517.11	41.980
517.46	41.304
517.80	41.529
518.14	42.165
518.49	42.245
518.83	41.299
519.17	41.195
519.52	41.143
519.86	41.816
520.20	42.013
520.55	42.607
520.89	42.568
521.23	41.764
521.58	41.751
521.92	42.436
522.26	42.211
522.61	42.477
522.95	42.099
523.29	43.161
523.64	41.312
523.98	42.099
524.32	43.496
524.66	41.719
525.01	40.940
525.35	41.930
525.69	42.053
526.04	41.160
526.38	41.954
526.72	42.042
527.06	42.639
527.41	42.449
527.75	42.933
528.09	42.326
528.43	43.043
528.78	41.734
529.12	42.661
529.46	40.304
529.80	41.476
530.15	42.783
530.49	43.060
530.83	42.680
531.17	43.250
531.51	42.780
531.86	42.488
532.20	43.354
532.54	42.130
532.88	42.848
533.22	41.839
533.57	41.662
533.91	41.134
534.25	42.171
534.59	41.897
534.93	41.200
535.27	42.366
535.62	42.126
535.96	41.836
536.30	41.011
536.64	42.402
536.98	43.050
537.32	41.420
537.66	42.483
538.01	40.544
538.35	41.900
538.69	41.406
539.03	42.060
539.37	42.226
539.71	41.742
540.05	42.446
540.39	40.892
540.73	40.801
541.07	41.631
541.42	41.583
541.76	41.459
542.10	43.245
542.44	41.961
542.78	40.998
543.12	40.882
543.46	41.270
543.80	41.127
544.14	41.352
544.48	43.026
544.82	42.789
545.16	41.801
545.50	41.702
545.84	40.355
546.18	42.654
546.52	41.975
546.86	41.321
547.20	41.476
547.54	40.449
547.88	40.325
548.22	41.462
548.56	42.247
548.90	41.134
549.24	41.763
549.58	41.514
549.92	41.837
550.26	42.913
550.60	40.459
550.94	42.109
551.28	42.376
551.62	41.712
551.96	40.065
552.30	42.065
552.64	41.755
552.98	41.547
553.32	42.958
553.66	42.572
554.00	42.560
554.34	41.506
554.68	40.090
555.02	41.656
555.36	42.209
555.69	41.640
556.03	40.921
556.37	41.364
556.71	40.900
557.05	41.661
557.39	40.677
557.73	42.206
558.07	42.384
558.41	42.525
558.75	41.920
559.08	41.475
559.42	41.701
559.76	41.723
560.10	40.322
560.44	43.140
560.78	42.000
561.12	42.180
561.45	41.484
561.79	41.026
562.13	41.220
562.47	40.012
562.81	42.468
563.15	41.225
563.48	42.262
563.82	41.173
564.16	41.187
564.50	41.478
564.84	40.767
565.17	41.353
565.51	40.219
565.85	41.271
566.19	40.150
566.52	40.784
566.86	40.464
567.20	40.131
567.54	40.520
567.88	40.469
568.21	39.970
568.55	39.808
568.89	38.901
569.23	39.079
569.56	38.101
569.90	38.418
570.24	37.707
570.57	38.198
570.91	36.987
571.25	36.882
571.59	36.905
571.92	36.620
572.26	36.845
572.60	36.828
572.93	36.849
573.27	36.920
573.61	36.713
573.95	36.489
574.28	36.300
574.62	35.903
574.96	35.708
575.29	35.426
575.63	35.643
575.97	35.665
576.30	35.381
576.64	35.839
576.98	35.718
577.31	35.545
577.65	36.504
577.98	35.410
578.32	35.264
578.66	35.243
578.99	35.388
579.33	35.594
579.67	36.197
580.00	35.559
580.34	35.820
580.67	35.305
581.01	35.612
581.35	36.041
581.68	34.960
582.02	35.293
582.35	35.235
582.69	34.964
583.02	34.984
583.36	35.716
583.70	35.878
584.03	35.805
584.37	35.843
584.70	36.039
585.04	35.968
585.37	35.440
585.71	35.318
586.04	35.667
586.38	35.283
586.72	35.447
587.05	35.457
587.39	36.325
587.72	35.455
588.06	35.662
588.39	36.346
588.73	36.032
589.06	36.230
589.40	36.816
589.73	36.793
590.07	37.102
590.40	36.782
590.73	37.116
591.07	37.453
591.40	36.742
591.74	37.361
592.07	37.799
592.41	37.500
592.74	36.102
593.08	36.688
593.41	37.095
593.75	36.897
594.08	36.353
594.41	35.994
594.75	36.068
595.08	36.743
595.42	36.753
595.75	36.422
596.09	37.309
596.42	36.367
596.75	37.939
597.09	37.818
597.42	37.068
597.75	37.397
598.09	37.817
598.42	36.832
598.76	36.683
599.09	36.953
599.42	35.903
599.76	34.995
600.09	36.837
600.42	36.136
600.76	36.129
601.09	36.077
601.42	36.389
601.76	36.690
602.09	36.026
602.42	37.186
602.76	36.827
603.09	37.518
603.42	37.139
603.76	36.082
604.09	37.828
604.42	36.477
604.76	35.883
605.09	37.615
605.42	36.204
605.75	36.654
606.09	36.693
606.42	36.009
606.75	36.394
607.09	36.367
607.42	37.225
607.75	37.085
608.08	36.504
608.42	36.397
608.75	37.604
609.08	37.309
609.41	36.789
609.75	37.188
610.08	37.599
610.41	36.534
610.74	36.891
611.07	37.389
611.41	36.861
611.74	38.245
612.07	37.681
612.40	37.357
612.73	37.848
613.07	37.017
613.40	37.247
613.73	37.843
614.06	37.782
614.39	37.804
614.72	38.622
615.06	37.632
615.39	37.748
615.72	37.251
616.05	37.008
616.38	38.295
616.71	38.088
617.05	37.540
617.38	39.112
617.71	38.337
618.04	37.669
618.37	39.180
618.70	39.310
619.03	38.292
619.36	38.656
619.69	39.526
620.03	39.109
620.36	39.080
620.69	38.927
621.02	39.698
621.35	41.147
621.68	39.769
622.01	40.427
622.34	39.540
622.67	41.168
623.00	38.462
623.33	39.151
623.66	39.818
623.99	38.841
624.32	39.831
624.65	38.353
624.99	40.572
625.32	39.582
625.65	39.042
625.98	38.102
626.31	39.546
626.64	40.366
626.97	39.535
627.30	39.332
627.63	40.810
627.96	40.315
628.29	39.767
628.62	40.722
628.95	41.543
629.28	41.206
629.61	40.741
629.94	41.088
630.26	40.847
630.59	41.364
630.92	41.212
631.25	43.023
631.58	42.467
631.91	42.081
632.24	43.324
632.57	42.220
632.90	42.728
633.23	43.878
