SpectraSuite Data File
++++++++++++++++++++++++++++++++++++
Date: Thu May 14 14:47:37 PDT 2015
User: schluterlab
Dark Spectrum Present: Yes
Reference Spectrum Present: Yes
Number of Sampled Component Spectra: 1
Spectrometers: USB2E3373
Integration Time (usec): 3000 (USB2E3373)
Spectra Averaged: 3 (USB2E3373)
Boxcar Smoothing: 0 (USB2E3373)
Correct for Electrical Dark: No (USB2E3373)
Strobe/Lamp Enabled: No (USB2E3373)
Correct for Detector Non-linearity: No (USB2E3373)
Correct for Stray Light: No (USB2E3373)
Number of Pixels in Processed Spectrum: 2048
>>>>>Begin Processed Spectral Data<<<<<
178.53	0.000
178.91	128.571
179.29	-1100.000
179.67	-200.000
180.04	107.143
180.42	80.000
180.80	100.000
181.18	-700.000
181.56	100.000
181.94	175.000
182.31	-200.000
182.69	433.333
183.07	-200.000
183.45	-50.000
183.83	-100.000
184.20	-166.667
184.58	400.000
184.96	125.000
185.34	44.444
185.72	-40.000
186.09	177.778
186.47	-0.000
186.85	220.000
187.23	-166.667
187.61	-1700.000
187.98	20.000
188.36	-50.000
188.74	-25.000
189.12	-200.000
189.49	25.000
189.87	0.000
190.25	55.556
190.63	-20.000
191.00	-111.111
191.38	0.000
191.76	0.000
192.14	-50.000
192.51	50.000
192.89	183.333
193.27	0.000
193.65	57.143
194.02	-700.000
194.40	28.571
194.78	-0.000
195.15	0.000
195.53	9.091
195.91	0.000
196.29	50.000
196.66	-7.692
197.04	-1000.000
197.42	-257.143
197.79	-150.000
198.17	-50.000
198.55	-57.143
198.92	11.111
199.30	-12.500
199.68	27.273
200.05	28.571
200.43	-300.000
200.81	114.286
201.18	0.000
201.56	88.889
201.94	0.000
202.31	333.333
202.69	-88.889
203.07	-200.000
203.44	88.889
203.82	-200.000
204.19	-50.000
204.57	-50.000
204.95	25.000
205.32	500.000
205.70	25.000
206.08	-33.333
206.45	0.000
206.83	420.000
207.20	-66.667
207.58	-120.000
207.96	-233.333
208.33	100.000
208.71	-0.000
209.08	233.333
209.46	0.000
209.84	250.000
210.21	250.000
210.59	450.000
210.96	266.667
211.34	125.000
211.71	-75.000
212.09	-300.000
212.46	0.000
212.84	750.000
213.22	-160.000
213.59	-50.000
213.97	50.000
214.34	-133.333
214.72	200.000
215.09	-200.000
215.47	0.000
215.84	85.714
216.22	150.000
216.59	-140.000
216.97	-120.000
217.34	-75.000
217.72	-62.500
218.09	-250.000
218.47	-125.000
218.84	0.000
219.22	-0.000
219.59	0.000
219.97	40.000
220.34	400.000
220.72	-77.778
221.09	69.231
221.47	100.000
221.84	-40.000
222.22	-185.714
222.59	0.000
222.97	-62.500
223.34	-220.000
223.72	-700.000
224.09	-75.000
224.46	-175.000
224.84	140.000
225.21	-171.429
225.59	-50.000
225.96	-275.000
226.34	3.846
226.71	16.667
227.08	-200.000
227.46	33.333
227.83	-100.000
228.21	-5.263
228.58	12.500
228.95	-50.000
229.33	75.000
229.70	10.000
230.08	42.105
230.45	90.000
230.82	-33.333
231.20	7.143
231.57	-25.000
231.95	-18.182
232.32	-63.636
232.69	50.000
233.07	-200.000
233.44	-11.765
233.81	-20.000
234.19	111.111
234.56	0.000
234.93	41.379
235.31	36.842
235.68	-27.778
236.05	-45.000
236.43	34.615
236.80	28.000
237.17	-22.222
237.55	-24.242
237.92	-40.000
238.29	0.000
238.67	9.091
239.04	-2.778
239.41	-4.762
239.79	-4.348
240.16	3.704
240.53	-4.348
240.91	-5.882
241.28	-4.918
241.65	19.403
242.02	12.162
242.40	1.538
242.77	-2.667
243.14	-3.659
243.51	-7.895
243.89	-12.821
244.26	5.941
244.63	6.863
245.00	4.673
245.38	-0.877
245.75	-4.425
246.12	4.762
246.49	1.550
246.87	7.857
247.24	8.609
247.61	4.605
247.98	4.027
248.36	0.617
248.73	2.454
249.10	4.372
249.47	9.950
249.84	6.806
250.22	2.591
250.59	8.333
250.96	11.364
251.33	-2.551
251.70	3.419
252.08	6.667
252.45	7.787
252.82	1.240
253.19	3.125
253.56	3.422
253.94	0.000
254.31	9.091
254.68	7.692
255.05	9.772
255.42	4.082
255.79	2.589
256.16	3.642
256.54	4.967
256.91	5.902
257.28	3.607
257.65	5.096
258.02	-0.590
258.39	5.983
258.76	12.232
259.14	7.759
259.51	5.476
259.88	4.249
260.25	3.611
260.62	5.753
260.99	7.923
261.36	6.971
261.73	4.775
262.10	3.297
262.47	6.166
262.85	8.838
263.22	3.896
263.59	3.158
263.96	5.882
264.33	2.046
264.70	4.444
265.07	7.876
265.44	8.617
265.81	5.324
266.18	7.029
266.55	6.920
266.92	4.328
267.29	6.565
267.66	6.208
268.03	6.769
268.40	6.472
268.77	2.961
269.14	3.744
269.51	6.798
269.88	5.123
270.25	7.445
270.62	9.072
270.99	8.687
271.36	8.713
271.73	7.269
272.10	7.014
272.47	5.210
272.84	4.217
273.21	6.212
273.58	6.048
273.95	5.000
274.32	3.232
274.69	4.836
275.06	4.579
275.43	4.621
275.80	7.584
276.17	3.889
276.54	5.224
276.91	3.757
277.28	4.882
277.65	6.284
278.02	6.985
278.39	4.891
278.76	3.339
279.13	6.206
279.50	4.983
279.87	4.472
280.23	2.817
280.60	4.068
280.97	5.263
281.34	5.263
281.71	5.922
282.08	5.482
282.45	5.401
282.82	4.867
283.19	4.523
283.56	5.738
283.92	6.306
284.29	6.793
284.66	4.762
285.03	2.885
285.40	5.564
285.77	4.025
286.14	7.481
286.51	4.110
286.87	5.055
287.24	6.777
287.61	5.381
287.98	4.532
288.35	4.438
288.72	5.621
289.08	5.710
289.45	5.030
289.82	4.970
290.19	5.603
290.56	6.901
290.93	4.993
291.29	5.372
291.66	4.408
292.03	4.885
292.40	6.395
292.77	4.043
293.13	6.901
293.50	4.336
293.87	4.698
294.24	6.933
294.60	7.080
294.97	5.235
295.34	6.530
295.71	5.296
296.08	6.202
296.44	4.534
296.81	7.186
297.18	5.355
297.55	6.604
297.91	4.864
298.28	5.213
298.65	5.470
299.02	4.604
299.38	5.606
299.75	6.893
300.12	4.977
300.48	5.184
300.85	6.412
301.22	5.034
301.59	4.566
301.95	5.537
302.32	6.000
302.69	6.462
303.05	5.985
303.42	5.987
303.79	5.625
304.15	5.889
304.52	5.920
304.89	5.864
305.25	6.108
305.62	5.643
305.99	6.289
306.35	5.242
306.72	7.032
307.09	5.685
307.45	6.936
307.82	6.357
308.19	6.256
308.55	7.329
308.92	6.232
309.29	7.375
309.65	6.433
310.02	6.634
310.38	6.890
310.75	7.282
311.12	7.574
311.48	6.354
311.85	7.597
312.22	6.452
312.58	7.324
312.95	6.119
313.31	8.220
313.68	8.608
314.05	9.033
314.41	8.561
314.78	7.720
315.14	7.804
315.51	8.864
315.87	8.821
316.24	9.132
316.61	9.414
316.97	7.602
317.34	8.995
317.70	9.170
318.07	9.083
318.43	10.204
318.80	11.288
319.16	9.785
319.53	9.083
319.89	10.342
320.26	10.053
320.62	9.929
320.99	10.157
321.35	10.998
321.72	11.256
322.08	10.550
322.45	10.208
322.81	11.191
323.18	10.088
323.54	10.172
323.91	10.943
324.27	11.360
324.64	12.259
325.00	10.697
325.37	11.957
325.73	10.826
326.10	12.165
326.46	12.622
326.83	11.369
327.19	11.339
327.56	11.858
327.92	11.408
328.29	11.935
328.65	11.893
329.01	12.690
329.38	13.142
329.74	12.842
330.11	13.613
330.47	12.805
330.84	13.351
331.20	14.167
331.56	12.218
331.93	14.059
332.29	13.305
332.66	12.542
333.02	12.898
333.38	13.339
333.75	12.795
334.11	13.511
334.48	12.871
334.84	13.424
335.20	12.510
335.57	13.069
335.93	12.727
336.29	11.647
336.66	13.373
337.02	12.291
337.38	13.690
337.75	12.231
338.11	14.466
338.47	14.475
338.84	12.690
339.20	12.300
339.56	13.015
339.93	13.300
340.29	14.171
340.65	12.165
341.02	13.727
341.38	12.854
341.74	12.672
342.11	12.953
342.47	12.073
342.83	13.366
343.20	12.756
343.56	12.991
343.92	12.890
344.28	13.047
344.65	13.721
345.01	12.715
345.37	13.219
345.73	13.016
346.10	13.963
346.46	12.421
346.82	13.184
347.19	13.140
347.55	14.264
347.91	13.001
348.27	13.050
348.63	13.100
349.00	12.379
349.36	12.342
349.72	12.351
350.08	13.224
350.45	12.700
350.81	13.725
351.17	12.632
351.53	13.268
351.89	13.667
352.26	12.537
352.62	13.582
352.98	12.290
353.34	12.621
353.70	13.020
354.07	13.115
354.43	12.453
354.79	12.266
355.15	12.730
355.51	13.962
355.87	11.892
356.24	13.536
356.60	13.156
356.96	13.862
357.32	12.491
357.68	12.225
358.04	11.302
358.40	12.313
358.77	12.939
359.13	12.260
359.49	11.599
359.85	12.545
360.21	12.482
360.57	12.778
360.93	12.482
361.29	13.614
361.66	12.310
362.02	13.570
362.38	13.212
362.74	13.757
363.10	13.205
363.46	12.673
363.82	12.216
364.18	13.160
364.54	13.209
364.90	13.378
365.26	12.138
365.62	14.133
365.98	13.547
366.35	12.685
366.71	12.993
367.07	13.599
367.43	13.066
367.79	13.338
368.15	13.445
368.51	13.532
368.87	13.063
369.23	13.000
369.59	13.046
369.95	13.320
370.31	14.045
370.67	12.930
371.03	13.712
371.39	12.626
371.75	14.099
372.11	13.753
372.47	13.067
372.83	14.529
373.19	13.809
373.55	13.550
373.91	13.497
374.27	13.648
374.63	14.614
374.99	13.329
375.35	14.545
375.71	14.129
376.07	14.719
376.42	13.854
376.78	14.108
377.14	13.849
377.50	13.978
377.86	14.101
378.22	14.731
378.58	14.209
378.94	15.141
379.30	14.763
379.66	15.109
380.02	16.042
380.38	14.862
380.74	14.817
381.09	14.576
381.45	15.455
381.81	15.984
382.17	15.024
382.53	15.439
382.89	15.124
383.25	15.240
383.61	15.046
383.97	15.430
384.32	16.507
384.68	15.139
385.04	15.211
385.40	16.264
385.76	15.358
386.12	15.919
386.48	15.882
386.83	16.865
387.19	16.686
387.55	16.021
387.91	15.582
388.27	16.859
388.62	15.979
388.98	15.792
389.34	17.501
389.70	16.212
390.06	16.519
390.42	16.506
390.77	16.677
391.13	17.136
391.49	17.271
391.85	16.606
392.20	16.845
392.56	17.720
392.92	17.666
393.28	16.971
393.64	16.704
393.99	17.374
394.35	16.998
394.71	17.246
395.07	16.707
395.42	17.019
395.78	17.916
396.14	18.122
396.50	16.686
396.85	17.233
397.21	17.337
397.57	18.139
397.92	17.984
398.28	16.947
398.64	17.334
399.00	17.644
399.35	17.906
399.71	17.772
400.07	17.799
400.42	17.579
400.78	17.130
401.14	17.814
401.49	17.055
401.85	17.733
402.21	18.598
402.57	17.723
402.92	18.144
403.28	16.335
403.63	17.243
403.99	17.221
404.35	17.453
404.70	17.847
405.06	17.609
405.42	17.916
405.77	18.103
406.13	17.882
406.49	17.680
406.84	17.784
407.20	17.496
407.55	17.807
407.91	17.976
408.27	18.669
408.62	18.092
408.98	17.992
409.34	17.537
409.69	17.985
410.05	17.937
410.40	18.329
410.76	17.611
411.11	18.293
411.47	18.980
411.83	18.812
412.18	17.892
412.54	18.731
412.89	18.801
413.25	18.002
413.60	17.576
413.96	19.289
414.31	18.074
414.67	18.903
415.03	17.908
415.38	17.970
415.74	18.876
416.09	18.199
416.45	18.410
416.80	17.993
417.16	17.688
417.51	18.120
417.87	18.394
418.22	18.623
418.58	19.393
418.93	18.859
419.29	18.002
419.64	17.827
420.00	17.626
420.35	17.967
420.71	18.036
421.06	18.631
421.42	17.775
421.77	18.471
422.12	18.393
422.48	18.689
422.83	18.949
423.19	19.098
423.54	18.695
423.90	19.271
424.25	19.520
424.61	19.173
424.96	19.550
425.31	18.843
425.67	18.680
426.02	19.314
426.38	19.116
426.73	18.862
427.09	20.358
427.44	18.951
427.79	19.182
428.15	18.208
428.50	18.652
428.85	19.346
429.21	20.319
429.56	18.608
429.92	19.607
430.27	19.711
430.62	19.492
430.98	19.036
431.33	19.599
431.68	19.013
432.04	20.264
432.39	19.979
432.74	18.950
433.10	19.578
433.45	20.011
433.80	19.528
434.16	19.886
434.51	19.887
434.86	20.304
435.22	20.244
435.57	20.873
435.92	20.256
436.28	20.250
436.63	20.699
436.98	20.397
437.34	20.349
437.69	19.923
438.04	19.989
438.39	20.620
438.75	19.923
439.10	20.085
439.45	20.961
439.81	20.282
440.16	21.394
440.51	20.401
440.86	19.455
441.22	21.008
441.57	20.807
441.92	20.660
442.27	20.101
442.63	20.318
442.98	20.491
443.33	20.516
443.68	21.110
444.03	21.449
444.39	20.851
444.74	21.133
445.09	20.679
445.44	20.548
445.79	20.929
446.15	21.172
446.50	20.672
446.85	20.379
447.20	20.551
447.55	20.921
447.91	20.524
448.26	20.507
448.61	20.298
448.96	22.049
449.31	20.944
449.66	20.370
450.02	21.730
450.37	21.470
450.72	20.936
451.07	20.843
451.42	21.837
451.77	20.845
452.12	21.727
452.47	20.974
452.83	21.959
453.18	20.841
453.53	21.367
453.88	21.535
454.23	21.356
454.58	21.822
454.93	20.934
455.28	21.794
455.63	21.433
455.98	21.508
456.34	21.555
456.69	20.929
457.04	20.863
457.39	21.064
457.74	21.644
458.09	21.252
458.44	22.468
458.79	21.042
459.14	20.346
459.49	21.732
459.84	22.141
460.19	21.266
460.54	22.033
460.89	21.652
461.24	21.149
461.59	22.357
461.94	21.221
462.29	21.948
462.64	22.148
462.99	22.034
463.34	23.232
463.69	22.098
464.04	21.568
464.39	21.413
464.74	22.862
465.09	21.396
465.44	21.888
465.79	22.052
466.14	21.522
466.49	22.211
466.84	21.928
467.19	22.081
467.54	21.915
467.89	21.782
468.24	22.105
468.59	22.235
468.94	21.503
469.29	20.936
469.64	22.568
469.99	22.435
470.34	22.215
470.68	23.035
471.03	22.200
471.38	21.779
471.73	21.586
472.08	22.843
472.43	22.035
472.78	22.418
473.13	22.693
473.48	23.021
473.83	23.215
474.17	22.509
474.52	22.850
474.87	22.868
475.22	22.986
475.57	23.209
475.92	22.399
476.27	22.417
476.61	22.897
476.96	22.263
477.31	22.673
477.66	22.980
478.01	22.369
478.36	22.632
478.70	22.709
479.05	23.262
479.40	22.705
479.75	22.815
480.10	22.643
480.45	22.653
480.79	23.039
481.14	22.886
481.49	22.899
481.84	22.802
482.19	23.097
482.53	22.956
482.88	23.438
483.23	23.032
483.58	23.013
483.92	22.340
484.27	22.481
484.62	21.823
484.97	22.628
485.31	22.738
485.66	21.712
486.01	21.422
486.36	22.210
486.70	23.555
487.05	23.514
487.40	23.775
487.75	23.384
488.09	23.190
488.44	22.318
488.79	22.631
489.13	23.027
489.48	22.136
489.83	22.696
490.17	22.762
490.52	22.414
490.87	22.208
491.22	22.660
491.56	23.336
491.91	22.634
492.26	22.977
492.60	22.825
492.95	22.642
493.30	23.487
493.64	23.303
493.99	23.421
494.34	22.430
494.68	22.827
495.03	23.744
495.37	23.169
495.72	23.492
496.07	23.444
496.41	23.209
496.76	23.061
497.11	23.270
497.45	23.565
497.80	23.634
498.14	23.265
498.49	23.346
498.84	23.218
499.18	23.347
499.53	23.632
499.87	23.692
500.22	23.286
500.56	22.447
500.91	23.432
501.26	23.636
501.60	23.332
501.95	23.882
502.29	24.090
502.64	23.743
502.98	23.684
503.33	23.542
503.67	22.678
504.02	22.898
504.36	24.307
504.71	23.565
505.06	23.738
505.40	23.492
505.75	23.998
506.09	23.757
506.44	24.141
506.78	24.174
507.13	23.605
507.47	24.301
507.82	24.148
508.16	23.996
508.51	22.785
508.85	24.185
509.19	24.254
509.54	24.688
509.88	24.672
510.23	24.866
510.57	24.118
510.92	24.673
511.26	24.339
511.61	23.419
511.95	24.890
512.30	25.012
512.64	23.888
512.98	25.363
513.33	25.101
513.67	24.732
514.02	25.396
514.36	24.246
514.70	24.583
515.05	25.443
515.39	25.354
515.74	25.080
516.08	25.145
516.42	25.065
516.77	24.816
517.11	24.394
517.46	24.072
517.80	25.815
518.14	25.299
518.49	25.271
518.83	25.439
519.17	24.340
519.52	25.943
519.86	25.502
520.20	25.133
520.55	24.042
520.89	24.831
521.23	24.902
521.58	24.859
521.92	25.212
522.26	25.430
522.61	25.116
522.95	25.721
523.29	25.460
523.64	25.841
523.98	25.556
524.32	26.934
524.66	26.067
525.01	25.481
525.35	25.215
525.69	25.406
526.04	25.144
526.38	25.632
526.72	25.894
527.06	25.572
527.41	25.889
527.75	26.128
528.09	26.033
528.43	25.340
528.78	24.971
529.12	25.229
529.46	25.126
529.80	25.973
530.15	26.609
530.49	25.979
530.83	25.738
531.17	25.149
531.51	25.692
531.86	25.601
532.20	25.549
532.54	25.494
532.88	26.000
533.22	25.575
533.57	25.678
533.91	25.533
534.25	26.399
534.59	25.345
534.93	25.920
535.27	25.521
535.62	26.606
535.96	26.845
536.30	24.912
536.64	25.646
536.98	26.199
537.32	26.173
537.66	25.889
538.01	24.230
538.35	25.822
538.69	25.601
539.03	25.812
539.37	26.031
539.71	25.826
540.05	26.259
540.39	25.550
540.73	25.379
541.07	25.383
541.42	25.103
541.76	25.563
542.10	24.608
542.44	24.482
542.78	26.217
543.12	25.745
543.46	25.702
543.80	24.880
544.14	25.494
544.48	26.537
544.82	25.793
545.16	25.522
545.50	25.464
545.84	25.475
546.18	26.605
546.52	25.159
546.86	25.283
547.20	25.954
547.54	25.468
547.88	25.075
548.22	24.678
548.56	26.448
548.90	26.388
549.24	25.957
549.58	25.994
549.92	25.638
550.26	26.667
550.60	25.782
550.94	26.197
551.28	25.149
551.62	25.809
551.96	24.531
552.30	25.940
552.64	25.887
552.98	25.764
553.32	26.495
553.66	25.338
554.00	26.166
554.34	25.676
554.68	24.403
555.02	25.624
555.36	25.970
555.69	24.984
556.03	25.536
556.37	26.095
556.71	25.682
557.05	26.070
557.39	25.083
557.73	25.694
558.07	24.901
558.41	25.382
558.75	25.625
559.08	26.166
559.42	25.171
559.76	25.916
560.10	25.318
560.44	26.649
560.78	25.875
561.12	25.800
561.45	26.156
561.79	25.824
562.13	25.570
562.47	25.031
562.81	25.506
563.15	25.442
563.48	25.109
563.82	25.937
564.16	25.439
564.50	25.685
564.84	25.900
565.17	26.118
565.51	25.374
565.85	25.059
566.19	24.366
566.52	25.336
566.86	24.618
567.20	25.285
567.54	24.907
567.88	25.688
568.21	25.247
568.55	26.139
568.89	25.420
569.23	25.518
569.56	25.518
569.90	25.410
570.24	26.003
570.57	25.208
570.91	24.525
571.25	24.732
571.59	24.770
571.92	24.867
572.26	25.066
572.60	24.898
572.93	25.021
573.27	24.951
573.61	24.854
573.95	24.642
574.28	24.854
574.62	24.557
574.96	24.482
575.29	25.028
575.63	24.555
575.97	24.575
576.30	24.032
576.64	24.887
576.98	25.080
577.31	24.617
577.65	24.494
577.98	24.906
578.32	24.140
578.66	23.897
578.99	24.596
579.33	24.344
579.67	24.433
580.00	24.410
580.34	24.258
580.67	24.581
581.01	24.340
581.35	24.430
581.68	24.419
582.02	24.544
582.35	24.877
582.69	24.786
583.02	24.575
583.36	25.139
583.70	24.676
584.03	24.118
584.37	24.019
584.70	23.961
585.04	24.273
585.37	24.525
585.71	24.380
586.04	24.373
586.38	24.977
586.72	24.141
587.05	24.431
587.39	24.557
587.72	25.287
588.06	24.516
588.39	24.720
588.73	24.339
589.06	24.379
589.40	24.616
589.73	24.711
590.07	25.099
590.40	24.780
590.73	24.602
591.07	25.205
591.40	23.950
591.74	24.881
592.07	24.767
592.41	24.330
592.74	24.388
593.08	24.777
593.41	25.022
593.75	24.339
594.08	25.083
594.41	24.327
594.75	24.178
595.08	24.260
595.42	24.968
595.75	25.153
596.09	25.008
596.42	24.221
596.75	25.589
597.09	25.495
597.42	24.434
597.75	24.304
598.09	24.444
598.42	24.246
598.76	23.959
599.09	24.172
599.42	24.070
599.76	24.695
600.09	24.925
600.42	24.191
600.76	24.240
601.09	23.830
601.42	24.065
601.76	24.586
602.09	24.017
602.42	23.882
602.76	24.649
603.09	24.413
603.42	24.350
603.76	24.207
604.09	24.911
604.42	24.991
604.76	24.467
605.09	24.412
605.42	24.282
605.75	23.731
606.09	24.263
606.42	23.677
606.75	24.625
607.09	23.963
607.42	24.162
607.75	23.837
608.08	24.033
608.42	24.063
608.75	24.585
609.08	24.321
609.41	24.173
609.75	24.643
610.08	25.110
610.41	23.619
610.74	24.244
611.07	24.156
611.41	24.036
611.74	24.896
612.07	24.217
612.40	24.382
612.73	24.401
613.07	24.401
613.40	24.687
613.73	24.458
614.06	24.779
614.39	24.101
614.72	24.212
615.06	22.955
615.39	23.828
615.72	24.692
616.05	24.526
616.38	24.369
616.71	24.504
617.05	23.536
617.38	24.933
617.71	24.244
618.04	23.691
618.37	24.372
618.70	24.887
619.03	24.612
619.36	24.044
619.69	25.176
620.03	24.482
620.36	23.558
620.69	23.998
621.02	24.409
621.35	26.343
621.68	25.452
622.01	24.057
622.34	24.198
622.67	24.192
623.00	23.414
623.33	24.618
623.66	23.735
623.99	24.226
624.32	24.561
624.65	24.389
624.99	24.707
625.32	25.082
625.65	23.938
625.98	23.729
626.31	24.947
626.64	24.542
626.97	23.706
627.30	24.222
627.63	24.156
627.96	24.474
628.29	25.058
628.62	22.754
628.95	24.365
629.28	24.724
629.61	24.747
629.94	23.766
630.26	23.814
630.59	24.870
630.92	23.896
631.25	25.403
631.58	25.330
631.91	24.836
632.24	24.592
632.57	24.763
632.90	24.072
633.23	24.490
633.56	24.286
633.89	22.934
634.22	24.116
634.55	22.443
634.88	23.918
635.20	25.296
635.53	23.842
635.86	24.485
636.19	25.769
636.52	24.895
636.85	24.821
637.18	23.701
637.51	24.194
637.83	24.806
638.16	24.194
