SpectraSuite Data File
++++++++++++++++++++++++++++++++++++
Date: Thu May 14 14:47:13 PDT 2015
User: schluterlab
Dark Spectrum Present: Yes
Reference Spectrum Present: Yes
Number of Sampled Component Spectra: 1
Spectrometers: USB2E3373
Integration Time (usec): 3000 (USB2E3373)
Spectra Averaged: 3 (USB2E3373)
Boxcar Smoothing: 0 (USB2E3373)
Correct for Electrical Dark: No (USB2E3373)
Strobe/Lamp Enabled: No (USB2E3373)
Correct for Detector Non-linearity: No (USB2E3373)
Correct for Stray Light: No (USB2E3373)
Number of Pixels in Processed Spectrum: 2048
>>>>>Begin Processed Spectral Data<<<<<
178.53	0.000
178.91	57.143
179.29	-900.000
179.67	-500.000
180.04	107.143
180.42	10.000
180.80	80.000
181.18	-800.000
181.56	800.000
181.94	275.000
182.31	-125.000
182.69	33.333
183.07	-150.000
183.45	100.000
183.83	66.667
184.20	166.667
184.58	800.000
184.96	-125.000
185.34	44.444
185.72	-100.000
186.09	122.222
186.47	700.000
186.85	400.000
187.23	-155.556
187.61	-300.000
187.98	180.000
188.36	250.000
188.74	0.000
189.12	-100.000
189.49	50.000
189.87	-112.500
190.25	22.222
190.63	-80.000
191.00	-66.667
191.38	0.000
191.76	-200.000
192.14	-100.000
192.51	150.000
192.89	-66.667
193.27	0.000
193.65	-14.286
194.02	-800.000
194.40	-85.714
194.78	-114.286
195.15	0.000
195.53	-9.091
195.91	0.000
196.29	200.000
196.66	7.692
197.04	-100.000
197.42	42.857
197.79	-150.000
198.17	-50.000
198.55	-114.286
198.92	44.444
199.30	-25.000
199.68	63.636
200.05	28.571
200.43	-100.000
200.81	42.857
201.18	0.000
201.56	122.222
201.94	0.000
202.31	333.333
202.69	11.111
203.07	300.000
203.44	44.444
203.82	25.000
204.19	8.333
204.57	0.000
204.95	-37.500
205.32	-1100.000
205.70	75.000
206.08	0.000
206.45	16.667
206.83	60.000
207.20	16.667
207.58	-160.000
207.96	-216.667
208.33	50.000
208.71	41.667
209.08	133.333
209.46	0.000
209.84	100.000
210.21	50.000
210.59	50.000
210.96	300.000
211.34	100.000
211.71	-75.000
212.09	-100.000
212.46	0.000
212.84	350.000
213.22	-140.000
213.59	0.000
213.97	40.000
214.34	0.000
214.72	33.333
215.09	0.000
215.47	0.000
215.84	-0.000
216.22	500.000
216.59	-40.000
216.97	-80.000
217.34	50.000
217.72	100.000
218.09	-100.000
218.47	-50.000
218.84	0.000
219.22	-160.000
219.59	11.765
219.97	10.000
220.34	550.000
220.72	-88.889
221.09	23.077
221.47	0.000
221.84	-20.000
222.22	-28.571
222.59	0.000
222.97	-12.500
223.34	-240.000
223.72	300.000
224.09	50.000
224.46	25.000
224.84	-40.000
225.21	-157.143
225.59	-300.000
225.96	25.000
226.34	-3.846
226.71	133.333
227.08	-300.000
227.46	-13.333
227.83	-75.000
228.21	21.053
228.58	287.500
228.95	350.000
229.33	8.333
229.70	-20.000
230.08	26.316
230.45	60.000
230.82	-133.333
231.20	21.429
231.57	25.000
231.95	-9.091
232.32	27.273
232.69	20.000
233.07	50.000
233.44	-17.647
233.81	-60.000
234.19	-27.778
234.56	-4.545
234.93	62.069
235.31	31.579
235.68	0.000
236.05	5.000
236.43	42.308
236.80	56.000
237.17	7.407
237.55	21.212
237.92	-30.000
238.29	-19.355
238.67	6.818
239.04	8.333
239.41	-11.905
239.79	13.043
240.16	3.704
240.53	10.870
240.91	-5.882
241.28	14.754
241.65	5.970
242.02	17.568
242.40	4.615
242.77	-1.333
243.14	2.439
243.51	-6.579
243.89	-6.410
244.26	4.950
244.63	9.804
245.00	13.084
245.38	2.632
245.75	0.000
246.12	10.317
246.49	-1.550
246.87	15.714
247.24	9.272
247.61	11.842
247.98	6.040
248.36	3.704
248.73	7.975
249.10	2.186
249.47	10.448
249.84	13.613
250.22	5.699
250.59	3.889
250.96	10.000
251.33	5.612
251.70	8.120
252.08	5.833
252.45	9.836
252.82	8.678
253.19	5.469
253.56	6.844
253.94	7.692
254.31	9.470
254.68	11.189
255.05	11.075
255.42	8.163
255.79	5.825
256.16	3.974
256.54	9.272
256.91	5.246
257.28	6.557
257.65	5.096
258.02	6.785
258.39	6.838
258.76	10.398
259.14	7.759
259.51	7.205
259.88	6.516
260.25	9.167
260.62	8.767
260.99	9.836
261.36	10.188
261.73	5.836
262.10	7.692
262.47	6.971
262.85	13.131
263.22	7.532
263.59	6.316
263.96	8.184
264.33	6.905
264.70	8.395
265.07	11.933
265.44	11.565
265.81	7.870
266.18	8.163
266.55	8.036
266.92	5.239
267.29	9.847
267.66	6.430
268.03	9.170
268.40	9.603
268.77	5.467
269.14	5.066
269.51	8.114
269.88	8.811
270.25	6.841
270.62	7.806
270.99	9.091
271.36	9.703
271.73	7.466
272.10	9.619
272.47	9.218
272.84	9.438
273.21	8.417
273.58	9.879
273.95	8.077
274.32	7.034
274.69	8.511
275.06	8.242
275.43	4.251
275.80	9.524
276.17	6.111
276.54	8.022
276.91	8.229
277.28	9.765
277.65	8.438
278.02	9.007
278.39	7.065
278.76	7.030
279.13	8.156
279.50	7.904
279.87	8.050
280.23	7.394
280.60	8.305
280.97	8.059
281.34	7.640
281.71	9.814
282.08	9.468
282.45	6.874
282.82	7.535
283.19	6.624
283.56	8.689
283.92	7.207
284.29	10.742
284.66	8.374
285.03	6.891
285.40	6.337
285.77	7.585
286.14	7.939
286.51	9.132
286.87	8.531
287.24	8.133
287.61	8.072
287.98	7.402
288.35	7.544
288.72	6.953
289.08	8.492
289.45	6.065
289.82	7.229
290.19	6.897
290.56	9.577
290.93	8.274
291.29	7.438
291.66	6.887
292.03	7.056
292.40	8.163
292.77	6.065
293.13	8.796
293.50	7.753
293.87	6.980
294.24	9.867
294.60	8.597
294.97	6.711
295.34	10.243
295.71	6.683
296.08	7.881
296.44	7.721
296.81	7.308
297.18	7.846
297.55	6.840
297.91	8.304
298.28	6.635
298.65	8.323
299.02	6.848
299.38	8.581
299.75	7.360
300.12	5.787
300.48	8.410
300.85	7.762
301.22	7.606
301.59	7.420
301.95	7.232
302.32	8.111
302.69	7.338
303.05	8.923
303.42	7.982
303.79	8.125
304.15	7.992
304.52	7.611
304.89	8.272
305.25	7.971
305.62	8.046
305.99	9.588
306.35	7.157
306.72	8.170
307.09	8.223
307.45	8.592
307.82	7.467
308.19	8.174
308.55	9.065
308.92	9.056
309.29	7.375
309.65	9.357
310.02	7.030
310.38	7.972
310.75	8.447
311.12	9.684
311.48	7.918
311.85	8.357
312.22	7.780
312.58	8.263
312.95	7.648
313.31	8.220
313.68	8.974
314.05	9.846
314.41	8.470
314.78	8.810
315.14	8.711
315.51	8.403
315.87	9.901
316.24	9.498
316.61	9.236
316.97	7.783
317.34	8.289
317.70	8.384
318.07	8.113
318.43	9.354
318.80	9.281
319.16	8.670
319.53	7.798
319.89	8.501
320.26	9.164
320.62	8.688
320.99	9.234
321.35	9.242
321.72	10.512
322.08	9.107
322.45	9.485
322.81	8.845
323.18	7.965
323.54	9.483
323.91	9.786
324.27	8.434
324.64	10.327
325.00	8.541
325.37	9.419
325.73	10.165
326.10	9.813
326.46	10.016
326.83	10.088
327.19	9.764
327.56	10.198
327.92	8.104
328.29	9.435
328.65	9.799
329.01	8.714
329.38	9.520
329.74	9.589
330.11	10.445
330.47	9.183
330.84	9.905
331.20	10.917
331.56	10.139
331.93	10.460
332.29	8.390
332.66	9.801
333.02	9.715
333.38	10.487
333.75	10.101
334.11	10.259
334.48	9.818
334.84	10.365
335.20	9.656
335.57	9.865
335.93	10.248
336.29	9.651
336.66	9.840
337.02	10.619
337.38	10.204
337.75	10.000
338.11	9.756
338.47	11.249
338.84	10.152
339.20	9.688
339.56	10.708
339.93	10.755
340.29	10.467
340.65	10.706
341.02	11.333
341.38	11.156
341.74	10.412
342.11	9.815
342.47	9.055
342.83	11.031
343.20	10.630
343.56	9.944
343.92	9.768
344.28	10.469
344.65	10.775
345.01	10.062
345.37	10.653
345.73	9.899
346.10	10.842
346.46	9.494
346.82	10.936
347.19	11.001
347.55	11.381
347.91	11.441
348.27	10.243
348.63	11.348
349.00	10.216
349.36	11.822
349.72	10.119
350.08	11.144
350.45	10.418
350.81	10.784
351.17	11.203
351.53	10.917
351.89	10.478
352.26	10.373
352.62	10.373
352.98	10.305
353.34	9.709
353.70	10.632
354.07	10.432
354.43	10.554
354.79	10.696
355.15	11.038
355.51	10.746
355.87	10.247
356.24	12.167
356.60	10.569
356.96	10.897
357.32	10.632
357.68	10.981
358.04	10.479
358.40	10.597
358.77	10.380
359.13	10.709
359.49	10.558
359.85	10.587
360.21	11.263
360.57	10.696
360.93	11.425
361.29	11.439
361.66	10.500
362.02	11.413
362.38	11.947
362.74	11.173
363.10	11.073
363.46	10.526
363.82	11.151
364.18	11.541
364.54	12.517
364.90	11.037
365.26	11.586
365.62	11.867
365.98	11.641
366.35	10.872
366.71	11.565
367.07	11.299
367.43	12.016
367.79	11.612
368.15	11.973
368.51	11.502
368.87	12.410
369.23	12.133
369.59	11.407
369.95	12.103
370.31	12.289
370.67	11.898
371.03	12.396
371.39	11.216
371.75	11.761
372.11	12.263
372.47	12.661
372.83	11.846
373.19	12.141
373.55	11.924
373.91	10.770
374.27	12.160
374.63	11.840
374.99	11.804
375.35	12.403
375.71	12.710
376.07	12.524
376.42	12.783
376.78	13.362
377.14	12.352
377.50	11.954
377.86	13.424
378.22	12.036
378.58	11.891
378.94	12.735
379.30	12.537
379.66	13.521
380.02	12.695
380.38	13.306
380.74	12.676
381.09	13.008
381.45	12.955
381.81	13.817
382.17	13.955
382.53	12.924
382.89	13.544
383.25	14.009
383.61	13.600
383.97	13.428
384.32	13.816
384.68	12.413
385.04	14.401
385.40	14.437
385.76	14.420
386.12	14.004
386.48	13.882
386.83	13.886
387.19	12.283
387.55	13.204
387.91	13.927
388.27	14.665
388.62	14.318
388.98	14.044
389.34	14.025
389.70	13.655
390.06	13.795
390.42	13.494
390.77	14.630
391.13	14.378
391.49	14.976
391.85	13.879
392.20	14.591
392.56	15.594
392.92	15.104
393.28	15.146
393.64	14.860
393.99	15.514
394.35	14.428
394.71	14.850
395.07	14.431
395.42	15.134
395.78	15.356
396.14	15.508
396.50	14.608
396.85	14.908
397.21	14.615
397.57	15.135
397.92	15.750
398.28	14.720
398.64	14.188
399.00	14.293
399.35	15.340
399.71	14.674
400.07	14.655
400.42	15.367
400.78	14.815
401.14	14.969
401.49	15.577
401.85	14.709
402.21	15.817
402.57	15.610
402.92	15.426
403.28	14.696
403.63	14.797
403.99	14.964
404.35	14.895
404.70	14.901
405.06	14.728
405.42	15.281
405.77	16.031
406.13	15.181
406.49	14.865
406.84	15.568
407.20	15.763
407.55	14.900
407.91	15.525
408.27	14.488
408.62	15.590
408.98	14.858
409.34	14.194
409.69	15.884
410.05	15.592
410.40	16.241
410.76	15.760
411.11	16.306
411.47	15.786
411.83	15.697
412.18	15.482
412.54	15.412
412.89	15.891
413.25	15.406
413.60	16.140
413.96	16.026
414.31	15.581
414.67	15.325
415.03	14.892
415.38	15.574
415.74	15.761
416.09	16.410
416.45	14.903
416.80	15.116
417.16	15.900
417.51	16.438
417.87	16.186
418.22	15.928
418.58	16.047
418.93	16.123
419.29	15.968
419.64	15.846
420.00	15.905
420.35	16.115
420.71	16.140
421.06	15.411
421.42	16.399
421.77	15.994
422.12	15.803
422.48	16.436
422.83	16.648
423.19	16.233
423.54	16.482
423.90	16.179
424.25	16.107
424.61	15.270
424.96	16.090
425.31	16.985
425.67	16.210
426.02	17.156
426.38	16.361
426.73	16.629
427.09	17.416
427.44	17.204
427.79	15.976
428.15	17.066
428.50	15.955
428.85	16.533
429.21	17.234
429.56	16.881
429.92	16.855
430.27	16.000
430.62	15.437
430.98	16.085
431.33	16.716
431.68	17.146
432.04	16.709
432.39	17.461
432.74	17.123
433.10	16.874
433.45	16.667
433.80	17.060
434.16	16.942
434.51	16.906
434.86	16.612
435.22	17.535
435.57	18.219
435.92	17.863
436.28	17.292
436.63	17.586
436.98	16.747
437.34	17.249
437.69	16.896
438.04	17.345
438.39	17.346
438.75	17.654
439.10	18.076
439.45	17.831
439.81	17.571
440.16	17.587
440.51	17.893
440.86	17.343
441.22	17.095
441.57	18.449
441.92	17.410
442.27	17.323
442.63	17.486
442.98	17.876
443.33	17.833
443.68	18.385
444.03	18.485
444.39	18.031
444.74	19.142
445.09	17.993
445.44	17.281
445.79	18.008
446.15	18.551
446.50	18.191
446.85	18.434
447.20	18.279
447.55	18.201
447.91	18.325
448.26	17.812
448.61	18.278
448.96	19.421
449.31	18.452
449.66	17.484
450.02	18.143
450.37	18.540
450.72	18.461
451.07	18.337
451.42	17.735
451.77	17.954
452.12	19.074
452.47	18.004
452.83	19.088
453.18	17.630
453.53	19.070
453.88	18.664
454.23	17.910
454.58	19.443
454.93	18.265
455.28	18.242
455.63	18.704
455.98	18.603
456.34	18.669
456.69	18.636
457.04	18.440
457.39	18.293
457.74	19.575
458.09	17.518
458.44	18.966
458.79	18.051
459.14	18.825
459.49	18.563
459.84	18.730
460.19	17.879
460.54	19.761
460.89	19.058
461.24	18.851
461.59	19.258
461.94	18.254
462.29	19.037
462.64	18.467
462.99	19.460
463.34	20.117
463.69	19.519
464.04	19.177
464.39	18.722
464.74	18.985
465.09	19.839
465.44	19.421
465.79	19.038
466.14	19.177
466.49	19.368
466.84	19.725
467.19	19.942
467.54	19.448
467.89	19.368
468.24	20.554
468.59	19.050
468.94	19.697
469.29	19.556
469.64	19.580
469.99	19.694
470.34	19.245
470.68	20.711
471.03	21.087
471.38	20.733
471.73	19.766
472.08	21.574
472.43	20.409
472.78	20.781
473.13	20.228
473.48	21.511
473.83	21.880
474.17	20.809
474.52	21.167
474.87	20.764
475.22	21.972
475.57	20.509
475.92	20.458
476.27	20.501
476.61	20.924
476.96	20.386
477.31	22.030
477.66	21.196
478.01	20.844
478.36	21.186
478.70	20.837
479.05	21.933
479.40	20.977
479.75	21.662
480.10	21.506
480.45	21.559
480.79	21.224
481.14	21.094
481.49	21.218
481.84	21.105
482.19	20.645
482.53	21.732
482.88	22.109
483.23	21.476
483.58	21.179
483.92	20.612
484.27	20.406
484.62	21.576
484.97	20.879
485.31	20.873
485.66	19.525
486.01	18.910
486.36	19.333
486.70	20.360
487.05	21.157
487.40	20.966
487.75	21.399
488.09	21.189
488.44	21.332
488.79	21.518
489.13	21.325
489.48	20.971
489.83	21.087
490.17	21.547
490.52	21.593
490.87	22.166
491.22	22.054
491.56	22.355
491.91	21.413
492.26	21.895
492.60	22.038
492.95	22.334
493.30	22.367
493.64	22.558
493.99	21.754
494.34	21.733
494.68	22.013
495.03	22.643
495.37	22.992
495.72	22.540
496.07	22.524
496.41	22.222
496.76	23.311
497.11	21.699
497.45	23.004
497.80	23.634
498.14	23.356
498.49	22.794
498.84	23.126
499.18	22.942
499.53	23.318
499.87	23.385
500.22	22.752
500.56	22.807
500.91	23.112
501.26	23.591
501.60	22.890
501.95	23.752
502.29	23.782
502.64	23.743
502.98	23.943
503.33	23.585
503.67	23.724
504.02	24.124
504.36	24.531
504.71	24.391
505.06	24.511
505.40	23.949
505.75	24.909
506.09	24.862
506.44	24.930
506.78	25.505
507.13	25.403
507.47	25.107
507.82	25.331
508.16	24.665
508.51	24.051
508.85	25.319
509.19	26.196
509.54	25.793
509.88	25.692
510.23	25.838
510.57	26.583
510.92	26.222
511.26	25.878
511.61	25.302
511.95	26.257
512.30	26.194
512.64	26.087
512.98	26.163
513.33	27.319
513.67	27.435
514.02	27.287
514.36	26.752
514.70	26.615
515.05	27.007
515.39	27.769
515.74	27.837
516.08	27.311
516.42	28.048
516.77	27.655
517.11	26.921
517.46	28.420
517.80	28.968
518.14	28.781
518.49	28.796
518.83	28.260
519.17	27.356
519.52	28.616
519.86	28.247
520.20	28.328
520.55	28.149
520.89	29.110
521.23	28.755
521.58	29.605
521.92	29.292
522.26	29.496
522.61	29.687
522.95	29.642
523.29	28.736
523.64	28.700
523.98	29.264
524.32	30.258
524.66	29.425
525.01	28.935
525.35	28.202
525.69	28.538
526.04	29.162
526.38	29.080
526.72	29.527
527.06	29.736
527.41	29.446
527.75	30.879
528.09	29.811
528.43	30.255
528.78	29.480
529.12	29.759
529.46	29.623
529.80	30.034
530.15	30.609
530.49	30.486
530.83	30.342
531.17	30.765
531.51	30.445
531.86	31.430
532.20	31.159
532.54	30.521
532.88	30.364
533.22	29.935
533.57	30.929
533.91	30.022
534.25	29.904
534.59	29.540
534.93	30.334
535.27	30.366
535.62	30.188
535.96	30.738
536.30	30.494
536.64	31.171
536.98	31.365
537.32	30.741
537.66	31.316
538.01	29.607
538.35	29.659
538.69	30.168
539.03	30.411
539.37	30.506
539.71	30.030
540.05	30.516
540.39	30.318
540.73	30.540
541.07	30.717
541.42	29.829
541.76	29.300
542.10	30.639
542.44	28.685
542.78	30.049
543.12	30.215
543.46	30.403
543.80	30.755
544.14	30.401
544.48	30.733
544.82	30.341
545.16	30.650
545.50	30.857
545.84	30.557
546.18	31.173
546.52	30.828
546.86	31.069
547.20	30.852
547.54	31.086
547.88	31.284
548.22	30.643
548.56	29.432
548.90	29.970
549.24	30.274
549.58	30.347
549.92	31.505
550.26	32.298
550.60	31.015
550.94	31.630
551.28	32.079
551.62	31.199
551.96	31.133
552.30	31.740
552.64	31.114
552.98	31.254
553.32	32.347
553.66	31.704
554.00	31.652
554.34	30.373
554.68	30.730
555.02	31.800
555.36	32.018
555.69	30.557
556.03	30.391
556.37	30.914
556.71	31.008
557.05	31.182
557.39	30.856
557.73	32.299
558.07	31.325
558.41	32.359
558.75	32.928
559.08	32.707
559.42	31.756
559.76	31.682
560.10	31.547
560.44	31.266
560.78	30.812
561.12	31.219
561.45	30.718
561.79	30.708
562.13	30.807
562.47	30.764
562.81	31.076
563.15	30.997
563.48	31.324
563.82	31.137
564.16	30.466
564.50	29.499
564.84	30.088
565.17	30.059
565.51	30.840
565.85	30.285
566.19	30.300
566.52	30.310
566.86	31.579
567.20	30.016
567.54	31.333
567.88	29.613
568.21	30.089
568.55	30.695
568.89	29.233
569.23	29.658
569.56	29.230
569.90	28.011
570.24	28.229
570.57	28.287
570.91	27.250
571.25	27.480
571.59	27.832
571.92	27.212
572.26	27.713
572.60	27.491
572.93	27.748
573.27	27.311
573.61	27.184
573.95	26.900
574.28	26.910
574.62	27.080
574.96	26.356
575.29	26.460
575.63	27.235
575.97	26.970
576.30	26.869
576.64	26.963
576.98	26.879
577.31	26.369
577.65	26.950
577.98	26.619
578.32	26.089
578.66	26.178
578.99	26.562
579.33	26.945
579.67	26.745
580.00	26.680
580.34	26.636
580.67	26.280
581.01	26.395
581.35	26.554
581.68	25.874
582.02	25.749
582.35	26.455
582.69	26.651
583.02	26.556
583.36	27.090
583.70	26.971
584.03	26.974
584.37	27.549
584.70	26.748
585.04	26.970
585.37	26.646
585.71	26.451
586.04	26.904
586.38	26.741
586.72	26.849
587.05	26.912
587.39	27.350
587.72	27.464
588.06	27.079
588.39	27.359
588.73	27.196
589.06	27.935
589.40	28.119
589.73	27.763
590.07	27.918
590.40	28.026
590.73	27.996
591.07	29.151
591.40	28.149
591.74	28.537
592.07	28.339
592.41	28.155
592.74	27.618
593.08	27.452
593.41	27.472
593.75	27.443
594.08	27.537
594.41	28.365
594.75	27.931
595.08	28.600
595.42	28.279
595.75	27.737
596.09	28.024
596.42	27.983
596.75	28.908
597.09	27.919
597.42	28.605
597.75	28.851
598.09	28.849
598.42	28.709
598.76	27.665
599.09	27.697
599.42	28.126
599.76	27.270
600.09	28.295
600.42	27.828
600.76	27.675
601.09	27.647
601.42	27.635
601.76	28.103
602.09	28.449
602.42	27.881
602.76	27.565
603.09	27.827
603.42	27.637
603.76	27.801
604.09	28.495
604.42	28.550
604.76	27.816
605.09	28.321
605.42	28.230
605.75	28.577
606.09	26.876
606.42	27.508
606.75	27.436
607.09	26.843
607.42	27.669
607.75	28.097
608.08	28.137
608.42	27.811
608.75	28.109
609.08	27.037
609.41	27.966
609.75	28.661
610.08	29.200
610.41	27.995
610.74	28.529
611.07	28.464
611.41	28.251
611.74	29.099
612.07	28.939
612.40	28.660
612.73	29.340
613.07	28.557
613.40	29.018
613.73	28.551
614.06	29.146
614.39	28.377
614.72	29.161
615.06	28.441
615.39	28.081
615.72	28.389
616.05	29.043
616.38	29.314
616.71	29.258
617.05	29.180
617.38	29.053
617.71	29.914
618.04	29.196
618.37	29.672
618.70	30.882
619.03	29.271
619.36	29.840
619.69	29.596
620.03	29.190
620.36	29.755
620.69	29.365
621.02	30.381
621.35	32.366
621.68	31.815
622.01	31.673
622.34	29.916
622.67	31.134
623.00	29.555
623.33	30.723
623.66	30.674
623.99	30.217
624.32	30.929
624.65	30.116
624.99	30.754
625.32	30.438
625.65	31.490
625.98	30.576
626.31	30.900
626.64	31.648
626.97	31.433
627.30	31.511
627.63	30.458
627.96	31.907
628.29	32.607
628.62	31.318
628.95	31.201
629.28	32.031
629.61	31.229
629.94	31.967
630.26	30.763
630.59	31.952
630.92	32.554
631.25	34.884
631.58	33.710
631.91	32.990
632.24	33.718
632.57	33.017
632.90	32.297
633.23	33.367
633.56	33.163
633.89	32.231
634.22	34.304
634.55	34.238
634.88	35.606
635.20	34.123
635.53	35.254
635.86	34.020
636.19	33.616
636.52	34.599
636.85	32.380
637.18	32.328
637.51	34.946
637.83	36.988
638.16	35.253
638.49	34.742
638.82	33.145
639.15	34.250
639.48	35.104
