SpectraSuite Data File
++++++++++++++++++++++++++++++++++++
Date: Thu May 14 14:49:51 PDT 2015
User: schluterlab
Dark Spectrum Present: Yes
Reference Spectrum Present: Yes
Number of Sampled Component Spectra: 1
Spectrometers: USB2E3373
Integration Time (usec): 3000 (USB2E3373)
Spectra Averaged: 3 (USB2E3373)
Boxcar Smoothing: 0 (USB2E3373)
Correct for Electrical Dark: No (USB2E3373)
Strobe/Lamp Enabled: No (USB2E3373)
Correct for Detector Non-linearity: No (USB2E3373)
Correct for Stray Light: No (USB2E3373)
Number of Pixels in Processed Spectrum: 2048
>>>>>Begin Processed Spectral Data<<<<<
178.53	0.000
178.91	28.571
179.29	-800.000
179.67	-1100.000
180.04	171.429
180.42	40.000
180.80	200.000
181.18	-1500.000
181.56	-100.000
181.94	200.000
182.31	-50.000
182.69	166.667
183.07	-50.000
183.45	75.000
183.83	-150.000
184.20	-233.333
184.58	-0.000
184.96	-150.000
185.34	-88.889
185.72	-120.000
186.09	222.222
186.47	600.000
186.85	160.000
187.23	-11.111
187.61	-600.000
187.98	240.000
188.36	275.000
188.74	-175.000
189.12	-66.667
189.49	-18.750
189.87	-37.500
190.25	-33.333
190.63	-100.000
191.00	-177.778
191.38	0.000
191.76	-25.000
192.14	0.000
192.51	550.000
192.89	-116.667
193.27	0.000
193.65	-57.143
194.02	-700.000
194.40	-28.571
194.78	85.714
195.15	0.000
195.53	72.727
195.91	0.000
196.29	-25.000
196.66	0.000
197.04	-500.000
197.42	-28.571
197.79	-500.000
198.17	-87.500
198.55	-114.286
198.92	-100.000
199.30	-62.500
199.68	-27.273
200.05	28.571
200.43	-100.000
200.81	214.286
201.18	0.000
201.56	144.444
201.94	0.000
202.31	266.667
202.69	-77.778
203.07	700.000
203.44	66.667
203.82	-200.000
204.19	-108.333
204.57	-300.000
204.95	-50.000
205.32	-1000.000
205.70	275.000
206.08	-166.667
206.45	50.000
206.83	180.000
207.20	-16.667
207.58	-100.000
207.96	-100.000
208.33	-66.667
208.71	75.000
209.08	0.000
209.46	0.000
209.84	300.000
210.21	650.000
210.59	200.000
210.96	400.000
211.34	0.000
211.71	25.000
212.09	-1000.000
212.46	0.000
212.84	550.000
213.22	-140.000
213.59	-75.000
213.97	-20.000
214.34	-166.667
214.72	166.667
215.09	-375.000
215.47	0.000
215.84	171.429
216.22	700.000
216.59	20.000
216.97	-280.000
217.34	-275.000
217.72	-50.000
218.09	-225.000
218.47	-200.000
218.84	0.000
219.22	220.000
219.59	23.529
219.97	45.000
220.34	550.000
220.72	-77.778
221.09	38.462
221.47	-133.333
221.84	-20.000
222.22	-100.000
222.59	0.000
222.97	-37.500
223.34	-220.000
223.72	-300.000
224.09	-125.000
224.46	-25.000
224.84	0.000
225.21	-14.286
225.59	-225.000
225.96	-325.000
226.34	-11.538
226.71	200.000
227.08	250.000
227.46	20.000
227.83	-250.000
228.21	-26.316
228.58	125.000
228.95	300.000
229.33	8.333
229.70	-90.000
230.08	47.368
230.45	80.000
230.82	-66.667
231.20	-64.286
231.57	8.333
231.95	-27.273
232.32	-54.545
232.69	0.000
233.07	-250.000
233.44	-11.765
233.81	-110.000
234.19	0.000
234.56	18.182
234.93	-13.793
235.31	-5.263
235.68	-11.111
236.05	-75.000
236.43	26.923
236.80	4.000
237.17	-29.630
237.55	-3.030
237.92	-270.000
238.29	-22.581
238.67	-27.273
239.04	-30.556
239.41	-35.714
239.79	-15.217
240.16	-3.704
240.53	-28.261
240.91	-37.255
241.28	-13.115
241.65	5.970
242.02	0.000
242.40	-15.385
242.77	-13.333
243.14	-17.073
243.51	-10.526
243.89	-15.385
244.26	3.960
244.63	3.922
245.00	1.869
245.38	1.754
245.75	-12.389
246.12	-2.381
246.49	-10.078
246.87	-3.571
247.24	-3.974
247.61	-0.658
247.98	-1.342
248.36	-8.642
248.73	-6.748
249.10	0.546
249.47	1.493
249.84	-3.141
250.22	-5.181
250.59	-6.667
250.96	-0.909
251.33	-7.653
251.70	2.991
252.08	0.833
252.45	-3.279
252.82	-4.132
253.19	0.781
253.56	-1.901
253.94	-1.923
254.31	-3.788
254.68	-0.699
255.05	1.954
255.42	0.000
255.79	-2.265
256.16	-8.278
256.54	-5.629
256.91	-0.328
257.28	-4.590
257.65	-2.229
258.02	-3.245
258.39	-2.279
258.76	0.306
259.14	0.000
259.51	-1.729
259.88	-1.983
260.25	-2.778
260.62	-0.274
260.99	-0.546
261.36	1.072
261.73	-1.061
262.10	-5.220
262.47	-3.485
262.85	2.020
263.22	-4.156
263.59	-6.316
263.96	-0.256
264.33	-1.790
264.70	-1.235
265.07	1.909
265.44	0.680
265.81	-1.157
266.18	2.041
266.55	0.000
266.92	-3.417
267.29	0.438
267.66	0.000
268.03	-1.310
268.40	-0.209
268.77	-3.417
269.14	-1.322
269.51	-1.096
269.88	-1.230
270.25	-1.006
270.62	1.055
270.99	2.020
271.36	-0.990
271.73	-0.589
272.10	2.806
272.47	-0.802
272.84	-2.008
273.21	0.401
273.58	-0.202
273.95	-1.538
274.32	-3.042
274.69	-4.062
275.06	-0.183
275.43	-2.773
275.80	1.587
276.17	-2.222
276.54	-0.746
276.91	-1.073
277.28	-0.362
277.65	-0.718
278.02	-0.368
278.39	-1.449
278.76	-0.703
279.13	-1.241
279.50	1.203
279.87	-0.179
280.23	-4.225
280.60	-1.186
280.97	-1.645
281.34	-1.528
281.71	2.030
282.08	-0.831
282.45	-1.800
282.82	-1.413
283.19	-1.131
283.56	-1.639
283.92	0.300
284.29	0.790
284.66	-0.821
285.03	-2.244
285.40	0.618
285.77	-0.774
286.14	-0.611
286.51	-1.522
286.87	-1.106
287.24	-2.410
287.61	-1.644
287.98	-0.604
288.35	-1.183
288.72	-0.444
289.08	-0.586
289.45	-2.071
289.82	-1.355
290.19	-1.149
290.56	0.000
290.93	0.000
291.29	-0.689
291.66	-2.342
292.03	-1.628
292.40	0.272
292.77	-0.539
293.13	0.000
293.50	-1.708
293.87	-1.342
294.24	0.133
294.60	1.517
294.97	-0.671
295.34	-0.768
295.71	-1.639
296.08	-0.129
296.44	0.000
296.81	-0.365
297.18	-0.249
297.55	-0.236
297.91	-1.898
298.28	-1.540
298.65	-1.070
299.02	-1.889
299.38	-0.343
299.75	-0.234
300.12	-0.926
300.48	-0.922
300.85	0.562
301.22	0.336
301.59	-0.685
301.95	-1.469
302.32	1.000
302.69	-1.095
303.05	0.326
303.42	-0.998
303.79	-0.208
304.15	-0.315
304.52	-1.480
304.89	0.942
305.25	-0.932
305.62	0.104
305.99	-0.206
306.35	-0.706
306.72	0.103
307.09	-0.711
307.45	-0.414
307.82	-0.404
308.19	-0.202
308.55	0.675
308.92	-0.682
309.29	-0.383
309.65	-0.585
310.02	-0.495
310.38	-0.787
310.75	-0.777
311.12	-0.096
311.48	-0.978
311.85	0.095
312.22	-0.854
312.58	-0.657
312.95	-1.434
313.31	0.000
313.68	-0.458
314.05	0.361
314.41	-0.364
314.78	-0.182
315.14	-0.181
315.51	0.554
315.87	0.180
316.24	-0.365
316.61	0.710
316.97	-0.905
317.34	-0.353
317.70	0.000
318.07	0.088
318.43	0.255
318.80	1.589
319.16	0.000
319.53	-1.114
319.89	-0.613
320.26	0.712
320.62	0.266
320.99	0.462
321.35	0.739
321.72	0.093
322.08	0.000
322.45	-0.271
322.81	-0.632
323.18	-0.177
323.54	0.431
323.91	0.712
324.27	0.430
324.64	1.008
325.00	-0.083
325.37	1.392
325.73	0.579
326.10	1.135
326.46	1.710
326.83	1.841
327.19	0.866
327.56	1.107
327.92	0.944
328.29	1.210
328.65	-0.084
329.01	0.677
329.38	0.421
329.74	1.627
330.11	2.312
330.47	1.853
330.84	1.378
331.20	2.667
331.56	1.213
331.93	3.013
332.29	1.864
332.66	1.827
333.02	1.591
333.38	0.923
333.75	1.178
334.11	1.835
334.48	1.815
334.84	2.634
335.20	1.763
335.57	1.939
335.93	1.736
336.29	1.498
336.66	1.598
337.02	1.923
337.38	2.296
337.75	1.405
338.11	1.514
338.47	1.406
338.84	1.438
339.20	0.590
339.56	2.142
339.93	2.053
340.29	2.657
340.65	2.595
341.02	1.756
341.38	2.183
341.74	1.291
342.11	2.333
342.47	0.556
342.83	1.691
343.20	1.799
343.56	1.283
343.92	2.162
344.28	2.656
344.65	2.946
345.01	2.028
345.37	2.333
345.73	1.013
346.10	2.496
346.46	1.741
346.82	3.596
347.19	2.368
347.55	2.731
347.91	1.634
348.27	1.593
348.63	2.513
349.00	2.759
349.36	2.230
349.72	2.232
350.08	2.675
350.45	2.129
350.81	1.961
351.17	1.579
351.53	2.426
351.89	2.582
352.26	2.015
352.62	1.716
352.98	1.679
353.34	1.494
353.70	2.157
354.07	2.459
354.43	2.050
354.79	1.870
355.15	2.208
355.51	3.582
355.87	1.197
356.24	1.369
356.60	1.848
356.96	0.445
357.32	2.602
357.68	1.245
358.04	1.272
358.40	2.164
358.77	2.339
359.13	1.625
359.49	1.561
359.85	2.611
360.21	1.435
360.57	1.723
360.93	1.199
361.29	2.246
361.66	2.245
362.02	3.549
362.38	2.249
362.74	1.816
363.10	1.994
363.46	2.216
363.82	1.207
364.18	1.689
364.54	2.006
364.90	2.408
365.26	0.483
365.62	3.067
365.98	1.430
366.35	1.007
366.71	2.517
367.07	2.233
367.43	2.692
367.79	2.455
368.15	2.676
368.51	2.233
368.87	2.809
369.23	2.133
369.59	1.298
369.95	2.366
370.31	2.903
370.67	2.476
371.03	2.632
371.39	1.612
371.75	2.682
372.11	2.710
372.47	2.167
372.83	2.225
373.19	2.869
373.55	2.100
373.91	1.363
374.27	2.652
374.63	2.842
374.99	2.387
375.35	2.922
375.71	2.645
376.07	2.389
376.42	3.149
376.78	2.859
377.14	2.371
377.50	2.467
377.86	3.448
378.22	3.054
378.58	2.438
378.94	3.110
379.30	2.753
379.66	3.233
380.02	2.597
380.38	3.053
380.74	2.817
381.09	3.136
381.45	3.636
381.81	2.986
382.17	3.622
382.53	3.918
382.89	3.612
383.25	2.814
383.61	2.662
383.97	2.768
384.32	2.990
384.68	2.552
385.04	3.355
385.40	3.771
385.76	3.869
386.12	3.232
386.48	3.294
386.83	3.576
387.19	3.534
387.55	3.228
387.91	2.683
388.27	3.984
388.62	3.837
388.98	4.061
389.34	3.595
389.70	3.661
390.06	3.493
390.42	3.313
390.77	4.937
391.13	3.815
391.49	4.227
391.85	3.333
392.20	3.618
392.56	4.135
392.92	4.853
393.28	4.312
393.64	3.911
393.99	4.532
394.35	4.264
394.71	4.491
395.07	2.994
395.42	4.112
395.78	4.692
396.14	4.575
396.50	4.632
396.85	4.770
397.21	3.846
397.57	4.122
397.92	4.124
398.28	3.694
398.64	3.375
399.00	3.298
399.35	4.450
399.71	4.293
400.07	4.155
400.42	4.366
400.78	4.225
401.14	4.382
401.49	4.548
401.85	4.360
402.21	4.461
402.57	4.167
402.92	4.196
403.28	3.806
403.63	3.759
403.99	4.335
404.35	4.264
404.70	4.476
405.06	3.750
405.42	4.157
405.77	4.035
406.13	3.728
406.49	4.110
406.84	4.211
407.20	3.857
407.55	3.513
407.91	3.834
408.27	4.476
408.62	4.247
408.98	3.831
409.34	3.695
409.69	4.141
410.05	4.689
410.40	4.930
410.76	4.543
411.11	4.325
411.47	3.747
411.83	4.233
412.18	4.337
412.54	4.801
412.89	4.366
413.25	4.063
413.60	4.078
413.96	4.371
414.31	4.873
414.67	4.114
415.03	3.692
415.38	4.035
415.74	4.337
416.09	4.874
416.45	4.571
416.80	3.733
417.16	4.406
417.51	5.106
417.87	4.598
418.22	4.611
418.58	4.275
418.93	4.598
419.29	3.453
419.64	3.541
420.00	3.858
420.35	4.380
420.71	4.250
421.06	4.140
421.42	4.415
421.77	4.200
422.12	4.493
422.48	4.199
422.83	4.436
423.19	4.562
423.54	5.033
423.90	4.031
424.25	4.213
424.61	3.444
424.96	4.558
425.31	5.149
425.67	4.563
426.02	3.818
426.38	3.846
426.73	4.018
427.09	4.787
427.44	3.714
427.79	3.870
428.15	3.596
428.50	3.876
428.85	4.191
429.21	5.106
429.56	4.393
429.92	4.570
430.27	4.723
430.62	4.299
430.98	4.329
431.33	3.959
431.68	4.215
432.04	4.317
432.39	3.535
432.74	3.938
433.10	4.002
433.45	3.679
433.80	4.131
434.16	4.700
434.51	4.522
434.86	4.017
435.22	4.516
435.57	4.009
435.92	4.174
436.28	4.096
436.63	4.369
436.98	3.650
437.34	3.777
437.69	3.357
438.04	4.231
438.39	5.169
438.75	3.818
439.10	4.281
439.45	4.975
439.81	4.237
440.16	4.021
440.51	4.292
440.86	4.280
441.22	4.394
441.57	4.769
441.92	4.122
442.27	4.596
442.63	4.123
442.98	5.123
443.33	4.629
443.68	4.807
444.03	4.704
444.39	5.270
444.74	4.798
445.09	4.308
445.44	4.268
445.79	4.933
446.15	4.882
446.50	4.599
446.85	5.010
447.20	4.787
447.55	4.916
447.91	4.084
448.26	4.228
448.61	4.516
448.96	4.614
449.31	4.984
449.66	4.085
450.02	4.589
450.37	4.742
450.72	4.144
451.07	4.157
451.42	4.102
451.77	3.446
452.12	4.458
452.47	4.219
452.83	4.223
453.18	4.320
453.53	3.848
453.88	4.694
454.23	4.689
454.58	3.947
454.93	4.066
455.28	4.455
455.63	4.662
455.98	4.469
456.34	4.594
456.69	4.233
457.04	4.728
457.39	4.435
457.74	4.922
458.09	3.954
458.44	4.687
458.79	4.332
459.14	5.191
459.49	4.924
459.84	5.089
460.19	3.998
460.54	4.145
460.89	4.500
461.24	5.057
461.59	5.202
461.94	4.221
462.29	4.367
462.64	4.345
462.99	3.955
463.34	4.932
463.69	4.572
464.04	5.447
464.39	4.933
464.74	4.561
465.09	5.248
465.44	4.453
465.79	5.394
466.14	4.794
466.49	5.211
466.84	4.793
467.19	4.798
467.54	4.642
467.89	3.793
468.24	4.709
468.59	4.285
468.94	3.671
469.29	4.079
469.64	4.514
469.99	3.952
470.34	4.703
470.68	4.716
471.03	4.912
471.38	4.644
471.73	4.226
472.08	4.695
472.43	4.094
472.78	4.723
473.13	4.298
473.48	4.592
473.83	4.063
474.17	4.631
474.52	5.051
474.87	5.039
475.22	4.845
475.57	4.206
475.92	4.878
476.27	4.366
476.61	4.673
476.96	4.432
477.31	4.851
477.66	5.247
478.01	5.643
478.36	4.985
478.70	5.468
479.05	4.192
479.40	4.492
479.75	5.331
480.10	5.021
480.45	4.877
480.79	4.807
481.14	3.952
481.49	3.998
481.84	5.004
482.19	4.774
482.53	4.635
482.88	4.918
483.23	4.713
483.58	4.454
483.92	4.699
484.27	5.207
484.62	4.538
484.97	4.899
485.31	4.611
485.66	4.375
486.01	4.451
486.36	4.546
486.70	5.122
487.05	4.794
487.40	4.945
487.75	5.165
488.09	4.931
488.44	4.716
488.79	5.565
489.13	4.779
489.48	4.350
489.83	4.547
490.17	4.698
490.52	4.557
490.87	5.330
491.22	4.983
491.56	5.119
491.91	5.321
492.26	5.106
492.60	4.547
492.95	5.134
493.30	4.572
493.64	4.906
493.99	5.307
494.34	4.573
494.68	4.540
495.03	5.286
495.37	4.705
495.72	4.717
496.07	4.864
496.41	4.376
496.76	5.379
497.11	4.331
497.45	4.489
497.80	5.420
498.14	4.580
498.49	5.009
498.84	4.890
499.18	4.813
499.53	5.381
499.87	5.143
500.22	4.185
500.56	5.083
500.91	5.355
501.26	5.091
501.60	4.905
501.95	5.254
502.29	5.046
502.64	5.160
502.98	5.177
503.33	4.708
503.67	5.059
504.02	5.035
504.36	4.826
504.71	4.456
505.06	5.093
505.40	4.707
505.75	5.146
506.09	5.110
506.44	5.385
506.78	5.596
507.13	5.809
507.47	5.495
507.82	5.350
508.16	4.589
508.51	5.016
508.85	4.913
509.19	4.690
509.54	5.572
509.88	4.614
510.23	4.662
510.57	5.510
510.92	5.322
511.26	5.147
511.61	5.070
511.95	5.564
512.30	5.268
512.64	5.547
512.98	5.103
513.33	5.847
513.67	5.048
514.02	5.263
514.36	6.036
514.70	5.156
515.05	5.474
515.39	5.302
515.74	6.363
516.08	5.018
516.42	5.913
516.77	5.783
517.11	5.725
517.46	5.090
517.80	6.146
518.14	6.094
518.49	5.748
518.83	5.907
519.17	4.900
519.52	5.818
519.86	5.544
520.20	6.230
520.55	5.805
520.89	6.137
521.23	5.472
521.58	5.932
521.92	5.552
522.26	4.926
522.61	5.440
522.95	5.421
523.29	5.460
523.64	5.717
523.98	5.362
524.32	6.418
524.66	5.407
525.01	5.889
525.35	4.365
525.69	5.162
526.04	5.396
526.38	4.885
526.72	5.479
527.06	5.513
527.41	5.714
527.75	5.879
528.09	5.254
528.43	5.269
528.78	5.318
529.12	5.963
529.46	5.565
529.80	6.064
530.15	5.159
530.49	4.804
530.83	5.785
531.17	5.556
531.51	5.897
531.86	6.190
532.20	5.488
532.54	5.506
532.88	5.273
533.22	5.834
533.57	6.117
533.91	6.678
534.25	5.709
534.59	5.862
534.93	5.376
535.27	5.183
535.62	6.310
535.96	5.694
536.30	5.288
536.64	6.426
536.98	5.781
537.32	5.432
537.66	5.739
538.01	5.680
538.35	5.481
538.69	4.868
539.03	5.518
539.37	6.537
539.71	5.646
540.05	5.336
540.39	6.051
540.73	5.161
541.07	5.150
541.42	6.084
541.76	5.219
542.10	5.308
542.44	4.750
542.78	5.718
543.12	5.900
543.46	6.227
543.80	4.976
544.14	5.745
544.48	6.028
544.82	5.925
545.16	6.261
545.50	5.572
545.84	5.818
546.18	6.914
546.52	5.732
546.86	5.723
547.20	6.043
547.54	5.431
547.88	5.425
548.22	5.263
548.56	6.261
548.90	5.194
549.24	5.653
549.58	5.426
549.92	5.485
550.26	6.149
550.60	6.063
550.94	6.080
551.28	5.545
551.62	5.997
551.96	5.502
552.30	6.055
552.64	6.472
552.98	5.427
553.32	5.723
553.66	6.045
554.00	6.179
554.34	5.470
554.68	5.939
555.02	6.702
555.36	5.720
555.69	5.766
556.03	5.864
556.37	5.632
556.71	6.278
557.05	6.070
557.39	5.707
557.73	5.152
558.07	5.563
558.41	5.714
558.75	6.288
559.08	5.428
559.42	5.693
559.76	7.056
560.10	6.028
560.44	4.881
560.78	6.187
561.12	5.850
561.45	6.873
561.79	6.105
562.13	6.223
562.47	6.289
562.81	5.759
563.15	5.934
563.48	6.837
563.82	6.288
564.16	5.572
564.50	6.019
564.84	6.018
565.17	5.882
565.51	5.869
565.85	5.463
566.19	5.530
566.52	5.676
566.86	6.225
567.20	4.894
567.54	5.417
567.88	5.607
568.21	5.731
568.55	5.707
568.89	5.856
569.23	6.464
569.56	5.744
569.90	5.773
570.24	6.138
570.57	5.324
570.91	5.542
571.25	5.554
571.59	5.789
571.92	5.650
572.26	5.532
572.60	5.897
572.93	5.845
573.27	5.901
573.61	5.850
573.95	5.851
574.28	5.863
574.62	5.139
574.96	5.690
575.29	5.486
575.63	5.544
575.97	5.772
576.30	5.922
576.64	5.679
576.98	5.581
577.31	5.541
577.65	5.819
577.98	5.666
578.32	5.571
578.66	5.692
578.99	5.652
579.33	5.736
579.67	5.780
580.00	5.507
580.34	6.261
580.67	5.538
581.01	5.820
581.35	5.533
581.68	5.963
582.02	6.107
582.35	5.689
582.69	5.662
583.02	5.775
583.36	5.915
583.70	5.544
584.03	5.568
584.37	5.604
584.70	5.770
585.04	5.580
585.37	5.899
585.71	5.933
586.04	6.077
586.38	5.780
586.72	5.490
587.05	5.551
587.39	5.859
587.72	5.766
588.06	6.117
588.39	5.975
588.73	5.688
589.06	5.784
589.40	5.778
589.73	5.913
590.07	6.101
590.40	5.916
590.73	5.903
591.07	6.329
591.40	5.715
591.74	5.604
592.07	6.577
592.41	5.757
592.74	6.141
593.08	6.146
593.41	6.008
593.75	6.207
594.08	5.938
594.41	5.833
594.75	5.546
595.08	5.518
595.42	6.558
595.75	6.426
596.09	5.896
596.42	5.769
596.75	6.523
597.09	5.818
597.42	6.118
597.75	5.919
598.09	5.794
598.42	6.152
598.76	6.114
599.09	5.910
599.42	6.068
599.76	5.447
600.09	6.206
600.42	6.073
600.76	5.878
601.09	5.875
601.42	6.111
601.76	6.379
602.09	6.004
602.42	5.889
602.76	5.941
603.09	5.984
603.42	6.322
603.76	5.532
604.09	6.707
604.42	5.761
604.76	6.621
605.09	6.262
605.42	5.981
605.75	6.192
606.09	5.786
606.42	5.947
606.75	5.660
607.09	5.952
607.42	5.665
607.75	6.721
608.08	5.762
608.42	6.288
608.75	6.343
609.08	6.070
609.41	6.176
609.75	5.804
610.08	6.288
610.41	5.607
610.74	6.597
611.07	5.906
611.41	6.233
611.74	5.866
612.07	7.013
612.40	6.321
612.73	5.770
613.07	6.357
613.40	6.256
613.73	6.596
614.06	6.379
614.39	6.463
614.72	6.211
615.06	5.775
615.39	5.268
615.72	6.303
616.05	6.022
616.38	6.408
616.71	6.426
617.05	5.751
617.38	6.742
617.71	5.778
618.04	6.314
618.37	6.667
618.70	5.882
619.03	5.974
619.36	6.289
619.69	5.894
620.03	6.466
620.36	6.319
620.69	6.231
621.02	6.168
621.35	6.023
621.68	7.303
622.01	6.335
622.34	5.927
622.67	6.735
623.00	5.398
623.33	6.437
623.66	5.966
623.99	5.727
624.32	6.433
624.65	5.856
624.99	5.917
625.32	7.120
625.65	6.473
625.98	5.898
626.31	6.308
626.64	7.253
626.97	5.701
627.30	5.239
627.63	5.926
627.96	6.907
628.29	6.304
628.62	5.458
628.95	5.521
629.28	5.692
629.61	6.397
629.94	5.858
630.26	6.186
630.59	5.613
630.92	5.628
631.25	6.977
631.58	5.556
631.91	4.967
632.24	5.668
632.57	5.882
632.90	5.216
633.23	5.510
633.56	5.306
633.89	4.959
634.22	6.133
634.55	6.367
634.88	6.277
635.20	6.889
635.53	4.972
635.86	5.742
636.19	8.271
636.52	6.329
636.85	5.924
637.18	5.509
637.51	6.559
637.83	6.534
638.16	6.106
638.49	5.751
638.82	3.608
639.15	4.811
639.48	8.199
639.81	7.159
640.13	6.360
640.46	3.758
640.79	4.167
641.12	5.839
641.45	6.399
641.77	6.932
642.10	5.381
642.43	7.846
642.76	6.098
643.09	6.986
643.41	5.462
643.74	5.931
644.07	7.448
644.40	5.516
644.73	5.370
645.05	5.286
645.38	5.899
645.71	6.012
646.04	7.174
646.36	5.693
646.69	6.442
647.02	7.187
647.35	7.481
647.67	6.924
648.00	7.962
648.33	7.207
648.66	6.562
648.98	5.850
649.31	7.172
649.64	7.703
649.96	6.366
650.29	5.702
650.62	5.941
650.94	6.456
651.27	4.790
651.60	4.678
651.92	5.167
652.25	5.210
652.58	5.915
652.90	4.942
653.23	7.887
653.56	5.991
653.88	7.725
654.21	7.324
654.54	5.347
654.86	6.657
655.19	5.521
655.52	5.826
