SpectraSuite Data File
++++++++++++++++++++++++++++++++++++
Date: Thu May 14 14:28:51 PDT 2015
User: schluterlab
Dark Spectrum Present: Yes
Reference Spectrum Present: Yes
Number of Sampled Component Spectra: 1
Spectrometers: USB2E3373
Integration Time (usec): 3000 (USB2E3373)
Spectra Averaged: 3 (USB2E3373)
Boxcar Smoothing: 0 (USB2E3373)
Correct for Electrical Dark: No (USB2E3373)
Strobe/Lamp Enabled: No (USB2E3373)
Correct for Detector Non-linearity: No (USB2E3373)
Correct for Stray Light: No (USB2E3373)
Number of Pixels in Processed Spectrum: 2048
>>>>>Begin Processed Spectral Data<<<<<
178.53	0.000
178.91	-114.286
179.29	0.000
179.67	900.000
180.04	14.286
180.42	-40.000
180.80	-80.000
181.18	1100.000
181.56	2300.000
181.94	-425.000
182.31	375.000
182.69	-433.333
183.07	1200.000
183.45	-100.000
183.83	200.000
184.20	566.667
184.58	-1700.000
184.96	375.000
185.34	100.000
185.72	400.000
186.09	11.111
186.47	-400.000
186.85	-220.000
187.23	55.556
187.61	1100.000
187.98	-320.000
188.36	-300.000
188.74	25.000
189.12	700.000
189.49	118.750
189.87	37.500
190.25	155.556
190.63	180.000
191.00	55.556
191.38	0.000
191.76	300.000
192.14	266.667
192.51	-300.000
192.89	216.667
193.27	0.000
193.65	171.429
194.02	100.000
194.40	200.000
194.78	-142.857
195.15	0.000
195.53	100.000
195.91	0.000
196.29	500.000
196.66	138.462
197.04	600.000
197.42	100.000
197.79	300.000
198.17	175.000
198.55	128.571
198.92	133.333
199.30	150.000
199.68	145.455
200.05	114.286
200.43	100.000
200.81	-42.857
201.18	0.000
201.56	11.111
201.94	0.000
202.31	-300.000
202.69	22.222
203.07	-1700.000
203.44	88.889
203.82	250.000
204.19	108.333
204.57	183.333
204.95	137.500
205.32	600.000
205.70	-225.000
206.08	233.333
206.45	216.667
206.83	-160.000
207.20	216.667
207.58	-40.000
207.96	166.667
208.33	283.333
208.71	-41.667
209.08	366.667
209.46	0.000
209.84	-16.667
210.21	-950.000
210.59	-250.000
210.96	-300.000
211.34	450.000
211.71	237.500
212.09	1400.000
212.46	0.000
212.84	-100.000
213.22	220.000
213.59	400.000
213.97	220.000
214.34	633.333
214.72	-83.333
215.09	100.000
215.47	0.000
215.84	-171.429
216.22	-50.000
216.59	600.000
216.97	220.000
217.34	350.000
217.72	162.500
218.09	125.000
218.47	150.000
218.84	0.000
219.22	-360.000
219.59	76.471
219.97	125.000
220.34	-850.000
220.72	177.778
221.09	123.077
221.47	333.333
221.84	90.000
222.22	100.000
222.59	0.000
222.97	212.500
223.34	280.000
223.72	300.000
224.09	300.000
224.46	250.000
224.84	260.000
225.21	114.286
225.59	275.000
225.96	300.000
226.34	34.615
226.71	-133.333
227.08	350.000
227.46	113.333
227.83	375.000
228.21	68.421
228.58	-187.500
228.95	-350.000
229.33	108.333
229.70	210.000
230.08	94.737
230.45	-70.000
230.82	366.667
231.20	64.286
231.57	175.000
231.95	100.000
232.32	118.182
232.69	65.000
233.07	125.000
233.44	58.824
233.81	130.000
234.19	116.667
234.56	113.636
234.93	96.552
235.31	105.263
235.68	77.778
236.05	60.000
236.43	69.231
236.80	84.000
237.17	48.148
237.55	66.667
237.92	-10.000
238.29	54.839
238.67	27.273
239.04	50.000
239.41	35.714
239.79	34.783
240.16	20.370
240.53	34.783
240.91	23.529
241.28	21.311
241.65	37.313
242.02	37.838
242.40	-3.077
242.77	16.000
243.14	6.098
243.51	11.842
243.89	2.564
244.26	15.842
244.63	12.745
245.00	14.019
245.38	14.912
245.75	4.425
246.12	23.016
246.49	9.302
246.87	21.429
247.24	13.245
247.61	13.158
247.98	12.081
248.36	6.790
248.73	2.454
249.10	7.104
249.47	15.920
249.84	13.613
250.22	7.772
250.59	2.778
250.96	10.909
251.33	7.653
251.70	10.684
252.08	9.583
252.45	10.656
252.82	4.959
253.19	5.078
253.56	7.605
253.94	5.385
254.31	6.439
254.68	9.091
255.05	12.052
255.42	6.122
255.79	6.796
256.16	3.974
256.54	4.305
256.91	9.180
257.28	3.607
257.65	4.459
258.02	1.770
258.39	5.698
258.76	9.174
259.14	6.322
259.51	3.458
259.88	4.249
260.25	3.333
260.62	6.849
260.99	9.563
261.36	6.166
261.73	3.714
262.10	5.495
262.47	6.971
262.85	10.101
263.22	4.156
263.59	1.842
263.96	4.092
264.33	3.325
264.70	5.679
265.07	8.592
265.44	8.390
265.81	2.083
266.18	5.669
266.55	6.027
266.92	3.645
267.29	5.470
267.66	6.430
268.03	6.987
268.40	3.549
268.77	2.961
269.14	0.441
269.51	5.044
269.88	7.377
270.25	5.835
270.62	5.274
270.99	8.081
271.36	5.545
271.73	4.322
272.10	7.415
272.47	5.812
272.84	4.819
273.21	3.206
273.58	5.847
273.95	4.038
274.32	2.852
274.69	3.288
275.06	5.128
275.43	3.142
275.80	6.878
276.17	3.333
276.54	4.851
276.91	5.903
277.28	5.063
277.65	5.386
278.02	4.963
278.39	4.891
278.76	4.569
279.13	4.433
279.50	5.498
279.87	5.367
280.23	1.408
280.60	4.237
280.97	4.112
281.34	1.188
281.71	5.415
282.08	3.322
282.45	2.782
282.82	3.611
283.19	2.908
283.56	4.426
283.92	6.306
284.29	6.477
284.66	5.090
285.03	2.244
285.40	4.946
285.77	3.406
286.14	4.122
286.51	3.653
286.87	4.107
287.24	3.464
287.61	3.438
287.98	1.511
288.35	3.550
288.72	4.734
289.08	3.660
289.45	3.254
289.82	4.518
290.19	4.023
290.56	5.070
290.93	3.566
291.29	4.132
291.66	4.132
292.03	3.935
292.40	4.898
292.77	4.447
293.13	3.924
293.50	3.285
293.87	3.490
294.24	6.400
294.60	4.678
294.97	2.953
295.34	5.378
295.71	4.666
296.08	4.134
296.44	3.309
296.81	3.654
297.18	3.861
297.55	3.774
297.91	4.270
298.28	2.251
298.65	4.400
299.02	3.542
299.38	4.920
299.75	3.621
300.12	2.546
300.48	2.765
300.85	3.600
301.22	4.027
301.59	3.881
301.95	4.407
302.32	5.000
302.69	2.848
303.05	4.570
303.42	3.991
303.79	4.375
304.15	3.575
304.52	4.228
304.89	4.084
305.25	4.244
305.62	4.493
305.99	3.505
306.35	3.931
306.72	4.447
307.09	3.249
307.45	3.830
307.82	3.835
308.19	4.137
308.55	4.629
308.92	3.797
309.29	4.406
309.65	3.899
310.02	3.366
310.38	4.232
310.75	4.854
311.12	4.123
311.48	3.617
311.85	5.223
312.22	4.554
312.58	5.540
312.95	3.824
313.31	5.149
313.68	5.403
314.05	5.781
314.41	4.918
314.78	4.269
315.14	5.172
315.51	6.002
315.87	5.671
316.24	5.571
316.61	6.394
316.97	5.249
317.34	5.115
317.70	5.240
318.07	5.644
318.43	5.442
318.80	6.856
319.16	5.322
319.53	4.799
319.89	4.996
320.26	6.851
320.62	5.851
320.99	6.464
321.35	6.285
321.72	6.605
322.08	6.312
322.45	6.323
322.81	6.949
323.18	7.168
323.54	7.069
323.91	6.495
324.27	6.368
324.64	8.060
325.00	7.131
325.37	7.453
325.73	8.347
326.10	8.354
326.46	7.980
326.83	8.727
327.19	8.425
327.56	8.458
327.92	7.868
328.29	8.387
328.65	7.789
329.01	8.460
329.38	9.941
329.74	9.503
330.11	9.247
330.47	8.088
330.84	8.355
331.20	8.833
331.56	9.445
331.93	9.791
332.29	9.492
332.66	9.551
333.02	8.626
333.38	8.809
333.75	9.343
334.11	10.008
334.48	9.653
334.84	10.535
335.20	9.488
335.57	9.612
335.93	8.595
336.29	9.068
336.66	8.747
337.02	10.452
337.38	9.184
337.75	9.917
338.11	9.504
338.47	9.595
338.84	9.983
339.20	9.183
339.56	9.308
339.93	9.770
340.29	9.420
340.65	8.597
341.02	9.816
341.38	9.620
341.74	9.605
342.11	9.252
342.47	8.658
342.83	10.467
343.20	9.812
343.56	9.222
343.92	9.688
344.28	9.531
344.65	10.078
345.01	9.750
345.37	10.031
345.73	8.496
346.10	9.984
346.46	9.019
346.82	10.487
347.19	10.237
347.55	10.015
347.91	9.435
348.27	9.029
348.63	10.129
349.00	9.545
349.36	9.591
349.72	8.780
350.08	10.624
350.45	8.669
350.81	9.050
351.17	9.474
351.53	8.946
351.89	9.643
352.26	9.179
352.62	9.478
352.98	9.084
353.34	9.111
353.70	8.860
354.07	9.538
354.43	9.036
354.79	8.975
355.15	9.345
355.51	10.161
355.87	8.452
356.24	10.266
356.60	9.682
356.96	9.266
357.32	9.368
357.68	9.297
358.04	9.581
358.40	9.627
358.77	10.234
359.13	8.346
359.49	9.219
359.85	9.790
360.21	9.684
360.57	9.691
360.93	8.886
361.29	10.386
361.66	9.558
362.02	11.134
362.38	9.909
362.74	10.056
363.10	10.454
363.46	9.834
363.82	10.085
364.18	9.360
364.54	10.996
364.90	11.171
365.26	9.310
365.62	10.733
365.98	9.871
366.35	9.664
366.71	9.864
367.07	10.352
367.43	9.915
367.79	10.949
368.15	10.836
368.51	10.149
368.87	10.712
369.23	11.400
369.59	10.041
369.95	10.480
370.31	11.344
370.67	10.385
371.03	10.596
371.39	10.611
371.75	10.660
372.11	10.976
372.47	10.156
372.83	10.929
373.19	10.941
373.55	10.772
373.91	10.293
374.27	11.837
374.63	10.690
374.99	10.875
375.35	11.494
375.71	10.903
376.07	11.427
376.42	11.335
376.78	11.498
377.14	11.790
377.50	11.575
377.86	12.377
378.22	12.455
378.58	11.356
378.94	10.857
379.30	11.658
379.66	11.934
380.02	11.598
380.38	12.097
380.74	11.887
381.09	12.602
381.45	12.614
381.81	12.295
382.17	12.945
382.53	13.450
382.89	12.359
383.25	12.837
383.61	12.500
383.97	12.780
384.32	12.919
384.68	12.645
385.04	13.418
385.40	13.966
385.76	13.130
386.12	13.704
386.48	13.059
386.83	14.124
387.19	12.399
387.55	13.556
387.91	13.413
388.27	13.972
388.62	13.631
388.98	13.424
389.34	13.789
389.70	13.655
390.06	14.210
390.42	13.554
390.77	14.509
391.13	13.791
391.49	13.406
391.85	13.818
392.20	13.701
392.56	14.235
392.92	14.776
393.28	14.428
393.64	14.525
393.99	14.585
394.35	14.019
394.71	14.790
395.07	13.832
395.42	14.677
395.78	15.356
396.14	14.379
396.50	14.133
396.85	14.848
397.21	15.089
397.57	14.664
397.92	14.834
398.28	13.797
398.64	14.073
399.00	14.555
399.35	14.241
399.71	14.511
400.07	15.160
400.42	14.261
400.78	14.236
401.14	14.001
401.49	14.554
401.85	14.767
402.21	13.847
402.57	14.085
402.92	14.835
403.28	14.520
403.63	13.902
403.99	14.489
404.35	14.099
404.70	14.164
405.06	14.239
405.42	13.876
405.77	14.831
406.13	13.776
406.49	14.471
406.84	14.017
407.20	14.254
407.55	13.749
407.91	14.582
408.27	14.664
408.62	14.602
408.98	14.858
409.34	13.607
409.69	13.844
410.05	14.185
410.40	14.849
410.76	14.302
411.11	15.196
411.47	15.418
411.83	14.756
412.18	14.458
412.54	14.819
412.89	14.028
413.25	15.293
413.60	14.245
413.96	14.569
414.31	13.938
414.67	14.669
415.03	14.338
415.38	14.691
415.74	14.172
416.09	14.867
416.45	14.966
416.80	14.076
417.16	14.176
417.51	14.570
417.87	14.654
418.22	13.832
418.58	14.560
418.93	14.494
419.29	14.057
419.64	13.505
420.00	14.243
420.35	15.104
420.71	14.589
421.06	13.859
421.42	14.564
421.77	14.109
422.12	14.588
422.48	14.030
422.83	14.458
423.19	14.218
423.54	13.938
423.90	14.854
424.25	14.187
424.61	13.203
424.96	14.772
425.31	14.225
425.67	14.332
426.02	14.112
426.38	13.662
426.73	14.788
427.09	14.879
427.44	13.654
427.79	13.433
428.15	13.756
428.50	14.213
428.85	14.237
429.21	14.840
429.56	14.018
429.92	14.201
430.27	14.506
430.62	14.460
430.98	13.822
431.33	14.370
431.68	13.985
432.04	14.170
432.39	14.194
432.74	14.783
433.10	15.089
433.45	14.493
433.80	15.343
434.16	14.773
434.51	14.440
434.86	14.875
435.22	14.187
435.57	14.800
435.92	15.136
436.28	14.790
436.63	14.582
436.98	15.566
437.34	15.333
437.69	14.915
438.04	13.591
438.39	14.704
438.75	15.108
439.10	15.803
439.45	13.974
439.81	14.972
440.16	13.834
440.51	16.109
440.86	14.564
441.22	15.434
441.57	15.356
441.92	15.422
442.27	15.051
442.63	15.052
442.98	15.635
443.33	15.203
443.68	15.610
444.03	15.945
444.39	15.210
444.74	15.773
445.09	14.445
445.44	15.332
445.79	15.469
446.15	15.108
446.50	15.917
446.85	15.807
447.20	15.280
447.55	15.900
447.91	15.340
448.26	14.852
448.61	15.515
448.96	16.041
449.31	15.536
449.66	14.706
450.02	15.612
450.37	16.516
450.72	15.501
451.07	15.433
451.42	15.309
451.77	14.842
452.12	16.253
452.47	14.854
452.83	15.653
453.18	16.170
453.53	15.164
453.88	16.124
454.23	14.802
454.58	15.612
454.93	14.806
455.28	16.075
455.63	15.861
455.98	15.307
456.34	16.372
456.69	15.461
457.04	16.371
457.39	15.854
457.74	15.996
458.09	15.321
458.44	15.733
458.79	15.678
459.14	15.155
459.49	15.507
459.84	15.320
460.19	15.047
460.54	16.184
460.89	16.305
461.24	15.632
461.59	16.436
461.94	15.744
462.29	15.957
462.64	15.751
462.99	15.380
463.34	15.704
463.69	15.416
464.04	16.342
464.39	15.807
464.74	15.450
465.09	16.378
465.44	16.041
465.79	16.023
466.14	15.633
466.49	15.684
466.84	15.868
467.19	16.185
467.54	15.922
467.89	15.460
468.24	16.343
468.59	16.618
468.94	16.492
469.29	15.357
469.64	15.766
469.99	15.424
470.34	15.656
470.68	16.131
471.03	16.568
471.38	16.154
471.73	16.645
472.08	16.180
472.43	16.436
472.78	15.617
473.13	16.814
473.48	16.435
473.83	16.541
474.17	17.292
474.52	16.536
474.87	17.110
475.22	16.225
475.57	15.576
475.92	15.480
476.27	16.187
476.61	15.940
476.96	15.850
477.31	16.287
477.66	16.946
478.01	15.963
478.36	16.152
478.70	16.256
479.05	16.513
479.40	15.548
479.75	16.186
480.10	16.201
480.45	16.545
480.79	16.281
481.14	16.085
481.49	15.947
481.84	16.362
482.19	15.914
482.53	15.916
482.88	16.261
483.23	15.118
483.58	16.026
483.92	15.780
484.27	16.427
484.62	15.842
484.97	15.941
485.31	16.086
485.66	15.771
486.01	15.291
486.36	15.276
486.70	15.639
487.05	15.254
487.40	15.974
487.75	16.081
488.09	16.033
488.44	16.060
488.79	16.020
489.13	16.003
489.48	16.272
489.83	16.378
490.17	15.350
490.52	16.174
490.87	16.032
491.22	15.641
491.56	15.956
491.91	15.700
492.26	16.227
492.60	16.091
492.95	16.191
493.30	15.778
493.64	15.900
493.99	15.789
494.34	15.810
494.68	15.675
495.03	16.388
495.37	16.423
495.72	16.644
496.07	16.170
496.41	15.701
496.76	16.597
497.11	15.881
497.45	15.537
497.80	17.059
498.14	16.417
498.49	16.039
498.84	15.996
499.18	16.509
499.53	16.502
499.87	16.835
500.22	15.049
500.56	16.104
500.91	16.247
501.26	17.091
501.60	15.378
501.95	15.979
502.29	15.928
502.64	16.834
502.98	16.609
503.33	16.156
503.67	16.223
504.02	16.725
504.36	16.577
504.71	16.858
505.06	16.780
505.40	16.773
505.75	16.803
506.09	17.634
506.44	17.502
506.78	17.477
507.13	17.151
507.47	17.006
507.82	17.282
508.16	16.874
508.51	16.549
508.85	17.383
509.19	17.338
509.54	18.012
509.88	17.678
510.23	17.193
510.57	17.738
510.92	17.610
511.26	16.883
511.61	16.900
511.95	17.326
512.30	17.430
512.64	17.141
512.98	18.509
513.33	17.994
513.67	18.001
514.02	18.344
514.36	17.340
514.70	17.240
515.05	18.092
515.39	17.743
515.74	18.346
516.08	17.802
516.42	18.838
516.77	18.139
517.11	17.277
517.46	18.293
517.80	18.332
518.14	18.553
518.49	18.167
518.83	18.201
519.17	17.986
519.52	18.239
519.86	18.215
520.20	17.998
520.55	18.456
520.89	18.637
521.23	18.872
521.58	19.096
521.92	19.490
522.26	18.099
522.61	18.750
522.95	17.532
523.29	18.851
523.64	18.778
523.98	18.311
524.32	19.312
524.66	19.522
525.01	18.233
525.35	18.323
525.69	18.097
526.04	18.427
526.38	18.793
526.72	18.281
527.06	18.944
527.41	19.300
527.75	19.656
528.09	18.182
528.43	18.295
528.78	18.439
529.12	18.291
529.46	18.999
529.80	18.707
530.15	19.420
530.49	17.912
530.83	18.359
531.17	18.041
531.51	18.712
531.86	19.111
532.20	18.537
532.54	19.210
532.88	18.667
533.22	18.503
533.57	18.465
533.91	19.192
534.25	19.107
534.59	18.621
534.93	18.449
535.27	18.930
535.62	19.955
535.96	19.407
536.30	18.096
536.64	19.159
536.98	19.127
537.32	19.815
537.66	18.840
538.01	18.369
538.35	18.575
538.69	18.690
539.03	18.639
539.37	18.433
539.71	19.219
540.05	18.825
540.39	18.215
540.73	18.883
541.07	18.884
541.42	19.728
541.76	18.802
542.10	19.180
542.44	18.575
542.78	18.796
543.12	18.594
543.46	18.987
543.80	18.765
544.14	18.552
544.48	19.385
544.82	19.629
545.16	18.843
545.50	17.496
545.84	18.983
546.18	19.506
546.52	18.854
546.86	19.371
547.20	18.511
547.54	18.477
547.88	18.204
548.22	18.596
548.56	18.198
548.90	17.851
549.24	18.663
549.58	18.486
549.92	19.452
550.26	17.994
550.60	19.272
550.94	18.823
551.28	18.878
551.62	18.733
551.96	18.641
552.30	18.993
552.64	18.606
552.98	18.341
553.32	19.678
553.66	18.521
554.00	18.600
554.34	18.919
554.68	18.464
555.02	19.185
555.36	19.527
555.69	19.026
556.03	18.600
556.37	18.961
556.71	18.706
557.05	19.297
557.39	18.912
557.73	18.956
558.07	18.278
558.41	18.937
558.75	19.473
559.08	18.650
559.42	18.176
559.76	19.199
560.10	18.754
560.44	19.129
560.78	18.750
561.12	18.473
561.45	19.404
561.79	18.376
562.13	19.347
562.47	18.496
562.81	19.051
563.15	18.750
563.48	19.267
563.82	19.166
564.16	17.929
564.50	19.726
564.84	17.581
565.17	19.529
565.51	18.412
565.85	18.884
566.19	18.260
566.52	18.783
566.86	19.298
567.20	18.978
567.54	18.428
567.88	19.113
568.21	18.874
568.55	18.513
568.89	18.793
569.23	18.589
569.56	18.210
569.90	18.068
570.24	17.909
570.57	18.056
570.91	18.004
571.25	18.050
571.59	18.063
571.92	18.230
572.26	17.708
572.60	17.854
572.93	18.063
573.27	17.814
573.61	18.528
573.95	18.038
574.28	17.800
574.62	18.031
574.96	17.711
575.29	17.603
575.63	17.417
575.97	18.060
576.30	18.159
576.64	17.991
576.98	17.790
577.31	18.112
577.65	17.891
577.98	18.016
578.32	17.595
578.66	18.036
578.99	17.551
579.33	17.763
579.67	18.042
580.00	17.869
580.34	18.303
580.67	17.586
581.01	17.763
581.35	18.177
581.68	17.640
582.02	17.394
582.35	17.905
582.69	17.893
583.02	18.109
583.36	18.258
583.70	18.132
584.03	17.663
584.37	18.218
584.70	18.142
585.04	18.135
585.37	17.985
585.71	17.433
586.04	18.098
586.38	17.990
586.72	17.974
587.05	18.291
587.39	18.100
587.72	18.636
588.06	17.795
588.39	17.949
588.73	18.069
589.06	18.341
589.40	18.838
589.73	18.927
590.07	18.402
590.40	18.695
590.73	18.487
591.07	18.541
591.40	17.496
591.74	18.482
592.07	18.920
592.41	18.494
592.74	19.098
593.08	18.599
593.41	17.906
593.75	18.305
594.08	18.843
594.41	18.558
594.75	18.167
595.08	18.472
595.42	18.506
595.75	18.276
596.09	18.299
596.42	17.986
596.75	18.719
597.09	18.465
597.42	17.958
597.75	18.620
598.09	18.333
598.42	18.737
598.76	18.227
599.09	18.263
599.42	18.605
599.76	17.993
600.09	18.218
600.42	18.652
600.76	18.560
601.09	18.354
601.42	18.023
601.76	17.793
602.09	18.263
602.42	17.993
602.76	18.229
603.09	18.576
603.42	18.244
603.76	18.076
604.09	19.021
604.42	18.275
604.76	17.960
605.09	18.867
605.42	18.900
605.75	18.577
606.09	17.880
606.42	18.424
606.75	18.403
607.09	18.241
607.42	18.420
607.75	18.367
608.08	18.863
608.42	18.178
608.75	18.076
609.08	18.124
609.41	18.659
609.75	18.661
610.08	18.646
610.41	18.437
610.74	18.277
611.07	18.917
611.41	18.969
611.74	19.076
612.07	18.513
612.40	18.203
612.73	18.826
613.07	18.142
613.40	18.431
613.73	18.296
614.06	18.891
614.39	18.513
614.72	17.904
615.06	18.431
615.39	18.415
615.72	18.768
616.05	17.970
616.38	18.365
616.71	18.861
617.05	18.424
617.38	19.262
617.71	18.844
618.04	18.564
618.37	18.197
618.70	18.609
619.03	17.921
619.36	18.619
619.69	18.001
620.03	18.205
620.36	17.914
620.69	18.199
621.02	19.160
621.35	19.594
621.68	18.872
622.01	19.217
622.34	18.828
622.67	18.282
623.00	17.072
623.33	19.310
623.66	19.390
623.99	18.433
624.32	20.208
624.65	18.468
624.99	18.791
625.32	19.268
625.65	19.218
625.98	18.780
626.31	19.702
626.64	19.707
626.97	18.530
627.30	18.527
627.63	18.455
627.96	19.069
628.29	18.054
628.62	17.632
628.95	18.931
629.28	18.267
629.61	20.034
629.94	17.238
630.26	18.051
630.59	18.826
630.92	18.355
631.25	18.784
631.58	19.492
631.91	19.213
632.24	19.404
632.57	18.975
632.90	19.358
633.23	18.163
633.56	18.571
633.89	17.975
634.22	19.543
634.55	19.415
634.88	18.939
635.20	20.452
635.53	18.644
635.86	19.393
636.19	20.361
636.52	19.726
636.85	18.693
637.18	18.711
637.51	18.387
637.83	19.269
638.16	19.931
638.49	18.545
638.82	19.391
639.15	18.671
639.48	18.938
639.81	19.169
