SpectraSuite Data File
++++++++++++++++++++++++++++++++++++
Date: Thu May 14 15:18:17 PDT 2015
User: schluterlab
Dark Spectrum Present: Yes
Reference Spectrum Present: Yes
Number of Sampled Component Spectra: 1
Spectrometers: USB2E3373
Integration Time (usec): 3000 (USB2E3373)
Spectra Averaged: 3 (USB2E3373)
Boxcar Smoothing: 0 (USB2E3373)
Correct for Electrical Dark: No (USB2E3373)
Strobe/Lamp Enabled: No (USB2E3373)
Correct for Detector Non-linearity: No (USB2E3373)
Correct for Stray Light: No (USB2E3373)
Number of Pixels in Processed Spectrum: 2048
>>>>>Begin Processed Spectral Data<<<<<
178.53	0.000
178.91	600.000
179.29	-4600.000
179.67	-4700.000
180.04	392.857
180.42	440.000
180.80	760.000
181.18	-4100.000
181.56	-3700.000
181.94	1075.000
182.31	-900.000
182.69	1633.333
183.07	-1950.000
183.45	1175.000
183.83	-683.333
184.20	-900.000
184.58	4300.000
184.96	-1225.000
185.34	-466.667
185.72	-760.000
186.09	566.667
186.47	2200.000
186.85	1080.000
187.23	-544.444
187.61	-3800.000
187.98	960.000
188.36	800.000
188.74	-925.000
189.12	-833.333
189.49	-250.000
189.87	-550.000
190.25	-388.889
190.63	-780.000
191.00	-477.778
191.38	0.000
191.76	-1175.000
192.14	-700.000
192.51	2200.000
192.89	-550.000
193.27	0.000
193.65	-485.714
194.02	-4700.000
194.40	-585.714
194.78	628.571
195.15	0.000
195.53	-290.909
195.91	0.000
196.29	-925.000
196.66	-292.308
197.04	-4100.000
197.42	-585.714
197.79	-1800.000
198.17	-537.500
198.55	-485.714
198.92	-477.778
199.30	-500.000
199.68	-336.364
200.05	-228.571
200.43	-2100.000
200.81	628.571
201.18	0.000
201.56	544.444
201.94	0.000
202.31	1166.667
202.69	-422.222
203.07	3700.000
203.44	-355.556
203.82	-1000.000
204.19	-358.333
204.57	-800.000
204.95	-475.000
205.32	-4600.000
205.70	825.000
206.08	-683.333
206.45	-616.667
206.83	980.000
207.20	-700.000
207.58	-1020.000
207.96	-716.667
208.33	-516.667
208.71	333.333
209.08	-433.333
209.46	0.000
209.84	766.667
210.21	2100.000
210.59	1950.000
210.96	1400.000
211.34	-775.000
211.71	-425.000
212.09	-3200.000
212.46	0.000
212.84	2150.000
213.22	-800.000
213.59	-975.000
213.97	-320.000
214.34	-1233.333
214.72	716.667
215.09	-1100.000
215.47	0.000
215.84	514.286
216.22	2200.000
216.59	-700.000
216.97	-800.000
217.34	-875.000
217.72	-500.000
218.09	-1200.000
218.47	-950.000
218.84	0.000
219.22	800.000
219.59	-241.176
219.97	-165.000
220.34	2400.000
220.72	-488.889
221.09	-253.846
221.47	-1333.333
221.84	-310.000
222.22	-628.571
222.59	0.000
222.97	-487.500
223.34	-740.000
223.72	-3800.000
224.09	-975.000
224.46	-1100.000
224.84	-800.000
225.21	-757.143
225.59	-1150.000
225.96	-900.000
226.34	-119.231
226.71	833.333
227.08	-2000.000
227.46	-213.333
227.83	-850.000
228.21	-126.316
228.58	412.500
228.95	2550.000
229.33	-291.667
229.70	-440.000
230.08	-131.579
230.45	380.000
230.82	-1133.333
231.20	-235.714
231.57	-241.667
231.95	-318.182
232.32	-218.182
232.69	-160.000
233.07	-950.000
233.44	-176.471
233.81	-360.000
234.19	-172.222
234.56	-127.273
234.93	-110.345
235.31	-157.895
235.68	-211.111
236.05	-205.000
236.43	-69.231
236.80	-48.000
237.17	-85.185
237.55	-42.424
237.92	-310.000
238.29	-103.226
238.67	-31.818
239.04	-52.778
239.41	-71.429
239.79	-26.087
240.16	-16.667
240.53	-32.609
240.91	-43.137
241.28	-9.836
241.65	-4.478
242.02	4.054
242.40	-15.385
242.77	2.667
243.14	-6.098
243.51	3.947
243.89	-11.538
244.26	5.941
244.63	12.745
245.00	21.495
245.38	16.667
245.75	4.425
246.12	25.397
246.49	11.628
246.87	20.714
247.24	27.152
247.61	24.342
247.98	24.161
248.36	28.395
248.73	23.313
249.10	26.776
249.47	34.826
249.84	32.461
250.22	30.570
250.59	32.222
250.96	38.182
251.33	29.082
251.70	35.043
252.08	32.917
252.45	37.295
252.82	35.950
253.19	34.766
253.56	38.783
253.94	31.154
254.31	38.258
254.68	40.559
255.05	39.739
255.42	34.014
255.79	37.864
256.16	40.728
256.54	35.762
256.91	33.115
257.28	40.656
257.65	37.898
258.02	40.118
258.39	42.450
258.76	44.037
259.14	42.241
259.51	44.092
259.88	40.227
260.25	41.389
260.62	41.370
260.99	43.169
261.36	42.359
261.73	41.114
262.10	41.484
262.47	41.019
262.85	44.192
263.22	41.039
263.59	36.316
263.96	43.223
264.33	39.130
264.70	43.210
265.07	44.153
265.44	46.032
265.81	42.361
266.18	45.351
266.55	45.982
266.92	44.191
267.29	43.107
267.66	48.337
268.03	44.760
268.40	41.754
268.77	43.508
269.14	42.291
269.51	43.860
269.88	43.852
270.25	43.260
270.62	45.992
270.99	44.040
271.36	42.178
271.73	43.811
272.10	46.894
272.47	42.685
272.84	43.373
273.21	43.086
273.58	43.548
273.95	43.077
274.32	40.494
274.69	42.747
275.06	44.322
275.43	38.632
275.80	42.681
276.17	42.037
276.54	41.604
276.91	43.292
277.28	40.687
277.65	42.190
278.02	42.096
278.39	44.022
278.76	41.476
279.13	42.730
279.50	40.893
279.87	42.218
280.23	38.556
280.60	43.051
280.97	43.421
281.34	42.615
281.71	42.809
282.08	43.023
282.45	39.444
282.82	40.816
283.19	36.834
283.56	41.639
283.92	43.694
284.29	39.968
284.66	44.663
285.03	37.340
285.40	42.040
285.77	39.164
286.14	41.374
286.51	41.553
286.87	39.021
287.24	41.566
287.61	38.416
287.98	37.764
288.35	38.757
288.72	38.905
289.08	39.239
289.45	36.095
289.82	36.295
290.19	39.368
290.56	39.296
290.93	36.377
291.29	36.088
291.66	37.879
292.03	36.499
292.40	38.503
292.77	35.849
293.13	34.641
293.50	34.954
293.87	34.765
294.24	34.533
294.60	34.893
294.97	34.228
295.34	36.364
295.71	33.291
296.08	32.817
296.44	32.966
296.81	31.790
297.18	33.998
297.55	33.962
297.91	32.266
298.28	32.227
298.65	32.224
299.02	30.342
299.38	31.579
299.75	30.841
300.12	31.366
300.48	31.797
300.85	32.508
301.22	32.438
301.59	30.023
301.95	30.508
302.32	30.333
302.69	30.778
303.05	30.033
303.42	32.040
303.79	31.042
304.15	30.599
304.52	29.704
304.89	29.738
305.25	29.607
305.62	31.348
305.99	30.619
306.35	29.536
306.72	32.058
307.09	29.746
307.45	30.331
307.82	29.869
308.19	29.667
308.55	29.026
308.92	30.282
309.29	30.651
309.65	28.947
310.02	29.010
310.38	28.839
310.75	30.388
311.12	30.393
311.48	30.694
311.85	30.769
312.22	28.558
312.58	29.577
312.95	29.732
313.31	30.172
313.68	29.945
314.05	30.985
314.41	29.690
314.78	29.882
315.14	29.946
315.51	28.901
315.87	29.883
316.24	30.594
316.61	30.817
316.97	30.498
317.34	29.541
317.70	30.480
318.07	31.217
318.43	29.847
318.80	31.187
319.16	30.300
319.53	29.306
319.89	29.711
320.26	30.338
320.62	29.255
320.99	30.194
321.35	31.238
321.72	31.535
322.08	28.494
322.45	30.533
322.81	30.957
323.18	29.912
323.54	31.810
323.91	31.673
324.27	30.895
324.64	31.486
325.00	31.260
325.37	31.286
325.73	31.983
326.10	32.360
326.46	31.759
326.83	31.545
327.19	30.157
327.56	31.700
327.92	32.022
328.29	31.048
328.65	29.899
329.01	31.726
329.38	31.003
329.74	32.192
330.11	33.048
330.47	31.003
330.84	31.697
331.20	31.333
331.56	30.676
331.93	31.799
332.29	31.102
332.66	31.561
333.02	31.323
333.38	31.628
333.75	29.882
334.11	30.692
334.48	31.023
334.84	31.521
335.20	30.395
335.57	32.546
335.93	30.826
336.29	30.782
336.66	30.614
337.02	30.936
337.38	30.612
337.75	29.917
338.11	29.941
338.47	30.521
338.84	30.964
339.20	28.981
339.56	29.984
339.93	30.049
340.29	30.596
340.65	30.495
341.02	30.567
341.38	29.749
341.74	29.540
342.11	30.571
342.47	28.594
342.83	29.549
343.20	30.090
343.56	28.789
343.92	28.263
344.28	30.234
344.65	29.070
345.01	29.719
345.37	29.160
345.73	29.774
346.10	29.095
346.46	29.826
346.82	29.738
347.19	29.717
347.55	28.604
347.91	28.158
348.27	29.818
348.63	29.018
349.00	29.605
349.36	28.476
349.72	28.795
350.08	28.900
350.45	28.289
350.81	28.431
351.17	28.571
351.53	28.734
351.89	28.778
352.26	28.209
352.62	28.582
352.98	28.015
353.34	28.155
353.70	28.428
354.07	28.539
354.43	29.157
354.79	27.749
355.15	28.550
355.51	29.313
355.87	28.347
356.24	29.125
356.60	28.603
356.96	29.133
357.32	27.881
357.68	28.331
358.04	28.817
358.40	26.866
358.77	28.289
359.13	28.730
359.49	27.063
359.85	27.701
360.21	27.331
360.57	27.638
360.93	28.350
361.29	28.491
361.66	28.530
362.02	27.836
362.38	27.969
362.74	27.304
363.10	27.304
363.46	28.809
363.82	27.841
364.18	27.657
364.54	27.593
364.90	26.689
365.26	26.966
365.62	27.600
365.98	27.434
366.35	27.651
366.71	26.803
367.07	27.605
367.43	28.102
367.79	28.733
368.15	27.960
368.51	27.876
368.87	27.237
369.23	27.467
369.59	27.391
369.95	27.316
370.31	27.549
370.67	27.648
371.03	27.008
371.39	26.394
371.75	26.823
372.11	27.439
372.47	26.608
372.83	28.207
373.19	26.418
373.55	27.371
373.91	25.971
374.27	27.814
374.63	27.334
374.99	27.586
375.35	27.792
375.71	26.581
376.07	26.275
376.42	26.071
376.78	27.035
377.14	26.825
377.50	27.008
377.86	26.601
378.22	27.186
378.58	26.635
378.94	26.526
379.30	26.655
379.66	27.748
380.02	27.005
380.38	28.399
380.74	27.775
381.09	27.642
381.45	27.443
381.81	27.752
382.17	26.841
382.53	27.076
382.89	27.652
383.25	27.022
383.61	26.331
383.97	26.620
384.32	26.196
384.68	27.030
385.04	28.167
385.40	27.637
385.76	27.784
386.12	26.451
386.48	27.000
386.83	27.116
387.19	27.173
387.55	26.291
387.91	27.226
388.27	27.540
388.62	26.747
388.98	26.678
389.34	26.930
389.70	26.612
390.06	27.649
390.42	26.988
390.77	27.995
391.13	27.347
391.49	27.053
391.85	26.000
392.20	27.461
392.56	26.994
392.92	26.390
393.28	26.645
393.64	26.592
393.99	28.181
394.35	27.395
394.71	27.365
395.07	26.766
395.42	25.414
395.78	27.179
396.14	26.857
396.50	27.494
396.85	26.714
397.21	26.095
397.57	27.208
397.92	27.090
398.28	26.399
398.64	24.943
399.00	25.864
399.35	27.277
399.71	26.685
400.07	26.614
400.42	26.542
400.78	26.852
401.14	25.953
401.49	27.345
401.85	26.686
402.21	27.694
402.57	27.347
402.92	26.596
403.28	25.820
403.63	25.895
403.99	25.416
404.35	25.412
404.70	26.742
405.06	26.196
405.42	26.054
405.77	26.390
406.13	26.958
406.49	26.633
406.84	26.648
407.20	26.216
407.55	25.439
407.91	26.147
408.27	25.854
408.62	26.236
408.98	26.001
409.34	25.220
409.69	26.576
410.05	26.377
410.40	26.740
410.76	25.799
411.11	26.300
411.47	25.799
411.83	26.455
412.18	26.687
412.54	25.430
412.89	26.426
413.25	26.637
413.60	25.617
413.96	25.874
414.31	25.666
414.67	25.999
415.03	25.108
415.38	26.482
415.74	25.412
416.09	25.972
416.45	25.548
416.80	25.704
417.16	26.437
417.51	26.401
417.87	25.812
418.22	25.269
418.58	25.217
418.93	25.786
419.29	25.339
419.64	25.690
420.00	25.994
420.35	25.547
420.71	25.560
421.06	25.992
421.42	26.663
421.77	25.525
422.12	25.106
422.48	26.421
422.83	26.725
423.19	26.684
423.54	26.272
423.90	26.394
424.25	26.293
424.61	26.292
424.96	25.151
425.31	26.221
425.67	25.658
426.02	25.955
426.38	25.947
426.73	25.670
427.09	26.182
427.44	24.850
427.79	25.097
428.15	24.943
428.50	26.180
428.85	26.349
429.21	27.021
429.56	25.962
429.92	25.897
430.27	26.988
430.62	26.087
430.98	26.217
431.33	26.295
431.68	27.155
432.04	26.409
432.39	26.299
432.74	26.142
433.10	25.960
433.45	24.303
433.80	26.127
434.16	25.723
434.51	27.595
434.86	26.221
435.22	26.939
435.57	26.828
435.92	27.101
436.28	26.451
436.63	26.434
436.98	26.087
437.34	26.663
437.69	26.472
438.04	26.600
438.39	27.283
438.75	25.733
439.10	27.167
439.45	26.775
439.81	26.497
440.16	26.059
440.51	26.143
440.86	25.403
441.22	26.099
441.57	26.520
441.92	26.770
442.27	27.828
442.63	26.975
442.98	26.521
443.33	26.618
443.68	27.056
444.03	28.222
444.39	27.785
444.74	27.004
445.09	26.863
445.44	26.923
445.79	27.203
446.15	26.824
446.50	26.873
446.85	27.383
447.20	27.079
447.55	27.929
447.91	26.911
448.26	27.431
448.61	26.780
448.96	27.843
449.31	26.511
449.66	26.198
450.02	26.951
450.37	26.798
450.72	26.911
451.07	26.936
451.42	26.805
451.77	26.348
452.12	27.144
452.47	26.144
452.83	27.590
453.18	27.145
453.53	26.996
453.88	26.781
454.23	27.232
454.58	26.872
454.93	26.699
455.28	26.911
455.63	26.663
455.98	26.760
456.34	27.208
456.69	26.514
457.04	27.069
457.39	27.328
457.74	27.852
458.09	27.128
458.44	27.532
458.79	26.766
459.14	27.687
459.49	27.787
459.84	27.807
460.19	26.263
460.54	27.484
460.89	27.634
461.24	27.759
461.59	27.449
461.94	27.039
462.29	28.108
462.64	27.459
462.99	26.616
463.34	26.411
463.69	27.374
464.04	28.071
464.39	27.242
464.74	26.910
465.09	27.682
465.44	26.985
465.79	27.499
466.14	27.306
466.49	28.053
466.84	27.658
467.19	26.879
467.54	26.087
467.89	26.437
468.24	27.424
468.59	26.404
468.94	25.874
469.29	27.295
469.64	25.938
469.99	26.004
470.34	26.423
470.68	27.068
471.03	27.505
471.38	25.965
471.73	26.073
472.08	26.015
472.43	26.610
472.78	26.071
473.13	26.802
473.48	26.344
473.83	27.046
474.17	27.491
474.52	27.300
474.87	27.076
475.22	27.268
475.57	26.376
475.92	27.725
476.27	27.050
476.61	26.843
476.96	27.320
477.31	27.079
477.66	27.912
478.01	26.995
478.36	26.520
478.70	27.488
479.05	28.528
479.40	27.345
479.75	28.050
480.10	26.717
480.45	27.575
480.79	27.664
481.14	28.033
481.49	28.124
481.84	28.721
482.19	27.484
482.53	28.072
482.88	28.002
483.23	27.257
483.58	27.598
483.92	26.684
484.27	27.900
484.62	27.310
484.97	27.527
485.31	27.983
485.66	27.086
486.01	28.218
486.36	30.246
486.70	32.402
487.05	33.340
487.40	31.762
487.75	31.094
488.09	29.783
488.44	28.329
488.79	28.702
489.13	27.480
489.48	27.379
489.83	26.841
490.17	26.367
490.52	26.273
490.87	26.861
491.22	27.296
491.56	27.005
491.91	27.126
492.26	26.871
492.60	26.541
492.95	27.029
493.30	27.387
493.64	26.894
493.99	27.632
494.34	26.655
494.68	26.852
495.03	26.872
495.37	27.341
495.72	26.667
496.07	26.687
496.41	26.126
496.76	27.314
497.11	28.025
497.45	27.277
497.80	28.254
498.14	26.757
498.49	27.298
498.84	26.325
499.18	26.496
499.53	26.457
499.87	26.901
500.22	26.848
500.56	26.766
500.91	26.636
501.26	27.045
501.60	26.558
501.95	27.442
502.29	27.380
502.64	26.935
502.98	27.092
503.33	26.609
503.67	25.382
504.02	26.664
504.36	27.033
504.71	27.102
505.06	26.103
505.40	26.600
505.75	26.685
506.09	27.164
506.44	26.462
506.78	27.248
507.13	26.556
507.47	26.386
507.82	26.326
508.16	26.147
508.51	25.035
508.85	25.886
509.19	26.338
509.54	26.945
509.88	26.081
510.23	26.372
510.57	26.535
510.92	25.980
511.26	25.253
511.61	25.302
511.95	26.013
512.30	25.899
512.64	25.837
512.98	25.763
513.33	26.361
513.67	25.548
514.02	26.571
514.36	26.343
514.70	25.417
515.05	26.538
515.39	24.724
515.74	26.034
516.08	25.462
516.42	26.374
516.77	25.184
517.11	24.600
517.46	25.822
517.80	25.762
518.14	25.626
518.49	24.620
518.83	24.747
519.17	24.394
519.52	25.105
519.86	25.132
520.20	24.867
520.55	24.699
520.89	24.944
521.23	24.846
521.58	24.463
521.92	24.363
522.26	24.227
522.61	24.537
522.95	24.510
523.29	24.253
523.64	23.879
523.98	26.070
524.32	25.158
524.66	24.075
525.01	24.689
525.35	24.009
525.69	23.782
526.04	24.110
526.38	23.793
526.72	23.818
527.06	24.457
527.41	23.848
527.75	24.466
528.09	24.321
528.43	24.571
528.78	22.890
529.12	23.280
529.46	24.171
529.80	24.314
530.15	24.522
530.49	23.191
530.83	25.207
531.17	23.835
531.51	24.128
531.86	24.639
532.20	25.061
532.54	23.459
532.88	24.727
533.22	23.866
533.57	23.716
533.91	24.299
534.25	24.647
534.59	24.828
534.93	24.958
535.27	23.944
535.62	24.559
535.96	24.404
536.30	23.384
536.64	24.324
536.98	24.785
537.32	24.136
537.66	23.581
538.01	23.807
538.35	23.508
538.69	23.918
539.03	24.218
539.37	24.558
539.71	23.604
540.05	24.101
540.39	24.267
540.73	24.347
541.07	23.605
541.42	23.686
541.76	23.191
542.10	24.005
542.44	23.995
542.78	24.757
543.12	24.076
543.46	23.748
543.80	23.681
544.14	23.519
544.48	24.350
544.82	25.015
545.16	24.031
545.50	23.607
545.84	23.821
546.18	24.321
546.52	22.803
546.86	24.088
547.20	23.410
547.54	23.533
547.88	23.689
548.22	22.807
548.56	23.581
548.90	23.940
549.24	24.255
549.58	23.218
549.92	23.087
550.26	23.689
550.60	22.846
550.94	23.221
551.28	23.234
551.62	23.450
551.96	22.977
552.30	24.283
552.64	23.584
552.98	23.581
553.32	23.987
553.66	23.794
554.00	23.329
554.34	23.745
554.68	23.564
555.02	22.668
555.36	23.997
555.69	22.101
556.03	23.266
556.37	23.404
556.71	22.701
557.05	22.748
557.39	23.291
557.73	22.655
558.07	23.113
558.41	23.256
558.75	22.718
559.08	22.477
559.42	22.428
559.76	21.777
560.10	22.505
560.44	23.153
560.78	24.125
561.12	23.337
561.45	23.358
561.79	23.932
562.13	24.276
562.47	22.873
562.81	23.734
563.15	23.737
563.48	22.996
563.82	23.277
564.16	22.774
564.50	23.778
564.84	22.891
565.17	23.118
565.51	23.533
565.85	22.981
566.19	23.272
566.52	24.108
566.86	23.373
567.20	23.165
567.54	23.898
567.88	24.618
568.21	25.198
568.55	25.324
568.89	25.284
569.23	26.025
569.56	25.830
569.90	26.408
570.24	26.813
570.57	27.421
570.91	27.679
571.25	27.452
571.59	27.971
571.92	27.665
572.26	27.131
572.60	28.228
572.93	27.665
573.27	27.704
573.61	27.634
573.95	27.191
574.28	27.587
574.62	27.808
574.96	27.614
575.29	27.583
575.63	27.997
575.97	27.784
576.30	27.486
576.64	27.392
576.98	27.859
577.31	27.792
577.65	28.064
577.98	28.294
578.32	28.112
578.66	28.515
578.99	28.036
579.33	28.168
579.67	27.969
580.00	27.467
580.34	27.574
580.67	26.920
581.01	27.391
581.35	27.859
581.68	27.933
582.02	28.290
582.35	28.741
582.69	28.926
583.02	29.079
583.36	28.486
583.70	27.653
584.03	27.190
584.37	27.030
584.70	26.553
585.04	26.854
585.37	27.176
585.71	26.861
586.04	27.367
586.38	27.762
586.72	26.974
587.05	26.989
587.39	27.624
587.72	27.273
588.06	27.466
588.39	27.409
588.73	26.772
589.06	27.116
589.40	26.736
589.73	26.093
590.07	26.691
590.40	26.133
590.73	25.592
591.07	25.614
591.40	24.883
591.74	25.238
592.07	25.335
592.41	24.054
592.74	25.027
593.08	25.573
593.41	26.888
593.75	26.810
594.08	26.901
594.41	25.962
594.75	26.038
595.08	26.110
595.42	26.039
595.75	25.702
596.09	25.822
596.42	25.367
596.75	25.125
597.09	25.939
597.42	24.275
597.75	24.500
598.09	25.397
598.42	25.895
598.76	24.685
599.09	25.062
599.42	24.941
599.76	25.685
600.09	25.726
600.42	26.193
600.76	25.561
601.09	25.821
601.42	25.506
601.76	25.483
602.09	25.054
602.42	24.900
602.76	25.129
603.09	25.441
603.42	25.470
603.76	25.405
604.09	26.295
604.42	25.615
604.76	24.543
605.09	24.452
605.42	24.920
605.75	24.731
606.09	25.159
606.42	24.626
606.75	24.288
607.09	24.270
607.42	24.355
607.75	24.775
608.08	24.546
608.42	24.627
608.75	24.212
609.08	24.151
609.41	24.085
609.75	23.705
610.08	24.670
610.41	23.832
610.74	24.580
611.07	24.201
611.41	24.081
611.74	23.788
612.07	23.329
612.40	23.622
612.73	23.521
613.07	23.521
613.40	23.244
613.73	22.821
614.06	22.473
614.39	22.983
614.72	22.950
615.06	23.051
615.39	22.765
615.72	23.934
616.05	23.069
616.38	23.512
616.71	23.406
617.05	22.045
617.38	22.846
617.71	22.084
618.04	23.044
618.37	22.568
618.70	22.511
619.03	21.565
619.36	22.503
619.69	20.500
620.03	21.720
620.36	21.411
620.69	22.517
621.02	21.260
621.35	20.900
621.68	20.824
622.01	20.569
622.34	20.363
622.67	20.275
623.00	19.366
623.33	20.902
623.66	21.790
623.99	20.737
624.32	21.442
624.65	20.335
624.99	20.546
625.32	22.077
625.65	20.634
625.98	19.729
626.31	20.482
626.64	19.853
626.97	19.205
627.30	19.058
627.63	18.830
627.96	20.120
628.29	19.767
628.62	18.640
628.95	18.142
629.28	18.182
629.61	18.603
629.94	17.741
630.26	17.627
