SpectraSuite Data File
++++++++++++++++++++++++++++++++++++
Date: Thu May 14 14:39:48 PDT 2015
User: schluterlab
Dark Spectrum Present: Yes
Reference Spectrum Present: Yes
Number of Sampled Component Spectra: 1
Spectrometers: USB2E3373
Integration Time (usec): 3000 (USB2E3373)
Spectra Averaged: 3 (USB2E3373)
Boxcar Smoothing: 0 (USB2E3373)
Correct for Electrical Dark: No (USB2E3373)
Strobe/Lamp Enabled: No (USB2E3373)
Correct for Detector Non-linearity: No (USB2E3373)
Correct for Stray Light: No (USB2E3373)
Number of Pixels in Processed Spectrum: 2048
>>>>>Begin Processed Spectral Data<<<<<
178.53	0.000
178.91	-142.857
179.29	100.000
179.67	1200.000
180.04	50.000
180.42	-130.000
180.80	-100.000
181.18	2100.000
181.56	2200.000
181.94	-200.000
182.31	300.000
182.69	-366.667
183.07	800.000
183.45	-300.000
183.83	150.000
184.20	466.667
184.58	-400.000
184.96	250.000
185.34	211.111
185.72	160.000
186.09	33.333
186.47	-550.000
186.85	-160.000
187.23	122.222
187.61	200.000
187.98	-240.000
188.36	-325.000
188.74	200.000
189.12	500.000
189.49	131.250
189.87	100.000
190.25	166.667
190.63	280.000
191.00	66.667
191.38	0.000
191.76	150.000
192.14	116.667
192.51	-550.000
192.89	416.667
193.27	0.000
193.65	171.429
194.02	500.000
194.40	214.286
194.78	-142.857
195.15	0.000
195.53	200.000
195.91	0.000
196.29	425.000
196.66	176.923
197.04	300.000
197.42	171.429
197.79	500.000
198.17	125.000
198.55	114.286
198.92	188.889
199.30	275.000
199.68	109.091
200.05	121.429
200.43	200.000
200.81	128.571
201.18	0.000
201.56	-88.889
201.94	0.000
202.31	-533.333
202.69	133.333
203.07	-2000.000
203.44	166.667
203.82	275.000
204.19	125.000
204.57	183.333
204.95	212.500
205.32	500.000
205.70	-375.000
206.08	116.667
206.45	250.000
206.83	100.000
207.20	216.667
207.58	360.000
207.96	216.667
208.33	466.667
208.71	-108.333
209.08	316.667
209.46	0.000
209.84	-150.000
210.21	-450.000
210.59	-850.000
210.96	-66.667
211.34	350.000
211.71	100.000
212.09	1200.000
212.46	0.000
212.84	-350.000
213.22	20.000
213.59	450.000
213.97	180.000
214.34	433.333
214.72	-266.667
215.09	100.000
215.47	0.000
215.84	-171.429
216.22	-500.000
216.59	420.000
216.97	400.000
217.34	250.000
217.72	250.000
218.09	300.000
218.47	-75.000
218.84	0.000
219.22	-500.000
219.59	82.353
219.97	100.000
220.34	50.000
220.72	122.222
221.09	200.000
221.47	666.667
221.84	110.000
222.22	71.429
222.59	0.000
222.97	162.500
223.34	320.000
223.72	600.000
224.09	375.000
224.46	300.000
224.84	360.000
225.21	114.286
225.59	225.000
225.96	225.000
226.34	96.154
226.71	-183.333
227.08	950.000
227.46	100.000
227.83	50.000
228.21	89.474
228.58	-125.000
228.95	-450.000
229.33	108.333
229.70	80.000
230.08	110.526
230.45	-130.000
230.82	500.000
231.20	157.143
231.57	183.333
231.95	172.727
232.32	90.909
232.69	100.000
233.07	475.000
233.44	105.882
233.81	150.000
234.19	155.556
234.56	86.364
234.93	51.724
235.31	136.842
235.68	66.667
236.05	75.000
236.43	96.154
236.80	132.000
237.17	92.593
237.55	72.727
237.92	80.000
238.29	90.323
238.67	70.455
239.04	36.111
239.41	38.095
239.79	45.652
240.16	44.444
240.53	47.826
240.91	49.020
241.28	32.787
241.65	67.164
242.02	58.108
242.40	49.231
242.77	41.333
243.14	34.146
243.51	26.316
243.89	37.179
244.26	49.505
244.63	50.980
245.00	32.710
245.38	38.596
245.75	28.319
246.12	46.032
246.49	41.860
246.87	40.714
247.24	27.152
247.61	31.579
247.98	30.872
248.36	31.481
248.73	24.540
249.10	28.415
249.47	35.323
249.84	37.696
250.22	33.161
250.59	37.222
250.96	29.545
251.33	29.592
251.70	29.487
252.08	30.000
252.45	30.328
252.82	25.207
253.19	26.172
253.56	32.700
253.94	30.000
254.31	30.303
254.68	31.469
255.05	32.899
255.42	31.633
255.79	26.861
256.16	30.464
256.54	25.166
256.91	27.869
257.28	27.541
257.65	28.344
258.02	24.484
258.39	27.066
258.76	31.193
259.14	30.747
259.51	27.378
259.88	26.629
260.25	26.389
260.62	28.767
260.99	28.142
261.36	28.686
261.73	29.708
262.10	28.022
262.47	29.759
262.85	30.051
263.22	25.974
263.59	24.474
263.96	29.412
264.33	24.297
264.70	29.383
265.07	29.833
265.44	28.118
265.81	25.926
266.18	28.798
266.55	27.455
266.92	26.424
267.29	30.197
267.66	28.825
268.03	27.729
268.40	24.008
268.77	25.285
269.14	27.533
269.51	27.851
269.88	29.098
270.25	26.358
270.62	27.215
270.99	29.697
271.36	28.515
271.73	26.326
272.10	29.459
272.47	26.653
272.84	23.092
273.21	27.255
273.58	27.621
273.95	23.077
274.32	24.715
274.69	24.565
275.06	27.106
275.43	25.139
275.80	25.220
276.17	25.741
276.54	25.000
276.91	24.866
277.28	25.678
277.65	26.212
278.02	25.551
278.39	26.449
278.76	24.780
279.13	26.950
279.50	25.086
279.87	25.760
280.23	22.711
280.60	26.610
280.97	24.507
281.34	24.278
281.71	25.888
282.08	23.256
282.45	24.714
282.82	25.275
283.19	25.040
283.56	25.082
283.92	25.676
284.29	27.172
284.66	25.616
285.03	25.000
285.40	24.420
285.77	25.697
286.14	26.412
286.51	24.049
286.87	23.381
287.24	21.988
287.61	23.318
287.98	24.320
288.35	23.077
288.72	24.260
289.08	23.280
289.45	21.893
289.82	22.892
290.19	24.425
290.56	22.676
290.93	24.536
291.29	21.901
291.66	21.763
292.03	22.252
292.40	24.626
292.77	20.755
293.13	23.139
293.50	20.368
293.87	22.148
294.24	24.000
294.60	23.767
294.97	21.477
295.34	22.919
295.71	20.807
296.08	21.447
296.44	20.588
296.81	21.072
297.18	22.665
297.55	18.986
297.91	21.827
298.28	20.616
298.65	22.354
299.02	21.370
299.38	21.968
299.75	20.794
300.12	20.255
300.48	20.853
300.85	20.697
301.22	21.253
301.59	20.890
301.95	21.469
302.32	21.333
302.69	21.139
303.05	20.457
303.42	23.060
303.79	20.833
304.15	21.030
304.52	20.507
304.89	20.628
305.25	21.843
305.62	21.630
305.99	21.649
306.35	21.673
306.72	21.406
307.09	20.812
307.45	21.946
307.82	22.301
308.19	21.090
308.55	21.504
308.92	21.227
309.29	21.839
309.65	23.099
310.02	22.673
310.38	22.835
310.75	23.689
311.12	23.873
311.48	22.678
311.85	23.837
312.22	22.201
312.58	23.568
312.95	24.474
313.31	23.487
313.68	23.901
314.05	25.113
314.41	26.321
314.78	25.613
315.14	25.227
315.51	26.685
315.87	26.013
316.24	27.123
316.61	26.643
316.97	27.330
317.34	27.601
317.70	29.170
318.07	27.690
318.43	27.721
318.80	29.264
319.16	28.670
319.53	28.192
319.89	29.097
320.26	29.270
320.62	29.965
320.99	30.471
321.35	31.793
321.72	33.581
322.08	32.913
322.45	33.062
322.81	32.762
323.18	34.071
323.54	33.707
323.91	35.676
324.27	34.940
324.64	35.768
325.00	35.240
325.37	37.756
325.73	37.438
326.10	38.605
326.46	40.554
326.83	40.993
327.19	40.630
327.56	41.423
327.92	42.250
328.29	42.742
328.65	43.300
329.01	44.332
329.38	45.998
329.74	47.260
330.11	46.490
330.47	47.515
330.84	48.837
331.20	49.333
331.56	50.693
331.93	49.958
332.29	50.424
332.66	51.163
333.02	51.424
333.38	51.007
333.75	51.684
334.11	53.128
334.48	51.485
334.84	54.460
335.20	52.141
335.57	53.457
335.93	54.132
336.29	53.910
336.66	53.995
337.02	53.763
337.38	55.272
337.75	54.793
338.11	57.023
338.47	54.673
338.84	54.738
339.20	53.243
339.56	53.460
339.93	55.255
340.29	53.462
340.65	54.420
341.02	56.425
341.38	57.397
341.74	55.932
342.11	56.879
342.47	54.647
342.83	57.005
343.20	56.500
343.56	56.696
343.92	56.525
344.28	56.016
344.65	55.736
345.01	56.630
345.37	56.221
345.73	56.196
346.10	56.942
346.46	57.041
346.82	56.479
347.19	57.143
347.55	57.132
347.91	57.652
348.27	56.601
348.63	57.654
349.00	55.108
349.36	56.877
349.72	56.473
350.08	56.909
350.45	58.403
350.81	57.843
351.17	56.617
351.53	57.847
351.89	56.948
352.26	57.687
352.62	58.358
352.98	58.626
353.34	56.535
353.70	58.475
354.07	56.483
354.43	58.922
354.79	57.966
355.15	56.071
355.51	58.406
355.87	58.489
356.24	59.468
356.60	57.428
356.96	58.340
357.32	56.952
357.68	57.980
358.04	57.934
358.40	57.761
358.77	58.699
359.13	59.675
359.49	60.223
359.85	59.028
360.21	58.608
360.57	59.081
360.93	58.604
361.29	58.877
361.66	59.957
362.02	60.334
362.38	60.717
362.74	62.081
363.10	59.835
363.46	61.219
363.82	60.369
364.18	61.999
364.54	61.342
364.90	61.472
365.26	61.310
365.62	61.067
365.98	61.607
366.35	59.664
366.71	63.605
367.07	60.555
367.43	60.932
367.79	62.177
368.15	61.806
368.51	62.246
368.87	61.724
369.23	62.067
369.59	64.003
369.95	62.407
370.31	63.471
370.67	63.274
371.03	62.673
371.39	62.861
371.75	63.824
372.11	62.127
372.47	62.559
372.83	63.089
373.19	63.509
373.55	64.702
373.91	63.599
374.27	63.519
374.63	65.765
374.99	64.788
375.35	65.325
375.71	66.194
376.07	63.719
376.42	64.043
376.78	64.512
377.14	65.128
377.50	66.983
377.86	65.702
378.22	65.868
378.58	66.171
378.94	65.669
379.30	64.968
379.66	68.430
380.02	67.571
380.38	67.800
380.74	66.648
381.09	67.480
381.45	67.841
381.81	68.794
382.17	68.705
382.53	67.602
382.89	66.930
383.25	68.699
383.61	67.593
383.97	66.843
384.32	68.481
384.68	66.821
385.04	70.445
385.40	69.711
385.76	70.223
386.12	69.180
386.48	69.647
386.83	70.679
387.19	69.061
387.55	69.836
387.91	69.635
388.27	69.746
388.62	68.442
388.98	68.415
389.34	71.184
389.70	70.773
390.06	71.403
390.42	70.301
390.77	70.319
391.13	70.775
391.49	70.954
391.85	70.727
392.20	71.471
392.56	70.821
392.92	70.393
393.28	71.697
393.64	71.173
393.99	72.225
394.35	73.306
394.71	71.198
395.07	72.216
395.42	71.045
395.78	73.370
396.14	72.252
396.50	72.447
396.85	70.960
397.21	71.420
397.57	72.026
397.92	71.592
398.28	70.994
398.64	71.911
399.00	70.890
399.35	71.414
399.71	72.772
400.07	72.375
400.42	73.341
400.78	73.264
401.14	72.681
401.49	73.508
401.85	73.779
402.21	72.538
402.57	74.648
402.92	72.754
403.28	72.482
403.63	73.628
403.99	73.515
404.35	72.257
404.70	72.748
405.06	72.228
405.42	73.888
405.77	72.955
406.13	73.150
406.49	73.592
406.84	72.742
407.20	72.666
407.55	73.773
407.91	72.533
408.27	73.145
408.62	74.811
408.98	73.128
409.34	73.372
409.69	74.289
410.05	73.623
410.40	73.898
410.76	73.640
411.11	74.284
411.47	74.631
411.83	73.604
412.18	75.120
412.54	73.029
412.89	73.516
413.25	73.025
413.60	74.842
413.96	75.000
414.31	73.654
414.67	74.120
415.03	73.538
415.38	75.347
415.74	73.916
416.09	74.830
416.45	73.325
416.80	73.868
417.16	75.926
417.51	74.907
417.87	75.414
418.22	75.509
418.58	76.022
418.93	74.563
419.29	77.744
419.64	76.711
420.00	77.151
420.35	74.902
420.71	75.933
421.06	75.618
421.42	76.663
421.77	75.175
422.12	75.423
422.48	76.190
422.83	76.616
423.19	76.711
423.54	77.931
423.90	74.765
424.25	76.693
424.61	77.440
424.96	77.375
425.31	77.123
425.67	76.919
426.02	78.473
426.38	79.104
426.73	78.237
427.09	79.239
427.44	78.045
427.79	78.441
428.15	78.196
428.50	79.045
428.85	78.990
429.21	78.777
429.56	77.986
429.92	78.182
430.27	80.289
430.62	80.020
430.98	79.931
431.33	78.935
431.68	79.262
432.04	79.380
432.39	79.593
432.74	80.023
433.10	82.207
433.45	80.100
433.80	79.506
434.16	82.231
434.51	81.295
434.86	82.410
435.22	81.987
435.57	82.606
435.92	80.801
436.28	81.399
436.63	84.271
436.98	80.515
437.34	81.680
437.69	82.278
438.04	82.655
438.39	83.171
438.75	82.180
439.10	83.404
439.45	83.454
439.81	82.938
440.16	82.252
440.51	83.668
440.86	82.546
441.22	82.797
441.57	83.805
441.92	83.317
442.27	83.990
442.63	83.010
442.98	83.565
443.33	83.798
443.68	83.201
444.03	84.384
444.39	85.206
444.74	83.461
445.09	83.071
445.44	84.510
445.79	86.398
446.15	84.738
446.50	83.359
446.85	85.165
447.20	84.333
447.55	84.153
447.91	85.026
448.26	84.725
448.61	85.069
448.96	85.998
449.31	84.783
449.66	84.150
450.02	85.443
450.37	84.923
450.72	85.845
451.07	85.592
451.42	86.193
451.77	84.936
452.12	86.795
452.47	85.740
452.83	86.993
453.18	85.698
453.53	84.664
453.88	85.146
454.23	86.158
454.58	86.303
454.93	85.801
455.28	87.116
455.63	87.436
455.98	86.313
456.34	87.161
456.69	86.772
457.04	87.411
457.39	87.361
457.74	86.465
458.09	85.997
458.44	87.177
458.79	85.199
459.14	87.362
459.49	88.059
459.84	87.356
460.19	87.063
460.54	88.586
460.89	89.095
461.24	87.989
461.59	89.043
461.94	88.192
462.29	87.234
462.64	87.145
462.99	87.445
463.34	89.617
463.69	86.166
464.04	89.049
464.39	87.556
464.74	87.457
465.09	87.486
465.44	88.466
465.79	86.621
466.14	86.868
466.49	87.474
466.84	87.438
467.19	87.399
467.54	86.663
467.89	86.379
468.24	86.648
468.59	86.450
468.94	87.762
469.29	87.582
469.64	86.968
469.99	88.591
470.34	90.161
470.68	90.294
471.03	89.325
471.38	89.993
471.73	89.337
472.08	88.959
472.43	88.441
472.78	88.413
473.13	90.392
473.48	89.426
473.83	89.669
474.17	87.866
474.52	90.138
474.87	87.652
475.22	88.845
475.57	88.993
475.92	88.800
476.27	88.871
476.61	88.785
476.96	89.155
477.31	88.465
477.66	89.927
478.01	89.273
478.36	87.039
478.70	89.360
479.05	91.207
479.40	89.931
479.75	88.473
480.10	90.147
480.45	89.152
480.79	89.932
481.14	87.822
481.49	89.596
481.84	88.860
482.19	89.376
482.53	89.506
482.88	90.120
483.23	90.663
483.58	89.869
483.92	87.810
484.27	88.569
484.62	88.078
484.97	88.375
485.31	88.103
485.66	84.229
486.01	82.585
486.36	84.372
486.70	86.529
487.05	87.520
487.40	86.487
487.75	88.117
488.09	88.335
488.44	85.697
488.79	87.858
489.13	88.523
489.48	88.233
489.83	87.968
490.17	89.024
490.52	87.479
490.87	89.171
491.22	91.075
491.56	89.121
491.91	89.359
492.26	89.355
492.60	89.637
492.95	89.294
493.30	90.542
493.64	89.444
493.99	89.123
494.34	89.765
494.68	89.936
495.03	90.617
495.37	90.280
495.72	90.476
496.07	89.702
496.41	90.219
496.76	90.117
497.11	90.743
497.45	89.728
497.80	90.004
498.14	90.975
498.49	89.982
498.84	90.356
499.18	91.003
499.53	91.300
499.87	91.121
500.22	91.763
500.56	90.328
500.91	91.762
501.26	91.591
501.60	90.632
501.95	91.272
502.29	90.873
502.64	91.255
502.98	89.431
503.33	89.330
503.67	90.580
504.02	89.405
504.36	91.108
504.71	91.456
505.06	90.587
505.40	91.088
505.75	89.845
506.09	90.792
506.44	91.597
506.78	91.697
507.13	91.701
507.47	90.857
507.82	89.773
508.16	92.352
508.51	90.295
508.85	93.718
509.19	92.231
509.54	91.210
509.88	90.287
510.23	92.812
510.57	92.170
510.92	91.630
511.26	90.669
511.61	90.101
511.95	90.776
512.30	91.777
512.64	90.855
512.98	91.746
513.33	92.641
513.67	93.524
514.02	93.715
514.36	93.043
514.70	92.969
515.05	92.284
515.39	92.021
515.74	94.857
516.08	93.080
516.42	93.511
516.77	93.060
517.11	92.883
517.46	93.584
517.80	94.281
518.14	95.375
518.49	93.926
518.83	92.336
519.17	93.107
519.52	92.977
519.86	94.562
520.20	93.717
520.55	93.647
520.89	94.595
521.23	93.412
521.58	96.045
521.92	93.994
522.26	93.070
522.61	95.428
522.95	95.329
523.29	96.379
523.64	94.843
523.98	95.265
524.32	95.244
524.66	94.195
525.01	93.318
525.35	92.878
525.69	93.619
526.04	94.030
526.38	94.828
526.72	93.945
527.06	95.718
527.41	95.102
527.75	95.665
528.09	93.920
528.43	93.783
528.78	93.699
529.12	93.979
529.46	94.266
529.80	94.222
530.15	93.739
530.49	95.967
530.83	95.277
531.17	95.998
531.51	95.487
531.86	95.072
532.20	94.634
532.54	93.776
532.88	95.697
533.22	93.695
533.57	93.133
533.91	92.761
534.25	94.064
534.59	94.598
534.93	93.888
535.27	93.239
535.62	94.031
535.96	93.725
536.30	94.418
536.64	94.054
536.98	95.203
537.32	95.062
537.66	95.134
538.01	92.568
538.35	92.935
538.69	93.690
539.03	94.298
539.37	93.816
539.71	93.153
540.05	93.465
540.39	94.193
540.73	92.593
541.07	93.991
541.42	89.309
541.76	90.747
542.10	92.702
542.44	93.423
542.78	93.187
543.12	92.133
543.46	93.040
543.80	92.446
544.14	93.238
544.48	93.085
544.82	92.699
545.16	93.262
545.50	94.608
545.84	95.040
546.18	95.123
546.52	94.841
546.86	94.277
547.20	95.738
547.54	93.633
547.88	93.008
548.22	93.216
548.56	92.920
548.90	94.507
549.24	95.015
549.58	94.700
549.92	94.834
550.26	95.728
550.60	92.342
550.94	93.920
551.28	92.277
551.62	96.496
551.96	91.197
552.30	94.519
552.64	94.213
552.98	94.573
553.32	94.855
553.66	94.920
554.00	94.010
554.34	94.595
554.68	92.770
555.02	93.824
555.36	95.792
555.69	93.338
556.03	93.821
556.37	94.618
556.71	94.547
557.05	93.802
557.39	97.147
557.73	96.301
558.07	96.026
558.41	94.684
558.75	95.740
559.08	94.642
559.42	96.022
559.76	93.351
560.10	93.972
560.44	94.987
560.78	94.062
561.12	94.581
561.45	96.472
561.79	95.116
562.13	95.194
562.47	92.417
562.81	92.911
563.15	94.381
563.48	93.847
563.82	93.349
564.16	93.882
564.50	94.398
564.84	93.628
565.17	93.235
565.51	91.945
565.85	93.587
566.19	93.491
566.52	93.505
566.86	93.945
567.20	91.082
567.54	91.450
567.88	92.864
568.21	92.292
568.55	92.518
568.89	91.512
569.23	89.142
569.56	89.175
569.90	88.881
570.24	87.622
570.57	88.390
570.91	85.701
571.25	85.508
571.59	86.975
571.92	85.768
572.26	85.786
572.60	86.104
572.93	86.028
573.27	85.473
573.61	85.786
573.95	83.734
574.28	84.513
574.62	84.675
574.96	82.775
575.29	82.463
575.63	83.252
575.97	83.808
576.30	83.790
576.64	83.417
576.98	83.394
577.31	83.881
577.65	83.925
577.98	83.415
578.32	82.625
578.66	82.944
578.99	82.941
579.33	83.393
579.67	82.797
580.00	83.075
580.34	82.635
580.67	83.098
581.01	82.713
581.35	82.466
581.68	82.094
582.02	81.922
582.35	83.427
582.69	83.630
583.02	83.442
583.36	84.288
583.70	84.208
584.03	83.177
584.37	84.325
584.70	82.836
585.04	83.562
585.37	82.479
585.71	82.265
586.04	83.355
586.38	83.983
586.72	82.928
587.05	85.035
587.39	84.119
587.72	84.976
588.06	84.188
588.39	84.715
588.73	83.598
589.06	85.102
589.40	86.540
589.73	86.472
590.07	86.141
590.40	86.139
590.73	85.401
591.07	86.597
591.40	86.275
591.74	87.122
592.07	87.739
592.41	86.041
592.74	84.700
593.08	85.127
593.41	85.418
593.75	86.207
594.08	85.822
594.41	86.538
594.75	85.354
595.08	86.171
595.42	86.429
595.75	86.406
596.09	85.835
596.42	86.277
596.75	87.071
597.09	88.444
597.42	87.604
597.75	86.554
598.09	85.873
598.42	85.927
598.76	85.823
599.09	85.902
599.42	83.607
599.76	85.045
600.09	84.484
600.42	85.352
600.76	85.634
601.09	85.032
601.42	84.895
601.76	84.897
602.09	84.918
602.42	85.314
602.76	85.904
603.09	86.968
603.42	85.947
603.76	85.729
604.09	86.622
604.42	86.716
604.76	85.350
605.09	86.478
605.42	85.486
605.75	84.385
606.09	86.301
606.42	84.933
606.75	85.232
607.09	84.524
607.42	85.973
607.75	86.284
608.08	84.964
608.42	84.925
608.75	86.318
609.08	86.375
609.41	86.855
609.75	87.009
610.08	88.522
610.41	85.174
610.74	85.546
611.07	86.945
611.41	86.547
611.74	89.284
612.07	87.190
612.40	89.068
612.73	89.095
613.07	86.601
613.40	87.440
613.73	86.278
614.06	89.009
614.39	86.395
614.72	86.754
615.06	86.622
615.39	85.887
615.72	86.919
616.05	85.381
616.38	88.698
616.71	86.886
617.05	87.859
617.38	87.266
617.71	87.959
618.04	87.588
618.37	89.454
618.70	89.027
619.03	89.606
619.36	90.814
619.69	91.352
620.03	90.082
620.36	89.571
620.69	91.302
621.02	91.732
621.35	94.194
621.68	93.926
622.01	93.025
622.34	91.632
622.67	91.409
623.00	90.283
623.33	91.042
623.66	91.180
623.99	91.113
624.32	91.683
624.65	89.897
624.99	92.718
625.32	92.489
625.65	91.773
625.98	90.644
626.31	93.834
626.64	93.187
626.97	92.198
627.30	93.698
627.63	94.149
627.96	92.417
628.29	92.607
628.62	94.710
628.95	97.634
629.28	95.922
629.61	96.380
629.94	94.059
630.26	93.644
630.59	94.732
630.92	96.277
631.25	96.243
631.58	98.964
631.91	98.219
632.24	98.463
632.57	95.066
632.90	98.796
633.23	100.510
