SpectraSuite Data File
++++++++++++++++++++++++++++++++++++
Date: Thu May 14 14:33:05 PDT 2015
User: schluterlab
Dark Spectrum Present: Yes
Reference Spectrum Present: Yes
Number of Sampled Component Spectra: 1
Spectrometers: USB2E3373
Integration Time (usec): 3000 (USB2E3373)
Spectra Averaged: 3 (USB2E3373)
Boxcar Smoothing: 0 (USB2E3373)
Correct for Electrical Dark: No (USB2E3373)
Strobe/Lamp Enabled: No (USB2E3373)
Correct for Detector Non-linearity: No (USB2E3373)
Correct for Stray Light: No (USB2E3373)
Number of Pixels in Processed Spectrum: 2048
>>>>>Begin Processed Spectral Data<<<<<
178.53	0.000
178.91	-200.000
179.29	1300.000
179.67	1600.000
180.04	-0.000
180.42	-170.000
180.80	-200.000
181.18	1300.000
181.56	2800.000
181.94	-350.000
182.31	450.000
182.69	-733.333
183.07	1200.000
183.45	-300.000
183.83	516.667
184.20	700.000
184.58	-1700.000
184.96	375.000
185.34	244.444
185.72	540.000
186.09	-155.556
186.47	-450.000
186.85	-180.000
187.23	111.111
187.61	600.000
187.98	-440.000
188.36	-350.000
188.74	400.000
189.12	600.000
189.49	225.000
189.87	212.500
190.25	277.778
190.63	440.000
191.00	211.111
191.38	0.000
191.76	300.000
192.14	300.000
192.51	-650.000
192.89	466.667
193.27	0.000
193.65	271.429
194.02	1500.000
194.40	285.714
194.78	-342.857
195.15	0.000
195.53	218.182
195.91	0.000
196.29	575.000
196.66	146.154
197.04	1600.000
197.42	285.714
197.79	1000.000
198.17	262.500
198.55	214.286
198.92	277.778
199.30	262.500
199.68	209.091
200.05	157.143
200.43	1050.000
200.81	-242.857
201.18	0.000
201.56	-55.556
201.94	0.000
202.31	-433.333
202.69	233.333
203.07	-1900.000
203.44	200.000
203.82	275.000
204.19	216.667
204.57	150.000
204.95	275.000
205.32	2200.000
205.70	-525.000
206.08	366.667
206.45	383.333
206.83	-180.000
207.20	316.667
207.58	180.000
207.96	150.000
208.33	383.333
208.71	-150.000
209.08	483.333
209.46	0.000
209.84	-116.667
210.21	-1200.000
210.59	-1250.000
210.96	-433.333
211.34	625.000
211.71	187.500
212.09	1200.000
212.46	0.000
212.84	-700.000
213.22	220.000
213.59	400.000
213.97	280.000
214.34	566.667
214.72	-300.000
215.09	275.000
215.47	0.000
215.84	-228.571
216.22	-850.000
216.59	320.000
216.97	420.000
217.34	550.000
217.72	262.500
218.09	250.000
218.47	400.000
218.84	0.000
219.22	-340.000
219.59	129.412
219.97	100.000
220.34	-650.000
220.72	200.000
221.09	200.000
221.47	600.000
221.84	170.000
222.22	114.286
222.59	0.000
222.97	287.500
223.34	160.000
223.72	1600.000
224.09	375.000
224.46	200.000
224.84	400.000
225.21	457.143
225.59	225.000
225.96	625.000
226.34	103.846
226.71	-16.667
227.08	700.000
227.46	140.000
227.83	375.000
228.21	163.158
228.58	-325.000
228.95	-750.000
229.33	100.000
229.70	260.000
230.08	189.474
230.45	-80.000
230.82	333.333
231.20	207.143
231.57	191.667
231.95	136.364
232.32	209.091
232.69	125.000
233.07	550.000
233.44	117.647
233.81	210.000
234.19	166.667
234.56	145.455
234.93	117.241
235.31	94.737
235.68	116.667
236.05	40.000
236.43	115.385
236.80	160.000
237.17	111.111
237.55	69.697
237.92	170.000
238.29	77.419
238.67	61.364
239.04	69.444
239.41	78.571
239.79	67.391
240.16	61.111
240.53	69.565
240.91	39.216
241.28	52.459
241.65	61.194
242.02	51.351
242.40	41.538
242.77	53.333
243.14	39.024
243.51	30.263
243.89	53.846
244.26	44.554
244.63	44.118
245.00	42.991
245.38	41.228
245.75	31.858
246.12	34.921
246.49	38.760
246.87	39.286
247.24	35.099
247.61	38.816
247.98	32.886
248.36	40.741
248.73	34.356
249.10	35.519
249.47	35.323
249.84	37.696
250.22	34.715
250.59	37.778
250.96	30.455
251.33	29.592
251.70	30.769
252.08	29.583
252.45	30.738
252.82	30.992
253.19	28.906
253.56	33.080
253.94	27.308
254.31	32.197
254.68	32.867
255.05	27.687
255.42	30.272
255.79	26.861
256.16	31.126
256.54	28.477
256.91	31.803
257.28	28.852
257.65	30.892
258.02	24.484
258.39	29.060
258.76	33.028
259.14	33.333
259.51	27.954
259.88	29.462
260.25	28.056
260.62	27.945
260.99	33.333
261.36	30.027
261.73	28.117
262.10	29.121
262.47	31.635
262.85	31.313
263.22	27.273
263.59	27.368
263.96	30.691
264.33	25.575
264.70	31.605
265.07	28.401
265.44	30.385
265.81	28.009
266.18	30.159
266.55	27.902
266.92	27.790
267.29	28.228
267.66	28.160
268.03	29.258
268.40	29.019
268.77	26.196
269.14	26.211
269.51	28.728
269.88	30.533
270.25	27.163
270.62	26.793
270.99	30.707
271.36	26.139
271.73	28.487
272.10	30.261
272.47	25.050
272.84	27.108
273.21	26.253
273.58	27.218
273.95	26.731
274.32	25.475
274.69	25.725
275.06	24.542
275.43	23.290
275.80	27.160
276.17	27.037
276.54	27.799
276.91	25.581
277.28	26.763
277.65	27.289
278.02	26.471
278.39	26.268
278.76	26.362
279.13	25.532
279.50	26.460
279.87	28.623
280.23	23.063
280.60	26.780
280.97	25.000
281.34	24.958
281.71	25.888
282.08	24.751
282.45	25.859
282.82	24.647
283.19	23.748
283.56	25.246
283.92	24.625
284.29	26.856
284.66	27.586
285.03	22.917
285.40	25.348
285.77	24.458
286.14	26.412
286.51	25.266
286.87	24.013
287.24	24.548
287.61	23.916
287.98	24.169
288.35	23.077
288.72	22.633
289.08	22.694
289.45	21.006
289.82	23.343
290.19	23.132
290.56	22.817
290.93	21.683
291.29	23.140
291.66	22.865
292.03	23.066
292.40	23.537
292.77	20.216
293.13	21.245
293.50	22.076
293.87	21.879
294.24	22.933
294.60	22.630
294.97	21.208
295.34	22.151
295.71	20.177
296.08	20.284
296.44	21.078
296.81	19.123
297.18	20.548
297.55	21.698
297.91	19.692
298.28	19.550
298.65	19.144
299.02	18.654
299.38	19.451
299.75	19.977
300.12	18.287
300.48	18.664
300.85	20.472
301.22	19.351
301.59	18.493
301.95	19.209
302.32	19.889
302.69	18.510
303.05	19.151
303.42	18.182
303.79	18.125
304.15	18.822
304.52	18.499
304.89	19.895
305.25	18.737
305.62	20.272
305.99	19.794
306.35	17.540
306.72	19.131
307.09	17.360
307.45	18.737
307.82	19.374
308.19	17.558
308.55	18.997
308.92	19.279
309.29	19.923
309.65	17.836
310.02	19.109
310.38	18.307
310.75	18.544
311.12	19.847
311.48	19.062
311.85	20.608
312.22	19.829
312.58	18.779
312.95	20.076
313.31	19.693
313.68	20.330
314.05	20.777
314.41	20.583
314.78	21.253
315.14	20.690
315.51	21.884
315.87	20.162
316.24	21.918
316.61	22.114
316.97	20.543
317.34	21.164
317.70	22.707
318.07	22.487
318.43	22.874
318.80	24.080
319.16	24.549
319.53	21.851
319.89	22.962
320.26	24.377
320.62	24.291
320.99	25.946
321.35	26.155
321.72	26.047
322.08	24.617
322.45	25.565
322.81	26.354
323.18	25.221
323.54	26.466
323.91	28.203
324.27	26.506
324.64	27.960
325.00	27.363
325.37	27.846
325.73	27.934
326.10	28.629
326.46	29.560
326.83	30.184
327.19	28.976
327.56	30.988
327.92	29.976
328.29	29.274
328.65	31.072
329.01	30.034
329.38	31.003
329.74	31.336
330.11	31.336
330.47	30.834
330.84	31.955
331.20	31.583
331.56	31.629
331.93	31.799
332.29	32.627
332.66	32.392
333.02	32.747
333.38	33.138
333.75	32.828
334.11	32.777
334.48	34.323
334.84	32.710
335.20	33.333
335.57	33.558
335.93	33.306
336.29	33.611
336.66	33.474
337.02	32.274
337.38	33.503
337.75	33.058
338.11	33.305
338.47	34.160
338.84	33.333
339.20	32.603
339.56	33.773
339.93	33.580
340.29	33.092
340.65	32.603
341.02	34.238
341.38	34.276
341.74	33.737
342.11	33.950
342.47	32.804
342.83	34.138
343.20	34.342
343.56	34.563
343.92	33.227
344.28	33.906
344.65	33.411
345.01	33.541
345.37	34.448
345.73	32.736
346.10	34.711
346.46	34.256
346.82	34.082
347.19	33.766
347.55	33.536
347.91	34.695
348.27	33.991
348.63	35.187
349.00	33.184
349.36	33.829
349.72	34.524
350.08	33.730
350.45	33.764
350.81	34.917
351.17	33.759
351.53	35.254
351.89	33.637
352.26	33.881
352.62	34.925
352.98	34.427
353.34	33.981
353.70	34.977
354.07	34.352
354.43	35.004
354.79	33.508
355.15	34.879
355.51	34.795
355.87	34.480
356.24	33.916
356.60	34.146
356.96	35.360
357.32	34.275
357.68	33.968
358.04	34.805
358.40	34.925
358.77	34.576
359.13	35.229
359.49	34.944
359.85	34.663
360.21	34.935
360.57	34.673
360.93	34.838
361.29	35.789
361.66	35.192
362.02	36.256
362.38	36.191
362.74	35.405
363.10	35.970
363.46	35.319
363.82	36.577
364.18	36.242
364.54	36.169
364.90	36.187
365.26	36.414
365.62	36.000
365.98	36.011
366.35	35.436
366.71	36.871
367.07	37.145
367.43	36.638
367.79	37.890
368.15	37.391
368.51	37.145
368.87	36.055
369.23	36.467
369.59	37.568
369.95	37.390
370.31	38.285
370.67	37.827
371.03	37.673
371.39	36.535
371.75	38.721
372.11	37.940
372.47	38.524
372.83	38.089
373.19	38.959
373.55	37.737
373.91	37.969
374.27	37.646
374.63	39.783
374.99	39.390
375.35	40.195
375.71	39.935
376.07	39.445
376.42	39.421
376.78	41.392
377.14	39.863
377.50	41.429
377.86	41.502
378.22	41.796
378.58	41.736
378.94	41.608
379.30	41.652
379.66	42.446
380.02	43.335
380.38	43.145
380.74	42.592
381.09	43.380
381.45	44.034
381.81	45.023
382.17	42.874
382.53	43.684
382.89	43.454
383.25	45.897
383.61	45.370
383.97	44.935
384.32	46.232
384.68	45.824
385.04	46.038
385.40	46.022
385.76	46.717
386.12	46.559
386.48	47.588
386.83	47.914
387.19	47.625
387.55	47.535
387.91	48.174
388.27	47.979
388.62	47.881
388.98	47.265
389.34	49.087
389.70	49.157
390.06	48.017
390.42	49.337
390.77	49.849
391.13	49.648
391.49	51.993
391.85	50.545
392.20	50.771
392.56	49.970
392.92	50.273
393.28	50.415
393.64	49.665
393.99	51.772
394.35	51.285
394.71	50.299
395.07	52.695
395.42	50.885
395.78	52.651
396.14	52.585
396.50	51.900
396.85	52.892
397.21	51.834
397.57	52.238
397.92	52.520
398.28	51.385
398.64	51.201
399.00	51.414
399.35	52.147
399.71	51.848
400.07	53.622
400.42	52.910
400.78	53.646
401.14	53.557
401.49	53.894
401.85	54.593
402.21	55.272
402.57	54.343
402.92	54.137
403.28	53.923
403.63	54.475
403.99	53.919
404.35	54.179
404.70	53.598
405.06	52.772
405.42	54.742
405.77	55.344
406.13	55.105
406.49	55.011
406.84	54.958
407.20	54.164
407.55	54.694
407.91	56.191
408.27	55.418
408.62	55.963
408.98	54.556
409.34	55.953
409.69	55.995
410.05	55.451
410.40	56.381
410.76	55.468
411.11	57.276
411.47	55.897
411.83	57.025
412.18	56.627
412.54	55.661
412.89	56.519
413.25	55.587
413.60	56.519
413.96	56.876
414.31	55.127
414.67	57.245
415.03	56.677
415.38	57.125
415.74	56.872
416.09	57.372
416.45	56.230
416.80	56.120
417.16	57.599
417.51	57.659
417.87	56.959
418.22	57.425
418.58	56.939
418.93	57.159
419.29	58.385
419.64	56.783
420.00	57.151
420.35	57.608
420.71	57.840
421.06	57.447
421.42	57.798
421.77	57.189
422.12	57.505
422.48	57.040
422.83	58.434
423.19	56.923
423.54	58.352
423.90	58.476
424.25	58.400
424.61	57.922
424.96	57.386
425.31	58.705
425.67	58.884
426.02	58.052
426.38	58.496
426.73	58.705
427.09	59.689
427.44	58.875
427.79	58.596
428.15	59.475
428.50	59.157
428.85	58.094
429.21	59.043
429.56	59.724
429.92	58.280
430.27	59.663
430.62	58.720
430.98	58.534
431.33	57.869
431.68	58.238
432.04	58.253
432.39	59.239
432.74	59.532
433.10	59.924
433.45	58.974
433.80	59.120
434.16	59.298
434.51	60.175
434.86	59.338
435.22	60.361
435.57	60.554
435.92	60.490
436.28	60.637
436.63	60.459
436.98	59.742
437.34	60.767
437.69	59.218
438.04	59.387
438.39	60.999
438.75	60.598
439.10	61.152
439.45	60.145
439.81	60.000
440.16	59.357
440.51	61.037
440.86	58.310
441.22	60.397
441.57	62.474
441.92	60.233
442.27	61.162
442.63	60.159
442.98	60.672
443.33	60.126
443.68	60.803
444.03	61.900
444.39	60.888
444.74	60.031
445.09	59.199
445.44	61.275
445.79	61.446
446.15	60.586
446.50	61.654
446.85	60.944
447.20	60.880
447.55	60.565
447.91	60.576
448.26	60.624
448.61	59.989
448.96	62.446
449.31	59.915
449.66	61.111
450.02	60.390
450.37	60.416
450.72	60.603
451.07	59.567
451.42	61.641
451.77	59.589
452.12	61.287
452.47	60.844
452.83	61.374
453.18	59.778
453.53	62.033
453.88	60.906
454.23	62.203
454.58	61.753
454.93	61.711
455.28	60.807
455.63	61.171
455.98	61.620
456.34	61.013
456.69	61.611
457.04	61.820
457.39	59.812
457.74	62.472
458.09	60.516
458.44	60.884
458.79	60.392
459.14	60.566
459.49	61.969
459.84	60.178
460.19	59.634
460.54	61.499
460.89	61.938
461.24	61.264
461.59	61.871
461.94	61.495
462.29	61.198
462.64	60.652
462.99	61.268
463.34	61.648
463.69	60.844
464.04	60.812
464.39	61.155
464.74	59.692
465.09	60.554
465.44	61.105
465.79	60.656
466.14	60.917
466.49	60.737
466.84	61.543
467.19	60.983
467.54	60.400
467.89	59.770
468.24	59.058
468.59	59.004
468.94	59.907
469.29	59.928
469.64	61.411
469.99	60.931
470.34	60.334
470.68	61.039
471.03	61.428
471.38	61.151
471.73	60.988
472.08	61.041
472.43	61.650
472.78	60.957
473.13	60.430
473.48	60.967
473.83	60.998
474.17	60.199
474.52	59.952
474.87	60.908
475.22	60.620
475.57	59.190
475.92	60.478
476.27	59.212
476.61	59.969
476.96	59.593
477.31	60.050
477.66	60.336
478.01	60.193
478.36	59.023
478.70	60.394
479.05	60.838
479.40	60.760
479.75	59.606
480.10	60.114
480.45	59.253
480.79	59.864
481.14	59.926
481.49	60.018
481.84	59.878
482.19	59.742
482.53	59.379
482.88	60.833
483.23	60.249
483.58	60.349
483.92	59.397
484.27	58.764
484.62	58.705
484.97	59.565
485.31	60.120
485.66	60.032
486.01	59.169
486.36	59.437
486.70	58.927
487.05	58.776
487.40	58.486
487.75	58.728
488.09	58.495
488.44	57.922
488.79	59.022
489.13	59.269
489.48	58.641
489.83	58.592
490.17	57.351
490.52	57.923
490.87	59.137
491.22	58.882
491.56	59.556
491.91	58.657
492.26	58.979
492.60	58.723
492.95	59.280
493.30	58.853
493.64	58.914
493.99	58.289
494.34	58.667
494.68	58.758
495.03	58.722
495.37	59.876
495.72	58.685
496.07	58.633
496.41	58.945
496.76	59.133
497.11	58.981
497.45	58.136
497.80	57.885
498.14	57.642
498.49	58.778
498.84	59.598
499.18	59.334
499.53	58.386
499.87	59.516
500.22	58.905
500.56	58.435
500.91	58.719
501.26	59.045
501.60	58.153
501.95	59.053
502.29	59.193
502.64	59.685
502.98	57.506
503.33	58.661
503.67	57.741
504.02	58.012
504.36	58.266
504.71	59.118
505.06	57.890
505.40	58.455
505.75	58.698
506.09	58.840
506.44	58.774
506.78	59.083
507.13	58.322
507.47	58.598
507.82	58.333
508.16	58.891
508.51	58.228
508.85	58.668
509.19	58.171
509.54	58.069
509.88	59.155
510.23	58.864
510.57	59.256
510.92	58.104
511.26	57.431
511.61	56.639
511.95	57.199
512.30	59.133
512.64	57.271
512.98	57.979
513.33	59.173
513.67	57.777
514.02	58.508
514.36	58.261
514.70	58.646
515.05	58.394
515.39	58.425
515.74	58.749
516.08	58.162
516.42	58.870
516.77	59.148
517.11	57.298
517.46	59.014
517.80	58.418
518.14	59.630
518.49	59.219
518.83	58.595
519.17	57.566
519.52	58.229
519.86	57.656
520.20	57.401
520.55	57.667
520.89	57.939
521.23	56.951
521.58	58.814
521.92	57.847
522.26	57.904
522.61	59.086
522.95	58.016
523.29	59.425
523.64	57.679
523.98	58.585
524.32	60.115
524.66	59.476
525.01	57.418
525.35	57.553
525.69	58.063
526.04	56.831
526.38	57.586
526.72	57.728
527.06	58.358
527.41	58.950
527.75	58.314
528.09	59.327
528.43	57.904
528.78	57.688
529.12	58.830
529.46	58.347
529.80	58.867
530.15	58.783
530.49	59.846
530.83	58.737
531.17	58.722
531.51	57.942
531.86	58.534
532.20	58.049
532.54	57.510
532.88	59.455
533.22	56.924
533.57	58.107
533.91	58.193
534.25	58.168
534.59	58.908
534.93	57.385
535.27	58.535
535.62	58.613
535.96	58.861
536.30	57.991
536.64	58.438
536.98	59.164
537.32	58.580
537.66	58.016
538.01	57.341
538.35	58.222
538.69	59.014
539.03	58.860
539.37	57.774
539.71	57.718
540.05	57.314
540.39	58.007
540.73	57.681
541.07	59.227
541.42	56.409
541.76	58.007
542.10	58.384
542.44	58.648
542.78	57.786
543.12	57.688
543.46	55.922
543.80	57.794
544.14	57.630
544.48	58.983
544.82	58.947
545.16	58.795
545.50	57.340
545.84	57.991
546.18	58.580
546.52	58.153
546.86	56.478
547.20	58.079
547.54	56.991
547.88	58.409
548.22	56.667
548.56	57.929
548.90	57.970
549.24	57.751
549.58	57.666
549.92	58.355
550.26	57.799
550.60	58.073
550.94	59.120
551.28	58.086
551.62	58.356
551.96	57.023
552.30	58.190
552.64	58.370
552.98	58.203
553.32	58.457
553.66	59.486
554.00	58.134
554.34	58.044
554.68	57.134
555.02	57.424
555.36	58.448
555.69	57.783
556.03	59.332
556.37	58.698
556.71	57.387
557.05	58.211
557.39	59.788
557.73	58.190
558.07	58.411
558.41	58.206
558.75	58.824
559.08	58.038
559.42	57.545
559.76	57.123
560.10	57.535
560.44	59.235
560.78	57.750
561.12	59.544
561.45	58.394
561.79	58.425
562.13	59.643
562.47	57.830
562.81	58.481
563.15	57.639
563.48	57.551
563.82	58.585
564.16	58.268
564.50	58.701
564.84	58.702
565.17	58.471
565.51	57.710
565.85	58.789
566.19	57.604
566.52	57.987
566.86	58.291
567.20	57.368
567.54	58.258
567.88	57.492
568.21	58.202
568.55	57.362
568.89	58.375
569.23	58.090
569.56	57.249
569.90	57.876
570.24	58.415
570.57	57.537
570.91	57.226
571.25	56.783
571.59	57.863
571.92	57.036
572.26	57.253
572.60	56.811
572.93	56.666
573.27	56.308
573.61	56.326
573.95	58.000
574.28	56.762
574.62	57.640
574.96	56.198
575.29	56.290
575.63	55.925
575.97	57.078
576.30	56.008
576.64	56.550
576.98	56.697
577.31	57.337
577.65	57.222
577.98	56.947
578.32	56.996
578.66	56.295
578.99	56.564
579.33	56.892
579.67	56.301
580.00	56.417
580.34	56.283
580.67	56.267
581.01	56.426
581.35	56.361
581.68	56.823
582.02	57.101
582.35	57.793
582.69	56.928
583.02	56.943
583.36	56.357
583.70	56.692
584.03	56.827
584.37	56.900
584.70	56.650
585.04	56.731
585.37	57.269
585.71	56.980
586.04	56.627
586.38	56.755
586.72	56.631
587.05	57.483
587.39	56.894
587.72	57.129
588.06	57.785
588.39	56.510
588.73	56.852
589.06	57.026
589.40	57.253
589.73	57.519
590.07	57.692
590.40	57.167
590.73	57.476
591.07	57.893
591.40	57.271
591.74	57.075
592.07	57.775
592.41	57.256
592.74	57.366
593.08	57.516
593.41	57.305
593.75	56.724
594.08	58.164
594.41	57.372
594.75	57.190
595.08	57.974
595.42	58.182
595.75	57.217
596.09	57.574
596.42	57.005
596.75	56.928
597.09	58.020
597.42	57.529
597.75	55.939
598.09	57.183
598.42	56.655
598.76	57.279
599.09	56.355
599.42	56.219
599.76	56.553
600.09	57.457
600.42	56.823
600.76	56.869
601.09	56.190
601.42	56.608
601.76	56.276
602.09	57.577
602.42	56.125
602.76	56.421
603.09	57.416
603.42	58.815
603.76	57.611
604.09	58.517
604.42	58.752
604.76	57.306
605.09	56.362
605.42	57.257
605.75	57.423
606.09	57.186
606.42	56.330
606.75	57.121
607.09	56.528
607.42	57.495
607.75	57.327
608.08	58.011
608.42	56.792
608.75	57.587
609.08	57.003
609.41	56.286
609.75	57.634
610.08	57.388
610.41	57.434
610.74	58.151
611.07	58.437
611.41	58.027
611.74	57.737
612.07	57.363
612.40	57.510
612.73	58.484
613.07	57.848
613.40	57.603
613.73	57.390
614.06	57.949
614.39	56.948
614.72	57.351
615.06	57.748
615.39	57.999
615.72	57.915
616.05	57.407
616.38	58.174
616.71	57.889
617.05	57.242
617.38	57.410
617.71	56.911
618.04	58.068
618.37	58.470
618.70	58.032
619.03	57.527
619.36	57.522
619.69	58.296
620.03	59.071
620.36	57.669
620.69	58.297
621.02	59.121
621.35	61.321
621.68	58.785
622.01	58.292
622.34	58.020
622.67	58.282
623.00	57.962
623.33	60.385
623.66	59.533
623.99	59.447
624.32	59.324
624.65	57.979
624.99	59.233
625.32	59.634
625.65	59.272
625.98	57.627
626.31	58.186
626.64	58.022
626.97	59.865
627.30	58.846
627.63	58.365
627.96	59.084
628.29	58.054
628.62	57.515
628.95	58.457
629.28	60.663
629.61	59.764
629.94	59.331
630.26	58.305
630.59	59.413
630.92	61.126
631.25	59.213
631.58	59.793
631.91	59.513
632.24	59.942
632.57	58.918
