SpectraSuite Data File
++++++++++++++++++++++++++++++++++++
Date: Thu May 14 14:45:42 PDT 2015
User: schluterlab
Dark Spectrum Present: Yes
Reference Spectrum Present: Yes
Number of Sampled Component Spectra: 1
Spectrometers: USB2E3373
Integration Time (usec): 3000 (USB2E3373)
Spectra Averaged: 3 (USB2E3373)
Boxcar Smoothing: 0 (USB2E3373)
Correct for Electrical Dark: No (USB2E3373)
Strobe/Lamp Enabled: No (USB2E3373)
Correct for Detector Non-linearity: No (USB2E3373)
Correct for Stray Light: No (USB2E3373)
Number of Pixels in Processed Spectrum: 2048
>>>>>Begin Processed Spectral Data<<<<<
178.53	0.000
178.91	-0.000
179.29	-600.000
179.67	300.000
180.04	100.000
180.42	90.000
180.80	-0.000
181.18	-400.000
181.56	100.000
181.94	300.000
182.31	-125.000
182.69	66.667
183.07	-200.000
183.45	-225.000
183.83	-16.667
184.20	100.000
184.58	300.000
184.96	-325.000
185.34	-33.333
185.72	-160.000
186.09	66.667
186.47	50.000
186.85	120.000
187.23	-88.889
187.61	-300.000
187.98	220.000
188.36	175.000
188.74	-50.000
189.12	66.667
189.49	25.000
189.87	-12.500
190.25	22.222
190.63	80.000
191.00	-44.444
191.38	0.000
191.76	-200.000
192.14	133.333
192.51	350.000
192.89	133.333
193.27	0.000
193.65	71.429
194.02	-900.000
194.40	-114.286
194.78	-14.286
195.15	0.000
195.53	36.364
195.91	0.000
196.29	-50.000
196.66	61.538
197.04	500.000
197.42	-42.857
197.79	50.000
198.17	62.500
198.55	0.000
198.92	122.222
199.30	-50.000
199.68	45.455
200.05	64.286
200.43	-350.000
200.81	71.429
201.18	0.000
201.56	200.000
201.94	0.000
202.31	300.000
202.69	22.222
203.07	-400.000
203.44	55.556
203.82	-175.000
204.19	-41.667
204.57	0.000
204.95	-12.500
205.32	-600.000
205.70	50.000
206.08	50.000
206.45	-50.000
206.83	140.000
207.20	33.333
207.58	-160.000
207.96	-133.333
208.33	-66.667
208.71	50.000
209.08	150.000
209.46	0.000
209.84	33.333
210.21	-100.000
210.59	-200.000
210.96	166.667
211.34	225.000
211.71	12.500
212.09	-200.000
212.46	0.000
212.84	400.000
213.22	-140.000
213.59	125.000
213.97	30.000
214.34	166.667
214.72	-83.333
215.09	-75.000
215.47	0.000
215.84	71.429
216.22	-50.000
216.59	180.000
216.97	-20.000
217.34	125.000
217.72	-12.500
218.09	-225.000
218.47	-225.000
218.84	0.000
219.22	-20.000
219.59	-5.882
219.97	65.000
220.34	600.000
220.72	22.222
221.09	61.538
221.47	100.000
221.84	-20.000
222.22	-128.571
222.59	0.000
222.97	175.000
223.34	-80.000
223.72	100.000
224.09	-50.000
224.46	-75.000
224.84	100.000
225.21	-14.286
225.59	-125.000
225.96	25.000
226.34	3.846
226.71	166.667
227.08	-350.000
227.46	13.333
227.83	0.000
228.21	31.579
228.58	-125.000
228.95	150.000
229.33	91.667
229.70	80.000
230.08	47.368
230.45	50.000
230.82	-33.333
231.20	28.571
231.57	0.000
231.95	-45.455
232.32	72.727
232.69	0.000
233.07	-200.000
233.44	23.529
233.81	60.000
234.19	38.889
234.56	31.818
234.93	41.379
235.31	21.053
235.68	66.667
236.05	-10.000
236.43	38.462
236.80	40.000
237.17	40.741
237.55	18.182
237.92	-40.000
238.29	6.452
238.67	0.000
239.04	-11.111
239.41	16.667
239.79	6.522
240.16	20.370
240.53	19.565
240.91	-13.725
241.28	3.279
241.65	19.403
242.02	22.973
242.40	9.231
242.77	4.000
243.14	7.317
243.51	5.263
243.89	7.692
244.26	22.772
244.63	15.686
245.00	15.888
245.38	10.526
245.75	-4.425
246.12	15.079
246.49	4.651
246.87	10.714
247.24	13.245
247.61	17.105
247.98	8.725
248.36	12.963
248.73	1.227
249.10	10.383
249.47	14.925
249.84	15.707
250.22	10.881
250.59	15.000
250.96	12.727
251.33	9.694
251.70	8.547
252.08	12.083
252.45	10.246
252.82	13.223
253.19	8.203
253.56	13.688
253.94	10.000
254.31	10.227
254.68	14.685
255.05	14.332
255.42	7.823
255.79	10.032
256.16	8.940
256.54	8.278
256.91	10.820
257.28	10.164
257.65	7.962
258.02	8.260
258.39	13.105
258.76	11.621
259.14	12.931
259.51	8.934
259.88	12.181
260.25	8.056
260.62	12.055
260.99	12.568
261.36	9.651
261.73	11.406
262.10	10.440
262.47	11.528
262.85	11.869
263.22	7.273
263.59	9.211
263.96	12.276
264.33	10.230
264.70	11.111
265.07	15.990
265.44	12.925
265.81	12.500
266.18	9.977
266.55	10.491
266.92	7.289
267.29	12.691
267.66	9.756
268.03	10.480
268.40	10.647
268.77	8.884
269.14	8.150
269.51	10.526
269.88	10.451
270.25	11.066
270.62	9.494
270.99	12.727
271.36	11.485
271.73	10.216
272.10	9.419
272.47	9.218
272.84	10.241
273.21	11.824
273.58	12.903
273.95	8.462
274.32	10.837
274.69	9.091
275.06	10.440
275.43	9.242
275.80	11.640
276.17	7.222
276.54	10.261
276.91	10.733
277.28	10.307
277.65	10.413
278.02	11.581
278.39	10.507
278.76	10.018
279.13	9.752
279.50	10.481
279.87	10.733
280.23	7.042
280.60	9.831
280.97	9.704
281.34	10.526
281.71	11.675
282.08	8.638
282.45	8.838
282.82	9.419
283.19	8.885
283.56	8.033
283.92	10.811
284.29	11.374
284.66	9.688
285.03	10.096
285.40	10.355
285.77	8.514
286.14	10.229
286.51	9.285
286.87	8.373
287.24	9.036
287.61	8.371
287.98	10.121
288.35	9.172
288.72	8.432
289.08	10.835
289.45	8.284
289.82	8.434
290.19	8.333
290.56	9.718
290.93	7.989
291.29	9.229
291.66	8.953
292.03	8.955
292.40	10.612
292.77	9.299
293.13	8.525
293.50	7.359
293.87	7.919
294.24	10.933
294.60	10.493
294.97	6.711
295.34	8.963
295.71	10.467
296.08	8.915
296.44	9.314
296.81	9.013
297.18	8.717
297.55	7.665
297.91	7.829
298.28	6.754
298.65	7.491
299.02	9.327
299.38	9.611
299.75	8.879
300.12	6.829
300.48	8.756
300.85	9.449
301.22	9.732
301.59	9.361
301.95	8.249
302.32	9.556
302.69	8.762
303.05	10.337
303.42	9.867
303.79	8.229
304.15	8.517
304.52	7.294
304.89	10.366
305.25	8.489
305.62	9.091
305.99	10.412
306.35	9.073
306.72	10.031
307.09	8.731
307.45	9.834
307.82	11.201
308.19	9.082
308.55	9.836
308.92	9.153
309.29	9.387
309.65	9.064
310.02	9.604
310.38	10.630
310.75	10.485
311.12	10.067
311.48	10.557
311.85	10.636
312.22	9.298
312.58	10.704
312.95	9.943
313.31	11.292
313.68	12.179
314.05	11.382
314.41	12.477
314.78	11.898
315.14	12.341
315.51	12.742
315.87	13.591
316.24	14.247
316.61	14.121
316.97	13.846
317.34	13.933
317.70	14.236
318.07	15.344
318.43	14.966
318.80	16.221
319.16	15.708
319.53	16.538
319.89	16.126
320.26	17.260
320.62	17.199
320.99	18.006
321.35	18.392
321.72	19.814
322.08	18.756
322.45	19.332
322.81	19.314
323.18	19.735
323.54	20.086
323.91	20.730
324.27	20.998
324.64	21.662
325.00	19.900
325.37	20.885
325.73	21.570
326.10	22.871
326.46	23.046
326.83	22.818
327.19	22.992
327.56	24.190
327.92	24.233
328.29	23.710
328.65	24.288
329.01	24.788
329.38	25.190
329.74	26.284
330.11	26.969
330.47	26.959
330.84	26.098
331.20	26.750
331.56	28.250
331.93	28.536
332.29	27.627
332.66	29.236
333.02	27.722
333.38	26.678
333.75	28.030
334.11	28.607
334.48	28.630
334.84	29.652
335.20	29.471
335.57	29.764
335.93	30.083
336.29	28.369
336.66	27.754
337.02	29.933
337.38	28.912
337.75	29.339
338.11	30.193
338.47	28.371
338.84	29.695
339.20	29.739
339.56	28.830
339.93	30.049
340.29	29.388
340.65	29.116
341.02	29.928
341.38	30.315
341.74	30.428
342.11	30.088
342.47	30.739
342.83	30.032
343.20	30.335
343.56	29.431
343.92	30.104
344.28	29.531
344.65	31.240
345.01	28.939
345.37	31.026
345.73	30.320
346.10	31.279
346.46	30.459
346.82	30.037
347.19	30.099
347.55	30.197
347.91	31.278
348.27	30.501
348.63	31.379
349.00	30.127
349.36	30.186
349.72	30.208
350.08	30.386
350.45	30.114
350.81	30.694
351.17	31.429
351.53	31.463
351.89	31.207
352.26	30.522
352.62	30.821
352.98	31.069
353.34	31.367
353.70	31.895
354.07	30.179
354.43	30.144
354.79	29.768
355.15	29.875
355.51	30.702
355.87	30.740
356.24	31.711
356.60	31.633
356.96	31.357
357.32	30.855
357.68	31.625
358.04	31.063
358.40	32.313
358.77	30.775
359.13	30.724
359.49	30.706
359.85	31.109
360.21	31.133
360.57	30.581
360.93	31.805
361.29	32.070
361.66	31.933
362.02	32.637
362.38	32.607
362.74	33.450
363.10	32.531
363.46	31.856
363.82	31.534
364.18	33.216
364.54	31.881
364.90	32.441
365.26	33.517
365.62	33.333
365.98	34.173
366.35	32.483
366.71	32.925
367.07	33.491
367.43	33.552
367.79	33.378
368.15	34.849
368.51	33.897
368.87	33.965
369.23	33.800
369.59	34.358
369.95	33.874
370.31	34.841
370.67	34.457
371.03	34.972
371.39	33.378
371.75	34.388
372.11	35.230
372.47	33.920
372.83	34.948
373.19	34.623
373.55	34.350
373.91	34.833
374.27	34.605
374.63	35.386
374.99	35.345
375.35	35.649
375.71	36.710
376.07	36.346
376.42	36.209
376.78	35.550
377.14	35.995
377.50	36.116
377.86	37.746
378.22	37.665
378.58	37.515
378.94	36.444
379.30	37.493
379.66	38.036
380.02	37.450
380.38	38.249
380.74	38.254
381.09	39.489
381.45	38.807
381.81	40.164
382.17	39.430
382.53	39.649
382.89	38.375
383.25	40.914
383.61	39.178
383.97	40.165
384.32	41.328
384.68	40.197
385.04	41.180
385.40	41.485
385.76	42.732
386.12	41.472
386.48	42.824
386.83	43.445
387.19	41.599
387.55	41.901
387.91	42.237
388.27	42.898
388.62	42.383
388.98	42.583
389.34	42.074
389.70	43.405
390.06	43.043
390.42	43.313
390.77	43.528
391.13	43.427
391.49	43.720
391.85	43.576
392.20	43.416
392.56	42.882
392.92	44.002
393.28	44.721
393.64	44.413
393.99	44.741
394.35	45.269
394.71	45.629
395.07	45.269
395.42	44.660
395.78	45.948
396.14	45.395
396.50	44.715
396.85	44.425
397.21	45.680
397.57	44.641
397.92	45.647
398.28	45.030
398.64	44.508
399.00	44.031
399.35	45.864
399.71	45.707
400.07	46.154
400.42	45.984
400.78	46.123
401.14	45.987
401.49	46.049
401.85	47.384
402.21	46.524
402.57	47.359
402.92	46.513
403.28	46.136
403.63	46.301
403.99	46.496
404.35	45.992
404.70	46.119
405.06	45.598
405.42	46.136
405.77	46.619
406.13	46.894
406.49	46.227
406.84	45.651
407.20	46.730
407.55	46.154
407.91	46.763
408.27	45.760
408.62	47.586
408.98	46.605
409.34	45.865
409.69	45.921
410.05	46.659
410.40	47.332
410.76	46.495
411.11	47.750
411.47	45.946
411.83	46.972
412.18	47.590
412.54	48.429
412.89	47.730
413.25	47.630
413.60	47.099
413.96	47.902
414.31	46.686
414.67	46.094
415.03	46.769
415.38	48.739
415.74	47.770
416.09	47.563
416.45	46.838
416.80	45.532
417.16	48.020
417.51	48.319
417.87	48.253
418.22	48.623
418.58	47.770
418.93	48.487
419.29	49.753
419.64	47.359
420.00	48.131
420.35	48.624
420.71	48.191
421.06	47.211
421.42	49.713
421.77	47.496
422.12	47.199
422.48	48.285
422.83	49.398
423.19	48.435
423.54	49.281
423.90	49.310
424.25	50.347
424.61	48.335
424.96	48.874
425.31	49.416
425.67	48.792
426.02	49.972
426.38	49.770
426.73	49.609
427.09	49.827
427.44	49.317
427.79	50.636
428.15	49.258
428.50	49.944
428.85	50.459
429.21	49.681
429.56	49.951
429.92	50.565
430.27	49.976
430.62	50.024
430.98	50.369
431.33	50.196
431.68	50.575
432.04	51.498
432.39	50.616
432.74	49.829
433.10	51.650
433.45	50.613
433.80	50.429
434.16	51.136
434.51	52.775
434.86	52.226
435.22	52.816
435.57	52.889
435.92	51.586
436.28	52.162
436.63	52.649
436.98	51.583
437.34	52.649
437.69	52.614
438.04	51.507
438.39	52.154
438.75	52.131
439.10	52.167
439.45	52.655
439.81	53.955
440.16	52.011
440.51	52.731
440.86	52.863
441.22	52.519
441.57	53.407
441.92	52.522
442.27	54.192
442.63	52.707
442.98	53.042
443.33	53.551
443.68	53.370
444.03	54.892
444.39	52.196
444.74	53.241
445.09	53.320
445.44	53.952
445.79	54.550
446.15	53.905
446.50	54.057
446.85	54.669
447.20	53.433
447.55	54.603
447.91	53.822
448.26	53.858
448.61	53.560
448.96	54.882
449.31	53.234
449.66	53.268
450.02	54.800
450.37	53.703
450.72	54.198
451.07	54.271
451.42	54.882
451.77	54.808
452.12	54.853
452.47	53.773
452.83	56.813
453.18	54.641
453.53	55.198
453.88	54.114
454.23	54.972
454.58	55.427
454.93	55.461
455.28	56.472
455.63	54.292
455.98	55.642
456.34	55.477
456.69	54.615
457.04	57.447
457.39	55.044
457.74	55.705
458.09	55.354
458.44	55.550
458.79	54.667
459.14	53.644
459.49	56.310
459.84	55.771
460.19	55.136
460.54	57.070
460.89	56.432
461.24	54.943
461.59	56.447
461.94	54.250
462.29	56.159
462.64	55.281
462.99	56.309
463.34	56.846
463.69	54.455
464.04	56.587
464.39	56.951
464.74	54.846
465.09	56.920
465.44	56.277
465.79	57.113
466.14	56.071
466.49	56.053
466.84	56.860
467.19	56.012
467.54	54.700
467.89	56.092
468.24	56.731
468.59	55.704
468.94	55.420
469.29	55.789
469.64	56.071
469.99	56.469
470.34	55.817
470.68	57.621
471.03	57.629
471.38	56.835
471.73	57.672
472.08	57.551
472.43	55.750
472.78	57.053
473.13	57.712
473.48	56.556
473.83	56.820
474.17	56.800
474.52	57.306
474.87	56.257
475.22	57.746
475.57	56.127
475.92	55.948
476.27	57.135
476.61	56.802
476.96	56.257
477.31	56.683
477.66	57.503
478.01	57.143
478.36	56.530
478.70	57.537
479.05	58.333
479.40	58.095
479.75	56.868
480.10	56.087
480.45	57.293
480.79	55.873
481.14	56.480
481.49	56.611
481.84	57.137
482.19	57.376
482.53	57.805
482.88	57.510
483.23	58.559
483.58	58.035
483.92	56.871
484.27	56.605
484.62	56.972
484.97	57.348
485.31	56.529
485.66	53.578
486.01	53.684
486.36	55.304
486.70	58.028
487.05	58.162
487.40	57.557
487.75	57.761
488.09	57.340
488.44	56.073
488.79	57.066
489.13	56.988
489.48	56.039
489.83	56.016
490.17	56.015
490.52	56.691
490.87	56.218
491.22	57.799
491.56	57.637
491.91	57.043
492.26	57.421
492.60	57.892
492.95	58.271
493.30	57.239
493.64	57.205
493.99	57.193
494.34	57.317
494.68	57.859
495.03	57.533
495.37	59.121
495.72	57.007
496.07	57.493
496.41	57.572
496.76	59.133
497.11	58.514
497.45	57.877
497.80	58.685
498.14	57.007
498.49	57.812
498.84	58.592
499.18	58.480
499.53	58.161
499.87	59.385
500.22	58.014
500.56	58.704
500.91	59.405
501.26	58.091
501.60	58.330
501.95	58.011
502.29	58.666
502.64	58.636
502.98	56.816
503.33	57.322
503.67	57.697
504.02	56.918
504.36	59.920
504.71	59.669
505.06	57.890
505.40	58.272
505.75	58.197
506.09	58.241
506.44	59.192
506.78	58.028
507.13	58.045
507.47	59.072
507.82	58.902
508.16	58.126
508.51	58.462
508.85	60.321
509.19	59.024
509.54	59.366
509.88	59.932
510.23	59.446
510.57	60.077
510.92	58.926
511.26	59.067
511.61	58.716
511.95	57.833
512.30	59.035
512.64	57.671
512.98	58.329
513.33	59.577
513.67	59.306
514.02	59.939
514.36	60.307
514.70	59.375
515.05	60.271
515.39	60.315
515.74	59.703
516.08	59.694
516.42	61.015
516.77	59.832
517.11	59.206
517.46	59.650
517.80	61.251
518.14	60.065
518.49	60.954
518.83	59.872
519.17	60.258
519.52	59.958
519.86	60.718
520.20	59.851
520.55	60.350
520.89	60.417
521.23	61.083
521.58	62.147
521.92	60.397
522.26	59.622
522.61	60.648
522.95	60.957
523.29	60.862
523.64	59.529
523.98	60.810
524.32	61.433
524.66	61.411
525.01	60.419
525.35	60.712
525.69	61.195
526.04	59.989
526.38	60.862
526.72	60.323
527.06	60.645
527.41	61.924
527.75	62.411
528.09	60.449
528.43	60.568
528.78	59.827
529.12	59.461
529.46	59.584
529.80	60.927
530.15	60.638
530.49	60.617
530.83	60.744
531.17	58.961
531.51	59.446
531.86	61.358
532.20	61.524
532.54	60.084
532.88	60.667
533.22	61.226
533.57	60.473
533.91	59.933
534.25	61.051
534.59	60.517
534.93	60.272
535.27	59.775
535.62	60.375
535.96	62.231
536.30	60.047
536.64	62.042
536.98	61.255
537.32	61.296
537.66	60.948
538.01	60.544
538.35	59.622
538.69	60.036
539.03	60.208
539.37	60.365
539.71	60.000
540.05	60.432
540.39	58.557
540.73	58.531
541.07	61.803
541.42	59.303
541.76	58.719
542.10	59.710
542.44	60.658
542.78	60.949
543.12	59.237
543.46	58.364
543.80	59.532
544.14	60.443
544.48	59.338
544.82	59.904
545.16	60.883
545.50	59.676
545.84	60.012
546.18	61.605
546.52	60.446
546.86	59.811
547.20	61.323
547.54	60.237
547.88	59.011
548.22	60.234
548.56	60.562
548.90	59.940
549.24	60.486
549.58	58.927
549.92	59.949
550.26	61.294
550.60	59.732
550.94	61.384
551.28	59.604
551.62	60.849
551.96	58.835
552.30	62.269
552.64	60.485
552.98	60.262
553.32	61.543
553.66	60.450
554.00	60.277
554.34	60.232
554.68	58.812
555.02	60.775
555.36	60.815
555.69	59.705
556.03	59.710
556.37	60.263
556.71	60.685
557.05	61.406
557.39	59.987
557.73	60.370
558.07	60.530
558.41	61.063
558.75	60.446
559.08	61.587
559.42	59.739
559.76	60.041
560.10	59.545
560.44	60.092
560.78	61.062
561.12	59.606
561.45	60.645
561.79	61.722
562.13	62.046
562.47	60.173
562.81	60.759
563.15	60.669
563.48	60.348
563.82	60.157
564.16	59.782
564.50	59.237
564.84	59.174
565.17	59.588
565.51	59.091
565.85	60.214
566.19	59.735
566.52	60.971
566.86	59.310
567.20	58.891
567.54	59.639
567.88	58.512
568.21	58.794
568.55	59.808
568.89	59.283
569.23	58.090
569.56	57.366
569.90	57.912
570.24	57.808
570.57	57.473
570.91	56.644
571.25	55.597
571.59	57.167
571.92	55.997
572.26	56.114
572.60	56.702
572.93	56.220
573.27	56.729
573.61	55.876
573.95	56.421
574.28	55.594
574.62	55.821
574.96	55.117
575.29	54.792
575.63	55.648
575.97	54.922
576.30	54.898
576.64	54.569
576.98	55.376
577.31	56.132
577.65	55.881
577.98	55.102
578.32	54.918
578.66	55.221
578.99	55.458
579.33	55.825
579.67	55.666
580.00	55.878
580.34	55.454
580.67	55.163
581.01	55.084
581.35	55.017
581.68	54.694
582.02	54.609
582.35	55.459
582.69	56.175
583.02	55.747
583.36	56.131
583.70	56.055
584.03	55.436
584.37	55.394
584.70	54.181
585.04	55.243
585.37	55.170
585.71	55.059
586.04	55.262
586.38	56.012
586.72	55.703
587.05	56.280
587.39	55.772
587.72	56.603
588.06	56.359
588.39	55.838
588.73	55.714
589.06	56.179
589.40	57.314
589.73	56.298
590.07	56.432
590.40	56.389
590.73	56.911
591.07	57.483
591.40	56.843
591.74	57.949
592.07	57.734
592.41	56.427
592.74	56.869
593.08	56.656
593.41	56.168
593.75	55.747
594.08	56.983
594.41	56.891
594.75	55.762
595.08	56.662
595.42	56.558
595.75	56.345
596.09	56.727
596.42	56.288
596.75	57.198
597.09	58.101
597.42	56.694
597.75	56.723
598.09	56.270
598.42	57.218
598.76	56.630
599.09	55.999
599.42	55.649
599.76	55.761
600.09	56.490
600.42	55.389
600.76	56.341
601.09	55.128
601.42	55.922
601.76	55.276
602.09	56.004
602.42	55.289
602.76	56.052
603.09	56.608
603.42	57.298
603.76	56.836
604.09	57.665
604.42	56.330
604.76	56.811
605.09	56.961
605.42	56.459
605.75	56.154
606.09	56.700
606.42	54.980
606.75	56.297
607.09	55.722
607.42	55.992
607.75	56.546
608.08	55.525
608.42	55.824
608.75	54.809
609.08	56.494
609.41	57.830
609.75	57.455
610.08	57.080
610.41	55.947
610.74	56.471
611.07	56.616
611.41	56.323
611.74	58.938
612.07	57.317
612.40	56.892
612.73	57.555
613.07	56.968
613.40	56.689
613.73	55.850
614.06	57.213
614.39	56.317
614.72	56.914
615.06	55.919
615.39	56.307
615.72	56.730
616.05	57.067
616.38	57.770
616.71	58.150
617.05	56.390
617.38	56.287
617.71	57.613
618.04	57.258
618.37	58.033
618.70	57.636
619.03	57.706
619.36	56.720
619.69	58.232
620.03	57.753
620.36	57.975
620.69	57.619
621.02	59.055
621.35	60.377
621.68	59.219
622.01	58.790
622.34	57.950
622.67	58.419
623.00	57.220
623.33	59.589
623.66	57.912
623.99	56.945
624.32	58.739
624.65	57.272
624.99	59.103
625.32	57.740
625.65	60.486
625.98	58.102
626.31	59.036
626.64	58.462
626.97	58.140
627.30	59.833
627.63	58.515
627.96	59.459
628.29	58.833
628.62	58.522
628.95	60.999
629.28	61.088
629.61	59.764
629.94	59.582
630.26	60.424
630.59	60.535
630.92	59.221
631.25	59.928
631.58	62.712
631.91	61.668
632.24	60.038
632.57	58.918
632.90	60.983
633.23	60.612
633.56	60.510
633.89	59.607
634.22	62.578
634.55	61.378
634.88	60.931
635.20	62.433
635.53	61.243
635.86	59.697
636.19	60.445
636.52	62.236
