SpectraSuite Data File
++++++++++++++++++++++++++++++++++++
Date: Thu May 14 14:32:51 PDT 2015
User: schluterlab
Dark Spectrum Present: Yes
Reference Spectrum Present: Yes
Number of Sampled Component Spectra: 1
Spectrometers: USB2E3373
Integration Time (usec): 3000 (USB2E3373)
Spectra Averaged: 3 (USB2E3373)
Boxcar Smoothing: 0 (USB2E3373)
Correct for Electrical Dark: No (USB2E3373)
Strobe/Lamp Enabled: No (USB2E3373)
Correct for Detector Non-linearity: No (USB2E3373)
Correct for Stray Light: No (USB2E3373)
Number of Pixels in Processed Spectrum: 2048
>>>>>Begin Processed Spectral Data<<<<<
178.53	0.000
178.91	-200.000
179.29	800.000
179.67	1100.000
180.04	35.714
180.42	-200.000
180.80	-500.000
181.18	1200.000
181.56	1100.000
181.94	-525.000
182.31	325.000
182.69	-166.667
183.07	800.000
183.45	-425.000
183.83	366.667
184.20	500.000
184.58	-1800.000
184.96	350.000
185.34	133.333
185.72	400.000
186.09	-55.556
186.47	-750.000
186.85	-240.000
187.23	200.000
187.61	1000.000
187.98	-380.000
188.36	-600.000
188.74	600.000
189.12	833.333
189.49	143.750
189.87	150.000
190.25	233.333
190.63	400.000
191.00	100.000
191.38	0.000
191.76	400.000
192.14	316.667
192.51	-750.000
192.89	283.333
193.27	0.000
193.65	300.000
194.02	300.000
194.40	328.571
194.78	-328.571
195.15	0.000
195.53	136.364
195.91	0.000
196.29	525.000
196.66	176.923
197.04	0.000
197.42	200.000
197.79	950.000
198.17	175.000
198.55	214.286
198.92	266.667
199.30	187.500
199.68	227.273
200.05	200.000
200.43	250.000
200.81	14.286
201.18	0.000
201.56	-44.444
201.94	0.000
202.31	-333.333
202.69	200.000
203.07	-2400.000
203.44	211.111
203.82	450.000
204.19	216.667
204.57	266.667
204.95	187.500
205.32	1200.000
205.70	-325.000
206.08	400.000
206.45	383.333
206.83	-140.000
207.20	300.000
207.58	140.000
207.96	250.000
208.33	466.667
208.71	-150.000
209.08	516.667
209.46	0.000
209.84	-216.667
210.21	-550.000
210.59	-750.000
210.96	-400.000
211.34	600.000
211.71	200.000
212.09	1200.000
212.46	0.000
212.84	-400.000
213.22	240.000
213.59	450.000
213.97	340.000
214.34	600.000
214.72	-283.333
215.09	675.000
215.47	0.000
215.84	-300.000
216.22	-600.000
216.59	440.000
216.97	420.000
217.34	425.000
217.72	250.000
218.09	475.000
218.47	650.000
218.84	0.000
219.22	-500.000
219.59	158.824
219.97	90.000
220.34	-550.000
220.72	155.556
221.09	153.846
221.47	266.667
221.84	180.000
222.22	257.143
222.59	0.000
222.97	262.500
223.34	240.000
223.72	1400.000
224.09	375.000
224.46	525.000
224.84	480.000
225.21	157.143
225.59	225.000
225.96	325.000
226.34	115.385
226.71	-166.667
227.08	600.000
227.46	173.333
227.83	425.000
228.21	147.368
228.58	-275.000
228.95	-400.000
229.33	125.000
229.70	190.000
230.08	184.211
230.45	-110.000
230.82	633.333
231.20	135.714
231.57	191.667
231.95	172.727
232.32	218.182
232.69	120.000
233.07	650.000
233.44	111.765
233.81	210.000
234.19	122.222
234.56	100.000
234.93	96.552
235.31	78.947
235.68	100.000
236.05	80.000
236.43	115.385
236.80	152.000
237.17	81.481
237.55	75.758
237.92	150.000
238.29	103.226
238.67	47.727
239.04	100.000
239.41	64.286
239.79	36.957
240.16	42.593
240.53	32.609
240.91	31.373
241.28	42.623
241.65	47.761
242.02	52.703
242.40	23.077
242.77	34.667
243.14	28.049
243.51	34.211
243.89	33.333
244.26	29.703
244.63	45.098
245.00	36.449
245.38	25.439
245.75	17.699
246.12	34.127
246.49	31.783
246.87	25.714
247.24	25.828
247.61	28.289
247.98	22.819
248.36	23.457
248.73	21.472
249.10	20.765
249.47	27.861
249.84	28.272
250.22	23.316
250.59	19.444
250.96	24.545
251.33	20.918
251.70	20.085
252.08	17.500
252.45	21.721
252.82	19.835
253.19	16.406
253.56	21.293
253.94	17.308
254.31	18.939
254.68	19.930
255.05	20.521
255.42	14.966
255.79	14.239
256.16	15.232
256.54	15.894
256.91	17.377
257.28	16.066
257.65	15.605
258.02	14.454
258.39	17.949
258.76	21.101
259.14	17.241
259.51	18.156
259.88	16.431
260.25	14.444
260.62	18.082
260.99	18.306
261.36	20.912
261.73	17.507
262.10	16.484
262.47	17.694
262.85	20.960
263.22	13.506
263.59	11.579
263.96	17.903
264.33	14.322
264.70	16.296
265.07	17.184
265.44	17.914
265.81	18.056
266.18	18.141
266.55	15.625
266.92	11.617
267.29	19.256
267.66	15.743
268.03	15.502
268.40	17.119
268.77	13.895
269.14	12.996
269.51	16.667
269.88	18.443
270.25	14.889
270.62	14.979
270.99	16.970
271.36	15.446
271.73	16.110
272.10	17.034
272.47	15.631
272.84	12.450
273.21	13.627
273.58	15.323
273.95	15.192
274.32	15.779
274.69	16.054
275.06	15.201
275.43	14.418
275.80	15.873
276.17	14.815
276.54	14.366
276.91	14.132
277.28	15.190
277.65	14.722
278.02	18.015
278.39	14.855
278.76	14.763
279.13	15.248
279.50	14.777
279.87	14.490
280.23	13.908
280.60	14.576
280.97	14.309
281.34	13.922
281.71	12.690
282.08	14.950
282.45	13.421
282.82	12.873
283.19	11.632
283.56	14.754
283.92	16.216
284.29	16.114
284.66	16.420
285.03	12.019
285.40	13.756
285.77	13.003
286.14	14.504
286.51	14.764
286.87	14.692
287.24	14.458
287.61	13.752
287.98	12.991
288.35	13.462
288.72	14.645
289.08	15.373
289.45	11.834
289.82	12.048
290.19	14.368
290.56	12.113
290.93	13.837
291.29	13.912
291.66	13.499
292.03	10.855
292.40	14.014
292.77	12.129
293.13	13.396
293.50	11.432
293.87	11.141
294.24	14.800
294.60	13.148
294.97	11.141
295.34	12.548
295.71	11.475
296.08	12.532
296.44	11.887
296.81	13.155
297.18	12.204
297.55	10.024
297.91	11.507
298.28	11.611
298.65	12.485
299.02	11.216
299.38	11.785
299.75	11.682
300.12	10.764
300.48	11.636
300.85	11.811
301.22	12.081
301.59	11.986
301.95	11.073
302.32	11.333
302.69	11.720
303.05	11.752
303.42	11.973
303.79	11.250
304.15	11.672
304.52	11.311
304.89	11.623
305.25	11.801
305.62	10.345
305.99	11.753
306.35	11.290
306.72	11.375
307.09	11.574
307.45	12.836
307.82	11.806
308.19	12.513
308.55	12.729
308.92	11.977
309.29	11.782
309.65	11.598
310.02	11.386
310.38	12.106
310.75	12.427
311.12	12.943
311.48	12.512
311.85	12.536
312.22	13.283
312.58	13.897
312.95	13.193
313.31	14.273
313.68	12.637
314.05	15.447
314.41	14.936
314.78	14.078
315.14	15.245
315.51	14.866
315.87	16.562
316.24	15.708
316.61	16.785
316.97	16.018
317.34	15.785
317.70	17.293
318.07	16.490
318.43	18.367
318.80	18.896
319.16	18.627
319.53	16.710
319.89	18.931
320.26	20.107
320.62	19.238
320.99	19.021
321.35	20.980
321.72	21.395
322.08	19.838
322.45	21.500
322.81	22.383
323.18	22.655
323.54	22.155
323.91	23.132
324.27	23.580
324.64	24.853
325.00	24.461
325.37	25.635
325.73	26.777
326.10	27.494
326.46	27.524
326.83	28.663
327.19	29.685
327.56	30.040
327.92	30.606
328.29	30.968
328.65	30.318
329.01	32.234
329.38	31.676
329.74	33.048
330.11	34.332
330.47	34.288
330.84	34.022
331.20	35.833
331.56	36.742
331.93	36.653
332.29	36.525
332.66	36.794
333.02	36.013
333.38	38.003
333.75	37.795
334.11	39.450
334.48	38.614
334.84	38.912
335.20	37.531
335.57	39.039
335.93	38.347
336.29	38.103
336.66	39.613
337.02	38.043
337.38	38.776
337.75	38.182
338.11	41.548
338.47	40.943
338.84	39.594
339.20	38.163
339.56	39.044
339.93	40.887
340.29	39.936
340.65	38.929
341.02	40.942
341.38	40.420
341.74	40.113
342.11	40.869
342.47	40.508
342.83	39.775
343.20	40.965
343.56	40.818
343.92	40.432
344.28	41.094
344.65	41.395
345.01	41.264
345.37	40.435
345.73	39.906
346.10	41.576
346.46	41.851
346.82	40.599
347.19	40.260
347.55	41.426
347.91	40.193
348.27	40.592
348.63	41.736
349.00	39.672
349.36	39.331
349.72	41.964
350.08	41.159
350.45	41.141
350.81	40.271
351.17	40.902
351.53	42.608
351.89	41.002
352.26	41.194
352.62	40.896
352.98	41.450
353.34	40.030
353.70	42.142
354.07	42.548
354.43	42.445
354.79	42.184
355.15	42.311
355.51	42.763
355.87	42.259
356.24	43.042
356.60	41.759
356.96	43.440
357.32	42.305
357.68	42.679
358.04	42.141
358.40	43.060
358.77	43.348
359.13	42.688
359.49	43.197
359.85	43.727
360.21	42.468
360.57	42.283
360.93	43.653
361.29	43.649
361.66	43.230
362.02	44.120
362.38	43.359
362.74	44.274
363.10	44.223
363.46	44.806
363.82	44.957
364.18	44.053
364.54	44.260
364.90	45.886
365.26	44.897
365.62	44.000
365.98	44.860
366.35	44.765
366.71	46.054
367.07	45.467
367.43	44.714
367.79	46.782
368.15	46.087
368.51	46.482
368.87	46.702
369.23	45.400
369.59	46.790
369.95	46.653
370.31	47.468
370.67	45.873
371.03	46.330
371.39	45.668
371.75	47.730
372.11	47.154
372.47	47.258
372.83	49.280
373.19	46.965
373.55	47.629
373.91	47.716
374.27	47.671
374.63	49.120
374.99	47.878
375.35	49.286
375.71	49.677
376.07	48.354
376.42	49.622
376.78	49.596
377.14	48.347
377.50	50.221
377.86	50.800
378.22	50.180
378.58	50.713
378.94	50.528
379.30	50.439
379.66	50.088
380.02	51.471
380.38	52.247
380.74	52.169
381.09	51.626
381.45	52.159
381.81	53.923
382.17	52.553
382.53	52.047
382.89	51.749
383.25	54.338
383.61	53.877
383.97	53.592
384.32	54.725
384.68	52.436
385.04	54.251
385.40	55.922
385.76	56.331
386.12	54.279
386.48	54.824
386.83	56.555
387.19	55.041
387.55	56.397
387.91	55.023
388.27	55.543
388.62	55.384
388.98	54.822
389.34	55.569
389.70	57.234
390.06	56.246
390.42	56.627
390.77	58.338
391.13	57.453
391.49	58.696
391.85	58.545
392.20	58.244
392.56	58.181
392.92	57.634
393.28	58.098
393.64	56.816
393.99	58.338
394.35	59.638
394.71	58.862
395.07	59.042
395.42	58.995
395.78	59.902
396.14	59.239
396.50	58.076
396.85	59.630
397.21	58.994
397.57	59.894
397.92	60.309
398.28	59.316
398.64	59.211
399.00	58.168
399.35	58.010
399.71	59.293
400.07	61.651
400.42	59.430
400.78	60.764
401.14	59.875
401.49	61.057
401.85	61.744
402.21	62.283
402.57	61.796
402.92	62.175
403.28	60.773
403.63	60.979
403.99	60.689
404.35	59.750
404.70	62.266
405.06	61.304
405.42	61.124
405.77	61.996
406.13	61.967
406.49	61.374
406.84	60.554
407.20	61.431
407.55	61.902
407.91	62.225
408.27	61.072
408.62	63.118
408.98	62.043
409.34	62.346
409.69	63.226
410.05	63.013
410.40	63.573
410.76	61.638
411.11	63.121
411.47	62.899
411.83	64.491
412.18	63.434
412.54	62.537
412.89	62.922
413.25	62.415
413.60	63.240
413.96	64.161
414.31	61.416
414.67	63.924
415.03	62.708
415.38	66.520
415.74	62.798
416.09	64.220
416.45	62.805
416.80	63.647
417.16	62.835
417.51	63.761
417.87	63.213
418.22	64.551
418.58	63.879
418.93	62.689
419.29	65.413
419.64	64.286
420.00	64.570
420.35	63.784
420.71	63.240
421.06	63.887
421.42	64.679
421.77	62.951
422.12	63.584
422.48	63.646
422.83	64.951
423.19	63.714
423.54	65.487
423.90	64.108
424.25	65.867
424.61	65.557
424.96	65.733
425.31	64.437
425.67	63.875
426.02	65.744
426.38	64.237
426.73	65.011
427.09	66.032
427.44	64.336
427.79	66.059
428.15	65.011
428.50	65.169
428.85	64.409
429.21	66.489
429.56	65.499
429.92	65.651
430.27	66.169
430.62	66.194
430.98	65.175
431.33	64.858
431.68	64.272
432.04	65.719
432.39	66.899
432.74	66.667
433.10	66.847
433.45	66.109
433.80	66.953
434.16	66.167
434.51	66.341
434.86	67.264
435.22	67.800
435.57	67.453
435.92	65.943
436.28	67.463
436.63	68.214
436.98	65.915
437.34	67.531
437.69	66.868
438.04	68.006
438.39	67.662
438.75	67.571
439.10	66.808
439.45	67.691
439.81	66.554
440.16	67.507
440.51	66.555
440.86	65.536
441.22	67.631
441.57	68.658
441.92	67.265
442.27	67.475
442.63	66.965
442.98	66.329
443.33	67.806
443.68	67.542
444.03	68.438
444.39	67.591
444.74	67.688
445.09	65.535
445.44	67.545
445.79	67.529
446.15	67.986
446.50	67.804
446.85	67.656
447.20	67.215
447.55	67.835
447.91	67.173
448.26	67.812
448.61	67.906
448.96	69.421
449.31	67.922
449.66	67.974
450.02	68.196
450.37	67.928
450.72	68.138
451.07	68.565
451.42	68.400
451.77	67.927
452.12	68.284
452.47	67.439
452.83	69.538
453.18	66.783
453.53	68.926
453.88	68.250
454.23	69.379
454.58	69.704
454.93	69.417
455.28	70.439
455.63	67.709
455.98	67.765
456.34	69.435
456.69	68.548
457.04	70.272
457.39	69.290
457.74	68.680
458.09	68.589
458.44	69.181
458.79	67.664
459.14	68.065
459.49	70.345
459.84	69.465
460.19	67.574
460.54	70.358
460.89	70.196
461.24	69.598
461.59	68.788
461.94	67.941
462.29	68.813
462.64	68.196
462.99	69.115
463.34	70.733
463.69	68.640
464.04	70.428
464.39	67.825
464.74	67.275
465.09	69.089
465.44	68.079
465.79	68.800
466.14	67.170
466.49	68.579
466.84	68.705
467.19	69.480
467.54	68.566
467.89	69.023
468.24	68.864
468.59	68.327
468.94	68.357
469.29	69.466
469.64	69.358
469.99	69.853
470.34	68.874
470.68	71.360
471.03	70.530
471.38	70.896
471.73	68.791
472.08	70.876
472.43	69.175
472.78	69.962
473.13	69.975
473.48	69.789
473.83	70.749
474.17	68.757
474.52	70.355
474.87	68.937
475.22	70.535
475.57	69.367
475.92	68.840
476.27	69.063
476.61	68.847
476.96	68.822
477.31	68.713
477.66	70.094
478.01	69.395
478.36	68.395
478.70	68.719
479.05	68.661
479.40	70.039
479.75	69.308
480.10	68.546
480.45	69.462
480.79	69.705
481.14	69.118
481.49	69.105
481.84	69.756
482.19	69.161
482.53	68.736
482.88	70.270
483.23	69.631
483.58	68.690
483.92	68.839
484.27	69.136
484.62	68.606
484.97	68.779
485.31	67.652
485.66	66.325
486.01	63.620
486.36	62.973
486.70	63.760
487.05	64.620
487.40	65.777
487.75	67.634
488.09	68.864
488.44	67.324
488.79	69.680
489.13	69.768
489.48	69.359
489.83	68.330
490.17	66.991
490.52	68.062
490.87	69.585
491.22	68.977
491.56	69.539
491.91	69.778
492.26	70.013
492.60	69.042
492.95	68.451
493.30	69.789
493.64	69.777
493.99	69.254
494.34	68.598
494.68	68.565
495.03	68.282
495.37	70.306
495.72	68.889
496.07	70.465
496.41	69.326
496.76	69.683
497.11	69.936
497.45	69.486
497.80	69.614
498.14	70.522
498.49	70.450
498.84	70.841
499.18	69.591
499.53	70.224
499.87	68.835
500.22	69.145
500.56	69.636
500.91	70.526
501.26	70.773
501.60	69.554
501.95	69.952
502.29	69.373
502.64	70.791
502.98	68.464
503.33	69.114
503.67	68.818
504.02	69.046
504.36	70.331
504.71	70.877
505.06	68.440
505.40	69.424
505.75	69.672
506.09	71.363
506.44	69.591
506.78	70.780
507.13	69.802
507.47	70.109
507.82	70.691
508.16	70.746
508.51	69.480
508.85	70.383
509.19	72.051
509.54	70.653
509.88	71.248
510.23	71.685
510.57	70.807
510.92	71.311
511.26	70.178
511.61	69.097
511.95	70.473
512.30	70.310
512.64	70.215
512.98	69.835
513.33	71.825
513.67	71.545
514.02	71.742
514.36	71.765
514.70	71.406
515.05	72.002
515.39	71.549
515.74	72.110
516.08	71.632
516.42	72.841
516.77	72.240
517.11	71.944
517.46	71.103
517.80	72.795
518.14	72.905
518.49	73.048
518.83	70.942
519.17	71.729
519.52	72.117
519.86	71.225
520.20	72.790
520.55	73.275
520.89	73.761
521.23	72.418
521.58	73.616
521.92	73.654
522.26	72.108
522.61	74.306
522.95	73.414
523.29	74.368
523.64	71.413
523.98	73.588
524.32	74.155
524.66	73.364
525.01	72.084
525.35	72.717
525.69	72.506
526.04	72.331
526.38	72.989
526.72	73.760
527.06	73.959
527.41	73.644
527.75	74.228
528.09	73.908
528.43	72.351
528.78	72.890
529.12	74.255
529.46	72.232
529.80	73.112
530.15	73.855
530.49	73.725
530.83	73.436
531.17	74.432
531.51	74.128
531.86	74.760
532.20	73.659
532.54	72.890
532.88	74.061
533.22	72.834
533.57	71.437
533.91	71.549
534.25	72.131
534.59	73.046
534.93	71.817
535.27	72.732
535.62	72.939
535.96	75.596
536.30	73.384
536.64	74.775
536.98	73.801
537.32	74.136
537.66	74.548
538.01	71.782
538.35	73.021
538.69	73.077
539.03	73.268
539.37	72.085
539.71	72.553
540.05	73.141
540.39	74.633
540.73	71.828
541.07	74.065
541.42	72.002
541.76	71.649
542.10	72.256
542.44	73.569
542.78	73.358
543.12	71.931
543.46	71.734
543.80	72.782
544.14	72.472
544.48	72.991
544.82	73.250
545.16	72.868
545.50	71.600
545.84	73.362
546.18	74.630
546.52	72.548
546.86	73.396
547.20	74.109
547.54	71.660
547.88	72.453
548.22	71.754
548.56	71.445
548.90	72.060
549.24	72.766
549.58	72.492
549.92	73.087
550.26	73.981
550.60	73.006
550.94	74.450
551.28	72.937
551.62	75.539
551.96	72.945
552.30	73.996
552.64	72.122
552.98	73.300
553.32	74.598
553.66	74.984
554.00	72.825
554.34	73.488
554.68	73.144
555.02	74.573
555.36	76.200
555.69	72.966
556.03	73.203
556.37	75.469
556.71	75.143
557.05	73.291
557.39	76.311
557.73	74.306
558.07	73.709
558.41	74.884
558.75	75.456
559.08	76.061
559.42	75.034
559.76	74.084
560.10	73.744
560.44	74.142
560.78	73.813
561.12	73.030
561.45	74.209
561.79	72.894
562.13	73.198
562.47	72.626
562.81	73.924
563.15	72.664
563.48	72.467
563.82	73.458
564.16	72.562
564.50	73.838
564.84	73.392
565.17	72.765
565.51	70.598
565.85	74.050
566.19	71.889
566.52	72.850
566.86	72.892
567.20	71.071
567.54	72.544
567.88	70.897
568.21	71.937
568.55	71.990
568.89	71.085
569.23	69.582
569.56	68.425
569.90	67.463
570.24	66.981
570.57	67.415
570.91	66.044
571.25	65.751
571.59	66.240
571.92	65.005
572.26	65.881
572.60	65.438
572.93	66.657
573.27	66.620
573.61	65.511
573.95	65.647
574.28	64.237
574.62	64.552
574.96	63.410
575.29	63.803
575.63	64.310
575.97	65.078
576.30	64.249
576.64	64.782
576.98	64.419
577.31	64.849
577.65	64.631
577.98	63.366
578.32	63.192
578.66	62.910
578.99	63.465
579.33	65.251
579.67	64.869
580.00	65.296
580.34	64.725
580.67	65.026
581.01	64.756
581.35	63.705
581.68	63.088
582.02	62.704
582.35	63.121
582.69	63.821
583.02	63.820
583.36	64.880
583.70	65.281
584.03	64.795
584.37	65.737
584.70	65.892
585.04	64.845
585.37	64.892
585.71	63.193
586.04	63.606
586.38	64.160
586.72	64.527
587.05	64.902
587.39	65.046
587.72	64.426
588.06	65.208
588.39	65.098
588.73	65.053
589.06	66.704
589.40	66.718
589.73	67.192
590.07	67.241
590.40	67.681
590.73	67.762
591.07	68.690
591.40	67.846
591.74	68.800
592.07	69.468
592.41	67.232
592.74	65.531
593.08	65.605
593.41	65.763
593.75	65.661
594.08	66.162
594.41	66.090
594.75	66.622
595.08	66.689
595.42	66.266
595.75	66.096
596.09	67.333
596.42	67.753
596.75	68.777
597.09	69.333
597.42	69.368
597.75	68.013
598.09	68.056
598.42	69.320
598.76	67.023
599.09	67.391
599.42	65.404
599.76	65.632
600.09	66.500
600.42	65.832
600.76	66.711
601.09	65.815
601.42	66.186
601.76	67.379
602.09	66.726
602.42	67.394
602.76	67.897
603.09	67.768
603.42	68.172
603.76	67.689
604.09	68.701
604.42	66.752
604.76	67.314
605.09	69.007
605.42	67.823
605.75	67.500
606.09	68.160
606.42	67.348
606.75	67.541
607.09	67.281
607.42	67.245
607.75	67.995
608.08	68.232
608.42	67.271
608.75	67.496
609.08	67.487
609.41	71.019
609.75	70.000
610.08	70.449
610.41	67.715
610.74	68.235
611.07	69.538
611.41	69.283
611.74	69.376
612.07	69.425
612.40	70.627
612.73	70.807
613.07	70.954
613.40	70.404
613.73	69.475
614.06	70.805
614.39	69.582
614.72	70.306
615.06	69.249
615.39	68.922
615.72	69.668
616.05	69.840
616.38	71.292
616.71	71.630
617.05	71.246
617.38	70.091
617.71	70.734
618.04	72.207
618.37	73.115
618.70	71.719
619.03	73.297
619.36	73.120
619.69	74.375
620.03	73.697
620.36	73.313
620.69	73.720
621.02	75.591
621.35	77.504
621.68	74.910
622.01	74.875
622.34	74.477
622.67	74.089
623.00	74.966
623.33	75.116
623.66	74.708
623.99	73.996
624.32	74.529
624.65	71.815
624.99	74.512
625.32	75.180
625.65	74.039
625.98	72.949
626.31	76.471
626.64	76.777
626.97	76.669
627.30	77.601
627.63	75.919
627.96	77.402
628.29	76.887
628.62	79.429
628.95	79.930
629.28	79.779
629.61	79.882
629.94	77.824
630.26	77.458
630.59	78.238
630.92	78.009
631.25	80.322
631.58	81.544
631.91	80.506
632.24	81.748
632.57	82.543
632.90	81.745
