SpectraSuite Data File
++++++++++++++++++++++++++++++++++++
Date: Thu May 14 15:17:24 PDT 2015
User: schluterlab
Dark Spectrum Present: Yes
Reference Spectrum Present: Yes
Number of Sampled Component Spectra: 1
Spectrometers: USB2E3373
Integration Time (usec): 3000 (USB2E3373)
Spectra Averaged: 3 (USB2E3373)
Boxcar Smoothing: 0 (USB2E3373)
Correct for Electrical Dark: No (USB2E3373)
Strobe/Lamp Enabled: No (USB2E3373)
Correct for Detector Non-linearity: No (USB2E3373)
Correct for Stray Light: No (USB2E3373)
Number of Pixels in Processed Spectrum: 2048
>>>>>Begin Processed Spectral Data<<<<<
178.53	0.000
178.91	671.429
179.29	-4400.000
179.67	-4100.000
180.04	392.857
180.42	360.000
180.80	860.000
181.18	-4100.000
181.56	-2400.000
181.94	1000.000
182.31	-800.000
182.69	1400.000
183.07	-1400.000
183.45	950.000
183.83	-666.667
184.20	-1233.333
184.58	4600.000
184.96	-950.000
185.34	-411.111
185.72	-680.000
186.09	533.333
186.47	2000.000
186.85	880.000
187.23	-477.778
187.61	-4100.000
187.98	620.000
188.36	1025.000
188.74	-950.000
189.12	-1200.000
189.49	-212.500
189.87	-525.000
190.25	-388.889
190.63	-720.000
191.00	-400.000
191.38	0.000
191.76	-1050.000
192.14	-666.667
192.51	2000.000
192.89	-600.000
193.27	0.000
193.65	-585.714
194.02	-5400.000
194.40	-471.429
194.78	500.000
195.15	0.000
195.53	-336.364
195.91	0.000
196.29	-750.000
196.66	-276.923
197.04	-4800.000
197.42	-614.286
197.79	-2250.000
198.17	-562.500
198.55	-528.571
198.92	-411.111
199.30	-562.500
199.68	-236.364
200.05	-221.429
200.43	-1900.000
200.81	785.714
201.18	0.000
201.56	500.000
201.94	0.000
202.31	1366.667
202.69	-488.889
203.07	3400.000
203.44	-355.556
203.82	-1075.000
204.19	-358.333
204.57	-733.333
204.95	-500.000
205.32	-4100.000
205.70	1075.000
206.08	-550.000
206.45	-416.667
206.83	1040.000
207.20	-633.333
207.58	-1020.000
207.96	-566.667
208.33	-616.667
208.71	375.000
209.08	-533.333
209.46	0.000
209.84	766.667
210.21	2400.000
210.59	2250.000
210.96	1866.667
211.34	-825.000
211.71	-462.500
212.09	-4400.000
212.46	0.000
212.84	2500.000
213.22	-900.000
213.59	-1000.000
213.97	-370.000
214.34	-1400.000
214.72	916.667
215.09	-1200.000
215.47	0.000
215.84	585.714
216.22	2200.000
216.59	-760.000
216.97	-800.000
217.34	-900.000
217.72	-400.000
218.09	-1150.000
218.47	-1175.000
218.84	0.000
219.22	600.000
219.59	-170.588
219.97	-155.000
220.34	2150.000
220.72	-488.889
221.09	-230.769
221.47	-1333.333
221.84	-490.000
222.22	-671.429
222.59	0.000
222.97	-475.000
223.34	-940.000
223.72	-4500.000
224.09	-1050.000
224.46	-1100.000
224.84	-720.000
225.21	-728.571
225.59	-1425.000
225.96	-1125.000
226.34	-119.231
226.71	833.333
227.08	-2650.000
227.46	-233.333
227.83	-975.000
228.21	-163.158
228.58	612.500
228.95	2200.000
229.33	-366.667
229.70	-490.000
230.08	-189.474
230.45	500.000
230.82	-1366.667
231.20	-307.143
231.57	-333.333
231.95	-345.455
232.32	-400.000
232.69	-185.000
233.07	-1100.000
233.44	-223.529
233.81	-400.000
234.19	-144.444
234.56	-118.182
234.93	-110.345
235.31	-147.368
235.68	-216.667
236.05	-230.000
236.43	-107.692
236.80	-128.000
237.17	-122.222
237.55	-127.273
237.92	-470.000
238.29	-135.484
238.67	-86.364
239.04	-105.556
239.41	-97.619
239.79	-80.435
240.16	-53.704
240.53	-69.565
240.91	-66.667
241.28	-62.295
241.65	-31.343
242.02	-40.541
242.40	-44.615
242.77	-44.000
243.14	-46.341
243.51	-59.211
243.89	-43.590
244.26	-27.723
244.63	-32.353
245.00	-26.168
245.38	-29.825
245.75	-30.088
246.12	-20.635
246.49	-19.380
246.87	-18.571
247.24	-12.583
247.61	-17.105
247.98	-24.832
248.36	-24.074
248.73	-15.951
249.10	-15.301
249.47	-4.975
249.84	-9.424
250.22	-13.990
250.59	-19.444
250.96	-10.000
251.33	-13.265
251.70	-9.829
252.08	-7.083
252.45	-9.426
252.82	-6.612
253.19	-8.203
253.56	-7.224
253.94	-9.615
254.31	-7.955
254.68	-1.399
255.05	0.651
255.42	-8.163
255.79	-5.502
256.16	-4.636
256.54	-4.967
256.91	-6.885
257.28	-6.230
257.65	-5.732
258.02	-7.670
258.39	-2.564
258.76	-0.306
259.14	-2.586
259.51	-3.170
259.88	-4.816
260.25	-3.056
260.62	-2.192
260.99	-0.546
261.36	-1.877
261.73	-2.387
262.10	-4.121
262.47	-2.949
262.85	-0.253
263.22	-5.195
263.59	-6.316
263.96	-0.512
264.33	-5.115
264.70	-1.975
265.07	0.477
265.44	2.041
265.81	-0.694
266.18	0.907
266.55	-1.339
266.92	-0.683
267.29	3.063
267.66	-0.665
268.03	-0.437
268.40	0.835
268.77	-1.595
269.14	-3.524
269.51	-0.219
269.88	-1.230
270.25	-0.201
270.62	2.532
270.99	2.424
271.36	3.762
271.73	1.965
272.10	1.603
272.47	0.802
272.84	0.201
273.21	0.601
273.58	1.008
273.95	1.346
274.32	-1.141
274.69	-2.128
275.06	1.465
275.43	0.924
275.80	1.058
276.17	1.296
276.54	0.746
276.91	1.431
277.28	2.532
277.65	1.616
278.02	1.103
278.39	1.268
278.76	0.527
279.13	0.887
279.50	0.172
279.87	0.716
280.23	-0.528
280.60	2.542
280.97	1.151
281.34	0.000
281.71	4.230
282.08	1.163
282.45	-0.655
282.82	0.942
283.19	0.646
283.56	1.803
283.92	3.153
284.29	3.949
284.66	1.478
285.03	-1.282
285.40	2.318
285.77	0.774
286.14	2.901
286.51	2.588
286.87	1.580
287.24	2.711
287.61	1.046
287.98	1.662
288.35	2.071
288.72	0.888
289.08	1.464
289.45	0.888
289.82	1.355
290.19	2.874
290.56	2.676
290.93	2.425
291.29	2.755
291.66	1.240
292.03	1.764
292.40	2.177
292.77	1.348
293.13	1.624
293.50	0.788
293.87	0.268
294.24	2.267
294.60	3.034
294.97	-0.671
295.34	2.305
295.71	1.513
296.08	-0.129
296.44	1.716
296.81	1.218
297.18	-0.125
297.55	1.769
297.91	0.356
298.28	1.185
298.65	2.378
299.02	1.771
299.38	2.403
299.75	1.869
300.12	0.116
300.48	1.382
300.85	1.687
301.22	2.013
301.59	0.913
301.95	1.130
302.32	3.333
302.69	1.533
303.05	2.720
303.42	2.217
303.79	1.667
304.15	2.524
304.52	1.057
304.89	1.675
305.25	1.656
305.62	3.030
305.99	1.959
306.35	2.621
306.72	2.378
307.09	0.508
307.45	1.967
307.82	2.926
308.19	1.615
308.55	3.182
308.92	2.240
309.29	1.820
309.65	1.267
310.02	1.584
310.38	1.870
310.75	1.650
311.12	2.493
311.48	1.857
311.85	2.374
312.22	0.759
312.58	1.502
312.95	1.625
313.31	1.897
313.68	2.289
314.05	2.349
314.41	3.097
314.78	2.543
315.14	2.813
315.51	2.124
315.87	3.150
316.24	3.470
316.61	3.286
316.97	0.905
317.34	2.205
317.70	2.183
318.07	2.469
318.43	3.486
318.80	3.428
319.16	1.631
319.53	1.542
319.89	1.665
320.26	3.381
320.62	2.305
320.99	3.139
321.35	2.033
321.72	2.791
322.08	2.074
322.45	2.078
322.81	2.076
323.18	2.212
323.54	2.672
323.91	2.936
324.27	2.496
324.64	3.442
325.00	2.570
325.37	3.276
325.73	2.893
326.10	3.082
326.46	3.257
326.83	2.642
327.19	3.465
327.56	3.478
327.92	2.518
328.29	3.065
328.65	2.261
329.01	2.369
329.38	2.864
329.74	2.654
330.11	3.168
330.47	2.275
330.84	2.584
331.20	3.333
331.56	1.733
331.93	3.347
332.29	3.136
332.66	3.073
333.02	3.015
333.38	2.601
333.75	2.441
334.11	2.919
334.48	3.465
334.84	4.078
335.20	2.435
335.57	3.035
335.93	2.810
336.29	2.413
336.66	0.925
337.02	2.759
337.38	2.976
337.75	2.810
338.11	3.953
338.47	3.309
338.84	2.623
339.20	2.359
339.56	3.377
339.93	2.874
340.29	3.462
340.65	2.920
341.02	3.113
341.38	3.476
341.74	2.663
342.11	2.977
342.47	2.462
342.83	3.301
343.20	3.925
343.56	1.925
343.92	3.363
344.28	4.609
344.65	3.411
345.01	3.978
345.37	3.421
345.73	2.806
346.10	3.588
346.46	2.848
346.82	3.970
347.19	3.591
347.55	2.959
347.91	3.492
348.27	3.945
348.63	3.351
349.00	3.356
349.36	3.717
349.72	2.976
350.08	3.566
350.45	3.270
350.81	2.413
351.17	3.083
351.53	3.487
351.89	4.328
352.26	3.209
352.62	3.358
352.98	2.901
353.34	2.987
353.70	2.465
354.07	3.428
354.43	2.809
354.79	2.393
355.15	2.870
355.51	3.363
355.87	2.693
356.24	2.662
356.60	2.809
356.96	2.372
357.32	2.677
357.68	1.977
358.04	2.620
358.40	2.910
358.77	3.509
359.13	2.733
359.49	1.413
359.85	2.973
360.21	2.798
360.57	2.872
360.93	2.609
361.29	3.649
361.66	2.969
362.02	3.967
362.38	3.654
362.74	3.073
363.10	3.301
363.46	2.078
363.82	2.841
364.18	4.082
364.54	2.974
364.90	3.545
365.26	1.793
365.62	3.467
365.98	3.063
366.35	3.356
366.71	2.857
367.07	3.586
367.43	3.743
367.79	3.384
368.15	3.278
368.51	3.654
368.87	3.527
369.23	2.867
369.59	2.664
369.95	3.516
370.31	3.309
370.67	3.370
371.03	3.532
371.39	3.089
371.75	3.508
372.11	3.252
372.47	2.640
372.83	3.272
373.19	3.336
373.55	3.049
373.91	2.522
374.27	3.881
374.63	3.586
374.99	2.188
375.35	3.896
375.71	3.032
376.07	2.970
376.42	3.715
376.78	4.351
377.14	3.369
377.50	3.099
377.86	3.941
378.22	3.473
378.58	3.508
378.94	3.521
379.30	3.456
379.66	3.586
380.02	3.462
380.38	3.802
380.74	3.831
381.09	3.310
381.45	4.489
381.81	3.923
382.17	3.741
382.53	3.626
382.89	4.402
383.25	3.986
383.61	3.241
383.97	2.945
384.32	3.589
384.68	3.016
385.04	4.049
385.40	4.125
385.76	3.810
386.12	3.890
386.48	4.059
386.83	3.635
387.19	3.360
387.55	2.758
387.91	4.110
388.27	3.349
388.62	3.837
388.98	3.384
389.34	4.066
389.70	3.370
390.06	4.026
390.42	3.133
390.77	4.455
391.13	3.286
391.49	3.865
391.85	3.273
392.20	3.440
392.56	4.194
392.92	4.035
393.28	3.814
393.64	3.855
393.99	3.835
394.35	4.264
394.71	4.072
395.07	3.054
395.42	3.941
395.78	4.022
396.14	3.446
396.50	2.850
396.85	4.055
397.21	3.018
397.57	3.357
397.92	4.238
398.28	3.802
398.64	3.776
399.00	3.246
399.35	4.346
399.71	3.641
400.07	3.762
400.42	3.551
400.78	2.546
401.14	3.927
401.49	3.240
401.85	3.140
402.21	3.244
402.57	4.284
402.92	3.546
403.28	3.044
403.63	3.401
403.99	3.919
404.35	3.980
404.70	4.193
405.06	3.370
405.42	3.044
405.77	4.417
406.13	3.836
406.49	3.153
406.84	3.989
407.20	3.354
407.55	3.331
407.91	3.394
408.27	4.358
408.62	4.014
408.98	3.656
409.34	2.170
409.69	3.399
410.05	3.810
410.40	3.828
410.76	3.253
411.11	4.383
411.47	3.501
411.83	4.174
412.18	3.554
412.54	2.905
412.89	3.434
413.25	3.442
413.60	3.676
413.96	3.555
414.31	3.456
414.67	3.697
415.03	2.523
415.38	3.342
415.74	2.566
416.09	3.331
416.45	3.256
416.80	3.488
417.16	3.001
417.51	3.362
417.87	3.679
418.22	3.653
418.58	2.850
418.93	4.889
419.29	3.144
419.64	2.701
420.00	2.967
420.35	3.706
420.71	2.929
421.06	3.335
421.42	3.956
421.77	3.716
422.12	3.911
422.48	3.584
422.83	4.217
423.19	3.820
423.54	3.097
423.90	3.920
424.25	4.267
424.61	3.272
424.96	3.954
425.31	4.193
425.67	3.704
426.02	3.652
426.38	3.674
426.73	3.850
427.09	4.095
427.44	3.768
427.79	4.035
428.15	3.596
428.50	3.539
428.85	3.789
429.21	4.574
429.56	3.751
429.92	4.079
430.27	4.000
430.62	3.810
430.98	3.542
431.33	4.106
431.68	3.544
432.04	4.165
432.39	3.642
432.74	3.539
433.10	3.894
433.45	3.735
433.80	3.755
434.16	3.461
434.51	3.649
434.86	3.855
435.22	4.038
435.57	4.068
435.92	4.062
436.28	3.697
436.63	3.823
436.98	3.811
437.34	3.720
437.69	3.632
438.04	3.490
438.39	4.136
438.75	3.708
439.10	4.123
439.45	4.863
439.81	2.994
440.16	3.378
440.51	4.013
440.86	4.113
441.22	4.394
441.57	3.774
441.92	4.510
442.27	4.091
442.63	4.421
442.98	4.376
443.33	5.155
443.68	4.807
444.03	4.939
444.39	4.669
444.74	4.543
445.09	4.308
445.44	4.215
445.79	4.454
446.15	4.162
446.50	4.134
446.85	4.864
447.20	4.594
447.55	4.603
447.91	4.398
448.26	4.175
448.61	4.038
448.96	4.345
449.31	4.083
449.66	3.758
450.02	4.800
450.37	4.901
450.72	4.037
451.07	4.556
451.42	4.333
451.77	4.113
452.12	4.515
452.47	4.278
452.83	4.673
453.18	4.495
453.53	3.274
453.88	4.197
454.23	4.407
454.58	5.049
454.93	3.823
455.28	4.094
455.63	4.150
455.98	5.363
456.34	4.064
456.69	4.350
457.04	3.901
457.39	4.157
457.74	4.642
458.09	3.789
458.44	4.849
458.79	4.281
459.14	5.139
459.49	4.018
459.84	4.879
460.19	4.498
460.54	4.543
460.89	4.341
461.24	4.080
461.59	4.704
461.94	3.936
462.29	5.095
462.64	3.862
462.99	3.766
463.34	3.569
463.69	4.396
464.04	4.503
464.39	4.316
464.74	4.504
465.09	4.210
465.44	4.828
465.79	4.389
466.14	4.482
466.49	4.684
466.84	4.077
467.19	3.873
467.54	4.289
467.89	4.080
468.24	4.709
468.59	3.764
468.94	3.963
469.29	3.719
469.64	3.624
469.99	4.143
470.34	3.960
470.68	3.828
471.03	3.602
471.38	3.663
471.73	3.706
472.08	4.124
472.43	4.335
472.78	3.967
473.13	3.603
473.48	4.411
473.83	4.237
474.17	3.927
474.52	4.330
474.87	4.762
475.22	4.958
475.57	4.413
475.92	4.480
476.27	5.112
476.61	4.621
476.96	3.754
477.31	5.000
477.66	4.932
478.01	4.728
478.36	3.689
478.70	4.828
479.05	4.550
479.40	4.590
479.75	4.995
480.10	5.163
480.45	4.284
480.79	5.261
481.14	4.182
481.49	4.407
481.84	4.917
482.19	5.075
482.53	4.854
482.88	5.051
483.23	4.269
483.58	4.498
483.92	4.787
484.27	5.080
484.62	4.868
484.97	5.210
485.31	4.646
485.66	5.293
486.01	5.540
486.36	5.786
486.70	6.374
487.05	6.280
487.40	5.874
487.75	5.903
488.09	5.579
488.44	4.716
488.79	5.430
489.13	4.960
489.48	4.544
489.83	5.111
490.17	4.901
490.52	5.008
490.87	5.034
491.22	4.463
491.56	5.247
491.91	5.277
492.26	5.149
492.60	4.766
492.95	4.607
493.30	4.662
493.64	4.993
493.99	4.693
494.34	4.225
494.68	4.625
495.03	5.066
495.37	4.483
495.72	4.807
496.07	4.645
496.41	4.333
496.76	5.296
497.11	4.416
497.45	4.963
497.80	4.709
498.14	4.717
498.49	4.825
498.84	4.890
499.18	4.813
499.53	5.426
499.87	4.615
500.22	4.987
500.56	4.453
500.91	4.760
501.26	4.591
501.60	4.198
501.95	5.341
502.29	5.002
502.64	4.941
502.98	4.616
503.33	4.622
503.67	4.841
504.02	4.772
504.36	5.719
504.71	4.777
505.06	4.684
505.40	4.982
505.75	4.872
506.09	4.650
506.44	4.364
506.78	5.229
507.13	5.118
507.47	4.879
507.82	4.451
508.16	4.302
508.51	4.454
508.85	5.007
509.19	4.405
509.54	5.187
509.88	4.565
510.23	4.808
510.57	4.978
510.92	4.693
511.26	4.666
511.61	3.766
511.95	4.441
512.30	5.170
512.64	4.448
512.98	4.402
513.33	4.688
513.67	4.742
514.02	5.110
514.36	4.808
514.70	4.271
515.05	4.327
515.39	5.197
515.74	5.037
516.08	4.807
516.42	5.442
516.77	4.364
517.11	4.538
517.46	4.772
517.80	4.757
518.14	5.495
518.49	4.555
518.83	5.109
519.17	4.308
519.52	5.084
519.86	4.593
520.20	5.218
520.55	4.436
520.89	4.505
521.23	4.299
521.58	4.407
521.92	4.193
522.26	4.525
522.61	4.745
522.95	4.498
523.29	4.023
523.64	4.484
523.98	4.849
524.32	4.699
524.66	4.895
525.01	4.077
525.35	4.423
525.69	4.002
526.04	4.018
526.38	4.655
526.72	4.095
527.06	4.106
527.41	4.431
527.75	4.751
528.09	4.250
528.43	4.204
528.78	4.162
529.12	3.899
529.46	4.328
529.80	4.405
530.15	4.348
530.49	4.567
530.83	4.309
531.17	4.241
531.51	3.911
531.86	4.567
532.20	4.939
532.54	4.189
532.88	4.727
533.22	3.654
533.57	4.732
533.91	4.602
534.25	4.409
534.59	3.678
534.93	3.679
535.27	4.451
535.62	4.775
535.96	4.009
536.30	4.348
536.64	4.625
536.98	4.736
537.32	4.321
537.66	4.304
538.01	4.048
538.35	3.776
538.69	3.486
539.03	4.537
539.37	4.358
539.71	4.505
540.05	4.736
540.39	4.523
540.73	4.068
541.07	3.801
541.42	4.194
541.76	4.093
542.10	3.981
542.44	3.837
542.78	3.893
543.12	4.112
543.46	4.518
543.80	4.496
544.14	3.411
544.48	4.846
544.82	4.608
545.16	3.936
545.50	4.793
545.84	4.042
546.18	4.815
546.52	3.248
546.86	4.025
547.20	4.198
547.54	3.620
547.88	4.581
548.22	3.860
548.56	3.803
548.90	3.701
549.24	4.742
549.58	3.407
549.92	2.997
550.26	3.819
550.60	4.595
550.94	4.204
551.28	4.620
551.62	4.111
551.96	3.948
552.30	4.908
552.64	4.045
552.98	3.993
553.32	4.051
553.66	4.180
554.00	4.351
554.34	4.569
554.68	3.486
555.02	4.731
555.36	4.536
555.69	3.523
556.03	3.909
556.37	4.443
556.71	3.805
557.05	4.665
557.39	3.782
557.73	4.491
558.07	4.040
558.41	5.116
558.75	4.192
559.08	3.340
559.42	3.567
559.76	4.410
560.10	3.952
560.44	3.496
560.78	4.625
561.12	3.818
561.45	4.319
561.79	4.029
562.13	3.882
562.47	3.822
562.81	4.177
563.15	3.535
563.48	3.791
563.82	3.748
564.16	3.634
564.50	4.708
564.84	4.248
565.17	4.471
565.51	4.545
565.85	4.572
566.19	4.205
566.52	4.389
566.86	4.188
567.20	3.752
567.54	4.461
567.88	5.301
568.21	4.101
568.55	3.981
568.89	5.084
569.23	5.154
569.56	5.041
569.90	5.453
570.24	5.531
570.57	5.516
570.91	4.991
571.25	5.438
571.59	5.177
571.92	5.144
572.26	5.506
572.60	5.405
572.93	5.288
573.27	5.310
573.61	5.426
573.95	5.681
574.28	5.746
574.62	5.434
574.96	5.227
575.29	4.979
575.63	5.521
575.97	5.701
576.30	5.305
576.64	5.607
576.98	5.763
577.31	5.716
577.65	5.592
577.98	5.742
578.32	5.755
578.66	5.956
578.99	5.857
579.33	5.558
579.67	5.485
580.00	5.642
580.34	5.759
580.67	5.384
581.01	5.582
581.35	5.533
581.68	5.980
582.02	6.059
582.35	6.051
582.69	6.021
583.02	5.532
583.36	5.977
583.70	5.612
584.03	5.352
584.37	5.258
584.70	5.452
585.04	5.231
585.37	5.479
585.71	5.480
586.04	5.680
586.38	6.035
586.72	5.390
587.05	5.398
587.39	5.310
587.72	5.598
588.06	5.972
588.39	5.825
588.73	5.397
589.06	5.559
589.40	5.224
589.73	5.816
590.07	5.272
590.40	5.882
590.73	5.196
591.07	5.622
591.40	4.938
591.74	4.809
592.07	5.359
592.41	4.929
592.74	6.035
593.08	6.115
593.41	5.862
593.75	5.661
594.08	5.604
594.41	5.833
594.75	5.779
595.08	5.350
595.42	5.519
595.75	5.521
596.09	5.422
596.42	5.589
596.75	5.635
597.09	5.495
597.42	4.966
597.75	5.527
598.09	5.476
598.42	5.710
598.76	4.853
599.09	5.589
599.42	5.531
599.76	5.480
600.09	5.906
600.42	5.639
600.76	5.845
601.09	5.576
601.42	5.802
601.76	5.655
602.09	5.575
602.42	4.653
602.76	5.793
603.09	5.213
603.42	5.636
603.76	5.321
604.09	5.820
604.42	5.505
604.76	5.365
605.09	5.584
605.42	5.622
605.75	5.115
606.09	5.077
606.42	5.655
606.75	5.435
607.09	4.839
607.42	5.318
607.75	5.666
608.08	5.525
608.42	5.079
608.75	5.307
609.08	4.839
609.41	5.514
609.75	5.357
610.08	5.409
610.41	5.268
610.74	5.210
611.07	5.417
611.41	5.157
611.74	4.896
612.07	5.423
612.40	5.086
612.73	4.303
613.07	5.183
613.40	4.909
613.73	5.007
614.06	5.201
614.39	4.908
614.72	5.143
615.06	5.101
615.39	5.317
615.72	5.640
616.05	5.148
616.38	5.298
616.71	5.486
617.05	4.526
617.38	5.350
617.71	5.346
618.04	4.425
618.37	5.191
618.70	5.769
619.03	4.301
619.36	4.747
619.69	3.908
620.03	3.955
620.36	4.417
620.69	4.874
621.02	4.331
621.35	4.862
621.68	4.628
622.01	4.128
622.34	3.626
622.67	3.986
623.00	3.306
623.33	4.512
623.66	4.604
623.99	4.082
624.32	4.873
624.65	4.440
624.99	4.551
625.32	5.225
625.65	3.978
625.98	3.864
626.31	4.181
626.64	4.029
626.97	3.826
627.30	3.417
627.63	4.276
627.96	5.030
628.29	4.280
628.62	3.526
628.95	3.243
629.28	2.209
629.61	3.535
629.94	2.762
630.26	3.390
630.59	2.332
630.92	3.896
631.25	4.204
631.58	3.296
631.91	3.374
632.24	3.170
632.57	2.657
632.90	1.906
633.23	3.367
633.56	2.041
633.89	1.860
634.22	2.807
634.55	3.445
634.88	2.706
635.20	3.014
635.53	2.373
635.86	3.142
636.19	4.984
636.52	2.110
636.85	2.554
637.18	3.119
637.51	2.473
637.83	3.322
638.16	2.304
638.49	1.174
638.82	2.142
639.15	2.520
639.48	2.771
639.81	2.771
640.13	2.238
640.46	0.848
640.79	1.471
641.12	2.733
641.45	0.753
641.77	2.054
642.10	2.493
642.43	2.793
642.76	3.252
643.09	1.781
643.41	1.681
643.74	1.655
644.07	3.724
644.40	0.990
644.73	2.177
645.05	-0.147
645.38	1.151
645.71	1.760
646.04	2.869
646.36	0.730
646.69	0.767
647.02	1.835
647.35	2.443
647.67	0.644
648.00	-1.592
648.33	0.901
648.66	1.284
648.98	1.224
649.31	1.488
649.64	3.187
649.96	1.857
650.29	-0.278
650.62	0.990
650.94	1.201
651.27	0.599
651.60	0.877
651.92	0.912
652.25	2.460
652.58	1.651
652.90	-0.291
653.23	1.408
