SpectraSuite Data File
++++++++++++++++++++++++++++++++++++
Date: Thu May 14 14:47:33 PDT 2015
User: schluterlab
Dark Spectrum Present: Yes
Reference Spectrum Present: Yes
Number of Sampled Component Spectra: 1
Spectrometers: USB2E3373
Integration Time (usec): 3000 (USB2E3373)
Spectra Averaged: 3 (USB2E3373)
Boxcar Smoothing: 0 (USB2E3373)
Correct for Electrical Dark: No (USB2E3373)
Strobe/Lamp Enabled: No (USB2E3373)
Correct for Detector Non-linearity: No (USB2E3373)
Correct for Stray Light: No (USB2E3373)
Number of Pixels in Processed Spectrum: 2048
>>>>>Begin Processed Spectral Data<<<<<
178.53	0.000
178.91	114.286
179.29	-200.000
179.67	-500.000
180.04	114.286
180.42	-30.000
180.80	120.000
181.18	-100.000
181.56	1100.000
181.94	225.000
182.31	0.000
182.69	66.667
183.07	-300.000
183.45	300.000
183.83	16.667
184.20	0.000
184.58	500.000
184.96	-275.000
185.34	-11.111
185.72	0.000
186.09	233.333
186.47	400.000
186.85	220.000
187.23	-111.111
187.61	-800.000
187.98	60.000
188.36	175.000
188.74	125.000
189.12	-100.000
189.49	31.250
189.87	-50.000
190.25	22.222
190.63	-180.000
191.00	-88.889
191.38	0.000
191.76	-250.000
192.14	-116.667
192.51	650.000
192.89	-33.333
193.27	0.000
193.65	-28.571
194.02	-1400.000
194.40	-114.286
194.78	28.571
195.15	0.000
195.53	36.364
195.91	0.000
196.29	-225.000
196.66	-7.692
197.04	-600.000
197.42	-114.286
197.79	-250.000
198.17	0.000
198.55	-42.857
198.92	0.000
199.30	-100.000
199.68	81.818
200.05	7.143
200.43	150.000
200.81	28.571
201.18	0.000
201.56	111.111
201.94	0.000
202.31	233.333
202.69	-111.111
203.07	-300.000
203.44	-33.333
203.82	25.000
204.19	-33.333
204.57	-83.333
204.95	-137.500
205.32	-500.000
205.70	25.000
206.08	33.333
206.45	0.000
206.83	260.000
207.20	-66.667
207.58	-120.000
207.96	-133.333
208.33	116.667
208.71	66.667
209.08	50.000
209.46	0.000
209.84	83.333
210.21	-150.000
210.59	150.000
210.96	400.000
211.34	-25.000
211.71	-62.500
212.09	100.000
212.46	0.000
212.84	700.000
213.22	-200.000
213.59	-100.000
213.97	40.000
214.34	-66.667
214.72	83.333
215.09	0.000
215.47	0.000
215.84	57.143
216.22	500.000
216.59	-100.000
216.97	-80.000
217.34	50.000
217.72	0.000
218.09	-250.000
218.47	-150.000
218.84	0.000
219.22	160.000
219.59	58.824
219.97	0.000
220.34	500.000
220.72	-100.000
221.09	23.077
221.47	0.000
221.84	0.000
222.22	-171.429
222.59	0.000
222.97	-12.500
223.34	-200.000
223.72	100.000
224.09	25.000
224.46	150.000
224.84	140.000
225.21	-171.429
225.59	-350.000
225.96	-225.000
226.34	15.385
226.71	16.667
227.08	-450.000
227.46	60.000
227.83	-100.000
228.21	47.368
228.58	-25.000
228.95	500.000
229.33	-8.333
229.70	30.000
230.08	68.421
230.45	90.000
230.82	-100.000
231.20	-35.714
231.57	16.667
231.95	36.364
232.32	54.545
232.69	45.000
233.07	-75.000
233.44	29.412
233.81	-30.000
234.19	27.778
234.56	9.091
234.93	41.379
235.31	26.316
235.68	33.333
236.05	-15.000
236.43	80.769
236.80	40.000
237.17	7.407
237.55	66.667
237.92	-20.000
238.29	32.258
238.67	31.818
239.04	27.778
239.41	23.810
239.79	23.913
240.16	7.407
240.53	28.261
240.91	-1.961
241.28	21.311
241.65	49.254
242.02	39.189
242.40	27.692
242.77	14.667
243.14	15.854
243.51	31.579
243.89	19.231
244.26	44.554
244.63	33.333
245.00	32.710
245.38	27.193
245.75	23.894
246.12	31.746
246.49	29.457
246.87	33.571
247.24	33.775
247.61	28.947
247.98	30.872
248.36	28.395
248.73	23.926
249.10	25.137
249.47	35.821
249.84	37.696
250.22	32.124
250.59	29.444
250.96	40.455
251.33	29.592
251.70	30.769
252.08	31.250
252.45	35.656
252.82	35.124
253.19	31.641
253.56	33.840
253.94	29.615
254.31	33.712
254.68	33.916
255.05	33.876
255.42	31.973
255.79	30.421
256.16	30.795
256.54	32.450
256.91	32.131
257.28	28.852
257.65	30.892
258.02	28.319
258.39	30.199
258.76	34.862
259.14	33.621
259.51	33.141
259.88	30.878
260.25	30.833
260.62	32.877
260.99	31.421
261.36	37.534
261.73	32.891
262.10	33.516
262.47	32.976
262.85	34.091
263.22	34.026
263.59	29.737
263.96	33.760
264.33	33.760
264.70	31.852
265.07	34.368
265.44	34.240
265.81	29.167
266.18	33.107
266.55	31.473
266.92	30.979
267.29	33.042
267.66	31.707
268.03	35.590
268.40	30.063
268.77	30.979
269.14	32.159
269.51	32.456
269.88	31.762
270.25	33.400
270.62	32.489
270.99	32.121
271.36	33.663
271.73	32.024
272.10	31.864
272.47	30.060
272.84	31.124
273.21	30.261
273.58	28.024
273.95	31.154
274.32	28.327
274.69	28.627
275.06	30.403
275.43	30.684
275.80	28.924
276.17	29.630
276.54	27.985
276.91	30.590
277.28	30.018
277.65	31.598
278.02	28.676
278.39	30.616
278.76	30.228
279.13	30.142
279.50	29.038
279.87	31.843
280.23	27.289
280.60	30.339
280.97	29.770
281.34	29.372
281.71	28.596
282.08	29.070
282.45	27.660
282.82	28.728
283.19	28.433
283.56	29.672
283.92	30.631
284.29	31.122
284.66	30.378
285.03	29.487
285.40	28.594
285.77	29.102
286.14	29.618
286.51	29.985
286.87	29.068
287.24	29.367
287.61	28.999
287.98	28.399
288.35	28.550
288.72	28.994
289.08	29.722
289.45	27.663
289.82	27.560
290.19	28.736
290.56	26.620
290.93	30.813
291.29	27.410
291.66	26.722
292.03	27.951
292.40	28.707
292.77	26.954
293.13	27.199
293.50	26.018
293.87	25.906
294.24	28.000
294.60	27.939
294.97	25.369
295.34	27.529
295.71	26.482
296.08	26.873
296.44	25.245
296.81	25.091
297.18	25.903
297.55	25.708
297.91	24.674
298.28	24.408
298.65	22.830
299.02	24.085
299.38	25.629
299.75	24.299
300.12	25.231
300.48	25.230
300.85	24.972
301.22	25.168
301.59	24.429
301.95	25.198
302.32	25.667
302.69	24.754
303.05	24.918
303.42	25.942
303.79	25.938
304.15	25.552
304.52	24.736
304.89	25.340
305.25	25.673
305.62	25.601
305.99	24.845
306.35	25.403
306.72	25.957
307.09	24.975
307.45	25.259
307.82	24.622
308.19	25.530
308.55	25.072
308.92	24.343
309.29	26.054
309.65	25.049
310.02	25.842
310.38	25.492
310.75	26.408
311.12	25.120
311.48	26.100
311.85	26.496
312.22	26.850
312.58	26.009
312.95	25.526
313.31	26.378
313.68	26.282
314.05	28.275
314.41	25.956
314.78	26.612
315.14	27.405
315.51	27.054
315.87	29.073
316.24	27.489
316.61	27.531
316.97	25.611
317.34	28.307
317.70	29.782
318.07	27.690
318.43	26.701
318.80	27.341
319.16	28.755
319.53	26.050
319.89	27.344
320.26	28.025
320.62	26.418
320.99	28.163
321.35	28.281
321.72	29.302
322.08	28.494
322.45	29.810
322.81	29.693
323.18	29.027
323.54	28.276
323.91	30.338
324.27	30.034
324.64	31.318
325.00	31.012
325.37	30.057
325.73	30.165
326.10	29.116
326.46	31.596
326.83	31.946
327.19	31.575
327.56	32.648
327.92	31.235
328.29	30.806
328.65	31.575
329.01	32.995
329.38	32.182
329.74	31.849
330.11	32.791
330.47	33.361
330.84	32.386
331.20	33.500
331.56	33.536
331.93	33.305
332.29	33.475
332.66	33.638
333.02	32.747
333.38	32.634
333.75	33.333
334.11	34.445
334.48	34.241
334.84	33.390
335.20	33.921
335.57	33.895
335.93	33.140
336.29	33.278
336.66	32.632
337.02	33.612
337.38	33.503
337.75	34.132
338.11	34.399
338.47	32.423
338.84	33.333
339.20	32.856
339.56	33.114
339.93	32.512
340.29	31.643
340.65	31.630
341.02	33.520
341.38	33.064
341.74	31.638
342.11	32.261
342.47	32.168
342.83	32.931
343.20	33.769
343.56	32.638
343.92	32.906
344.28	32.188
344.65	32.791
345.01	31.981
345.37	32.659
345.73	32.034
346.10	33.307
346.46	31.092
346.82	30.787
347.19	31.551
347.55	31.715
347.91	31.798
348.27	31.791
348.63	31.379
349.00	31.245
349.36	31.227
349.72	30.729
350.08	32.021
350.45	30.646
350.81	31.373
351.17	31.429
351.53	32.600
351.89	30.600
352.26	30.746
352.62	31.269
352.98	31.985
353.34	31.068
353.70	31.664
354.07	32.116
354.43	29.689
354.79	30.142
355.15	31.126
355.51	31.579
355.87	31.488
356.24	30.722
356.60	29.120
356.96	31.727
357.32	30.186
357.68	30.015
358.04	30.015
358.40	30.522
358.77	31.140
359.13	30.502
359.49	29.963
359.85	31.835
360.21	29.770
360.57	30.223
360.93	30.113
361.29	30.526
361.66	31.064
362.02	31.315
362.38	30.850
362.74	30.656
363.10	29.298
363.46	30.402
363.82	30.540
364.18	30.683
364.54	30.360
364.90	30.569
365.26	30.897
365.62	29.667
365.98	29.884
366.35	29.799
366.71	30.272
367.07	30.650
367.43	30.007
367.79	29.263
368.15	30.903
368.51	31.191
368.87	29.262
369.23	30.000
369.59	29.235
369.95	29.344
370.31	30.993
370.67	29.986
371.03	29.571
371.39	29.550
371.75	29.986
372.11	28.523
372.47	28.978
372.83	29.123
373.19	29.887
373.55	29.336
373.91	29.175
374.27	29.884
374.63	29.364
374.99	29.576
375.35	29.805
375.71	29.290
376.07	29.503
376.42	29.345
376.78	30.329
377.14	28.946
377.50	30.234
377.86	30.172
378.22	30.299
378.58	30.083
378.94	29.343
379.30	29.408
379.66	29.688
380.02	29.371
380.38	30.184
380.74	29.296
381.09	29.443
381.45	29.886
381.81	30.035
382.17	29.632
382.53	29.649
382.89	28.555
383.25	30.129
383.61	28.241
383.97	29.329
384.32	30.383
384.68	28.190
385.04	28.861
385.40	29.523
385.76	29.777
386.12	29.503
386.48	30.412
386.83	29.142
387.19	29.200
387.55	29.401
387.91	28.368
388.27	30.543
388.62	29.038
388.98	28.821
389.34	28.816
389.70	29.285
390.06	29.899
390.42	28.193
390.77	29.320
391.13	28.110
391.49	29.167
391.85	28.970
392.20	28.470
392.56	29.888
392.92	27.917
393.28	28.579
393.64	29.441
393.99	28.879
394.35	28.096
394.71	28.743
395.07	28.802
395.42	28.270
395.78	29.007
396.14	29.412
396.50	28.563
396.85	29.398
397.21	29.231
397.57	29.446
397.92	28.522
398.28	27.865
398.64	28.261
399.00	27.696
399.35	28.482
399.71	28.967
400.07	29.029
400.42	28.987
400.78	28.299
401.14	28.799
401.49	28.653
401.85	28.663
402.21	29.896
402.57	29.636
402.92	28.251
403.28	27.459
403.63	28.222
403.99	26.722
404.35	28.539
404.70	28.329
405.06	28.152
405.42	28.396
405.77	28.571
406.13	27.607
406.49	28.209
406.84	28.753
407.20	28.731
407.55	27.559
407.91	27.530
408.27	27.974
408.62	27.458
408.98	27.452
409.34	27.038
409.69	27.441
410.05	27.550
410.40	28.132
410.76	27.762
411.11	28.112
411.47	27.457
411.83	28.219
412.18	28.554
412.54	27.623
412.89	28.231
413.25	27.765
413.60	27.800
413.96	28.380
414.31	27.819
414.67	27.788
415.03	27.446
415.38	28.058
415.74	27.428
416.09	28.439
416.45	27.051
416.80	27.785
417.16	28.608
417.51	27.210
417.87	28.633
418.22	27.784
418.58	28.315
418.93	28.405
419.29	28.977
419.64	27.251
420.00	28.131
420.35	28.074
420.71	28.374
421.06	27.315
421.42	27.810
421.77	27.464
422.12	28.277
422.48	28.315
422.83	28.313
423.19	28.488
423.54	29.425
423.90	28.493
424.25	28.747
424.61	27.956
424.96	29.105
425.31	28.450
425.67	27.590
426.02	28.556
426.38	28.358
426.73	29.297
427.09	30.334
427.44	28.618
427.79	29.464
428.15	28.425
428.50	28.427
428.85	28.588
429.21	29.574
429.56	28.578
429.92	28.943
430.27	29.639
430.62	29.702
430.98	29.070
431.33	28.788
431.68	28.496
432.04	29.507
432.39	29.673
432.74	29.509
433.10	30.341
433.45	29.320
433.80	29.560
434.16	28.564
434.51	28.880
434.86	30.022
435.22	29.968
435.57	30.660
435.92	29.605
436.28	30.489
436.63	30.475
436.98	29.898
437.34	30.665
437.69	29.664
438.04	29.561
438.39	30.615
438.75	30.714
439.10	30.391
439.45	29.961
439.81	29.718
440.16	30.456
440.51	29.822
440.86	30.962
441.22	31.297
441.57	30.975
441.92	29.874
442.27	31.111
442.63	30.204
442.98	30.470
443.33	29.406
443.68	29.980
444.03	31.750
444.39	31.392
444.74	30.883
445.09	30.056
445.44	30.980
445.79	31.418
446.15	31.295
446.50	31.163
446.85	30.934
447.20	31.673
447.55	31.119
447.91	31.309
448.26	30.655
448.61	31.031
448.96	32.350
449.31	32.078
449.66	30.991
450.02	31.224
450.37	31.220
450.72	32.078
451.07	32.460
451.42	31.947
451.77	31.629
452.12	32.562
452.47	31.967
452.83	31.306
453.18	31.524
453.53	31.246
453.88	31.916
454.23	32.768
454.58	32.327
454.93	32.646
455.28	33.353
455.63	33.144
455.98	33.184
456.34	32.509
456.69	33.275
457.04	33.688
457.39	32.761
457.74	33.110
458.09	32.345
458.44	32.166
458.79	32.955
459.14	32.250
459.49	33.333
459.84	33.368
460.19	31.871
460.54	32.993
460.89	34.039
461.24	32.586
461.59	34.200
461.94	32.288
462.29	33.315
462.64	33.072
462.99	33.271
463.34	34.134
463.69	32.943
464.04	34.241
464.39	34.081
464.74	33.181
465.09	33.737
465.44	33.637
465.79	32.787
466.14	32.830
466.49	33.105
466.84	32.893
467.19	32.775
467.54	33.784
467.89	33.391
468.24	33.629
468.59	33.353
468.94	33.508
469.29	33.233
469.64	33.821
469.99	34.481
470.34	34.777
470.68	34.040
471.03	34.905
471.38	34.336
471.73	34.720
472.08	34.074
472.43	34.798
472.78	34.761
473.13	34.008
473.48	35.650
473.83	35.113
474.17	35.111
474.52	35.358
474.87	35.382
475.22	34.423
475.57	34.112
475.92	34.744
476.27	34.558
476.61	34.268
476.96	34.307
477.31	35.149
477.66	36.149
478.01	34.875
478.36	34.746
478.70	35.074
479.05	35.787
479.40	35.538
479.75	34.870
480.10	35.907
480.45	35.643
480.79	36.054
481.14	35.340
481.49	35.348
481.84	36.162
482.19	35.914
482.53	35.811
482.88	35.667
483.23	35.972
483.58	35.153
483.92	35.550
484.27	35.055
484.62	34.488
484.97	34.720
485.31	34.530
485.66	32.568
486.01	31.505
486.36	32.420
486.70	33.847
487.05	34.885
487.40	34.293
487.75	34.911
488.09	35.390
488.44	36.128
488.79	35.110
489.13	35.228
489.48	34.680
489.83	35.010
490.17	35.237
490.52	36.125
490.87	36.421
491.22	35.875
491.56	36.177
491.91	35.979
492.26	36.261
492.60	35.199
492.95	36.332
493.30	37.069
493.64	36.618
493.99	36.053
494.34	35.497
494.68	35.760
495.03	35.947
495.37	36.840
495.72	36.961
496.07	36.810
496.41	36.251
496.76	37.031
497.11	36.306
497.45	37.117
497.80	37.317
498.14	36.599
498.49	36.305
498.84	36.837
499.18	37.382
499.53	36.771
499.87	36.571
500.22	36.509
500.56	37.112
500.91	37.620
501.26	38.136
501.60	37.605
501.95	37.343
502.29	37.429
502.64	38.260
502.98	37.274
503.33	36.717
503.67	36.808
504.02	36.471
504.36	38.606
504.71	37.621
505.06	37.290
505.40	38.163
505.75	36.885
506.09	37.385
506.44	38.115
506.78	38.899
507.13	37.160
507.47	38.323
507.82	37.027
508.16	37.237
508.51	37.459
508.85	38.214
509.19	37.991
509.54	39.289
509.88	38.708
510.23	39.097
510.57	38.328
510.92	38.026
511.26	37.951
511.61	37.615
511.95	38.458
512.30	39.045
512.64	38.531
512.98	39.970
513.33	38.911
513.67	39.470
514.02	40.010
514.36	39.386
514.70	39.688
515.05	40.146
515.39	40.420
515.74	40.403
516.08	39.672
516.42	40.502
516.77	40.589
517.11	39.711
517.46	40.509
517.80	40.673
518.14	41.186
518.49	41.323
518.83	39.755
519.17	39.957
519.52	39.518
519.86	40.496
520.20	39.936
520.55	40.361
520.89	41.385
521.23	40.313
521.58	41.073
521.92	40.680
522.26	40.836
522.61	41.898
522.95	41.176
523.29	41.609
523.64	40.919
523.98	42.156
524.32	42.521
524.66	40.865
525.01	40.713
525.35	41.298
525.69	41.821
526.04	41.389
526.38	41.494
526.72	41.638
527.06	41.818
527.41	41.341
527.75	43.052
528.09	41.145
528.43	41.267
528.78	40.694
529.12	40.826
529.46	40.978
529.80	41.991
530.15	41.333
530.49	41.578
530.83	41.263
531.17	41.995
531.51	43.141
531.86	42.428
532.20	41.829
532.54	40.993
532.88	41.758
533.22	41.485
533.57	41.085
533.91	41.975
534.25	40.814
534.59	42.874
534.93	41.200
535.27	41.296
535.62	42.581
535.96	41.546
536.30	41.833
536.64	42.823
536.98	42.804
537.32	42.469
537.66	42.233
538.01	41.088
538.35	41.169
538.69	42.067
539.03	42.121
539.37	42.108
539.71	41.502
540.05	42.026
540.39	42.604
540.73	41.834
541.07	42.918
541.42	41.465
541.76	41.815
542.10	40.651
542.44	41.169
542.78	42.032
543.12	42.014
543.46	42.125
543.80	41.307
544.14	41.233
544.48	41.076
544.82	42.729
545.16	42.218
545.50	41.462
545.84	42.621
546.18	42.840
546.52	42.611
546.86	41.950
547.20	42.494
547.54	42.260
547.88	41.893
548.22	41.170
548.56	42.130
548.90	41.194
549.24	41.520
549.58	42.461
549.92	43.686
550.26	42.136
550.60	41.991
550.94	43.661
551.28	43.828
551.62	43.127
551.96	41.294
552.30	42.129
552.64	42.875
552.98	42.233
553.32	43.730
553.66	43.666
554.00	42.812
554.34	41.892
554.68	42.156
555.02	42.510
555.36	43.458
555.69	41.832
556.03	42.308
556.37	43.554
556.71	43.183
557.05	41.981
557.39	42.402
557.73	43.263
558.07	42.517
558.41	43.189
558.75	43.611
559.08	43.911
559.42	42.250
559.76	43.826
560.10	43.135
560.44	43.338
560.78	42.625
561.12	42.365
561.45	42.883
561.79	42.308
562.13	43.192
562.47	40.875
562.81	43.481
563.15	43.245
563.48	43.567
563.82	42.684
564.16	41.975
564.50	41.895
564.84	41.180
565.17	42.118
565.51	41.369
565.85	41.983
566.19	42.627
566.52	42.013
566.86	42.105
567.20	41.164
567.54	42.432
567.88	41.845
568.21	41.502
568.55	41.583
568.89	39.855
569.23	39.797
569.56	38.648
569.90	38.810
570.24	38.685
570.57	39.096
570.91	38.120
571.25	37.634
571.59	37.796
571.92	37.367
572.26	37.110
572.60	37.947
572.93	37.796
573.27	37.258
573.61	37.321
573.95	37.412
574.28	36.720
574.62	37.017
574.96	36.414
575.29	35.999
575.63	36.683
575.97	37.317
576.30	36.985
576.64	36.197
576.98	36.492
577.31	36.618
577.65	37.000
577.98	36.653
578.32	35.907
578.66	35.903
578.99	36.822
579.33	36.683
579.67	37.171
580.00	36.165
580.34	36.126
580.67	36.430
581.01	36.889
581.35	36.295
581.68	36.149
582.02	35.407
582.35	36.402
582.69	36.640
583.02	36.460
583.36	36.948
583.70	36.969
584.03	37.029
584.37	37.571
584.70	36.797
585.04	36.131
585.37	36.368
585.71	36.397
586.04	36.284
586.38	36.560
586.72	36.776
587.05	36.685
587.39	37.173
587.72	36.962
588.06	36.992
588.39	37.092
588.73	36.376
589.06	38.177
589.40	38.353
589.73	37.629
590.07	38.362
590.40	38.337
590.73	38.530
591.07	39.315
591.40	38.569
591.74	38.831
592.07	39.342
592.41	38.446
592.74	36.954
593.08	37.643
593.41	38.233
593.75	37.816
594.08	37.261
594.41	37.532
594.75	37.795
595.08	38.694
595.42	37.597
595.75	37.682
596.09	38.055
596.42	38.194
596.75	38.711
597.09	40.202
597.42	39.174
597.75	37.946
598.09	37.857
598.42	39.807
598.76	38.250
599.09	38.697
599.42	36.943
599.76	37.339
600.09	37.938
600.42	37.738
600.76	37.120
601.09	37.371
601.42	37.212
601.76	37.517
602.09	37.920
602.42	37.623
602.76	37.934
603.09	38.326
603.42	38.114
603.76	37.738
604.09	38.822
604.42	38.716
604.76	38.090
605.09	37.774
605.42	37.719
605.75	37.808
606.09	37.850
606.42	37.906
606.75	37.144
607.09	37.788
607.42	37.495
607.75	38.609
608.08	38.713
608.42	37.606
608.75	38.516
609.08	38.243
609.41	39.038
609.75	38.616
610.08	40.633
610.41	37.978
610.74	38.403
611.07	39.387
611.41	39.013
611.74	39.446
612.07	39.504
612.40	39.401
612.73	39.853
613.07	39.756
613.40	39.461
613.73	39.095
614.06	39.745
614.39	38.630
614.72	38.671
615.06	39.365
615.39	39.053
615.72	38.957
616.05	39.777
616.38	40.212
616.71	40.282
617.05	39.510
617.38	40.824
617.71	40.443
618.04	40.205
618.37	40.874
618.70	40.441
619.03	40.323
619.36	41.060
619.69	41.832
620.03	40.929
620.36	41.166
620.69	40.654
621.02	41.404
621.35	43.469
621.68	43.312
622.01	42.633
622.34	42.887
622.67	42.131
623.00	40.621
623.33	42.137
623.66	41.440
623.99	41.277
624.32	43.080
624.65	40.090
624.99	41.938
625.32	42.195
625.65	41.537
625.98	41.966
626.31	42.948
626.64	42.857
626.97	42.311
627.30	42.976
627.63	43.286
627.96	43.769
628.29	44.514
628.62	43.997
628.95	44.698
629.28	42.906
629.61	44.024
629.94	44.100
630.26	42.288
630.59	45.164
630.92	42.597
631.25	45.081
631.58	44.821
631.91	44.799
632.24	45.053
632.57	43.548
632.90	45.035
633.23	46.429
633.56	46.531
633.89	47.107
634.22	45.842
