SpectraSuite Data File
++++++++++++++++++++++++++++++++++++
Date: Thu May 14 15:02:37 PDT 2015
User: schluterlab
Dark Spectrum Present: Yes
Reference Spectrum Present: Yes
Number of Sampled Component Spectra: 1
Spectrometers: USB2E3373
Integration Time (usec): 3000 (USB2E3373)
Spectra Averaged: 3 (USB2E3373)
Boxcar Smoothing: 0 (USB2E3373)
Correct for Electrical Dark: No (USB2E3373)
Strobe/Lamp Enabled: No (USB2E3373)
Correct for Detector Non-linearity: No (USB2E3373)
Correct for Stray Light: No (USB2E3373)
Number of Pixels in Processed Spectrum: 2048
>>>>>Begin Processed Spectral Data<<<<<
178.53	0.000
178.91	385.714
179.29	-3300.000
179.67	-2500.000
180.04	271.429
180.42	170.000
180.80	440.000
181.18	-2600.000
181.56	-1800.000
181.94	525.000
182.31	-725.000
182.69	700.000
183.07	-1250.000
183.45	775.000
183.83	-233.333
184.20	-1066.667
184.58	2900.000
184.96	-1000.000
185.34	-300.000
185.72	-380.000
186.09	422.222
186.47	1600.000
186.85	460.000
187.23	-211.111
187.61	-2600.000
187.98	500.000
188.36	725.000
188.74	-675.000
189.12	-566.667
189.49	-168.750
189.87	-250.000
190.25	-233.333
190.63	-480.000
191.00	-355.556
191.38	0.000
191.76	-675.000
192.14	-283.333
192.51	1200.000
192.89	-300.000
193.27	0.000
193.65	-285.714
194.02	-3100.000
194.40	-314.286
194.78	557.143
195.15	0.000
195.53	-163.636
195.91	0.000
196.29	-325.000
196.66	-215.385
197.04	-3100.000
197.42	-371.429
197.79	-850.000
198.17	-225.000
198.55	-314.286
198.92	-200.000
199.30	-400.000
199.68	-181.818
200.05	-128.571
200.43	-1150.000
200.81	442.857
201.18	0.000
201.56	388.889
201.94	0.000
202.31	966.667
202.69	-266.667
203.07	800.000
203.44	-188.889
203.82	-550.000
204.19	-166.667
204.57	-416.667
204.95	-350.000
205.32	-2100.000
205.70	625.000
206.08	-283.333
206.45	-416.667
206.83	600.000
207.20	-350.000
207.58	-740.000
207.96	-300.000
208.33	-333.333
208.71	200.000
209.08	-183.333
209.46	0.000
209.84	616.667
210.21	1150.000
210.59	1550.000
210.96	900.000
211.34	-525.000
211.71	-275.000
212.09	-3200.000
212.46	0.000
212.84	1700.000
213.22	-600.000
213.59	-750.000
213.97	-250.000
214.34	-633.333
214.72	450.000
215.09	-525.000
215.47	0.000
215.84	271.429
216.22	1550.000
216.59	-640.000
216.97	-540.000
217.34	-475.000
217.72	-200.000
218.09	-825.000
218.47	-675.000
218.84	0.000
219.22	240.000
219.59	-117.647
219.97	-80.000
220.34	1250.000
220.72	-222.222
221.09	-61.538
221.47	-766.667
221.84	-140.000
222.22	-328.571
222.59	0.000
222.97	-325.000
223.34	-500.000
223.72	-1800.000
224.09	-850.000
224.46	-875.000
224.84	-520.000
225.21	-357.143
225.59	-750.000
225.96	-725.000
226.34	-88.462
226.71	550.000
227.08	-950.000
227.46	-46.667
227.83	-650.000
228.21	-84.211
228.58	262.500
228.95	1200.000
229.33	-191.667
229.70	-230.000
230.08	-42.105
230.45	300.000
230.82	-833.333
231.20	-142.857
231.57	-133.333
231.95	-118.182
232.32	-118.182
232.69	-55.000
233.07	-550.000
233.44	-129.412
233.81	-160.000
234.19	-105.556
234.56	-95.455
234.93	-37.931
235.31	-68.421
235.68	-94.444
236.05	-145.000
236.43	-19.231
236.80	-60.000
237.17	-55.556
237.55	-48.485
237.92	-230.000
238.29	-48.387
238.67	-22.727
239.04	-47.222
239.41	-64.286
239.79	-23.913
240.16	-25.926
240.53	-34.783
240.91	-60.784
241.28	-14.754
241.65	-13.433
242.02	-10.811
242.40	-24.615
242.77	-17.333
243.14	-18.293
243.51	-28.947
243.89	-7.692
244.26	1.980
244.63	-3.922
245.00	-2.804
245.38	-3.509
245.75	-19.469
246.12	-2.381
246.49	0.000
246.87	3.571
247.24	9.934
247.61	6.579
247.98	7.383
248.36	1.235
248.73	-1.840
249.10	6.011
249.47	8.458
249.84	13.613
250.22	2.073
250.59	1.667
250.96	8.182
251.33	0.510
251.70	11.966
252.08	4.167
252.45	7.377
252.82	7.851
253.19	6.641
253.56	9.886
253.94	6.538
254.31	9.848
254.68	13.287
255.05	10.749
255.42	9.184
255.79	5.502
256.16	9.603
256.54	9.934
256.91	9.180
257.28	13.115
257.65	6.051
258.02	7.080
258.39	10.256
258.76	11.927
259.14	10.632
259.51	9.798
259.88	3.399
260.25	11.389
260.62	10.411
260.99	11.202
261.36	9.651
261.73	11.141
262.10	10.989
262.47	8.311
262.85	12.626
263.22	10.390
263.59	8.421
263.96	10.230
264.33	8.184
264.70	9.877
265.07	12.411
265.44	15.873
265.81	9.954
266.18	10.658
266.55	11.384
266.92	8.428
267.29	10.941
267.66	10.200
268.03	10.480
268.40	10.647
268.77	7.745
269.14	8.811
269.51	11.184
269.88	14.344
270.25	12.676
270.62	11.392
270.99	11.313
271.36	12.871
271.73	12.181
272.10	12.024
272.47	11.824
272.84	11.847
273.21	11.022
273.58	12.702
273.95	8.846
274.32	8.745
274.69	9.865
275.06	11.722
275.43	9.612
275.80	12.698
276.17	12.037
276.54	11.007
276.91	9.123
277.28	10.127
277.65	12.029
278.02	12.316
278.39	11.051
278.76	10.369
279.13	10.816
279.50	12.199
279.87	10.376
280.23	9.859
280.60	12.034
280.97	11.020
281.34	10.866
281.71	12.690
282.08	11.130
282.45	12.439
282.82	10.989
283.19	10.985
283.56	12.295
283.92	12.312
284.29	15.798
284.66	10.181
285.03	10.256
285.40	12.365
285.77	10.372
286.14	12.061
286.51	12.329
286.87	12.006
287.24	12.801
287.61	13.004
287.98	12.840
288.35	11.095
288.72	12.278
289.08	12.006
289.45	10.799
289.82	11.145
290.19	13.218
290.56	13.944
290.93	13.980
291.29	12.397
291.66	12.397
292.03	11.805
292.40	14.150
292.77	12.129
293.13	13.667
293.50	11.958
293.87	11.544
294.24	13.333
294.60	13.401
294.97	11.946
295.34	15.493
295.71	13.745
296.08	11.499
296.44	12.868
296.81	13.642
297.18	12.951
297.55	13.679
297.91	12.456
298.28	13.152
298.65	13.317
299.02	12.751
299.38	14.874
299.75	13.902
300.12	12.384
300.48	14.862
300.85	14.623
301.22	14.430
301.59	13.242
301.95	14.576
302.32	14.889
302.69	14.567
303.05	15.778
303.42	14.523
303.79	14.583
304.15	15.037
304.52	14.693
304.89	14.869
305.25	15.424
305.62	13.898
305.99	15.464
306.35	13.911
306.72	14.581
307.09	14.822
307.45	15.942
307.82	14.834
308.19	14.329
308.55	16.683
308.92	15.774
309.29	14.847
309.65	15.302
310.02	15.743
310.38	15.354
310.75	16.117
311.12	16.299
311.48	15.934
311.85	16.239
312.22	16.129
312.58	17.746
312.95	16.157
313.31	16.893
313.68	16.300
314.05	17.254
314.41	16.302
314.78	18.347
315.14	16.152
315.51	16.990
315.87	17.732
316.24	17.443
316.61	17.407
316.97	16.380
317.34	16.578
317.70	19.039
318.07	18.871
318.43	18.027
318.80	19.314
319.16	17.339
319.53	16.281
319.89	18.054
320.26	17.705
320.62	16.933
320.99	18.467
321.35	17.652
321.72	19.256
322.08	18.305
322.45	18.067
322.81	18.953
323.18	19.115
323.54	20.345
323.91	20.907
324.27	20.052
324.64	21.327
325.00	20.232
325.37	21.704
325.73	22.231
326.10	22.060
326.46	22.883
326.83	24.420
327.19	23.150
327.56	23.953
327.92	23.997
328.29	24.355
328.65	24.874
329.01	23.942
329.38	26.285
329.74	26.370
330.11	26.541
330.47	25.864
330.84	27.132
331.20	26.667
331.56	26.170
331.93	27.615
332.29	27.542
332.66	27.243
333.02	26.884
333.38	26.762
333.75	29.545
334.11	28.941
334.48	28.960
334.84	29.312
335.20	27.372
335.57	29.680
335.93	29.669
336.29	27.704
336.66	29.184
337.02	29.097
337.38	29.252
337.75	28.595
338.11	30.362
338.47	29.859
338.84	29.103
339.20	29.065
339.56	28.748
339.93	29.557
340.29	28.744
340.65	29.116
341.02	29.130
341.38	30.396
341.74	29.459
342.11	29.445
342.47	28.832
342.83	30.515
343.20	29.926
343.56	29.671
343.92	29.303
344.28	28.906
344.65	29.690
345.01	29.797
345.37	30.793
345.73	29.462
346.10	28.237
346.46	30.380
346.82	29.663
347.19	29.565
347.55	29.818
347.91	29.569
348.27	28.832
348.63	30.769
349.00	29.008
349.36	29.888
349.72	29.985
350.08	29.495
350.45	29.278
350.81	30.090
351.17	28.647
351.53	30.250
351.89	29.841
352.26	30.224
352.62	30.000
352.98	30.153
353.34	28.977
353.70	29.276
354.07	30.402
354.43	29.233
354.79	30.142
355.15	28.477
355.51	30.044
355.87	30.217
356.24	30.418
356.60	30.673
356.96	30.541
357.32	29.888
357.68	30.015
358.04	29.416
358.40	28.881
358.77	29.825
359.13	29.985
359.49	29.740
359.85	31.037
360.21	30.129
360.57	30.438
360.93	29.408
361.29	30.526
361.66	30.702
362.02	30.759
362.38	30.429
362.74	31.285
363.10	30.124
363.46	31.163
363.82	30.327
364.18	30.753
364.54	31.051
364.90	31.237
365.26	30.828
365.62	31.000
365.98	31.995
366.35	31.409
366.71	30.680
367.07	31.597
367.43	30.269
367.79	31.652
368.15	31.572
368.51	31.461
368.87	31.679
369.23	31.400
369.59	33.675
369.95	32.116
370.31	32.343
370.67	31.224
371.03	33.033
371.39	32.438
371.75	31.706
372.11	30.894
372.47	32.092
372.83	32.134
373.19	33.022
373.55	32.995
373.91	31.220
374.27	32.859
374.63	32.679
374.99	32.095
375.35	32.857
375.71	33.484
376.07	33.054
376.42	33.060
376.78	33.188
377.14	33.250
377.50	33.966
377.86	33.559
378.22	33.892
378.58	35.731
378.94	33.392
379.30	33.743
379.66	34.156
380.02	33.872
380.38	35.829
380.74	34.254
381.09	35.482
381.45	35.398
381.81	34.485
382.17	35.451
382.53	36.023
382.89	35.948
383.25	36.108
383.61	35.880
383.97	35.571
384.32	37.081
384.68	35.673
385.04	36.900
385.40	37.655
385.76	37.163
386.12	36.984
386.48	36.941
386.83	37.545
387.19	36.848
387.55	37.265
387.91	37.842
388.27	37.644
388.62	37.056
388.98	36.999
389.34	39.187
389.70	38.698
390.06	37.359
390.42	37.831
390.77	37.508
391.13	38.263
391.49	38.768
391.85	38.606
392.20	38.553
392.56	38.452
392.92	38.004
393.28	39.138
393.64	38.715
393.99	38.931
394.35	40.362
394.71	39.222
395.07	38.383
395.42	38.435
395.78	40.037
396.14	39.988
396.50	39.430
396.85	38.939
397.21	38.935
397.57	39.753
397.92	39.519
398.28	38.892
398.64	39.645
399.00	38.639
399.35	39.634
399.71	39.293
400.07	39.360
400.42	39.814
400.78	39.931
401.14	39.271
401.49	39.454
401.85	40.116
402.21	40.093
402.57	40.845
402.92	39.243
403.28	38.700
403.63	40.036
403.99	39.430
404.35	39.568
404.70	39.887
405.06	39.130
405.42	39.930
405.77	39.313
406.13	39.870
406.49	40.090
406.84	39.834
407.20	39.743
407.55	39.370
407.91	40.541
408.27	39.635
408.62	39.907
408.98	39.234
409.34	39.296
409.69	41.286
410.05	40.563
410.40	39.965
410.76	39.372
411.11	41.672
411.47	40.356
411.83	40.564
412.18	40.723
412.54	40.368
412.89	40.338
413.25	39.560
413.60	39.977
413.96	41.783
414.31	39.603
414.67	40.191
415.03	40.062
415.38	39.281
415.74	40.195
416.09	41.024
416.45	40.639
416.80	39.229
417.16	39.400
417.51	40.473
417.87	41.202
418.22	40.539
418.58	39.777
418.93	40.105
419.29	40.999
419.64	40.276
420.00	40.831
420.35	40.595
420.71	41.183
421.06	40.368
421.42	40.195
421.77	39.203
422.12	39.323
422.48	40.348
422.83	41.895
423.19	40.796
423.54	41.538
423.90	40.144
424.25	40.960
424.61	40.987
424.96	41.076
425.31	41.242
425.67	41.331
426.02	41.339
426.38	40.528
426.73	41.518
427.09	40.715
427.44	39.924
427.79	41.902
428.15	41.096
428.50	41.461
428.85	40.528
429.21	41.011
429.56	39.882
429.92	41.327
430.27	41.687
430.62	40.743
430.98	41.367
431.33	41.838
431.68	41.092
432.04	41.646
432.39	41.243
432.74	40.982
433.10	41.103
433.45	41.416
433.80	41.094
434.16	41.012
434.51	42.086
434.86	43.105
435.22	42.349
435.57	42.040
435.92	41.068
436.28	41.240
436.63	41.780
436.98	41.922
437.34	41.488
437.69	41.772
438.04	41.512
438.39	41.356
438.75	41.837
439.10	42.125
439.45	42.538
439.81	41.525
440.16	40.643
440.51	41.750
440.86	41.301
441.22	41.104
441.57	41.614
441.92	41.562
442.27	42.727
442.63	41.927
442.98	42.476
443.33	41.662
443.68	42.121
444.03	42.944
444.39	41.933
444.74	42.624
445.09	41.967
445.44	42.993
445.79	42.912
446.15	42.395
446.50	40.982
446.85	42.412
447.20	42.166
447.55	42.992
447.91	42.775
448.26	41.438
448.61	42.827
448.96	43.401
449.31	40.668
449.66	42.320
450.02	42.036
450.37	42.195
450.72	41.550
451.07	42.654
451.42	42.577
451.77	42.246
452.12	43.002
452.47	41.771
452.83	43.131
453.18	40.864
453.53	41.815
453.88	40.972
454.23	43.503
454.58	42.426
454.93	42.233
455.28	43.829
455.63	42.808
455.98	42.402
456.34	42.344
456.69	42.622
457.04	43.144
457.39	42.406
457.74	43.121
458.09	41.955
458.44	43.427
458.79	42.445
459.14	42.003
459.49	43.463
459.84	42.812
460.19	42.921
460.54	44.123
460.89	43.145
461.24	42.471
461.59	43.664
461.94	41.643
462.29	43.673
462.64	42.969
462.99	43.503
463.34	43.738
463.69	43.318
464.04	42.690
464.39	42.265
464.74	42.018
465.09	42.272
465.44	43.187
465.79	43.786
466.14	42.835
466.49	43.211
466.84	43.416
467.19	42.775
467.54	41.716
467.89	41.897
468.24	42.770
468.59	41.517
468.94	42.832
469.29	42.651
469.64	42.594
469.99	43.595
470.34	43.502
470.68	43.404
471.03	42.829
471.38	44.081
471.73	42.198
472.08	42.005
472.43	43.046
472.78	42.947
473.13	43.489
473.48	42.417
473.83	44.109
474.17	42.966
474.52	44.378
474.87	43.023
475.22	43.099
475.57	42.991
475.92	43.156
476.27	43.344
476.61	42.108
476.96	42.805
477.31	43.416
477.66	44.229
478.01	43.315
478.36	42.373
478.70	43.596
479.05	43.967
479.40	44.176
479.75	42.123
480.10	43.344
480.45	43.163
480.79	44.354
481.14	43.015
481.49	43.026
481.84	43.211
482.19	43.914
482.53	43.813
482.88	44.174
483.23	43.442
483.58	43.537
483.92	42.376
484.27	43.057
484.62	42.987
484.97	42.807
485.31	41.922
485.66	39.157
486.01	39.501
486.36	40.686
486.70	43.577
487.05	44.889
487.40	43.859
487.75	43.511
488.09	42.378
488.44	42.170
488.79	41.720
489.13	41.673
489.48	42.214
489.83	42.938
490.17	42.973
490.52	42.077
490.87	42.724
491.22	43.501
491.56	44.070
491.91	44.047
492.26	44.050
492.60	42.763
492.95	42.870
493.30	43.792
493.64	43.057
493.99	43.026
494.34	43.336
494.68	43.426
495.03	44.009
495.37	43.941
495.72	43.220
496.07	42.901
496.41	43.672
496.76	43.369
497.11	44.544
497.45	43.591
497.80	43.314
498.14	42.993
498.49	43.382
498.84	43.327
499.18	42.825
499.53	43.408
499.87	42.593
500.22	42.476
500.56	42.915
500.91	44.073
501.26	44.318
501.60	42.908
501.95	43.161
502.29	43.967
502.64	44.075
502.98	42.105
503.33	42.333
503.67	43.088
504.02	42.732
504.36	44.102
504.71	43.041
505.06	43.156
505.40	43.190
505.75	43.124
506.09	43.048
506.44	44.150
506.78	44.266
507.13	44.076
507.47	43.439
507.82	43.419
508.16	43.069
508.51	42.944
508.85	43.694
509.19	44.339
509.54	45.101
509.88	43.322
510.23	43.371
510.57	43.499
510.92	44.751
511.26	43.771
511.61	42.395
511.95	43.729
512.30	43.968
512.64	43.428
512.98	44.072
513.33	44.405
513.67	43.294
514.02	44.813
514.36	44.348
514.70	44.531
515.05	44.369
515.39	44.147
515.74	45.175
516.08	43.317
516.42	44.270
516.77	44.322
517.11	42.909
517.46	43.425
517.80	45.644
518.14	44.723
518.49	44.360
518.83	43.268
519.17	44.319
519.52	42.872
519.86	44.192
520.20	44.409
520.55	43.812
520.89	45.383
521.23	43.216
521.58	44.689
521.92	44.193
522.26	44.559
522.61	45.023
522.95	44.637
523.29	44.713
523.64	44.002
523.98	45.465
524.32	46.533
524.66	44.849
525.01	43.998
525.35	44.055
525.69	43.968
526.04	44.030
526.38	43.621
526.72	43.137
527.06	45.279
527.41	45.598
527.75	44.596
528.09	44.215
528.43	44.287
528.78	43.931
529.12	43.234
529.46	43.002
529.80	44.508
530.15	43.710
530.49	44.009
530.83	44.510
531.17	44.385
531.51	43.742
531.86	44.531
532.20	45.427
532.54	43.986
532.88	44.121
533.22	44.255
533.57	43.681
533.91	44.220
534.25	43.075
534.59	44.023
534.93	42.784
535.27	44.732
535.62	44.400
535.96	44.567
536.30	43.655
536.64	45.886
536.98	44.588
537.32	45.123
537.66	44.978
538.01	42.477
538.35	43.240
538.69	42.728
539.03	44.758
539.37	43.640
539.71	43.183
540.05	43.705
540.39	42.910
540.73	42.805
541.07	42.857
541.42	43.473
541.76	42.645
542.10	43.124
542.44	43.301
542.78	43.248
543.12	43.206
543.46	43.040
543.80	42.986
544.14	42.729
544.48	44.444
544.82	44.524
545.16	45.081
545.50	43.259
545.84	43.539
546.18	44.938
546.52	43.949
546.86	43.082
547.20	43.448
547.54	42.572
547.88	42.556
548.22	41.930
548.56	42.247
548.90	43.642
549.24	42.553
549.58	41.956
549.92	42.538
550.26	43.689
550.60	43.012
550.94	43.532
551.28	42.838
551.62	43.598
551.96	42.395
552.30	43.531
552.64	43.124
552.98	42.732
553.32	42.958
553.66	42.444
554.00	43.253
554.34	44.080
554.68	41.963
555.02	43.298
555.36	43.655
555.69	41.192
556.03	42.686
556.37	43.304
556.71	43.373
557.05	41.470
557.39	42.734
557.73	43.527
558.07	43.974
558.41	43.455
558.75	42.326
559.08	44.120
559.42	42.661
559.76	42.605
560.10	43.068
560.44	42.942
560.78	42.625
561.12	43.103
561.45	43.187
561.79	42.369
562.13	43.068
562.47	42.047
562.81	43.291
563.15	42.424
563.48	42.573
563.82	42.624
564.16	41.611
564.50	43.147
564.84	42.065
565.17	42.059
565.51	42.060
565.85	41.865
566.19	41.417
566.52	40.784
566.86	42.275
567.20	40.837
567.54	41.636
567.88	41.539
568.21	41.749
568.55	41.583
568.89	41.943
569.23	40.769
569.56	40.680
569.90	40.235
570.24	40.236
570.57	40.507
570.91	39.314
571.25	39.051
571.59	39.633
571.92	39.019
572.26	39.227
572.60	39.176
572.93	39.994
573.27	38.494
573.61	38.751
573.95	38.650
574.28	38.332
574.62	38.654
574.96	38.222
575.29	38.136
575.63	38.554
575.97	38.635
576.30	38.737
576.64	38.392
576.98	37.973
577.31	38.349
577.65	38.403
577.98	37.877
578.32	37.783
578.66	37.787
578.99	38.521
579.33	38.217
579.67	37.738
580.00	37.671
580.34	38.002
580.67	37.599
581.01	37.430
581.35	37.386
581.68	36.948
582.02	38.160
582.35	37.817
582.69	38.146
583.02	38.311
583.36	38.365
583.70	38.650
584.03	37.749
584.37	37.744
584.70	37.286
585.04	37.084
585.37	37.274
585.71	36.936
586.04	37.384
586.38	37.558
586.72	37.528
587.05	37.913
587.39	37.696
587.72	38.062
588.06	38.080
588.39	37.765
588.73	37.513
589.06	38.431
589.40	38.230
589.73	38.785
590.07	38.660
590.40	38.438
590.73	38.565
591.07	38.608
591.40	37.947
591.74	38.315
592.07	38.205
592.41	37.421
592.74	37.664
593.08	37.452
593.41	38.087
593.75	38.305
594.08	38.382
594.41	37.660
594.75	37.363
595.08	37.315
595.42	37.727
595.75	38.005
596.09	38.428
596.42	38.696
596.75	38.595
597.09	38.303
597.42	37.863
597.75	38.534
598.09	38.095
598.42	38.440
598.76	38.097
599.09	38.056
599.42	37.278
599.76	37.306
600.09	37.905
600.42	37.504
600.76	37.517
601.09	37.803
601.42	37.007
601.76	37.517
602.09	37.312
602.42	37.332
602.76	37.417
603.09	38.106
603.42	38.186
603.76	37.491
604.09	38.361
604.42	38.092
604.76	37.519
605.09	37.814
605.42	37.759
605.75	37.846
606.09	37.962
606.42	36.775
606.75	37.031
607.09	37.020
607.42	37.264
607.75	37.476
608.08	37.609
608.42	37.001
608.75	37.604
609.08	37.564
609.41	37.936
609.75	37.545
610.08	38.742
610.41	37.681
610.74	36.387
611.07	38.410
611.41	38.700
611.74	38.522
612.07	38.429
612.40	38.070
612.73	37.995
613.07	39.560
613.40	36.959
613.73	38.421
614.06	38.126
614.39	38.192
614.72	37.991
615.06	38.017
615.39	37.506
615.72	37.962
616.05	38.417
616.38	38.900
616.71	37.931
617.05	37.753
617.38	37.935
617.71	38.067
618.04	38.316
618.37	39.016
618.70	38.575
619.03	38.889
619.36	39.457
619.69	38.501
620.03	39.109
620.36	38.344
620.69	38.125
621.02	39.370
621.35	38.679
621.68	40.853
622.01	39.431
622.34	37.936
622.67	38.625
623.00	37.854
623.33	38.952
623.66	40.143
623.99	38.381
624.32	38.012
624.65	38.095
624.99	39.012
625.32	39.451
625.65	39.447
625.98	38.576
626.31	39.192
626.64	39.341
626.97	40.060
627.30	39.636
627.63	40.510
627.96	39.865
628.29	40.156
628.62	39.127
628.95	40.140
629.28	40.187
629.61	41.414
629.94	39.331
630.26	39.576
630.59	40.155
630.92	38.701
631.25	42.308
631.58	41.808
