SpectraSuite Data File
++++++++++++++++++++++++++++++++++++
Date: Thu May 14 14:54:26 PDT 2015
User: schluterlab
Dark Spectrum Present: Yes
Reference Spectrum Present: Yes
Number of Sampled Component Spectra: 1
Spectrometers: USB2E3373
Integration Time (usec): 3000 (USB2E3373)
Spectra Averaged: 3 (USB2E3373)
Boxcar Smoothing: 0 (USB2E3373)
Correct for Electrical Dark: No (USB2E3373)
Strobe/Lamp Enabled: No (USB2E3373)
Correct for Detector Non-linearity: No (USB2E3373)
Correct for Stray Light: No (USB2E3373)
Number of Pixels in Processed Spectrum: 2048
>>>>>Begin Processed Spectral Data<<<<<
178.53	0.000
178.91	228.571
179.29	-1900.000
179.67	-1400.000
180.04	285.714
180.42	240.000
180.80	260.000
181.18	-1000.000
181.56	100.000
181.94	200.000
182.31	-50.000
182.69	200.000
183.07	-400.000
183.45	525.000
183.83	-316.667
184.20	-466.667
184.58	1000.000
184.96	-450.000
185.34	-100.000
185.72	-120.000
186.09	255.556
186.47	900.000
186.85	380.000
187.23	-200.000
187.61	-2200.000
187.98	320.000
188.36	500.000
188.74	-525.000
189.12	-833.333
189.49	-100.000
189.87	-162.500
190.25	-166.667
190.63	-300.000
191.00	-177.778
191.38	0.000
191.76	-325.000
192.14	-283.333
192.51	700.000
192.89	-200.000
193.27	0.000
193.65	-185.714
194.02	-2600.000
194.40	-200.000
194.78	271.429
195.15	0.000
195.53	-154.545
195.91	0.000
196.29	-350.000
196.66	-69.231
197.04	-1000.000
197.42	-185.714
197.79	-950.000
198.17	-100.000
198.55	-271.429
198.92	-122.222
199.30	-287.500
199.68	-63.636
200.05	-64.286
200.43	-1050.000
200.81	300.000
201.18	0.000
201.56	211.111
201.94	0.000
202.31	633.333
202.69	-122.222
203.07	1000.000
203.44	-55.556
203.82	-400.000
204.19	-166.667
204.57	-133.333
204.95	-150.000
205.32	-1400.000
205.70	425.000
206.08	-216.667
206.45	-100.000
206.83	480.000
207.20	-200.000
207.58	-440.000
207.96	-300.000
208.33	-100.000
208.71	125.000
209.08	-116.667
209.46	0.000
209.84	416.667
210.21	550.000
210.59	700.000
210.96	400.000
211.34	-175.000
211.71	-137.500
212.09	-2100.000
212.46	0.000
212.84	1200.000
213.22	-440.000
213.59	-300.000
213.97	-50.000
214.34	-766.667
214.72	350.000
215.09	-525.000
215.47	0.000
215.84	114.286
216.22	1250.000
216.59	-260.000
216.97	-320.000
217.34	-150.000
217.72	-87.500
218.09	-400.000
218.47	-175.000
218.84	0.000
219.22	280.000
219.59	-123.529
219.97	-85.000
220.34	400.000
220.72	-155.556
221.09	-23.077
221.47	-366.667
221.84	-120.000
222.22	-314.286
222.59	0.000
222.97	-187.500
223.34	-420.000
223.72	-1600.000
224.09	-275.000
224.46	-500.000
224.84	-280.000
225.21	-171.429
225.59	-525.000
225.96	-375.000
226.34	-30.769
226.71	383.333
227.08	-450.000
227.46	-20.000
227.83	-575.000
228.21	-10.526
228.58	225.000
228.95	750.000
229.33	-83.333
229.70	-270.000
230.08	0.000
230.45	230.000
230.82	-366.667
231.20	-114.286
231.57	-91.667
231.95	-154.545
232.32	-100.000
232.69	-45.000
233.07	-425.000
233.44	-47.059
233.81	-140.000
234.19	-55.556
234.56	-50.000
234.93	-17.241
235.31	-57.895
235.68	-77.778
236.05	-75.000
236.43	0.000
236.80	-36.000
237.17	-44.444
237.55	-48.485
237.92	-200.000
238.29	-38.710
238.67	-47.727
239.04	-33.333
239.41	-38.095
239.79	-17.391
240.16	-27.778
240.53	-26.087
240.91	-29.412
241.28	-27.869
241.65	-4.478
242.02	-2.703
242.40	-24.615
242.77	-16.000
243.14	-23.171
243.51	-22.368
243.89	-24.359
244.26	-0.990
244.63	-11.765
245.00	-9.346
245.38	-10.526
245.75	-20.354
246.12	-0.794
246.49	-8.527
246.87	-6.429
247.24	-3.974
247.61	-1.974
247.98	-6.040
248.36	-6.790
248.73	-12.883
249.10	-7.104
249.47	1.493
249.84	-0.524
250.22	-5.699
250.59	-1.111
250.96	3.182
251.33	-5.102
251.70	2.991
252.08	-0.833
252.45	-9.016
252.82	-5.785
253.19	-2.734
253.56	-1.901
253.94	-4.231
254.31	-3.030
254.68	1.748
255.05	0.000
255.42	1.361
255.79	-0.647
256.16	-0.331
256.54	-2.318
256.91	-0.984
257.28	-0.656
257.65	-4.140
258.02	-2.655
258.39	0.285
258.76	3.058
259.14	-1.724
259.51	1.153
259.88	0.567
260.25	0.278
260.62	-0.548
260.99	1.093
261.36	1.877
261.73	-2.122
262.10	-2.198
262.47	0.000
262.85	3.788
263.22	-1.039
263.59	-1.316
263.96	1.535
264.33	-0.512
264.70	0.494
265.07	1.909
265.44	2.268
265.81	-0.231
266.18	0.907
266.55	0.670
266.92	-1.595
267.29	1.094
267.66	1.109
268.03	-1.310
268.40	1.044
268.77	-3.417
269.14	-2.863
269.51	-0.658
269.88	3.074
270.25	0.604
270.62	1.477
270.99	4.848
271.36	2.376
271.73	0.196
272.10	2.204
272.47	0.601
272.84	0.602
273.21	1.804
273.58	0.202
273.95	0.385
274.32	0.760
274.69	-0.193
275.06	2.198
275.43	0.370
275.80	3.880
276.17	0.741
276.54	-0.187
276.91	0.716
277.28	0.362
277.65	1.795
278.02	1.838
278.39	0.362
278.76	-3.163
279.13	-0.709
279.50	2.749
279.87	2.683
280.23	-0.880
280.60	1.017
280.97	2.961
281.34	0.340
281.71	2.030
282.08	2.159
282.45	-0.164
282.82	2.355
283.19	0.000
283.56	0.492
283.92	0.450
284.29	2.844
284.66	1.806
285.03	0.000
285.40	1.391
285.77	1.238
286.14	0.611
286.51	0.609
286.87	1.264
287.24	1.506
287.61	0.897
287.98	-0.755
288.35	1.627
288.72	1.331
289.08	2.489
289.45	1.183
289.82	-0.151
290.19	1.724
290.56	2.817
290.93	1.427
291.29	1.240
291.66	1.240
292.03	0.271
292.40	1.497
292.77	0.809
293.13	0.812
293.50	1.314
293.87	0.403
294.24	1.733
294.60	1.896
294.97	-0.537
295.34	1.536
295.71	0.000
296.08	1.421
296.44	0.613
296.81	1.705
297.18	1.868
297.55	0.943
297.91	0.830
298.28	-0.237
298.65	0.595
299.02	0.354
299.38	1.602
299.75	1.168
300.12	0.694
300.48	0.691
300.85	2.475
301.22	2.461
301.59	0.799
301.95	1.695
302.32	2.222
302.69	0.767
303.05	1.197
303.42	1.441
303.79	1.979
304.15	1.788
304.52	0.423
304.89	1.047
305.25	2.174
305.62	1.358
305.99	1.649
306.35	1.411
306.72	1.551
307.09	0.406
307.45	2.174
307.82	1.413
308.19	1.009
308.55	1.929
308.92	0.487
309.29	2.107
309.65	0.000
310.02	1.287
310.38	1.673
310.75	1.359
311.12	1.534
311.48	1.075
311.85	1.235
312.22	1.233
312.58	2.066
312.95	0.956
313.31	1.265
313.68	1.465
314.05	1.355
314.41	2.914
314.78	1.817
315.14	2.178
315.51	2.585
315.87	2.250
316.24	2.831
316.61	2.309
316.97	1.086
317.34	1.764
317.70	2.445
318.07	2.116
318.43	2.381
318.80	2.926
319.16	1.545
319.53	1.628
319.89	1.578
320.26	2.758
320.62	1.950
320.99	2.585
321.35	2.126
321.72	3.070
322.08	1.984
322.45	2.078
322.81	2.527
323.18	1.947
323.54	1.552
323.91	2.491
324.27	1.893
324.64	2.099
325.00	2.073
325.37	2.457
325.73	2.562
326.10	3.001
326.46	3.176
326.83	3.443
327.19	3.701
327.56	3.162
327.92	2.124
328.29	2.500
328.65	2.010
329.01	1.861
329.38	2.696
329.74	3.168
330.11	3.253
330.47	2.864
330.84	2.842
331.20	2.750
331.56	2.513
331.93	2.092
332.29	3.136
332.66	2.741
333.02	2.178
333.38	2.013
333.75	2.273
334.11	2.836
334.48	2.640
334.84	2.974
335.20	1.763
335.57	4.047
335.93	3.884
336.29	2.496
336.66	2.775
337.02	2.926
337.38	3.486
337.75	2.479
338.11	3.196
338.47	3.060
338.84	2.030
339.20	1.853
339.56	2.224
339.93	3.202
340.29	3.704
340.65	3.244
341.02	3.591
341.38	3.153
341.74	2.502
342.11	2.816
342.47	1.906
342.83	3.060
343.20	3.189
343.56	2.406
343.92	3.122
344.28	3.359
344.65	3.411
345.01	3.354
345.37	3.888
345.73	2.416
346.10	3.510
346.46	2.690
346.82	2.996
347.19	2.903
347.55	3.490
347.91	2.897
348.27	2.883
348.63	4.113
349.00	3.057
349.36	4.015
349.72	3.943
350.08	3.418
350.45	2.205
350.81	3.167
351.17	3.534
351.53	2.502
351.89	3.417
352.26	2.164
352.62	3.209
352.98	2.137
353.34	1.942
353.70	3.005
354.07	3.279
354.43	1.822
354.79	2.767
355.15	2.428
355.51	2.924
355.87	2.842
356.24	2.433
356.60	3.030
356.96	2.001
357.32	2.825
357.68	2.343
358.04	2.695
358.40	2.537
358.77	3.216
359.13	3.102
359.49	1.784
359.85	2.248
360.21	3.085
360.57	3.446
360.93	2.539
361.29	3.439
361.66	3.041
362.02	3.479
362.38	2.881
362.74	2.374
363.10	3.232
363.46	2.909
363.82	2.841
364.18	3.026
364.54	2.282
364.90	3.144
365.26	2.138
365.62	3.867
365.98	3.063
366.35	3.087
366.71	3.469
367.07	2.706
367.43	3.940
367.79	2.986
368.15	2.943
368.51	3.248
368.87	2.939
369.23	3.800
369.59	2.254
369.95	2.502
370.31	2.903
370.67	2.957
371.03	3.393
371.39	2.418
371.75	2.751
372.11	2.507
372.47	2.640
372.83	3.730
373.19	3.269
373.55	2.913
373.91	2.454
374.27	3.493
374.63	3.383
374.99	2.321
375.35	3.766
375.71	2.903
376.07	3.357
376.42	2.582
376.78	3.543
377.14	3.182
377.50	3.352
377.86	3.695
378.22	3.533
378.58	3.746
378.94	3.404
379.30	3.515
379.66	3.057
380.02	2.943
380.38	3.399
380.74	3.380
381.09	3.600
381.45	3.920
381.81	3.864
382.17	3.504
382.53	3.099
382.89	3.442
383.25	3.341
383.61	2.894
383.97	3.239
384.32	3.170
384.68	2.726
385.04	4.280
385.40	3.241
385.76	4.162
386.12	4.010
386.48	3.647
386.83	4.052
387.19	3.650
387.55	2.758
387.91	3.539
388.27	3.406
388.62	3.608
388.98	4.117
389.34	3.418
389.70	3.486
390.06	3.671
390.42	3.193
390.77	4.154
391.13	3.521
391.49	3.684
391.85	2.727
392.20	3.381
392.56	4.253
392.92	3.926
393.28	3.648
393.64	3.352
393.99	4.126
394.35	3.446
394.71	4.132
395.07	2.754
395.42	3.712
395.78	4.631
396.14	4.159
396.50	4.097
396.85	3.399
397.21	3.787
397.57	4.476
397.92	4.696
398.28	3.042
398.64	2.803
399.00	3.194
399.35	3.613
399.71	3.587
400.07	3.874
400.42	4.191
400.78	3.588
401.14	3.984
401.49	3.752
401.85	3.256
402.21	3.476
402.57	4.108
402.92	4.196
403.28	3.396
403.63	2.804
403.99	3.147
404.35	3.184
404.70	3.966
405.06	3.804
405.42	3.454
405.77	4.253
406.13	3.782
406.49	3.885
406.84	3.934
407.20	3.522
407.55	3.210
407.91	4.023
408.27	4.122
408.62	3.490
408.98	3.250
409.34	2.933
409.69	3.399
410.05	4.513
410.40	3.828
410.76	3.982
411.11	4.091
411.47	4.607
411.83	4.056
412.18	4.036
412.54	3.972
412.89	4.133
413.25	4.289
413.60	3.906
413.96	3.963
414.31	4.193
414.67	4.711
415.03	3.877
415.38	3.468
415.74	3.910
416.09	3.516
416.45	3.820
416.80	3.733
417.16	3.321
417.51	4.110
417.87	3.433
418.22	3.952
418.58	3.841
418.93	4.016
419.29	4.192
419.64	3.421
420.00	3.501
420.35	3.650
420.71	3.791
421.06	3.680
421.42	4.128
421.77	3.393
422.12	3.858
422.48	3.789
422.83	3.724
423.19	3.926
423.54	3.872
423.90	3.479
424.25	4.320
424.61	3.789
424.96	4.723
425.31	4.193
425.67	3.489
426.02	3.929
426.38	3.617
426.73	3.404
427.09	4.614
427.44	4.533
427.79	3.483
428.15	3.139
428.50	3.539
428.85	4.305
429.21	4.628
429.56	3.504
429.92	3.833
430.27	4.386
430.62	3.957
430.98	3.640
431.33	4.301
431.68	3.975
432.04	4.114
432.39	3.964
432.74	3.710
433.10	4.218
433.45	3.289
433.80	3.916
434.16	4.132
434.51	3.803
434.86	3.746
435.22	4.251
435.57	3.774
435.92	4.619
436.28	4.152
436.63	3.932
436.98	4.402
437.34	4.679
437.69	3.687
438.04	4.125
438.39	4.308
438.75	3.985
439.10	4.334
439.45	4.584
439.81	4.294
440.16	3.968
440.51	3.902
440.86	3.947
441.22	4.555
441.57	4.298
441.92	4.365
442.27	4.848
442.63	4.074
442.98	4.322
443.33	4.787
443.68	5.451
444.03	5.033
444.39	4.669
444.74	4.849
445.09	4.916
445.44	4.320
445.79	4.789
446.15	4.573
446.50	3.773
446.85	4.864
447.20	4.739
447.55	4.916
447.91	4.136
448.26	4.017
448.61	4.729
448.96	5.150
449.31	4.878
449.66	4.357
450.02	5.011
450.37	5.647
450.72	4.306
451.07	4.499
451.42	4.333
451.77	4.725
452.12	4.740
452.47	4.159
452.83	4.842
453.18	4.495
453.53	4.193
453.88	4.694
454.23	4.633
454.58	5.049
454.93	4.430
455.28	5.539
455.63	4.889
455.98	4.972
456.34	4.535
456.69	4.762
457.04	4.787
457.39	4.989
457.74	5.034
458.09	4.723
458.44	5.065
458.79	4.899
459.14	4.562
459.49	5.093
459.84	5.456
460.19	4.664
460.54	5.111
460.89	4.870
461.24	4.540
461.59	5.202
461.94	4.164
462.29	4.703
462.64	4.828
462.99	5.085
463.34	4.737
463.69	4.572
464.04	5.003
464.39	4.652
464.74	5.530
465.09	5.133
465.44	5.418
465.79	5.553
466.14	4.898
466.49	4.632
466.84	5.399
467.19	5.318
467.54	4.759
467.89	4.598
468.24	5.263
468.59	4.343
468.94	4.779
469.29	4.859
469.64	4.768
469.99	5.226
470.34	5.012
470.68	4.580
471.03	4.781
471.38	5.428
471.73	5.137
472.08	4.886
472.43	5.298
472.78	5.038
473.13	4.172
473.48	5.498
473.83	5.398
474.17	4.572
474.52	4.811
474.87	5.537
475.22	5.127
475.57	4.933
475.92	4.729
476.27	4.899
476.61	5.296
476.96	4.484
477.31	5.099
477.66	5.771
478.01	5.186
478.36	5.583
478.70	5.074
479.05	5.215
479.40	4.788
479.75	5.427
480.10	4.879
480.45	5.880
480.79	5.578
481.14	5.101
481.49	5.452
481.84	5.701
482.19	5.634
482.53	5.684
482.88	5.494
483.23	5.425
483.58	4.978
483.92	5.142
484.27	5.038
484.62	5.446
484.97	5.404
485.31	4.928
485.66	4.969
486.01	5.300
486.36	5.204
486.70	5.668
487.05	5.804
487.40	5.758
487.75	5.445
488.09	5.607
488.44	5.395
488.79	5.632
489.13	5.503
489.48	5.243
489.83	4.869
490.17	5.184
490.52	5.870
490.87	5.838
491.22	5.329
491.56	5.887
491.91	5.321
492.26	5.971
492.60	5.378
492.95	6.011
493.30	5.199
493.64	5.826
493.99	5.746
494.34	4.922
494.68	4.968
495.03	5.859
495.37	5.726
495.72	5.125
496.07	6.004
496.41	5.148
496.76	5.671
497.11	5.732
497.45	5.783
497.80	5.775
498.14	5.215
498.49	5.515
498.84	5.439
499.18	5.668
499.53	5.919
499.87	5.758
500.22	4.987
500.56	5.173
500.91	5.080
501.26	5.909
501.60	5.170
501.95	5.688
502.29	5.660
502.64	5.947
502.98	5.781
503.33	5.659
503.67	5.102
504.02	5.560
504.36	5.809
504.71	5.742
505.06	5.457
505.40	5.941
505.75	5.738
506.09	5.893
506.44	5.757
506.78	6.468
507.13	5.855
507.47	5.495
507.82	5.871
508.16	5.880
508.51	5.438
508.85	5.338
509.19	5.921
509.54	6.196
509.88	5.974
510.23	5.634
510.57	6.428
510.92	6.386
511.26	5.676
511.61	5.794
511.95	6.003
512.30	6.352
512.64	5.897
512.98	6.203
513.33	6.502
513.67	5.915
514.02	5.519
514.36	5.985
514.70	5.365
515.05	6.517
515.39	6.194
515.74	6.310
516.08	6.128
516.42	6.646
516.77	6.257
517.11	5.570
517.46	6.045
517.80	6.734
518.14	6.638
518.49	6.399
518.83	6.599
519.17	6.247
519.52	6.499
519.86	6.758
520.20	6.816
520.55	6.681
520.89	5.462
521.23	6.421
521.58	6.102
521.92	6.516
522.26	6.128
522.61	6.481
522.95	6.401
523.29	6.034
523.64	5.942
523.98	6.560
524.32	7.278
524.66	6.488
525.01	6.399
525.35	5.514
525.69	5.974
526.04	5.970
526.38	6.839
526.72	6.747
527.06	6.158
527.41	6.122
527.75	6.888
528.09	6.671
528.43	6.690
528.78	5.954
529.12	6.021
529.46	6.577
529.80	5.950
530.15	6.783
530.49	6.168
530.83	6.198
531.17	5.854
531.51	6.438
531.86	6.550
532.20	6.768
532.54	5.805
532.88	6.364
533.22	6.423
533.57	6.232
533.91	7.351
534.25	7.123
534.59	6.437
534.93	5.886
535.27	6.197
535.62	8.073
535.96	6.450
536.30	6.463
536.64	7.147
536.98	6.827
537.32	6.235
537.66	6.613
538.01	6.284
538.35	7.186
538.69	5.889
539.03	6.315
539.37	6.773
539.71	6.306
540.05	6.535
540.39	6.357
540.73	6.618
541.07	6.070
541.42	6.497
541.76	6.821
542.10	6.152
542.44	6.029
542.78	6.813
543.12	6.853
543.46	6.349
543.80	5.096
544.14	6.643
544.48	6.147
544.82	7.241
545.16	6.142
545.50	6.471
545.84	6.614
546.18	7.346
546.52	6.433
546.86	6.918
547.20	6.489
547.54	6.305
547.88	6.631
548.22	6.433
548.56	6.905
548.90	5.731
549.24	6.809
549.58	6.435
549.92	6.250
550.26	6.472
550.60	7.722
550.94	5.951
551.28	7.525
551.62	7.951
551.96	6.731
552.30	7.584
552.64	6.409
552.98	7.112
553.32	6.238
553.66	6.238
554.00	7.314
554.34	7.143
554.68	6.262
555.02	5.979
555.36	6.772
555.69	6.086
556.03	6.494
556.37	7.196
556.71	6.722
557.05	6.581
557.39	6.105
557.73	6.737
558.07	6.026
558.41	6.910
558.75	6.626
559.08	6.889
559.42	6.173
559.76	6.852
560.10	6.832
560.44	7.058
560.78	6.750
561.12	7.081
561.45	6.873
561.79	6.654
562.13	6.962
562.47	6.289
562.81	6.519
563.15	6.503
563.48	6.650
563.82	7.134
564.16	7.026
564.50	5.423
564.84	6.844
565.17	6.706
565.51	6.559
565.85	6.413
566.19	6.567
566.52	6.788
566.86	6.735
567.20	6.471
567.54	6.320
567.88	6.983
568.21	6.818
568.55	6.667
568.89	6.128
569.23	7.393
569.56	6.800
569.90	6.415
570.24	6.678
570.57	6.318
570.91	6.369
571.25	6.509
571.59	6.485
571.92	6.823
572.26	6.591
572.60	6.497
572.93	6.902
573.27	6.322
573.61	6.300
573.95	6.604
574.28	6.377
574.62	6.503
574.96	6.352
575.29	6.411
575.63	6.491
575.97	6.707
576.30	5.946
576.64	6.419
576.98	6.446
577.31	6.592
577.65	6.418
577.98	6.664
578.32	6.178
578.66	6.295
578.99	6.512
579.33	6.425
579.67	6.301
580.00	6.608
580.34	6.828
580.67	6.311
581.01	6.469
581.35	6.468
581.68	6.247
582.02	6.482
582.35	6.593
582.69	6.705
583.02	6.447
583.36	6.716
583.70	6.203
584.03	6.192
584.37	6.344
584.70	6.504
585.04	6.161
585.37	6.297
585.71	6.796
586.04	6.451
586.38	6.500
586.72	6.217
587.05	6.242
587.39	6.607
587.72	6.196
588.06	6.625
588.39	6.721
588.73	6.217
589.06	6.433
589.40	6.300
589.73	6.684
590.07	6.267
590.40	7.133
590.73	6.610
591.07	7.334
591.40	6.610
591.74	6.280
592.07	6.983
592.41	6.979
592.74	6.816
593.08	6.943
593.41	6.970
593.75	6.782
594.08	6.634
594.41	6.506
594.75	6.377
595.08	6.528
595.42	7.078
595.75	7.039
596.09	6.642
596.42	6.700
596.75	7.565
597.09	7.071
597.42	6.555
597.75	7.017
598.09	6.984
598.42	6.916
598.76	6.534
599.09	7.120
599.42	6.504
599.76	6.537
600.09	6.807
600.42	7.174
600.76	6.836
601.09	6.671
601.42	6.557
601.76	7.241
602.09	6.576
602.42	6.725
602.76	6.974
603.09	7.085
603.42	6.828
603.76	6.519
604.09	6.955
604.42	6.642
604.76	6.887
605.09	7.300
605.42	7.018
605.75	7.192
606.09	6.346
606.42	6.749
606.75	6.072
607.09	6.644
607.42	6.590
607.75	6.800
608.08	7.419
608.42	6.812
608.75	6.799
609.08	6.876
609.41	6.440
609.75	5.982
610.08	6.508
610.41	6.712
610.74	6.429
611.07	6.661
611.41	7.623
611.74	6.697
612.07	7.059
612.40	6.274
612.73	6.993
613.07	7.188
613.40	6.930
613.73	6.981
614.06	6.820
614.39	6.220
614.72	6.259
615.06	6.641
615.39	6.912
615.72	6.588
616.05	6.897
616.38	6.609
616.71	6.688
617.05	6.816
617.38	6.956
617.71	7.235
618.04	7.339
618.37	6.940
618.70	7.183
619.03	5.854
619.36	7.152
619.69	6.919
620.03	6.591
620.36	6.442
620.69	6.107
621.02	6.759
621.35	6.894
621.68	6.941
622.01	6.477
622.34	6.206
622.67	7.010
623.00	4.791
623.33	6.503
623.66	6.939
623.99	6.847
624.32	7.537
624.65	6.499
624.99	6.697
625.32	8.295
625.65	7.552
625.98	6.034
626.31	6.945
626.64	7.106
626.97	6.677
627.30	5.998
627.63	6.752
627.96	8.333
628.29	7.237
628.62	5.877
628.95	6.310
629.28	7.732
629.61	7.239
629.94	7.364
630.26	6.186
630.59	6.390
630.92	7.446
631.25	7.424
631.58	6.591
631.91	6.186
632.24	6.436
632.57	6.262
632.90	5.617
633.23	6.224
633.56	6.122
633.89	6.508
634.22	8.108
634.55	7.411
634.88	6.494
635.20	7.427
635.53	6.328
635.86	6.934
636.19	8.165
636.52	6.224
636.85	6.027
637.18	6.445
637.51	5.914
637.83	6.423
638.16	7.143
638.49	5.634
638.82	6.539
639.15	6.644
639.48	8.199
639.81	7.159
640.13	7.303
640.46	5.333
640.79	5.270
641.12	6.335
641.45	7.152
641.77	7.831
642.10	7.087
642.43	7.048
642.76	6.775
643.09	6.301
643.41	5.322
643.74	6.759
644.07	7.448
644.40	6.648
644.73	6.241
645.05	4.993
645.38	6.906
645.71	6.305
646.04	5.595
646.36	4.526
646.69	5.061
647.02	7.645
647.35	8.855
647.67	6.763
648.00	5.573
648.33	8.408
648.66	5.706
648.98	6.531
649.31	5.007
649.64	6.507
649.96	7.294
650.29	5.007
650.62	5.375
650.94	5.556
651.27	5.988
651.60	5.994
651.92	5.623
652.25	7.381
652.58	7.428
652.90	5.523
653.23	6.901
653.56	5.849
653.88	8.427
654.21	6.901
654.54	6.792
654.86	7.082
655.19	5.270
655.52	6.624
