SpectraSuite Data File
++++++++++++++++++++++++++++++++++++
Date: Thu May 14 15:02:50 PDT 2015
User: schluterlab
Dark Spectrum Present: Yes
Reference Spectrum Present: Yes
Number of Sampled Component Spectra: 1
Spectrometers: USB2E3373
Integration Time (usec): 3000 (USB2E3373)
Spectra Averaged: 3 (USB2E3373)
Boxcar Smoothing: 0 (USB2E3373)
Correct for Electrical Dark: No (USB2E3373)
Strobe/Lamp Enabled: No (USB2E3373)
Correct for Detector Non-linearity: No (USB2E3373)
Correct for Stray Light: No (USB2E3373)
Number of Pixels in Processed Spectrum: 2048
>>>>>Begin Processed Spectral Data<<<<<
178.53	0.000
178.91	257.143
179.29	-3100.000
179.67	-2500.000
180.04	264.286
180.42	280.000
180.80	540.000
181.18	-2400.000
181.56	-1800.000
181.94	775.000
182.31	-450.000
182.69	766.667
183.07	-1300.000
183.45	575.000
183.83	-350.000
184.20	-833.333
184.58	2700.000
184.96	-525.000
185.34	-200.000
185.72	-300.000
186.09	300.000
186.47	1700.000
186.85	640.000
187.23	-344.444
187.61	-2500.000
187.98	480.000
188.36	800.000
188.74	-525.000
189.12	-600.000
189.49	-93.750
189.87	-362.500
190.25	-188.889
190.63	-500.000
191.00	-322.222
191.38	0.000
191.76	-775.000
192.14	-483.333
192.51	1550.000
192.89	-216.667
193.27	0.000
193.65	-257.143
194.02	-2900.000
194.40	-442.857
194.78	442.857
195.15	0.000
195.53	-245.455
195.91	0.000
196.29	-325.000
196.66	-200.000
197.04	-1800.000
197.42	-257.143
197.79	-1250.000
198.17	-350.000
198.55	-400.000
198.92	-188.889
199.30	-287.500
199.68	-190.909
200.05	-142.857
200.43	-1300.000
200.81	385.714
201.18	0.000
201.56	333.333
201.94	0.000
202.31	1066.667
202.69	-300.000
203.07	2200.000
203.44	-166.667
203.82	-675.000
204.19	-116.667
204.57	-533.333
204.95	-262.500
205.32	-2700.000
205.70	625.000
206.08	-416.667
206.45	-366.667
206.83	500.000
207.20	-416.667
207.58	-600.000
207.96	-383.333
208.33	-200.000
208.71	216.667
209.08	-350.000
209.46	0.000
209.84	600.000
210.21	1600.000
210.59	1100.000
210.96	1033.333
211.34	-500.000
211.71	-300.000
212.09	-2200.000
212.46	0.000
212.84	1500.000
213.22	-600.000
213.59	-575.000
213.97	-230.000
214.34	-666.667
214.72	533.333
215.09	-850.000
215.47	0.000
215.84	414.286
216.22	1700.000
216.59	-520.000
216.97	-540.000
217.34	-700.000
217.72	-175.000
218.09	-675.000
218.47	-600.000
218.84	0.000
219.22	440.000
219.59	-123.529
219.97	-90.000
220.34	1800.000
220.72	-300.000
221.09	-115.385
221.47	-1000.000
221.84	-230.000
222.22	-428.571
222.59	0.000
222.97	-275.000
223.34	-400.000
223.72	-2800.000
224.09	-550.000
224.46	-625.000
224.84	-540.000
225.21	-457.143
225.59	-650.000
225.96	-750.000
226.34	-65.385
226.71	466.667
227.08	-1000.000
227.46	-73.333
227.83	-600.000
228.21	-89.474
228.58	312.500
228.95	1150.000
229.33	-108.333
229.70	-240.000
230.08	-68.421
230.45	350.000
230.82	-900.000
231.20	-92.857
231.57	-125.000
231.95	-154.545
232.32	-118.182
232.69	-70.000
233.07	-450.000
233.44	-152.941
233.81	-190.000
234.19	5.556
234.56	-59.091
234.93	-65.517
235.31	-147.368
235.68	-122.222
236.05	-130.000
236.43	-53.846
236.80	4.000
237.17	-51.852
237.55	-36.364
237.92	-280.000
238.29	-35.484
238.67	-50.000
239.04	-47.222
239.41	-38.095
239.79	-26.087
240.16	-31.481
240.53	-39.130
240.91	-31.373
241.28	-21.311
241.65	-19.403
242.02	-12.162
242.40	-33.846
242.77	-8.000
243.14	-23.171
243.51	-26.316
243.89	-20.513
244.26	-11.881
244.63	-2.941
245.00	-7.477
245.38	-12.281
245.75	-16.814
246.12	-7.937
246.49	-8.527
246.87	3.571
247.24	0.662
247.61	-0.658
247.98	-0.671
248.36	-1.852
248.73	4.294
249.10	-0.546
249.47	3.483
249.84	4.188
250.22	-2.591
250.59	-1.667
250.96	4.545
251.33	1.020
251.70	2.564
252.08	4.167
252.45	3.279
252.82	1.240
253.19	2.344
253.56	1.521
253.94	4.615
254.31	1.894
254.68	8.392
255.05	7.818
255.42	4.422
255.79	3.883
256.16	2.980
256.54	-0.662
256.91	4.590
257.28	3.934
257.65	5.096
258.02	4.425
258.39	6.268
258.76	7.645
259.14	7.184
259.51	3.746
259.88	2.266
260.25	5.000
260.62	4.658
260.99	8.743
261.36	7.239
261.73	7.958
262.10	4.670
262.47	5.362
262.85	10.101
263.22	4.156
263.59	1.842
263.96	7.673
264.33	4.859
264.70	8.395
265.07	10.024
265.44	9.751
265.81	5.093
266.18	7.029
266.55	6.250
266.92	5.239
267.29	8.753
267.66	5.765
268.03	6.114
268.40	6.889
268.77	3.645
269.14	4.185
269.51	6.360
269.88	7.172
270.25	7.847
270.62	6.751
270.99	8.081
271.36	8.119
271.73	8.251
272.10	7.615
272.47	7.014
272.84	7.831
273.21	7.615
273.58	6.048
273.95	5.962
274.32	6.274
274.69	5.222
275.06	6.777
275.43	5.176
275.80	8.466
276.17	5.000
276.54	6.530
276.91	6.082
277.28	5.425
277.65	7.899
278.02	6.434
278.39	4.891
278.76	7.030
279.13	4.965
279.50	8.247
279.87	8.587
280.23	3.345
280.60	7.966
280.97	8.882
281.34	7.131
281.71	9.306
282.08	6.977
282.45	7.365
282.82	6.436
283.19	5.816
283.56	7.541
283.92	9.309
284.29	10.585
284.66	7.718
285.03	5.288
285.40	7.419
285.77	6.502
286.14	7.939
286.51	6.240
286.87	9.163
287.24	8.735
287.61	8.670
287.98	7.553
288.35	9.615
288.72	7.249
289.08	9.517
289.45	8.728
289.82	8.886
290.19	7.040
290.56	9.437
290.93	8.274
291.29	8.540
291.66	8.678
292.03	7.463
292.40	9.524
292.77	7.817
293.13	10.149
293.50	7.490
293.87	8.859
294.24	9.600
294.60	10.999
294.97	7.114
295.34	11.652
295.71	8.197
296.08	9.819
296.44	10.417
296.81	9.622
297.18	9.838
297.55	7.901
297.91	8.541
298.28	8.412
298.65	9.037
299.02	9.681
299.38	9.611
299.75	10.397
300.12	9.028
300.48	9.793
300.85	10.236
301.22	10.626
301.59	8.447
301.95	8.927
302.32	10.000
302.69	10.077
303.05	11.425
303.42	11.308
303.79	10.833
304.15	9.464
304.52	9.408
304.89	9.319
305.25	10.455
305.62	10.240
305.99	12.062
306.35	10.181
306.72	10.031
307.09	10.254
307.45	10.455
307.82	10.797
308.19	9.889
308.55	11.283
308.92	9.932
309.29	10.057
309.65	10.624
310.02	10.495
310.38	10.925
310.75	11.068
311.12	10.738
311.48	11.241
311.85	11.586
312.22	11.670
312.58	9.953
312.95	10.899
313.31	11.563
313.68	10.714
314.05	12.918
314.41	12.386
314.78	10.990
315.14	11.343
315.51	11.542
315.87	10.621
316.24	12.603
316.61	12.966
316.97	10.679
317.34	11.905
317.70	12.576
318.07	11.993
318.43	11.905
318.80	12.709
319.16	11.674
319.53	10.368
319.89	12.533
320.26	11.833
320.62	11.082
320.99	11.357
321.35	10.351
321.72	12.186
322.08	11.452
322.45	11.563
322.81	12.004
323.18	11.947
323.54	12.500
323.91	13.879
324.27	13.683
324.64	12.510
325.00	12.769
325.37	12.367
325.73	13.058
326.10	13.463
326.46	13.355
326.83	13.691
327.19	14.016
327.56	14.466
327.92	14.319
328.29	14.839
328.65	12.898
329.01	14.213
329.38	15.586
329.74	14.726
330.11	13.870
330.47	14.069
330.84	13.953
331.20	15.000
331.56	14.905
331.93	14.644
332.29	15.169
332.66	15.698
333.02	14.657
333.38	15.352
333.75	15.741
334.11	14.762
334.48	15.512
334.84	16.737
335.20	14.442
335.57	15.852
335.93	15.868
336.29	14.476
336.66	14.634
337.02	16.973
337.38	15.476
337.75	15.455
338.11	16.653
338.47	16.129
338.84	16.244
339.20	15.080
339.56	15.074
339.93	15.107
340.29	16.989
340.65	14.599
341.02	16.680
341.38	16.492
341.74	15.981
342.11	15.366
342.47	15.568
342.83	15.217
343.20	15.863
343.56	15.156
343.92	15.372
344.28	14.922
344.65	16.279
345.01	15.757
345.37	15.863
345.73	15.511
346.10	15.601
346.46	15.032
346.82	16.330
347.19	17.112
347.55	17.451
347.91	15.973
348.27	15.706
348.63	16.222
349.00	15.362
349.36	16.877
349.72	16.815
350.08	17.013
350.45	15.665
350.81	15.309
351.17	15.263
351.53	16.452
351.89	16.629
352.26	15.746
352.62	16.418
352.98	15.496
353.34	15.385
353.70	16.256
354.07	15.797
354.43	15.869
354.79	15.034
355.15	15.526
355.51	16.009
355.87	15.931
356.24	16.654
356.60	15.521
356.96	16.457
357.32	15.911
357.68	15.666
358.04	15.719
358.40	15.075
358.77	15.643
359.13	15.510
359.49	15.316
359.85	16.316
360.21	15.782
360.57	15.219
360.93	15.303
361.29	16.491
361.66	15.496
362.02	17.606
362.38	15.601
362.74	16.131
363.10	16.644
363.46	15.789
363.82	16.122
364.18	16.186
364.54	17.082
364.90	16.656
365.26	16.414
365.62	17.000
365.98	17.359
366.35	16.577
366.71	17.891
367.07	15.968
367.43	16.349
367.79	16.722
368.15	17.124
368.51	16.576
368.87	16.917
369.23	16.400
369.59	16.530
369.95	17.309
370.31	17.758
370.67	16.781
371.03	18.144
371.39	17.058
371.75	16.781
372.11	17.209
372.47	18.009
372.83	17.277
373.19	17.612
373.55	17.683
373.91	16.905
374.27	18.047
374.63	17.118
374.99	17.639
375.35	17.792
375.71	18.194
376.07	18.334
376.42	18.010
376.78	18.707
377.14	17.904
377.50	18.343
377.86	18.534
378.22	18.503
378.58	18.193
378.94	18.545
379.30	19.156
379.66	18.989
380.02	18.177
380.38	19.528
380.74	19.211
381.09	18.525
381.45	18.977
381.81	19.965
382.17	19.952
382.53	19.006
382.89	18.679
383.25	18.816
383.61	18.866
383.97	19.140
384.32	20.036
384.68	19.722
385.04	20.706
385.40	20.801
385.76	20.926
386.12	19.808
386.48	20.765
386.83	21.097
387.19	19.930
387.55	20.775
387.91	19.635
388.27	21.016
388.62	20.619
388.98	19.233
389.34	20.919
389.70	21.441
390.06	20.367
390.42	20.904
390.77	21.312
391.13	20.892
391.49	21.618
391.85	20.121
392.20	21.767
392.56	21.559
392.92	20.992
393.28	21.614
393.64	20.894
393.99	22.138
394.35	21.963
394.71	22.395
395.07	20.898
395.42	22.387
395.78	21.572
396.14	22.044
396.50	21.734
396.85	21.288
397.21	21.420
397.57	21.908
397.92	22.050
398.28	21.782
398.64	21.682
399.00	22.251
399.35	21.780
399.71	22.337
400.07	22.235
400.42	22.119
400.78	21.123
401.14	22.709
401.49	23.195
401.85	22.616
402.21	22.538
402.57	22.887
402.92	22.340
403.28	21.721
403.63	22.076
403.99	22.268
404.35	21.262
404.70	21.643
405.06	21.739
405.42	22.541
405.77	21.429
406.13	22.312
406.49	22.579
406.84	22.161
407.20	22.191
407.55	21.199
407.91	21.873
408.27	22.438
408.62	22.804
408.98	21.938
409.34	21.760
409.69	22.744
410.05	23.564
410.40	22.100
410.76	22.490
411.11	22.794
411.47	22.359
411.83	22.575
412.18	22.771
412.54	23.059
412.89	21.944
413.25	22.856
413.60	22.975
413.96	23.135
414.31	22.720
414.67	22.719
415.03	22.954
415.38	22.005
415.74	22.358
416.09	22.332
416.45	22.855
416.80	21.971
417.16	22.605
417.51	22.229
417.87	22.808
418.22	23.473
418.58	22.986
418.93	23.690
419.29	22.441
419.64	22.389
420.00	22.433
420.35	21.842
420.71	22.516
421.06	21.794
421.42	22.592
421.77	21.863
422.12	21.987
422.48	22.529
422.83	23.932
423.19	22.175
423.54	23.562
423.90	22.419
424.25	22.667
424.61	22.445
424.96	22.735
425.31	23.355
425.67	22.276
426.02	22.413
426.38	22.503
426.73	23.158
427.09	23.933
427.44	22.338
427.79	23.438
428.15	21.575
428.50	22.416
428.85	22.790
429.21	23.138
429.56	22.063
429.92	22.555
430.27	22.988
430.62	23.156
430.98	22.430
431.33	22.678
431.68	22.845
432.04	23.362
432.39	23.085
432.74	22.831
433.10	22.445
433.45	23.188
433.80	23.444
434.16	22.572
434.51	23.073
434.86	23.616
435.22	23.751
435.57	23.408
435.92	22.705
436.28	23.151
436.63	24.031
436.98	23.242
437.34	23.393
437.69	22.840
438.04	22.898
438.39	23.205
438.75	22.468
439.10	23.573
439.45	22.638
439.81	22.712
440.16	22.627
440.51	23.300
440.86	22.735
441.22	23.526
441.57	23.323
441.92	22.648
442.27	23.030
442.63	23.547
442.98	23.906
443.33	23.093
443.68	24.529
444.03	23.895
444.39	23.856
444.74	23.686
445.09	23.416
445.44	23.340
445.79	23.372
446.15	23.690
446.50	23.618
446.85	23.735
447.20	24.275
447.55	23.640
447.91	23.403
448.26	23.150
448.61	24.601
448.96	24.571
449.31	23.065
449.66	23.693
450.02	23.101
450.37	24.507
450.72	23.950
451.07	24.829
451.42	23.339
451.77	23.180
452.12	26.072
452.47	23.589
452.83	23.761
453.18	24.518
453.53	23.550
453.88	23.578
454.23	24.124
454.58	24.144
454.93	23.786
455.28	23.961
455.63	23.195
455.98	24.358
456.34	24.794
456.69	23.574
457.04	25.000
457.39	24.446
457.74	25.112
458.09	24.217
458.44	24.623
458.79	23.259
459.14	24.174
459.49	24.278
459.84	24.449
460.19	23.931
460.54	24.532
460.89	24.457
461.24	24.598
461.59	25.401
461.94	23.845
462.29	24.580
462.64	24.080
462.99	24.043
463.34	25.114
463.69	23.916
464.04	24.402
464.39	23.991
464.74	24.515
465.09	24.913
465.44	24.732
465.79	24.802
466.14	23.919
466.49	24.105
466.84	24.408
467.19	24.335
467.54	23.032
467.89	24.195
468.24	24.543
468.59	23.567
468.94	24.009
469.29	24.715
469.64	24.158
469.99	25.048
470.34	24.629
470.68	24.402
471.03	24.361
471.38	25.114
471.73	25.748
472.08	24.619
472.43	24.804
472.78	25.630
473.13	24.652
473.48	25.801
473.83	25.015
474.17	24.912
474.52	24.714
474.87	24.252
475.22	25.296
475.57	25.493
475.92	25.236
476.27	24.441
476.61	24.559
476.96	24.140
477.31	24.802
477.66	25.184
478.01	24.911
478.36	24.925
478.70	24.286
479.05	26.176
479.40	25.123
479.75	25.648
480.10	24.680
480.45	25.296
480.79	25.170
481.14	24.678
481.49	25.625
481.84	24.587
482.19	26.237
482.53	25.317
482.88	25.742
483.23	25.122
483.58	24.760
483.92	24.778
484.27	25.106
484.62	24.422
484.97	25.078
485.31	24.710
485.66	23.440
486.01	23.361
486.36	23.986
486.70	25.209
487.05	26.367
487.40	25.726
487.75	25.802
488.09	25.077
488.44	24.661
488.79	24.587
489.13	25.127
489.48	24.155
489.83	24.105
490.17	24.909
490.52	24.959
490.87	25.169
491.22	25.260
491.56	25.043
491.91	25.730
492.26	25.790
492.60	25.142
492.95	25.274
493.30	24.653
493.64	25.449
493.99	25.965
494.34	24.521
494.68	25.482
495.03	24.978
495.37	25.832
495.72	25.624
496.07	25.635
496.41	25.354
496.76	25.646
497.11	25.732
497.45	25.680
497.80	25.455
498.14	25.306
498.49	25.414
498.84	25.503
499.18	24.381
499.53	25.516
499.87	25.802
500.22	24.978
500.56	25.236
500.91	25.217
501.26	26.636
501.60	25.365
501.95	25.011
502.29	25.494
502.64	26.192
502.98	24.720
503.33	24.622
503.67	26.079
504.02	25.263
504.36	26.676
504.71	25.999
505.06	25.648
505.40	25.594
505.75	25.455
506.09	26.750
506.44	25.905
506.78	26.009
507.13	25.957
507.47	26.338
507.82	25.852
508.16	25.287
508.51	24.426
508.85	25.035
509.19	26.243
509.54	27.185
509.88	26.032
510.23	26.615
510.57	26.535
510.92	25.689
511.26	25.108
511.61	25.736
511.95	25.915
512.30	27.080
512.64	26.037
512.98	25.863
513.33	26.411
513.67	26.721
514.02	26.929
514.36	26.343
514.70	27.083
515.05	27.059
515.39	26.247
515.74	27.147
516.08	26.255
516.42	26.583
516.77	26.604
517.11	26.096
517.46	26.034
517.80	27.632
518.14	27.530
518.49	27.115
518.83	26.557
519.17	26.279
519.52	26.730
519.86	27.508
520.20	27.370
520.55	26.616
520.89	27.590
521.23	27.694
521.58	27.740
521.92	26.006
522.26	26.861
522.61	26.852
522.95	27.797
523.29	27.586
523.64	27.354
523.98	28.009
524.32	27.908
524.66	28.002
525.01	26.048
525.35	27.743
525.69	26.972
526.04	26.808
526.38	26.667
526.72	27.278
527.06	27.566
527.41	27.522
527.75	27.435
528.09	28.040
528.43	27.235
528.78	26.416
529.12	26.261
529.46	27.206
529.80	27.860
530.15	27.536
530.49	27.165
530.83	27.627
531.17	27.300
531.51	27.076
531.86	27.224
532.20	27.500
532.54	26.391
532.88	26.606
533.22	27.401
533.57	26.659
533.91	28.002
534.25	26.795
534.59	27.241
534.93	27.278
535.27	27.099
535.62	26.720
535.96	27.193
536.30	27.203
536.64	27.327
536.98	26.937
537.32	27.778
537.66	28.010
538.01	27.009
538.35	26.370
538.69	27.103
539.03	27.284
539.37	27.326
539.71	27.568
540.05	27.638
540.39	26.528
540.73	26.715
541.07	27.713
541.42	26.226
541.76	26.512
542.10	27.805
542.44	26.431
542.78	27.129
543.12	26.639
543.46	26.801
543.80	26.019
544.14	25.913
544.48	26.300
544.82	27.887
545.16	27.609
545.50	27.142
545.84	26.271
546.18	27.469
546.52	27.452
546.86	26.981
547.20	26.908
547.54	26.030
547.88	26.944
548.22	26.199
548.56	26.682
548.90	26.866
549.24	27.599
549.58	26.625
549.92	27.041
550.26	26.537
550.60	26.356
550.94	27.296
551.28	25.875
551.62	27.695
551.96	26.019
552.30	27.533
552.64	26.322
552.98	27.074
553.32	27.717
553.66	27.010
554.00	27.617
554.34	27.091
554.68	26.081
555.02	26.084
555.36	26.890
555.69	25.753
556.03	26.545
556.37	27.409
556.71	26.696
557.05	25.879
557.39	26.609
557.73	26.420
558.07	26.887
558.41	27.243
558.75	26.775
559.08	26.444
559.42	24.897
559.76	27.205
560.10	25.988
560.44	25.923
560.78	26.187
561.12	26.478
561.45	26.582
561.79	26.862
562.13	27.049
562.47	26.264
562.81	26.076
563.15	25.947
563.48	26.787
563.82	26.784
564.16	25.379
564.50	26.281
564.84	25.605
565.17	26.882
565.51	25.777
565.85	25.891
566.19	26.613
566.52	26.097
566.86	26.146
567.20	25.884
567.54	26.394
567.88	25.943
568.21	25.939
568.55	26.139
568.89	25.783
569.23	25.222
569.56	25.127
569.90	25.731
570.24	24.789
570.57	25.305
570.91	24.311
571.25	24.646
571.59	24.576
571.92	24.387
572.26	24.299
572.60	24.625
572.93	24.492
573.27	23.771
573.61	24.060
573.95	24.423
574.28	24.410
574.62	23.988
574.96	23.555
575.29	24.256
575.63	23.793
575.97	24.263
576.30	23.908
576.64	23.717
576.98	23.781
577.31	23.894
577.65	23.917
577.98	23.532
578.32	23.203
578.66	23.709
578.99	24.043
579.33	24.033
579.67	24.003
580.00	23.848
580.34	23.953
580.67	23.831
581.01	23.323
581.35	23.826
581.68	23.585
582.02	23.502
582.35	24.235
582.69	24.068
583.02	24.126
583.36	24.050
583.70	24.017
584.03	23.926
584.37	23.797
584.70	23.374
585.04	23.088
585.37	23.442
585.71	23.495
586.04	23.492
586.38	23.932
586.72	23.465
587.05	23.612
587.39	23.635
587.72	23.708
588.06	23.815
588.39	24.197
588.73	24.101
589.06	23.448
589.40	24.554
589.73	23.843
590.07	23.873
590.40	24.273
590.73	24.214
591.07	24.237
591.40	23.445
591.74	24.285
592.07	24.767
592.41	24.369
592.74	23.003
593.08	23.567
593.41	23.972
593.75	24.138
594.08	23.993
594.41	24.327
594.75	23.779
595.08	24.293
595.42	24.253
595.75	24.056
596.09	24.466
596.42	24.006
596.75	23.890
597.09	24.646
597.42	23.997
597.75	22.971
598.09	24.206
598.42	24.206
598.76	23.959
599.09	23.389
599.42	23.701
599.76	23.836
600.09	23.924
600.42	23.724
600.76	23.877
601.09	23.664
601.42	23.275
601.76	23.966
602.09	23.338
602.42	23.628
602.76	23.100
603.09	24.266
603.42	23.663
603.76	23.044
604.09	24.379
604.42	24.110
604.76	23.935
605.09	23.574
605.42	24.163
605.75	23.385
606.09	24.113
606.42	22.802
606.75	23.088
607.09	23.464
607.42	23.545
607.75	24.033
608.08	23.047
608.42	23.418
608.75	23.259
609.08	22.835
609.41	23.688
609.75	23.393
610.08	24.758
610.41	24.299
610.74	22.983
611.07	24.423
611.41	23.901
611.74	23.741
612.07	23.656
612.40	23.717
612.73	24.059
613.07	23.521
613.40	23.773
613.73	23.495
614.06	24.043
614.39	24.295
614.72	23.387
615.06	23.965
615.39	23.296
615.72	24.408
616.05	23.895
616.38	23.915
616.71	24.347
617.05	23.589
617.38	24.505
617.71	23.974
618.04	24.285
618.37	24.208
618.70	25.170
619.03	23.178
619.36	24.599
619.69	25.176
620.03	24.482
620.36	25.521
620.69	23.874
621.02	24.869
621.35	25.689
621.68	25.741
622.01	25.409
622.34	24.407
622.67	24.330
623.00	22.335
623.33	24.419
623.66	24.319
623.99	24.029
624.32	25.601
624.65	24.260
624.99	24.122
625.32	25.669
625.65	24.208
625.98	24.407
626.31	24.309
626.64	24.835
626.97	25.131
627.30	24.374
627.63	24.906
627.96	25.901
628.29	24.669
628.62	24.517
628.95	25.504
629.28	24.554
629.61	25.337
629.94	24.854
630.26	24.915
630.59	26.339
630.92	24.416
631.25	25.492
631.58	25.612
631.91	25.961
632.24	25.456
632.57	25.617
632.90	25.978
633.23	26.735
633.56	25.816
