SpectraSuite Data File
++++++++++++++++++++++++++++++++++++
Date: Thu May 14 15:16:10 PDT 2015
User: schluterlab
Dark Spectrum Present: Yes
Reference Spectrum Present: Yes
Number of Sampled Component Spectra: 1
Spectrometers: USB2E3373
Integration Time (usec): 3000 (USB2E3373)
Spectra Averaged: 3 (USB2E3373)
Boxcar Smoothing: 0 (USB2E3373)
Correct for Electrical Dark: No (USB2E3373)
Strobe/Lamp Enabled: No (USB2E3373)
Correct for Detector Non-linearity: No (USB2E3373)
Correct for Stray Light: No (USB2E3373)
Number of Pixels in Processed Spectrum: 2048
>>>>>Begin Processed Spectral Data<<<<<
178.53	0.000
178.91	642.857
179.29	-4900.000
179.67	-4200.000
180.04	400.000
180.42	420.000
180.80	980.000
181.18	-4000.000
181.56	-4200.000
181.94	1000.000
182.31	-925.000
182.69	1733.333
183.07	-2050.000
183.45	900.000
183.83	-633.333
184.20	-1133.333
184.58	3500.000
184.96	-1075.000
185.34	-433.333
185.72	-700.000
186.09	544.444
186.47	2200.000
186.85	920.000
187.23	-422.222
187.61	-3400.000
187.98	1000.000
188.36	1250.000
188.74	-850.000
189.12	-1300.000
189.49	-168.750
189.87	-537.500
190.25	-388.889
190.63	-620.000
191.00	-433.333
191.38	0.000
191.76	-1100.000
192.14	-733.333
192.51	1850.000
192.89	-700.000
193.27	0.000
193.65	-457.143
194.02	-4400.000
194.40	-542.857
194.78	571.429
195.15	0.000
195.53	-309.091
195.91	0.000
196.29	-850.000
196.66	-246.154
197.04	-4800.000
197.42	-585.714
197.79	-2100.000
198.17	-512.500
198.55	-614.286
198.92	-388.889
199.30	-462.500
199.68	-309.091
200.05	-271.429
200.43	-2150.000
200.81	671.429
201.18	0.000
201.56	544.444
201.94	0.000
202.31	1733.333
202.69	-477.778
203.07	4500.000
203.44	-255.556
203.82	-1000.000
204.19	-325.000
204.57	-766.667
204.95	-525.000
205.32	-4400.000
205.70	750.000
206.08	-666.667
206.45	-600.000
206.83	1040.000
207.20	-633.333
207.58	-1000.000
207.96	-733.333
208.33	-650.000
208.71	366.667
209.08	-650.000
209.46	0.000
209.84	816.667
210.21	2000.000
210.59	2100.000
210.96	1533.333
211.34	-825.000
211.71	-400.000
212.09	-4000.000
212.46	0.000
212.84	2550.000
213.22	-760.000
213.59	-975.000
213.97	-410.000
214.34	-1400.000
214.72	850.000
215.09	-1150.000
215.47	0.000
215.84	528.571
216.22	2550.000
216.59	-560.000
216.97	-700.000
217.34	-1175.000
217.72	-487.500
218.09	-975.000
218.47	-1100.000
218.84	0.000
219.22	920.000
219.59	-217.647
219.97	-180.000
220.34	2300.000
220.72	-522.222
221.09	-246.154
221.47	-1466.667
221.84	-380.000
222.22	-628.571
222.59	0.000
222.97	-487.500
223.34	-980.000
223.72	-4900.000
224.09	-975.000
224.46	-900.000
224.84	-680.000
225.21	-628.571
225.59	-1000.000
225.96	-1025.000
226.34	-123.077
226.71	700.000
227.08	-1850.000
227.46	-186.667
227.83	-850.000
228.21	-178.947
228.58	512.500
228.95	2150.000
229.33	-258.333
229.70	-440.000
230.08	-131.579
230.45	440.000
230.82	-1266.667
231.20	-235.714
231.57	-291.667
231.95	-372.727
232.32	-345.455
232.69	-130.000
233.07	-875.000
233.44	-194.118
233.81	-360.000
234.19	-138.889
234.56	-131.818
234.93	-120.690
235.31	-173.684
235.68	-216.667
236.05	-220.000
236.43	-65.385
236.80	-92.000
237.17	-107.407
237.55	-96.970
237.92	-440.000
238.29	-100.000
238.67	-77.273
239.04	-80.556
239.41	-78.571
239.79	-56.522
240.16	-50.000
240.53	-58.696
240.91	-62.745
241.28	-32.787
241.65	-17.910
242.02	-8.108
242.40	-29.231
242.77	-1.333
243.14	-19.512
243.51	-26.316
243.89	-15.385
244.26	-0.990
244.63	4.902
245.00	1.869
245.38	-0.877
245.75	0.000
246.12	0.794
246.49	3.876
246.87	9.286
247.24	13.245
247.61	5.263
247.98	6.040
248.36	9.877
248.73	13.497
249.10	13.115
249.47	15.423
249.84	20.419
250.22	16.062
250.59	17.222
250.96	18.182
251.33	17.347
251.70	20.085
252.08	15.833
252.45	22.131
252.82	19.421
253.19	19.922
253.56	20.532
253.94	19.615
254.31	25.000
254.68	29.021
255.05	24.756
255.42	18.367
255.79	22.654
256.16	25.166
256.54	21.854
256.91	24.918
257.28	24.262
257.65	25.478
258.02	22.714
258.39	27.635
258.76	26.606
259.14	27.874
259.51	26.801
259.88	22.380
260.25	25.278
260.62	27.123
260.99	26.503
261.36	27.882
261.73	30.239
262.10	28.297
262.47	27.614
262.85	30.303
263.22	23.896
263.59	25.526
263.96	28.133
264.33	28.389
264.70	29.383
265.07	30.310
265.44	29.932
265.81	26.389
266.18	29.025
266.55	28.571
266.92	25.057
267.29	29.759
267.66	30.820
268.03	31.441
268.40	28.184
268.77	24.601
269.14	27.753
269.51	30.482
269.88	29.508
270.25	27.163
270.62	29.958
270.99	30.303
271.36	31.287
271.73	30.255
272.10	27.856
272.47	30.461
272.84	28.514
273.21	27.856
273.58	27.823
273.95	29.808
274.32	27.757
274.69	27.853
275.06	28.938
275.43	28.096
275.80	31.570
276.17	26.667
276.54	27.425
276.91	26.834
277.28	28.210
277.65	27.648
278.02	28.676
278.39	30.797
278.76	28.647
279.13	30.142
279.50	29.381
279.87	28.980
280.23	22.887
280.60	29.831
280.97	29.112
281.34	28.693
281.71	29.103
282.08	29.568
282.45	28.642
282.82	27.159
283.19	25.848
283.56	26.557
283.92	26.877
284.29	28.910
284.66	29.228
285.03	27.244
285.40	26.584
285.77	28.947
286.14	29.771
286.51	29.072
286.87	26.856
287.24	29.367
287.61	27.803
287.98	27.341
288.35	28.994
288.72	27.515
289.08	27.672
289.45	27.219
289.82	26.657
290.19	27.011
290.56	26.901
290.93	24.251
291.29	26.309
291.66	25.069
292.03	26.459
292.40	26.259
292.77	23.989
293.13	24.493
293.50	24.047
293.87	24.027
294.24	26.133
294.60	23.388
294.97	23.490
295.34	24.072
295.71	23.077
296.08	22.222
296.44	24.755
296.81	23.143
297.18	22.914
297.55	22.288
297.91	21.708
298.28	22.275
298.65	23.068
299.02	21.370
299.38	23.455
299.75	23.014
300.12	20.949
300.48	22.235
300.85	22.497
301.22	21.477
301.59	21.347
301.95	21.921
302.32	22.111
302.69	21.687
303.05	23.395
303.42	21.286
303.79	21.979
304.15	21.241
304.52	20.719
304.89	20.628
305.25	21.118
305.62	20.585
305.99	21.856
306.35	21.270
306.72	19.648
307.09	19.898
307.45	21.739
307.82	20.585
308.19	20.888
308.55	19.383
308.92	20.740
309.29	20.019
309.65	19.981
310.02	21.089
310.38	20.079
310.75	20.777
311.12	22.244
311.48	20.723
311.85	20.798
312.22	20.019
312.58	19.624
312.95	19.503
313.31	21.319
313.68	21.978
314.05	21.048
314.41	21.038
314.78	19.982
315.14	20.780
315.51	20.222
315.87	20.972
316.24	20.274
316.61	20.604
316.97	19.548
317.34	20.635
317.70	20.961
318.07	20.282
318.43	21.344
318.80	22.492
319.16	21.202
319.53	20.051
319.89	19.632
320.26	20.196
320.62	18.972
320.99	21.145
321.35	19.039
321.72	21.767
322.08	19.748
322.45	20.416
322.81	20.397
323.18	20.885
323.54	20.948
323.91	21.441
324.27	19.966
324.64	20.403
325.00	20.149
325.37	21.212
325.73	19.587
326.10	20.843
326.46	21.173
326.83	20.176
327.19	20.551
327.56	21.502
327.92	20.063
328.29	20.242
328.65	19.347
329.01	19.289
329.38	20.556
329.74	20.719
330.11	20.377
330.47	19.629
330.84	20.758
331.20	20.833
331.56	19.584
331.93	21.172
332.29	19.407
332.66	20.515
333.02	20.519
333.38	19.799
333.75	19.276
334.11	21.018
334.48	19.802
334.84	19.881
335.20	19.228
335.57	20.236
335.93	20.744
336.29	19.551
336.66	19.260
337.02	19.649
337.38	20.153
337.75	18.595
338.11	20.774
338.47	18.941
338.84	20.135
339.20	19.377
339.56	18.863
339.93	19.704
340.29	19.243
340.65	18.897
341.02	20.271
341.38	20.291
341.74	19.290
342.11	19.710
342.47	19.142
342.83	19.968
343.20	19.951
343.56	19.727
343.92	18.895
344.28	19.688
344.65	19.535
345.01	19.969
345.37	18.585
345.73	18.862
346.10	20.437
346.46	19.146
346.82	20.075
347.19	19.633
347.55	19.803
347.91	18.574
348.27	19.196
348.63	19.193
349.00	19.016
349.36	18.959
349.72	18.973
350.08	18.128
350.45	18.631
350.81	19.910
351.17	19.323
351.53	19.181
351.89	20.046
352.26	19.328
352.62	18.731
352.98	19.160
353.34	18.895
353.70	18.259
354.07	17.660
354.43	18.147
354.79	18.848
355.15	18.764
355.51	20.029
355.87	18.100
356.24	17.947
356.60	18.477
356.96	19.570
357.32	18.141
357.68	18.009
358.04	18.713
358.40	17.687
358.77	19.079
359.13	18.168
359.49	17.472
359.85	18.057
360.21	17.575
360.57	17.660
360.93	19.111
361.29	17.544
361.66	18.030
362.02	18.928
362.38	18.201
362.74	18.785
363.10	18.982
363.46	17.244
363.82	18.111
364.18	18.790
364.54	18.534
364.90	18.462
365.26	17.793
365.62	19.067
365.98	18.380
366.35	18.658
366.71	18.299
367.07	18.674
367.43	17.991
367.79	18.912
368.15	19.666
368.51	19.553
368.87	18.223
369.23	17.533
369.59	18.169
369.95	18.323
370.31	18.906
370.67	18.776
371.03	18.837
371.39	17.461
371.75	18.363
372.11	18.428
372.47	18.551
372.83	18.455
373.19	18.546
373.55	18.157
373.91	17.314
374.27	18.499
374.63	19.486
374.99	18.236
375.35	18.571
375.71	18.903
376.07	17.495
376.42	18.703
376.78	19.080
377.14	18.777
377.50	17.963
377.86	18.904
378.22	18.802
378.58	19.679
378.94	17.664
379.30	18.336
379.66	18.342
380.02	19.331
380.38	18.894
380.74	19.211
381.09	18.990
381.45	19.091
381.81	20.199
382.17	19.359
382.53	19.064
382.89	19.413
383.25	18.230
383.61	18.634
383.97	18.257
384.32	19.557
384.68	18.445
385.04	19.028
385.40	19.623
385.76	20.047
386.12	19.090
386.48	19.824
386.83	19.130
387.19	19.873
387.55	18.779
387.91	18.379
388.27	20.381
388.62	19.874
388.98	18.838
389.34	19.682
389.70	20.279
390.06	19.953
390.42	20.361
390.77	19.928
391.13	19.073
391.49	20.169
391.85	19.212
392.20	19.692
392.56	19.433
392.92	20.229
393.28	20.564
393.64	19.106
393.99	20.163
394.35	20.561
394.71	20.359
395.07	20.000
395.42	19.360
395.78	20.902
396.14	20.440
396.50	18.943
396.85	19.797
397.21	19.763
397.57	20.436
397.92	19.588
398.28	20.152
398.64	20.252
399.00	19.686
399.35	20.419
399.71	20.815
400.07	20.999
400.42	20.431
400.78	20.428
401.14	20.489
401.49	20.807
401.85	20.698
402.21	21.205
402.57	20.481
402.92	20.804
403.28	19.965
403.63	20.823
403.99	19.537
404.35	20.580
404.70	20.623
405.06	20.543
405.42	20.433
405.77	20.774
406.13	20.583
406.49	20.890
406.84	21.053
407.20	20.738
407.55	21.078
407.91	20.365
408.27	20.554
408.62	20.244
408.98	20.546
409.34	20.293
409.69	20.519
410.05	20.926
410.40	21.114
410.76	21.368
411.11	21.216
411.47	21.622
411.83	22.222
412.18	20.542
412.54	21.517
412.89	20.896
413.25	21.050
413.60	20.276
413.96	21.911
414.31	21.076
414.67	21.169
415.03	20.308
415.38	20.870
415.74	21.503
416.09	21.530
416.45	20.726
416.80	21.053
417.16	20.626
417.51	20.486
417.87	20.723
418.22	21.856
418.58	20.198
418.93	21.478
419.29	21.270
419.64	21.068
420.00	19.881
420.35	21.280
420.71	21.080
421.06	20.759
421.42	22.018
421.77	21.863
422.12	21.512
422.48	21.454
422.83	21.906
423.19	21.485
423.54	21.128
423.90	20.928
424.25	21.280
424.61	21.125
424.96	20.813
425.31	22.240
425.67	21.417
426.02	22.081
426.38	21.240
426.73	20.313
427.09	22.203
427.44	21.573
427.79	21.669
428.15	21.062
428.50	20.899
428.85	21.699
429.21	20.851
429.56	22.014
429.92	21.671
430.27	21.639
430.62	21.690
430.98	21.741
431.33	21.408
431.68	21.648
432.04	21.788
432.39	21.532
432.74	21.461
433.10	22.174
433.45	21.572
433.80	21.406
434.16	22.056
434.51	22.148
434.86	21.987
435.22	22.370
435.57	20.932
435.92	21.425
436.28	21.274
436.63	21.027
436.98	21.685
437.34	21.646
437.69	21.079
438.04	21.047
438.39	21.424
438.75	20.974
439.10	22.093
439.45	21.520
439.81	21.864
440.16	20.483
440.51	21.739
440.86	20.456
441.22	21.704
441.57	21.593
441.92	21.823
442.27	21.566
442.63	21.361
442.98	22.038
443.33	21.673
443.68	22.398
444.03	22.766
444.39	21.452
444.74	22.154
445.09	21.794
445.44	21.391
445.79	21.935
446.15	22.199
446.50	20.982
446.85	21.644
447.20	22.292
447.55	21.967
447.91	20.995
448.26	21.512
448.61	21.626
448.96	22.210
449.31	21.739
449.66	21.024
450.02	21.730
450.37	22.056
450.72	21.744
451.07	21.355
451.42	20.739
451.77	20.400
452.12	21.445
452.47	20.261
452.83	21.340
453.18	20.782
453.53	20.735
453.88	21.425
454.23	20.508
454.58	21.416
454.93	19.842
455.28	21.192
455.63	21.603
455.98	21.899
456.34	21.790
456.69	21.223
457.04	21.277
457.39	20.399
457.74	20.805
458.09	21.691
458.44	21.929
458.79	21.145
459.14	20.661
459.49	20.883
459.84	21.091
460.19	20.155
460.54	21.068
460.89	21.069
461.24	20.805
461.59	21.638
461.94	20.479
462.29	20.829
462.64	20.097
462.99	20.653
463.34	20.701
463.69	20.399
464.04	21.679
464.39	20.796
464.74	20.468
465.09	20.473
465.44	20.655
465.79	20.465
466.14	20.896
466.49	21.474
466.84	21.543
467.19	21.387
467.54	20.917
467.89	19.943
468.24	20.886
468.59	19.340
468.94	19.522
469.29	20.096
469.64	19.708
469.99	19.885
470.34	21.349
470.68	20.301
471.03	21.087
471.38	19.882
471.73	19.571
472.08	20.114
472.43	20.771
472.78	20.655
473.13	19.279
473.48	20.363
473.83	21.706
474.17	20.223
474.52	20.806
474.87	20.819
475.22	20.845
475.57	20.353
475.92	21.005
476.27	20.927
476.61	20.820
476.96	20.490
477.31	20.198
477.66	21.406
478.01	20.386
478.36	19.940
478.70	20.394
479.05	21.012
479.40	21.471
479.75	21.518
480.10	20.133
480.45	21.513
480.79	20.726
481.14	20.588
481.49	20.491
481.84	21.062
482.19	20.559
482.53	21.425
482.88	21.444
483.23	20.231
483.58	19.869
483.92	20.301
484.27	20.914
484.62	19.513
484.97	20.607
485.31	20.239
485.66	19.930
486.01	20.222
486.36	22.149
486.70	23.924
487.05	24.663
487.40	23.543
487.75	22.595
488.09	23.105
488.44	21.640
488.79	20.843
489.13	20.492
489.48	20.427
489.83	20.282
490.17	20.251
490.52	20.238
490.87	20.474
491.22	20.321
491.56	20.563
491.91	20.759
492.26	20.121
492.60	20.070
492.95	20.711
493.30	20.305
493.64	19.623
493.99	20.000
494.34	19.774
494.68	19.872
495.03	20.793
495.37	20.240
495.72	20.544
496.07	20.421
496.41	19.820
496.76	21.101
497.11	20.892
497.45	20.155
497.80	20.924
498.14	20.136
498.49	20.037
498.84	20.658
499.18	20.648
499.53	20.762
499.87	20.879
500.22	20.080
500.56	20.468
500.91	20.686
501.26	20.455
501.60	20.239
501.95	20.929
502.29	20.228
502.64	20.857
502.98	20.880
503.33	20.432
503.67	19.669
504.02	20.753
504.36	21.180
504.71	20.441
505.06	20.509
505.40	20.293
505.75	20.628
506.09	20.856
506.44	20.427
506.78	20.872
507.13	21.024
507.47	20.369
507.82	20.549
508.16	20.029
508.51	19.362
508.85	20.501
509.19	20.938
509.54	20.557
509.88	19.815
510.23	20.495
510.57	21.460
510.92	20.803
511.26	20.539
511.61	20.039
511.95	20.156
512.30	20.827
512.64	19.940
512.98	20.760
513.33	20.464
513.67	20.704
514.02	20.593
514.36	20.870
514.70	20.677
515.05	20.647
515.39	19.843
515.74	20.255
516.08	20.285
516.42	20.617
516.77	20.084
517.11	20.268
517.46	20.148
517.80	21.112
518.14	20.675
518.49	21.638
518.83	20.011
519.17	19.602
519.52	21.331
519.86	20.433
520.20	20.607
520.55	19.989
520.89	20.214
521.23	20.491
521.58	20.282
521.92	20.963
522.26	20.619
522.61	20.833
522.95	20.819
523.29	20.690
523.64	20.796
523.98	20.993
524.32	20.974
524.66	20.034
525.01	20.951
525.35	19.989
525.69	21.346
526.04	19.575
526.38	20.632
526.72	20.761
527.06	20.469
527.41	20.233
527.75	20.487
528.09	21.074
528.43	20.545
528.78	20.520
529.12	20.642
529.46	20.630
529.80	21.339
530.15	19.942
530.49	20.403
530.83	21.429
531.17	20.729
531.51	21.239
531.86	21.034
532.20	21.280
532.54	20.108
532.88	20.545
533.22	21.567
533.57	21.639
533.91	21.268
534.25	20.803
534.59	21.264
534.93	21.505
535.27	20.732
535.62	22.229
535.96	21.209
536.30	21.387
536.64	21.862
536.98	21.402
537.32	20.741
537.66	21.335
538.01	21.450
538.35	21.681
538.69	20.913
539.03	21.459
539.37	21.260
539.71	20.721
540.05	21.643
540.39	21.210
540.73	19.551
541.07	21.091
541.42	21.973
541.76	20.700
542.10	21.653
542.44	20.463
542.78	20.499
543.12	21.395
543.46	22.039
543.80	20.204
544.14	20.706
544.48	20.922
544.82	21.544
545.16	22.004
545.50	21.570
545.84	21.310
546.18	22.346
546.52	19.936
546.86	20.692
547.20	20.992
547.54	21.223
547.88	21.157
548.22	21.111
548.56	21.709
548.90	21.851
549.24	21.216
549.58	21.640
549.92	20.472
550.26	21.683
550.60	21.378
550.94	20.310
551.28	20.990
551.62	21.631
551.96	19.676
552.30	20.969
552.64	21.469
552.98	20.711
553.32	21.672
553.66	20.772
554.00	22.194
554.34	21.107
554.68	20.658
555.02	20.828
555.36	21.170
555.69	20.436
556.03	20.366
556.37	20.901
556.71	21.560
557.05	21.278
557.39	21.765
557.73	20.806
558.07	20.464
558.41	21.262
558.75	21.095
559.08	21.225
559.42	20.919
559.76	21.167
560.10	20.362
560.44	20.976
560.78	21.438
561.12	21.613
561.45	21.959
561.79	21.490
562.13	22.304
562.47	20.407
562.81	21.076
563.15	21.275
563.48	20.883
563.82	20.677
564.16	21.260
564.50	21.156
564.84	20.826
565.17	20.824
565.51	21.001
565.85	22.031
566.19	21.083
566.52	21.182
566.86	21.562
567.20	21.533
567.54	21.827
567.88	22.426
568.21	21.937
568.55	22.638
568.89	22.424
569.23	22.940
569.56	22.235
569.90	23.058
570.24	23.204
570.57	23.188
570.91	22.719
571.25	23.113
571.59	24.464
571.92	23.987
572.26	23.452
572.60	23.888
572.93	23.574
573.27	23.518
573.61	23.531
573.95	23.865
574.28	24.130
574.62	23.943
574.96	23.467
575.29	23.463
575.63	24.140
575.97	23.904
576.30	23.736
576.64	23.503
576.98	23.440
577.31	24.266
577.65	24.226
577.98	24.228
578.32	24.085
578.66	24.029
578.99	24.186
579.33	24.744
579.67	24.456
580.00	23.556
580.34	23.909
580.67	23.897
581.01	23.778
581.35	23.924
581.68	24.454
582.02	24.202
582.35	24.959
582.69	24.530
583.02	25.266
583.36	24.625
583.70	24.313
584.03	23.350
584.37	24.068
584.70	23.325
585.04	23.134
585.37	23.641
585.71	23.646
586.04	23.778
586.38	24.002
586.72	24.141
587.05	24.175
587.39	23.859
587.72	24.115
588.06	24.081
588.39	24.048
588.73	23.598
589.06	23.646
589.40	24.032
589.73	23.297
590.07	23.508
590.40	23.124
590.73	22.976
591.07	23.529
591.40	22.823
591.74	22.218
592.07	22.777
592.41	23.028
592.74	23.003
593.08	23.280
593.41	23.885
593.75	23.793
594.08	24.326
594.41	23.942
594.75	23.082
595.08	23.688
595.42	23.084
595.75	23.345
596.09	23.517
596.42	23.217
596.75	23.736
597.09	22.909
597.42	22.884
597.75	22.540
598.09	22.976
598.42	22.758
598.76	22.163
599.09	23.211
599.42	23.098
599.76	22.846
600.09	23.524
600.42	23.290
600.76	23.151
601.09	23.631
601.42	23.412
601.76	24.034
602.09	23.267
602.42	22.973
602.76	22.804
603.09	23.495
603.42	23.338
603.76	22.939
604.09	23.598
604.42	23.560
604.76	22.793
605.09	23.454
605.42	23.445
605.75	22.885
606.09	22.583
606.42	22.656
606.75	22.114
607.09	22.696
607.42	22.813
607.75	23.486
608.08	23.007
608.42	22.854
608.75	22.927
609.08	22.496
609.41	22.276
609.75	22.143
610.08	23.219
610.41	22.175
610.74	23.067
611.07	23.046
611.41	23.363
611.74	22.540
612.07	23.142
612.40	22.006
612.73	22.005
613.07	22.103
613.40	22.137
613.73	22.725
614.06	22.620
614.39	22.303
614.72	22.562
615.06	22.714
615.39	22.136
615.72	22.085
616.05	22.584
616.38	22.301
616.71	22.048
617.05	21.299
617.38	22.739
617.71	22.084
618.04	22.234
618.37	22.350
618.70	23.077
619.03	21.744
619.36	21.455
619.69	21.076
620.03	20.778
620.36	20.798
620.69	21.838
621.02	21.916
621.35	21.843
621.68	21.837
622.01	19.644
622.34	20.153
622.67	20.756
623.00	19.028
623.33	20.770
623.66	21.206
623.99	20.606
624.32	22.157
624.65	21.364
624.99	22.432
625.32	21.816
625.65	21.308
625.98	20.000
626.31	20.765
626.64	21.245
626.97	19.280
627.30	20.425
627.63	20.855
627.96	20.420
628.29	20.856
628.62	19.479
628.95	19.807
629.28	20.136
629.61	20.034
629.94	19.833
