SpectraSuite Data File
++++++++++++++++++++++++++++++++++++
Date: Thu May 14 15:19:35 PDT 2015
User: schluterlab
Dark Spectrum Present: Yes
Reference Spectrum Present: Yes
Number of Sampled Component Spectra: 1
Spectrometers: USB2E3373
Integration Time (usec): 3000 (USB2E3373)
Spectra Averaged: 3 (USB2E3373)
Boxcar Smoothing: 0 (USB2E3373)
Correct for Electrical Dark: No (USB2E3373)
Strobe/Lamp Enabled: No (USB2E3373)
Correct for Detector Non-linearity: No (USB2E3373)
Correct for Stray Light: No (USB2E3373)
Number of Pixels in Processed Spectrum: 2048
>>>>>Begin Processed Spectral Data<<<<<
178.53	0.000
178.91	685.714
179.29	-4900.000
179.67	-3900.000
180.04	371.429
180.42	430.000
180.80	820.000
181.18	-4500.000
181.56	-3800.000
181.94	925.000
182.31	-800.000
182.69	1366.667
183.07	-1900.000
183.45	975.000
183.83	-616.667
184.20	-1300.000
184.58	3800.000
184.96	-1125.000
185.34	-355.556
185.72	-720.000
186.09	644.444
186.47	2750.000
186.85	1040.000
187.23	-522.222
187.61	-4000.000
187.98	780.000
188.36	1050.000
188.74	-1125.000
189.12	-1400.000
189.49	-237.500
189.87	-425.000
190.25	-377.778
190.63	-620.000
191.00	-488.889
191.38	0.000
191.76	-1150.000
192.14	-800.000
192.51	2250.000
192.89	-616.667
193.27	0.000
193.65	-485.714
194.02	-4600.000
194.40	-428.571
194.78	571.429
195.15	0.000
195.53	-272.727
195.91	0.000
196.29	-900.000
196.66	-346.154
197.04	-5000.000
197.42	-557.143
197.79	-2200.000
198.17	-437.500
198.55	-500.000
198.92	-400.000
199.30	-487.500
199.68	-245.455
200.05	-200.000
200.43	-2250.000
200.81	700.000
201.18	0.000
201.56	577.778
201.94	0.000
202.31	1766.667
202.69	-455.556
203.07	3300.000
203.44	-366.667
203.82	-1175.000
204.19	-333.333
204.57	-700.000
204.95	-537.500
205.32	-3800.000
205.70	825.000
206.08	-683.333
206.45	-516.667
206.83	980.000
207.20	-600.000
207.58	-860.000
207.96	-716.667
208.33	-600.000
208.71	325.000
209.08	-566.667
209.46	0.000
209.84	850.000
210.21	2500.000
210.59	1650.000
210.96	1733.333
211.34	-1125.000
211.71	-425.000
212.09	-4200.000
212.46	0.000
212.84	2200.000
213.22	-840.000
213.59	-1000.000
213.97	-350.000
214.34	-1600.000
214.72	666.667
215.09	-1150.000
215.47	0.000
215.84	614.286
216.22	2450.000
216.59	-720.000
216.97	-840.000
217.34	-925.000
217.72	-537.500
218.09	-1125.000
218.47	-1175.000
218.84	0.000
219.22	820.000
219.59	-194.118
219.97	-140.000
220.34	2100.000
220.72	-522.222
221.09	-300.000
221.47	-1200.000
221.84	-350.000
222.22	-628.571
222.59	0.000
222.97	-475.000
223.34	-980.000
223.72	-4400.000
224.09	-850.000
224.46	-1225.000
224.84	-680.000
225.21	-600.000
225.59	-1325.000
225.96	-850.000
226.34	-119.231
226.71	750.000
227.08	-2300.000
227.46	-200.000
227.83	-950.000
228.21	-194.737
228.58	587.500
228.95	2150.000
229.33	-291.667
229.70	-360.000
230.08	-136.842
230.45	490.000
230.82	-1500.000
231.20	-250.000
231.57	-291.667
231.95	-445.455
232.32	-372.727
232.69	-155.000
233.07	-1100.000
233.44	-211.765
233.81	-390.000
234.19	-172.222
234.56	-140.909
234.93	-82.759
235.31	-200.000
235.68	-211.111
236.05	-230.000
236.43	-88.462
236.80	-88.000
237.17	-111.111
237.55	-100.000
237.92	-390.000
238.29	-116.129
238.67	-84.091
239.04	-91.667
239.41	-85.714
239.79	-56.522
240.16	-68.519
240.53	-69.565
240.91	-56.863
241.28	-62.295
241.65	-25.373
242.02	-32.432
242.40	-40.000
242.77	-32.000
243.14	-37.805
243.51	-46.053
243.89	-41.026
244.26	-13.861
244.63	-18.627
245.00	-21.495
245.38	-14.912
245.75	-22.124
246.12	-17.460
246.49	-17.054
246.87	-10.714
247.24	-7.947
247.61	-9.868
247.98	-17.450
248.36	-14.198
248.73	-12.883
249.10	-7.104
249.47	-6.468
249.84	0.000
250.22	-7.254
250.59	-7.778
250.96	-4.091
251.33	-11.735
251.70	-4.274
252.08	-2.083
252.45	-1.230
252.82	-3.719
253.19	-2.344
253.56	0.760
253.94	-2.308
254.31	-0.758
254.68	3.846
255.05	5.537
255.42	0.340
255.79	0.971
256.16	0.000
256.54	0.662
256.91	3.279
257.28	1.311
257.65	1.274
258.02	1.475
258.39	2.849
258.76	0.917
259.14	2.299
259.51	-2.305
259.88	-1.700
260.25	-0.833
260.62	2.192
260.99	4.645
261.36	5.094
261.73	-0.265
262.10	1.648
262.47	3.217
262.85	7.071
263.22	1.818
263.59	1.053
263.96	4.348
264.33	5.627
264.70	3.457
265.07	6.205
265.44	4.535
265.81	5.093
266.18	5.442
266.55	2.679
266.92	1.595
267.29	6.127
267.66	4.878
268.03	4.367
268.40	3.132
268.77	4.784
269.14	2.643
269.51	1.974
269.88	5.328
270.25	6.640
270.62	4.219
270.99	5.657
271.36	5.347
271.73	6.680
272.10	7.214
272.47	3.808
272.84	5.823
273.21	5.812
273.58	6.250
273.95	4.808
274.32	4.563
274.69	3.868
275.06	5.678
275.43	2.957
275.80	7.055
276.17	3.333
276.54	2.052
276.91	4.114
277.28	4.702
277.65	4.847
278.02	5.882
278.39	5.978
278.76	5.448
279.13	4.965
279.50	6.357
279.87	5.725
280.23	2.817
280.60	5.593
280.97	5.263
281.34	4.414
281.71	7.614
282.08	4.319
282.45	4.910
282.82	5.181
283.19	4.039
283.56	3.443
283.92	7.057
284.29	7.109
284.66	6.076
285.03	4.327
285.40	6.801
285.77	5.108
286.14	7.634
286.51	5.936
286.87	5.055
287.24	9.337
287.61	5.381
287.98	6.949
288.35	6.065
288.72	7.249
289.08	7.613
289.45	6.065
289.82	5.120
290.19	7.471
290.56	8.310
290.93	7.561
291.29	8.402
291.66	7.300
292.03	6.106
292.40	7.211
292.77	7.412
293.13	8.119
293.50	6.439
293.87	5.906
294.24	8.933
294.60	9.102
294.97	4.698
295.34	7.682
295.71	6.431
296.08	8.010
296.44	6.740
296.81	7.674
297.18	8.219
297.55	6.368
297.91	7.117
298.28	7.938
298.65	8.799
299.02	8.028
299.38	9.153
299.75	7.243
300.12	9.144
300.48	9.217
300.85	9.111
301.22	8.389
301.59	8.219
301.95	9.379
302.32	8.667
302.69	9.529
303.05	9.902
303.42	9.645
303.79	9.271
304.15	9.779
304.52	9.619
304.89	9.319
305.25	9.213
305.62	9.509
305.99	10.412
306.35	11.089
306.72	10.651
307.09	9.949
307.45	10.559
307.82	10.797
308.19	10.091
308.55	11.475
308.92	11.295
309.29	11.973
309.65	10.039
310.02	11.584
310.38	12.106
310.75	12.039
311.12	12.752
311.48	13.978
311.85	12.726
312.22	13.472
312.58	12.394
312.95	13.098
313.31	13.640
313.68	13.095
314.05	14.363
314.41	15.756
314.78	13.987
315.14	14.882
315.51	15.328
315.87	15.572
316.24	15.982
316.61	16.341
316.97	14.932
317.34	16.138
317.70	17.293
318.07	18.342
318.43	17.432
318.80	18.896
319.16	18.112
319.53	17.052
319.89	17.616
320.26	18.327
320.62	18.528
320.99	19.114
321.35	19.871
321.72	20.000
322.08	18.936
322.45	19.422
322.81	19.224
323.18	19.204
323.54	20.517
323.91	20.907
324.27	20.740
324.64	21.662
325.00	21.808
325.37	22.932
325.73	22.066
326.10	21.411
326.46	23.941
326.83	24.259
327.19	24.016
327.56	24.664
327.92	23.446
328.29	24.194
328.65	22.864
329.01	26.819
329.38	25.948
329.74	26.370
330.11	27.055
330.47	25.611
330.84	26.184
331.20	25.583
331.56	28.076
331.93	27.280
332.29	28.220
332.66	28.073
333.02	27.471
333.38	28.943
333.75	29.377
334.11	28.357
334.48	29.208
334.84	30.246
335.20	29.219
335.57	29.258
335.93	29.504
336.29	28.702
336.66	28.595
337.02	28.679
337.38	31.037
337.75	29.917
338.11	30.530
338.47	29.280
338.84	29.611
339.20	28.896
339.56	29.407
339.93	29.064
340.29	30.032
340.65	28.467
341.02	30.726
341.38	30.962
341.74	28.733
342.11	29.767
342.47	29.786
342.83	30.596
343.20	29.599
343.56	29.751
343.92	29.303
344.28	29.922
344.65	31.318
345.01	29.719
345.37	30.171
345.73	29.462
346.10	29.329
346.46	29.272
346.82	28.989
347.19	30.558
347.55	29.666
347.91	28.529
348.27	29.211
348.63	30.312
349.00	29.828
349.36	29.963
349.72	29.241
350.08	29.718
350.45	29.886
350.81	29.638
351.17	29.925
351.53	30.402
351.89	29.992
352.26	30.000
352.62	30.373
352.98	29.237
353.34	29.350
353.70	31.125
354.07	29.210
354.43	29.992
354.79	30.142
355.15	30.169
355.51	30.775
355.87	29.469
356.24	31.331
356.60	29.712
356.96	30.838
357.32	31.004
357.68	28.843
358.04	30.165
358.40	30.075
358.77	30.409
359.13	29.542
359.49	29.368
359.85	31.472
360.21	29.770
360.57	31.012
360.93	31.030
361.29	30.596
361.66	31.137
362.02	30.759
362.38	32.186
362.74	31.425
363.10	31.431
363.46	32.202
363.82	31.818
364.18	32.301
364.54	32.503
364.90	32.107
365.26	32.276
365.62	33.667
365.98	33.016
366.35	31.678
366.71	32.245
367.07	33.085
367.43	32.108
367.79	32.581
368.15	33.445
368.51	33.356
368.87	32.593
369.23	32.333
369.59	33.265
369.95	32.995
370.31	32.816
370.67	33.287
371.03	33.726
371.39	33.445
371.75	33.425
372.11	33.198
372.47	32.701
372.83	34.293
373.19	33.289
373.55	33.808
373.91	34.151
374.27	34.023
374.63	35.250
374.99	34.615
375.35	34.740
375.71	34.774
376.07	34.797
376.42	36.461
376.78	36.234
377.14	35.059
377.50	36.686
377.86	36.084
378.22	35.988
378.58	36.147
378.94	35.563
379.30	35.970
379.66	36.508
380.02	37.392
380.38	38.018
380.74	37.690
381.09	37.282
381.45	37.386
381.81	39.637
382.17	39.489
382.53	38.538
382.89	38.488
383.25	40.328
383.61	38.542
383.97	38.928
384.32	39.593
384.68	38.747
385.04	40.254
385.40	40.542
385.76	41.032
386.12	39.677
386.48	40.765
386.83	41.359
387.19	40.556
387.55	40.962
387.91	41.153
388.27	41.339
388.62	40.607
388.98	41.512
389.34	42.487
389.70	42.359
390.06	41.622
390.42	41.265
390.77	42.565
391.13	40.904
391.49	42.029
391.85	41.455
392.20	40.866
392.56	42.056
392.92	41.549
393.28	42.344
393.64	41.955
393.99	42.533
394.35	42.348
394.71	43.054
395.07	41.796
395.42	41.348
395.78	44.546
396.14	42.602
396.50	42.815
396.85	42.099
397.21	42.308
397.57	42.756
397.92	43.242
398.28	42.857
398.64	41.476
399.00	42.670
399.35	42.618
399.71	42.554
400.07	42.504
400.42	42.841
400.78	42.072
401.14	42.345
401.49	42.979
401.85	44.186
402.21	43.105
402.57	43.427
402.92	42.849
403.28	42.037
403.63	41.945
403.99	42.399
404.35	42.297
404.70	42.776
405.06	41.739
405.42	42.037
405.77	42.694
406.13	43.004
406.49	42.905
406.84	43.158
407.20	43.264
407.55	42.580
407.91	41.923
408.27	42.226
408.62	44.037
408.98	42.600
409.34	42.581
409.69	43.201
410.05	42.321
410.40	43.387
410.76	43.242
411.11	43.717
411.47	42.383
411.83	42.504
412.18	44.337
412.54	42.264
412.89	43.946
413.25	43.623
413.60	43.079
413.96	44.522
414.31	41.926
414.67	42.993
415.03	42.892
415.38	43.064
415.74	43.433
416.09	44.047
416.45	43.331
416.80	43.941
417.16	44.828
417.51	44.583
417.87	44.451
418.22	44.731
418.58	44.176
418.93	45.518
419.29	45.253
419.64	44.838
420.00	45.341
420.35	45.536
420.71	45.549
421.06	45.371
421.42	46.158
421.77	44.750
422.12	44.767
422.48	45.622
422.83	47.152
423.19	46.844
423.54	49.004
423.90	46.438
424.25	48.053
424.61	47.359
424.96	48.435
425.31	48.408
425.67	46.860
426.02	48.810
426.38	49.311
426.73	47.656
427.09	50.231
427.44	48.280
427.79	49.143
428.15	49.315
428.50	49.663
428.85	48.507
429.21	50.532
429.56	50.395
429.92	50.418
430.27	50.602
430.62	50.660
430.98	51.156
431.33	51.026
431.68	50.383
432.04	51.905
432.39	51.794
432.74	51.427
433.10	51.541
433.45	50.725
433.80	51.824
434.16	52.324
434.51	53.700
434.86	54.560
435.22	55.048
435.57	54.245
435.92	53.311
436.28	54.835
436.63	53.960
436.98	53.301
437.34	55.073
437.69	54.155
438.04	54.839
438.39	53.992
438.75	53.348
439.10	55.708
439.45	54.779
439.81	54.859
440.16	54.102
440.51	54.236
440.86	54.419
441.22	54.555
441.57	55.922
441.92	55.529
442.27	56.212
442.63	55.936
442.98	56.243
443.33	55.339
443.68	55.302
444.03	56.350
444.39	56.311
444.74	56.611
445.09	55.347
445.44	57.534
445.79	56.753
446.15	57.143
446.50	57.933
446.85	57.490
447.20	56.867
447.55	56.538
447.91	57.016
448.26	56.712
448.61	57.226
448.96	58.637
449.31	57.741
449.66	57.407
450.02	57.542
450.37	57.965
450.72	57.643
451.07	57.802
451.42	57.597
451.77	56.643
452.12	59.707
452.47	58.645
452.83	60.079
453.18	57.852
453.53	58.472
453.88	58.200
454.23	58.418
454.58	58.328
454.93	57.767
455.28	59.542
455.63	59.181
455.98	59.553
456.34	59.364
456.69	58.848
457.04	59.870
457.39	58.647
457.74	59.004
458.09	59.418
458.44	59.537
458.79	59.154
459.14	58.626
459.49	60.045
459.84	60.913
460.19	59.578
460.54	61.329
460.89	60.985
461.24	59.598
461.59	61.206
461.94	59.270
462.29	61.422
462.64	58.841
462.99	60.452
463.34	60.091
463.69	59.261
464.04	61.868
464.39	60.426
464.74	58.951
465.09	60.150
465.44	60.461
465.79	60.286
466.14	60.240
466.49	60.316
466.84	62.094
467.19	60.636
467.54	59.342
467.89	60.230
468.24	60.277
468.59	60.220
468.94	60.839
469.29	59.268
469.64	61.093
469.99	62.078
470.34	61.262
470.68	62.269
471.03	62.672
471.38	62.394
471.73	61.638
472.08	60.977
472.43	61.890
472.78	61.776
473.13	60.872
473.48	61.088
473.83	61.985
474.17	62.954
474.52	63.800
474.87	61.240
475.22	62.310
475.57	62.098
475.92	62.270
476.27	63.472
476.61	60.488
476.96	62.565
477.31	61.436
477.66	62.802
478.01	60.854
478.36	61.964
478.70	62.266
479.05	62.935
479.40	63.425
479.75	62.632
480.10	62.435
480.45	62.033
480.79	62.313
481.14	61.305
481.49	61.745
481.84	62.533
482.19	62.839
482.53	63.008
482.88	64.156
483.23	63.184
483.58	62.620
483.92	62.012
484.27	62.786
484.62	61.716
484.97	62.986
485.31	61.352
485.66	57.710
486.01	58.079
486.36	61.182
486.70	65.141
487.05	67.334
487.40	65.568
487.75	63.919
488.09	61.567
488.44	61.190
488.79	60.438
489.13	61.296
489.48	60.854
489.83	62.093
490.17	62.090
490.52	61.453
490.87	63.367
491.22	63.302
491.56	62.585
491.91	63.280
492.26	63.652
492.60	62.659
492.95	63.449
493.30	63.693
493.64	64.301
493.99	63.421
494.34	63.720
494.68	64.540
495.03	64.317
495.37	64.936
495.72	63.719
496.07	63.804
496.41	64.264
496.76	64.345
497.11	64.416
497.45	65.170
497.80	64.149
498.14	64.898
498.49	64.384
498.84	64.580
499.18	64.912
499.53	63.677
499.87	64.571
500.22	63.847
500.56	63.878
500.91	65.126
501.26	65.000
501.60	63.500
501.95	64.003
502.29	64.853
502.64	65.763
502.98	63.417
503.33	64.363
503.67	63.890
504.02	63.923
504.36	64.790
504.71	65.825
505.06	64.893
505.40	65.037
505.75	63.434
506.09	64.365
506.44	65.227
506.78	66.147
507.13	65.560
507.47	65.324
507.82	65.388
508.16	65.679
508.51	65.260
508.85	66.793
509.19	65.703
509.54	65.802
509.88	65.857
510.23	64.934
510.57	65.732
510.92	66.086
511.26	64.646
511.61	64.703
511.95	65.691
512.30	66.814
512.64	66.167
512.98	65.433
513.33	65.474
513.67	66.395
514.02	66.173
514.36	67.315
514.70	65.990
515.05	67.935
515.39	65.827
515.74	67.126
516.08	66.667
516.42	66.667
516.77	67.455
517.11	66.271
517.46	67.126
517.80	68.520
518.14	68.390
518.49	67.516
518.83	66.418
519.17	65.913
519.52	67.453
519.86	68.585
520.20	67.146
520.55	66.977
520.89	67.511
521.23	67.169
521.58	68.418
521.92	67.819
522.26	67.354
522.61	68.056
522.95	67.878
523.29	68.276
523.64	65.807
523.98	69.424
524.32	69.054
524.66	69.038
525.01	68.233
525.35	67.490
525.69	67.227
526.04	66.475
526.38	67.816
526.72	66.955
527.06	68.563
527.41	67.405
527.75	68.705
528.09	69.421
528.43	67.673
528.78	68.092
529.12	67.144
529.46	67.566
529.80	68.078
530.15	68.290
530.49	67.794
530.83	67.710
531.17	67.802
531.51	66.546
531.86	67.428
532.20	68.476
532.54	67.445
532.88	66.242
533.22	67.708
533.57	66.013
533.91	67.452
534.25	67.044
534.59	67.529
534.93	67.289
535.27	65.690
535.62	67.311
535.96	67.693
536.30	66.451
536.64	67.387
536.98	68.819
537.32	67.963
537.66	67.935
538.01	66.526
538.35	67.540
538.69	67.728
539.03	68.118
539.37	66.019
539.71	67.147
540.05	66.727
540.39	67.237
540.73	66.727
541.07	68.486
541.42	64.914
541.76	66.014
542.10	66.104
542.44	67.174
542.78	67.032
543.12	66.687
543.46	65.812
543.80	66.427
544.14	66.727
544.48	66.785
544.82	67.804
545.16	65.951
545.50	66.627
545.84	65.340
546.18	68.519
546.52	67.134
546.86	66.918
547.20	67.494
547.54	66.292
547.88	66.486
548.22	66.023
548.56	67.525
548.90	67.164
549.24	66.869
549.58	66.877
549.92	67.156
550.26	67.638
550.60	67.071
550.94	67.853
551.28	66.799
551.62	68.868
551.96	65.307
552.30	68.515
552.64	67.766
552.98	67.311
553.32	68.553
553.66	69.389
554.00	67.465
554.34	68.404
554.68	66.043
555.02	67.674
555.36	69.428
555.69	66.880
556.03	67.907
556.37	68.961
556.71	68.421
557.05	67.220
557.39	67.750
557.73	67.569
558.07	66.026
558.41	68.173
558.75	67.816
559.08	70.216
559.42	67.490
559.76	66.893
560.10	67.314
560.44	69.525
560.78	68.750
561.12	67.734
561.45	68.370
561.79	69.353
562.13	68.885
562.47	68.126
562.81	67.405
563.15	68.371
563.48	68.365
563.82	68.198
564.16	67.050
564.50	67.878
564.84	66.903
565.17	67.294
565.51	66.801
565.85	67.102
566.19	67.108
566.52	67.349
566.86	67.855
567.20	65.035
567.54	67.286
567.88	67.278
568.21	67.194
568.55	67.242
568.89	66.682
569.23	65.779
569.56	65.651
569.90	65.004
570.24	66.847
570.57	65.138
570.91	65.401
571.25	64.102
571.59	63.735
571.92	63.886
572.26	63.817
572.60	63.664
572.93	63.568
573.27	63.585
573.61	63.155
573.95	63.146
574.28	62.976
574.62	63.165
574.96	61.976
575.29	62.613
575.63	63.710
575.97	62.683
576.30	61.510
576.64	62.133
576.98	62.073
577.31	62.746
577.65	62.567
577.98	62.462
578.32	62.714
578.66	62.439
578.99	62.032
579.33	63.339
579.67	62.647
580.00	61.452
580.34	61.126
580.67	62.048
581.01	61.727
581.35	61.387
581.68	62.591
582.02	61.987
582.35	63.811
582.69	63.873
583.02	63.502
583.36	63.175
583.70	63.031
584.03	62.155
584.37	61.787
584.70	61.516
585.04	61.358
585.37	62.152
585.71	61.661
586.04	63.122
586.38	63.045
586.72	62.572
587.05	63.571
587.39	63.525
587.72	64.330
588.06	64.434
588.39	62.559
588.73	63.122
589.06	64.673
589.40	65.181
589.73	63.593
590.07	63.959
590.40	63.725
590.73	63.203
591.07	64.780
591.40	64.269
591.74	64.269
592.07	64.028
592.41	64.196
592.74	63.507
593.08	63.153
593.41	64.684
593.75	64.914
594.08	64.980
594.41	65.385
594.75	64.630
595.08	64.838
595.42	64.221
595.75	64.902
596.09	64.893
596.42	64.708
596.75	64.492
597.09	64.768
597.42	64.998
597.75	64.053
598.09	64.524
598.42	65.581
598.76	64.578
599.09	64.507
599.42	64.398
599.76	64.543
600.09	64.831
600.42	64.932
600.76	64.861
601.09	64.587
601.42	64.676
601.76	64.483
602.09	64.475
602.42	63.577
602.76	64.354
603.09	65.565
603.42	65.462
603.76	65.081
604.09	65.153
604.42	65.468
604.76	64.117
605.09	65.257
605.42	64.793
605.75	64.192
606.09	65.174
606.42	64.356
606.75	64.093
607.09	63.978
607.42	63.969
607.75	64.713
608.08	65.154
608.42	64.692
608.75	64.718
609.08	64.261
609.41	65.108
609.75	64.955
610.08	64.952
610.41	65.930
610.74	64.328
611.07	65.409
611.41	66.099
611.74	66.467
612.07	65.498
612.40	66.873
612.73	66.504
613.07	65.330
613.40	66.025
613.73	65.864
614.06	66.094
614.39	63.994
614.72	64.726
615.06	66.073
615.39	64.282
615.72	66.351
616.05	65.614
616.38	66.852
616.71	65.674
617.05	66.081
617.38	65.864
617.71	67.063
618.04	66.972
618.37	66.557
618.70	66.007
619.03	66.487
619.36	67.324
619.69	67.136
620.03	67.420
620.36	66.748
620.69	67.674
621.02	67.717
621.35	71.916
621.68	68.619
622.01	67.900
622.34	67.573
622.67	67.766
623.00	68.421
623.33	68.149
623.66	69.650
623.99	67.808
624.32	68.421
624.65	67.954
624.99	70.026
625.32	67.995
625.65	67.566
625.98	67.186
626.31	69.738
626.64	69.231
626.97	70.293
627.30	67.957
627.63	68.867
627.96	69.369
628.29	69.183
628.62	69.437
628.95	69.763
629.28	69.754
629.61	69.276
629.94	68.285
630.26	68.814
630.59	68.221
630.92	69.697
631.25	71.377
631.58	74.011
631.91	72.540
632.24	71.566
632.57	70.019
