SpectraSuite Data File
++++++++++++++++++++++++++++++++++++
Date: Thu May 14 14:55:52 PDT 2015
User: schluterlab
Dark Spectrum Present: Yes
Reference Spectrum Present: Yes
Number of Sampled Component Spectra: 1
Spectrometers: USB2E3373
Integration Time (usec): 3000 (USB2E3373)
Spectra Averaged: 3 (USB2E3373)
Boxcar Smoothing: 0 (USB2E3373)
Correct for Electrical Dark: No (USB2E3373)
Strobe/Lamp Enabled: No (USB2E3373)
Correct for Detector Non-linearity: No (USB2E3373)
Correct for Stray Light: No (USB2E3373)
Number of Pixels in Processed Spectrum: 2048
>>>>>Begin Processed Spectral Data<<<<<
178.53	0.000
178.91	285.714
179.29	-2700.000
179.67	-2300.000
180.04	221.429
180.42	140.000
180.80	560.000
181.18	-2100.000
181.56	-1700.000
181.94	475.000
182.31	-200.000
182.69	500.000
183.07	-1000.000
183.45	450.000
183.83	-200.000
184.20	-733.333
184.58	2000.000
184.96	-500.000
185.34	-166.667
185.72	-220.000
186.09	277.778
186.47	1350.000
186.85	640.000
187.23	-255.556
187.61	-2000.000
187.98	420.000
188.36	525.000
188.74	-400.000
189.12	-633.333
189.49	-118.750
189.87	-175.000
190.25	-55.556
190.63	-300.000
191.00	-222.222
191.38	0.000
191.76	-400.000
192.14	-316.667
192.51	650.000
192.89	-16.667
193.27	0.000
193.65	-157.143
194.02	-2600.000
194.40	-128.571
194.78	428.571
195.15	0.000
195.53	-127.273
195.91	0.000
196.29	-325.000
196.66	-130.769
197.04	-2300.000
197.42	-328.571
197.79	-800.000
198.17	-150.000
198.55	-142.857
198.92	-88.889
199.30	-237.500
199.68	-136.364
200.05	-150.000
200.43	-1150.000
200.81	285.714
201.18	0.000
201.56	344.444
201.94	0.000
202.31	633.333
202.69	-133.333
203.07	2200.000
203.44	-200.000
203.82	-500.000
204.19	-91.667
204.57	-400.000
204.95	-162.500
205.32	-1800.000
205.70	400.000
206.08	-300.000
206.45	-183.333
206.83	740.000
207.20	-283.333
207.58	-480.000
207.96	-433.333
208.33	-133.333
208.71	175.000
209.08	-216.667
209.46	0.000
209.84	383.333
210.21	900.000
210.59	1200.000
210.96	866.667
211.34	-375.000
211.71	-162.500
212.09	-1700.000
212.46	0.000
212.84	1250.000
213.22	-580.000
213.59	-400.000
213.97	-50.000
214.34	-666.667
214.72	416.667
215.09	-500.000
215.47	0.000
215.84	242.857
216.22	950.000
216.59	-140.000
216.97	-320.000
217.34	-325.000
217.72	-137.500
218.09	-300.000
218.47	-500.000
218.84	0.000
219.22	380.000
219.59	-82.353
219.97	-110.000
220.34	1450.000
220.72	-188.889
221.09	-30.769
221.47	-566.667
221.84	-170.000
222.22	-271.429
222.59	0.000
222.97	-100.000
223.34	-520.000
223.72	-2200.000
224.09	-400.000
224.46	-650.000
224.84	-380.000
225.21	-414.286
225.59	-725.000
225.96	-625.000
226.34	-57.692
226.71	516.667
227.08	-950.000
227.46	-86.667
227.83	-450.000
228.21	-100.000
228.58	312.500
228.95	1000.000
229.33	-100.000
229.70	-110.000
230.08	-15.789
230.45	220.000
230.82	-666.667
231.20	-114.286
231.57	-125.000
231.95	-127.273
232.32	-127.273
232.69	-75.000
233.07	-175.000
233.44	-82.353
233.81	-200.000
234.19	-27.778
234.56	-36.364
234.93	-31.034
235.31	-121.053
235.68	-83.333
236.05	-135.000
236.43	-38.462
236.80	12.000
237.17	-29.630
237.55	-33.333
237.92	-210.000
238.29	-32.258
238.67	-52.273
239.04	-61.111
239.41	-40.476
239.79	-21.739
240.16	-29.630
240.53	-36.957
240.91	-56.863
241.28	-22.951
241.65	-16.418
242.02	-9.459
242.40	-27.692
242.77	-28.000
243.14	-28.049
243.51	-23.684
243.89	-25.641
244.26	-9.901
244.63	-11.765
245.00	-14.019
245.38	-19.298
245.75	-26.549
246.12	-6.349
246.49	-13.953
246.87	-5.714
247.24	-9.272
247.61	-8.553
247.98	-7.383
248.36	-7.407
248.73	-13.497
249.10	-2.186
249.47	-1.493
249.84	-3.141
250.22	-12.435
250.59	-10.000
250.96	-1.364
251.33	-10.204
251.70	-5.983
252.08	-5.833
252.45	-2.049
252.82	-6.198
253.19	-5.469
253.56	-4.183
253.94	-6.538
254.31	-6.818
254.68	-4.196
255.05	-0.326
255.42	-8.163
255.79	-9.385
256.16	-6.954
256.54	-4.967
256.91	-3.279
257.28	-5.902
257.65	-3.503
258.02	-6.490
258.39	-2.564
258.76	-1.223
259.14	-3.448
259.51	-3.746
259.88	-7.932
260.25	-3.333
260.62	-3.288
260.99	1.366
261.36	-3.217
261.73	-3.448
262.10	-7.143
262.47	-1.877
262.85	0.253
263.22	-3.117
263.59	-4.737
263.96	-3.581
264.33	-5.371
264.70	-3.704
265.07	0.955
265.44	0.907
265.81	-1.157
266.18	-1.814
266.55	-0.893
266.92	-6.150
267.29	-1.532
267.66	-1.996
268.03	-3.057
268.40	-3.132
268.77	-4.784
269.14	-5.507
269.51	-3.289
269.88	-1.434
270.25	-0.402
270.62	-1.899
270.99	-0.202
271.36	-1.188
271.73	-1.572
272.10	-1.804
272.47	-2.004
272.84	-1.406
273.21	-2.204
273.58	-3.024
273.95	-2.308
274.32	-2.281
274.69	-4.062
275.06	-0.733
275.43	-2.773
275.80	0.000
276.17	-3.148
276.54	-2.052
276.91	-1.431
277.28	-0.904
277.65	-1.436
278.02	-3.125
278.39	-2.536
278.76	-3.163
279.13	-3.014
279.50	-0.515
279.87	-1.431
280.23	-2.817
280.60	-1.017
280.97	0.164
281.34	-3.735
281.71	0.169
282.08	-2.492
282.45	-3.110
282.82	-0.942
283.19	-4.039
283.56	-1.148
283.92	0.901
284.29	1.106
284.66	-1.478
285.03	-2.244
285.40	-0.309
285.77	-2.322
286.14	-0.611
286.51	-1.674
286.87	-1.106
287.24	-1.054
287.61	-2.840
287.98	-0.755
288.35	-0.444
288.72	-0.148
289.08	-1.025
289.45	-0.740
289.82	-1.657
290.19	-1.868
290.56	-0.282
290.93	-1.427
291.29	-0.551
291.66	-1.240
292.03	-1.764
292.40	-0.136
292.77	-1.617
293.13	-1.353
293.50	-2.628
293.87	-1.477
294.24	-0.800
294.60	-0.253
294.97	-2.416
295.34	0.512
295.71	-1.135
296.08	-1.163
296.44	-1.225
296.81	-1.462
297.18	-0.872
297.55	-1.415
297.91	-1.186
298.28	-0.118
298.65	-0.357
299.02	-1.417
299.38	-0.114
299.75	-0.701
300.12	-1.505
300.48	-1.152
300.85	-1.687
301.22	0.559
301.59	-1.142
301.95	-1.130
302.32	0.333
302.69	-1.533
303.05	-0.871
303.42	-0.998
303.79	-0.625
304.15	0.210
304.52	-2.008
304.89	-0.942
305.25	-0.518
305.62	-1.045
305.99	-0.515
306.35	-0.202
306.72	-0.827
307.09	-1.218
307.45	-2.070
307.82	-1.009
308.19	-1.009
308.55	-0.386
308.92	-0.779
309.29	-0.862
309.65	-1.754
310.02	-1.089
310.38	-0.492
310.75	-1.262
311.12	-0.671
311.48	-1.173
311.85	-1.425
312.22	-1.233
312.58	-0.657
312.95	-1.434
313.31	-0.542
313.68	-1.465
314.05	0.632
314.41	0.091
314.78	-0.908
315.14	-0.181
315.51	-1.016
315.87	0.990
316.24	-0.183
316.61	0.000
316.97	-1.176
317.34	-0.970
317.70	-0.349
318.07	-1.235
318.43	0.425
318.80	0.502
319.16	-0.429
319.53	-1.371
319.89	-0.526
320.26	0.000
320.62	-0.975
320.99	-0.646
321.35	-0.924
321.72	0.837
322.08	-1.353
322.45	-0.813
322.81	-0.271
323.18	-0.177
323.54	0.000
323.91	0.534
324.27	0.086
324.64	0.420
325.00	-0.746
325.37	0.328
325.73	0.000
326.10	0.000
326.46	0.081
326.83	0.961
327.19	-0.236
327.56	0.711
327.92	-0.236
328.29	0.161
328.65	-0.586
329.01	-0.592
329.38	-0.253
329.74	0.257
330.11	-0.257
330.47	-0.084
330.84	0.172
331.20	1.333
331.56	-0.520
331.93	0.586
332.29	0.678
332.66	0.249
333.02	-0.084
333.38	-0.587
333.75	0.926
334.11	-0.250
334.48	0.248
334.84	0.340
335.20	0.000
335.57	0.422
335.93	0.413
336.29	0.250
336.66	-0.336
337.02	0.669
337.38	0.680
337.75	-0.909
338.11	0.336
338.47	0.744
338.84	-0.254
339.20	0.084
339.56	0.824
339.93	0.411
340.29	0.403
340.65	0.406
341.02	1.277
341.38	0.889
341.74	-0.484
342.11	0.402
342.47	0.079
342.83	0.886
343.20	0.082
343.56	-0.160
343.92	0.080
344.28	0.703
344.65	1.008
345.01	0.390
345.37	0.933
345.73	-0.468
346.10	0.858
346.46	-0.396
346.82	0.674
347.19	0.458
347.55	0.379
347.91	0.297
348.27	0.000
348.63	0.762
349.00	0.075
349.36	0.818
349.72	1.042
350.08	0.743
350.45	-0.228
350.81	-0.075
351.17	0.677
351.53	0.227
351.89	0.532
352.26	-0.075
352.62	-0.149
352.98	-0.382
353.34	0.149
353.70	-0.462
354.07	0.745
354.43	0.000
354.79	-0.075
355.15	0.589
355.51	1.096
355.87	-0.224
356.24	-0.380
356.60	0.443
356.96	0.815
357.32	0.223
357.68	-0.512
358.04	-0.299
358.40	0.075
358.77	0.585
359.13	0.295
359.49	-0.892
359.85	-0.073
360.21	0.143
360.57	0.215
360.93	-0.494
361.29	0.491
361.66	-0.072
362.02	0.348
362.38	0.422
362.74	0.349
363.10	0.619
363.46	0.277
363.82	0.284
364.18	-0.563
364.54	-0.138
364.90	-0.067
365.26	-0.345
365.62	1.067
365.98	0.136
366.35	0.537
366.71	0.340
367.07	0.541
367.43	0.591
367.79	1.261
368.15	0.870
368.51	0.880
368.87	0.327
369.23	0.867
369.59	0.410
369.95	0.203
370.31	-0.743
370.67	-0.069
371.03	0.693
371.39	-0.470
371.75	1.032
372.11	0.678
372.47	-0.203
372.83	0.785
373.19	0.467
373.55	-0.068
373.91	-0.273
374.27	1.035
374.63	0.068
374.99	0.000
375.35	1.039
375.71	0.710
376.07	0.581
376.42	0.693
376.78	0.870
377.14	0.624
377.50	0.253
377.86	1.601
378.22	0.599
378.58	0.773
378.94	1.115
379.30	0.762
379.66	0.529
380.02	0.808
380.38	0.979
380.74	0.282
381.09	0.755
381.45	0.852
381.81	1.288
382.17	0.534
382.53	0.526
382.89	0.677
383.25	0.293
383.61	-0.058
383.97	0.883
384.32	0.897
384.68	-0.174
385.04	1.157
385.40	0.707
385.76	0.703
386.12	1.556
386.48	0.824
386.83	0.894
387.19	0.985
387.55	0.352
387.91	0.799
388.27	1.039
388.62	0.916
388.98	0.677
389.34	1.355
389.70	0.174
390.06	0.770
390.42	0.301
390.77	1.505
391.13	0.822
391.49	1.208
391.85	0.242
392.20	0.593
392.56	0.945
392.92	1.200
393.28	0.774
393.64	0.670
393.99	1.627
394.35	1.402
394.71	1.257
395.07	-0.180
395.42	0.971
395.78	1.341
396.14	1.188
396.50	0.891
396.85	0.954
397.21	0.592
397.57	1.472
397.92	1.031
398.28	-0.272
398.64	0.343
399.00	0.681
399.35	0.995
399.71	0.163
400.07	0.056
400.42	1.048
400.78	0.289
401.14	0.683
401.49	1.194
401.85	0.872
402.21	0.406
402.57	0.528
402.92	-0.059
403.28	0.351
403.63	-0.239
403.99	0.772
404.35	1.080
404.70	1.303
405.06	0.652
405.42	0.644
405.77	1.036
406.13	0.918
406.49	0.676
406.84	0.886
407.20	1.230
407.55	0.061
407.91	0.126
408.27	1.119
408.62	0.291
408.98	0.232
409.34	-0.176
409.69	0.618
410.05	0.996
410.40	0.986
410.76	0.673
411.11	0.409
411.47	0.921
411.83	1.293
412.18	1.024
412.54	1.126
412.89	1.630
413.25	1.072
413.60	-0.172
413.96	0.641
414.31	1.076
414.67	1.312
415.03	1.477
415.38	0.567
415.74	0.733
416.09	1.419
416.45	0.626
416.80	0.612
417.16	1.022
417.51	0.934
417.87	0.613
418.22	0.898
418.58	0.372
418.93	1.688
419.29	0.801
419.64	0.360
420.00	0.237
420.35	1.067
420.71	0.574
421.06	0.690
421.42	1.089
421.77	0.646
422.12	1.004
422.48	1.229
422.83	1.041
423.19	0.902
423.54	0.553
423.90	0.497
424.25	1.280
424.61	0.459
424.96	0.714
425.31	1.008
425.67	0.107
426.02	0.498
426.38	0.517
426.73	0.446
427.09	1.153
427.44	0.492
427.79	0.442
428.15	0.571
428.50	0.787
428.85	0.746
429.21	0.745
429.56	0.888
429.92	1.376
430.27	1.542
430.62	0.928
430.98	0.935
431.33	0.880
431.68	1.197
432.04	0.813
432.39	1.339
432.74	0.342
433.10	1.136
433.45	0.725
433.80	1.019
434.16	1.705
434.51	0.565
434.86	0.869
435.22	0.850
435.57	0.295
435.92	1.113
436.28	0.626
436.63	1.147
436.98	0.751
437.34	0.676
437.69	0.660
438.04	0.899
438.39	0.747
438.75	1.107
439.10	1.216
439.45	0.894
439.81	0.621
440.16	0.643
440.51	0.780
440.86	1.001
441.22	1.018
441.57	0.734
441.92	1.358
442.27	1.667
442.63	1.242
442.98	1.921
443.33	0.947
443.68	1.833
444.03	1.223
444.39	1.202
444.74	1.225
445.09	1.216
445.44	0.632
445.79	1.580
446.15	1.542
446.50	1.189
446.85	1.021
447.20	1.451
447.55	0.994
447.91	0.576
448.26	0.476
448.61	1.169
448.96	1.502
449.31	1.538
449.66	0.436
450.02	1.002
450.37	1.598
450.72	0.861
451.07	1.139
451.42	1.040
451.77	0.667
452.12	1.072
452.47	0.535
452.83	0.563
453.18	0.817
453.53	0.574
453.88	0.883
454.23	1.017
454.58	1.219
454.93	0.607
455.28	1.144
455.63	1.080
455.98	1.006
456.34	0.824
456.69	1.117
457.04	0.296
457.39	1.441
457.74	1.063
458.09	0.769
458.44	1.670
458.79	1.186
459.14	1.835
459.49	1.132
459.84	1.312
460.19	0.944
460.54	1.193
460.89	0.476
461.24	0.460
461.59	1.273
461.94	0.627
462.29	1.008
462.64	0.966
462.99	0.691
463.34	0.973
463.69	1.465
464.04	1.167
464.39	0.897
464.74	1.596
465.09	0.923
465.44	1.395
465.79	1.428
466.14	1.042
466.49	1.474
466.84	0.606
467.19	1.850
467.54	0.999
467.89	0.805
468.24	1.551
468.59	0.579
468.94	0.758
469.29	0.480
469.64	0.890
469.99	0.191
470.34	1.176
470.68	0.273
471.03	1.244
471.38	0.719
471.73	-0.195
472.08	0.888
472.43	1.325
472.78	1.134
473.13	0.695
473.48	1.511
473.83	1.161
474.17	0.645
474.52	0.722
474.87	1.052
475.22	1.352
475.57	1.194
475.92	1.643
476.27	1.225
476.61	0.883
476.96	0.626
477.31	1.535
477.66	1.784
478.01	1.373
478.36	0.897
478.70	0.640
479.05	1.278
479.40	0.938
479.75	1.825
480.10	1.468
480.45	1.413
480.79	1.406
481.14	1.471
481.49	1.136
481.84	1.828
482.19	1.247
482.53	1.399
482.88	1.329
483.23	1.201
483.58	1.048
483.92	0.798
484.27	1.270
484.62	1.444
484.97	1.400
485.31	1.302
485.66	1.350
486.01	1.662
486.36	1.623
486.70	1.622
487.05	1.783
487.40	1.602
487.75	1.781
488.09	1.662
488.44	1.356
488.79	1.788
489.13	1.846
489.48	1.087
489.83	1.328
490.17	1.256
490.52	1.314
490.87	1.481
491.22	0.737
491.56	1.749
491.91	1.439
492.26	1.212
492.60	1.006
492.95	1.536
493.30	1.076
493.64	1.226
493.99	1.053
494.34	1.132
494.68	0.985
495.03	1.410
495.37	1.287
495.72	1.361
496.07	1.534
496.41	1.030
496.76	1.334
497.11	1.104
497.45	0.993
497.80	1.688
498.14	1.134
498.49	0.827
498.84	1.280
499.18	1.080
499.53	1.525
499.87	1.451
500.22	1.113
500.56	0.945
500.91	1.327
501.26	1.864
501.60	1.547
501.95	1.476
502.29	1.404
502.64	0.962
502.98	1.553
503.33	1.555
503.67	1.047
504.02	1.226
504.36	1.609
504.71	1.102
505.06	1.182
505.40	0.914
505.75	1.184
506.09	1.565
506.44	1.439
506.78	1.376
507.13	1.521
507.47	1.753
507.82	1.657
508.16	0.956
508.51	1.219
508.85	0.992
509.19	1.137
509.54	1.681
509.88	1.214
510.23	1.360
510.57	1.595
510.92	1.548
511.26	1.443
511.61	1.304
511.95	1.025
512.30	1.576
512.64	1.299
512.98	1.101
513.33	1.210
513.67	1.020
514.02	1.533
514.36	1.841
514.70	0.729
515.05	0.938
515.39	0.840
515.74	2.227
516.08	1.057
516.42	1.518
516.77	1.052
517.11	1.031
517.46	1.485
517.80	1.924
518.14	2.176
518.49	1.247
518.83	1.224
519.17	0.754
519.52	1.153
519.86	1.320
520.20	2.183
520.55	1.260
520.89	1.182
521.23	1.061
521.58	1.525
521.92	1.530
522.26	1.031
522.61	1.389
522.95	1.038
523.29	0.690
523.64	1.289
523.98	2.054
524.32	2.235
524.66	0.626
525.01	1.302
525.35	0.460
525.69	0.870
526.04	0.976
526.38	1.207
526.72	1.038
527.06	1.232
527.41	1.341
527.75	1.425
528.09	1.830
528.43	0.770
528.78	0.636
529.12	1.204
529.46	1.461
529.80	1.087
530.15	1.797
530.49	0.593
530.83	1.476
531.17	0.777
531.51	1.444
531.86	0.901
532.20	1.646
532.54	0.898
532.88	1.212
533.22	1.591
533.57	1.731
533.91	1.796
534.25	1.244
534.59	0.747
534.93	0.679
535.27	1.239
535.62	1.592
535.96	1.336
536.30	1.469
536.64	1.622
536.98	1.722
537.32	1.728
537.66	1.435
538.01	1.571
538.35	0.914
538.69	1.142
539.03	1.778
539.37	1.472
539.71	1.081
540.05	1.559
540.39	0.856
540.73	0.971
541.07	1.533
541.42	1.654
541.76	1.898
542.10	1.749
542.44	0.609
542.78	1.521
543.12	1.251
543.46	1.770
543.80	1.079
544.14	1.795
544.48	1.537
544.82	0.838
545.16	1.610
545.50	1.438
545.84	1.408
546.18	2.531
546.52	0.701
546.86	1.761
547.20	0.763
547.54	0.999
547.88	1.206
548.22	0.994
548.56	0.995
548.90	0.537
549.24	1.520
549.58	1.514
549.92	1.339
550.26	1.748
550.60	1.149
550.94	1.229
551.28	1.386
551.62	1.887
551.96	1.359
552.30	1.593
552.64	1.991
552.98	1.310
553.32	1.736
553.66	1.672
554.00	1.892
554.34	1.737
554.68	1.420
555.02	0.920
555.36	1.578
555.69	0.705
556.03	0.883
556.37	1.502
556.71	0.761
557.05	1.534
557.39	0.730
557.73	1.651
558.07	0.464
558.41	1.196
558.75	1.217
559.08	1.531
559.42	0.823
559.76	1.560
560.10	1.942
560.44	1.055
560.78	1.813
561.12	1.170
561.45	1.338
561.79	1.770
562.13	1.602
562.47	0.863
562.81	0.570
563.15	1.515
563.48	1.740
563.82	1.632
564.16	0.969
564.50	1.430
564.84	1.357
565.17	1.529
565.51	1.266
565.85	0.772
566.19	0.806
566.52	0.410
566.86	1.075
567.20	1.523
567.54	0.372
567.88	1.682
568.21	1.383
568.55	1.727
568.89	1.770
569.23	1.986
569.56	1.446
569.90	1.532
570.24	1.282
570.57	1.155
570.91	1.531
571.25	1.707
571.59	1.976
571.92	1.812
572.26	1.932
572.60	1.611
572.93	2.032
573.27	1.714
573.61	1.773
573.95	1.918
574.28	2.102
574.62	1.410
574.96	1.720
575.29	2.159
575.63	1.871
575.97	2.012
576.30	1.826
576.64	1.646
576.98	2.073
577.31	2.059
577.65	1.692
577.98	1.657
578.32	1.581
578.66	2.035
578.99	1.823
579.33	1.645
579.67	1.496
580.00	1.708
580.34	2.291
580.67	1.655
581.01	1.623
581.35	1.948
581.68	1.899
582.02	2.150
582.35	1.957
582.69	1.847
583.02	1.887
583.36	2.054
583.70	1.795
584.03	1.944
584.37	2.098
584.70	1.638
585.04	1.674
585.37	1.790
585.71	1.920
586.04	1.607
586.38	1.811
586.72	1.479
587.05	1.637
587.39	1.546
587.72	1.866
588.06	1.692
588.39	1.992
588.73	1.693
589.06	1.693
589.40	1.537
589.73	1.864
590.07	1.890
590.40	2.130
590.73	1.697
591.07	1.713
591.40	1.439
591.74	1.391
592.07	1.989
592.41	1.144
592.74	1.526
593.08	2.134
593.41	2.041
593.75	1.724
594.08	2.060
594.41	1.923
594.75	1.196
595.08	1.346
595.42	1.851
595.75	1.808
596.09	1.830
596.42	1.469
596.75	1.737
597.09	1.818
597.42	1.828
597.75	1.803
598.09	2.143
598.42	1.608
598.76	1.605
599.09	1.673
599.42	1.576
599.76	1.915
600.09	1.969
600.42	2.069
600.76	1.750
601.09	1.527
601.42	2.060
601.76	1.483
602.09	1.966
602.42	1.672
602.76	1.661
603.09	1.615
603.42	1.915
603.76	1.022
604.09	1.916
604.42	1.982
604.76	1.408
605.09	1.556
605.42	2.233
605.75	2.000
606.09	1.306
606.42	1.313
606.75	1.537
607.09	1.575
607.42	1.965
607.75	1.837
608.08	1.855
608.42	1.491
608.75	2.197
609.08	1.401
609.41	1.588
609.75	1.786
610.08	1.803
610.41	1.359
610.74	1.555
611.07	1.510
611.41	1.435
611.74	1.848
612.07	1.730
612.40	1.331
612.73	1.760
613.07	1.760
613.40	1.925
613.73	1.444
614.06	2.012
614.39	1.603
614.72	1.698
615.06	1.251
615.39	1.498
615.72	1.137
616.05	1.360
616.38	1.615
616.71	1.463
617.05	1.012
617.38	2.515
617.71	1.620
618.04	1.295
618.37	1.366
618.70	1.301
619.03	0.896
619.36	1.295
619.69	1.217
620.03	1.569
620.36	0.552
620.69	0.987
621.02	1.444
621.35	1.089
621.68	1.302
622.01	1.210
622.34	0.209
622.67	1.787
623.00	0.067
623.33	1.460
623.66	1.427
623.99	0.658
624.32	3.119
624.65	1.223
624.99	0.845
625.32	1.894
625.65	1.686
625.98	1.153
626.31	1.134
626.64	1.758
626.97	0.450
627.30	0.000
627.63	0.975
627.96	2.027
628.29	1.245
628.62	0.840
628.95	0.701
629.28	0.255
629.61	0.926
629.94	0.418
630.26	0.085
630.59	0.777
630.92	0.866
631.25	1.699
631.58	0.847
631.91	-0.281
632.24	0.672
632.57	0.949
632.90	-0.100
633.23	-0.408
633.56	1.122
633.89	-0.826
634.22	0.624
634.55	0.835
634.88	-0.216
635.20	1.292
635.53	0.113
635.86	0.542
636.19	1.697
636.52	-0.211
636.85	0.000
637.18	0.520
637.51	0.645
637.83	1.772
638.16	-0.115
638.49	-0.939
638.82	0.564
639.15	0.458
639.48	1.155
639.81	0.924
640.13	0.236
640.46	-1.455
640.79	-0.245
641.12	0.870
641.45	0.125
641.77	1.284
642.10	-0.131
642.43	0.931
642.76	0.271
643.09	-0.548
643.41	-1.541
643.74	-0.138
644.07	1.655
644.40	0.141
644.73	1.016
645.05	0.734
645.38	-1.295
645.71	-0.293
646.04	1.578
646.36	-1.022
646.69	0.153
647.02	0.153
647.35	1.374
647.67	-1.449
648.00	0.478
648.33	-0.150
648.66	0.000
648.98	0.136
649.31	0.677
649.64	1.062
649.96	1.061
