SpectraSuite Data File
++++++++++++++++++++++++++++++++++++
Date: Thu May 14 14:57:43 PDT 2015
User: schluterlab
Dark Spectrum Present: Yes
Reference Spectrum Present: Yes
Number of Sampled Component Spectra: 1
Spectrometers: USB2E3373
Integration Time (usec): 3000 (USB2E3373)
Spectra Averaged: 3 (USB2E3373)
Boxcar Smoothing: 0 (USB2E3373)
Correct for Electrical Dark: No (USB2E3373)
Strobe/Lamp Enabled: No (USB2E3373)
Correct for Detector Non-linearity: No (USB2E3373)
Correct for Stray Light: No (USB2E3373)
Number of Pixels in Processed Spectrum: 2048
>>>>>Begin Processed Spectral Data<<<<<
178.53	0.000
178.91	371.429
179.29	-2300.000
179.67	-2600.000
180.04	285.714
180.42	200.000
180.80	660.000
181.18	-2300.000
181.56	-1600.000
181.94	400.000
182.31	-225.000
182.69	1133.333
183.07	-1300.000
183.45	475.000
183.83	-166.667
184.20	-566.667
184.58	1500.000
184.96	-725.000
185.34	-188.889
185.72	-260.000
186.09	366.667
186.47	1150.000
186.85	620.000
187.23	-300.000
187.61	-2400.000
187.98	500.000
188.36	675.000
188.74	-425.000
189.12	-633.333
189.49	-68.750
189.87	-175.000
190.25	-111.111
190.63	-420.000
191.00	-277.778
191.38	0.000
191.76	-625.000
192.14	-283.333
192.51	1100.000
192.89	-200.000
193.27	0.000
193.65	-228.571
194.02	-2900.000
194.40	-285.714
194.78	257.143
195.15	0.000
195.53	-81.818
195.91	0.000
196.29	-525.000
196.66	-130.769
197.04	-1500.000
197.42	-285.714
197.79	-750.000
198.17	-287.500
198.55	-285.714
198.92	-155.556
199.30	-350.000
199.68	-163.636
200.05	-121.429
200.43	-1200.000
200.81	328.571
201.18	0.000
201.56	188.889
201.94	0.000
202.31	933.333
202.69	-233.333
203.07	2400.000
203.44	-122.222
203.82	-750.000
204.19	-166.667
204.57	-300.000
204.95	-312.500
205.32	-2000.000
205.70	525.000
206.08	-300.000
206.45	-183.333
206.83	680.000
207.20	-366.667
207.58	-320.000
207.96	-450.000
208.33	-216.667
208.71	141.667
209.08	-116.667
209.46	0.000
209.84	400.000
210.21	1000.000
210.59	1050.000
210.96	833.333
211.34	-400.000
211.71	-237.500
212.09	-1700.000
212.46	0.000
212.84	1500.000
213.22	-500.000
213.59	-425.000
213.97	-120.000
214.34	-300.000
214.72	333.333
215.09	-575.000
215.47	0.000
215.84	185.714
216.22	1100.000
216.59	-260.000
216.97	-280.000
217.34	-400.000
217.72	-200.000
218.09	-575.000
218.47	-625.000
218.84	0.000
219.22	220.000
219.59	-58.824
219.97	-55.000
220.34	1100.000
220.72	-188.889
221.09	-53.846
221.47	-533.333
221.84	-100.000
222.22	-442.857
222.59	0.000
222.97	-362.500
223.34	-620.000
223.72	-2300.000
224.09	-475.000
224.46	-475.000
224.84	-260.000
225.21	-242.857
225.59	-725.000
225.96	-625.000
226.34	-96.154
226.71	333.333
227.08	-1000.000
227.46	-146.667
227.83	-475.000
228.21	-115.789
228.58	275.000
228.95	1300.000
229.33	-150.000
229.70	-220.000
230.08	-31.579
230.45	300.000
230.82	-700.000
231.20	-142.857
231.57	-191.667
231.95	-200.000
232.32	-136.364
232.69	-75.000
233.07	-425.000
233.44	-82.353
233.81	-140.000
234.19	-55.556
234.56	-36.364
234.93	-34.483
235.31	-94.737
235.68	-66.667
236.05	-165.000
236.43	-15.385
236.80	0.000
237.17	-33.333
237.55	-51.515
237.92	-310.000
238.29	-67.742
238.67	-29.545
239.04	-36.111
239.41	-40.476
239.79	-47.826
240.16	-31.481
240.53	-21.739
240.91	-29.412
241.28	-24.590
241.65	-19.403
242.02	-16.216
242.40	-23.077
242.77	-32.000
243.14	-32.927
243.51	-32.895
243.89	-21.795
244.26	-5.941
244.63	-15.686
245.00	-17.757
245.38	-15.789
245.75	-23.009
246.12	-15.079
246.49	-13.953
246.87	-11.429
247.24	-5.298
247.61	-2.632
247.98	-8.054
248.36	-3.086
248.73	-12.270
249.10	-9.836
249.47	0.000
249.84	-2.094
250.22	-3.627
250.59	-8.333
250.96	-3.182
251.33	-9.694
251.70	-2.564
252.08	-3.333
252.45	0.000
252.82	-5.785
253.19	-7.422
253.56	-2.662
253.94	-5.000
254.31	-2.652
254.68	-1.049
255.05	2.932
255.42	-1.361
255.79	-5.502
256.16	-1.325
256.54	-4.305
256.91	-1.639
257.28	-1.639
257.65	-0.318
258.02	-4.425
258.39	0.000
258.76	3.058
259.14	2.586
259.51	0.865
259.88	-0.567
260.25	-0.556
260.62	0.822
260.99	-0.273
261.36	1.609
261.73	-3.979
262.10	-4.396
262.47	-2.413
262.85	3.535
263.22	-2.338
263.59	-1.842
263.96	-0.256
264.33	-1.535
264.70	-1.235
265.07	1.193
265.44	3.628
265.81	-0.231
266.18	2.721
266.55	0.670
266.92	-3.417
267.29	1.094
267.66	0.665
268.03	0.873
268.40	0.418
268.77	-0.911
269.14	-1.982
269.51	0.658
269.88	2.664
270.25	2.213
270.62	-0.211
270.99	1.616
271.36	0.990
271.73	2.358
272.10	2.004
272.47	1.202
272.84	1.004
273.21	1.403
273.58	4.032
273.95	0.962
274.32	-0.380
274.69	-0.774
275.06	2.564
275.43	-1.109
275.80	2.293
276.17	-1.296
276.54	0.746
276.91	0.358
277.28	2.170
277.65	1.975
278.02	1.471
278.39	0.181
278.76	0.879
279.13	1.418
279.50	1.718
279.87	2.147
280.23	-0.704
280.60	1.695
280.97	0.658
281.34	1.019
281.71	3.723
282.08	1.827
282.45	-0.164
282.82	1.256
283.19	-0.808
283.56	0.328
283.92	2.853
284.29	2.212
284.66	2.627
285.03	-0.801
285.40	2.318
285.77	0.619
286.14	1.527
286.51	0.609
286.87	1.264
287.24	2.711
287.61	1.794
287.98	1.511
288.35	1.479
288.72	2.663
289.08	2.782
289.45	2.071
289.82	1.355
290.19	2.586
290.56	1.972
290.93	2.140
291.29	2.617
291.66	1.377
292.03	1.221
292.40	3.810
292.77	1.617
293.13	2.571
293.50	1.051
293.87	2.685
294.24	3.200
294.60	4.804
294.97	1.477
295.34	3.201
295.71	3.279
296.08	2.067
296.44	2.083
296.81	3.167
297.18	2.366
297.55	2.712
297.91	2.254
298.28	2.251
298.65	2.854
299.02	1.653
299.38	3.432
299.75	3.271
300.12	1.736
300.48	4.032
300.85	3.037
301.22	3.691
301.59	3.196
301.95	3.842
302.32	3.444
302.69	2.410
303.05	4.570
303.42	4.324
303.79	3.750
304.15	3.155
304.52	4.334
304.89	4.503
305.25	4.658
305.62	4.493
305.99	5.052
306.35	3.528
306.72	5.274
307.09	4.569
307.45	4.762
307.82	4.036
308.19	5.348
308.55	6.268
308.92	5.648
309.29	6.418
309.65	5.556
310.02	5.050
310.38	6.299
310.75	5.922
311.12	6.040
311.48	5.670
311.85	6.838
312.22	6.546
312.58	7.700
312.95	6.597
313.31	7.227
313.68	7.692
314.05	8.762
314.41	9.927
314.78	9.446
315.14	8.984
315.51	9.326
315.87	10.801
316.24	10.685
316.61	10.480
316.97	11.041
317.34	10.670
317.70	10.742
318.07	12.169
318.43	11.650
318.80	12.625
319.16	12.017
319.53	12.168
319.89	13.146
320.26	14.769
320.62	13.741
320.99	14.497
321.35	14.325
321.72	15.628
322.08	15.690
322.45	16.170
322.81	17.509
323.18	16.106
323.54	17.759
323.91	18.238
324.27	17.986
324.64	19.815
325.00	20.232
325.37	20.885
325.73	20.496
326.10	20.519
326.46	22.638
326.83	24.259
327.19	23.937
327.56	23.636
327.92	25.413
328.29	25.161
328.65	24.288
329.01	25.973
329.38	27.633
329.74	26.541
330.11	28.938
330.47	27.885
330.84	26.787
331.20	28.417
331.56	28.163
331.93	28.117
332.29	29.407
332.66	30.150
333.02	29.983
333.38	30.285
333.75	29.630
334.11	30.359
334.48	29.043
334.84	30.416
335.20	29.807
335.57	31.703
335.93	32.066
336.29	29.368
336.66	30.698
337.02	30.853
337.38	32.313
337.75	30.413
338.11	31.455
338.47	31.183
338.84	30.626
339.20	30.750
339.56	29.572
339.93	30.296
340.29	30.918
340.65	31.144
341.02	30.886
341.38	32.013
341.74	30.912
342.11	32.261
342.47	30.580
342.83	31.804
343.20	33.442
343.56	30.473
343.92	31.705
344.28	30.625
344.65	31.860
345.01	30.889
345.37	30.793
345.73	30.008
346.10	31.513
346.46	30.775
346.82	31.461
347.19	32.162
347.55	31.639
347.91	30.609
348.27	31.259
348.63	30.465
349.00	31.394
349.36	30.483
349.72	30.655
350.08	31.426
350.45	30.722
350.81	31.297
351.17	32.180
351.53	31.615
351.89	32.498
352.26	31.940
352.62	31.343
352.98	31.832
353.34	31.143
353.70	30.663
354.07	31.818
354.43	31.967
354.79	31.488
355.15	32.230
355.51	33.041
355.87	32.386
356.24	32.167
356.60	30.894
356.96	33.062
357.32	31.078
357.68	31.332
358.04	30.614
358.40	32.015
358.77	32.018
359.13	31.093
359.49	31.227
359.85	32.777
360.21	31.923
360.57	31.515
360.93	31.946
361.29	32.702
361.66	32.513
362.02	33.055
362.38	32.959
362.74	32.053
363.10	33.150
363.46	33.241
363.82	32.741
364.18	33.849
364.54	33.541
364.90	33.645
365.26	32.966
365.62	33.000
365.98	33.424
366.35	33.490
366.71	34.150
367.07	34.168
367.43	33.749
367.79	33.046
368.15	34.515
368.51	34.574
368.87	33.116
369.23	33.200
369.59	34.085
369.95	33.469
370.31	34.976
370.67	33.563
371.03	34.211
371.39	34.184
371.75	33.631
372.11	34.146
372.47	34.394
372.83	34.293
373.19	33.289
373.55	33.875
373.91	34.560
374.27	33.700
374.63	35.521
374.99	34.416
375.35	34.870
375.71	33.806
376.07	34.861
376.42	34.509
376.78	34.121
377.14	35.745
377.50	34.788
377.86	36.084
378.22	34.790
378.58	35.315
378.94	35.798
379.30	35.735
379.66	36.038
380.02	35.257
380.38	36.348
380.74	34.986
381.09	34.611
381.45	35.000
381.81	36.827
382.17	36.698
382.53	35.497
382.89	35.553
383.25	35.698
383.61	36.111
383.97	35.925
384.32	36.603
384.68	35.789
385.04	37.305
385.40	35.533
385.76	37.046
386.12	35.428
386.48	36.294
386.83	36.651
387.19	36.327
387.55	35.211
387.91	36.130
388.27	37.356
388.62	37.056
388.98	37.394
389.34	37.242
389.70	37.130
390.06	36.886
390.42	36.205
390.77	36.604
391.13	35.622
391.49	36.353
391.85	36.848
392.20	36.240
392.56	35.972
392.92	36.641
393.28	37.148
393.64	36.592
393.99	36.839
394.35	37.558
394.71	36.587
395.07	36.766
395.42	36.379
395.78	37.538
396.14	36.245
396.50	35.451
396.85	36.255
397.21	35.917
397.57	36.160
397.92	36.942
398.28	36.013
398.64	36.098
399.00	36.230
399.35	36.702
399.71	35.707
400.07	36.047
400.42	36.962
400.78	36.111
401.14	36.084
401.49	35.816
401.85	36.686
402.21	36.443
402.57	36.972
402.92	35.638
403.28	36.124
403.63	36.038
403.99	36.045
404.35	34.451
404.70	34.674
405.06	34.565
405.42	34.953
405.77	35.714
406.13	35.062
406.49	35.417
406.84	35.402
407.20	35.551
407.55	35.009
407.91	35.324
408.27	35.041
408.62	35.660
408.98	34.823
409.34	34.545
409.69	34.611
410.05	34.232
410.40	35.557
410.76	33.875
411.11	34.600
411.47	35.074
411.83	35.979
412.18	34.578
412.54	35.685
412.89	35.448
413.25	35.045
413.60	35.325
413.96	35.431
414.31	34.278
414.67	35.361
415.03	35.446
415.38	35.498
415.74	34.453
416.09	36.582
416.45	34.878
416.80	34.761
417.16	35.185
417.51	36.177
417.87	36.419
418.22	35.808
418.58	35.130
418.93	35.448
419.29	36.128
419.64	36.194
420.00	36.499
420.35	36.384
420.71	35.956
421.06	36.228
421.42	36.812
421.77	35.649
422.12	37.896
422.48	38.556
422.83	39.047
423.19	37.401
423.54	38.993
423.90	38.763
424.25	38.827
424.61	38.576
424.96	38.331
425.31	39.172
425.67	38.379
426.02	38.960
426.38	39.839
426.73	39.453
427.09	39.850
427.44	39.050
427.79	40.354
428.15	39.384
428.50	39.551
428.85	40.528
429.21	40.798
429.56	39.980
429.92	40.786
430.27	39.807
430.62	40.156
430.98	41.466
431.33	41.105
431.68	40.852
432.04	41.899
432.39	41.564
432.74	41.781
433.10	42.023
433.45	41.472
433.80	41.899
434.16	43.595
434.51	43.782
434.86	43.648
435.22	44.368
435.57	43.868
435.92	43.517
436.28	43.288
436.63	42.709
436.98	42.995
437.34	43.348
437.69	44.194
438.04	43.416
438.39	43.768
438.75	43.940
439.10	44.186
439.45	43.823
439.81	44.068
440.16	44.611
440.51	44.036
440.86	42.968
441.22	44.212
441.57	44.602
441.92	45.441
442.27	46.061
442.63	44.461
442.98	46.798
443.33	45.660
443.68	46.036
444.03	46.660
444.39	46.186
444.74	46.299
445.09	45.869
445.44	46.997
445.79	45.833
446.15	45.632
446.50	46.615
446.85	46.206
447.20	46.760
447.55	46.444
447.91	46.492
448.26	45.719
448.61	48.087
448.96	47.157
449.31	46.288
449.66	46.024
450.02	47.363
450.37	47.043
450.72	46.771
451.07	48.007
451.42	46.909
451.77	47.360
452.12	47.065
452.47	47.415
452.83	49.043
453.18	46.760
453.53	47.444
453.88	47.156
454.23	47.797
454.58	47.649
454.93	47.391
455.28	47.140
455.63	47.868
455.98	48.659
456.34	47.585
456.69	48.677
457.04	48.463
457.39	48.171
457.74	48.434
458.09	47.666
458.44	48.599
458.79	48.736
459.14	47.457
459.49	49.519
459.84	48.321
460.19	47.696
460.54	49.744
460.89	49.762
461.24	48.851
461.59	48.478
461.94	48.089
462.29	48.376
462.64	48.521
462.99	48.839
463.34	49.448
463.69	47.479
464.04	48.805
464.39	49.496
464.74	48.005
465.09	48.731
465.44	48.659
465.79	47.753
466.14	47.942
466.49	48.526
466.84	48.650
467.19	49.364
467.54	47.944
467.89	48.448
468.24	49.141
468.59	48.581
468.94	47.960
469.29	48.590
469.64	48.506
469.99	49.267
470.34	48.700
470.68	49.897
471.03	49.640
471.38	48.855
471.73	50.000
472.08	49.810
472.43	49.308
472.78	49.496
473.13	50.063
473.48	50.937
473.83	50.029
474.17	48.769
474.52	50.271
474.87	49.059
475.22	49.465
475.57	49.533
475.92	48.482
476.27	49.148
476.61	49.481
476.96	49.009
477.31	50.198
477.66	50.735
478.01	49.720
478.36	49.950
478.70	49.507
479.05	50.562
479.40	50.987
479.75	49.424
480.10	49.029
480.45	50.182
480.79	49.751
481.14	48.805
481.49	50.068
481.84	49.608
482.19	49.548
482.53	50.590
482.88	50.775
483.23	50.289
483.58	49.651
483.92	49.734
484.27	49.534
484.62	48.804
484.97	49.689
485.31	49.384
485.66	45.585
486.01	45.392
486.36	47.161
486.70	49.711
487.05	52.100
487.40	50.638
487.75	49.949
488.09	50.014
488.44	48.582
488.79	48.971
489.13	48.479
489.48	48.777
489.83	49.658
490.17	47.833
490.52	48.358
490.87	49.196
491.22	49.480
491.56	49.275
491.91	49.106
492.26	49.892
492.60	49.366
492.95	49.890
493.30	50.336
493.64	49.321
493.99	49.298
494.34	49.695
494.68	49.936
495.03	50.308
495.37	50.111
495.72	50.068
496.07	49.299
496.41	48.777
496.76	48.957
497.11	50.318
497.45	49.676
497.80	49.445
498.14	49.705
498.49	50.184
498.84	50.091
499.18	50.022
499.53	49.327
499.87	49.758
500.22	48.887
500.56	50.292
500.91	50.343
501.26	50.273
501.60	50.287
501.95	49.110
502.29	50.943
502.64	50.372
502.98	48.274
503.33	50.281
503.67	48.365
504.02	49.124
504.36	50.536
504.71	49.931
505.06	50.159
505.40	49.543
505.75	49.545
506.09	50.460
506.44	50.929
506.78	50.688
507.13	49.793
507.47	50.450
507.82	50.616
508.16	50.096
508.51	49.508
508.85	50.449
509.19	49.550
509.54	50.624
509.88	50.219
510.23	50.559
510.57	49.058
510.92	50.895
511.26	48.725
511.61	49.493
511.95	50.317
512.30	50.369
512.64	50.725
512.98	49.275
513.33	50.655
513.67	49.771
514.02	50.690
514.36	50.639
514.70	50.469
515.05	50.261
515.39	50.761
515.74	51.326
516.08	51.347
516.42	51.439
516.77	50.263
517.11	49.046
517.46	50.265
517.80	50.294
518.14	51.034
518.49	50.705
518.83	49.973
519.17	48.788
519.52	49.948
519.86	50.106
520.20	49.627
520.55	51.205
520.89	50.000
521.23	48.911
521.58	51.412
521.92	51.105
522.26	50.458
522.61	50.810
522.95	51.269
523.29	51.034
523.64	49.159
523.98	50.713
524.32	51.862
524.66	51.110
525.01	50.000
525.35	50.201
525.69	49.594
526.04	49.598
526.38	51.322
526.72	49.827
527.06	52.199
527.41	50.262
527.75	51.603
528.09	49.587
528.43	51.036
528.78	50.405
529.12	49.599
529.46	49.016
529.80	50.686
530.15	49.971
530.49	49.585
530.83	49.705
531.17	50.119
531.51	50.542
531.86	51.022
532.20	49.939
532.54	49.252
532.88	49.879
533.22	49.087
533.57	50.087
533.91	48.373
534.25	49.124
534.59	49.655
534.93	49.179
535.27	49.014
535.62	50.881
535.96	50.726
536.30	48.766
536.64	50.390
536.98	50.554
537.32	50.802
537.66	50.593
538.01	49.124
538.35	48.782
538.69	49.038
539.03	49.908
539.37	48.822
539.71	49.309
540.05	50.420
540.39	48.411
540.73	49.848
541.07	49.540
541.42	47.372
541.76	47.687
542.10	48.794
542.44	47.442
542.78	49.088
543.12	49.583
543.46	48.535
543.80	49.700
544.14	47.756
544.48	48.582
544.82	49.312
545.16	49.076
545.50	49.011
545.84	47.642
546.18	49.568
546.52	48.662
546.86	47.925
547.20	48.537
547.54	48.252
547.88	47.981
548.22	48.655
548.56	49.035
548.90	49.373
549.24	48.815
549.58	49.905
549.92	49.681
550.26	50.097
550.60	49.011
550.94	48.771
551.28	48.251
551.62	49.933
551.96	47.961
552.30	49.076
552.64	47.915
552.98	49.283
553.32	49.453
553.66	48.682
554.00	49.369
554.34	49.871
554.68	47.644
555.02	48.817
555.36	50.559
555.69	48.110
556.03	49.748
556.37	49.249
556.71	49.271
557.05	49.010
557.39	49.237
557.73	48.283
558.07	48.344
558.41	50.100
558.75	48.546
559.08	50.800
559.42	49.040
559.76	49.864
560.10	48.091
560.44	48.681
560.78	48.875
561.12	48.584
561.45	48.601
561.79	48.535
562.13	50.031
562.47	47.164
562.81	49.367
563.15	49.242
563.48	50.031
563.82	48.428
564.16	47.910
564.50	49.166
564.84	46.549
565.17	47.882
565.51	47.583
565.85	48.753
566.19	47.869
566.52	48.274
566.86	48.727
567.20	46.928
567.54	47.531
567.88	48.267
568.21	47.826
568.55	47.914
568.89	47.254
569.23	46.430
569.56	46.815
569.90	46.686
570.24	45.801
570.57	45.414
570.91	45.530
571.25	44.894
571.59	44.754
571.92	45.283
572.26	45.130
572.60	44.444
572.93	44.531
573.27	45.013
573.61	43.727
573.95	43.894
574.28	43.611
574.62	44.270
574.96	43.163
575.29	43.534
575.63	43.844
575.97	44.311
576.30	43.079
576.64	43.689
576.98	43.394
577.31	43.977
577.65	43.706
577.98	43.185
578.32	42.967
578.66	44.026
578.99	42.883
579.33	44.375
579.67	43.880
580.00	43.223
580.34	43.237
580.67	43.138
581.01	42.904
581.35	42.704
581.68	42.325
582.02	42.997
582.35	43.719
582.69	43.876
583.02	43.973
583.36	43.705
583.70	44.535
584.03	43.725
584.37	43.125
584.70	43.056
585.04	42.269
585.37	43.350
585.71	43.409
586.04	43.307
586.38	44.127
586.72	43.269
587.05	43.515
587.39	43.655
587.72	44.522
588.06	44.149
588.39	44.088
588.73	43.598
589.06	44.780
589.40	44.683
589.73	44.794
590.07	44.894
590.40	44.997
590.73	45.069
591.07	45.867
591.40	45.179
591.74	44.634
592.07	44.742
592.41	44.558
592.74	44.480
593.08	44.522
593.41	44.269
593.75	43.621
594.08	44.411
594.41	44.840
594.75	44.836
595.08	44.145
595.42	44.740
595.75	44.301
596.09	45.137
596.42	44.751
596.75	43.651
597.09	45.131
597.42	43.782
597.75	43.983
598.09	43.810
598.42	45.356
598.76	44.058
599.09	43.645
599.42	42.508
599.76	43.810
600.09	43.810
600.42	44.545
600.76	43.032
601.09	43.412
601.42	43.151
601.76	44.276
602.09	43.495
602.42	43.511
602.76	43.284
603.09	43.282
603.42	44.364
603.76	43.058
604.09	44.429
604.42	43.853
604.76	43.531
605.09	44.635
605.42	44.856
605.75	42.962
606.09	43.337
606.42	42.612
606.75	43.366
607.09	41.897
607.42	43.969
607.75	43.611
608.08	43.370
608.42	43.611
608.75	43.325
609.08	42.742
609.41	43.979
609.75	43.750
610.08	44.283
610.41	43.033
610.74	42.941
611.07	43.917
611.41	44.126
611.74	45.173
612.07	43.712
612.40	43.489
612.73	43.521
613.07	44.156
613.40	44.947
613.73	43.669
614.06	43.719
614.39	42.857
614.72	44.105
615.06	43.167
615.39	43.064
615.72	44.171
616.05	43.856
616.38	44.450
616.71	44.462
617.05	43.078
617.38	43.392
617.71	43.952
618.04	43.443
618.37	43.825
618.70	44.005
619.03	44.265
619.36	44.513
619.69	43.882
620.03	44.633
620.36	44.356
620.69	43.738
621.02	44.685
621.35	46.662
621.68	46.638
622.01	44.769
622.34	45.049
622.67	45.223
623.00	43.860
623.33	46.052
623.66	45.006
623.99	43.976
624.32	44.834
624.65	43.308
624.99	44.473
625.32	45.722
625.65	44.909
625.98	43.932
626.31	44.791
626.64	44.542
626.97	44.411
627.30	44.039
627.63	44.486
627.96	46.021
628.29	45.447
628.62	45.676
628.95	46.626
629.28	45.200
629.61	46.717
629.94	45.439
630.26	46.356
630.59	43.610
630.92	44.848
631.25	46.064
631.58	47.928
631.91	45.829
632.24	46.110
632.57	44.782
632.90	45.336
633.23	46.531
633.56	46.429
