SpectraSuite Data File
++++++++++++++++++++++++++++++++++++
Date: Thu May 14 14:47:26 PDT 2015
User: schluterlab
Dark Spectrum Present: Yes
Reference Spectrum Present: Yes
Number of Sampled Component Spectra: 1
Spectrometers: USB2E3373
Integration Time (usec): 3000 (USB2E3373)
Spectra Averaged: 3 (USB2E3373)
Boxcar Smoothing: 0 (USB2E3373)
Correct for Electrical Dark: No (USB2E3373)
Strobe/Lamp Enabled: No (USB2E3373)
Correct for Detector Non-linearity: No (USB2E3373)
Correct for Stray Light: No (USB2E3373)
Number of Pixels in Processed Spectrum: 2048
>>>>>Begin Processed Spectral Data<<<<<
178.53	0.000
178.91	-14.286
179.29	-500.000
179.67	400.000
180.04	135.714
180.42	30.000
180.80	180.000
181.18	-300.000
181.56	500.000
181.94	-25.000
182.31	0.000
182.69	133.333
183.07	-600.000
183.45	350.000
183.83	33.333
184.20	-33.333
184.58	700.000
184.96	-200.000
185.34	-55.556
185.72	40.000
186.09	77.778
186.47	800.000
186.85	260.000
187.23	-144.444
187.61	-1300.000
187.98	60.000
188.36	300.000
188.74	-125.000
189.12	-200.000
189.49	50.000
189.87	-75.000
190.25	77.778
190.63	-20.000
191.00	-155.556
191.38	0.000
191.76	-225.000
192.14	-83.333
192.51	200.000
192.89	-16.667
193.27	0.000
193.65	0.000
194.02	-1300.000
194.40	71.429
194.78	42.857
195.15	0.000
195.53	54.545
195.91	0.000
196.29	250.000
196.66	-23.077
197.04	400.000
197.42	28.571
197.79	200.000
198.17	-50.000
198.55	-228.571
198.92	0.000
199.30	62.500
199.68	36.364
200.05	-28.571
200.43	-800.000
200.81	85.714
201.18	0.000
201.56	88.889
201.94	0.000
202.31	400.000
202.69	-144.444
203.07	-0.000
203.44	-22.222
203.82	-200.000
204.19	-16.667
204.57	-66.667
204.95	-37.500
205.32	-800.000
205.70	-75.000
206.08	-50.000
206.45	0.000
206.83	320.000
207.20	33.333
207.58	-160.000
207.96	-166.667
208.33	50.000
208.71	33.333
209.08	116.667
209.46	0.000
209.84	233.333
210.21	50.000
210.59	250.000
210.96	200.000
211.34	0.000
211.71	-137.500
212.09	-1200.000
212.46	0.000
212.84	150.000
213.22	-160.000
213.59	125.000
213.97	30.000
214.34	0.000
214.72	166.667
215.09	-100.000
215.47	0.000
215.84	57.143
216.22	400.000
216.59	0.000
216.97	-40.000
217.34	0.000
217.72	100.000
218.09	-225.000
218.47	50.000
218.84	0.000
219.22	-60.000
219.59	47.059
219.97	30.000
220.34	750.000
220.72	-55.556
221.09	-7.692
221.47	33.333
221.84	60.000
222.22	-157.143
222.59	0.000
222.97	-25.000
223.34	-100.000
223.72	-600.000
224.09	100.000
224.46	-150.000
224.84	-60.000
225.21	-28.571
225.59	-175.000
225.96	0.000
226.34	15.385
226.71	150.000
227.08	-350.000
227.46	20.000
227.83	-275.000
228.21	26.316
228.58	-0.000
228.95	300.000
229.33	-25.000
229.70	-30.000
230.08	57.895
230.45	10.000
230.82	33.333
231.20	-57.143
231.57	41.667
231.95	0.000
232.32	18.182
232.69	30.000
233.07	125.000
233.44	-29.412
233.81	0.000
234.19	11.111
234.56	4.545
234.93	17.241
235.31	36.842
235.68	33.333
236.05	-35.000
236.43	42.308
236.80	32.000
237.17	48.148
237.55	21.212
237.92	-10.000
238.29	35.484
238.67	2.273
239.04	19.444
239.41	7.143
239.79	10.870
240.16	9.259
240.53	6.522
240.91	11.765
241.28	-1.639
241.65	10.448
242.02	10.811
242.40	1.538
242.77	1.333
243.14	7.317
243.51	2.632
243.89	-1.282
244.26	20.792
244.63	10.784
245.00	19.626
245.38	14.035
245.75	9.735
246.12	23.016
246.49	16.279
246.87	14.286
247.24	11.258
247.61	13.158
247.98	19.463
248.36	17.284
248.73	14.110
249.10	15.301
249.47	15.423
249.84	20.419
250.22	16.580
250.59	20.556
250.96	17.727
251.33	13.265
251.70	20.085
252.08	19.583
252.45	16.803
252.82	18.182
253.19	17.578
253.56	15.589
253.94	13.077
254.31	17.045
254.68	18.881
255.05	20.195
255.42	16.327
255.79	14.239
256.16	14.901
256.54	12.252
256.91	18.361
257.28	14.754
257.65	15.287
258.02	15.044
258.39	18.234
258.76	20.795
259.14	18.966
259.51	14.121
259.88	14.448
260.25	16.944
260.62	16.986
260.99	14.754
261.36	16.086
261.73	16.976
262.10	12.912
262.47	14.209
262.85	18.939
263.22	15.844
263.59	11.579
263.96	15.345
264.33	13.043
264.70	18.519
265.07	18.138
265.44	17.234
265.81	14.815
266.18	16.553
266.55	14.286
266.92	14.579
267.29	16.411
267.66	15.521
268.03	17.249
268.40	15.866
268.77	15.490
269.14	12.775
269.51	16.228
269.88	17.418
270.25	16.901
270.62	17.722
270.99	15.758
271.36	18.020
271.73	16.503
272.10	16.633
272.47	16.834
272.84	15.261
273.21	16.433
273.58	16.129
273.95	14.615
274.32	13.118
274.69	13.346
275.06	17.766
275.43	13.309
275.80	16.226
276.17	14.630
276.54	16.231
276.91	13.953
277.28	15.552
277.65	15.619
278.02	15.993
278.39	14.674
278.76	14.763
279.13	16.312
279.50	14.433
279.87	14.669
280.23	14.085
280.60	15.763
280.97	15.789
281.34	14.092
281.71	17.090
282.08	14.784
282.45	13.912
282.82	13.658
283.19	14.863
283.56	13.934
283.92	15.616
284.29	15.482
284.66	14.450
285.03	12.981
285.40	16.383
285.77	14.241
286.14	16.031
286.51	14.003
286.87	15.640
287.24	16.114
287.61	14.051
287.98	14.653
288.35	13.905
288.72	14.201
289.08	16.398
289.45	14.793
289.82	15.663
290.19	12.787
290.56	15.915
290.93	14.693
291.29	15.840
291.66	13.912
292.03	15.875
292.40	14.422
292.77	14.151
293.13	12.991
293.50	14.060
293.87	15.168
294.24	15.200
294.60	15.803
294.97	12.886
295.34	15.749
295.71	13.997
296.08	13.437
296.44	14.583
296.81	14.860
297.18	13.574
297.55	14.269
297.91	12.693
298.28	11.493
298.65	15.696
299.02	13.695
299.38	12.929
299.75	14.836
300.12	13.194
300.48	14.286
300.85	14.736
301.22	14.430
301.59	12.785
301.95	13.107
302.32	14.667
302.69	13.143
303.05	13.602
303.42	14.191
303.79	13.542
304.15	15.037
304.52	13.848
304.89	13.717
305.25	13.147
305.62	14.002
305.99	13.918
306.35	14.415
306.72	16.132
307.09	13.807
307.45	16.149
307.82	14.834
308.19	15.338
308.55	15.815
308.92	15.093
309.29	16.762
309.65	15.205
310.02	15.545
310.38	15.059
310.75	16.117
311.12	15.724
311.48	16.129
311.85	15.954
312.22	16.698
312.58	15.587
312.95	16.157
313.31	15.899
313.68	16.758
314.05	18.699
314.41	19.581
314.78	17.257
315.14	18.603
315.51	18.744
315.87	18.092
316.24	19.269
316.61	19.272
316.97	18.100
317.34	19.665
317.70	20.699
318.07	19.048
318.43	20.323
318.80	21.488
319.16	21.202
319.53	19.794
319.89	19.720
320.26	21.886
320.62	20.124
320.99	21.145
321.35	21.442
321.72	22.698
322.08	22.904
322.45	23.397
322.81	23.285
323.18	23.186
323.54	22.845
323.91	24.021
324.27	24.441
324.64	24.685
325.00	24.461
325.37	24.816
325.73	24.628
326.10	25.791
326.46	25.977
326.83	27.862
327.19	25.984
327.56	27.905
327.92	26.987
328.29	26.935
328.65	26.298
329.01	27.242
329.38	27.464
329.74	28.168
330.11	28.082
330.47	28.559
330.84	27.993
331.20	28.167
331.56	27.903
331.93	29.540
332.29	28.220
332.66	29.070
333.02	27.219
333.38	28.188
333.75	29.125
334.11	27.857
334.48	27.723
334.84	27.188
335.20	26.448
335.57	27.993
335.93	29.008
336.29	27.205
336.66	28.595
337.02	27.759
337.38	28.656
337.75	26.281
338.11	27.502
338.47	28.453
338.84	27.157
339.20	26.369
339.56	26.524
339.93	27.997
340.29	26.490
340.65	26.196
341.02	26.895
341.38	27.648
341.74	25.827
342.11	26.629
342.47	26.529
342.83	27.214
343.20	26.738
343.56	26.303
343.92	26.181
344.28	26.328
344.65	26.822
345.01	26.209
345.37	26.905
345.73	25.253
346.10	26.521
346.46	25.870
346.82	27.116
347.19	26.738
347.55	27.238
347.91	26.374
348.27	25.493
348.63	25.514
349.00	25.578
349.36	26.617
349.72	25.223
350.08	26.300
350.45	24.943
350.81	25.189
351.17	25.564
351.53	25.474
351.89	25.057
352.26	25.448
352.62	25.821
352.98	25.267
353.34	23.898
353.70	24.807
354.07	25.335
354.43	24.222
354.79	24.682
355.15	25.901
355.51	24.927
355.87	24.458
356.24	25.019
356.60	24.464
356.96	25.426
357.32	24.833
357.68	24.817
358.04	23.428
358.40	24.627
358.77	25.365
359.13	24.742
359.49	23.569
359.85	25.236
360.21	24.390
360.57	25.341
360.93	23.836
361.29	24.491
361.66	23.896
362.02	25.122
362.38	23.893
362.74	25.070
363.10	25.172
363.46	24.792
363.82	24.716
364.18	24.560
364.54	24.481
364.90	23.679
365.26	24.414
365.62	25.467
365.98	24.506
366.35	24.027
366.71	24.218
367.07	23.884
367.43	23.769
367.79	25.348
368.15	24.548
368.51	24.493
368.87	24.690
369.23	24.067
369.59	24.522
369.95	23.529
370.31	24.781
370.67	24.278
371.03	24.238
371.39	24.312
371.75	24.003
372.11	25.474
372.47	23.629
372.83	23.233
373.19	24.817
373.55	24.864
373.91	23.926
374.27	24.062
374.63	23.748
374.99	23.342
375.35	24.675
375.71	24.000
376.07	24.532
376.42	23.615
376.78	24.363
377.14	24.205
377.50	23.593
377.86	24.507
378.22	24.251
378.58	24.257
378.94	24.413
379.30	23.843
379.66	23.692
380.02	24.812
380.38	25.115
380.74	24.225
381.09	24.390
381.45	24.375
381.81	25.176
382.17	24.466
382.53	23.626
382.89	23.363
383.25	23.857
383.61	23.785
383.97	24.087
384.32	24.581
384.68	23.898
385.04	24.465
385.40	24.573
385.76	25.205
386.12	24.177
386.48	24.647
386.83	24.732
387.19	23.812
387.55	23.885
387.91	24.087
388.27	24.480
388.62	23.769
388.98	23.689
389.34	23.925
389.70	24.230
390.06	24.038
390.42	24.036
390.77	24.202
391.13	24.237
391.49	24.215
391.85	23.212
392.20	24.021
392.56	24.513
392.92	23.773
393.28	23.936
393.64	23.799
393.99	23.823
394.35	25.292
394.71	24.910
395.07	22.695
395.42	24.500
395.78	25.107
396.14	24.183
396.50	23.990
396.85	23.256
397.21	24.260
397.57	23.910
397.92	24.399
398.28	23.466
398.64	22.826
399.00	23.403
399.35	23.822
399.71	24.239
400.07	24.088
400.42	23.923
400.78	24.074
401.14	23.278
401.49	23.650
401.85	24.360
402.21	24.797
402.57	24.941
402.92	23.995
403.28	23.068
403.63	23.687
403.99	23.634
404.35	23.422
404.70	23.909
405.06	23.424
405.42	23.653
405.77	24.700
406.13	23.339
406.49	24.381
406.84	24.543
407.20	23.980
407.55	23.077
407.91	23.947
408.27	24.146
408.62	24.316
408.98	23.738
409.34	23.636
409.69	24.104
410.05	25.029
410.40	24.652
410.76	23.724
411.11	24.781
411.47	24.447
411.83	24.339
412.18	24.759
412.54	23.770
412.89	24.389
413.25	24.097
413.60	23.205
413.96	23.252
414.31	24.759
414.67	24.747
415.03	24.431
415.38	24.023
415.74	24.374
416.09	24.738
416.45	24.358
416.80	24.786
417.16	25.287
417.51	25.093
417.87	25.199
418.22	24.371
418.58	24.907
418.93	25.786
419.29	25.401
419.64	25.030
420.00	25.460
420.35	25.660
420.71	25.043
421.06	24.957
421.42	25.115
421.77	25.094
422.12	25.793
422.48	25.909
422.83	26.232
423.19	26.419
423.54	26.493
423.90	26.615
424.25	26.720
424.61	26.292
424.96	26.853
425.31	27.601
425.67	26.785
426.02	27.006
426.38	27.268
426.73	25.837
427.09	28.604
427.44	26.488
427.79	27.087
428.15	27.854
428.50	27.135
428.85	27.612
429.21	27.500
429.56	27.887
429.92	27.912
430.27	29.253
430.62	28.774
430.98	28.037
431.33	27.908
431.68	28.544
432.04	28.695
432.39	29.566
432.74	28.539
433.10	29.962
433.45	28.428
433.80	29.453
434.16	29.494
434.51	29.651
434.86	30.619
435.22	29.702
435.57	29.776
435.92	29.772
436.28	30.205
436.63	30.584
436.98	30.274
437.34	30.609
437.69	30.105
438.04	30.566
438.39	30.040
438.75	30.603
439.10	31.554
439.45	30.520
439.81	30.113
440.16	30.938
440.51	31.271
440.86	31.128
441.22	31.136
441.57	32.390
441.92	31.038
442.27	32.374
442.63	31.545
442.98	31.804
443.33	32.877
443.68	32.111
444.03	32.596
444.39	31.946
444.74	33.435
445.09	31.779
445.44	33.456
445.79	32.184
446.15	33.094
446.50	32.765
446.85	32.977
447.20	33.801
447.55	33.107
447.91	33.246
448.26	32.611
448.61	32.625
448.96	33.745
449.31	33.033
449.66	33.660
450.02	33.281
450.37	33.404
450.72	33.854
451.07	33.314
451.42	33.564
451.77	33.685
452.12	34.932
452.47	34.165
452.83	35.755
453.18	34.618
453.53	34.463
453.88	33.462
454.23	34.294
454.58	35.113
454.93	34.769
455.28	34.377
455.63	33.997
455.98	34.693
456.34	34.452
456.69	34.215
457.04	36.407
457.39	35.532
457.74	35.850
458.09	35.695
458.44	35.183
458.79	34.502
459.14	35.186
459.49	35.937
459.84	34.837
460.19	34.870
460.54	36.400
460.89	36.051
461.24	36.264
461.59	36.635
461.94	36.110
462.29	36.394
462.64	36.089
462.99	36.221
463.34	36.275
463.69	37.222
464.04	36.576
464.39	36.323
464.74	36.488
465.09	36.621
465.44	36.481
465.79	36.594
466.14	36.946
466.49	37.316
466.84	38.017
467.19	37.110
467.54	35.605
467.89	36.494
468.24	36.510
468.59	37.869
468.94	37.937
469.29	36.953
469.64	37.127
469.99	37.412
470.34	38.057
470.68	38.004
471.03	38.572
471.38	38.914
471.73	38.231
472.08	38.452
472.43	38.049
472.78	39.232
473.13	39.697
473.48	38.610
473.83	38.247
474.17	38.218
474.52	39.928
474.87	39.922
475.22	39.718
475.57	38.370
475.92	39.522
476.27	38.392
476.61	39.616
476.96	38.582
477.31	39.554
477.66	39.822
478.01	38.993
478.36	39.033
478.70	39.901
479.05	40.491
479.40	40.128
479.75	40.010
480.10	39.318
480.45	39.790
480.79	39.592
481.14	39.154
481.49	39.664
481.84	39.817
482.19	39.828
482.53	40.665
482.88	39.566
483.23	40.596
483.58	39.738
483.92	38.918
484.27	40.305
484.62	39.810
484.97	40.047
485.31	39.564
485.66	36.646
486.01	36.750
486.36	37.854
486.70	39.917
487.05	39.639
487.40	39.355
487.75	40.280
488.09	39.786
488.44	38.995
488.79	39.629
489.13	40.116
489.48	39.612
489.83	40.161
490.17	40.097
490.52	41.051
490.87	40.736
491.22	40.555
491.56	40.913
491.91	41.082
492.26	41.670
492.60	41.233
492.95	41.817
493.30	40.923
493.64	41.612
493.99	41.184
494.34	41.115
494.68	42.141
495.03	41.233
495.37	41.944
495.72	41.814
496.07	41.981
496.41	41.441
496.76	42.202
497.11	42.038
497.45	41.562
497.80	42.026
498.14	42.630
498.49	43.153
498.84	42.322
499.18	42.870
499.53	42.691
499.87	42.242
500.22	41.051
500.56	42.510
500.91	42.929
501.26	43.364
501.60	41.935
501.95	42.466
502.29	42.606
502.64	42.763
502.98	41.846
503.33	40.950
503.67	41.082
504.02	42.075
504.36	42.627
504.71	42.582
505.06	42.246
505.40	42.550
505.75	42.486
506.09	42.772
506.44	44.011
506.78	42.982
507.13	43.476
507.47	43.297
507.82	42.756
508.16	43.021
508.51	41.772
508.85	43.599
509.19	42.918
509.54	43.612
509.88	43.128
510.23	44.002
510.57	44.031
510.92	42.912
511.26	43.723
511.61	42.781
511.95	42.313
512.30	43.230
512.64	42.929
512.98	43.672
513.33	43.851
513.67	43.396
514.02	43.485
514.36	43.683
514.70	44.635
515.05	44.734
515.39	44.042
515.74	44.168
516.08	43.951
516.42	44.846
516.77	43.743
517.11	43.476
517.46	44.168
517.80	44.522
518.14	44.178
518.49	44.577
518.83	44.119
519.17	43.619
519.52	43.711
519.86	43.189
520.20	44.515
520.55	44.469
520.89	43.975
521.23	44.333
521.58	44.068
521.92	44.759
522.26	43.643
522.61	44.387
522.95	45.156
523.29	44.023
523.64	44.955
523.98	45.579
524.32	44.470
524.66	43.939
525.01	44.507
525.35	43.998
525.69	44.374
526.04	43.858
526.38	44.885
526.72	44.291
527.06	45.630
527.41	44.257
527.75	44.418
528.09	44.569
528.43	44.168
528.78	44.104
529.12	43.693
529.46	43.676
529.80	44.394
530.15	43.362
530.49	44.306
530.83	43.566
531.17	44.146
531.51	44.103
531.86	44.171
532.20	45.061
532.54	44.285
532.88	43.455
533.22	43.783
533.57	43.566
533.91	41.863
534.25	43.245
534.59	43.448
534.93	44.086
535.27	42.423
535.62	43.377
535.96	43.754
536.30	42.479
536.64	44.685
536.98	43.542
537.32	42.593
537.66	43.980
538.01	42.779
538.35	42.326
538.69	41.526
539.03	43.593
539.37	41.519
539.71	43.664
540.05	43.885
540.39	41.626
540.73	42.319
541.07	42.918
541.42	42.587
541.76	42.408
542.10	41.013
542.44	42.266
542.78	43.248
543.12	41.299
543.46	41.331
543.80	40.707
544.14	41.412
544.48	42.080
544.82	41.472
545.16	42.815
545.50	42.540
545.84	40.355
546.18	43.210
546.52	42.420
546.86	40.755
547.20	42.557
547.54	41.635
547.88	40.989
548.22	42.281
548.56	41.135
548.90	41.313
549.24	41.884
549.58	41.325
549.92	41.008
550.26	41.165
550.60	41.481
550.94	41.915
551.28	41.452
551.62	42.251
551.96	41.424
552.30	42.575
552.64	41.630
552.98	41.110
553.32	41.543
553.66	41.158
554.00	42.119
554.34	41.441
554.68	39.961
555.02	40.867
555.36	41.683
555.69	39.270
556.03	40.227
556.37	40.989
556.71	40.330
557.05	40.703
557.39	41.274
557.73	40.687
558.07	41.258
558.41	41.595
558.75	41.988
559.08	41.058
559.42	41.221
559.76	39.281
560.10	39.920
560.44	40.237
560.78	40.000
561.12	40.456
561.45	39.964
561.79	39.377
562.13	39.988
562.47	39.026
562.81	39.937
563.15	39.394
563.48	39.776
563.82	39.238
564.16	39.491
564.50	39.035
564.84	39.823
565.17	39.706
565.51	39.356
565.85	38.599
566.19	38.134
566.52	39.029
566.86	39.785
567.20	37.629
567.54	38.396
567.88	38.481
568.21	37.154
568.55	37.410
568.89	37.131
569.23	37.009
569.56	36.147
569.90	35.638
570.24	35.447
570.57	34.509
570.91	33.925
571.25	33.237
571.59	33.259
571.92	33.582
572.26	33.457
572.60	33.524
572.93	33.343
573.27	33.240
573.61	33.033
573.95	32.605
574.28	32.609
574.62	32.583
574.96	32.157
575.29	32.320
575.63	32.710
575.97	32.240
576.30	32.248
576.64	32.522
576.98	32.005
577.31	31.997
577.65	31.717
577.98	30.892
578.32	31.366
578.66	31.078
578.99	31.640
579.33	32.103
579.67	31.482
580.00	31.355
580.34	31.305
580.67	31.244
581.01	31.155
581.35	30.937
581.68	30.240
582.02	30.407
582.35	30.779
582.69	31.372
583.02	31.060
583.36	31.649
583.70	31.311
584.03	31.198
584.37	31.548
584.70	31.296
585.04	30.505
585.37	30.645
585.71	30.291
586.04	30.273
586.38	30.501
586.72	30.484
587.05	30.775
587.39	30.616
587.72	31.077
588.06	30.803
588.39	30.919
588.73	30.952
589.06	31.236
589.40	31.438
589.73	30.784
590.07	31.499
590.40	31.271
590.73	31.318
591.07	31.720
591.40	31.065
591.74	31.757
592.07	31.912
592.41	31.664
592.74	30.529
593.08	30.892
593.41	30.446
593.75	30.316
594.08	30.688
594.41	31.026
594.75	30.355
595.08	30.350
595.42	31.039
595.75	30.029
596.09	31.108
596.42	30.563
596.75	31.185
597.09	31.111
597.42	30.155
597.75	30.694
598.09	30.873
598.42	30.720
598.76	29.423
599.09	29.690
599.42	29.132
599.76	29.812
600.09	29.997
600.42	28.929
600.76	29.789
601.09	28.676
601.42	29.694
601.76	28.966
602.09	28.878
602.42	29.407
602.76	29.410
603.09	28.928
603.42	29.516
603.76	28.717
604.09	29.524
604.42	29.174
604.76	29.414
605.09	29.956
605.42	29.944
605.75	28.769
606.09	28.705
606.42	28.749
606.75	28.223
607.09	27.650
607.42	28.902
607.75	29.386
608.08	28.571
608.42	28.900
608.75	29.353
609.08	28.565
609.41	29.025
609.75	29.509
610.08	29.551
610.41	28.207
610.74	28.992
611.07	28.730
611.41	29.283
611.74	29.099
612.07	29.126
612.40	29.373
612.73	28.949
613.07	29.438
613.40	29.163
613.73	28.069
614.06	29.342
614.39	28.086
614.72	28.627
615.06	27.911
615.39	28.033
615.72	28.863
616.05	29.189
616.38	28.809
616.71	28.997
617.05	27.583
617.38	28.785
617.71	28.672
618.04	28.009
618.37	29.399
618.70	29.581
619.03	28.495
619.36	30.333
619.69	30.301
620.03	27.997
620.36	28.896
620.69	29.550
621.02	29.199
621.35	30.769
621.68	31.020
622.01	29.253
622.34	29.358
622.67	29.347
623.00	27.463
623.33	29.330
623.66	28.923
623.99	29.230
624.32	30.019
624.65	28.314
624.99	29.584
625.32	28.935
625.65	29.535
625.98	28.407
626.31	28.845
626.64	29.670
626.97	29.332
627.30	29.385
627.63	27.682
627.96	29.505
628.29	30.739
628.62	29.975
628.95	29.185
629.28	29.312
629.61	29.966
629.94	29.289
630.26	29.237
630.59	29.706
630.92	29.524
631.25	29.159
631.58	30.038
631.91	30.459
632.24	29.587
632.57	28.937
632.90	31.896
633.23	29.898
633.56	30.612
633.89	31.095
634.22	30.042
634.55	31.002
