SpectraSuite Data File
++++++++++++++++++++++++++++++++++++
Date: Thu May 14 15:18:01 PDT 2015
User: schluterlab
Dark Spectrum Present: Yes
Reference Spectrum Present: Yes
Number of Sampled Component Spectra: 1
Spectrometers: USB2E3373
Integration Time (usec): 3000 (USB2E3373)
Spectra Averaged: 3 (USB2E3373)
Boxcar Smoothing: 0 (USB2E3373)
Correct for Electrical Dark: No (USB2E3373)
Strobe/Lamp Enabled: No (USB2E3373)
Correct for Detector Non-linearity: No (USB2E3373)
Correct for Stray Light: No (USB2E3373)
Number of Pixels in Processed Spectrum: 2048
>>>>>Begin Processed Spectral Data<<<<<
178.53	0.000
178.91	600.000
179.29	-4700.000
179.67	-4600.000
180.04	342.857
180.42	380.000
180.80	800.000
181.18	-4400.000
181.56	-3600.000
181.94	1025.000
182.31	-975.000
182.69	1433.333
183.07	-1850.000
183.45	1000.000
183.83	-650.000
184.20	-1433.333
184.58	3000.000
184.96	-1100.000
185.34	-422.222
185.72	-700.000
186.09	555.556
186.47	1850.000
186.85	960.000
187.23	-466.667
187.61	-5300.000
187.98	820.000
188.36	1100.000
188.74	-825.000
189.12	-1133.333
189.49	-225.000
189.87	-525.000
190.25	-411.111
190.63	-900.000
191.00	-544.444
191.38	0.000
191.76	-1175.000
192.14	-733.333
192.51	2050.000
192.89	-616.667
193.27	0.000
193.65	-471.429
194.02	-4200.000
194.40	-628.571
194.78	657.143
195.15	0.000
195.53	-336.364
195.91	0.000
196.29	-1100.000
196.66	-253.846
197.04	-4300.000
197.42	-571.429
197.79	-2250.000
198.17	-562.500
198.55	-442.857
198.92	-411.111
199.30	-500.000
199.68	-263.636
200.05	-250.000
200.43	-2550.000
200.81	628.571
201.18	0.000
201.56	600.000
201.94	0.000
202.31	1533.333
202.69	-522.222
203.07	4000.000
203.44	-455.556
203.82	-1200.000
204.19	-375.000
204.57	-650.000
204.95	-562.500
205.32	-4400.000
205.70	1000.000
206.08	-700.000
206.45	-700.000
206.83	920.000
207.20	-766.667
207.58	-980.000
207.96	-650.000
208.33	-650.000
208.71	341.667
209.08	-550.000
209.46	0.000
209.84	683.333
210.21	1750.000
210.59	2100.000
210.96	1466.667
211.34	-1075.000
211.71	-437.500
212.09	-3800.000
212.46	0.000
212.84	2450.000
213.22	-820.000
213.59	-900.000
213.97	-410.000
214.34	-1366.667
214.72	683.333
215.09	-1000.000
215.47	0.000
215.84	657.143
216.22	2350.000
216.59	-820.000
216.97	-860.000
217.34	-750.000
217.72	-387.500
218.09	-1075.000
218.47	-1125.000
218.84	0.000
219.22	840.000
219.59	-211.765
219.97	-175.000
220.34	2300.000
220.72	-522.222
221.09	-284.615
221.47	-1200.000
221.84	-350.000
222.22	-700.000
222.59	0.000
222.97	-525.000
223.34	-1080.000
223.72	-4400.000
224.09	-1275.000
224.46	-925.000
224.84	-680.000
225.21	-614.286
225.59	-1075.000
225.96	-1200.000
226.34	-134.615
226.71	750.000
227.08	-1800.000
227.46	-246.667
227.83	-1050.000
228.21	-194.737
228.58	525.000
228.95	2000.000
229.33	-258.333
229.70	-360.000
230.08	-136.842
230.45	450.000
230.82	-1233.333
231.20	-235.714
231.57	-308.333
231.95	-390.909
232.32	-336.364
232.69	-175.000
233.07	-925.000
233.44	-211.765
233.81	-410.000
234.19	-161.111
234.56	-122.727
234.93	-65.517
235.31	-194.737
235.68	-261.111
236.05	-240.000
236.43	-103.846
236.80	-112.000
237.17	-114.815
237.55	-106.061
237.92	-480.000
238.29	-116.129
238.67	-68.182
239.04	-102.778
239.41	-109.524
239.79	-69.565
240.16	-72.222
240.53	-97.826
240.91	-96.078
241.28	-67.213
241.65	-47.761
242.02	-36.486
242.40	-52.308
242.77	-37.333
243.14	-47.561
243.51	-59.211
243.89	-56.410
244.26	-34.653
244.63	-26.471
245.00	-31.776
245.38	-29.825
245.75	-36.283
246.12	-26.984
246.49	-26.357
246.87	-17.857
247.24	-17.881
247.61	-15.789
247.98	-22.148
248.36	-17.901
248.73	-19.632
249.10	-13.661
249.47	-7.463
249.84	-5.759
250.22	-13.990
250.59	-18.333
250.96	-12.727
251.33	-13.776
251.70	-6.838
252.08	-9.167
252.45	-6.967
252.82	-7.025
253.19	-9.766
253.56	-5.323
253.94	-11.154
254.31	-6.439
254.68	-4.895
255.05	-2.280
255.42	-6.803
255.79	-8.414
256.16	-7.285
256.54	-6.954
256.91	-5.902
257.28	-6.885
257.65	-7.962
258.02	-5.015
258.39	-4.558
258.76	-1.835
259.14	-5.460
259.51	-8.069
259.88	-6.232
260.25	-4.167
260.62	-2.192
260.99	-2.186
261.36	-3.485
261.73	-6.366
262.10	-4.121
262.47	-4.826
262.85	-0.253
263.22	-4.935
263.59	-4.737
263.96	-3.069
264.33	-4.348
264.70	-1.481
265.07	-0.239
265.44	0.454
265.81	-3.241
266.18	-2.268
266.55	-2.009
266.92	-3.417
267.29	-1.094
267.66	-3.104
268.03	-0.218
268.40	-0.626
268.77	-2.961
269.14	-4.846
269.51	-2.412
269.88	0.000
270.25	-1.006
270.62	-0.422
270.99	-0.404
271.36	-1.584
271.73	-1.179
272.10	0.000
272.47	0.200
272.84	-2.610
273.21	-1.804
273.58	-2.419
273.95	-0.962
274.32	-1.901
274.69	-1.741
275.06	0.366
275.43	0.185
275.80	0.176
276.17	-2.037
276.54	-2.239
276.91	-1.073
277.28	-0.181
277.65	-1.257
278.02	-1.838
278.39	-1.268
278.76	0.527
279.13	-1.596
279.50	-1.031
279.87	-1.252
280.23	-3.697
280.60	1.186
280.97	0.164
281.34	-2.207
281.71	1.523
282.08	0.332
282.45	-0.327
282.82	-0.628
283.19	-2.908
283.56	-1.311
283.92	1.201
284.29	3.476
284.66	0.000
285.03	-2.564
285.40	0.618
285.77	-0.464
286.14	0.763
286.51	2.131
286.87	-0.632
287.24	0.000
287.61	-0.448
287.98	-0.755
288.35	-0.296
288.72	0.592
289.08	1.025
289.45	-1.627
289.82	0.602
290.19	0.144
290.56	0.282
290.93	0.713
291.29	1.102
291.66	-0.275
292.03	-0.814
292.40	1.497
292.77	-0.809
293.13	1.353
293.50	-1.445
293.87	-0.134
294.24	1.867
294.60	0.759
294.97	-1.208
295.34	0.640
295.71	0.757
296.08	0.129
296.44	0.613
296.81	0.365
297.18	0.000
297.55	-0.943
297.91	0.000
298.28	-2.014
298.65	0.238
299.02	-1.063
299.38	0.343
299.75	1.051
300.12	-0.347
300.48	0.461
300.85	0.450
301.22	1.007
301.59	0.457
301.95	-0.226
302.32	1.222
302.69	1.424
303.05	0.871
303.42	0.776
303.79	0.625
304.15	1.998
304.52	0.106
304.89	0.628
305.25	2.174
305.62	0.209
305.99	0.928
306.35	1.714
306.72	1.344
307.09	0.508
307.45	1.035
307.82	1.211
308.19	0.101
308.55	2.218
308.92	1.071
309.29	1.245
309.65	1.559
310.02	0.990
310.38	0.591
310.75	1.845
311.12	3.260
311.48	1.955
311.85	1.899
312.22	1.423
312.58	2.066
312.95	2.103
313.31	2.168
313.68	3.297
314.05	3.613
314.41	3.279
314.78	2.997
315.14	2.904
315.51	4.524
315.87	3.780
316.24	4.384
316.61	3.464
316.97	2.715
317.34	3.704
317.70	3.843
318.07	4.321
318.43	5.272
318.80	6.522
319.16	4.979
319.53	3.856
319.89	4.557
320.26	5.872
320.62	6.028
320.99	6.187
321.35	5.915
321.72	6.884
322.08	7.304
322.45	6.052
322.81	6.137
323.18	6.283
323.54	6.466
323.91	6.762
324.27	8.176
324.64	8.564
325.00	7.463
325.37	7.535
325.73	8.099
326.10	9.408
326.46	9.202
326.83	9.287
327.19	8.504
327.56	9.565
327.92	8.655
328.29	8.952
328.65	8.626
329.01	9.983
329.38	10.194
329.74	9.675
330.11	10.017
330.47	10.194
330.84	9.905
331.20	11.000
331.56	10.572
331.93	11.046
332.29	11.102
332.66	10.465
333.02	11.474
333.38	10.822
333.75	11.448
334.11	11.593
334.48	10.891
334.84	11.895
335.20	10.747
335.57	11.467
335.93	12.893
336.29	10.732
336.66	11.186
337.02	11.789
337.38	11.990
337.75	11.653
338.11	11.354
338.47	12.572
338.84	10.575
339.20	10.952
339.56	11.532
339.93	12.808
340.29	13.043
340.65	10.624
341.02	12.530
341.38	12.611
341.74	11.945
342.11	11.987
342.47	10.723
342.83	13.285
343.20	11.284
343.56	12.350
343.92	12.330
344.28	12.734
344.65	12.868
345.01	12.793
345.37	13.219
345.73	11.691
346.10	11.934
346.46	12.342
346.82	13.558
347.19	11.765
347.55	12.443
347.91	12.704
348.27	12.898
348.63	13.024
349.00	12.453
349.36	13.457
349.72	13.244
350.08	13.150
350.45	12.700
350.81	12.821
351.17	13.910
351.53	12.964
351.89	14.503
352.26	12.537
352.62	12.537
352.98	13.664
353.34	12.920
353.70	13.713
354.07	14.754
354.43	12.756
354.79	12.715
355.15	13.466
355.51	13.743
355.87	14.510
356.24	14.068
356.60	12.639
356.96	13.121
357.32	13.086
357.68	12.738
358.04	13.847
358.40	13.134
358.77	13.304
359.13	13.516
359.49	12.491
359.85	13.633
360.21	14.204
360.57	14.070
360.93	13.893
361.29	14.035
361.66	14.772
362.02	14.962
362.38	14.758
362.74	14.735
363.10	14.856
363.46	15.028
363.82	14.276
364.18	13.934
364.54	14.592
364.90	15.652
365.26	14.207
365.62	15.733
365.98	15.521
366.35	15.503
366.71	15.646
367.07	14.682
367.43	15.233
367.79	15.660
368.15	15.385
368.51	15.968
368.87	14.958
369.23	14.867
369.59	15.984
369.95	15.416
370.31	15.800
370.67	16.094
371.03	15.720
371.39	15.850
371.75	15.337
372.11	15.989
372.47	15.843
372.83	16.558
373.19	15.744
373.55	15.921
373.91	16.087
374.27	16.559
374.63	17.118
374.99	16.114
375.35	16.753
375.71	16.258
376.07	17.043
376.42	17.317
376.78	17.464
377.14	17.093
377.50	17.078
377.86	18.350
378.22	18.563
378.58	18.371
378.94	19.131
379.30	18.102
379.66	18.401
380.02	19.042
380.38	18.548
380.74	19.155
381.09	19.512
381.45	18.636
381.81	19.965
382.17	20.071
382.53	18.947
382.89	19.526
383.25	20.223
383.61	20.197
383.97	18.787
384.32	21.053
384.68	19.722
385.04	20.821
385.40	20.625
385.76	20.692
386.12	20.347
386.48	21.235
386.83	21.216
387.19	20.452
387.55	21.068
387.91	21.062
388.27	21.709
388.62	21.191
388.98	21.320
389.34	22.039
389.70	22.255
390.06	22.084
390.42	22.651
390.77	22.396
391.13	21.420
391.49	21.558
391.85	21.758
392.20	22.005
392.56	22.859
392.92	22.246
393.28	22.167
393.64	22.235
393.99	23.242
394.35	23.773
394.71	22.695
395.07	22.036
395.42	22.901
395.78	24.741
396.14	23.292
396.50	22.922
396.85	22.182
397.21	22.249
397.57	22.733
397.92	23.253
398.28	22.868
398.64	23.112
399.00	22.984
399.35	22.932
399.71	23.261
400.07	23.526
400.42	23.632
400.78	22.975
401.14	23.563
401.49	23.138
401.85	23.023
402.21	24.276
402.57	24.120
402.92	23.522
403.28	22.834
403.63	23.270
403.99	23.278
404.35	23.877
404.70	22.946
405.06	23.424
405.42	22.951
405.77	23.828
406.13	23.447
406.49	23.818
406.84	23.601
407.20	22.862
407.55	22.229
407.91	23.821
408.27	23.498
408.62	23.560
408.98	24.434
409.34	22.874
409.69	23.918
410.05	24.150
410.40	24.130
410.76	23.163
411.11	23.963
411.47	23.649
411.83	24.339
412.18	23.193
412.54	24.659
412.89	24.272
413.25	23.871
413.60	23.262
413.96	23.193
414.31	24.419
414.67	24.747
415.03	23.631
415.38	24.338
415.74	23.946
416.09	23.998
416.45	23.607
416.80	24.541
417.16	23.755
417.51	24.844
417.87	24.280
418.22	24.311
418.58	24.535
418.93	25.320
419.29	24.846
419.64	24.850
420.00	25.045
420.35	25.267
420.71	24.871
421.06	25.244
421.42	24.943
421.77	24.556
422.12	26.216
422.48	25.704
422.83	26.396
423.19	26.684
423.54	25.498
423.90	26.560
424.25	26.560
424.61	25.718
424.96	26.414
425.31	26.592
425.67	26.302
426.02	26.951
426.38	27.325
426.73	27.065
427.09	28.201
427.44	27.307
427.79	26.645
428.15	27.283
428.50	26.573
428.85	26.866
429.21	28.457
429.56	28.875
429.92	28.059
430.27	28.578
430.62	28.676
430.98	29.218
431.33	28.201
431.68	28.209
432.04	29.101
432.39	28.388
432.74	28.824
433.10	28.935
433.45	29.599
433.80	28.755
434.16	28.874
434.51	30.216
434.86	29.913
435.22	31.190
435.57	30.071
435.92	30.495
436.28	28.612
436.63	29.711
436.98	30.059
437.34	30.722
437.69	30.105
438.04	30.037
438.39	30.500
438.75	30.216
439.10	30.550
439.45	30.799
439.81	30.282
440.16	30.134
440.51	30.881
440.86	30.573
441.22	30.493
441.57	30.922
441.92	31.038
442.27	31.414
442.63	31.942
442.98	31.003
443.33	32.036
443.68	31.368
444.03	32.596
444.39	32.316
444.74	32.312
445.09	31.424
445.44	32.139
445.79	32.375
446.15	31.501
446.50	31.421
446.85	33.074
447.20	32.495
447.55	32.531
447.91	31.780
448.26	33.298
448.61	31.456
448.96	32.994
449.31	32.025
449.66	32.190
450.02	32.700
450.37	32.658
450.72	32.777
451.07	32.688
451.42	32.062
451.77	32.629
452.12	34.537
452.47	32.799
452.83	33.502
453.18	33.508
453.53	33.372
453.88	32.413
454.23	33.446
454.58	33.662
454.93	32.949
455.28	33.052
455.63	33.712
455.98	34.134
456.34	33.098
456.69	33.862
457.04	34.102
457.39	33.315
457.74	34.172
458.09	33.169
458.44	33.782
458.79	33.161
459.14	33.770
459.49	33.786
459.84	34.523
460.19	32.426
460.54	33.958
460.89	34.674
461.24	32.931
461.59	34.422
461.94	32.858
462.29	33.819
462.64	34.218
462.99	33.082
463.34	35.042
463.69	33.587
464.04	34.575
464.39	35.482
464.74	33.067
465.09	33.910
465.44	34.227
465.79	34.056
466.14	34.184
466.49	33.895
466.84	34.656
467.19	34.798
467.54	33.490
467.89	33.448
468.24	34.349
468.59	33.874
468.94	34.266
469.29	34.793
469.64	33.821
469.99	34.162
470.34	34.282
470.68	35.748
471.03	34.840
471.38	34.402
471.73	33.680
472.08	35.343
472.43	34.979
472.78	34.383
473.13	34.893
473.48	35.770
473.83	35.461
474.17	34.877
474.52	35.298
474.87	34.718
475.22	35.155
475.57	34.735
475.92	35.192
476.27	35.304
476.61	34.943
476.96	34.411
477.31	34.950
477.66	35.467
478.01	35.130
478.36	34.247
478.70	36.158
479.05	36.759
479.40	36.032
479.75	35.014
480.10	34.912
480.45	35.232
480.79	35.465
481.14	35.662
481.49	34.984
481.84	36.249
482.19	35.828
482.53	35.592
482.88	36.021
483.23	36.372
483.58	34.934
483.92	35.151
484.27	35.902
484.62	35.272
484.97	35.303
485.31	33.826
485.66	31.893
486.01	32.262
486.36	34.119
486.70	36.288
487.05	37.302
487.40	35.802
487.75	34.936
488.09	34.545
488.44	33.878
488.79	34.469
489.13	34.468
489.48	34.874
489.83	35.533
490.17	35.115
490.52	35.714
490.87	36.337
491.22	36.135
491.56	36.263
491.91	36.372
492.26	36.088
492.60	35.899
492.95	36.551
493.30	36.351
493.64	35.480
493.99	36.009
494.34	35.801
494.68	36.060
495.03	36.652
495.37	37.372
495.72	36.871
496.07	35.933
496.41	35.736
496.76	37.531
497.11	35.966
497.45	37.505
497.80	37.050
498.14	37.370
498.49	36.857
498.84	36.426
499.18	37.337
499.53	36.771
499.87	38.110
500.22	36.198
500.56	36.842
500.91	36.476
501.26	37.500
501.60	35.572
501.95	37.299
502.29	36.288
502.64	36.992
502.98	36.713
503.33	36.415
503.67	35.761
504.02	36.515
504.36	37.668
504.71	36.840
505.06	36.880
505.40	36.700
505.75	36.566
506.09	37.247
506.44	37.326
506.78	37.706
507.13	36.745
507.47	37.944
507.82	37.169
508.16	36.950
508.51	36.521
508.85	38.026
509.19	37.234
509.54	37.704
509.88	37.542
510.23	38.222
510.57	37.893
510.92	38.462
511.26	37.326
511.61	37.228
511.95	38.360
512.30	38.799
512.64	37.731
512.98	37.319
513.33	38.458
513.67	38.858
514.02	38.068
514.36	38.568
514.70	38.802
515.05	39.155
515.39	38.845
515.74	39.873
516.08	38.933
516.42	39.874
516.77	38.801
517.11	37.906
517.46	39.024
517.80	40.406
518.14	40.044
518.49	39.588
518.83	38.265
519.17	38.018
519.52	39.046
519.86	38.490
520.20	39.830
520.55	38.938
520.89	39.921
521.23	38.582
521.58	39.661
521.92	38.414
522.26	39.061
522.61	40.104
522.95	39.389
523.29	39.195
523.64	39.574
523.98	40.901
524.32	40.630
524.66	40.694
525.01	39.864
525.35	39.747
525.69	39.501
526.04	38.806
526.38	39.713
526.72	39.619
527.06	39.296
527.41	40.816
527.75	39.905
528.09	39.079
528.43	39.195
528.78	38.613
529.12	38.589
529.46	38.898
529.80	40.217
530.15	38.957
530.49	40.214
530.83	39.847
531.17	39.188
531.51	40.132
531.86	40.805
532.20	40.915
532.54	38.719
532.88	39.818
533.22	39.305
533.57	38.950
533.91	38.833
534.25	39.401
534.59	39.770
534.93	38.257
535.27	38.310
535.62	39.682
535.96	39.279
536.30	38.660
536.64	39.339
536.98	39.791
537.32	40.556
537.66	39.301
538.01	37.583
538.35	39.099
538.69	39.363
539.03	39.730
539.37	39.282
539.71	38.739
540.05	38.549
540.39	38.447
540.73	37.826
541.07	39.730
541.42	38.925
541.76	37.663
542.10	38.118
542.44	38.611
542.78	39.051
543.12	38.915
543.46	38.462
543.80	38.909
544.14	38.779
544.48	38.948
544.82	39.437
545.16	39.475
545.50	38.766
545.84	39.008
546.18	39.444
546.52	39.745
546.86	38.679
547.20	40.331
547.54	38.265
547.88	38.939
548.22	38.070
548.56	38.853
548.90	38.567
549.24	40.122
549.58	40.189
549.92	38.393
550.26	39.806
550.60	39.056
550.94	38.486
551.28	39.274
551.62	41.375
551.96	39.159
552.30	40.217
552.64	39.390
552.98	39.676
553.32	40.772
553.66	39.678
554.00	39.660
554.34	40.862
554.68	39.122
555.02	38.699
555.36	39.645
555.69	38.757
556.03	39.155
556.37	40.300
556.71	39.822
557.05	39.936
557.39	39.018
557.73	38.639
558.07	40.397
558.41	40.532
558.75	40.027
559.08	42.171
559.42	39.918
559.76	39.620
560.10	40.790
560.44	39.710
560.78	40.188
561.12	38.978
561.45	40.146
561.79	40.171
562.13	41.590
562.47	39.149
562.81	40.190
563.15	40.467
563.48	39.838
563.82	40.024
564.16	38.522
564.50	38.617
564.84	40.354
565.17	40.235
565.51	39.125
565.85	40.202
566.19	39.574
566.52	39.438
566.86	38.879
567.20	37.140
567.54	38.396
567.88	38.991
568.21	39.032
568.55	39.041
568.89	38.221
569.23	37.812
569.56	37.476
569.90	37.669
570.24	36.391
570.57	36.466
570.91	36.252
571.25	36.245
571.59	35.959
571.92	35.634
572.26	35.601
572.60	35.545
572.93	35.653
573.27	35.825
573.61	34.648
573.95	35.251
574.28	34.641
574.62	34.698
574.96	33.988
575.29	34.545
575.63	34.742
575.97	35.042
576.30	34.271
576.64	34.670
576.98	34.055
577.31	34.560
577.65	34.771
577.98	34.582
578.32	34.418
578.66	34.791
578.99	34.794
579.33	34.438
579.67	34.633
580.00	34.187
580.34	34.184
580.67	34.157
581.01	34.055
581.35	33.957
581.68	34.073
582.02	34.397
582.35	35.432
582.69	34.759
583.02	34.517
583.36	34.340
583.70	34.924
584.03	34.365
584.37	34.288
584.70	33.667
585.04	34.085
585.37	34.688
585.71	34.498
586.04	34.897
586.38	35.283
586.72	34.570
587.05	34.843
587.39	35.677
587.72	35.335
588.06	35.542
588.39	35.126
588.73	35.106
589.06	35.356
589.40	35.741
589.73	35.990
590.07	36.340
590.40	36.173
590.73	35.878
591.07	36.337
591.40	35.731
591.74	35.731
592.07	36.460
592.41	36.475
592.74	36.741
593.08	36.433
593.41	36.950
593.75	36.006
594.08	36.716
594.41	36.635
594.75	36.333
595.08	35.666
595.42	36.526
595.75	36.390
596.09	36.327
596.42	36.259
596.75	35.971
597.09	37.253
597.42	36.194
597.75	36.456
598.09	36.032
598.42	37.153
598.76	36.263
599.09	36.775
599.42	36.071
599.76	36.018
600.09	36.703
600.42	36.336
600.76	36.889
601.09	36.674
601.42	36.011
601.76	36.586
602.09	36.812
602.42	35.478
602.76	36.827
603.09	37.115
603.42	37.572
603.76	36.047
604.09	36.622
604.42	36.550
604.76	35.845
605.09	36.657
605.42	37.360
605.75	36.154
606.09	36.469
606.42	36.775
606.75	36.169
607.09	36.790
607.42	36.301
607.75	37.202
608.08	36.622
608.42	36.356
608.75	37.396
609.08	36.418
609.41	37.230
609.75	37.232
610.08	37.511
610.41	37.468
610.74	37.899
611.07	38.188
611.41	38.206
611.74	38.568
612.07	38.569
612.40	38.451
612.73	38.044
613.07	38.826
613.40	37.777
613.73	37.554
614.06	38.420
614.39	37.707
614.72	38.331
615.06	37.632
615.39	37.264
615.72	37.630
616.05	37.591
616.38	38.698
616.71	39.185
617.05	38.445
617.38	38.630
617.71	38.985
618.04	38.802
618.37	38.798
618.70	39.649
619.03	38.769
619.36	39.766
619.69	39.142
620.03	39.925
620.36	38.773
620.69	39.420
621.02	40.486
621.35	41.219
621.68	41.649
622.01	40.641
622.34	40.795
622.67	40.137
623.00	40.283
623.33	40.013
623.66	39.883
623.99	39.171
624.32	40.741
624.65	40.605
624.99	40.442
625.32	41.607
625.65	41.537
625.98	41.153
626.31	40.822
626.64	41.099
626.97	40.360
627.30	41.762
627.63	40.135
627.96	41.441
628.29	43.035
628.62	42.653
628.95	44.172
629.28	42.311
629.61	42.424
629.94	41.925
630.26	43.220
630.59	43.264
630.92	41.385
631.25	44.991
631.58	43.974
631.91	43.580
