SpectraSuite Data File
++++++++++++++++++++++++++++++++++++
Date: Thu May 14 14:34:56 PDT 2015
User: schluterlab
Dark Spectrum Present: Yes
Reference Spectrum Present: Yes
Number of Sampled Component Spectra: 1
Spectrometers: USB2E3373
Integration Time (usec): 3000 (USB2E3373)
Spectra Averaged: 3 (USB2E3373)
Boxcar Smoothing: 0 (USB2E3373)
Correct for Electrical Dark: No (USB2E3373)
Strobe/Lamp Enabled: No (USB2E3373)
Correct for Detector Non-linearity: No (USB2E3373)
Correct for Stray Light: No (USB2E3373)
Number of Pixels in Processed Spectrum: 2048
>>>>>Begin Processed Spectral Data<<<<<
178.53	0.000
178.91	-257.143
179.29	700.000
179.67	1300.000
180.04	-35.714
180.42	-280.000
180.80	-280.000
181.18	2400.000
181.56	2500.000
181.94	-375.000
182.31	650.000
182.69	-300.000
183.07	850.000
183.45	-375.000
183.83	183.333
184.20	466.667
184.58	-1400.000
184.96	100.000
185.34	188.889
185.72	440.000
186.09	-111.111
186.47	-650.000
186.85	-220.000
187.23	166.667
187.61	300.000
187.98	-360.000
188.36	-275.000
188.74	375.000
189.12	800.000
189.49	143.750
189.87	250.000
190.25	177.778
190.63	260.000
191.00	233.333
191.38	0.000
191.76	225.000
192.14	283.333
192.51	-600.000
192.89	283.333
193.27	0.000
193.65	200.000
194.02	-200.000
194.40	171.429
194.78	-228.571
195.15	0.000
195.53	200.000
195.91	0.000
196.29	750.000
196.66	146.154
197.04	1800.000
197.42	214.286
197.79	750.000
198.17	125.000
198.55	100.000
198.92	288.889
199.30	200.000
199.68	181.818
200.05	178.571
200.43	600.000
200.81	-157.143
201.18	0.000
201.56	-133.333
201.94	0.000
202.31	-366.667
202.69	144.444
203.07	-1700.000
203.44	155.556
203.82	375.000
204.19	166.667
204.57	333.333
204.95	275.000
205.32	2000.000
205.70	-550.000
206.08	266.667
206.45	283.333
206.83	-20.000
207.20	200.000
207.58	280.000
207.96	300.000
208.33	466.667
208.71	-66.667
209.08	366.667
209.46	0.000
209.84	-150.000
210.21	-1050.000
210.59	-600.000
210.96	-466.667
211.34	600.000
211.71	175.000
212.09	900.000
212.46	0.000
212.84	-400.000
213.22	220.000
213.59	550.000
213.97	230.000
214.34	500.000
214.72	-216.667
215.09	300.000
215.47	0.000
215.84	-142.857
216.22	-550.000
216.59	360.000
216.97	280.000
217.34	375.000
217.72	112.500
218.09	525.000
218.47	375.000
218.84	0.000
219.22	-440.000
219.59	76.471
219.97	150.000
220.34	-950.000
220.72	222.222
221.09	161.538
221.47	900.000
221.84	220.000
222.22	85.714
222.59	0.000
222.97	200.000
223.34	220.000
223.72	1700.000
224.09	525.000
224.46	275.000
224.84	440.000
225.21	285.714
225.59	350.000
225.96	475.000
226.34	80.769
226.71	-116.667
227.08	1150.000
227.46	120.000
227.83	625.000
228.21	84.211
228.58	-287.500
228.95	-500.000
229.33	133.333
229.70	230.000
230.08	226.316
230.45	-150.000
230.82	433.333
231.20	107.143
231.57	191.667
231.95	245.455
232.32	127.273
232.69	155.000
233.07	325.000
233.44	76.471
233.81	200.000
234.19	138.889
234.56	90.909
234.93	127.586
235.31	89.474
235.68	111.111
236.05	70.000
236.43	103.846
236.80	128.000
237.17	88.889
237.55	57.576
237.92	130.000
238.29	67.742
238.67	45.455
239.04	52.778
239.41	26.190
239.79	52.174
240.16	35.185
240.53	36.957
240.91	13.725
241.28	27.869
241.65	58.209
242.02	39.189
242.40	40.000
242.77	42.667
243.14	19.512
243.51	27.632
243.89	26.923
244.26	36.634
244.63	33.333
245.00	28.972
245.38	25.439
245.75	20.354
246.12	29.365
246.49	13.953
246.87	22.857
247.24	28.477
247.61	27.632
247.98	19.463
248.36	15.432
248.73	20.245
249.10	12.568
249.47	21.891
249.84	21.466
250.22	21.244
250.59	21.111
250.96	22.273
251.33	16.327
251.70	20.513
252.08	17.917
252.45	22.951
252.82	14.876
253.19	14.844
253.56	18.631
253.94	14.615
254.31	20.455
254.68	21.678
255.05	17.915
255.42	17.687
255.79	15.210
256.16	17.550
256.54	15.232
256.91	18.361
257.28	15.410
257.65	16.242
258.02	13.569
258.39	17.949
258.76	20.489
259.14	17.529
259.51	15.274
259.88	16.431
260.25	17.222
260.62	16.438
260.99	17.486
261.36	16.622
261.73	15.650
262.10	16.209
262.47	17.426
262.85	17.424
263.22	13.247
263.59	11.579
263.96	17.903
264.33	15.090
264.70	15.062
265.07	17.900
265.44	18.141
265.81	16.204
266.18	16.553
266.55	13.616
266.92	13.667
267.29	16.411
267.66	15.299
268.03	18.777
268.40	13.779
268.77	14.806
269.14	12.115
269.51	15.789
269.88	15.574
270.25	14.688
270.62	15.190
270.99	16.364
271.36	14.257
271.73	14.931
272.10	14.429
272.47	13.427
272.84	13.052
273.21	14.429
273.58	14.919
273.95	12.500
274.32	14.639
274.69	15.474
275.06	14.103
275.43	12.754
275.80	14.286
276.17	11.852
276.54	13.433
276.91	14.311
277.28	13.562
277.65	12.388
278.02	14.890
278.39	12.862
278.76	12.654
279.13	11.879
279.50	14.605
279.87	15.027
280.23	10.387
280.60	13.220
280.97	14.967
281.34	13.922
281.71	12.690
282.08	12.791
282.45	12.602
282.82	13.187
283.19	12.116
283.56	12.295
283.92	13.363
284.29	13.428
284.66	14.614
285.03	12.500
285.40	12.828
285.77	14.396
286.14	14.046
286.51	13.851
286.87	11.690
287.24	13.253
287.61	13.752
287.98	12.387
288.35	11.538
288.72	11.982
289.08	12.738
289.45	11.982
289.82	10.241
290.19	12.069
290.56	12.394
290.93	11.412
291.29	11.295
291.66	12.397
292.03	11.533
292.40	13.741
292.77	10.108
293.13	12.449
293.50	10.644
293.87	11.007
294.24	13.467
294.60	12.389
294.97	9.799
295.34	12.420
295.71	10.845
296.08	9.432
296.44	11.029
296.81	9.257
297.18	10.959
297.55	10.377
297.91	9.846
298.28	9.360
298.65	10.939
299.02	11.216
299.38	10.183
299.75	10.514
300.12	9.375
300.48	10.599
300.85	9.899
301.22	11.521
301.59	10.959
301.95	9.944
302.32	11.222
302.69	9.858
303.05	10.446
303.42	9.313
303.79	10.208
304.15	9.884
304.52	10.994
304.89	9.529
305.25	9.317
305.62	9.091
305.99	10.206
306.35	8.972
306.72	10.962
307.09	9.442
307.45	10.559
307.82	9.384
308.19	9.384
308.55	11.090
308.92	9.932
309.29	10.632
309.65	9.747
310.02	9.505
310.38	9.252
310.75	8.932
311.12	9.971
311.48	9.971
311.85	10.731
312.22	10.247
312.58	9.859
312.95	10.038
313.31	10.388
313.68	10.531
314.05	9.937
314.41	10.565
314.78	10.899
315.14	10.617
315.51	11.450
315.87	11.071
316.24	10.868
316.61	10.835
316.97	10.498
317.34	10.935
317.70	11.616
318.07	9.965
318.43	12.160
318.80	11.204
319.16	11.588
319.53	9.340
319.89	11.218
320.26	11.388
320.62	9.929
320.99	11.265
321.35	11.183
321.72	12.000
322.08	10.730
322.45	11.382
322.81	11.823
323.18	11.593
323.54	11.379
323.91	12.544
324.27	10.929
324.64	13.182
325.00	11.692
325.37	12.285
325.73	12.975
326.10	12.652
326.46	13.762
326.83	13.131
327.19	12.835
327.56	13.123
327.92	12.903
328.29	12.419
328.65	12.982
329.01	11.506
329.38	12.468
329.74	13.870
330.11	14.298
330.47	13.227
330.84	13.523
331.20	14.333
331.56	13.605
331.93	12.720
332.29	13.220
332.66	13.704
333.02	13.484
333.38	12.752
333.75	12.795
334.11	13.845
334.48	13.779
334.84	14.359
335.20	13.098
335.57	13.406
335.93	13.554
336.29	13.394
336.66	12.027
337.02	13.462
337.38	13.946
337.75	13.802
338.11	13.457
338.47	13.730
338.84	13.367
339.20	12.637
339.56	12.273
339.93	12.726
340.29	13.446
340.65	13.463
341.02	13.887
341.38	14.390
341.74	13.398
342.11	13.435
342.47	11.914
342.83	13.688
343.20	13.737
343.56	13.312
343.92	12.810
344.28	13.906
344.65	14.264
345.01	14.119
345.37	13.530
345.73	13.172
346.10	13.729
346.46	13.608
346.82	14.307
347.19	13.751
347.55	13.961
347.91	12.779
348.27	13.354
348.63	13.557
349.00	14.243
349.36	14.498
349.72	13.690
350.08	13.596
350.45	13.384
350.81	14.178
351.17	13.534
351.53	14.177
351.89	14.275
352.26	14.030
352.62	12.985
352.98	13.053
353.34	12.771
353.70	14.022
354.07	13.934
354.43	14.123
354.79	13.837
355.15	14.202
355.51	14.912
355.87	13.164
356.24	13.916
356.60	13.895
356.96	14.010
357.32	13.383
357.68	12.958
358.04	13.174
358.40	13.582
358.77	14.035
359.13	13.589
359.49	12.639
359.85	13.488
360.21	13.199
360.57	13.568
360.93	13.681
361.29	13.404
361.66	13.324
362.02	14.753
362.38	14.336
362.74	13.827
363.10	14.512
363.46	13.850
363.82	13.281
364.18	13.863
364.54	14.730
364.90	14.047
365.26	13.172
365.62	14.333
365.98	14.023
366.35	14.161
366.71	14.762
367.07	13.938
367.43	14.642
367.79	13.935
368.15	14.582
368.51	14.614
368.87	13.586
369.23	14.067
369.59	14.208
369.95	13.725
370.31	13.639
370.67	14.168
371.03	14.127
371.39	14.506
371.75	14.305
372.11	15.176
372.47	14.218
372.83	14.987
373.19	15.210
373.55	15.108
373.91	14.519
374.27	14.295
374.63	13.938
374.99	14.456
375.35	14.740
375.71	15.677
376.07	15.688
376.42	15.239
376.78	15.413
377.14	15.034
377.50	14.042
377.86	15.764
378.22	15.210
378.58	16.350
378.94	14.437
379.30	15.583
379.66	15.226
380.02	15.638
380.38	15.265
380.74	15.887
381.09	15.738
381.45	16.080
381.81	16.218
382.17	16.152
382.53	15.731
382.89	16.422
383.25	16.061
383.61	16.030
383.97	15.960
384.32	16.926
384.68	15.603
385.04	17.004
385.40	16.441
385.76	17.644
386.12	17.235
386.48	16.706
386.83	16.865
387.19	17.207
387.55	15.669
387.91	16.781
388.27	17.263
388.62	17.010
388.98	16.920
389.34	18.209
389.70	17.780
390.06	17.348
390.42	17.892
390.77	17.941
391.13	17.606
391.49	18.056
391.85	17.273
392.20	18.031
392.56	18.370
392.92	18.484
393.28	17.358
393.64	18.101
393.99	18.013
394.35	18.867
394.71	18.503
395.07	17.186
395.42	18.389
395.78	19.866
396.14	18.479
396.50	17.755
396.85	18.545
397.21	18.402
397.57	18.198
397.92	18.041
398.28	18.034
398.64	18.593
399.00	18.743
399.35	18.010
399.71	18.098
400.07	19.090
400.42	18.335
400.78	18.461
401.14	18.497
401.49	18.533
401.85	17.965
402.21	18.540
402.57	19.601
402.92	18.676
403.28	18.794
403.63	17.840
403.99	19.062
404.35	18.078
404.70	18.357
405.06	18.207
405.42	18.443
405.77	19.084
406.13	18.693
406.49	18.018
406.84	18.947
407.20	19.061
407.55	18.837
407.91	18.982
408.27	18.610
408.62	19.372
408.98	19.559
409.34	18.006
409.69	18.541
410.05	18.406
410.40	20.070
410.76	19.293
411.11	19.638
411.47	19.103
411.83	19.283
412.18	19.277
412.54	19.561
412.89	18.917
413.25	19.808
413.60	18.438
413.96	19.755
414.31	18.924
414.67	19.380
415.03	19.262
415.38	20.050
415.74	19.304
416.09	20.173
416.45	18.472
416.80	20.012
417.16	18.582
417.51	20.548
417.87	19.742
418.22	19.401
418.58	19.269
418.93	20.256
419.29	19.236
419.64	19.688
420.00	19.881
420.35	19.820
420.71	19.759
421.06	19.091
421.42	19.782
421.77	18.686
422.12	19.080
422.48	19.764
422.83	19.606
423.19	19.682
423.54	20.299
423.90	20.099
424.25	19.627
424.61	19.231
424.96	19.440
425.31	20.435
425.67	19.860
426.02	19.646
426.38	20.092
426.73	19.308
427.09	20.877
427.44	19.825
427.79	19.127
428.15	19.521
428.50	19.438
428.85	19.173
429.21	20.426
429.56	18.657
429.92	19.410
430.27	19.518
430.62	19.443
430.98	19.626
431.33	19.795
431.68	19.301
432.04	19.553
432.39	20.514
432.74	20.148
433.10	20.227
433.45	19.287
433.80	20.225
434.16	19.938
434.51	19.681
434.86	19.544
435.22	19.713
435.57	19.811
435.92	20.367
436.28	21.104
436.63	20.863
436.98	19.646
437.34	20.011
437.69	21.079
438.04	20.254
438.39	21.022
438.75	20.365
439.10	20.613
439.45	20.794
439.81	19.774
440.16	19.732
440.51	21.070
440.86	20.623
441.22	20.954
441.57	20.597
441.92	20.417
442.27	20.859
442.63	20.368
442.98	20.971
443.33	20.779
443.68	21.556
444.03	21.496
444.39	20.943
444.74	20.929
445.09	21.338
445.44	21.391
445.79	20.833
446.15	21.583
446.50	20.930
446.85	20.914
447.20	22.147
447.55	20.973
447.91	20.942
448.26	20.877
448.61	20.563
448.96	22.425
449.31	20.732
449.66	21.133
450.02	21.150
450.37	21.151
450.72	21.529
451.07	21.298
451.42	20.393
451.77	21.345
452.12	22.460
452.47	21.628
452.83	21.565
453.18	21.600
453.53	20.908
453.88	21.425
454.23	21.921
454.58	22.171
454.93	22.209
455.28	22.456
455.63	21.319
455.98	21.229
456.34	21.084
456.69	21.046
457.04	21.395
457.39	21.508
457.74	21.756
458.09	21.252
458.44	21.175
458.79	20.732
459.14	21.814
459.49	21.505
459.84	21.511
460.19	20.988
460.54	22.033
460.89	21.599
461.24	21.092
461.59	21.859
461.94	21.620
462.29	22.060
462.64	21.364
462.99	22.097
463.34	21.869
463.69	22.274
464.04	22.568
464.39	21.469
464.74	22.463
465.09	21.626
465.44	21.727
465.79	22.105
466.14	22.303
466.49	21.947
466.84	22.865
467.19	22.081
467.54	22.444
467.89	22.299
468.24	22.327
468.59	21.540
468.94	21.911
469.29	22.675
469.64	22.441
469.99	22.371
470.34	22.215
470.68	23.240
471.03	22.462
471.38	23.022
471.73	23.212
472.08	22.525
472.43	23.119
472.78	23.048
473.13	22.503
473.48	23.565
473.83	23.680
474.17	23.036
474.52	23.632
474.87	23.699
475.22	24.056
475.57	23.832
475.92	22.648
476.27	22.737
476.61	22.586
476.96	23.201
477.31	23.119
477.66	23.505
478.01	22.522
478.36	22.483
478.70	23.103
479.05	23.466
479.40	23.692
479.75	23.007
480.10	23.401
480.45	23.428
480.79	23.129
481.14	22.886
481.49	22.581
481.84	23.499
482.19	23.484
482.53	23.000
482.88	23.837
483.23	23.166
483.58	23.057
483.92	22.917
484.27	22.650
484.62	22.277
484.97	22.667
485.31	22.492
485.66	21.766
486.01	21.311
486.36	20.664
486.70	21.195
487.05	21.276
487.40	21.337
487.75	22.163
488.09	22.429
488.44	21.887
488.79	22.530
489.13	23.316
489.48	22.680
489.83	23.581
490.17	22.681
490.52	23.153
490.87	23.477
491.22	23.224
491.56	24.104
491.91	23.201
492.26	23.496
492.60	23.655
492.95	23.651
493.30	23.891
493.64	23.697
493.99	23.202
494.34	23.650
494.68	23.041
495.03	23.833
495.37	23.347
495.72	24.127
496.07	23.620
496.41	23.552
496.76	23.812
497.11	23.779
497.45	23.997
497.80	24.478
498.14	24.671
498.49	24.908
498.84	24.634
499.18	23.752
499.53	24.126
499.87	24.659
500.22	24.265
500.56	24.202
500.91	24.211
501.26	24.864
501.60	24.923
501.95	24.837
502.29	24.748
502.64	24.486
502.98	25.065
503.33	24.363
503.67	24.379
504.02	24.518
504.36	24.307
504.71	24.621
505.06	24.784
505.40	25.137
505.75	24.727
506.09	25.967
506.44	26.277
506.78	26.055
507.13	26.879
507.47	26.101
507.82	26.278
508.16	25.813
508.51	26.395
508.85	26.736
509.19	26.433
509.54	26.273
509.88	26.469
510.23	26.421
510.57	27.308
510.92	26.657
511.26	26.263
511.61	26.074
511.95	25.964
512.30	27.129
512.64	25.887
512.98	27.364
513.33	28.175
513.67	28.098
514.02	28.002
514.36	28.133
514.70	28.490
515.05	28.780
515.39	28.976
515.74	29.003
516.08	28.685
516.42	29.932
516.77	27.655
517.11	28.262
517.46	28.685
517.80	29.503
518.14	29.706
518.49	29.176
518.83	29.963
519.17	28.487
519.52	29.350
519.86	28.775
520.20	29.020
520.55	29.025
520.89	29.617
521.23	29.872
521.58	30.791
521.92	29.405
522.26	28.923
522.61	29.977
522.95	29.758
523.29	29.540
523.64	30.774
523.98	30.747
524.32	30.544
524.66	30.563
525.01	30.691
525.35	29.925
525.69	30.220
526.04	30.023
526.38	31.034
526.72	30.969
527.06	30.440
527.41	30.904
527.75	31.116
528.09	30.992
528.43	30.610
528.78	30.289
529.12	30.906
529.46	30.523
529.80	30.206
530.15	29.333
530.49	30.664
530.83	31.405
531.17	30.824
531.51	30.866
531.86	31.010
532.20	31.402
532.54	30.999
532.88	31.576
533.22	31.232
533.57	31.102
533.91	31.033
534.25	30.921
534.59	31.092
534.93	30.108
535.27	30.930
535.62	31.609
535.96	31.726
536.30	30.964
536.64	31.832
536.98	31.919
537.32	31.728
537.66	31.254
538.01	30.332
538.35	29.963
538.69	31.611
539.03	31.330
539.37	31.508
539.71	31.532
540.05	31.475
540.39	30.440
540.73	30.965
541.07	31.576
541.42	30.419
541.76	30.308
542.10	30.941
542.44	30.024
542.78	30.049
543.12	31.526
543.46	31.136
543.80	30.036
544.14	30.640
544.48	31.738
544.82	31.538
545.16	30.829
545.50	30.737
545.84	31.292
546.18	32.407
546.52	30.255
546.86	31.069
547.20	29.898
547.54	31.648
547.88	30.500
548.22	30.585
548.56	30.427
548.90	30.627
549.24	30.760
549.58	30.978
549.92	30.357
550.26	31.780
550.60	30.951
550.94	31.565
551.28	31.287
551.62	31.132
551.96	29.709
552.30	32.250
552.64	30.554
552.98	31.503
553.32	31.897
553.66	31.704
554.00	31.337
554.34	31.081
554.68	31.504
555.02	31.209
555.36	32.216
555.69	30.365
556.03	30.895
556.37	31.602
556.71	31.516
557.05	31.502
557.39	30.723
557.73	31.308
558.07	31.589
558.41	32.691
558.75	32.319
559.08	32.498
559.42	32.510
559.76	32.497
560.10	32.552
560.44	31.728
560.78	31.875
561.12	31.219
561.45	30.353
561.79	31.624
562.13	31.978
562.47	31.689
562.81	30.759
563.15	30.366
563.48	31.635
563.82	30.895
564.16	30.830
564.50	30.572
564.84	30.737
565.17	31.000
565.51	30.667
565.85	31.235
566.19	30.184
566.52	30.720
566.86	30.900
567.20	30.343
567.54	30.696
567.88	30.071
568.21	30.188
568.55	29.688
568.89	28.416
569.23	29.911
569.56	29.035
569.90	28.974
570.24	27.926
570.57	27.550
570.91	27.710
571.25	27.741
571.59	28.249
571.92	27.212
572.26	26.919
572.60	27.191
572.93	27.414
573.27	28.042
573.61	27.369
573.95	26.778
574.28	27.260
574.62	26.739
574.96	26.378
575.29	26.570
575.63	26.473
575.97	27.018
576.30	26.277
576.64	26.676
576.98	26.492
577.31	26.807
577.65	26.950
577.98	26.337
578.32	26.218
578.66	25.989
578.99	26.050
579.33	26.545
579.67	26.768
580.00	26.096
580.34	27.051
580.67	26.456
581.01	26.655
581.35	26.359
581.68	26.353
582.02	25.782
582.35	26.373
582.69	26.599
583.02	26.350
583.36	26.350
583.70	26.653
584.03	26.590
584.37	26.240
584.70	26.430
585.04	26.575
585.37	26.889
585.71	26.321
586.04	26.442
586.38	26.880
586.72	26.648
587.05	26.912
587.39	27.400
587.72	27.010
588.06	26.789
588.39	27.259
588.73	27.063
589.06	27.398
589.40	28.119
589.73	28.213
590.07	28.084
590.40	28.364
590.73	28.349
591.07	28.369
591.40	27.683
591.74	28.458
592.07	28.177
592.41	28.391
592.74	27.867
593.08	27.803
593.41	27.792
593.75	27.471
594.08	27.598
594.41	27.885
594.75	27.300
595.08	27.187
595.42	28.377
595.75	27.478
596.09	27.821
596.42	28.269
596.75	27.943
597.09	29.253
597.42	28.089
597.75	28.303
598.09	28.611
598.42	28.790
598.76	27.933
599.09	27.269
599.42	27.690
599.76	27.369
600.09	28.095
600.42	28.028
600.76	27.972
601.09	26.950
601.42	28.287
601.76	28.138
602.09	27.806
602.42	27.808
602.76	28.118
603.09	28.671
603.42	27.999
603.76	28.436
604.09	28.424
604.42	28.257
604.76	28.615
605.09	28.959
605.42	28.309
605.75	28.500
606.09	28.145
606.42	27.946
606.75	27.361
607.09	27.765
607.42	28.324
607.75	29.074
608.08	27.822
608.42	28.295
608.75	29.063
609.08	27.971
609.41	28.011
609.75	28.438
610.08	28.760
610.41	28.887
610.74	28.739
611.07	27.975
611.41	29.148
611.74	29.515
612.07	29.126
612.40	29.468
612.73	29.535
613.07	28.606
613.40	29.355
613.73	28.984
614.06	28.705
614.39	28.960
614.72	28.772
615.06	28.730
615.39	28.806
615.72	28.199
616.05	28.703
616.38	30.373
616.71	28.736
617.05	28.754
617.38	30.016
617.71	30.184
618.04	29.358
618.37	29.563
618.70	30.486
619.03	29.928
619.36	29.840
619.69	31.070
620.03	30.634
620.36	30.307
620.69	29.981
621.02	31.037
621.35	32.366
621.68	31.670
622.01	31.459
622.34	30.474
622.67	30.859
623.00	29.285
623.33	30.790
623.66	31.064
623.99	30.678
624.32	31.319
624.65	30.888
624.99	32.185
625.32	31.613
625.65	31.895
625.98	30.712
626.31	30.333
626.64	32.015
626.97	31.508
627.30	30.676
627.63	31.208
627.96	31.607
628.29	31.518
628.62	33.417
628.95	32.691
629.28	32.285
629.61	32.492
629.94	32.803
630.26	33.390
630.59	33.247
630.92	32.641
631.25	33.363
631.58	33.616
631.91	32.709
632.24	33.429
632.57	33.871
632.90	35.005
633.23	33.265
633.56	34.388
