SpectraSuite Data File
++++++++++++++++++++++++++++++++++++
Date: Thu May 14 14:50:38 PDT 2015
User: schluterlab
Dark Spectrum Present: Yes
Reference Spectrum Present: Yes
Number of Sampled Component Spectra: 1
Spectrometers: USB2E3373
Integration Time (usec): 3000 (USB2E3373)
Spectra Averaged: 3 (USB2E3373)
Boxcar Smoothing: 0 (USB2E3373)
Correct for Electrical Dark: No (USB2E3373)
Strobe/Lamp Enabled: No (USB2E3373)
Correct for Detector Non-linearity: No (USB2E3373)
Correct for Stray Light: No (USB2E3373)
Number of Pixels in Processed Spectrum: 2048
>>>>>Begin Processed Spectral Data<<<<<
178.53	0.000
178.91	114.286
179.29	-1300.000
179.67	-800.000
180.04	157.143
180.42	110.000
180.80	260.000
181.18	-700.000
181.56	-100.000
181.94	175.000
182.31	-250.000
182.69	300.000
183.07	-600.000
183.45	325.000
183.83	-183.333
184.20	-333.333
184.58	700.000
184.96	-175.000
185.34	-22.222
185.72	40.000
186.09	200.000
186.47	750.000
186.85	320.000
187.23	-133.333
187.61	-1400.000
187.98	180.000
188.36	325.000
188.74	-275.000
189.12	-166.667
189.49	-31.250
189.87	-187.500
190.25	22.222
190.63	-120.000
191.00	-100.000
191.38	0.000
191.76	-175.000
192.14	16.667
192.51	-50.000
192.89	166.667
193.27	0.000
193.65	-142.857
194.02	-1800.000
194.40	-14.286
194.78	142.857
195.15	0.000
195.53	-63.636
195.91	0.000
196.29	-25.000
196.66	-46.154
197.04	-700.000
197.42	-42.857
197.79	-500.000
198.17	-75.000
198.55	-128.571
198.92	122.222
199.30	-87.500
199.68	54.545
200.05	42.857
200.43	-500.000
200.81	257.143
201.18	0.000
201.56	177.778
201.94	0.000
202.31	266.667
202.69	-44.444
203.07	400.000
203.44	-100.000
203.82	-75.000
204.19	-25.000
204.57	-166.667
204.95	-125.000
205.32	-600.000
205.70	100.000
206.08	83.333
206.45	-133.333
206.83	360.000
207.20	-16.667
207.58	-240.000
207.96	-133.333
208.33	16.667
208.71	75.000
209.08	-83.333
209.46	0.000
209.84	300.000
210.21	500.000
210.59	200.000
210.96	433.333
211.34	-200.000
211.71	75.000
212.09	-500.000
212.46	0.000
212.84	700.000
213.22	-340.000
213.59	-100.000
213.97	20.000
214.34	66.667
214.72	166.667
215.09	-225.000
215.47	0.000
215.84	28.571
216.22	750.000
216.59	80.000
216.97	-100.000
217.34	-50.000
217.72	-75.000
218.09	-100.000
218.47	-275.000
218.84	0.000
219.22	40.000
219.59	-41.176
219.97	-20.000
220.34	650.000
220.72	22.222
221.09	61.538
221.47	-233.333
221.84	-50.000
222.22	-114.286
222.59	0.000
222.97	-62.500
223.34	-100.000
223.72	-900.000
224.09	-325.000
224.46	-150.000
224.84	80.000
225.21	-114.286
225.59	-275.000
225.96	-175.000
226.34	-7.692
226.71	183.333
227.08	-550.000
227.46	-66.667
227.83	-25.000
228.21	47.368
228.58	112.500
228.95	600.000
229.33	50.000
229.70	-50.000
230.08	10.526
230.45	150.000
230.82	-200.000
231.20	-28.571
231.57	-58.333
231.95	27.273
232.32	-27.273
232.69	40.000
233.07	225.000
233.44	-35.294
233.81	-20.000
234.19	-22.222
234.56	4.545
234.93	44.828
235.31	68.421
235.68	22.222
236.05	-20.000
236.43	80.769
236.80	52.000
237.17	11.111
237.55	21.212
237.92	20.000
238.29	25.806
238.67	18.182
239.04	16.667
239.41	11.905
239.79	26.087
240.16	14.815
240.53	4.348
240.91	13.725
241.28	18.033
241.65	41.791
242.02	35.135
242.40	23.077
242.77	28.000
243.14	12.195
243.51	19.737
243.89	24.359
244.26	30.693
244.63	33.333
245.00	28.037
245.38	26.316
245.75	28.319
246.12	34.921
246.49	34.884
246.87	38.571
247.24	32.450
247.61	30.263
247.98	36.913
248.36	38.889
248.73	31.902
249.10	31.148
249.47	36.318
249.84	38.743
250.22	32.642
250.59	30.000
250.96	26.818
251.33	36.224
251.70	32.051
252.08	37.083
252.45	34.426
252.82	32.645
253.19	36.719
253.56	39.544
253.94	36.538
254.31	32.576
254.68	42.308
255.05	37.134
255.42	32.993
255.79	36.570
256.16	38.079
256.54	34.437
256.91	35.738
257.28	37.049
257.65	33.439
258.02	35.693
258.39	33.618
258.76	37.615
259.14	39.655
259.51	37.464
259.88	33.711
260.25	38.056
260.62	40.274
260.99	35.246
261.36	39.678
261.73	36.605
262.10	37.637
262.47	40.214
262.85	38.384
263.22	37.143
263.59	35.263
263.96	38.875
264.33	35.038
264.70	40.494
265.07	40.334
265.44	38.095
265.81	34.491
266.18	38.776
266.55	38.393
266.92	39.180
267.29	39.387
267.66	35.698
268.03	35.590
268.40	34.238
268.77	35.991
269.14	35.463
269.51	35.746
269.88	41.803
270.25	34.608
270.62	38.186
270.99	38.586
271.36	37.228
271.73	35.167
272.10	37.475
272.47	38.477
272.84	35.341
273.21	34.469
273.58	35.887
273.95	35.000
274.32	36.122
274.69	36.170
275.06	37.546
275.43	35.675
275.80	36.155
276.17	35.741
276.54	34.888
276.91	37.030
277.28	36.709
277.65	35.907
278.02	35.110
278.39	38.587
278.76	34.974
279.13	37.234
279.50	36.598
279.87	33.095
280.23	34.683
280.60	35.254
280.97	34.046
281.34	38.200
281.71	36.717
282.08	33.721
282.45	33.388
282.82	33.595
283.19	33.279
283.56	34.590
283.92	36.336
284.29	35.703
284.66	33.826
285.03	34.776
285.40	35.240
285.77	32.508
286.14	35.878
286.51	32.877
286.87	33.807
287.24	32.831
287.61	32.885
287.98	32.779
288.35	31.953
288.72	30.917
289.08	33.529
289.45	31.361
289.82	32.078
290.19	31.322
290.56	31.972
290.93	32.668
291.29	31.956
291.66	31.405
292.03	30.529
292.40	32.109
292.77	30.054
293.13	30.311
293.50	29.566
293.87	28.993
294.24	29.733
294.60	28.951
294.97	27.517
295.34	28.681
295.71	27.869
296.08	28.682
296.44	28.554
296.81	28.867
297.18	28.767
297.55	25.472
297.91	27.639
298.28	28.199
298.65	25.922
299.02	27.155
299.38	26.888
299.75	25.818
300.12	26.273
300.48	26.728
300.85	26.547
301.22	27.517
301.59	27.169
301.95	24.746
302.32	26.556
302.69	25.411
303.05	24.701
303.42	26.829
303.79	24.375
304.15	25.237
304.52	25.581
304.89	25.026
305.25	24.431
305.62	25.392
305.99	26.289
306.35	24.798
306.72	26.577
307.09	25.178
307.45	27.433
307.82	24.924
308.19	25.631
308.55	25.265
308.92	26.095
309.29	24.521
309.65	24.854
310.02	24.752
310.38	24.705
310.75	25.631
311.12	25.216
311.48	26.197
311.85	26.116
312.22	25.901
312.58	26.291
312.95	25.430
313.31	25.565
313.68	27.839
314.05	27.191
314.41	25.774
314.78	26.431
315.14	27.223
315.51	28.070
315.87	27.453
316.24	27.215
316.61	28.952
316.97	27.330
317.34	26.896
317.70	28.035
318.07	29.189
318.43	28.061
318.80	29.348
319.16	28.755
319.53	28.535
319.89	28.659
320.26	29.537
320.62	29.699
320.99	30.102
321.35	31.701
321.72	30.977
322.08	31.199
322.45	31.256
322.81	31.769
323.18	31.770
323.54	32.931
323.91	34.342
324.27	33.993
324.64	34.173
325.00	34.163
325.37	37.101
325.73	37.107
326.10	37.388
326.46	37.541
326.83	40.512
327.19	39.528
327.56	39.526
327.92	39.575
328.29	39.758
328.65	41.876
329.01	41.624
329.38	43.639
329.74	43.322
330.11	41.952
330.47	43.471
330.84	44.014
331.20	43.333
331.56	43.501
331.93	44.100
332.29	45.763
332.66	43.023
333.02	43.802
333.38	43.540
333.75	44.360
334.11	45.038
334.48	44.307
334.84	46.984
335.20	45.004
335.57	46.880
335.93	45.702
336.29	45.424
336.66	45.837
337.02	45.652
337.38	46.173
337.75	46.281
338.11	45.500
338.47	44.334
338.84	45.770
339.20	44.735
339.56	45.387
339.93	45.731
340.29	43.478
340.65	43.471
341.02	44.533
341.38	44.705
341.74	45.521
342.11	45.374
342.47	44.797
342.83	47.424
343.20	45.135
343.56	46.512
343.92	46.277
344.28	45.781
344.65	45.581
345.01	45.320
345.37	46.034
345.73	45.596
346.10	44.618
346.46	45.411
346.82	44.644
347.19	44.996
347.55	44.917
347.91	45.542
348.27	45.144
348.63	44.402
349.00	43.550
349.36	45.576
349.72	44.568
350.08	44.131
350.45	45.551
350.81	44.570
351.17	45.789
351.53	44.276
351.89	45.103
352.26	44.925
352.62	44.552
352.98	44.504
353.34	43.615
353.70	45.378
354.07	44.188
354.43	44.343
354.79	44.727
355.15	44.003
355.51	43.640
355.87	44.577
356.24	45.019
356.60	44.124
356.96	45.441
357.32	44.015
357.68	44.436
358.04	43.862
358.40	44.403
358.77	46.199
359.13	43.944
359.49	45.204
359.85	44.598
360.21	44.907
360.57	43.719
360.93	43.441
361.29	45.333
361.66	45.692
362.02	45.233
362.38	44.765
362.74	44.623
363.10	44.911
363.46	45.845
363.82	44.886
364.18	45.602
364.54	44.744
364.90	44.950
365.26	46.069
365.62	44.600
365.98	46.086
366.35	45.034
366.71	46.803
367.07	45.399
367.43	44.649
367.79	45.720
368.15	46.689
368.51	45.805
368.87	44.873
369.23	45.467
369.59	45.697
369.95	46.450
370.31	45.577
370.67	45.805
371.03	45.152
371.39	45.265
371.75	45.873
372.11	45.257
372.47	44.956
372.83	47.120
373.19	45.297
373.55	45.122
373.91	46.694
374.27	45.408
374.63	46.211
374.99	46.485
375.35	46.948
375.71	46.065
376.07	46.030
376.42	47.040
376.78	47.732
377.14	45.477
377.50	46.426
377.86	46.305
378.22	47.665
378.58	47.503
378.94	47.359
379.30	48.213
379.66	48.442
380.02	47.894
380.38	49.251
380.74	47.944
381.09	48.258
381.45	47.784
381.81	49.005
382.17	48.515
382.53	48.596
382.89	48.251
383.25	49.824
383.61	49.132
383.97	48.999
384.32	49.581
384.68	48.318
385.04	50.549
385.40	51.562
385.76	50.645
386.12	49.910
386.48	49.824
386.83	51.013
387.19	49.710
387.55	49.589
387.91	49.201
388.27	51.328
388.62	50.573
388.98	49.521
389.34	50.913
389.70	50.843
390.06	50.681
390.42	50.060
390.77	49.910
391.13	50.411
391.49	51.449
391.85	50.485
392.20	51.542
392.56	51.034
392.92	51.200
393.28	51.907
393.64	50.726
393.99	52.644
394.35	50.935
394.71	51.617
395.07	50.599
395.42	51.685
395.78	52.102
396.14	50.683
396.50	51.841
396.85	50.626
397.21	50.473
397.57	51.001
397.92	52.119
398.28	51.711
398.64	52.288
399.00	50.366
399.35	50.995
399.71	51.685
400.07	50.477
400.42	51.630
400.78	51.273
401.14	51.850
401.49	51.052
401.85	51.047
402.21	52.144
402.57	51.702
402.92	52.660
403.28	49.239
403.63	50.477
403.99	49.584
404.35	50.881
404.70	50.992
405.06	50.598
405.42	51.054
405.77	50.491
406.13	50.567
406.49	51.126
406.84	51.191
407.20	50.811
407.55	50.757
407.91	50.409
408.27	48.881
408.62	50.494
408.98	49.275
409.34	49.384
409.69	51.174
410.05	51.290
410.40	49.710
410.76	49.972
411.11	51.023
411.47	51.413
411.83	50.676
412.18	51.506
412.54	50.622
412.89	50.291
413.25	50.395
413.60	49.914
413.96	50.000
414.31	49.802
414.67	50.507
415.03	50.092
415.38	50.189
415.74	50.336
416.09	50.648
416.45	48.716
416.80	48.776
417.16	50.319
417.51	49.440
417.87	49.724
418.22	50.659
418.58	49.876
418.93	50.349
419.29	50.247
419.64	49.340
420.00	49.733
420.35	50.309
420.71	50.718
421.06	49.799
421.42	50.573
421.77	49.381
422.12	49.419
422.48	49.872
422.83	50.164
423.19	50.133
423.54	50.111
423.90	49.917
424.25	49.600
424.61	49.885
424.96	50.137
425.31	49.894
425.67	49.973
426.02	50.913
426.38	49.828
426.73	49.609
427.09	49.942
427.44	49.372
427.79	49.309
428.15	49.144
428.50	49.775
428.85	49.196
429.21	49.468
429.56	48.815
429.92	50.319
430.27	50.554
430.62	50.708
430.98	48.500
431.33	49.120
431.68	49.138
432.04	50.229
432.39	48.741
432.74	49.486
433.10	49.919
433.45	49.275
433.80	50.000
434.16	49.019
434.51	50.308
434.86	52.497
435.22	50.903
435.57	51.002
435.92	50.640
436.28	49.716
436.63	51.229
436.98	48.792
437.34	50.395
437.69	49.697
438.04	48.757
438.39	49.856
438.75	49.419
439.10	50.740
439.45	49.693
439.81	50.339
440.16	49.383
440.51	48.941
440.86	48.138
441.22	48.982
441.57	50.681
441.92	49.321
442.27	50.354
442.63	50.373
442.98	50.961
443.33	50.763
443.68	49.554
444.03	50.800
444.39	50.208
444.74	50.689
445.09	49.975
445.44	49.789
445.79	50.096
446.15	50.154
446.50	49.612
446.85	50.049
447.20	50.822
447.55	50.680
447.91	49.267
448.26	48.943
448.61	49.894
448.96	51.019
449.31	48.887
449.66	49.837
450.02	49.736
450.37	50.453
450.72	49.623
451.07	51.025
451.42	50.433
451.77	49.250
452.12	51.524
452.47	49.257
452.83	50.676
453.18	49.971
453.53	49.627
453.88	49.365
454.23	50.565
454.58	50.784
454.93	49.697
455.28	50.813
455.63	50.483
455.98	51.844
456.34	48.881
456.69	49.971
457.04	48.936
457.39	50.388
457.74	50.336
458.09	50.686
458.44	50.808
458.79	49.201
459.14	49.974
459.49	50.481
459.84	50.997
460.19	49.028
460.54	50.767
460.89	50.185
461.24	49.770
461.59	50.360
461.94	49.230
462.29	50.896
462.64	49.065
462.99	49.780
463.34	49.189
463.69	49.297
464.04	50.584
464.39	48.655
464.74	49.544
465.09	50.058
465.44	50.268
465.79	49.603
466.14	49.036
466.49	49.368
466.84	50.744
467.19	49.942
467.54	48.296
467.89	48.966
468.24	49.529
468.59	49.508
468.94	48.252
469.29	48.770
469.64	49.142
469.99	49.522
470.34	48.267
470.68	49.077
471.03	50.753
471.38	48.790
471.73	48.960
472.08	49.556
472.43	48.344
472.78	49.055
473.13	50.253
473.48	49.124
473.83	48.926
474.17	48.710
474.52	48.888
474.87	48.948
475.22	50.197
475.57	49.013
475.92	49.079
476.27	49.042
476.61	48.910
476.96	49.583
477.31	48.663
477.66	49.265
478.01	49.212
478.36	48.903
478.70	49.754
479.05	49.693
479.40	48.963
479.75	49.472
480.10	48.934
480.45	48.861
480.79	49.524
481.14	49.770
481.49	48.751
481.84	49.391
482.19	48.903
482.53	49.716
482.88	49.446
483.23	49.755
483.58	48.996
483.92	48.094
484.27	48.137
484.62	49.092
484.97	48.523
485.31	47.694
485.66	46.746
486.01	48.901
486.36	50.559
486.70	52.617
487.05	52.932
487.40	50.638
487.75	50.025
488.09	48.436
488.44	47.380
488.79	47.218
489.13	46.669
489.48	47.029
489.83	47.123
490.17	47.995
490.52	47.578
490.87	47.970
491.22	47.747
491.56	47.568
491.91	47.754
492.26	47.642
492.60	47.311
492.95	47.477
493.30	46.974
493.64	48.357
493.99	48.070
494.34	47.692
494.68	46.895
495.03	49.207
495.37	48.735
495.72	47.619
496.07	47.940
496.41	47.405
496.76	48.749
497.11	48.238
497.45	48.295
497.80	48.290
498.14	46.939
498.49	47.381
498.84	47.943
499.18	48.088
499.53	48.386
499.87	47.956
500.22	47.907
500.56	47.638
500.91	47.048
501.26	48.909
501.60	47.459
501.95	48.849
502.29	48.398
502.64	47.661
502.98	46.549
503.33	47.689
503.67	47.623
504.02	47.504
504.36	48.838
504.71	48.048
505.06	47.249
505.40	47.578
505.75	46.448
506.09	47.284
506.44	47.772
506.78	48.303
507.13	47.165
507.47	48.271
507.82	46.733
508.16	47.610
508.51	46.695
508.85	46.953
509.19	47.324
509.54	47.550
509.88	46.867
510.23	48.810
510.57	48.478
510.92	47.944
511.26	47.523
511.61	46.789
511.95	47.047
512.30	47.021
512.64	46.677
512.98	47.524
513.33	47.732
513.67	47.629
514.02	48.237
514.36	46.957
514.70	47.031
515.05	47.550
515.39	46.037
515.74	48.568
516.08	46.540
516.42	47.619
516.77	48.055
517.11	47.035
517.46	47.243
517.80	47.461
518.14	48.368
518.49	47.777
518.83	46.088
519.17	46.796
519.52	46.751
519.86	46.410
520.20	47.125
520.55	47.043
520.89	46.509
521.23	46.845
521.58	47.627
521.92	47.365
522.26	47.251
522.61	46.644
522.95	46.367
523.29	47.644
523.64	46.357
523.98	47.233
524.32	47.450
524.66	47.809
525.01	46.433
525.35	45.663
525.69	46.114
526.04	45.235
526.38	46.552
526.72	45.732
527.06	46.979
527.41	45.948
527.75	47.506
528.09	46.104
528.43	46.359
528.78	46.532
529.12	45.929
529.46	45.700
529.80	46.625
530.15	46.841
530.49	47.094
530.83	46.576
531.17	46.177
531.51	46.330
531.86	46.935
532.20	46.463
532.54	46.738
532.88	45.515
533.22	46.671
533.57	47.201
533.91	46.352
534.25	47.371
534.59	46.897
534.93	47.708
535.27	46.085
535.62	46.617
535.96	46.833
536.30	47.239
536.64	46.847
536.98	47.909
537.32	45.679
537.66	47.037
538.01	45.498
538.35	45.554
538.69	46.334
539.03	46.781
539.37	46.584
539.71	46.967
540.05	47.182
540.39	46.822
540.73	44.991
541.07	46.536
541.42	45.009
541.76	45.196
542.10	45.296
542.44	46.102
542.78	46.715
543.12	46.067
543.46	46.520
543.80	45.743
544.14	45.422
544.48	47.104
544.82	47.516
545.16	45.617
545.50	46.435
545.84	46.234
546.18	46.605
546.52	45.924
546.86	45.975
547.20	46.183
547.54	46.629
547.88	45.750
548.22	46.491
548.56	46.518
548.90	46.209
549.24	46.444
549.58	46.751
549.92	45.344
550.26	46.731
550.60	45.310
550.94	45.408
551.28	46.337
551.62	47.170
551.96	46.149
552.30	46.718
552.64	46.111
552.98	46.101
553.32	47.138
553.66	48.039
554.00	47.352
554.34	45.882
554.68	45.126
555.02	46.912
555.36	46.351
555.69	45.163
556.03	47.163
556.37	46.433
556.71	46.417
557.05	46.326
557.39	46.516
557.73	46.830
558.07	45.695
558.41	46.312
558.75	45.842
559.08	46.764
559.42	45.816
559.76	45.319
560.10	46.015
560.44	46.108
560.78	47.937
561.12	46.798
561.45	48.418
561.79	46.886
562.13	46.211
562.47	46.424
562.81	46.203
563.15	46.086
563.48	46.924
563.82	47.340
564.16	46.093
564.50	45.709
564.84	45.900
565.17	47.176
565.51	46.548
565.85	46.437
566.19	46.256
566.52	47.923
566.86	46.633
567.20	46.275
567.54	48.168
567.88	48.165
568.21	48.123
568.55	48.969
568.89	48.207
569.23	47.698
569.56	48.105
569.90	49.323
570.24	49.309
570.57	48.877
570.91	48.806
571.25	48.742
571.59	48.594
571.92	48.801
572.26	48.280
572.60	48.512
572.93	48.483
573.27	48.609
573.61	47.750
573.95	48.216
574.28	48.610
574.62	48.977
574.96	49.007
575.29	48.072
575.63	48.164
575.97	48.263
576.30	47.594
576.64	48.413
576.98	48.633
577.31	48.642
577.65	49.360
577.98	49.812
578.32	49.439
578.66	49.095
578.99	48.351
579.33	48.466
579.67	48.119
580.00	48.191
580.34	47.731
580.67	48.720
581.01	48.269
581.35	48.704
581.68	49.193
582.02	49.414
582.35	50.115
582.69	50.188
583.02	49.299
583.36	48.675
583.70	48.284
584.03	46.940
584.37	47.050
584.70	47.604
585.04	47.338
585.37	47.658
585.71	48.846
586.04	48.789
586.38	49.141
586.72	47.606
587.05	48.913
587.39	49.065
587.72	49.258
588.06	48.839
588.39	48.245
588.73	47.910
589.06	48.589
589.40	48.525
589.73	47.461
590.07	48.574
590.40	47.904
590.73	47.685
591.07	48.250
591.40	47.395
591.74	47.695
592.07	48.315
592.41	47.634
592.74	48.349
593.08	49.745
593.41	50.073
593.75	50.144
594.08	49.924
594.41	48.878
594.75	48.954
595.08	48.654
595.42	48.377
595.75	48.725
596.09	49.339
596.42	48.119
596.75	47.974
597.09	48.202
597.42	47.874
597.75	47.158
598.09	47.698
598.42	48.452
598.76	47.688
599.09	48.202
599.42	48.843
599.76	47.970
600.09	48.882
600.42	48.582
600.76	48.613
601.09	48.490
601.42	47.854
601.76	48.103
602.09	47.856
602.42	47.219
602.76	47.306
603.09	47.871
603.42	48.049
603.76	48.802
604.09	48.758
604.42	48.220
604.76	47.184
605.09	47.308
605.42	47.727
605.75	48.077
606.09	48.078
606.42	47.829
606.75	47.714
607.09	47.389
607.42	47.861
607.75	48.027
608.08	48.264
608.42	47.924
608.75	46.932
609.08	46.392
609.41	46.978
609.75	47.768
610.08	47.801
610.41	47.749
610.74	47.521
611.07	48.313
611.41	48.789
611.74	48.268
612.07	49.135
612.40	48.146
612.73	47.971
613.07	48.460
613.40	47.498
613.73	48.098
614.06	47.399
614.39	47.230
614.72	46.822
615.06	47.594
615.39	47.124
615.72	47.915
616.05	47.596
616.38	48.335
616.71	47.544
617.05	46.006
617.38	46.495
617.71	47.624
618.04	47.545
618.37	47.541
618.70	47.907
619.03	47.133
619.36	45.931
619.69	46.060
620.03	46.139
620.36	45.460
620.69	47.748
621.02	47.966
621.35	45.791
621.68	47.361
622.01	47.972
622.34	45.816
622.67	47.148
623.00	46.694
623.33	47.512
623.66	48.184
623.99	47.268
624.32	47.498
624.65	47.297
624.99	48.440
625.32	47.551
625.65	48.685
625.98	45.898
626.31	46.775
626.64	45.421
626.97	46.662
627.30	45.482
627.63	44.861
627.96	46.547
628.29	47.082
628.62	45.928
628.95	46.976
629.28	45.879
629.61	46.296
629.94	45.523
630.26	46.186
630.59	46.200
630.92	45.714
631.25	46.869
631.58	47.269
631.91	45.736
632.24	46.398
632.57	44.592
632.90	46.038
633.23	44.694
