SpectraSuite Data File
++++++++++++++++++++++++++++++++++++
Date: Thu May 14 14:31:22 PDT 2015
User: schluterlab
Dark Spectrum Present: Yes
Reference Spectrum Present: Yes
Number of Sampled Component Spectra: 1
Spectrometers: USB2E3373
Integration Time (usec): 3000 (USB2E3373)
Spectra Averaged: 3 (USB2E3373)
Boxcar Smoothing: 0 (USB2E3373)
Correct for Electrical Dark: No (USB2E3373)
Strobe/Lamp Enabled: No (USB2E3373)
Correct for Detector Non-linearity: No (USB2E3373)
Correct for Stray Light: No (USB2E3373)
Number of Pixels in Processed Spectrum: 2048
>>>>>Begin Processed Spectral Data<<<<<
178.53	0.000
178.91	-185.714
179.29	100.000
179.67	900.000
180.04	-0.000
180.42	-210.000
180.80	-200.000
181.18	1700.000
181.56	1900.000
181.94	-450.000
182.31	525.000
182.69	-333.333
183.07	1050.000
183.45	-375.000
183.83	183.333
184.20	333.333
184.58	-1700.000
184.96	325.000
185.34	211.111
185.72	520.000
186.09	-22.222
186.47	-750.000
186.85	-160.000
187.23	144.444
187.61	700.000
187.98	-380.000
188.36	-325.000
188.74	625.000
189.12	733.333
189.49	143.750
189.87	137.500
190.25	144.444
190.63	300.000
191.00	133.333
191.38	0.000
191.76	50.000
192.14	416.667
192.51	-700.000
192.89	416.667
193.27	0.000
193.65	228.571
194.02	900.000
194.40	285.714
194.78	-242.857
195.15	0.000
195.53	163.636
195.91	0.000
196.29	675.000
196.66	130.769
197.04	1100.000
197.42	185.714
197.79	1200.000
198.17	237.500
198.55	300.000
198.92	277.778
199.30	125.000
199.68	172.727
200.05	185.714
200.43	550.000
200.81	-100.000
201.18	0.000
201.56	-55.556
201.94	0.000
202.31	-533.333
202.69	300.000
203.07	-2000.000
203.44	222.222
203.82	450.000
204.19	125.000
204.57	250.000
204.95	137.500
205.32	2000.000
205.70	-525.000
206.08	316.667
206.45	350.000
206.83	-60.000
207.20	250.000
207.58	200.000
207.96	266.667
208.33	483.333
208.71	-50.000
209.08	283.333
209.46	0.000
209.84	-133.333
210.21	-850.000
210.59	-1250.000
210.96	-533.333
211.34	525.000
211.71	150.000
212.09	900.000
212.46	0.000
212.84	-100.000
213.22	240.000
213.59	375.000
213.97	200.000
214.34	366.667
214.72	-183.333
215.09	100.000
215.47	0.000
215.84	-300.000
216.22	-550.000
216.59	320.000
216.97	340.000
217.34	400.000
217.72	200.000
218.09	325.000
218.47	650.000
218.84	0.000
219.22	-440.000
219.59	141.176
219.97	60.000
220.34	-750.000
220.72	166.667
221.09	169.231
221.47	533.333
221.84	160.000
222.22	185.714
222.59	0.000
222.97	275.000
223.34	100.000
223.72	1700.000
224.09	350.000
224.46	500.000
224.84	560.000
225.21	271.429
225.59	650.000
225.96	300.000
226.34	88.462
226.71	-100.000
227.08	950.000
227.46	193.333
227.83	450.000
228.21	126.316
228.58	-112.500
228.95	-550.000
229.33	150.000
229.70	170.000
230.08	173.684
230.45	-160.000
230.82	533.333
231.20	157.143
231.57	183.333
231.95	154.545
232.32	172.727
232.69	95.000
233.07	750.000
233.44	123.529
233.81	130.000
234.19	155.556
234.56	136.364
234.93	89.655
235.31	110.526
235.68	105.556
236.05	70.000
236.43	119.231
236.80	120.000
237.17	92.593
237.55	48.485
237.92	220.000
238.29	103.226
238.67	77.273
239.04	75.000
239.41	76.190
239.79	71.739
240.16	46.296
240.53	39.130
240.91	43.137
241.28	47.541
241.65	62.687
242.02	70.270
242.40	44.615
242.77	61.333
243.14	45.122
243.51	43.421
243.89	47.436
244.26	44.554
244.63	43.137
245.00	46.729
245.38	49.123
245.75	25.664
246.12	41.270
246.49	38.760
246.87	47.857
247.24	50.331
247.61	44.079
247.98	36.913
248.36	34.568
248.73	34.356
249.10	37.705
249.47	40.299
249.84	36.126
250.22	30.052
250.59	42.222
250.96	35.455
251.33	39.796
251.70	35.470
252.08	34.167
252.45	34.426
252.82	32.645
253.19	35.547
253.56	34.981
253.94	34.615
254.31	32.197
254.68	35.664
255.05	36.808
255.42	32.313
255.79	30.744
256.16	30.464
256.54	32.119
256.91	36.066
257.28	31.803
257.65	31.210
258.02	29.204
258.39	32.764
258.76	37.615
259.14	33.046
259.51	34.582
259.88	31.445
260.25	30.000
260.62	35.068
260.99	33.880
261.36	33.244
261.73	29.443
262.10	31.868
262.47	32.172
262.85	34.848
263.22	27.792
263.59	30.526
263.96	34.015
264.33	32.225
264.70	32.593
265.07	31.742
265.44	31.973
265.81	27.778
266.18	32.653
266.55	29.464
266.92	30.979
267.29	31.291
267.66	31.707
268.03	31.659
268.40	29.436
268.77	28.018
269.14	27.313
269.51	30.702
269.88	31.557
270.25	31.590
270.62	29.536
270.99	32.929
271.36	29.505
271.73	32.024
272.10	30.060
272.47	32.064
272.84	28.313
273.21	30.261
273.58	31.048
273.95	29.038
274.32	28.517
274.69	30.368
275.06	31.319
275.43	27.542
275.80	27.513
276.17	29.074
276.54	28.545
276.91	26.118
277.28	26.040
277.65	30.341
278.02	25.735
278.39	28.804
278.76	29.350
279.13	27.837
279.50	29.553
279.87	28.265
280.23	26.408
280.60	29.492
280.97	28.947
281.34	26.486
281.71	31.134
282.08	27.907
282.45	27.496
282.82	28.885
283.19	26.817
283.56	27.213
283.92	28.078
284.29	27.330
284.66	27.915
285.03	26.603
285.40	26.584
285.77	27.554
286.14	25.802
286.51	29.072
286.87	26.066
287.24	27.861
287.61	27.205
287.98	27.492
288.35	29.438
288.72	27.811
289.08	27.233
289.45	26.331
289.82	26.355
290.19	28.448
290.56	26.479
290.93	26.819
291.29	25.895
291.66	24.931
292.03	25.102
292.40	27.075
292.77	25.876
293.13	24.763
293.50	24.967
293.87	25.638
294.24	25.067
294.60	24.905
294.97	24.698
295.34	26.761
295.71	22.951
296.08	25.840
296.44	23.407
296.81	23.873
297.18	25.031
297.55	23.939
297.91	24.199
298.28	23.697
298.65	24.376
299.02	23.967
299.38	24.371
299.75	25.584
300.12	23.495
300.48	24.885
300.85	25.084
301.22	24.720
301.59	25.000
301.95	24.633
302.32	25.778
302.69	23.658
303.05	26.115
303.42	24.501
303.79	25.417
304.15	25.868
304.52	24.630
304.89	25.340
305.25	24.741
305.62	24.556
305.99	24.536
306.35	25.101
306.72	25.129
307.09	24.873
307.45	25.466
307.82	25.530
308.19	24.924
308.55	25.940
308.92	25.511
309.29	26.149
309.65	25.828
310.02	26.931
310.38	25.591
310.75	26.019
311.12	27.325
311.48	26.197
311.85	25.926
312.22	27.514
312.58	27.324
312.95	26.195
313.31	28.184
313.68	27.839
314.05	29.178
314.41	28.415
314.78	26.885
315.14	28.857
315.51	29.363
315.87	29.343
316.24	28.858
316.61	29.485
316.97	28.054
317.34	29.189
317.70	30.568
318.07	29.982
318.43	27.806
318.80	30.184
319.16	30.129
319.53	27.678
319.89	28.309
320.26	30.338
320.62	29.078
320.99	32.041
321.35	32.070
321.72	30.977
322.08	30.568
322.45	29.268
322.81	33.032
323.18	31.947
323.54	32.759
323.91	33.808
324.27	33.305
324.64	34.257
325.00	33.085
325.37	34.234
325.73	35.124
326.10	35.118
326.46	35.912
326.83	36.589
327.19	34.961
327.56	36.047
327.92	36.113
328.29	36.613
328.65	38.023
329.01	37.648
329.38	38.163
329.74	38.870
330.11	39.726
330.47	39.680
330.84	39.879
331.20	39.917
331.56	39.688
331.93	41.172
332.29	40.847
332.66	40.864
333.02	41.206
333.38	40.604
333.75	39.226
334.11	40.701
334.48	43.317
334.84	41.631
335.20	40.638
335.57	41.990
335.93	41.818
336.29	39.517
336.66	41.716
337.02	41.555
337.38	42.687
337.75	41.405
338.11	40.622
338.47	42.680
338.84	41.624
339.20	41.281
339.56	40.774
339.93	40.805
340.29	40.821
340.65	40.714
341.02	41.500
341.38	42.684
341.74	41.324
342.11	41.352
342.47	40.111
342.83	41.868
343.20	42.518
343.56	42.021
343.92	42.274
344.28	41.016
344.65	42.946
345.01	41.576
345.37	42.068
345.73	40.920
346.10	42.044
346.46	40.427
346.82	41.873
347.19	41.482
347.55	42.413
347.91	41.976
348.27	40.212
348.63	41.051
349.00	42.133
349.36	40.892
349.72	40.402
350.08	42.273
350.45	40.684
350.81	41.554
351.17	40.602
351.53	42.381
351.89	41.154
352.26	40.970
352.62	41.716
352.98	42.366
353.34	40.478
353.70	42.219
354.07	41.654
354.43	42.141
354.79	42.932
355.15	40.912
355.51	41.374
355.87	40.763
356.24	43.498
356.60	40.724
356.96	42.105
357.32	41.264
357.68	41.581
358.04	41.766
358.40	43.657
358.77	41.301
359.13	41.950
359.49	42.454
359.85	43.147
360.21	41.535
360.57	41.350
360.93	42.384
361.29	41.333
361.66	43.447
362.02	43.493
362.38	43.219
362.74	43.087
363.10	42.641
363.46	43.006
363.82	43.111
364.18	42.294
364.54	43.707
364.90	43.344
365.26	42.621
365.62	43.467
365.98	42.682
366.35	43.423
366.71	43.537
367.07	43.099
367.43	43.007
367.79	43.796
368.15	43.746
368.51	43.572
368.87	42.782
369.23	43.067
369.59	43.784
369.95	43.272
370.31	44.294
370.67	44.429
371.03	44.529
371.39	44.258
371.75	44.223
372.11	44.580
372.47	43.670
372.83	44.437
373.19	42.829
373.55	43.293
373.91	44.104
374.27	45.343
374.63	45.873
374.99	44.363
375.35	44.610
375.71	44.710
376.07	44.351
376.42	44.395
376.78	43.567
377.14	44.167
377.50	44.908
377.86	44.520
378.22	45.269
378.58	44.887
378.94	45.246
379.30	44.171
379.66	45.620
380.02	45.874
380.38	46.544
380.74	45.296
381.09	46.051
381.45	45.568
381.81	46.956
382.17	46.021
382.53	45.380
382.89	44.300
383.25	46.542
383.61	45.023
383.97	45.936
384.32	46.292
384.68	45.070
385.04	45.460
385.40	45.197
385.76	46.542
386.12	45.661
386.48	46.000
386.83	46.186
387.19	46.813
387.55	45.246
387.91	46.119
388.27	45.901
388.62	45.876
388.98	45.798
389.34	45.905
389.70	45.497
390.06	46.300
390.42	45.181
390.77	46.478
391.13	45.892
391.49	47.041
391.85	45.152
392.20	45.967
392.56	45.481
392.92	45.038
393.28	45.716
393.64	44.302
393.99	46.310
394.35	45.210
394.71	45.928
395.07	45.689
395.42	45.231
395.78	45.155
396.14	45.157
396.50	46.318
396.85	45.259
397.21	45.030
397.57	46.408
397.92	44.616
398.28	44.867
398.64	45.366
399.00	45.654
399.35	43.874
399.71	44.293
400.07	45.536
400.42	45.867
400.78	45.428
401.14	44.565
401.49	45.537
401.85	45.174
402.21	45.365
402.57	45.892
402.92	44.622
403.28	45.316
403.63	44.749
403.99	43.943
404.35	44.457
404.70	44.589
405.06	44.076
405.42	44.321
405.77	45.093
406.13	43.922
406.49	45.383
406.84	44.543
407.20	43.935
407.55	44.397
407.91	44.437
408.27	44.876
408.62	45.724
408.98	44.515
409.34	43.636
409.69	45.365
410.05	43.669
410.40	44.780
410.76	42.793
411.11	44.477
411.47	44.717
411.83	44.209
412.18	45.843
412.54	44.102
412.89	44.063
413.25	44.752
413.60	45.204
413.96	44.872
414.31	43.626
414.67	43.888
415.03	44.862
415.38	46.154
415.74	44.411
416.09	43.985
416.45	43.957
416.80	44.553
417.16	44.636
417.51	44.956
417.87	45.923
418.22	45.389
418.58	45.229
418.93	44.296
419.29	45.623
419.64	45.138
420.00	45.223
420.35	46.322
420.71	45.146
421.06	45.428
421.42	46.732
421.77	44.965
422.12	46.036
422.48	46.083
422.83	47.207
423.19	46.419
423.54	46.737
423.90	47.653
424.25	48.000
424.61	46.326
424.96	47.611
425.31	47.452
425.67	47.128
426.02	48.589
426.38	47.704
426.73	47.656
427.09	50.577
427.44	48.990
427.79	49.198
428.15	48.973
428.50	49.382
428.85	48.852
429.21	50.319
429.56	49.062
429.92	48.845
430.27	49.494
430.62	49.585
430.98	51.008
431.33	49.120
431.68	48.898
432.04	50.533
432.39	50.348
432.74	51.712
433.10	51.974
433.45	51.226
433.80	51.878
434.16	51.911
434.51	51.542
434.86	51.900
435.22	52.922
435.57	53.420
435.92	53.422
436.28	54.323
436.63	53.577
436.98	53.301
437.34	53.382
437.69	53.550
438.04	52.935
438.39	53.935
438.75	54.012
439.10	54.070
439.45	53.717
439.81	54.633
440.16	54.638
440.51	55.351
440.86	54.919
441.22	54.984
441.57	55.975
441.92	53.977
442.27	55.253
442.63	55.042
442.98	55.069
443.33	56.023
443.68	56.591
444.03	56.679
444.39	56.172
444.74	57.172
445.09	55.246
445.44	57.165
445.79	56.178
446.15	56.423
446.50	57.261
446.85	56.907
447.20	57.495
447.55	57.374
447.91	57.120
448.26	57.082
448.61	58.608
448.96	58.476
449.31	58.059
449.66	57.734
450.02	58.703
450.37	59.137
450.72	59.903
451.07	58.200
451.42	59.388
451.77	58.644
452.12	60.384
452.47	58.942
452.83	61.374
453.18	59.078
453.53	59.391
453.88	58.310
454.23	59.548
454.58	60.360
454.93	60.740
455.28	61.349
455.63	59.352
455.98	60.615
456.34	60.247
456.69	60.788
457.04	61.052
457.39	61.419
457.74	61.801
458.09	60.351
458.44	60.937
458.79	60.134
459.14	60.671
459.49	62.479
459.84	61.228
460.19	60.633
460.54	62.237
460.89	62.361
461.24	62.356
461.59	62.147
461.94	60.582
462.29	63.270
462.64	61.557
462.99	62.524
463.34	63.011
463.69	61.430
464.04	62.813
464.39	62.276
464.74	62.258
465.09	61.707
465.44	62.661
465.79	61.766
466.14	61.803
466.49	61.474
466.84	64.022
467.19	62.890
467.54	62.691
467.89	62.931
468.24	62.382
468.59	61.494
468.94	62.471
469.29	62.687
469.64	62.937
469.99	63.607
470.34	64.975
470.68	64.525
471.03	64.571
471.38	65.991
471.73	66.190
472.08	65.355
472.43	64.479
472.78	63.476
473.13	64.539
473.48	64.471
473.83	64.364
474.17	64.889
474.52	66.446
474.87	63.732
475.22	64.451
475.57	64.019
475.92	63.265
476.27	64.963
476.61	63.915
476.96	64.390
477.31	64.554
477.66	65.058
478.01	64.870
478.36	64.058
478.70	64.828
479.05	65.235
479.40	65.597
479.75	64.313
480.10	63.951
480.45	64.768
480.79	65.215
481.14	64.108
481.49	63.925
481.84	64.665
482.19	64.946
482.53	65.413
482.88	65.397
483.23	64.873
483.58	64.629
483.92	64.450
484.27	64.564
484.62	64.563
484.97	64.580
485.31	64.942
485.66	62.382
486.01	60.388
486.36	59.804
486.70	60.581
487.05	61.866
487.40	62.689
487.75	64.758
488.09	65.850
488.44	64.797
488.79	66.374
489.13	65.315
489.48	66.757
489.83	65.553
490.17	65.654
490.52	64.860
490.87	65.440
491.22	66.551
491.56	65.700
491.91	65.940
492.26	66.854
492.60	65.894
492.95	65.423
493.30	66.921
493.64	66.929
493.99	65.746
494.34	66.202
494.68	65.824
495.03	66.608
495.37	66.534
495.72	66.395
496.07	66.126
496.41	65.937
496.76	65.221
497.11	66.582
497.45	67.717
497.80	66.371
498.14	67.211
498.49	67.969
498.84	67.505
499.18	66.892
499.53	66.682
499.87	66.066
500.22	66.474
500.56	67.206
500.91	68.467
501.26	68.955
501.60	66.284
501.95	67.217
502.29	67.091
502.64	67.206
502.98	66.609
503.33	66.479
503.67	66.812
504.02	67.557
504.36	67.560
504.71	68.121
505.06	67.622
505.40	68.282
505.75	67.805
506.09	67.495
506.44	68.849
506.78	68.899
507.13	67.174
507.47	67.835
507.82	67.614
508.16	68.308
508.51	66.807
508.85	68.021
509.19	68.167
509.54	68.828
509.88	68.528
510.23	68.917
510.57	69.502
510.92	67.876
511.26	66.907
511.61	67.648
511.95	67.350
512.30	68.439
512.64	68.466
512.98	68.584
513.33	69.153
513.67	68.587
514.02	70.567
514.36	68.645
514.70	69.062
515.05	69.604
515.39	69.134
515.74	69.936
516.08	67.934
516.42	69.492
516.77	68.980
517.11	69.005
517.46	69.194
517.80	70.069
518.14	70.620
518.49	70.499
518.83	68.175
519.17	69.575
519.52	68.816
519.86	68.796
520.20	69.329
520.55	67.744
520.89	69.144
521.23	69.626
521.58	69.605
521.92	68.725
522.26	68.729
522.61	69.850
522.95	70.069
523.29	69.828
523.64	68.778
523.98	69.709
524.32	71.691
524.66	69.266
525.01	67.497
525.35	69.615
525.69	67.749
526.04	67.853
526.38	69.885
526.72	68.454
527.06	69.208
527.41	69.038
527.75	69.299
528.09	68.182
528.43	67.022
528.78	66.069
529.12	67.890
529.46	67.173
529.80	68.650
530.15	68.290
530.49	68.505
530.83	66.883
531.17	68.160
531.51	68.712
531.86	67.548
532.20	68.841
532.54	68.402
532.88	67.758
533.22	67.531
533.57	65.609
533.91	66.105
534.25	66.309
534.59	66.724
534.93	67.346
535.27	66.535
535.62	67.197
535.96	67.345
536.30	65.570
536.64	68.048
536.98	67.466
537.32	67.593
537.66	69.370
538.01	66.767
538.35	67.418
538.69	66.226
539.03	66.217
539.37	65.724
539.71	66.366
540.05	66.127
540.39	66.809
540.73	65.392
541.07	65.788
541.42	65.328
541.76	64.828
542.10	65.259
542.44	64.921
542.78	65.937
543.12	66.269
543.46	65.385
543.80	66.667
544.14	65.589
544.48	65.189
544.82	65.171
545.16	65.414
545.50	65.309
545.84	65.034
546.18	66.914
546.52	66.369
546.86	65.283
547.20	66.667
547.54	64.669
547.88	65.341
548.22	66.550
548.56	65.418
548.90	66.090
549.24	66.201
549.58	66.372
549.92	66.199
550.26	67.832
550.60	66.369
550.94	66.688
551.28	65.743
551.62	68.059
551.96	67.702
552.30	67.304
552.64	66.895
552.98	67.498
553.32	67.588
553.66	67.395
554.00	66.520
554.34	66.538
554.68	66.688
555.02	68.068
555.36	68.902
555.69	67.713
556.03	66.393
556.37	67.021
556.71	68.865
557.05	67.348
557.39	68.480
557.73	67.107
558.07	67.417
558.41	68.306
558.75	67.951
559.08	68.406
559.42	67.901
559.76	67.232
560.10	68.051
560.44	67.744
560.78	66.938
561.12	67.241
561.45	66.971
561.79	67.766
562.13	67.036
562.47	66.276
562.81	66.899
563.15	66.982
563.48	66.625
563.82	66.203
564.16	65.354
564.50	66.627
564.84	65.605
565.17	65.353
565.51	64.672
565.85	66.271
566.19	63.479
566.52	65.711
566.86	66.327
567.20	64.763
567.54	64.365
567.88	64.169
568.21	64.476
568.55	64.029
568.89	62.914
569.23	62.146
569.56	61.704
569.90	61.155
570.24	60.573
570.57	60.423
570.91	58.941
571.25	59.097
571.59	58.447
571.92	58.475
572.26	58.232
572.60	58.695
572.93	58.503
573.27	58.865
573.61	58.576
573.95	58.558
574.28	57.113
574.62	57.231
574.96	56.264
575.29	56.576
575.63	56.988
575.97	57.269
576.30	57.143
576.64	57.671
576.98	57.654
577.31	57.096
577.65	57.326
577.98	56.194
578.32	55.120
578.66	55.861
578.99	55.990
579.33	57.448
579.67	57.865
580.00	57.361
580.34	57.286
580.67	57.392
581.01	57.010
581.35	56.595
581.68	56.007
582.02	55.456
582.35	56.149
582.69	56.295
583.02	56.644
583.36	57.404
583.70	58.578
584.03	58.723
584.37	59.442
584.70	58.729
585.04	58.312
585.37	58.241
585.71	57.217
586.04	58.278
586.38	58.171
586.72	57.909
587.05	58.941
587.39	58.888
587.72	59.761
588.06	58.728
588.39	59.846
588.73	59.180
589.06	60.271
589.40	61.217
589.73	60.315
590.07	61.406
590.40	61.562
590.73	61.223
591.07	62.100
591.40	61.742
591.74	62.560
592.07	63.256
592.41	62.934
592.74	60.348
593.08	60.828
593.41	60.397
593.75	59.885
594.08	60.497
594.41	60.705
594.75	61.375
595.08	61.406
595.42	61.136
595.75	60.995
596.09	61.810
596.42	62.164
596.75	62.910
597.09	63.515
597.42	61.979
597.75	61.976
598.09	62.302
598.42	63.008
598.76	61.177
599.09	60.199
599.42	59.772
599.76	60.152
600.09	60.394
600.42	59.159
600.76	60.502
601.09	60.604
601.42	59.664
601.76	61.448
602.09	61.079
602.42	60.996
602.76	61.439
603.09	62.151
603.42	61.777
603.76	60.359
604.09	61.604
604.42	61.174
604.76	61.568
605.09	62.585
605.42	61.523
605.75	60.923
606.09	61.254
606.42	59.650
606.75	60.457
607.09	60.177
607.42	60.963
607.75	62.212
608.08	60.260
608.42	60.137
608.75	61.774
609.08	60.739
609.41	61.712
609.75	61.473
610.08	63.281
610.41	61.512
610.74	60.966
611.07	61.989
611.41	63.094
611.74	63.141
612.07	63.347
612.40	63.260
612.73	63.814
613.07	62.641
613.40	63.474
613.73	62.687
614.06	62.659
614.39	61.565
614.72	60.747
615.06	61.068
615.39	61.721
615.72	61.801
616.05	61.535
616.38	63.471
616.71	61.912
617.05	62.354
617.38	64.152
617.71	63.175
618.04	63.033
618.37	63.825
618.70	64.649
619.03	63.381
619.36	64.180
619.69	65.279
620.03	65.097
620.36	64.110
620.69	64.837
621.02	65.486
621.35	66.909
621.68	66.884
622.01	66.335
622.34	65.760
622.67	64.261
623.00	63.833
623.33	65.295
623.66	64.786
623.99	63.989
624.32	66.277
624.65	63.707
624.99	65.540
625.32	63.945
625.65	64.869
625.98	65.288
626.31	64.706
626.64	66.300
626.97	66.917
627.30	65.680
627.63	65.866
627.96	66.517
628.29	64.903
628.62	66.751
628.95	68.712
629.28	68.479
629.61	66.162
629.94	66.778
630.26	67.203
630.59	66.494
630.92	66.753
631.25	68.873
631.58	69.962
631.91	67.666
632.24	68.492
632.57	68.501
632.90	69.107
