SpectraSuite Data File
++++++++++++++++++++++++++++++++++++
Date: Thu May 14 15:18:22 PDT 2015
User: schluterlab
Dark Spectrum Present: Yes
Reference Spectrum Present: Yes
Number of Sampled Component Spectra: 1
Spectrometers: USB2E3373
Integration Time (usec): 3000 (USB2E3373)
Spectra Averaged: 3 (USB2E3373)
Boxcar Smoothing: 0 (USB2E3373)
Correct for Electrical Dark: No (USB2E3373)
Strobe/Lamp Enabled: No (USB2E3373)
Correct for Detector Non-linearity: No (USB2E3373)
Correct for Stray Light: No (USB2E3373)
Number of Pixels in Processed Spectrum: 2048
>>>>>Begin Processed Spectral Data<<<<<
178.53	0.000
178.91	557.143
179.29	-4800.000
179.67	-4600.000
180.04	392.857
180.42	400.000
180.80	980.000
181.18	-4700.000
181.56	-3500.000
181.94	900.000
182.31	-925.000
182.69	1466.667
183.07	-1900.000
183.45	1175.000
183.83	-750.000
184.20	-1266.667
184.58	3400.000
184.96	-950.000
185.34	-555.556
185.72	-620.000
186.09	588.889
186.47	2400.000
186.85	900.000
187.23	-533.333
187.61	-4200.000
187.98	880.000
188.36	1025.000
188.74	-925.000
189.12	-1200.000
189.49	-181.250
189.87	-550.000
190.25	-455.556
190.63	-720.000
191.00	-522.222
191.38	0.000
191.76	-1075.000
192.14	-650.000
192.51	2150.000
192.89	-550.000
193.27	0.000
193.65	-528.571
194.02	-4000.000
194.40	-600.000
194.78	700.000
195.15	0.000
195.53	-354.545
195.91	0.000
196.29	-1000.000
196.66	-307.692
197.04	-3900.000
197.42	-557.143
197.79	-1900.000
198.17	-500.000
198.55	-514.286
198.92	-388.889
199.30	-487.500
199.68	-336.364
200.05	-235.714
200.43	-2050.000
200.81	742.857
201.18	0.000
201.56	566.667
201.94	0.000
202.31	1533.333
202.69	-566.667
203.07	4200.000
203.44	-455.556
203.82	-1150.000
204.19	-333.333
204.57	-633.333
204.95	-525.000
205.32	-5100.000
205.70	875.000
206.08	-566.667
206.45	-700.000
206.83	1000.000
207.20	-533.333
207.58	-980.000
207.96	-733.333
208.33	-433.333
208.71	341.667
209.08	-483.333
209.46	0.000
209.84	783.333
210.21	2050.000
210.59	1900.000
210.96	1633.333
211.34	-950.000
211.71	-425.000
212.09	-4300.000
212.46	0.000
212.84	2650.000
213.22	-1040.000
213.59	-800.000
213.97	-340.000
214.34	-1366.667
214.72	633.333
215.09	-1050.000
215.47	0.000
215.84	571.429
216.22	2250.000
216.59	-780.000
216.97	-800.000
217.34	-950.000
217.72	-400.000
218.09	-850.000
218.47	-1200.000
218.84	0.000
219.22	620.000
219.59	-229.412
219.97	-155.000
220.34	2500.000
220.72	-477.778
221.09	-238.462
221.47	-1466.667
221.84	-300.000
222.22	-642.857
222.59	0.000
222.97	-475.000
223.34	-1040.000
223.72	-3600.000
224.09	-1025.000
224.46	-975.000
224.84	-680.000
225.21	-614.286
225.59	-975.000
225.96	-1025.000
226.34	-126.923
226.71	800.000
227.08	-1800.000
227.46	-240.000
227.83	-875.000
228.21	-147.368
228.58	537.500
228.95	2550.000
229.33	-383.333
229.70	-340.000
230.08	-152.632
230.45	390.000
230.82	-1400.000
231.20	-250.000
231.57	-358.333
231.95	-418.182
232.32	-363.636
232.69	-145.000
233.07	-975.000
233.44	-200.000
233.81	-330.000
234.19	-166.667
234.56	-136.364
234.93	-82.759
235.31	-178.947
235.68	-144.444
236.05	-175.000
236.43	-61.538
236.80	-60.000
237.17	-107.407
237.55	-87.879
237.92	-410.000
238.29	-80.645
238.67	-75.000
239.04	-91.667
239.41	-50.000
239.79	-34.783
240.16	-46.296
240.53	-36.957
240.91	-50.980
241.28	-32.787
241.65	-20.896
242.02	-10.811
242.40	-27.692
242.77	-9.333
243.14	-25.610
243.51	-26.316
243.89	1.282
244.26	6.931
244.63	5.882
245.00	11.215
245.38	6.140
245.75	-5.310
246.12	10.317
246.49	7.752
246.87	16.429
247.24	12.583
247.61	13.816
247.98	17.450
248.36	14.815
248.73	14.110
249.10	20.219
249.47	16.915
249.84	20.419
250.22	18.653
250.59	22.778
250.96	28.636
251.33	16.837
251.70	25.214
252.08	24.583
252.45	27.869
252.82	24.380
253.19	21.094
253.56	24.335
253.94	26.154
254.31	27.652
254.68	26.573
255.05	30.293
255.42	21.429
255.79	24.272
256.16	31.457
256.54	24.834
256.91	28.852
257.28	27.541
257.65	30.255
258.02	29.204
258.39	29.060
258.76	30.275
259.14	30.460
259.51	31.700
259.88	30.878
260.25	30.556
260.62	33.973
260.99	33.607
261.36	35.925
261.73	29.178
262.10	31.044
262.47	30.295
262.85	34.091
263.22	29.870
263.59	30.263
263.96	33.760
264.33	31.969
264.70	34.074
265.07	34.606
265.44	35.147
265.81	32.870
266.18	33.787
266.55	33.482
266.92	33.030
267.29	34.573
267.66	35.033
268.03	36.026
268.40	33.820
268.77	33.713
269.14	32.819
269.51	34.868
269.88	36.270
270.25	33.400
270.62	34.810
270.99	35.152
271.36	32.871
271.73	34.381
272.10	34.469
272.47	35.872
272.84	31.124
273.21	35.271
273.58	34.879
273.95	32.308
274.32	30.418
274.69	31.721
275.06	34.799
275.43	31.238
275.80	35.450
276.17	32.593
276.54	31.903
276.91	31.485
277.28	34.177
277.65	34.470
278.02	32.169
278.39	35.688
278.76	33.743
279.13	35.461
279.50	34.708
279.87	33.274
280.23	30.282
280.60	35.593
280.97	33.388
281.34	33.447
281.71	33.841
282.08	33.389
282.45	30.278
282.82	31.083
283.19	31.826
283.56	32.295
283.92	32.282
284.29	33.333
284.66	32.841
285.03	29.167
285.40	32.612
285.77	33.901
286.14	31.450
286.51	32.116
286.87	32.385
287.24	32.982
287.61	32.436
287.98	31.269
288.35	31.509
288.72	29.734
289.08	32.064
289.45	29.142
289.82	32.078
290.19	32.328
290.56	30.845
290.93	30.956
291.29	29.063
291.66	30.165
292.03	28.630
292.40	29.116
292.77	27.628
293.13	27.064
293.50	27.464
293.87	28.993
294.24	28.000
294.60	26.928
294.97	26.980
295.34	27.785
295.71	25.599
296.08	26.486
296.44	25.735
296.81	26.431
297.18	27.397
297.55	25.825
297.91	25.860
298.28	26.777
298.65	25.922
299.02	25.738
299.38	25.172
299.75	25.000
300.12	24.769
300.48	24.539
300.85	25.309
301.22	25.503
301.59	23.858
301.95	26.215
302.32	24.333
302.69	24.535
303.05	24.592
303.42	24.501
303.79	23.021
304.15	24.501
304.52	24.841
304.89	23.979
305.25	24.224
305.62	23.720
305.99	23.608
306.35	22.379
306.72	23.371
307.09	23.756
307.45	26.294
307.82	23.411
308.19	23.713
308.55	23.240
308.92	23.856
309.29	25.287
309.65	21.735
310.02	23.762
310.38	24.114
310.75	24.369
311.12	24.353
311.48	23.851
311.85	22.602
312.22	23.245
312.58	23.662
312.95	23.231
313.31	23.577
313.68	24.542
314.05	24.481
314.41	25.319
314.78	25.068
315.14	24.047
315.51	24.931
315.87	25.203
316.24	24.932
316.61	27.087
316.97	24.706
317.34	24.956
317.70	26.900
318.07	26.631
318.43	24.660
318.80	25.418
319.16	25.837
319.53	24.593
319.89	24.978
320.26	26.690
320.62	27.039
320.99	25.946
321.35	26.248
321.72	27.442
322.08	26.060
322.45	25.836
322.81	27.888
323.18	27.257
323.54	27.845
323.91	28.292
324.27	28.399
324.64	29.219
325.00	28.109
325.37	29.156
325.73	30.083
326.10	29.116
326.46	31.515
326.83	31.946
327.19	30.945
327.56	32.016
327.92	31.235
328.29	32.419
328.65	31.407
329.01	31.895
329.38	32.435
329.74	33.048
330.11	32.449
330.47	32.856
330.84	32.472
331.20	33.583
331.56	33.362
331.93	33.640
332.29	33.559
332.66	33.555
333.02	32.831
333.38	33.473
333.75	32.576
334.11	33.778
334.48	33.086
334.84	33.730
335.20	33.501
335.57	33.221
335.93	33.719
336.29	34.443
336.66	33.558
337.02	34.950
337.38	34.524
337.75	33.719
338.11	34.315
338.47	33.912
338.84	33.926
339.20	33.783
339.56	33.690
339.93	32.594
340.29	32.689
340.65	31.387
341.02	34.158
341.38	34.034
341.74	33.253
342.11	32.743
342.47	31.454
342.83	33.494
343.20	34.260
343.56	32.959
343.92	34.428
344.28	32.031
344.65	33.643
345.01	33.385
345.37	32.815
345.73	31.723
346.10	34.321
346.46	33.070
346.82	33.483
347.19	32.620
347.55	33.536
347.91	34.101
348.27	33.080
348.63	32.445
349.00	31.916
349.36	33.606
349.72	32.738
350.08	34.027
350.45	33.156
350.81	33.484
351.17	32.030
351.53	33.131
351.89	33.865
352.26	32.612
352.62	32.687
352.98	33.130
353.34	31.964
353.70	32.974
354.07	33.383
354.43	32.574
354.79	32.012
355.15	32.597
355.51	33.772
355.87	32.461
356.24	32.928
356.60	32.225
356.96	33.729
357.32	33.234
357.68	32.650
358.04	32.410
358.40	32.687
358.77	31.798
359.13	31.758
359.49	32.565
359.85	32.705
360.21	32.281
360.57	33.668
360.93	32.793
361.29	32.421
361.66	32.078
362.02	33.960
362.38	33.872
362.74	33.450
363.10	34.594
363.46	33.795
363.82	34.517
364.18	33.146
364.54	32.780
364.90	34.047
365.26	33.931
365.62	34.133
365.98	33.833
366.35	33.423
366.71	35.782
367.07	34.912
367.43	34.143
367.79	34.174
368.15	34.181
368.51	34.032
368.87	33.899
369.23	33.133
369.59	33.128
369.95	33.739
370.31	35.246
370.67	33.769
371.03	34.972
371.39	33.512
371.75	34.388
372.11	34.553
372.47	33.378
372.83	34.817
373.19	33.823
373.55	34.688
373.91	33.947
374.27	34.670
374.63	35.183
374.99	33.355
375.35	35.130
375.71	35.419
376.07	35.765
376.42	34.572
376.78	34.058
377.14	34.373
377.50	35.231
377.86	35.468
378.22	35.629
378.58	35.137
378.94	35.329
379.30	35.267
379.66	36.155
380.02	36.642
380.38	36.924
380.74	36.282
381.09	36.469
381.45	36.591
381.81	38.407
382.17	36.876
382.53	36.316
382.89	37.020
383.25	37.046
383.61	37.558
383.97	36.514
384.32	36.902
384.68	36.949
385.04	37.478
385.40	37.831
385.76	39.683
386.12	37.044
386.48	36.882
386.83	37.723
387.19	36.964
387.55	37.089
387.91	37.500
388.27	37.644
388.62	38.202
388.98	37.281
389.34	38.480
389.70	39.221
390.06	38.247
390.42	37.530
390.77	38.651
391.13	38.146
391.49	38.164
391.85	38.182
392.20	38.138
392.56	39.102
392.92	38.495
393.28	38.751
393.64	39.162
393.99	40.209
394.35	39.544
394.71	39.701
395.07	39.042
395.42	37.293
395.78	38.696
396.14	39.513
396.50	37.886
396.85	38.104
397.21	38.402
397.57	38.516
397.92	38.774
398.28	39.055
398.64	37.586
399.00	38.429
399.35	38.272
399.71	38.098
400.07	38.462
400.42	38.300
400.78	38.542
401.14	38.019
401.49	38.033
401.85	39.593
402.21	39.513
402.57	39.554
402.92	38.771
403.28	37.295
403.63	39.379
403.99	39.489
404.35	39.113
404.70	38.527
405.06	38.533
405.42	38.466
405.77	39.204
406.13	38.466
406.49	39.189
406.84	39.391
407.20	38.234
407.55	38.280
407.91	37.712
408.27	38.398
408.62	37.871
408.98	39.118
409.34	37.830
409.69	38.566
410.05	39.215
410.40	39.617
410.76	37.970
411.11	39.626
411.47	39.251
411.83	38.566
412.18	38.735
412.54	37.641
412.89	37.427
413.25	38.939
413.60	38.828
413.96	38.403
414.31	38.357
414.67	38.223
415.03	37.662
415.38	39.281
415.74	37.996
416.09	37.508
416.45	37.320
416.80	37.393
417.16	38.889
417.51	38.543
417.87	38.136
418.22	38.204
418.58	38.971
418.93	38.533
419.29	38.409
419.64	38.295
420.00	38.754
420.35	38.405
420.71	38.369
421.06	38.125
421.42	38.991
421.77	37.857
422.12	37.685
422.48	38.402
422.83	39.430
423.19	39.469
423.54	39.159
423.90	38.487
424.25	39.360
424.61	38.117
424.96	39.374
425.31	40.021
425.67	38.969
426.02	38.904
426.38	38.404
426.73	38.114
427.09	39.389
427.44	38.558
427.79	38.419
428.15	38.813
428.50	40.112
428.85	37.658
429.21	39.362
429.56	39.141
429.92	37.690
430.27	39.229
430.62	38.544
430.98	39.941
431.33	39.296
431.68	39.033
432.04	39.309
432.39	39.047
432.74	38.984
433.10	40.022
433.45	38.350
433.80	38.251
434.16	38.998
434.51	40.339
434.86	40.662
435.22	40.755
435.57	39.682
435.92	39.677
436.28	39.306
436.63	39.924
436.98	39.560
437.34	40.023
437.69	39.571
438.04	39.450
438.39	38.713
438.75	39.236
439.10	40.698
439.45	40.302
439.81	39.435
440.16	38.767
440.51	39.576
440.86	38.355
441.22	40.139
441.57	40.356
441.92	40.495
442.27	40.253
442.63	39.493
442.98	40.075
443.33	39.506
443.68	40.535
444.03	41.675
444.39	41.331
444.74	40.990
445.09	39.990
445.44	40.253
445.79	42.146
446.15	41.572
446.50	40.052
446.85	41.294
447.20	40.957
447.55	41.213
447.91	41.152
448.26	41.702
448.61	40.861
448.96	41.524
449.31	40.986
449.66	40.359
450.02	41.667
450.37	41.822
450.72	41.442
451.07	41.173
451.42	41.768
451.77	40.411
452.12	41.704
452.47	40.463
452.83	42.624
453.18	41.331
453.53	41.930
453.88	40.917
454.23	41.525
454.58	40.859
454.93	40.716
455.28	41.300
455.63	41.558
455.98	42.514
456.34	42.638
456.69	41.211
457.04	42.612
457.39	41.519
457.74	42.897
458.09	41.790
458.44	42.080
458.79	41.104
459.14	41.531
459.49	42.275
459.84	42.392
460.19	41.588
460.54	42.476
460.89	42.403
461.24	42.299
461.59	41.893
461.94	41.757
462.29	42.161
462.64	41.521
462.99	41.557
463.34	41.077
463.69	41.266
464.04	42.524
464.39	42.321
464.74	42.018
465.09	42.618
465.44	41.470
465.79	42.623
466.14	40.750
466.49	42.474
466.84	42.590
467.19	41.792
467.54	41.422
467.89	41.264
468.24	41.385
468.59	41.054
468.94	41.783
469.29	41.332
469.64	41.132
469.99	41.619
470.34	41.832
470.68	41.217
471.03	42.698
471.38	40.549
471.73	41.417
472.08	42.513
472.43	41.601
472.78	41.499
473.13	41.783
473.48	41.571
473.83	42.774
474.17	41.090
474.52	41.912
474.87	41.085
475.22	41.408
475.57	41.589
475.92	42.658
476.27	41.747
476.61	42.523
476.96	41.449
477.31	42.673
477.66	42.288
478.01	41.078
478.36	40.229
478.70	41.429
479.05	42.740
479.40	42.300
479.75	42.507
480.10	41.686
480.45	41.978
480.79	43.356
481.14	41.728
481.49	41.708
481.84	42.341
482.19	41.849
482.53	43.113
482.88	42.224
483.23	42.463
483.58	41.921
483.92	40.957
484.27	42.760
484.62	41.584
484.97	42.107
485.31	41.746
485.66	40.049
486.01	41.921
486.36	44.160
486.70	46.901
487.05	46.712
487.40	44.439
487.75	43.740
488.09	42.237
488.44	40.752
488.79	40.843
489.13	40.768
489.48	39.922
489.83	40.000
490.17	40.786
490.52	41.133
490.87	41.963
491.22	41.551
491.56	41.510
491.91	41.212
492.26	42.752
492.60	41.146
492.95	41.641
493.30	41.013
493.64	42.400
493.99	41.053
494.34	40.984
494.68	41.842
495.03	41.982
495.37	41.633
495.72	40.862
496.07	41.323
496.41	41.055
496.76	41.993
497.11	42.718
497.45	41.347
497.80	41.048
498.14	40.862
498.49	40.809
498.84	40.859
499.18	40.801
499.53	41.345
499.87	40.879
500.22	40.606
500.56	41.206
500.91	40.961
501.26	41.818
501.60	40.566
501.95	41.772
502.29	41.729
502.64	42.195
502.98	40.768
503.33	41.987
503.67	40.733
504.02	40.412
504.36	42.315
504.71	41.295
505.06	41.246
505.40	40.814
505.75	40.483
506.09	41.160
506.44	42.015
506.78	40.872
507.13	41.678
507.47	42.018
507.82	40.720
508.16	40.966
508.51	39.709
508.85	40.671
509.19	40.739
509.54	41.835
509.88	40.699
510.23	40.602
510.57	40.889
510.92	40.977
511.26	40.164
511.61	39.401
511.95	40.215
512.30	39.636
512.64	40.580
512.98	39.470
513.33	40.675
513.67	41.203
514.02	41.083
514.36	41.176
514.70	39.688
515.05	40.198
515.39	40.052
515.74	39.502
516.08	39.989
516.42	40.869
516.77	40.852
517.11	40.124
517.46	40.827
517.80	42.063
518.14	39.663
518.49	40.456
518.83	39.649
519.17	39.149
519.52	39.990
519.86	39.916
520.20	40.362
520.55	40.197
520.89	40.709
521.23	39.866
521.58	39.944
521.92	39.263
522.26	39.118
522.61	40.336
522.95	40.254
523.29	39.368
523.64	39.518
523.98	40.217
524.32	40.688
524.66	40.410
525.01	39.354
525.35	39.058
525.69	39.559
526.04	38.117
526.38	40.172
526.72	40.081
527.06	40.587
527.41	40.350
527.75	40.499
528.09	39.374
528.43	39.372
528.78	39.191
529.12	38.933
529.46	38.617
529.80	39.416
530.15	39.942
530.49	39.442
530.83	39.965
531.17	39.785
531.51	38.688
531.86	40.264
532.20	38.902
532.54	38.959
532.88	38.545
533.22	39.599
533.57	38.430
533.91	39.057
534.25	38.609
534.59	39.943
534.93	38.710
535.27	39.324
535.62	40.136
535.96	39.977
536.30	39.130
536.64	38.799
536.98	39.545
537.32	39.383
537.66	39.613
538.01	38.550
538.35	37.393
538.69	38.582
539.03	40.159
539.37	38.457
539.71	39.159
540.05	38.789
540.39	38.020
540.73	37.705
541.07	38.749
541.42	38.807
541.76	38.434
542.10	38.179
542.44	38.063
542.78	38.200
543.12	37.843
543.46	38.217
543.80	37.590
544.14	38.360
544.48	38.712
544.82	39.078
545.16	38.462
545.50	37.807
545.84	37.538
546.18	37.593
546.52	37.962
546.86	37.610
547.20	37.786
547.54	37.890
547.88	38.517
548.22	38.129
548.56	38.034
548.90	38.328
549.24	37.629
549.58	37.981
549.92	38.074
550.26	37.087
550.60	36.567
550.94	37.969
551.28	35.710
551.62	37.534
551.96	38.058
552.30	38.305
552.64	38.208
552.98	38.366
553.32	37.556
553.66	38.006
554.00	37.957
554.34	38.610
554.68	36.862
555.02	37.188
555.36	37.147
555.69	36.451
556.03	37.705
556.37	38.861
556.71	37.857
557.05	38.019
557.39	36.695
557.73	37.252
558.07	37.285
558.41	38.472
558.75	35.835
559.08	36.743
559.42	37.654
559.76	37.449
560.10	37.441
560.44	37.467
560.78	38.688
561.12	38.239
561.45	37.895
561.79	37.729
562.13	38.016
562.47	35.943
562.81	37.975
563.15	38.194
563.48	38.036
563.82	37.666
564.16	36.705
564.50	36.710
564.84	37.581
565.17	38.235
565.51	37.687
565.85	37.767
566.19	37.039
566.52	37.975
566.86	37.465
567.20	37.684
567.54	38.555
567.88	38.991
568.21	38.982
568.55	38.657
568.89	39.219
569.23	39.163
569.56	40.289
569.90	40.200
570.24	40.270
570.57	39.416
570.91	39.896
571.25	39.514
571.59	40.050
571.92	40.272
572.26	39.624
572.60	39.885
572.93	39.466
573.27	39.815
573.61	39.095
573.95	39.621
574.28	39.523
574.62	40.359
574.96	39.082
575.29	39.634
575.63	39.316
575.97	39.425
576.30	38.589
576.64	38.702
576.98	38.907
577.31	40.210
577.65	40.487
577.98	40.004
578.32	39.805
578.66	39.898
578.99	39.873
579.33	39.795
579.67	39.075
580.00	38.660
580.34	38.983
580.67	38.614
581.01	39.377
581.35	39.041
581.68	40.053
582.02	40.651
582.35	40.858
582.69	40.848
583.02	40.329
583.36	39.741
583.70	38.787
584.03	38.061
584.37	37.917
584.70	37.971
585.04	37.805
585.37	39.373
585.71	39.180
586.04	39.498
586.38	39.485
586.72	38.355
587.05	38.654
587.39	38.993
587.72	39.330
588.06	39.918
588.39	38.710
588.73	39.074
589.06	38.995
589.40	39.060
589.73	38.175
590.07	37.931
590.40	38.472
590.73	38.530
591.07	38.831
591.40	36.858
591.74	37.440
592.07	38.124
592.41	36.554
592.74	38.303
593.08	38.822
593.41	39.603
593.75	39.483
594.08	39.412
594.41	39.167
594.75	38.193
595.08	38.459
595.42	38.214
595.75	38.553
596.09	38.326
596.42	37.979
596.75	37.592
597.09	38.384
597.42	37.306
597.75	37.319
598.09	37.143
598.42	37.837
598.76	37.600
599.09	38.341
599.42	38.015
599.76	37.603
600.09	38.305
600.42	38.038
600.76	37.583
601.09	37.703
601.42	37.968
601.76	37.655
602.09	37.491
602.42	37.223
602.76	37.269
603.09	38.142
603.42	38.584
603.76	37.879
604.09	38.609
604.42	37.284
604.76	37.291
605.09	37.495
605.42	36.443
605.75	37.538
606.09	37.663
606.42	36.994
606.75	36.694
607.09	35.484
607.42	36.647
607.75	36.850
608.08	36.977
608.42	36.558
608.75	37.189
609.08	36.248
609.41	37.097
609.75	37.143
610.08	36.851
610.41	36.619
610.74	36.933
611.07	36.279
611.41	36.637
611.74	37.090
612.07	36.279
612.40	36.502
612.73	35.990
613.07	36.137
613.40	36.189
613.73	35.869
614.06	35.868
614.39	35.909
614.72	35.565
615.06	36.044
615.39	36.201
615.72	36.588
616.05	35.648
616.38	36.882
616.71	34.692
617.05	34.718
617.38	35.045
617.71	35.043
618.04	35.510
618.37	36.448
618.70	36.086
619.03	34.886
619.36	33.970
619.69	34.849
620.03	34.463
620.36	33.926
620.69	34.362
621.02	33.858
621.35	35.051
621.68	34.563
622.01	33.452
622.34	33.682
622.67	33.608
623.00	33.468
623.33	34.572
623.66	34.176
623.99	33.377
624.32	35.218
624.65	34.620
624.99	35.176
625.32	35.402
625.65	35.738
625.98	33.763
626.31	34.160
626.64	33.553
626.97	33.683
627.30	32.726
627.63	33.833
627.96	33.483
628.29	33.385
628.62	31.402
628.95	33.041
629.28	31.776
629.61	33.838
629.94	31.381
