SpectraSuite Data File
++++++++++++++++++++++++++++++++++++
Date: Thu May 14 14:42:09 PDT 2015
User: schluterlab
Dark Spectrum Present: Yes
Reference Spectrum Present: Yes
Number of Sampled Component Spectra: 1
Spectrometers: USB2E3373
Integration Time (usec): 3000 (USB2E3373)
Spectra Averaged: 3 (USB2E3373)
Boxcar Smoothing: 0 (USB2E3373)
Correct for Electrical Dark: No (USB2E3373)
Strobe/Lamp Enabled: No (USB2E3373)
Correct for Detector Non-linearity: No (USB2E3373)
Correct for Stray Light: No (USB2E3373)
Number of Pixels in Processed Spectrum: 2048
>>>>>Begin Processed Spectral Data<<<<<
178.53	0.000
178.91	-71.429
179.29	-100.000
179.67	100.000
180.04	121.429
180.42	-50.000
180.80	-120.000
181.18	0.000
181.56	1400.000
181.94	-0.000
182.31	275.000
182.69	-466.667
183.07	150.000
183.45	-75.000
183.83	33.333
184.20	333.333
184.58	-600.000
184.96	100.000
185.34	111.111
185.72	200.000
186.09	33.333
186.47	-50.000
186.85	100.000
187.23	-22.222
187.61	-300.000
187.98	-80.000
188.36	-25.000
188.74	200.000
189.12	333.333
189.49	75.000
189.87	100.000
190.25	100.000
190.63	240.000
191.00	11.111
191.38	0.000
191.76	75.000
192.14	100.000
192.51	-100.000
192.89	333.333
193.27	0.000
193.65	214.286
194.02	-600.000
194.40	142.857
194.78	-0.000
195.15	0.000
195.53	127.273
195.91	0.000
196.29	450.000
196.66	92.308
197.04	300.000
197.42	142.857
197.79	0.000
198.17	-25.000
198.55	128.571
198.92	144.444
199.30	50.000
199.68	100.000
200.05	50.000
200.43	50.000
200.81	-28.571
201.18	0.000
201.56	55.556
201.94	0.000
202.31	166.667
202.69	-11.111
203.07	-1300.000
203.44	33.333
203.82	-50.000
204.19	50.000
204.57	33.333
204.95	-100.000
205.32	500.000
205.70	-200.000
206.08	83.333
206.45	266.667
206.83	220.000
207.20	166.667
207.58	20.000
207.96	16.667
208.33	166.667
208.71	-91.667
209.08	233.333
209.46	0.000
209.84	-166.667
210.21	-350.000
210.59	-450.000
210.96	-66.667
211.34	175.000
211.71	100.000
212.09	1100.000
212.46	0.000
212.84	450.000
213.22	60.000
213.59	350.000
213.97	80.000
214.34	0.000
214.72	-100.000
215.09	150.000
215.47	0.000
215.84	157.143
216.22	-100.000
216.59	200.000
216.97	-40.000
217.34	300.000
217.72	200.000
218.09	-100.000
218.47	-25.000
218.84	0.000
219.22	-140.000
219.59	105.882
219.97	95.000
220.34	200.000
220.72	22.222
221.09	53.846
221.47	200.000
221.84	80.000
222.22	71.429
222.59	0.000
222.97	12.500
223.34	260.000
223.72	600.000
224.09	0.000
224.46	75.000
224.84	300.000
225.21	128.571
225.59	125.000
225.96	0.000
226.34	88.462
226.71	16.667
227.08	-100.000
227.46	93.333
227.83	75.000
228.21	63.158
228.58	87.500
228.95	-250.000
229.33	100.000
229.70	100.000
230.08	142.105
230.45	40.000
230.82	-133.333
231.20	42.857
231.57	58.333
231.95	72.727
232.32	81.818
232.69	130.000
233.07	75.000
233.44	-11.765
233.81	30.000
234.19	44.444
234.56	13.636
234.93	62.069
235.31	26.316
235.68	55.556
236.05	15.000
236.43	65.385
236.80	68.000
237.17	62.963
237.55	18.182
237.92	50.000
238.29	29.032
238.67	22.727
239.04	41.667
239.41	35.714
239.79	28.261
240.16	25.926
240.53	39.130
240.91	35.294
241.28	19.672
241.65	41.791
242.02	47.297
242.40	27.692
242.77	40.000
243.14	20.732
243.51	34.211
243.89	35.897
244.26	34.653
244.63	47.059
245.00	35.514
245.38	37.719
245.75	23.894
246.12	36.508
246.49	29.457
246.87	35.714
247.24	32.450
247.61	36.842
247.98	28.859
248.36	30.864
248.73	28.221
249.10	33.880
249.47	32.836
249.84	37.696
250.22	29.016
250.59	39.444
250.96	32.727
251.33	31.122
251.70	29.915
252.08	32.083
252.45	31.967
252.82	31.818
253.19	28.906
253.56	34.221
253.94	28.846
254.31	29.167
254.68	36.713
255.05	30.945
255.42	28.571
255.79	28.155
256.16	29.470
256.54	35.430
256.91	34.426
257.28	31.148
257.65	29.936
258.02	34.218
258.39	29.630
258.76	33.945
259.14	35.920
259.51	30.836
259.88	29.178
260.25	31.667
260.62	33.151
260.99	32.787
261.36	29.223
261.73	31.830
262.10	28.846
262.47	31.635
262.85	35.101
263.22	27.013
263.59	28.947
263.96	29.156
264.33	29.668
264.70	31.852
265.07	32.936
265.44	31.973
265.81	27.778
266.18	33.333
266.55	31.027
266.92	30.752
267.29	31.729
267.66	29.268
268.03	32.096
268.40	32.150
268.77	28.702
269.14	28.414
269.51	32.018
269.88	29.918
270.25	29.980
270.62	31.435
270.99	31.515
271.36	31.683
271.73	29.666
272.10	32.265
272.47	28.858
272.84	31.325
273.21	30.461
273.58	30.645
273.95	27.885
274.32	27.947
274.69	26.306
275.06	28.938
275.43	29.205
275.80	28.571
276.17	28.704
276.54	28.545
276.91	29.875
277.28	27.848
277.65	29.443
278.02	30.331
278.39	28.986
278.76	27.065
279.13	28.546
279.50	26.976
279.87	31.485
280.23	26.585
280.60	28.644
280.97	28.783
281.34	28.523
281.71	30.964
282.08	26.412
282.45	26.514
282.82	26.531
283.19	26.171
283.56	27.049
283.92	27.928
284.29	28.120
284.66	27.586
285.03	27.724
285.40	26.893
285.77	26.471
286.14	28.550
286.51	27.854
286.87	26.856
287.24	26.657
287.61	27.504
287.98	27.795
288.35	26.183
288.72	24.852
289.08	27.965
289.45	25.444
289.82	27.560
290.19	24.138
290.56	25.634
290.93	26.106
291.29	25.620
291.66	24.793
292.03	25.373
292.40	25.714
292.77	22.776
293.13	23.816
293.50	22.339
293.87	24.027
294.24	25.733
294.60	23.641
294.97	22.953
295.34	24.456
295.71	23.203
296.08	21.835
296.44	22.672
296.81	21.315
297.18	21.669
297.55	21.580
297.91	22.539
298.28	21.327
298.65	21.284
299.02	20.779
299.38	22.426
299.75	21.612
300.12	20.833
300.48	21.429
300.85	20.922
301.22	22.036
301.59	20.776
301.95	21.356
302.32	22.333
302.69	20.044
303.05	19.913
303.42	22.284
303.79	21.250
304.15	19.874
304.52	21.247
304.89	21.361
305.25	20.186
305.62	19.540
305.99	22.680
306.35	19.758
306.72	21.613
307.09	20.609
307.45	20.911
307.82	20.081
308.19	20.182
308.55	21.311
308.92	19.864
309.29	20.307
309.65	20.858
310.02	20.792
310.38	20.965
310.75	20.485
311.12	19.463
311.48	20.528
311.85	19.753
312.22	22.011
312.58	20.188
312.95	19.885
313.31	21.319
313.68	20.238
314.05	22.222
314.41	20.947
314.78	22.162
315.14	20.417
315.51	20.868
315.87	20.882
316.24	21.735
316.61	21.581
316.97	20.724
317.34	19.753
317.70	22.183
318.07	21.252
318.43	21.344
318.80	21.405
319.16	20.515
319.53	20.308
319.89	21.385
320.26	23.310
320.62	20.567
320.99	21.884
321.35	20.702
321.72	22.605
322.08	21.912
322.45	22.042
322.81	21.751
323.18	20.796
323.54	21.983
323.91	22.954
324.27	21.773
324.64	22.418
325.00	20.730
325.37	22.604
325.73	21.488
326.10	21.411
326.46	22.231
326.83	22.898
327.19	23.071
327.56	23.004
327.92	20.692
328.29	22.097
328.65	23.116
329.01	22.589
329.38	22.746
329.74	23.545
330.11	23.116
330.47	22.999
330.84	22.136
331.20	22.667
331.56	21.664
331.93	22.343
332.29	22.542
332.66	23.505
333.02	21.943
333.38	23.154
333.75	22.896
334.11	22.269
334.48	21.947
334.84	22.855
335.20	21.914
335.57	22.934
335.93	22.645
336.29	22.047
336.66	22.960
337.02	22.408
337.38	23.469
337.75	23.636
338.11	23.297
338.47	23.077
338.84	22.335
339.20	22.325
339.56	22.323
339.93	22.742
340.29	21.900
340.65	21.249
341.02	22.586
341.38	22.878
341.74	23.325
342.11	21.722
342.47	21.525
342.83	22.947
343.20	22.404
343.56	21.812
343.92	22.098
344.28	22.031
344.65	21.163
345.01	21.997
345.37	22.628
345.73	20.811
346.10	22.465
346.46	21.440
346.82	22.846
347.19	22.231
347.55	21.320
347.91	22.065
348.27	22.458
348.63	22.544
349.00	21.700
349.36	22.454
349.72	21.057
350.08	23.254
350.45	21.673
350.81	21.644
351.17	22.406
351.53	22.365
351.89	22.855
352.26	21.045
352.62	22.015
352.98	21.985
353.34	20.463
353.70	20.493
354.07	21.237
354.43	21.336
354.79	21.616
355.15	21.928
355.51	21.711
355.87	21.167
356.24	21.445
356.60	20.990
356.96	21.942
357.32	21.933
357.68	20.644
358.04	20.509
358.40	20.970
358.77	22.003
359.13	20.975
359.49	20.074
359.85	21.537
360.21	21.449
360.57	21.249
360.93	20.099
361.29	22.175
361.66	20.999
362.02	22.686
362.38	21.223
362.74	21.788
363.10	21.939
363.46	22.230
363.82	21.165
364.18	21.605
364.54	21.715
364.90	21.605
365.26	20.828
365.62	22.067
365.98	20.354
366.35	21.611
366.71	21.361
367.07	21.719
367.43	21.077
367.79	22.163
368.15	21.739
368.51	21.583
368.87	21.359
369.23	21.533
369.59	21.516
369.95	21.433
370.31	21.607
370.67	21.389
371.03	21.330
371.39	20.148
371.75	22.490
372.11	21.545
372.47	21.192
372.83	21.859
373.19	21.481
373.55	21.951
373.91	21.063
374.27	20.763
374.63	21.516
374.99	21.817
375.35	21.623
375.71	20.968
376.07	21.627
376.42	21.159
376.78	21.380
377.14	21.522
377.50	21.885
377.86	22.537
378.22	21.916
378.58	21.581
378.94	20.833
379.30	21.441
379.66	21.046
380.02	21.523
380.38	21.947
380.74	21.239
381.09	21.661
381.45	22.500
381.81	21.721
382.17	22.209
382.53	21.404
382.89	22.122
383.25	21.981
383.61	21.528
383.97	20.907
384.32	21.890
384.68	20.418
385.04	21.862
385.40	22.216
385.76	22.333
386.12	21.963
386.48	21.529
386.83	21.871
387.19	20.800
387.55	21.538
387.91	20.833
388.27	21.074
388.62	21.592
388.98	21.038
389.34	22.982
389.70	21.383
390.06	21.729
390.42	21.084
390.77	22.155
391.13	20.833
391.49	22.705
391.85	20.545
392.20	21.530
392.56	22.032
392.92	22.465
393.28	21.282
393.64	20.838
393.99	21.383
394.35	21.379
394.71	22.275
395.07	21.078
395.42	21.302
395.78	22.669
396.14	21.806
396.50	21.259
396.85	20.692
397.21	20.355
397.57	21.319
397.92	21.592
398.28	20.913
398.64	21.453
399.00	20.838
399.35	21.257
399.71	20.924
400.07	21.280
400.42	21.362
400.78	20.660
401.14	21.343
401.49	21.319
401.85	20.523
402.21	21.089
402.57	21.068
402.92	20.981
403.28	20.667
403.63	19.869
403.99	20.190
404.35	20.352
404.70	20.850
405.06	20.380
405.42	20.316
405.77	20.447
406.13	20.151
406.49	20.101
406.84	20.332
407.20	20.570
407.55	20.351
407.91	20.993
408.27	20.554
408.62	20.535
408.98	20.546
409.34	19.413
409.69	20.519
410.05	20.692
410.40	20.534
410.76	19.854
411.11	20.222
411.47	20.332
411.83	20.282
412.18	20.723
412.54	20.391
412.89	20.605
413.25	20.147
413.60	19.759
413.96	20.455
414.31	19.433
414.67	21.228
415.03	20.862
415.38	21.185
415.74	20.281
416.09	20.358
416.45	20.476
416.80	20.073
417.16	21.520
417.51	21.108
417.87	20.294
418.22	20.120
418.58	20.384
418.93	21.304
419.29	20.530
419.64	20.348
420.00	19.881
420.35	20.326
420.71	20.046
421.06	19.494
421.42	20.700
421.77	19.709
422.12	20.772
422.48	19.662
422.83	20.318
423.19	20.531
423.54	20.796
423.90	21.149
424.25	21.013
424.61	19.460
424.96	20.703
425.31	20.329
425.67	20.451
426.02	21.195
426.38	21.470
426.73	21.540
427.09	22.145
427.44	20.699
427.79	20.840
428.15	20.833
428.50	21.517
428.85	21.355
429.21	22.500
429.56	20.829
429.92	21.278
430.27	20.627
430.62	21.104
430.98	20.807
431.33	20.821
431.68	20.307
432.04	21.838
432.39	21.639
432.74	20.719
433.10	22.174
433.45	21.628
433.80	21.191
434.16	20.971
434.51	21.120
434.86	22.476
435.22	22.264
435.57	22.406
435.92	22.426
436.28	22.241
436.63	21.573
436.98	21.524
437.34	21.815
437.69	21.959
438.04	21.311
438.39	21.884
438.75	21.970
439.10	22.357
439.45	23.421
439.81	21.921
440.16	22.091
440.51	22.910
440.86	22.068
441.22	21.865
441.57	21.960
441.92	22.211
442.27	22.929
442.63	22.951
442.98	23.533
443.33	22.094
443.68	23.092
444.03	23.471
444.39	22.839
444.74	23.992
445.09	23.315
445.44	23.498
445.79	24.042
446.15	23.895
446.50	22.946
446.85	23.444
447.20	23.211
447.55	23.588
447.91	23.403
448.26	23.679
448.61	23.007
448.96	24.624
449.31	24.125
449.66	23.312
450.02	22.627
450.37	23.868
450.72	22.874
451.07	22.950
451.42	23.281
451.77	23.513
452.12	23.984
452.47	23.054
452.83	24.662
453.18	23.468
453.53	23.148
453.88	23.799
454.23	23.785
454.58	23.970
454.93	22.755
455.28	24.744
455.63	23.764
455.98	24.134
456.34	23.616
456.69	23.574
457.04	24.232
457.39	23.448
457.74	24.385
458.09	23.668
458.44	24.677
458.79	23.569
459.14	23.807
459.49	24.788
459.84	23.924
460.19	22.876
460.54	24.702
460.89	24.563
461.24	24.483
461.59	24.073
461.94	24.016
462.29	24.748
462.64	24.321
462.99	24.922
463.34	25.049
463.69	23.916
464.04	24.514
464.39	23.767
464.74	23.774
465.09	24.452
465.44	24.034
465.79	24.379
466.14	23.658
466.49	23.368
466.84	24.683
467.19	24.566
467.54	24.501
467.89	24.655
468.24	24.709
468.59	23.798
468.94	23.776
469.29	24.295
469.64	24.793
469.99	25.303
470.34	25.371
470.68	25.496
471.03	25.409
471.38	24.199
471.73	24.837
472.08	24.429
472.43	24.865
472.78	23.804
473.13	24.716
473.48	25.378
473.83	25.305
474.17	24.502
474.52	25.496
474.87	24.529
475.22	25.408
475.57	24.922
475.92	24.988
476.27	24.228
476.61	25.286
476.96	24.453
477.31	24.802
477.66	25.289
478.01	24.199
478.36	24.028
478.70	25.419
479.05	25.665
479.40	25.074
479.75	25.312
480.10	25.107
480.45	25.342
480.79	25.669
481.14	25.000
481.49	25.125
481.84	24.108
482.19	25.806
482.53	25.404
482.88	25.432
483.23	25.522
483.58	24.017
483.92	24.601
484.27	25.233
484.62	24.711
484.97	25.233
485.31	25.026
485.66	23.819
486.01	23.066
486.36	23.603
486.70	25.193
487.05	26.109
487.40	26.097
487.75	26.387
488.09	26.289
488.44	25.863
488.79	26.981
489.13	26.104
489.48	25.165
489.83	24.386
490.17	24.666
490.52	24.713
490.87	25.381
491.22	25.173
491.56	25.384
491.91	25.294
492.26	24.794
492.60	26.060
492.95	25.581
493.30	25.056
493.64	25.361
493.99	25.307
494.34	24.564
494.68	25.610
495.03	25.463
495.37	25.388
495.72	26.032
496.07	25.635
496.41	24.925
496.76	25.605
497.11	25.648
497.45	25.248
497.80	26.344
498.14	25.442
498.49	26.287
498.84	25.091
499.18	25.236
499.53	25.336
499.87	25.670
500.22	25.200
500.56	24.876
500.91	26.224
501.26	26.818
501.60	25.320
501.95	25.879
502.29	26.415
502.64	25.798
502.98	25.712
503.33	26.004
503.67	25.338
504.02	25.744
504.36	26.139
504.71	25.310
505.06	25.466
505.40	25.686
505.75	24.909
506.09	26.703
506.44	26.184
506.78	25.642
507.13	26.003
507.47	25.722
507.82	26.562
508.16	25.478
508.51	25.785
508.85	26.264
509.19	26.291
509.54	26.513
509.88	26.275
510.23	26.372
510.57	27.018
510.92	26.560
511.26	26.407
511.61	25.688
511.95	25.427
512.30	25.997
512.64	26.387
512.98	26.613
513.33	26.310
513.67	26.517
514.02	26.929
514.36	26.701
514.70	26.250
515.05	27.059
515.39	26.719
515.74	27.094
516.08	26.572
516.42	26.478
516.77	26.604
517.11	26.251
517.46	27.466
517.80	27.044
518.14	27.530
518.49	26.627
518.83	26.982
519.17	25.956
519.52	26.939
519.86	26.927
520.20	27.103
520.55	26.506
520.89	27.759
521.23	27.527
521.58	26.441
521.92	26.402
522.26	26.575
522.61	27.431
522.95	26.874
523.29	26.552
523.64	27.074
523.98	27.724
524.32	27.794
524.66	28.002
525.01	26.840
525.35	26.996
525.69	26.392
526.04	26.579
526.38	26.954
526.72	27.336
527.06	27.038
527.41	26.880
527.75	27.732
528.09	26.505
528.43	26.821
528.78	26.012
529.12	26.663
529.46	26.138
529.80	26.373
530.15	27.478
530.49	27.461
530.83	26.919
531.17	26.703
531.51	26.715
531.86	27.163
532.20	27.378
532.54	27.050
532.88	27.212
533.22	26.871
533.57	27.351
533.91	27.497
534.25	26.851
534.59	27.299
534.93	26.995
535.27	26.986
535.62	27.800
535.96	27.368
536.30	26.910
536.64	27.327
536.98	27.798
537.32	27.593
537.66	27.573
538.01	26.284
538.35	26.431
538.69	27.584
539.03	28.878
539.37	27.739
539.71	27.988
540.05	27.458
540.39	27.078
540.73	26.108
541.07	28.265
541.42	25.753
541.76	25.860
542.10	27.805
542.44	26.553
542.78	26.703
543.12	27.116
543.46	26.923
543.80	26.619
544.14	26.990
544.48	26.891
544.82	26.870
545.16	27.251
545.50	27.561
545.84	27.863
546.18	27.593
546.52	26.624
546.86	26.792
547.20	27.990
547.54	27.278
547.88	26.281
548.22	27.193
548.56	27.092
548.90	27.701
549.24	27.903
549.58	26.877
549.92	27.423
550.26	28.544
550.60	28.590
550.94	27.167
551.28	27.327
551.62	27.695
551.96	27.184
552.30	27.279
552.64	27.754
552.98	27.386
553.32	27.588
553.66	27.653
554.00	28.121
554.34	27.156
554.68	27.889
555.02	27.464
555.36	28.271
555.69	27.226
556.03	28.184
556.37	26.909
556.71	28.789
557.05	27.540
557.39	27.870
557.73	27.741
558.07	27.550
558.41	28.837
558.75	27.248
559.08	27.766
559.42	28.258
559.76	26.798
560.10	26.859
560.44	27.375
560.78	28.062
561.12	27.340
561.45	27.859
561.79	27.717
562.13	28.035
562.47	27.805
562.81	27.722
563.15	27.778
563.48	27.160
563.82	27.993
564.16	27.196
564.50	27.294
564.84	27.375
565.17	28.529
565.51	27.791
565.85	28.266
566.19	26.728
566.52	27.209
566.86	27.957
567.20	26.862
567.54	27.138
567.88	27.778
568.21	28.409
568.55	27.578
568.89	27.009
569.23	26.869
569.56	27.198
569.90	27.869
570.24	27.015
570.57	27.101
570.91	26.546
571.25	27.018
571.59	26.802
571.92	26.546
572.26	26.945
572.60	26.781
572.93	27.303
573.27	26.918
573.61	26.972
573.95	26.317
574.28	26.606
574.62	26.489
574.96	26.224
575.29	26.151
575.63	26.611
575.97	26.826
576.30	26.524
576.64	26.963
576.98	26.469
577.31	26.697
577.65	26.352
577.98	26.035
578.32	26.420
578.66	26.027
578.99	26.746
579.33	27.279
579.67	26.813
580.00	26.725
580.34	26.658
580.67	26.853
581.01	26.763
581.35	26.184
581.68	26.140
582.02	26.368
582.35	26.932
582.69	27.044
583.02	27.472
583.36	27.829
583.70	27.925
584.03	28.246
584.37	27.623
584.70	27.090
585.04	26.715
585.37	26.690
585.71	26.602
586.04	26.728
586.38	27.159
586.72	27.074
587.05	27.091
587.39	27.026
587.72	26.986
588.06	27.926
588.39	28.255
588.73	27.910
589.06	27.963
589.40	28.304
589.73	27.988
590.07	28.249
590.40	28.567
590.73	28.066
591.07	28.704
591.40	28.110
591.74	28.299
592.07	29.273
592.41	27.721
592.74	27.050
593.08	27.197
593.41	27.384
593.75	27.184
594.08	27.870
594.41	27.885
594.75	27.831
595.08	27.826
595.42	27.857
595.75	28.737
596.09	28.160
596.42	28.126
596.75	28.985
597.09	28.727
597.42	28.089
597.75	28.146
598.09	28.452
598.42	28.106
598.76	27.856
599.09	27.020
599.42	27.657
599.76	27.699
600.09	27.961
600.42	27.728
600.76	28.269
601.09	28.078
601.42	28.218
601.76	28.345
602.09	28.628
602.42	27.554
602.76	28.229
603.09	28.010
603.42	28.288
603.76	27.907
604.09	28.992
604.42	28.294
604.76	28.311
605.09	28.520
605.42	28.230
605.75	27.115
606.09	27.734
606.42	27.143
606.75	28.148
607.09	27.573
607.42	28.401
607.75	27.823
608.08	28.374
608.42	27.973
608.75	28.358
609.08	28.183
609.41	28.628
609.75	27.946
610.08	28.540
610.41	27.570
610.74	28.571
611.07	28.686
611.41	28.027
611.74	28.268
612.07	28.331
612.40	28.470
612.73	29.046
613.07	28.362
613.40	28.489
613.73	28.117
614.06	27.772
614.39	27.891
614.72	28.821
615.06	28.345
615.39	28.226
615.72	27.725
616.05	28.120
616.38	29.112
616.71	28.840
617.05	28.168
617.38	28.999
617.71	29.158
618.04	28.278
618.37	29.290
618.70	29.638
619.03	29.092
619.36	29.655
619.69	28.892
620.03	28.123
620.36	27.853
620.69	28.131
621.02	29.921
621.35	30.697
621.68	28.778
622.01	28.541
622.34	29.149
622.67	28.522
623.00	27.800
623.33	28.932
623.66	28.794
623.99	29.032
624.32	29.890
624.65	28.700
624.99	30.104
625.32	30.242
625.65	30.276
625.98	29.492
626.31	29.624
626.64	29.963
626.97	29.407
627.30	29.005
627.63	28.882
627.96	30.856
628.29	29.650
628.62	29.219
628.95	29.360
629.28	28.972
629.61	30.303
629.94	28.452
630.26	29.661
630.59	28.929
630.92	29.610
631.25	30.859
631.58	31.733
631.91	30.084
632.24	29.491
632.57	30.171
632.90	31.695
633.23	30.816
633.56	29.592
633.89	30.475
634.22	30.353
