SpectraSuite Data File
++++++++++++++++++++++++++++++++++++
Date: Thu May 14 14:28:15 PDT 2015
User: schluterlab
Dark Spectrum Present: Yes
Reference Spectrum Present: Yes
Number of Sampled Component Spectra: 1
Spectrometers: USB2E3373
Integration Time (usec): 3000 (USB2E3373)
Spectra Averaged: 3 (USB2E3373)
Boxcar Smoothing: 0 (USB2E3373)
Correct for Electrical Dark: No (USB2E3373)
Strobe/Lamp Enabled: No (USB2E3373)
Correct for Detector Non-linearity: No (USB2E3373)
Correct for Stray Light: No (USB2E3373)
Number of Pixels in Processed Spectrum: 2048
>>>>>Begin Processed Spectral Data<<<<<
178.53	0.000
178.91	-57.143
179.29	100.000
179.67	600.000
180.04	71.429
180.42	-70.000
180.80	-100.000
181.18	1100.000
181.56	800.000
181.94	-200.000
182.31	400.000
182.69	-433.333
183.07	500.000
183.45	-150.000
183.83	200.000
184.20	400.000
184.58	-1100.000
184.96	300.000
185.34	77.778
185.72	360.000
186.09	-0.000
186.47	-100.000
186.85	-160.000
187.23	88.889
187.61	1600.000
187.98	-160.000
188.36	-50.000
188.74	300.000
189.12	266.667
189.49	106.250
189.87	125.000
190.25	155.556
190.63	300.000
191.00	133.333
191.38	0.000
191.76	0.000
192.14	316.667
192.51	-500.000
192.89	383.333
193.27	0.000
193.65	171.429
194.02	500.000
194.40	14.286
194.78	-200.000
195.15	0.000
195.53	109.091
195.91	0.000
196.29	275.000
196.66	146.154
197.04	-200.000
197.42	142.857
197.79	600.000
198.17	250.000
198.55	57.143
198.92	144.444
199.30	112.500
199.68	163.636
200.05	42.857
200.43	200.000
200.81	-142.857
201.18	0.000
201.56	-33.333
201.94	0.000
202.31	-133.333
202.69	144.444
203.07	-1700.000
203.44	233.333
203.82	100.000
204.19	66.667
204.57	133.333
204.95	75.000
205.32	800.000
205.70	-200.000
206.08	183.333
206.45	300.000
206.83	-60.000
207.20	166.667
207.58	100.000
207.96	100.000
208.33	200.000
208.71	-66.667
209.08	416.667
209.46	0.000
209.84	83.333
210.21	-500.000
210.59	-650.000
210.96	-300.000
211.34	375.000
211.71	62.500
212.09	700.000
212.46	0.000
212.84	-450.000
213.22	300.000
213.59	175.000
213.97	140.000
214.34	266.667
214.72	-133.333
215.09	150.000
215.47	0.000
215.84	-128.571
216.22	50.000
216.59	260.000
216.97	260.000
217.34	75.000
217.72	100.000
218.09	75.000
218.47	250.000
218.84	0.000
219.22	-120.000
219.59	41.176
219.97	100.000
220.34	-250.000
220.72	166.667
221.09	200.000
221.47	400.000
221.84	50.000
222.22	85.714
222.59	0.000
222.97	137.500
223.34	80.000
223.72	700.000
224.09	300.000
224.46	200.000
224.84	180.000
225.21	14.286
225.59	25.000
225.96	100.000
226.34	73.077
226.71	-166.667
227.08	650.000
227.46	66.667
227.83	100.000
228.21	57.895
228.58	-100.000
228.95	-400.000
229.33	166.667
229.70	130.000
230.08	121.053
230.45	-100.000
230.82	300.000
231.20	107.143
231.57	66.667
231.95	63.636
232.32	63.636
232.69	95.000
233.07	450.000
233.44	58.824
233.81	160.000
234.19	144.444
234.56	90.909
234.93	62.069
235.31	47.368
235.68	50.000
236.05	10.000
236.43	80.769
236.80	76.000
237.17	55.556
237.55	51.515
237.92	40.000
238.29	38.710
238.67	22.727
239.04	47.222
239.41	19.048
239.79	30.435
240.16	7.407
240.53	19.565
240.91	15.686
241.28	29.508
241.65	40.299
242.02	22.973
242.40	12.308
242.77	9.333
243.14	18.293
243.51	1.316
243.89	2.564
244.26	11.881
244.63	16.667
245.00	2.804
245.38	14.912
245.75	9.735
246.12	12.698
246.49	7.752
246.87	15.000
247.24	15.232
247.61	12.500
247.98	11.409
248.36	11.111
248.73	12.883
249.10	8.197
249.47	11.940
249.84	17.801
250.22	10.363
250.59	13.333
250.96	15.455
251.33	3.571
251.70	11.111
252.08	7.917
252.45	8.607
252.82	5.785
253.19	5.469
253.56	9.886
253.94	7.308
254.31	10.985
254.68	10.839
255.05	9.121
255.42	6.463
255.79	7.443
256.16	5.629
256.54	5.629
256.91	11.803
257.28	8.525
257.65	6.051
258.02	4.425
258.39	8.262
258.76	10.092
259.14	8.333
259.51	7.493
259.88	8.215
260.25	7.778
260.62	9.589
260.99	7.377
261.36	10.188
261.73	7.162
262.10	7.143
262.47	8.043
262.85	8.333
263.22	5.974
263.59	4.211
263.96	7.673
264.33	5.115
264.70	6.914
265.07	10.263
265.44	10.658
265.81	5.324
266.18	7.937
266.55	8.705
266.92	5.467
267.29	6.783
267.66	6.430
268.03	5.022
268.40	6.472
268.77	5.239
269.14	2.643
269.51	5.702
269.88	8.197
270.25	8.249
270.62	8.861
270.99	8.485
271.36	9.307
271.73	7.269
272.10	8.016
272.47	5.611
272.84	5.823
273.21	6.212
273.58	5.645
273.95	5.962
274.32	5.894
274.69	7.737
275.06	8.059
275.43	5.915
275.80	7.055
276.17	5.000
276.54	7.463
276.91	5.188
277.28	4.340
277.65	6.463
278.02	5.882
278.39	6.703
278.76	6.327
279.13	5.851
279.50	7.904
279.87	5.725
280.23	2.641
280.60	5.763
280.97	5.921
281.34	5.772
281.71	8.122
282.08	6.146
282.45	4.255
282.82	5.495
283.19	5.170
283.56	4.590
283.92	6.907
284.29	8.057
284.66	8.539
285.03	4.006
285.40	7.573
285.77	4.489
286.14	7.634
286.51	5.784
286.87	4.897
287.24	6.476
287.61	5.531
287.98	4.532
288.35	5.325
288.72	4.734
289.08	4.978
289.45	6.361
289.82	5.873
290.19	7.184
290.56	7.887
290.93	5.421
291.29	5.510
291.66	6.474
292.03	4.613
292.40	5.850
292.77	5.930
293.13	4.601
293.50	4.599
293.87	6.174
294.24	6.667
294.60	6.068
294.97	3.893
295.34	4.994
295.71	3.657
296.08	4.910
296.44	5.147
296.81	4.750
297.18	4.234
297.55	5.660
297.91	4.982
298.28	4.739
298.65	4.994
299.02	5.785
299.38	5.606
299.75	4.673
300.12	5.440
300.48	4.032
300.85	5.849
301.22	4.922
301.59	4.110
301.95	5.650
302.32	5.667
302.69	6.024
303.05	4.679
303.42	5.211
303.79	5.104
304.15	4.942
304.52	4.863
304.89	4.921
305.25	5.280
305.62	4.911
305.99	6.082
306.35	4.940
306.72	5.584
307.09	4.162
307.45	5.901
307.82	5.348
308.19	4.036
308.55	6.461
308.92	5.648
309.29	4.885
309.65	4.776
310.02	5.347
310.38	4.528
310.75	4.272
311.12	4.986
311.48	4.790
311.85	4.748
312.22	5.218
312.58	5.070
312.95	4.207
313.31	4.155
313.68	5.678
314.05	5.601
314.41	5.556
314.78	4.450
315.14	5.172
315.51	5.540
315.87	5.761
316.24	5.662
316.61	5.062
316.97	3.891
317.34	4.938
317.70	6.201
318.07	5.908
318.43	5.782
318.80	5.268
319.16	4.549
319.53	4.542
319.89	3.681
320.26	5.516
320.62	5.230
320.99	4.986
321.35	5.453
321.72	5.488
322.08	4.959
322.45	4.788
322.81	5.686
323.18	4.336
323.54	5.345
323.91	5.427
324.27	5.508
324.64	5.038
325.00	4.975
325.37	4.914
325.73	5.455
326.10	5.515
326.46	5.782
326.83	6.245
327.19	5.276
327.56	6.403
327.92	4.485
328.29	4.919
328.65	5.863
329.01	5.076
329.38	4.802
329.74	5.822
330.11	4.452
330.47	5.223
330.84	5.685
331.20	6.000
331.56	4.939
331.93	6.025
332.29	6.271
332.66	5.399
333.02	5.360
333.38	5.285
333.75	4.293
334.11	5.338
334.48	5.446
334.84	6.712
335.20	5.542
335.57	6.239
335.93	5.868
336.29	4.992
336.66	5.635
337.02	5.853
337.38	6.888
337.75	5.372
338.11	5.130
338.47	6.038
338.84	4.484
339.20	5.392
339.56	6.260
339.93	5.419
340.29	5.072
340.65	6.245
341.02	6.065
341.38	6.548
341.74	5.004
342.11	5.953
342.47	5.322
342.83	5.314
343.20	5.642
343.56	5.052
343.92	4.964
344.28	5.391
344.65	6.744
345.01	6.084
345.37	5.521
345.73	4.677
346.10	5.304
346.46	4.747
346.82	6.217
347.19	6.188
347.55	5.690
347.91	5.349
348.27	5.842
348.63	6.169
349.00	5.817
349.36	5.428
349.72	5.357
350.08	5.795
350.45	5.399
350.81	4.600
351.17	5.489
351.53	5.080
351.89	5.163
352.26	4.925
352.62	5.597
352.98	4.580
353.34	5.153
353.70	4.777
354.07	5.142
354.43	4.252
354.79	4.787
355.15	4.783
355.51	5.921
355.87	5.535
356.24	4.411
356.60	5.765
356.96	4.967
357.32	4.833
357.68	5.271
358.04	5.015
358.40	5.000
358.77	5.044
359.13	4.874
359.49	4.535
359.85	5.004
360.21	5.524
360.57	4.882
360.93	5.430
361.29	5.193
361.66	4.924
362.02	6.124
362.38	6.114
362.74	4.888
363.10	6.534
363.46	5.886
363.82	5.114
364.18	4.785
364.54	5.463
364.90	5.619
365.26	4.345
365.62	5.600
365.98	5.378
366.35	4.765
366.71	5.374
367.07	5.277
367.43	5.712
367.79	5.309
368.15	5.886
368.51	5.548
368.87	5.944
369.23	5.467
369.59	5.601
369.95	5.409
370.31	5.942
370.67	4.677
371.03	4.917
371.39	4.768
371.75	5.089
372.11	6.030
372.47	5.281
372.83	6.610
373.19	5.404
373.55	5.217
373.91	5.112
374.27	5.627
374.63	5.954
374.99	4.973
375.35	6.169
375.71	5.032
376.07	5.423
376.42	5.730
376.78	6.464
377.14	5.677
377.50	5.819
377.86	5.850
378.22	5.808
378.58	5.172
378.94	5.340
379.30	5.390
379.66	5.938
380.02	5.020
380.38	5.530
380.74	5.014
381.09	5.633
381.45	6.136
381.81	5.855
382.17	5.582
382.53	5.965
382.89	5.700
383.25	5.627
383.61	4.803
383.97	5.830
384.32	6.100
384.68	5.510
385.04	6.825
385.40	6.187
385.76	6.448
386.12	5.984
386.48	6.588
386.83	6.973
387.19	5.620
387.55	5.810
387.91	5.822
388.27	6.409
388.62	5.670
388.98	6.091
389.34	6.187
389.70	6.450
390.06	6.927
390.42	6.024
390.77	7.164
391.13	6.573
391.49	7.729
391.85	6.121
392.20	6.762
392.56	6.379
392.92	7.306
393.28	6.523
393.64	6.369
393.99	6.798
394.35	6.542
394.71	6.707
395.07	6.467
395.42	6.453
395.78	7.008
396.14	7.249
396.50	6.651
396.85	6.917
397.21	5.858
397.57	6.537
397.92	6.758
398.28	5.921
398.64	6.178
399.00	6.545
399.35	6.230
399.71	6.630
400.07	6.064
400.42	6.519
400.78	6.713
401.14	6.431
401.49	6.595
401.85	6.570
402.21	6.315
402.57	6.925
402.92	6.797
403.28	6.674
403.63	6.683
403.99	6.651
404.35	6.652
404.70	6.799
405.06	6.739
405.42	7.260
405.77	7.197
406.13	6.645
406.49	6.306
406.84	6.704
407.20	6.428
407.55	5.694
407.91	6.851
408.27	7.008
408.62	6.690
408.98	6.907
409.34	5.513
409.69	7.108
410.05	6.682
410.40	6.439
410.76	6.730
411.11	6.312
411.47	7.002
411.83	7.466
412.18	7.169
412.54	7.113
412.89	6.927
413.25	6.828
413.60	6.548
413.96	7.051
414.31	6.799
414.67	7.394
415.03	6.646
415.38	6.873
415.74	7.086
416.09	7.094
416.45	7.013
416.80	6.793
417.16	6.322
417.51	7.223
417.87	7.419
418.22	7.365
418.58	6.258
418.93	7.800
419.29	5.734
419.64	6.783
420.00	6.944
420.35	6.682
420.71	7.180
421.06	6.268
421.42	6.709
421.77	6.462
422.12	7.030
422.48	6.452
422.83	6.791
423.19	6.844
423.54	6.803
423.90	6.626
424.25	7.573
424.61	6.028
424.96	7.139
425.31	6.582
425.67	5.958
426.02	6.752
426.38	6.946
426.73	6.641
427.09	8.074
427.44	6.881
427.79	6.578
428.15	6.279
428.50	6.404
428.85	7.176
429.21	7.234
429.56	6.910
429.92	6.192
430.27	6.747
430.62	6.204
430.98	6.591
431.33	6.256
431.68	6.705
432.04	6.704
432.39	6.856
432.74	6.678
433.10	7.301
433.45	6.689
433.80	6.652
434.16	6.921
434.51	6.732
434.86	6.786
435.22	6.642
435.57	7.134
435.92	7.067
436.28	7.338
436.63	6.772
436.98	6.817
437.34	7.441
437.69	6.494
438.04	6.822
438.39	6.663
438.75	6.918
439.10	7.347
439.45	7.099
439.81	6.158
440.16	7.131
440.51	7.023
440.86	6.893
441.22	7.128
441.57	6.499
441.92	6.741
442.27	7.172
442.63	7.551
442.98	6.884
443.33	6.786
443.68	8.028
444.03	6.961
444.39	7.120
444.74	6.993
445.09	6.640
445.44	7.323
445.79	6.849
446.15	7.914
446.50	6.305
446.85	6.809
447.20	6.915
447.55	7.061
447.91	6.649
448.26	7.188
448.61	7.545
448.96	7.564
449.31	6.999
449.66	6.209
450.02	7.489
450.37	7.778
450.72	6.674
451.07	7.517
451.42	6.586
451.77	6.948
452.12	6.772
452.47	6.892
452.83	6.757
453.18	6.772
453.53	6.433
453.88	7.786
454.23	6.723
454.58	7.487
454.93	6.493
455.28	7.164
455.63	7.561
455.98	6.704
456.34	6.714
456.69	6.761
457.04	6.797
457.39	7.262
457.74	6.991
458.09	6.150
458.44	7.543
458.79	6.653
459.14	7.132
459.49	6.395
459.84	7.135
460.19	6.441
460.54	7.155
460.89	6.723
461.24	6.667
461.59	7.250
461.94	6.446
462.29	6.551
462.64	7.061
462.99	6.529
463.34	7.008
463.69	7.444
464.04	7.893
464.39	7.007
464.74	7.469
465.09	6.863
465.44	6.545
465.79	6.980
466.14	6.618
466.49	7.579
466.84	6.887
467.19	6.879
467.54	6.757
467.89	7.069
468.24	6.704
468.59	6.659
468.94	6.527
469.29	6.539
469.64	6.548
469.99	6.501
470.34	6.683
470.68	7.382
471.03	7.007
471.38	7.325
471.73	6.242
472.08	6.853
472.43	7.345
472.78	6.675
473.13	6.637
473.48	7.311
473.83	7.429
474.17	6.858
474.52	7.096
474.87	7.309
475.22	7.831
475.57	6.646
475.92	7.267
476.27	6.869
476.61	7.269
476.96	6.986
477.31	7.228
477.66	7.135
478.01	6.812
478.36	7.129
478.70	6.601
479.05	7.004
479.40	6.663
479.75	7.253
480.10	7.058
480.45	6.928
480.79	7.075
481.14	6.480
481.49	6.315
481.84	6.658
482.19	7.097
482.53	6.777
482.88	6.912
483.23	6.447
483.58	7.118
483.92	6.959
484.27	6.986
484.62	6.518
484.97	7.037
485.31	6.371
485.66	6.751
486.01	6.260
486.36	5.786
486.70	6.118
487.05	5.983
487.40	6.385
487.75	6.768
488.09	6.368
488.44	6.412
488.79	7.015
489.13	7.060
489.48	6.485
489.83	6.640
490.17	6.602
490.52	6.856
490.87	6.726
491.22	6.802
491.56	6.954
491.91	7.283
492.26	7.226
492.60	6.777
492.95	6.889
493.30	6.365
493.64	6.658
493.99	6.974
494.34	6.969
494.68	6.681
495.03	7.048
495.37	6.924
495.72	6.757
496.07	7.581
496.41	6.950
496.76	7.381
497.11	6.369
497.45	6.819
497.80	6.841
498.14	6.939
498.49	6.710
498.84	6.673
499.18	6.973
499.53	7.130
499.87	6.945
500.22	6.411
500.56	6.883
500.91	7.231
501.26	7.045
501.60	6.628
501.95	7.208
502.29	6.977
502.64	7.215
502.98	6.946
503.33	6.652
503.67	6.367
504.02	6.961
504.36	7.417
504.71	6.982
505.06	6.912
505.40	7.130
505.75	6.876
506.09	7.182
506.44	7.335
506.78	7.706
507.13	7.331
507.47	7.248
507.82	7.055
508.16	7.170
508.51	6.845
508.85	6.802
509.19	7.153
509.54	7.877
509.88	7.188
510.23	7.965
510.57	7.830
510.92	7.160
511.26	6.686
511.61	6.567
511.95	7.272
512.30	7.533
512.64	6.897
512.98	7.904
513.33	7.560
513.67	7.547
514.02	7.665
514.36	7.980
514.70	7.604
515.05	6.986
515.39	7.927
515.74	7.900
516.08	7.184
516.42	8.373
516.77	7.571
517.11	7.169
517.46	8.006
517.80	7.803
518.14	8.596
518.49	8.134
518.83	7.238
519.17	7.539
519.52	8.438
519.86	7.920
520.20	7.987
520.55	6.955
520.89	7.770
521.23	7.761
521.58	8.644
521.92	8.272
522.26	7.216
522.61	7.581
522.95	7.785
523.29	7.759
523.64	8.296
523.98	8.329
524.32	8.768
524.66	7.684
525.01	7.531
525.35	7.467
525.69	8.295
526.04	8.152
526.38	7.241
526.72	8.304
527.06	7.742
527.41	8.455
527.75	7.067
528.09	7.910
528.43	8.052
528.78	8.035
529.12	7.397
529.46	8.319
529.80	8.524
530.15	8.406
530.49	7.533
530.83	8.205
531.17	8.244
531.51	8.424
531.86	8.113
532.20	8.354
532.54	8.558
532.88	7.939
533.22	7.425
533.57	8.771
533.91	8.866
534.25	7.688
534.59	8.218
534.93	7.923
535.27	8.056
535.62	8.755
535.96	8.367
536.30	7.873
536.64	9.009
536.98	8.918
537.32	8.580
537.66	8.235
538.01	8.459
538.35	7.856
538.69	8.413
539.03	8.768
539.37	8.245
539.71	7.748
540.05	8.753
540.39	7.579
540.73	7.893
541.07	8.093
541.42	8.269
541.76	7.414
542.10	8.444
542.44	7.917
542.78	8.759
543.12	8.284
543.46	7.937
543.80	8.753
544.14	8.259
544.48	7.742
544.82	7.421
545.16	8.468
545.50	8.149
545.84	8.696
546.18	8.951
546.52	8.981
546.86	7.987
547.20	8.206
547.54	8.115
547.88	8.379
548.22	8.070
548.56	8.719
548.90	8.179
549.24	8.815
549.58	7.950
549.92	8.482
550.26	8.932
550.60	8.615
550.94	9.056
551.28	8.449
551.62	9.097
551.96	8.285
552.30	8.795
552.64	8.712
552.98	8.546
553.32	9.003
553.66	9.132
554.00	8.701
554.34	8.945
554.68	9.038
555.02	8.739
555.36	9.336
555.69	7.880
556.03	8.386
556.37	9.136
556.71	8.561
557.05	8.754
557.39	8.494
557.73	8.653
558.07	7.881
558.41	9.369
558.75	9.128
559.08	9.116
559.42	8.505
559.76	9.973
560.10	9.444
560.44	8.707
560.78	9.688
561.12	8.990
561.45	8.090
561.79	9.524
562.13	9.365
562.47	8.076
562.81	8.165
563.15	8.523
563.48	8.452
563.82	8.102
564.16	7.571
564.50	7.807
564.84	8.378
565.17	8.235
565.51	7.710
565.85	7.838
566.19	8.122
566.52	8.426
566.86	8.432
567.20	7.885
567.54	8.710
567.88	8.359
568.21	8.103
568.55	8.297
568.89	8.398
569.23	7.689
569.56	7.816
569.90	7.983
570.24	7.555
570.57	7.601
570.91	7.440
571.25	7.637
571.59	7.515
571.92	7.249
572.26	7.041
572.60	7.262
572.93	7.626
573.27	7.334
573.61	7.570
573.95	7.550
574.28	7.452
574.62	7.412
574.96	7.168
575.29	7.358
575.63	7.438
575.97	7.257
576.30	7.377
576.64	7.182
576.98	7.198
577.31	7.205
577.65	7.057
577.98	7.398
578.32	6.968
578.66	7.030
578.99	6.840
579.33	7.048
579.67	7.094
580.00	7.305
580.34	7.657
580.67	7.215
581.01	7.421
581.35	7.208
581.68	7.169
582.02	7.231
582.35	7.152
582.69	7.116
583.02	7.382
583.36	7.332
583.70	7.157
584.03	7.007
584.37	7.381
584.70	7.579
585.04	7.184
585.37	7.269
585.71	7.249
586.04	7.133
586.38	7.289
586.72	7.295
587.05	7.061
587.39	7.455
587.72	7.608
588.06	7.471
588.39	7.493
588.73	7.513
589.06	7.703
589.40	7.376
589.73	7.841
590.07	8.190
590.40	7.945
590.73	7.423
591.07	8.191
591.40	7.621
591.74	7.909
592.07	8.689
592.41	7.689
592.74	8.058
593.08	7.930
593.41	7.991
593.75	7.414
594.08	7.513
594.41	7.788
594.75	7.240
595.08	7.537
595.42	7.597
595.75	7.782
596.09	7.828
596.42	7.990
596.75	8.066
597.09	8.364
597.42	7.787
597.75	7.879
598.09	8.095
598.42	7.720
598.76	7.337
599.09	7.761
599.42	7.677
599.76	7.824
600.09	7.774
600.42	7.975
600.76	7.332
601.09	7.800
601.42	7.896
601.76	7.793
602.09	7.470
602.42	8.070
602.76	7.417
603.09	8.150
603.42	7.695
603.76	7.893
604.09	8.055
604.42	7.853
604.76	7.382
605.09	7.738
605.42	8.054
605.75	7.769
606.09	7.652
606.42	7.771
606.75	7.346
607.09	8.333
607.42	7.707
607.75	7.972
608.08	7.735
608.42	7.819
608.75	8.333
609.08	7.683
609.41	7.719
609.75	7.545
610.08	7.916
610.41	8.156
610.74	7.185
611.07	8.082
611.41	7.848
611.74	8.083
612.07	7.714
612.40	7.652
612.73	7.384
613.07	8.362
613.40	8.710
613.73	7.848
614.06	8.243
614.39	7.823
614.72	7.666
615.06	8.277
615.39	8.555
615.72	8.199
616.05	8.111
616.38	8.375
616.71	7.994
617.05	7.827
617.38	8.507
617.71	7.883
618.04	7.879
618.37	8.087
618.70	9.333
619.03	8.184
619.36	8.446
619.69	8.776
620.03	8.475
620.36	8.221
620.69	8.637
621.02	8.727
621.35	9.869
621.68	9.111
622.01	8.043
622.34	8.787
622.67	8.797
623.00	8.097
623.33	8.361
623.66	8.949
623.99	8.822
624.32	9.227
624.65	7.529
624.99	8.518
625.32	9.275
625.65	8.496
625.98	7.797
626.31	8.505
626.64	8.132
626.97	9.227
627.30	7.745
627.63	9.002
627.96	9.535
628.29	9.883
628.62	7.641
628.95	7.713
629.28	9.091
629.61	9.175
629.94	9.372
630.26	9.153
630.59	9.585
630.92	9.264
631.25	9.302
631.58	9.981
631.91	8.435
632.24	8.838
632.57	9.393
632.90	9.328
633.23	9.286
633.56	9.388
633.89	8.471
634.22	9.356
634.55	10.230
634.88	9.740
635.20	10.118
635.53	10.282
635.86	9.317
636.19	11.559
636.52	8.966
636.85	8.989
637.18	9.252
637.51	9.462
637.83	8.859
638.16	9.101
638.49	9.507
638.82	8.568
639.15	8.591
639.48	10.393
639.81	10.970
640.13	8.952
640.46	8.242
640.79	7.475
641.12	11.429
641.45	8.783
641.77	11.425
642.10	8.793
642.43	12.101
642.76	11.247
643.09	8.904
643.41	10.084
643.74	9.379
644.07	9.655
644.40	10.042
644.73	9.869
645.05	8.957
645.38	11.079
645.71	10.850
646.04	11.478
646.36	9.635
646.69	10.736
647.02	12.232
647.35	10.992
647.67	11.594
648.00	10.350
648.33	11.261
648.66	9.130
648.98	9.524
649.31	9.743
649.64	10.491
649.96	9.549
650.29	7.371
650.62	10.608
650.94	9.760
651.27	8.234
651.60	10.526
651.92	7.903
652.25	10.130
652.58	10.179
652.90	8.721
653.23	10.704
653.56	9.415
653.88	11.517
654.21	9.577
654.54	10.116
654.86	10.765
655.19	7.152
655.52	9.737
655.84	5.997
656.17	7.685
656.49	10.644
656.82	11.818
657.15	9.345
657.47	6.912
657.80	5.208
658.13	4.241
658.45	5.889
