SpectraSuite Data File
++++++++++++++++++++++++++++++++++++
Date: Thu May 14 14:59:45 PDT 2015
User: schluterlab
Dark Spectrum Present: Yes
Reference Spectrum Present: Yes
Number of Sampled Component Spectra: 1
Spectrometers: USB2E3373
Integration Time (usec): 3000 (USB2E3373)
Spectra Averaged: 3 (USB2E3373)
Boxcar Smoothing: 0 (USB2E3373)
Correct for Electrical Dark: No (USB2E3373)
Strobe/Lamp Enabled: No (USB2E3373)
Correct for Detector Non-linearity: No (USB2E3373)
Correct for Stray Light: No (USB2E3373)
Number of Pixels in Processed Spectrum: 2048
>>>>>Begin Processed Spectral Data<<<<<
178.53	0.000
178.91	285.714
179.29	-2600.000
179.67	-3100.000
180.04	321.429
180.42	180.000
180.80	360.000
181.18	-1900.000
181.56	-1500.000
181.94	725.000
182.31	-525.000
182.69	700.000
183.07	-700.000
183.45	575.000
183.83	-366.667
184.20	-733.333
184.58	1700.000
184.96	-700.000
185.34	-200.000
185.72	-360.000
186.09	277.778
186.47	1300.000
186.85	580.000
187.23	-277.778
187.61	-2000.000
187.98	320.000
188.36	575.000
188.74	-775.000
189.12	-466.667
189.49	-56.250
189.87	-175.000
190.25	-222.222
190.63	-340.000
191.00	-333.333
191.38	0.000
191.76	-750.000
192.14	-416.667
192.51	1100.000
192.89	-233.333
193.27	0.000
193.65	-328.571
194.02	-2100.000
194.40	-228.571
194.78	328.571
195.15	0.000
195.53	-181.818
195.91	0.000
196.29	-325.000
196.66	-92.308
197.04	-2900.000
197.42	-200.000
197.79	-1200.000
198.17	-312.500
198.55	-257.143
198.92	-211.111
199.30	-275.000
199.68	-100.000
200.05	-142.857
200.43	-1300.000
200.81	342.857
201.18	0.000
201.56	277.778
201.94	0.000
202.31	933.333
202.69	-266.667
203.07	2100.000
203.44	-244.444
203.82	-600.000
204.19	-191.667
204.57	-200.000
204.95	-212.500
205.32	-2100.000
205.70	575.000
206.08	-166.667
206.45	-266.667
206.83	580.000
207.20	-283.333
207.58	-540.000
207.96	-416.667
208.33	-83.333
208.71	175.000
209.08	-283.333
209.46	0.000
209.84	416.667
210.21	850.000
210.59	1000.000
210.96	933.333
211.34	-400.000
211.71	-300.000
212.09	-2700.000
212.46	0.000
212.84	1550.000
213.22	-560.000
213.59	-575.000
213.97	-210.000
214.34	-566.667
214.72	350.000
215.09	-675.000
215.47	0.000
215.84	371.429
216.22	900.000
216.59	-320.000
216.97	-560.000
217.34	-450.000
217.72	-225.000
218.09	-725.000
218.47	-425.000
218.84	0.000
219.22	480.000
219.59	-141.176
219.97	-95.000
220.34	1450.000
220.72	-300.000
221.09	-138.462
221.47	-566.667
221.84	-230.000
222.22	-285.714
222.59	0.000
222.97	-125.000
223.34	-340.000
223.72	-2100.000
224.09	-475.000
224.46	-650.000
224.84	-300.000
225.21	-342.857
225.59	-525.000
225.96	-725.000
226.34	-30.769
226.71	366.667
227.08	-1400.000
227.46	-33.333
227.83	-325.000
228.21	-78.947
228.58	337.500
228.95	1100.000
229.33	-141.667
229.70	-180.000
230.08	-42.105
230.45	290.000
230.82	-733.333
231.20	-121.429
231.57	-108.333
231.95	-190.909
232.32	-118.182
232.69	-50.000
233.07	-550.000
233.44	-135.294
233.81	-250.000
234.19	-55.556
234.56	-45.455
234.93	-31.034
235.31	-84.211
235.68	-61.111
236.05	-85.000
236.43	-34.615
236.80	-4.000
237.17	-29.630
237.55	-45.455
237.92	-160.000
238.29	-48.387
238.67	-31.818
239.04	-38.889
239.41	-11.905
239.79	-8.696
240.16	-7.407
240.53	0.000
240.91	-27.451
241.28	-14.754
241.65	7.463
242.02	2.703
242.40	-15.385
242.77	-12.000
243.14	-7.317
243.51	-7.895
243.89	5.128
244.26	8.911
244.63	9.804
245.00	11.215
245.38	12.281
245.75	5.310
246.12	15.079
246.49	5.426
246.87	14.286
247.24	9.272
247.61	10.526
247.98	22.819
248.36	15.432
248.73	13.497
249.10	16.940
249.47	19.403
249.84	20.419
250.22	13.990
250.59	14.444
250.96	21.364
251.33	11.224
251.70	18.803
252.08	20.833
252.45	22.541
252.82	24.793
253.19	16.406
253.56	22.814
253.94	19.615
254.31	21.591
254.68	20.629
255.05	20.521
255.42	20.408
255.79	20.388
256.16	17.881
256.54	18.543
256.91	19.344
257.28	21.639
257.65	19.745
258.02	17.699
258.39	19.088
258.76	27.523
259.14	23.276
259.51	24.496
259.88	21.813
260.25	24.167
260.62	25.753
260.99	27.049
261.36	26.273
261.73	22.546
262.10	23.352
262.47	24.129
262.85	24.747
263.22	20.260
263.59	21.842
263.96	25.064
264.33	24.552
264.70	23.951
265.07	26.014
265.44	25.170
265.81	20.602
266.18	26.304
266.55	21.875
266.92	23.918
267.29	24.726
267.66	21.729
268.03	23.799
268.40	24.008
268.77	23.235
269.14	22.026
269.51	21.491
269.88	25.205
270.25	23.944
270.62	24.684
270.99	26.061
271.36	24.752
271.73	23.183
272.10	24.449
272.47	25.651
272.84	21.888
273.21	25.050
273.58	25.202
273.95	23.269
274.32	22.433
274.69	21.470
275.06	26.740
275.43	23.290
275.80	24.339
276.17	24.444
276.54	22.761
276.91	20.930
277.28	24.593
277.65	21.903
278.02	25.919
278.39	23.188
278.76	23.374
279.13	21.809
279.50	24.742
279.87	23.256
280.23	20.599
280.60	24.407
280.97	22.039
281.34	24.109
281.71	24.196
282.08	24.419
282.45	20.622
282.82	23.705
283.19	21.002
283.56	21.475
283.92	24.474
284.29	24.171
284.66	22.660
285.03	20.192
285.40	22.257
285.77	20.743
286.14	21.985
286.51	20.091
286.87	21.959
287.24	21.988
287.61	23.169
287.98	20.997
288.35	22.189
288.72	21.302
289.08	22.694
289.45	20.118
289.82	21.084
290.19	21.983
290.56	20.845
290.93	21.683
291.29	21.074
291.66	18.320
292.03	19.810
292.40	21.224
292.77	18.464
293.13	18.133
293.50	19.317
293.87	19.732
294.24	20.800
294.60	20.986
294.97	19.732
295.34	19.846
295.71	19.042
296.08	20.672
296.44	19.975
296.81	18.879
297.18	18.306
297.55	17.453
297.91	18.743
298.28	16.114
298.65	17.122
299.02	17.119
299.38	18.993
299.75	17.757
300.12	17.940
300.48	17.742
300.85	17.998
301.22	18.121
301.59	16.895
301.95	18.192
302.32	18.667
302.69	16.977
303.05	17.954
303.42	16.851
303.79	18.438
304.15	16.824
304.52	18.076
304.89	16.545
305.25	16.460
305.62	17.450
305.99	18.247
306.35	18.044
306.72	18.304
307.09	16.041
307.45	16.460
307.82	18.365
308.19	17.659
308.55	18.708
308.92	17.527
309.29	17.433
309.65	18.129
310.02	16.733
310.38	17.913
310.75	16.796
311.12	16.970
311.48	17.986
311.85	17.379
312.22	17.078
312.58	17.089
312.95	18.069
313.31	17.706
313.68	18.223
314.05	18.067
314.41	18.670
314.78	19.164
315.14	18.784
315.51	18.006
315.87	18.272
316.24	18.813
316.61	20.515
316.97	17.828
317.34	18.166
317.70	20.175
318.07	19.048
318.43	20.238
318.80	21.070
319.16	19.313
319.53	18.166
319.89	20.771
320.26	21.263
320.62	20.301
320.99	21.422
321.35	20.425
321.72	21.581
322.08	22.362
322.45	21.409
322.81	22.834
323.18	23.186
323.54	23.017
323.91	24.555
324.27	23.408
324.64	25.609
325.00	23.300
325.37	24.980
325.73	25.041
326.10	24.980
326.46	27.117
326.83	26.501
327.19	26.614
327.56	27.747
327.92	27.223
328.29	27.419
328.65	26.466
329.01	27.834
329.38	27.970
329.74	30.051
330.11	30.137
330.47	29.907
330.84	30.060
331.20	30.583
331.56	31.109
331.93	30.293
332.29	31.017
332.66	30.731
333.02	30.905
333.38	31.376
333.75	31.229
334.11	31.693
334.48	31.601
334.84	33.220
335.20	33.081
335.57	33.221
335.93	32.314
336.29	31.032
336.66	32.885
337.02	32.776
337.38	33.333
337.75	33.388
338.11	33.305
338.47	33.002
338.84	33.333
339.20	33.024
339.56	33.526
339.93	32.841
340.29	33.253
340.65	32.603
341.02	33.919
341.38	33.549
341.74	33.414
342.11	33.467
342.47	32.963
342.83	35.185
343.20	35.732
343.56	33.921
343.92	34.828
344.28	33.594
344.65	35.271
345.01	34.555
345.37	34.292
345.73	33.749
346.10	34.867
346.46	33.782
346.82	34.981
347.19	34.912
347.55	35.888
347.91	35.661
348.27	35.205
348.63	34.653
349.00	34.377
349.36	34.796
349.72	34.821
350.08	36.627
350.45	35.057
350.81	35.294
351.17	35.263
351.53	36.922
351.89	36.978
352.26	35.746
352.62	35.373
352.98	35.496
353.34	35.549
353.70	37.827
354.07	36.513
354.43	37.130
354.79	36.126
355.15	36.939
355.51	37.354
355.87	36.500
356.24	37.338
356.60	36.438
356.96	38.176
357.32	35.762
357.68	36.237
358.04	37.575
358.40	37.910
358.77	37.208
359.13	36.780
359.49	36.580
359.85	36.838
360.21	37.303
360.57	37.545
360.93	38.293
361.29	38.035
361.66	37.509
362.02	38.483
362.38	39.845
362.74	38.408
363.10	37.689
363.46	40.028
363.82	39.489
364.18	39.972
364.54	39.903
364.90	39.866
365.26	39.724
365.62	41.333
365.98	40.844
366.35	39.732
366.71	40.340
367.07	40.257
367.43	40.381
367.79	41.606
368.15	41.672
368.51	40.663
368.87	40.888
369.23	40.333
369.59	42.213
369.95	40.974
370.31	42.809
370.67	42.847
371.03	43.006
371.39	42.377
371.75	43.398
372.11	43.902
372.47	42.586
372.83	42.801
373.19	42.895
373.55	43.564
373.91	43.354
374.27	43.338
374.63	45.940
374.99	43.767
375.35	44.675
375.71	44.968
376.07	44.674
376.42	45.340
376.78	46.053
377.14	45.664
377.50	46.110
377.86	46.736
378.22	45.928
378.58	47.681
378.94	45.775
379.30	47.686
379.66	48.266
380.02	48.125
380.38	49.827
380.74	48.620
381.09	49.129
381.45	49.318
381.81	49.766
382.17	50.238
382.53	49.474
382.89	49.153
383.25	51.114
383.61	51.678
383.97	52.120
384.32	52.333
384.68	51.450
385.04	52.227
385.40	54.154
385.76	53.869
386.12	52.124
386.48	52.529
386.83	53.993
387.19	53.534
387.55	53.756
387.91	53.596
388.27	53.464
388.62	53.436
388.98	53.130
389.34	54.567
389.70	55.433
390.06	55.536
390.42	54.639
390.77	56.051
391.13	56.103
391.49	56.280
391.85	56.303
392.20	55.931
392.56	55.818
392.92	55.671
393.28	56.993
393.64	57.263
393.99	57.292
394.35	57.944
394.71	57.425
395.07	57.365
395.42	56.539
395.78	57.587
396.14	60.131
396.50	57.126
396.85	57.961
397.21	57.041
397.57	59.364
397.92	58.706
398.28	57.360
398.64	58.238
399.00	57.016
399.35	57.644
399.71	59.348
400.07	59.236
400.42	57.916
400.78	58.275
401.14	57.257
401.49	60.432
401.85	59.709
402.21	58.749
402.57	59.624
402.92	60.106
403.28	59.192
403.63	59.129
403.99	58.907
404.35	58.499
404.70	58.300
405.06	58.424
405.42	59.719
405.77	59.269
406.13	57.915
406.49	59.797
406.84	59.169
407.20	59.139
407.55	58.449
407.91	59.459
408.27	57.715
408.62	59.802
408.98	59.257
409.34	59.062
409.69	59.147
410.05	59.672
410.40	59.223
410.76	58.665
411.11	59.497
411.47	60.135
411.83	59.377
412.18	60.241
412.54	58.803
412.89	59.080
413.25	58.521
413.60	59.966
413.96	58.217
414.31	58.754
414.67	60.167
415.03	58.277
415.38	59.899
415.74	58.583
416.09	59.901
416.45	58.297
416.80	59.180
417.16	60.281
417.51	59.153
417.87	58.798
418.22	59.880
418.58	58.736
418.93	58.498
419.29	59.063
419.64	58.643
420.00	59.525
420.35	58.563
420.71	58.300
421.06	57.389
421.42	60.149
421.77	58.212
422.12	58.985
422.48	59.447
422.83	59.803
423.19	59.469
423.54	60.564
423.90	59.746
424.25	59.947
424.61	59.816
424.96	59.473
425.31	58.439
425.67	59.689
426.02	60.985
426.38	60.792
426.73	59.263
427.09	60.611
427.44	58.766
427.79	60.586
428.15	59.989
428.50	60.337
428.85	60.046
429.21	60.213
429.56	60.020
429.92	59.509
430.27	60.048
430.62	60.039
430.98	60.059
431.33	59.433
431.68	60.824
432.04	60.538
432.39	59.936
432.74	59.932
433.10	60.465
433.45	59.922
433.80	59.657
434.16	58.884
434.51	60.894
434.86	62.486
435.22	61.265
435.57	62.146
435.92	61.658
436.28	61.832
436.63	62.862
436.98	60.172
437.34	61.950
437.69	61.640
438.04	60.550
438.39	61.344
438.75	61.760
439.10	61.945
439.45	60.648
439.81	61.186
440.16	61.019
440.51	61.817
440.86	60.812
441.22	60.129
441.57	61.059
441.92	60.039
442.27	62.424
442.63	61.202
442.98	60.726
443.33	62.283
443.68	61.893
444.03	61.759
444.39	61.627
444.74	62.175
445.09	60.821
445.44	63.066
445.79	62.356
446.15	61.511
446.50	62.171
446.85	62.160
447.20	61.267
447.55	62.866
447.91	60.942
448.26	61.522
448.61	61.371
448.96	63.519
449.31	60.710
449.66	61.383
450.02	61.129
450.37	61.747
450.72	62.110
451.07	62.244
451.42	61.525
451.77	61.979
452.12	62.585
452.47	61.794
452.83	63.626
453.18	60.712
453.53	61.401
453.88	61.126
454.23	61.582
454.58	62.681
454.93	61.044
455.28	61.589
455.63	63.104
455.98	62.123
456.34	61.720
456.69	61.552
457.04	63.416
457.39	61.086
457.74	62.975
458.09	61.779
458.44	61.692
458.79	60.289
459.14	61.038
459.49	62.705
459.84	62.067
460.19	61.688
460.54	62.010
460.89	61.620
461.24	61.609
461.59	62.147
461.94	60.753
462.29	63.214
462.64	60.954
462.99	62.837
463.34	62.362
463.69	60.903
464.04	61.256
464.39	61.491
464.74	61.117
465.09	61.476
465.44	62.393
465.79	61.343
466.14	60.761
466.49	61.895
466.84	63.471
467.19	60.867
467.54	60.752
467.89	60.977
468.24	62.438
468.59	60.336
468.94	61.189
469.29	60.768
469.64	62.174
469.99	60.739
470.34	61.324
470.68	61.859
471.03	62.868
471.38	59.974
471.73	61.834
472.08	61.041
472.43	62.613
472.78	61.272
473.13	61.504
473.48	61.873
473.83	61.695
474.17	61.079
474.52	63.019
474.87	61.573
475.22	61.915
475.57	61.267
475.92	61.274
476.27	61.182
476.61	60.540
476.96	62.513
477.31	62.277
477.66	62.539
478.01	60.346
478.36	60.169
478.70	60.936
479.05	62.474
479.40	61.204
479.75	60.999
480.10	60.303
480.45	60.939
480.79	62.358
481.14	61.167
481.49	62.608
481.84	61.619
482.19	61.591
482.53	62.396
482.88	61.498
483.23	62.517
483.58	61.179
483.92	60.505
484.27	61.473
484.62	61.427
484.97	61.586
485.31	59.944
485.66	56.441
486.01	58.763
486.36	61.059
486.70	64.724
487.05	65.729
487.40	63.524
487.75	62.672
488.09	62.074
488.44	59.834
488.79	60.067
489.13	60.717
489.48	61.087
489.83	60.362
490.17	61.118
490.52	60.961
490.87	61.210
491.22	61.655
491.56	60.751
491.91	61.404
492.26	61.705
492.60	62.265
492.95	62.001
493.30	61.990
493.64	61.191
493.99	60.833
494.34	60.671
494.68	61.542
495.03	61.498
495.37	62.273
495.72	62.540
496.07	62.138
496.41	61.175
496.76	61.468
497.11	61.146
497.45	61.761
497.80	62.061
498.14	61.678
498.49	61.167
498.84	61.517
499.18	61.628
499.53	61.973
499.87	61.319
500.22	61.175
500.56	62.078
500.91	61.465
501.26	62.955
501.60	61.511
501.95	61.268
502.29	62.089
502.64	61.740
502.98	61.648
503.33	61.425
503.67	61.273
504.02	61.734
504.36	62.466
504.71	61.553
505.06	62.210
505.40	61.974
505.75	62.067
506.09	62.477
506.44	62.349
506.78	63.073
507.13	62.195
507.47	63.145
507.82	62.311
508.16	62.859
508.51	61.556
508.85	63.108
509.19	61.677
509.54	63.208
509.88	62.846
510.23	62.312
510.57	63.316
510.92	62.845
511.26	61.568
511.61	62.192
511.95	63.006
512.30	63.762
512.64	62.219
512.98	62.981
513.33	64.415
513.67	64.457
514.02	63.720
514.36	64.194
514.70	64.427
515.05	63.816
515.39	64.567
515.74	64.263
516.08	64.131
516.42	64.417
516.77	64.406
517.11	63.899
517.46	63.733
517.80	65.099
518.14	64.581
518.49	64.317
518.83	62.906
519.17	63.328
519.52	63.732
519.86	63.305
520.20	65.176
520.55	65.444
520.89	65.034
521.23	63.428
521.58	65.141
521.92	63.626
522.26	63.116
522.61	65.278
522.95	63.899
523.29	65.057
523.64	64.518
523.98	65.716
524.32	66.819
524.66	66.079
525.01	64.496
525.35	64.388
525.69	65.197
526.04	64.638
526.38	65.345
526.72	64.879
527.06	65.982
527.41	65.131
527.75	65.143
528.09	65.289
528.43	65.127
528.78	64.451
529.12	64.851
529.46	65.037
529.80	65.503
530.15	66.145
530.49	66.607
530.83	66.411
531.17	65.054
531.51	65.523
531.86	65.805
532.20	65.061
532.54	65.350
532.88	64.909
533.22	65.174
533.57	63.762
533.91	65.095
534.25	65.065
534.59	66.839
534.93	65.535
535.27	66.366
535.62	66.231
535.96	66.647
536.30	66.334
536.64	66.607
536.98	65.560
537.32	65.494
537.66	66.438
538.01	65.076
538.35	65.773
538.69	65.805
539.03	66.585
539.37	65.018
539.71	65.766
540.05	65.887
540.39	65.037
540.73	65.877
541.07	66.646
541.42	64.678
541.76	63.879
542.10	66.466
542.44	64.799
542.78	66.058
543.12	64.422
543.46	64.774
543.80	64.568
544.14	65.829
544.48	66.371
544.82	67.026
545.16	66.130
545.50	65.848
545.84	65.462
546.18	67.346
546.52	67.197
546.86	64.906
547.20	67.303
547.54	64.357
547.88	65.763
548.22	66.316
548.56	66.998
548.90	67.045
549.24	66.444
549.58	66.688
549.92	66.901
550.26	65.890
550.60	66.496
550.94	67.141
551.28	65.215
551.62	67.790
551.96	64.272
552.30	66.475
552.64	66.895
552.98	67.686
553.32	68.939
553.66	67.395
554.00	67.339
554.34	69.241
554.68	66.946
555.02	68.660
555.36	68.310
555.69	66.944
556.03	67.087
556.37	68.398
556.71	67.787
557.05	67.220
557.39	68.812
557.73	67.371
558.07	67.285
558.41	67.442
558.75	67.748
559.08	69.381
559.42	66.872
559.76	67.300
560.10	66.711
560.44	67.018
560.78	69.187
561.12	68.534
561.45	68.248
561.79	67.643
562.13	69.008
562.47	66.831
562.81	66.962
563.15	67.929
563.48	67.371
563.82	68.380
564.16	68.141
564.50	67.878
564.84	67.316
565.17	68.235
565.51	67.434
565.85	68.290
566.19	67.684
566.52	68.110
566.86	68.251
567.20	68.407
567.54	68.030
567.88	68.349
568.21	68.528
568.55	67.962
568.89	68.498
569.23	68.526
569.56	67.878
569.90	68.282
570.24	68.735
570.57	68.281
570.91	67.299
571.25	66.995
571.59	68.244
571.92	68.070
572.26	67.443
572.60	67.131
572.93	67.409
573.27	68.306
573.61	66.728
573.95	66.472
574.28	66.316
574.62	66.962
574.96	66.321
575.29	66.821
575.63	67.013
575.97	66.228
576.30	65.828
576.64	66.404
576.98	66.241
577.31	66.864
577.65	67.313
577.98	67.131
578.32	67.365
578.66	66.962
578.99	67.438
579.33	66.474
579.67	67.203
580.00	66.914
580.34	66.623
580.67	66.659
581.01	67.049
581.35	66.939
581.68	67.400
582.02	67.410
582.35	68.810
582.69	69.347
583.02	68.604
583.36	68.084
583.70	67.666
584.03	67.003
584.37	66.329
584.70	66.381
585.04	66.264
585.37	67.101
585.71	66.926
586.04	68.450
586.38	68.918
586.72	67.786
587.05	68.304
587.39	69.409
587.72	68.397
588.06	68.158
588.39	68.882
588.73	67.434
589.06	69.413
589.40	69.545
589.73	67.641
590.07	68.070
590.40	68.256
590.73	68.222
591.07	68.987
591.40	68.857
591.74	68.045
592.07	69.265
592.41	68.809
592.74	68.761
593.08	69.777
593.41	70.166
593.75	69.282
594.08	70.494
594.41	69.744
594.75	69.113
595.08	69.314
595.42	69.903
595.75	69.002
596.09	69.061
596.42	68.649
596.75	68.970
597.09	69.980
597.42	67.819
597.75	68.993
598.09	68.294
598.42	69.441
598.76	70.042
599.09	69.989
599.42	68.924
599.76	68.438
600.09	70.037
600.42	69.403
600.76	69.848
601.09	69.233
601.42	69.825
601.76	68.966
602.09	69.371
602.42	68.666
602.76	69.041
603.09	70.374
603.42	70.159
603.76	70.507
604.09	70.405
604.42	69.651
604.76	68.988
605.09	69.605
605.42	69.657
605.75	70.462
606.09	70.847
606.42	69.610
606.75	69.040
607.09	68.472
607.42	68.863
607.75	70.965
608.08	69.416
608.42	69.206
608.75	69.320
609.08	69.015
609.41	69.872
609.75	70.759
610.08	71.988
610.41	69.754
610.74	70.294
611.07	71.448
611.41	70.897
611.74	71.409
612.07	71.295
612.40	70.390
612.73	71.638
613.07	70.171
613.40	70.404
613.73	70.390
614.06	69.872
614.39	70.505
614.72	68.559
615.06	69.779
615.39	70.372
615.72	70.664
616.05	70.374
616.38	71.342
616.71	70.115
617.05	69.755
617.38	70.305
617.71	70.896
618.04	71.883
618.37	72.350
618.70	71.267
619.03	71.386
619.36	70.345
619.69	72.454
620.03	70.935
620.36	71.227
620.69	70.759
621.02	71.588
621.35	74.746
621.68	73.680
622.01	70.890
622.34	71.478
622.67	72.577
623.00	71.457
623.33	72.926
623.66	71.530
623.99	71.363
624.32	71.475
624.65	71.557
624.99	71.977
625.32	73.808
625.65	72.960
625.98	72.000
626.31	71.155
626.64	73.040
626.97	70.293
627.30	73.424
627.63	71.493
627.96	72.523
628.29	72.996
628.62	72.964
628.95	74.145
629.28	72.133
629.61	73.316
629.94	72.218
630.26	72.288
630.59	73.230
630.92	71.602
