SpectraSuite Data File
++++++++++++++++++++++++++++++++++++
Date: Thu May 14 15:24:57 PDT 2015
User: schluterlab
Dark Spectrum Present: Yes
Reference Spectrum Present: Yes
Number of Sampled Component Spectra: 1
Spectrometers: USB2E3373
Integration Time (usec): 3000 (USB2E3373)
Spectra Averaged: 3 (USB2E3373)
Boxcar Smoothing: 0 (USB2E3373)
Correct for Electrical Dark: No (USB2E3373)
Strobe/Lamp Enabled: No (USB2E3373)
Correct for Detector Non-linearity: No (USB2E3373)
Correct for Stray Light: No (USB2E3373)
Number of Pixels in Processed Spectrum: 2048
>>>>>Begin Processed Spectral Data<<<<<
178.53	0.000
178.91	628.571
179.29	-5200.000
179.67	-5300.000
180.04	485.714
180.42	440.000
180.80	900.000
181.18	-4900.000
181.56	-3900.000
181.94	1025.000
182.31	-1175.000
182.69	1600.000
183.07	-2350.000
183.45	1350.000
183.83	-800.000
184.20	-1533.333
184.58	5500.000
184.96	-1275.000
185.34	-544.444
185.72	-1000.000
186.09	666.667
186.47	2800.000
186.85	1220.000
187.23	-577.778
187.61	-4900.000
187.98	840.000
188.36	1325.000
188.74	-1125.000
189.12	-1633.333
189.49	-250.000
189.87	-712.500
190.25	-466.667
190.63	-860.000
191.00	-533.333
191.38	0.000
191.76	-1225.000
192.14	-783.333
192.51	2450.000
192.89	-783.333
193.27	0.000
193.65	-785.714
194.02	-5300.000
194.40	-714.286
194.78	742.857
195.15	0.000
195.53	-390.909
195.91	0.000
196.29	-1175.000
196.66	-330.769
197.04	-5400.000
197.42	-685.714
197.79	-2450.000
198.17	-562.500
198.55	-700.000
198.92	-555.556
199.30	-737.500
199.68	-463.636
200.05	-292.857
200.43	-2700.000
200.81	771.429
201.18	0.000
201.56	655.556
201.94	0.000
202.31	1733.333
202.69	-633.333
203.07	5000.000
203.44	-500.000
203.82	-1275.000
204.19	-408.333
204.57	-816.667
204.95	-612.500
205.32	-4600.000
205.70	1025.000
206.08	-766.667
206.45	-716.667
206.83	1240.000
207.20	-800.000
207.58	-1060.000
207.96	-866.667
208.33	-716.667
208.71	433.333
209.08	-616.667
209.46	0.000
209.84	833.333
210.21	2550.000
210.59	2400.000
210.96	1933.333
211.34	-1225.000
211.71	-675.000
212.09	-4700.000
212.46	0.000
212.84	3100.000
213.22	-1180.000
213.59	-1325.000
213.97	-410.000
214.34	-1766.667
214.72	850.000
215.09	-975.000
215.47	0.000
215.84	714.286
216.22	2700.000
216.59	-1060.000
216.97	-1000.000
217.34	-1325.000
217.72	-637.500
218.09	-1325.000
218.47	-1250.000
218.84	0.000
219.22	960.000
219.59	-229.412
219.97	-215.000
220.34	2750.000
220.72	-500.000
221.09	-284.615
221.47	-1600.000
221.84	-420.000
222.22	-728.571
222.59	0.000
222.97	-600.000
223.34	-1060.000
223.72	-5800.000
224.09	-1250.000
224.46	-1275.000
224.84	-940.000
225.21	-771.429
225.59	-1225.000
225.96	-1050.000
226.34	-138.462
226.71	916.667
227.08	-2500.000
227.46	-353.333
227.83	-1250.000
228.21	-231.579
228.58	575.000
228.95	2550.000
229.33	-333.333
229.70	-450.000
230.08	-184.211
230.45	570.000
230.82	-1800.000
231.20	-292.857
231.57	-333.333
231.95	-418.182
232.32	-390.909
232.69	-260.000
233.07	-1175.000
233.44	-270.588
233.81	-550.000
234.19	-205.556
234.56	-186.364
234.93	-100.000
235.31	-289.474
235.68	-216.667
236.05	-280.000
236.43	-130.769
236.80	-132.000
237.17	-151.852
237.55	-118.182
237.92	-520.000
238.29	-106.452
238.67	-81.818
239.04	-130.556
239.41	-111.905
239.79	-80.435
240.16	-77.778
240.53	-80.435
240.91	-82.353
241.28	-70.492
241.65	-61.194
242.02	-43.243
242.40	-67.692
242.77	-46.667
243.14	-57.317
243.51	-68.421
243.89	-57.692
244.26	-29.703
244.63	-33.333
245.00	-29.907
245.38	-38.596
245.75	-40.708
246.12	-27.778
246.49	-26.357
246.87	-22.857
247.24	-15.232
247.61	-13.158
247.98	-21.477
248.36	-16.667
248.73	-26.380
249.10	-15.301
249.47	-5.473
249.84	-4.188
250.22	-12.435
250.59	-17.222
250.96	-7.727
251.33	-15.816
251.70	-6.410
252.08	-3.750
252.45	-6.148
252.82	-13.636
253.19	-10.156
253.56	-4.563
253.94	-7.692
254.31	-7.955
254.68	-3.147
255.05	-0.326
255.42	-5.442
255.79	-6.149
256.16	-2.980
256.54	-5.629
256.91	-0.328
257.28	-6.230
257.65	-3.503
258.02	-3.245
258.39	-1.425
258.76	-0.306
259.14	3.448
259.51	-1.441
259.88	-2.550
260.25	1.111
260.62	-0.548
260.99	0.000
261.36	0.268
261.73	-5.040
262.10	-3.297
262.47	-0.804
262.85	4.293
263.22	0.000
263.59	-4.211
263.96	1.023
264.33	-1.023
264.70	0.741
265.07	4.296
265.44	4.082
265.81	0.694
266.18	0.907
266.55	1.562
266.92	-1.139
267.29	3.501
267.66	0.443
268.03	3.712
268.40	1.879
268.77	-2.733
269.14	-0.441
269.51	4.167
269.88	3.893
270.25	3.622
270.62	2.954
270.99	3.838
271.36	2.970
271.73	4.126
272.10	2.405
272.47	2.004
272.84	4.618
273.21	4.609
273.58	3.629
273.95	1.923
274.32	2.471
274.69	2.321
275.06	3.663
275.43	3.697
275.80	4.233
276.17	3.889
276.54	3.172
276.91	2.326
277.28	3.436
277.65	4.129
278.02	4.963
278.39	2.717
278.76	2.636
279.13	2.128
279.50	4.124
279.87	3.399
280.23	1.408
280.60	5.763
280.97	5.757
281.34	2.207
281.71	5.584
282.08	4.319
282.45	1.309
282.82	2.826
283.19	2.746
283.56	3.443
283.92	5.556
284.29	6.319
284.66	5.583
285.03	2.885
285.40	3.709
285.77	4.180
286.14	5.038
286.51	5.479
286.87	4.897
287.24	5.572
287.61	3.438
287.98	2.417
288.35	4.586
288.72	5.030
289.08	4.978
289.45	3.254
289.82	3.012
290.19	5.172
290.56	4.648
290.93	4.850
291.29	2.617
291.66	3.168
292.03	2.714
292.40	5.034
292.77	2.561
293.13	3.654
293.50	4.074
293.87	4.161
294.24	6.533
294.60	4.298
294.97	3.087
295.34	4.353
295.71	2.396
296.08	3.488
296.44	3.309
296.81	4.750
297.18	3.611
297.55	4.481
297.91	3.796
298.28	3.199
298.65	4.043
299.02	3.070
299.38	5.149
299.75	4.556
300.12	3.125
300.48	4.608
300.85	5.174
301.22	3.132
301.59	2.854
301.95	4.181
302.32	5.889
302.69	4.162
303.05	4.135
303.42	3.991
303.79	3.542
304.15	3.260
304.52	4.968
304.89	3.979
305.25	5.383
305.62	4.598
305.99	4.330
306.35	4.032
306.72	4.137
307.09	3.959
307.45	4.348
307.82	4.339
308.19	3.734
308.55	5.207
308.92	4.479
309.29	5.556
309.65	3.509
310.02	3.861
310.38	3.543
310.75	3.398
311.12	4.986
311.48	2.835
311.85	3.894
312.22	4.554
312.58	2.817
312.95	2.964
313.31	5.149
313.68	4.579
314.05	5.239
314.41	4.645
314.78	4.905
315.14	4.083
315.51	5.078
315.87	4.680
316.24	5.205
316.61	5.329
316.97	4.163
317.34	3.968
317.70	4.017
318.07	4.145
318.43	5.272
318.80	6.020
319.16	5.150
319.53	2.742
319.89	3.856
320.26	4.715
320.62	4.255
320.99	4.801
321.35	4.529
321.72	5.488
322.08	3.156
322.45	4.426
322.81	4.874
323.18	3.805
323.54	3.793
323.91	4.893
324.27	4.217
324.64	5.626
325.00	4.395
325.37	4.095
325.73	5.124
326.10	5.353
326.46	5.375
326.83	5.284
327.19	4.409
327.56	5.059
327.92	5.271
328.29	5.645
328.65	4.774
329.01	4.907
329.38	4.634
329.74	5.908
330.11	5.308
330.47	3.875
330.84	4.565
331.20	5.000
331.56	4.073
331.93	5.272
332.29	4.576
332.66	5.066
333.02	4.355
333.38	4.698
333.75	5.640
334.11	4.504
334.48	4.290
334.84	4.673
335.20	4.198
335.57	5.312
335.93	5.289
336.29	4.409
336.66	4.710
337.02	4.181
337.38	3.741
337.75	4.545
338.11	4.289
338.47	4.963
338.84	3.892
339.20	3.370
339.56	5.519
339.93	4.516
340.29	5.314
340.65	4.461
341.02	4.789
341.38	4.850
341.74	4.358
342.11	5.149
342.47	4.686
342.83	5.153
343.20	4.088
343.56	4.250
343.92	4.083
344.28	4.766
344.65	5.194
345.01	4.992
345.37	5.132
345.73	4.677
346.10	4.446
346.46	3.956
346.82	5.094
347.19	4.584
347.55	5.311
347.91	4.532
348.27	5.083
348.63	6.093
349.00	4.698
349.36	6.840
349.72	4.613
350.08	5.646
350.45	3.194
350.81	4.600
351.17	5.038
351.53	5.307
351.89	4.556
352.26	4.478
352.62	4.328
352.98	4.656
353.34	4.630
353.70	4.391
354.07	4.545
354.43	4.480
354.79	5.011
355.15	5.887
355.51	5.263
355.87	4.413
356.24	5.171
356.60	3.991
356.96	4.596
357.32	4.089
357.68	4.392
358.04	4.042
358.40	3.955
358.77	5.556
359.13	3.176
359.49	3.569
359.85	4.931
360.21	4.663
360.57	4.092
360.93	4.372
361.29	4.982
361.66	5.069
362.02	5.567
362.38	4.708
362.74	4.818
363.10	4.333
363.46	4.640
363.82	4.759
364.18	5.489
364.54	4.703
364.90	5.686
365.26	4.138
365.62	5.400
365.98	5.037
366.35	5.235
366.71	5.238
367.07	3.992
367.43	5.187
367.79	5.309
368.15	5.753
368.51	5.548
368.87	4.833
369.23	4.333
369.59	4.577
369.95	4.733
370.31	5.739
370.67	5.021
371.03	3.947
371.39	4.164
371.75	4.677
372.11	5.285
372.47	5.078
372.83	5.039
373.19	6.137
373.55	4.268
373.91	4.840
374.27	5.175
374.63	4.465
374.99	4.310
375.35	5.649
375.71	4.387
376.07	4.648
376.42	5.290
376.78	5.469
377.14	4.803
377.50	4.807
377.86	6.096
378.22	5.988
378.58	5.172
378.94	6.514
379.30	5.331
379.66	5.644
380.02	5.251
380.38	5.760
380.74	5.521
381.09	4.762
381.45	5.966
381.81	5.621
382.17	6.057
382.53	5.439
382.89	6.716
383.25	5.803
383.61	5.093
383.97	4.947
384.32	5.921
384.68	4.872
385.04	6.536
385.40	5.657
385.76	5.217
386.12	5.566
386.48	6.176
386.83	5.602
387.19	5.214
387.55	4.519
387.91	5.879
388.27	6.005
388.62	5.269
388.98	5.753
389.34	5.421
389.70	5.578
390.06	5.743
390.42	5.602
390.77	5.238
391.13	5.164
391.49	5.857
391.85	5.212
392.20	5.575
392.56	5.848
392.92	6.489
393.28	5.860
393.64	6.145
393.99	6.334
394.35	6.308
394.71	5.569
395.07	5.449
395.42	5.425
395.78	6.520
396.14	5.882
396.50	5.404
396.85	5.605
397.21	5.089
397.57	5.006
397.92	5.727
398.28	4.943
398.64	5.892
399.00	6.126
399.35	5.812
399.71	6.033
400.07	5.278
400.42	5.064
400.78	5.556
401.14	5.919
401.49	6.026
401.85	5.523
402.21	6.489
402.57	6.045
402.92	5.910
403.28	4.977
403.63	5.012
403.99	5.879
404.35	5.287
404.70	5.949
405.06	5.707
405.42	5.855
405.77	5.725
406.13	5.619
406.49	5.405
406.84	6.094
407.20	6.037
407.55	5.027
407.91	5.280
408.27	4.770
408.62	5.992
408.98	5.978
409.34	4.457
409.69	5.810
410.05	5.803
410.40	6.206
410.76	6.169
411.11	5.085
411.47	5.283
411.83	5.585
412.18	5.482
412.54	5.394
412.89	5.297
413.25	5.587
413.60	5.227
413.96	5.594
414.31	6.006
414.67	6.082
415.03	5.108
415.38	5.359
415.74	5.437
416.09	5.737
416.45	5.135
416.80	5.324
417.16	4.853
417.51	5.479
417.87	5.028
418.22	5.928
418.58	5.452
418.93	6.170
419.29	4.254
419.64	5.162
420.00	4.926
420.35	5.559
420.71	5.399
421.06	5.693
421.42	5.906
421.77	5.977
422.12	5.655
422.48	6.144
422.83	6.134
423.19	5.782
423.54	5.531
423.90	5.411
424.25	5.333
424.61	4.879
424.96	5.217
425.31	6.423
425.67	5.207
426.02	6.309
426.38	5.626
426.73	5.301
427.09	6.401
427.44	5.407
427.79	5.583
428.15	5.023
428.50	6.124
428.85	5.683
429.21	6.755
429.56	6.022
429.92	5.897
430.27	5.976
430.62	6.595
430.98	5.657
431.33	6.158
431.68	5.987
432.04	5.790
432.39	6.374
432.74	6.564
433.10	5.462
433.45	5.909
433.80	5.901
434.16	6.250
434.51	6.218
434.86	5.972
435.22	5.632
435.57	6.545
435.92	6.010
436.28	5.688
436.63	5.844
436.98	5.851
437.34	6.257
437.69	5.283
438.04	6.452
438.39	5.514
438.75	5.257
439.10	6.395
439.45	5.981
439.81	5.593
440.16	5.576
440.51	5.909
440.86	5.837
441.22	5.573
441.57	5.818
441.92	6.305
442.27	6.515
442.63	5.812
442.98	6.510
443.33	5.523
443.68	5.996
444.03	7.008
444.39	6.288
444.74	5.717
445.09	6.234
445.44	5.690
445.79	6.418
446.15	6.423
446.50	5.788
446.85	6.469
447.20	6.625
447.55	6.747
447.91	5.550
448.26	5.550
448.61	6.217
448.96	6.706
449.31	6.469
449.66	5.392
450.02	6.276
450.37	6.926
450.72	6.082
451.07	6.720
451.42	5.661
451.77	5.781
452.12	5.813
452.47	4.991
452.83	5.743
453.18	5.546
453.53	5.055
453.88	5.632
454.23	5.932
454.58	5.746
454.93	4.854
455.28	6.382
455.63	6.026
455.98	6.201
456.34	5.713
456.69	5.938
457.04	5.556
457.39	6.763
457.74	6.040
458.09	5.766
458.44	6.034
458.79	5.879
459.14	6.922
459.49	5.490
459.84	5.981
460.19	5.164
460.54	5.849
460.89	6.247
461.24	5.345
461.59	6.475
461.94	4.963
462.29	6.831
462.64	4.888
462.99	5.022
463.34	5.646
463.69	5.569
464.04	6.615
464.39	5.774
464.74	5.473
465.09	5.652
465.44	5.848
465.79	6.663
466.14	5.941
466.49	6.947
466.84	5.840
467.19	6.416
467.54	4.935
467.89	5.862
468.24	5.817
468.59	4.806
468.94	6.061
469.29	4.979
469.64	5.340
469.99	5.099
470.34	5.198
470.68	5.810
471.03	6.025
471.38	5.036
471.73	5.137
472.08	5.774
472.43	5.358
472.78	6.045
473.13	4.867
473.48	5.861
473.83	6.384
474.17	5.686
474.52	5.713
474.87	6.534
475.22	6.535
475.57	6.127
475.92	6.620
476.27	6.070
476.61	6.282
476.96	5.839
477.31	6.584
477.66	6.243
478.01	6.101
478.36	5.932
478.70	6.749
479.05	6.084
479.40	6.367
479.75	6.340
480.10	6.300
480.45	6.609
480.79	6.757
481.14	6.480
481.49	6.315
481.84	6.963
482.19	6.366
482.53	6.603
482.88	6.469
483.23	6.358
483.58	5.633
483.92	6.161
484.27	6.689
484.62	6.518
484.97	6.882
485.31	6.441
485.66	6.535
486.01	7.239
486.36	7.577
486.70	8.382
487.05	8.082
487.40	7.592
487.75	7.455
488.09	6.481
488.44	6.473
488.79	6.341
489.13	6.372
489.48	5.515
489.83	6.036
490.17	6.035
490.52	6.240
490.87	6.091
491.22	6.802
491.56	6.527
491.91	5.931
492.26	6.837
492.60	6.340
492.95	6.670
493.30	5.648
493.64	6.527
493.99	6.228
494.34	6.359
494.68	6.552
495.03	6.388
495.37	6.258
495.72	6.712
496.07	6.748
496.41	5.577
496.76	6.505
497.11	6.709
497.45	5.870
497.80	6.797
498.14	6.440
498.49	6.112
498.84	5.804
499.18	6.073
499.53	6.457
499.87	6.637
500.22	6.100
500.56	6.433
500.91	6.270
501.26	6.773
501.60	6.098
501.95	6.904
502.29	6.494
502.64	6.559
502.98	6.903
503.33	6.220
503.67	6.106
504.02	6.086
504.36	6.881
504.71	6.890
505.06	6.730
505.40	6.307
505.75	6.056
506.09	6.215
506.44	7.149
506.78	6.743
507.13	7.192
507.47	6.964
507.82	6.392
508.16	6.071
508.51	5.860
508.85	6.282
509.19	6.253
509.54	6.628
509.88	5.877
510.23	6.314
510.57	6.960
510.92	6.386
511.26	6.301
511.61	6.181
511.95	6.247
512.30	6.893
512.64	5.947
512.98	5.953
513.33	6.804
513.67	6.170
514.02	6.847
514.36	7.008
514.70	6.302
515.05	6.361
515.39	6.352
515.74	6.522
516.08	6.656
516.42	6.855
516.77	6.362
517.11	6.447
517.46	6.310
517.80	6.734
518.14	6.638
518.49	6.291
518.83	6.546
519.17	6.139
519.52	6.709
519.86	6.600
520.20	6.283
520.55	6.243
520.89	6.532
521.23	6.198
521.58	6.497
521.92	5.949
522.26	5.727
522.61	6.481
522.95	6.805
523.29	5.977
523.64	6.110
523.98	6.389
524.32	6.590
524.66	6.033
525.01	5.889
525.35	5.169
525.69	5.568
526.04	5.568
526.38	6.379
526.72	6.228
527.06	6.393
527.41	6.006
527.75	6.591
528.09	5.726
528.43	5.980
528.78	5.780
529.12	6.365
529.46	6.464
529.80	6.121
530.15	6.493
530.49	5.635
530.83	6.139
531.17	5.914
531.51	5.836
531.86	6.731
532.20	6.890
532.54	5.984
532.88	5.515
533.22	5.952
533.57	5.886
533.91	6.453
534.25	6.670
534.59	6.264
534.93	5.603
535.27	6.197
535.62	7.220
535.96	6.740
536.30	6.757
536.64	6.727
536.98	6.335
537.32	6.728
537.66	5.989
538.01	5.498
538.35	6.029
538.69	5.649
539.03	5.886
539.37	6.302
539.71	6.126
540.05	6.415
540.39	5.379
540.73	6.375
541.07	6.622
541.42	6.143
541.76	5.753
542.10	5.911
542.44	5.542
542.78	6.873
543.12	6.377
543.46	6.532
543.80	5.635
544.14	6.224
544.48	6.797
544.82	6.284
545.16	5.903
545.50	6.052
545.84	6.001
546.18	7.160
546.52	5.414
546.86	5.220
547.20	5.980
547.54	5.993
547.88	5.666
548.22	6.608
548.56	5.617
548.90	6.209
549.24	5.957
549.58	6.120
549.92	5.293
550.26	6.667
550.60	5.616
550.94	6.468
551.28	5.809
551.62	5.930
551.96	6.149
552.30	6.820
552.64	6.658
552.98	6.550
553.32	6.109
553.66	5.595
554.00	5.990
554.34	5.792
554.68	5.552
555.02	6.242
555.36	5.851
555.69	4.612
556.03	6.305
556.37	6.446
556.71	6.024
557.05	6.709
557.39	6.370
557.73	6.077
558.07	5.166
558.41	5.515
558.75	6.018
559.08	5.706
559.42	5.213
559.76	6.242
560.10	6.229
560.44	5.607
560.78	6.813
561.12	5.850
561.45	6.509
561.79	6.410
562.13	6.038
562.47	6.104
562.81	6.013
563.15	6.566
563.48	6.588
563.82	6.167
564.16	5.694
564.50	5.602
564.84	6.254
565.17	6.529
565.51	5.811
565.85	5.938
566.19	5.818
566.52	6.729
566.86	6.848
567.20	6.253
567.54	6.691
567.88	7.085
568.21	6.225
568.55	6.619
568.89	7.127
569.23	7.393
569.56	7.933
569.90	7.448
570.24	7.723
570.57	7.088
570.91	7.410
571.25	7.492
571.59	7.904
571.92	7.862
572.26	7.385
572.60	7.289
572.93	7.236
573.27	6.884
573.61	7.597
573.95	7.745
574.28	7.708
574.62	7.890
574.96	7.719
575.29	7.447
575.63	7.508
575.97	7.401
576.30	6.884
576.64	7.445
576.98	7.335
577.31	7.709
577.65	7.986
577.98	7.662
578.32	7.887
578.66	7.746
578.99	7.680
579.33	7.292
579.67	7.480
580.00	7.058
580.34	7.635
580.67	6.973
581.01	7.399
581.35	7.520
581.68	8.021
582.02	8.078
582.35	7.925
582.69	7.834
583.02	7.550
583.36	7.702
583.70	6.976
584.03	6.983
584.37	6.986
584.70	7.066
585.04	7.510
585.37	7.092
585.71	7.573
586.04	7.794
586.38	7.683
586.72	7.295
587.05	7.086
587.39	7.479
587.72	7.201
588.06	7.495
588.39	7.468
588.73	7.540
589.06	7.421
589.40	6.577
589.73	7.102
590.07	6.963
590.40	7.877
590.73	6.858
591.07	6.999
591.40	7.037
591.74	6.757
592.07	7.227
592.41	6.506
592.74	7.526
593.08	8.025
593.41	7.787
593.75	7.787
594.08	7.543
594.41	7.500
594.75	7.140
595.08	6.965
595.42	7.435
595.75	7.588
596.09	7.930
596.42	6.879
596.75	7.217
597.09	7.515
597.42	6.873
597.75	7.213
598.09	7.063
598.42	7.278
598.76	6.381
599.09	7.120
599.42	7.308
599.76	7.329
600.09	7.341
600.42	7.274
600.76	7.365
601.09	6.771
601.42	7.312
601.76	7.103
602.09	7.112
602.42	6.725
602.76	6.716
603.09	7.012
603.42	7.117
603.76	6.942
604.09	7.736
604.42	7.560
604.76	7.078
605.09	6.901
605.42	6.938
605.75	7.154
606.09	6.532
606.42	7.224
606.75	6.484
607.09	6.720
607.42	7.129
607.75	7.151
608.08	6.590
608.42	6.449
608.75	7.421
609.08	6.239
609.41	6.176
609.75	7.143
610.08	7.388
610.41	6.797
610.74	7.185
611.07	6.439
611.41	6.771
611.74	6.374
612.07	6.545
612.40	6.321
612.73	6.015
613.07	6.650
613.40	6.833
613.73	6.789
614.06	6.379
614.39	6.122
614.72	6.356
615.06	6.160
615.39	6.718
615.72	6.825
616.05	6.508
616.38	6.054
616.71	6.583
617.05	6.017
617.38	6.849
617.71	6.587
618.04	7.016
618.37	6.831
618.70	7.353
619.03	6.392
619.36	6.350
619.69	6.342
620.03	6.089
620.36	5.890
620.69	5.984
621.02	5.315
621.35	5.298
621.68	5.206
622.01	5.623
622.34	5.091
622.67	5.773
623.00	4.521
623.33	6.967
623.66	6.485
623.99	4.674
624.32	7.342
624.65	6.435
624.99	6.697
625.32	6.466
625.65	6.406
625.98	5.898
626.31	5.599
626.64	6.154
626.97	5.251
627.30	4.860
627.63	5.326
627.96	6.532
628.29	5.914
628.62	4.282
628.95	4.382
629.28	4.163
629.61	5.808
629.94	4.435
630.26	4.068
630.59	4.836
630.92	4.762
631.25	5.546
631.58	5.179
631.91	5.248
632.24	3.842
632.57	4.459
632.90	3.912
633.23	4.592
633.56	4.694
633.89	4.545
634.22	4.678
634.55	4.593
634.88	2.706
635.20	4.952
635.53	3.842
635.86	4.442
636.19	5.620
636.52	4.219
636.85	3.882
637.18	4.470
637.51	4.731
637.83	5.537
638.16	3.226
638.49	3.756
638.82	4.059
639.15	2.978
639.48	4.965
639.81	4.157
640.13	3.298
640.46	2.182
640.79	2.451
641.12	4.348
641.45	2.384
641.77	4.621
642.10	2.887
642.43	4.255
642.76	3.794
643.09	2.055
643.41	1.681
643.74	2.069
644.07	3.586
644.40	2.687
644.73	2.032
645.05	0.441
645.38	3.885
645.71	2.786
646.04	3.730
646.36	1.752
646.69	1.227
647.02	3.364
647.35	2.443
647.67	1.127
648.00	1.752
648.33	2.553
648.66	2.425
648.98	3.537
649.31	2.842
649.64	3.586
649.96	4.509
650.29	2.643
650.62	2.546
650.94	1.652
651.27	0.898
651.60	1.462
651.92	3.495
652.25	3.039
652.58	3.851
652.90	1.017
653.23	3.239
