SpectraSuite Data File
++++++++++++++++++++++++++++++++++++
Date: Thu May 14 14:59:28 PDT 2015
User: schluterlab
Dark Spectrum Present: Yes
Reference Spectrum Present: Yes
Number of Sampled Component Spectra: 1
Spectrometers: USB2E3373
Integration Time (usec): 3000 (USB2E3373)
Spectra Averaged: 3 (USB2E3373)
Boxcar Smoothing: 0 (USB2E3373)
Correct for Electrical Dark: No (USB2E3373)
Strobe/Lamp Enabled: No (USB2E3373)
Correct for Detector Non-linearity: No (USB2E3373)
Correct for Stray Light: No (USB2E3373)
Number of Pixels in Processed Spectrum: 2048
>>>>>Begin Processed Spectral Data<<<<<
178.53	0.000
178.91	314.286
179.29	-3000.000
179.67	-2500.000
180.04	257.143
180.42	240.000
180.80	420.000
181.18	-1400.000
181.56	-2000.000
181.94	475.000
182.31	-325.000
182.69	633.333
183.07	-1250.000
183.45	650.000
183.83	-416.667
184.20	-466.667
184.58	1800.000
184.96	-675.000
185.34	-311.111
185.72	-260.000
186.09	522.222
186.47	1600.000
186.85	660.000
187.23	-311.111
187.61	-2700.000
187.98	280.000
188.36	475.000
188.74	-425.000
189.12	-500.000
189.49	-150.000
189.87	-312.500
190.25	-177.778
190.63	-360.000
191.00	-266.667
191.38	0.000
191.76	-625.000
192.14	-383.333
192.51	1150.000
192.89	-383.333
193.27	0.000
193.65	-371.429
194.02	-4000.000
194.40	-242.857
194.78	371.429
195.15	0.000
195.53	-145.455
195.91	0.000
196.29	-600.000
196.66	-130.769
197.04	-3200.000
197.42	-257.143
197.79	-1500.000
198.17	-325.000
198.55	-257.143
198.92	-55.556
199.30	-375.000
199.68	-136.364
200.05	-135.714
200.43	-700.000
200.81	314.286
201.18	0.000
201.56	388.889
201.94	0.000
202.31	1100.000
202.69	-322.222
203.07	2200.000
203.44	-266.667
203.82	-550.000
204.19	-166.667
204.57	-333.333
204.95	-325.000
205.32	-2900.000
205.70	500.000
206.08	-350.000
206.45	-283.333
206.83	520.000
207.20	-400.000
207.58	-560.000
207.96	-466.667
208.33	-366.667
208.71	175.000
209.08	-133.333
209.46	0.000
209.84	366.667
210.21	1250.000
210.59	1400.000
210.96	866.667
211.34	-525.000
211.71	-325.000
212.09	-1900.000
212.46	0.000
212.84	1650.000
213.22	-520.000
213.59	-375.000
213.97	-160.000
214.34	-800.000
214.72	400.000
215.09	-400.000
215.47	0.000
215.84	271.429
216.22	1400.000
216.59	-520.000
216.97	-180.000
217.34	-775.000
217.72	-212.500
218.09	-750.000
218.47	-550.000
218.84	0.000
219.22	360.000
219.59	-82.353
219.97	-80.000
220.34	1650.000
220.72	-233.333
221.09	-15.385
221.47	-600.000
221.84	-230.000
222.22	-328.571
222.59	0.000
222.97	-225.000
223.34	-560.000
223.72	-2700.000
224.09	-575.000
224.46	-550.000
224.84	-200.000
225.21	-371.429
225.59	-725.000
225.96	-775.000
226.34	-42.308
226.71	433.333
227.08	-850.000
227.46	-106.667
227.83	-450.000
228.21	-73.684
228.58	362.500
228.95	1500.000
229.33	-150.000
229.70	-140.000
230.08	-68.421
230.45	280.000
230.82	-733.333
231.20	-150.000
231.57	-125.000
231.95	-190.909
232.32	-163.636
232.69	-110.000
233.07	-525.000
233.44	-135.294
233.81	-160.000
234.19	-66.667
234.56	-59.091
234.93	-48.276
235.31	-115.789
235.68	-72.222
236.05	-145.000
236.43	-38.462
236.80	-36.000
237.17	-62.963
237.55	-30.303
237.92	-210.000
238.29	-41.935
238.67	-43.182
239.04	-36.111
239.41	-52.381
239.79	-39.130
240.16	-18.519
240.53	-43.478
240.91	-52.941
241.28	-14.754
241.65	-1.493
242.02	-8.108
242.40	-30.769
242.77	-29.333
243.14	-20.732
243.51	-36.842
243.89	-26.923
244.26	-7.921
244.63	-9.804
245.00	-9.346
245.38	-11.404
245.75	-20.354
246.12	-6.349
246.49	-6.202
246.87	-7.143
247.24	-10.596
247.61	-4.605
247.98	-6.040
248.36	-9.259
248.73	-6.748
249.10	-1.639
249.47	3.483
249.84	1.571
250.22	-1.036
250.59	-4.444
250.96	-3.182
251.33	-9.694
251.70	0.855
252.08	-2.083
252.45	0.820
252.82	-2.893
253.19	-3.906
253.56	-2.281
253.94	0.385
254.31	-2.273
254.68	3.497
255.05	1.303
255.42	-2.381
255.79	-2.913
256.16	0.000
256.54	0.331
256.91	0.984
257.28	-0.328
257.65	-3.185
258.02	-0.295
258.39	3.419
258.76	3.976
259.14	3.161
259.51	1.441
259.88	0.283
260.25	-0.833
260.62	0.822
260.99	2.459
261.36	4.558
261.73	1.061
262.10	-0.824
262.47	2.413
262.85	4.545
263.22	-0.519
263.59	-0.263
263.96	1.790
264.33	0.000
264.70	4.691
265.07	5.967
265.44	5.215
265.81	1.620
266.18	1.587
266.55	2.232
266.92	3.645
267.29	3.939
267.66	4.213
268.03	5.022
268.40	5.010
268.77	-0.456
269.14	1.762
269.51	4.167
269.88	4.918
270.25	4.628
270.62	2.321
270.99	5.455
271.36	4.356
271.73	2.358
272.10	5.411
272.47	2.806
272.84	0.402
273.21	3.407
273.58	3.024
273.95	2.500
274.32	-0.380
274.69	1.934
275.06	3.114
275.43	2.588
275.80	5.644
276.17	0.556
276.54	2.799
276.91	2.862
277.28	2.712
277.65	2.154
278.02	2.757
278.39	3.080
278.76	1.933
279.13	3.014
279.50	4.467
279.87	3.399
280.23	1.232
280.60	2.542
280.97	3.618
281.34	3.396
281.71	4.399
282.08	2.159
282.45	2.946
282.82	5.651
283.19	2.746
283.56	1.311
283.92	3.904
284.29	4.265
284.66	4.105
285.03	1.122
285.40	4.173
285.77	3.096
286.14	5.191
286.51	4.110
286.87	1.896
287.24	4.669
287.61	2.840
287.98	2.115
288.35	3.254
288.72	4.290
289.08	4.392
289.45	2.367
289.82	2.259
290.19	4.167
290.56	4.789
290.93	0.999
291.29	3.581
291.66	3.168
292.03	2.442
292.40	4.082
292.77	2.561
293.13	5.007
293.50	2.760
293.87	2.819
294.24	4.533
294.60	3.793
294.97	1.745
295.34	5.122
295.71	2.018
296.08	1.938
296.44	2.696
296.81	3.898
297.18	3.238
297.55	1.769
297.91	3.321
298.28	2.607
298.65	3.448
299.02	2.597
299.38	2.403
299.75	3.388
300.12	2.431
300.48	1.613
300.85	3.375
301.22	2.908
301.59	2.283
301.95	2.147
302.32	3.111
302.69	2.848
303.05	4.135
303.42	2.882
303.79	3.854
304.15	3.680
304.52	3.066
304.89	4.398
305.25	3.727
305.62	3.448
305.99	2.165
306.35	1.915
306.72	3.723
307.09	3.655
307.45	3.934
307.82	3.835
308.19	3.229
308.55	4.243
308.92	4.187
309.29	2.490
309.65	3.899
310.02	3.465
310.38	2.559
310.75	2.330
311.12	4.219
311.48	2.737
311.85	3.039
312.22	3.795
312.58	3.380
312.95	3.059
313.31	3.433
313.68	3.388
314.05	3.975
314.41	3.916
314.78	4.087
315.14	4.900
315.51	3.601
315.87	4.860
316.24	4.840
316.61	4.529
316.97	3.891
317.34	4.233
317.70	5.153
318.07	4.321
318.43	3.571
318.80	6.271
319.16	4.893
319.53	3.856
319.89	4.032
320.26	5.427
320.62	4.787
320.99	4.340
321.35	4.529
321.72	5.767
322.08	4.148
322.45	5.510
322.81	5.505
323.18	5.664
323.54	5.431
323.91	6.584
324.27	6.196
324.64	6.129
325.00	6.468
325.37	6.962
325.73	6.529
326.10	7.380
326.46	7.980
326.83	7.606
327.19	7.795
327.56	8.300
327.92	6.924
328.29	7.581
328.65	7.370
329.01	7.953
329.38	7.751
329.74	8.390
330.11	7.705
330.47	8.509
330.84	6.977
331.20	9.083
331.56	7.539
331.93	8.368
332.29	8.644
332.66	8.306
333.02	8.040
333.38	8.977
333.75	9.007
334.11	8.841
334.48	8.086
334.84	9.346
335.20	8.732
335.57	9.865
335.93	9.339
336.29	8.403
336.66	7.822
337.02	8.110
337.38	9.694
337.75	8.843
338.11	9.251
338.47	8.271
338.84	9.052
339.20	8.425
339.56	9.802
339.93	10.016
340.29	9.501
340.65	10.138
341.02	9.657
341.38	9.620
341.74	8.071
342.11	9.654
342.47	9.373
342.83	9.179
343.20	9.730
343.56	10.666
343.92	10.408
344.28	10.391
344.65	10.698
345.01	9.438
345.37	10.264
345.73	9.197
346.10	9.750
346.46	9.494
346.82	10.787
347.19	11.077
347.55	11.077
347.91	10.624
348.27	9.181
348.63	10.586
349.00	8.949
349.36	10.260
349.72	10.565
350.08	10.698
350.45	10.038
350.81	11.161
351.17	10.602
351.53	10.083
351.89	10.402
352.26	10.075
352.62	10.970
352.98	10.611
353.34	10.381
353.70	10.247
354.07	10.209
354.43	10.630
354.79	10.770
355.15	10.964
355.51	11.404
355.87	11.070
356.24	10.875
356.60	10.865
356.96	10.897
357.32	11.078
357.68	10.688
358.04	11.602
358.40	11.045
358.77	12.061
359.13	11.226
359.49	10.260
359.85	11.893
360.21	11.047
360.57	10.337
360.93	11.213
361.29	12.561
361.66	11.731
362.02	12.526
362.38	11.525
362.74	11.941
363.10	12.655
363.46	11.773
363.82	11.151
364.18	11.823
364.54	11.618
364.90	12.375
365.26	12.276
365.62	12.933
365.98	11.368
366.35	13.087
366.71	12.449
367.07	12.652
367.43	11.950
367.79	13.205
368.15	13.445
368.51	12.246
368.87	13.651
369.23	12.667
369.59	13.046
369.95	13.387
370.31	13.167
370.67	12.517
371.03	13.781
371.39	13.700
371.75	13.205
372.11	12.669
372.47	13.609
372.83	14.267
373.19	14.276
373.55	13.211
373.91	12.611
374.27	14.554
374.63	13.126
374.99	14.257
375.35	14.740
375.71	13.419
376.07	13.944
376.42	13.476
376.78	14.978
377.14	14.161
377.50	14.231
377.86	14.655
378.22	14.251
378.58	13.912
378.94	15.317
379.30	14.938
379.66	14.345
380.02	14.830
380.38	15.150
380.74	14.930
381.09	15.041
381.45	15.284
381.81	15.867
382.17	15.202
382.53	14.737
382.89	15.406
383.25	15.885
383.61	15.162
383.97	16.549
384.32	15.849
384.68	14.733
385.04	15.847
385.40	16.382
385.76	16.178
386.12	15.859
386.48	17.176
386.83	17.580
387.19	16.570
387.55	15.669
387.91	17.009
388.27	16.801
388.62	16.667
388.98	16.582
389.34	16.971
389.70	16.851
390.06	17.703
390.42	17.048
390.77	17.941
391.13	17.430
391.49	17.452
391.85	17.333
392.20	18.387
392.56	18.133
392.92	17.503
393.28	17.745
393.64	17.486
393.99	16.967
394.35	17.932
394.71	17.605
395.07	17.246
395.42	18.332
395.78	19.013
396.14	18.182
396.50	18.943
396.85	17.591
397.21	18.166
397.57	18.316
397.92	18.671
398.28	18.305
398.64	18.078
399.00	17.906
399.35	18.586
399.71	18.641
400.07	18.529
400.42	17.928
400.78	17.824
401.14	18.554
401.49	19.215
401.85	18.895
402.21	18.946
402.57	18.486
402.92	19.031
403.28	18.091
403.63	18.795
403.99	18.765
404.35	18.420
404.70	18.980
405.06	18.641
405.42	17.799
405.77	19.138
406.13	18.747
406.49	18.300
406.84	18.947
407.20	18.670
407.55	17.020
407.91	18.353
408.27	19.435
408.62	19.604
408.98	18.514
409.34	18.299
409.69	18.603
410.05	19.050
410.40	19.316
410.76	18.676
411.11	19.755
411.47	19.656
411.83	19.577
412.18	18.795
412.54	18.672
412.89	18.568
413.25	18.792
413.60	18.610
413.96	19.639
414.31	19.320
414.67	18.724
415.03	18.523
415.38	19.672
415.74	19.243
416.09	19.741
416.45	18.535
416.80	18.788
417.16	18.263
417.51	18.244
417.87	18.884
418.22	18.922
418.58	18.030
418.93	18.976
419.29	19.544
419.64	18.667
420.00	19.407
420.35	19.652
420.71	18.667
421.06	18.631
421.42	19.209
421.77	18.955
422.12	19.926
422.48	19.560
422.83	19.003
423.19	19.576
423.54	19.524
423.90	18.774
424.25	19.893
424.61	18.599
424.96	20.044
425.31	19.958
425.67	19.270
426.02	19.590
426.38	19.346
426.73	19.308
427.09	19.666
427.44	19.443
427.79	19.071
428.15	19.121
428.50	18.820
428.85	18.886
429.21	19.574
429.56	18.756
429.92	18.771
430.27	19.470
430.62	19.980
430.98	18.839
431.33	19.013
431.68	18.343
432.04	19.248
432.39	20.354
432.74	19.121
433.10	19.037
433.45	18.618
433.80	19.635
434.16	19.163
434.51	20.761
434.86	20.304
435.22	19.766
435.57	19.811
435.92	19.032
436.28	19.283
436.63	20.098
436.98	19.270
437.34	19.335
437.69	19.703
438.04	19.566
438.39	19.299
438.75	19.646
439.10	20.190
439.45	19.788
439.81	19.718
440.16	20.107
440.51	20.123
440.86	19.177
441.22	19.239
441.57	19.497
441.92	20.078
442.27	19.545
442.63	19.374
442.98	19.744
443.33	20.042
443.68	20.119
444.03	20.555
444.39	19.649
444.74	19.602
445.09	18.905
445.44	19.125
445.79	19.732
446.15	20.144
446.50	19.276
446.85	19.553
447.20	19.391
447.55	20.450
447.91	19.581
448.26	19.133
448.61	19.766
448.96	21.406
449.31	19.300
449.66	18.355
450.02	19.884
450.37	20.139
450.72	20.237
451.07	19.875
451.42	19.353
451.77	19.344
452.12	19.413
452.47	19.073
452.83	20.608
453.18	20.140
453.53	18.610
453.88	19.492
454.23	19.153
454.58	20.604
454.93	18.871
455.28	19.567
455.63	19.784
455.98	20.559
456.34	19.552
456.69	18.989
457.04	20.035
457.39	19.568
457.74	19.575
458.09	19.330
458.44	19.720
458.79	19.288
459.14	19.192
459.49	18.959
459.84	19.307
460.19	19.212
460.54	19.364
460.89	19.905
461.24	18.736
461.59	19.812
461.94	18.483
462.29	19.709
462.64	19.312
462.99	19.962
463.34	18.559
463.69	19.109
464.04	19.678
464.39	19.843
464.74	18.586
465.09	19.146
465.44	19.421
465.79	19.249
466.14	18.968
466.49	19.684
466.84	19.008
467.19	19.191
467.54	18.860
467.89	18.391
468.24	19.224
468.59	18.819
468.94	18.531
469.29	19.256
469.64	19.008
469.99	19.503
470.34	19.740
470.68	19.617
471.03	19.974
471.38	18.967
471.73	18.791
472.08	19.353
472.43	18.423
472.78	19.584
473.13	19.722
473.48	19.698
473.83	19.849
474.17	19.519
474.52	18.942
474.87	19.491
475.22	19.606
475.57	19.211
475.92	19.363
476.27	19.223
476.61	19.574
476.96	19.082
477.31	18.762
477.66	20.147
478.01	18.861
478.36	18.794
478.70	19.704
479.05	19.990
479.40	19.250
479.75	19.837
480.10	19.706
480.45	20.191
480.79	19.592
481.14	19.531
481.49	18.946
481.84	19.756
482.19	19.742
482.53	19.545
482.88	19.761
483.23	19.386
483.58	18.952
483.92	18.661
484.27	19.179
484.62	19.431
484.97	19.518
485.31	18.937
485.66	17.931
486.01	17.747
486.36	18.460
486.70	20.183
487.05	21.276
487.40	20.060
487.75	20.153
488.09	20.485
488.44	19.636
488.79	20.304
489.13	19.804
489.48	19.107
489.83	19.034
490.17	19.077
490.52	19.253
490.87	20.093
491.22	19.324
491.56	19.326
491.91	19.756
492.26	19.905
492.60	19.502
492.95	20.140
493.30	19.767
493.64	19.886
493.99	18.991
494.34	19.338
494.68	19.058
495.03	19.692
495.37	19.707
495.72	19.184
496.07	19.281
496.41	19.348
496.76	19.850
497.11	19.788
497.45	19.853
497.80	20.036
498.14	19.274
498.49	20.404
498.84	20.018
499.18	20.018
499.53	20.359
499.87	19.560
500.22	19.590
500.56	19.613
500.91	20.366
501.26	20.091
501.60	19.311
501.95	19.409
502.29	19.482
502.64	20.726
502.98	19.629
503.33	19.957
503.67	19.276
504.02	18.870
504.36	20.465
504.71	20.671
505.06	19.736
505.40	20.018
505.75	20.674
506.09	20.810
506.44	20.334
506.78	21.468
507.13	20.516
507.47	20.227
507.82	20.028
508.16	20.841
508.51	20.066
508.85	20.265
509.19	20.322
509.54	20.989
509.88	21.127
510.23	20.690
510.57	20.735
510.92	20.610
511.26	20.539
511.61	19.894
511.95	20.303
512.30	21.369
512.64	20.290
512.98	20.860
513.33	21.069
513.67	21.010
514.02	20.848
514.36	20.921
514.70	21.302
515.05	21.794
515.39	21.470
515.74	21.580
516.08	20.972
516.42	22.240
516.77	21.451
517.11	21.403
517.46	21.368
517.80	21.860
518.14	21.872
518.49	22.343
518.83	21.660
519.17	21.432
519.52	21.384
519.86	21.383
520.20	23.056
520.55	22.563
520.89	21.340
521.23	21.329
521.58	22.486
521.92	21.983
522.26	21.707
522.61	22.049
522.95	22.203
523.29	22.414
523.64	22.758
523.98	21.791
524.32	22.751
524.66	22.083
525.01	22.084
525.35	22.056
525.69	21.752
526.04	22.216
526.38	22.989
526.72	22.780
527.06	22.991
527.41	22.741
527.75	22.922
528.09	22.373
528.43	22.617
528.78	21.098
529.12	22.706
529.46	21.192
529.80	22.311
530.15	23.942
530.49	22.301
530.83	22.609
531.17	22.820
531.51	22.323
531.86	23.077
532.20	23.598
532.54	22.801
532.88	22.788
533.22	23.335
533.57	22.966
533.91	23.962
534.25	23.516
534.59	23.391
534.93	22.807
535.27	22.761
535.62	22.570
535.96	22.719
536.30	23.267
536.64	24.024
536.98	22.940
537.32	23.889
537.66	23.893
538.01	23.505
538.35	21.864
538.69	23.678
539.03	23.666
539.37	22.792
539.71	22.943
540.05	23.261
540.39	23.105
540.73	22.769
541.07	23.850
541.42	22.504
541.76	22.598
542.10	22.799
542.44	22.107
542.78	23.114
543.12	24.076
543.46	23.810
543.80	22.662
544.14	24.237
544.48	23.818
544.82	23.339
545.16	24.389
545.50	24.026
545.84	23.637
546.18	24.815
546.52	23.376
546.86	24.214
547.20	24.237
547.54	23.471
547.88	23.267
548.22	23.743
548.56	23.874
548.90	23.642
549.24	23.708
549.58	23.596
549.92	24.298
550.26	25.113
550.60	23.484
550.94	22.833
551.28	24.356
551.62	24.394
551.96	24.660
552.30	24.920
552.64	24.269
552.98	24.267
553.32	24.116
553.66	24.630
554.00	24.338
554.34	24.067
554.68	23.951
555.02	23.784
555.36	24.786
555.69	22.870
556.03	24.149
556.37	25.031
556.71	24.160
557.05	24.281
557.39	24.618
557.73	24.835
558.07	24.305
558.41	24.319
558.75	25.152
559.08	25.122
559.42	24.691
559.76	24.830
560.10	24.849
560.44	24.538
560.78	24.438
561.12	25.431
561.45	25.000
561.79	25.214
562.13	24.522
562.47	23.243
562.81	23.544
563.15	25.126
563.48	25.295
563.82	24.547
564.16	24.349
564.50	25.089
564.84	24.543
565.17	24.412
565.51	24.568
565.85	24.703
566.19	24.482
566.52	25.161
566.86	25.071
567.20	23.709
567.54	24.482
567.88	24.567
568.21	25.000
568.55	25.036
568.89	25.284
569.23	23.870
569.56	23.525
569.90	23.842
570.24	24.047
570.57	24.535
570.91	23.791
571.25	23.778
571.59	24.631
571.92	23.907
572.26	24.060
572.60	24.434
572.93	24.631
573.27	24.192
573.61	24.219
573.95	23.938
574.28	23.873
574.62	23.920
574.96	23.732
575.29	23.904
575.63	24.093
575.97	24.120
576.30	23.637
576.64	24.028
576.98	23.964
577.31	23.741
577.65	24.144
577.98	23.908
578.32	23.681
578.66	23.973
578.99	24.063
579.33	24.922
579.67	24.411
580.00	24.343
580.34	24.346
580.67	23.411
581.01	23.907
581.35	24.041
581.68	23.851
582.02	23.681
582.35	24.597
582.69	24.495
583.02	24.836
583.36	24.605
583.70	25.131
584.03	24.382
584.37	24.759
584.70	24.254
585.04	23.994
585.37	23.752
585.71	24.078
586.04	24.439
586.38	24.629
586.72	24.492
587.05	24.303
587.39	24.757
587.72	24.522
588.06	24.589
588.39	24.770
588.73	24.815
589.06	24.915
589.40	25.138
589.73	24.904
590.07	24.934
590.40	25.220
590.73	25.345
591.07	25.726
591.40	26.011
591.74	25.199
592.07	26.025
592.41	25.315
592.74	24.743
593.08	25.287
593.41	24.964
593.75	25.718
594.08	25.477
594.41	25.481
594.75	25.606
595.08	25.404
595.42	25.097
595.75	25.283
596.09	25.652
596.42	25.116
596.75	25.164
597.09	25.576
597.42	24.791
597.75	25.323
598.09	26.270
598.42	25.694
598.76	24.685
599.09	24.920
599.42	24.874
599.76	24.497
600.09	25.292
600.42	25.325
600.76	25.033
601.09	25.456
601.42	25.129
601.76	25.966
602.09	25.768
602.42	25.373
602.76	26.125
603.09	25.551
603.42	25.723
603.76	25.053
604.09	25.621
604.42	25.541
604.76	25.381
605.09	25.848
605.42	26.037
605.75	25.654
606.09	25.495
606.42	25.210
606.75	25.412
607.09	24.962
607.42	25.780
607.75	25.791
608.08	25.888
608.42	26.078
608.75	26.244
609.08	26.019
609.41	26.290
609.75	25.625
610.08	26.605
610.41	25.871
610.74	25.672
611.07	26.465
611.41	26.233
611.74	26.790
612.07	26.975
612.40	25.951
612.73	26.161
613.07	25.721
613.40	26.035
613.73	26.769
614.06	26.447
614.39	26.045
614.72	25.813
615.06	25.842
615.39	25.761
615.72	26.588
616.05	26.129
616.38	26.942
616.71	26.907
617.05	25.879
617.38	27.341
617.71	26.728
618.04	26.929
618.37	26.503
618.70	26.301
619.03	26.404
619.36	26.880
619.69	26.457
620.03	26.051
620.36	27.485
620.69	26.280
621.02	26.115
621.35	27.939
621.68	27.187
622.01	26.050
622.34	26.709
622.67	26.254
623.00	26.316
623.33	27.538
623.66	27.237
623.99	27.189
624.32	27.290
624.65	26.319
624.99	26.788
625.32	27.498
625.65	27.310
625.98	26.441
626.31	27.215
626.64	27.619
626.97	27.607
627.30	25.816
627.63	26.782
627.96	28.078
628.29	28.482
628.62	27.708
628.95	26.556
629.28	26.083
629.61	26.684
629.94	26.444
630.26	27.034
630.59	26.511
630.92	26.061
631.25	27.996
631.58	28.343
631.91	27.273
632.24	27.570
632.57	28.178
632.90	28.185
633.23	28.571
633.56	28.265
633.89	27.479
634.22	28.378
634.55	27.766
634.88	26.948
635.20	28.956
635.53	29.379
635.86	28.819
