SpectraSuite Data File
++++++++++++++++++++++++++++++++++++
Date: Thu May 14 14:27:18 PDT 2015
User: schluterlab
Dark Spectrum Present: Yes
Reference Spectrum Present: Yes
Number of Sampled Component Spectra: 1
Spectrometers: USB2E3373
Integration Time (usec): 3000 (USB2E3373)
Spectra Averaged: 3 (USB2E3373)
Boxcar Smoothing: 0 (USB2E3373)
Correct for Electrical Dark: No (USB2E3373)
Strobe/Lamp Enabled: No (USB2E3373)
Correct for Detector Non-linearity: No (USB2E3373)
Correct for Stray Light: No (USB2E3373)
Number of Pixels in Processed Spectrum: 2048
>>>>>Begin Processed Spectral Data<<<<<
178.53	0.000
178.91	-71.429
179.29	500.000
179.67	1100.000
180.04	92.857
180.42	-60.000
180.80	-120.000
181.18	300.000
181.56	700.000
181.94	-250.000
182.31	325.000
182.69	-600.000
183.07	450.000
183.45	-175.000
183.83	183.333
184.20	366.667
184.58	-1200.000
184.96	225.000
185.34	66.667
185.72	240.000
186.09	66.667
186.47	-600.000
186.85	60.000
187.23	100.000
187.61	-300.000
187.98	-140.000
188.36	-175.000
188.74	50.000
189.12	300.000
189.49	106.250
189.87	37.500
190.25	144.444
190.63	180.000
191.00	88.889
191.38	0.000
191.76	75.000
192.14	16.667
192.51	-250.000
192.89	100.000
193.27	0.000
193.65	171.429
194.02	900.000
194.40	242.857
194.78	-57.143
195.15	0.000
195.53	100.000
195.91	0.000
196.29	425.000
196.66	100.000
197.04	-400.000
197.42	71.429
197.79	-300.000
198.17	87.500
198.55	142.857
198.92	133.333
199.30	150.000
199.68	145.455
200.05	100.000
200.43	350.000
200.81	57.143
201.18	0.000
201.56	-0.000
201.94	0.000
202.31	-733.333
202.69	11.111
203.07	-800.000
203.44	200.000
203.82	400.000
204.19	25.000
204.57	133.333
204.95	137.500
205.32	0.000
205.70	-475.000
206.08	250.000
206.45	233.333
206.83	-140.000
207.20	250.000
207.58	-100.000
207.96	0.000
208.33	66.667
208.71	8.333
209.08	283.333
209.46	0.000
209.84	50.000
210.21	-450.000
210.59	-600.000
210.96	-233.333
211.34	350.000
211.71	175.000
212.09	500.000
212.46	0.000
212.84	150.000
213.22	60.000
213.59	300.000
213.97	150.000
214.34	366.667
214.72	-16.667
215.09	150.000
215.47	0.000
215.84	-171.429
216.22	-350.000
216.59	200.000
216.97	240.000
217.34	275.000
217.72	250.000
218.09	125.000
218.47	25.000
218.84	0.000
219.22	-240.000
219.59	47.059
219.97	50.000
220.34	-350.000
220.72	111.111
221.09	107.692
221.47	300.000
221.84	150.000
222.22	85.714
222.59	0.000
222.97	37.500
223.34	20.000
223.72	700.000
224.09	100.000
224.46	350.000
224.84	160.000
225.21	42.857
225.59	200.000
225.96	150.000
226.34	69.231
226.71	100.000
227.08	600.000
227.46	106.667
227.83	275.000
228.21	126.316
228.58	-62.500
228.95	-200.000
229.33	41.667
229.70	100.000
230.08	78.947
230.45	-70.000
230.82	233.333
231.20	50.000
231.57	133.333
231.95	100.000
232.32	72.727
232.69	95.000
233.07	150.000
233.44	23.529
233.81	10.000
234.19	88.889
234.56	90.909
234.93	89.655
235.31	68.421
235.68	55.556
236.05	35.000
236.43	84.615
236.80	108.000
237.17	74.074
237.55	42.424
237.92	110.000
238.29	64.516
238.67	27.273
239.04	50.000
239.41	23.810
239.79	28.261
240.16	9.259
240.53	28.261
240.91	13.725
241.28	24.590
241.65	41.791
242.02	31.081
242.40	23.077
242.77	21.333
243.14	20.732
243.51	6.579
243.89	21.795
244.26	32.673
244.63	28.431
245.00	25.234
245.38	21.053
245.75	16.814
246.12	14.286
246.49	22.481
246.87	26.429
247.24	20.530
247.61	15.789
247.98	21.477
248.36	22.840
248.73	16.564
249.10	20.765
249.47	23.881
249.84	23.560
250.22	19.171
250.59	17.222
250.96	19.091
251.33	15.306
251.70	17.521
252.08	20.833
252.45	17.623
252.82	19.421
253.19	14.844
253.56	21.673
253.94	16.538
254.31	17.803
254.68	19.580
255.05	19.870
255.42	18.367
255.79	14.887
256.16	12.914
256.54	15.232
256.91	17.377
257.28	19.016
257.65	15.605
258.02	12.979
258.39	14.530
258.76	20.489
259.14	13.506
259.51	15.274
259.88	18.130
260.25	15.000
260.62	17.808
260.99	17.760
261.36	15.282
261.73	14.058
262.10	12.912
262.47	16.622
262.85	18.939
263.22	15.065
263.59	15.000
263.96	13.299
264.33	11.765
264.70	13.086
265.07	18.138
265.44	16.100
265.81	13.889
266.18	13.832
266.55	13.616
266.92	12.984
267.29	15.974
267.66	13.304
268.03	14.847
268.40	15.240
268.77	15.262
269.14	11.894
269.51	13.596
269.88	16.598
270.25	16.700
270.62	14.768
270.99	16.566
271.36	15.248
271.73	14.735
272.10	13.828
272.47	13.226
272.84	14.056
273.21	14.830
273.58	14.919
273.95	13.462
274.32	9.696
274.69	13.926
275.06	13.736
275.43	12.754
275.80	14.638
276.17	12.222
276.54	13.246
276.91	13.417
277.28	13.924
277.65	12.926
278.02	14.154
278.39	14.130
278.76	13.533
279.13	13.830
279.50	13.574
279.87	13.238
280.23	9.859
280.60	14.068
280.97	14.309
281.34	13.582
281.71	15.059
282.08	15.282
282.45	11.784
282.82	11.303
283.19	13.409
283.56	12.951
283.92	14.414
284.29	15.324
284.66	14.122
285.03	13.301
285.40	12.519
285.77	11.920
286.14	14.656
286.51	13.546
286.87	13.428
287.24	13.554
287.61	13.453
287.98	11.480
288.35	12.870
288.72	12.278
289.08	14.056
289.45	13.018
289.82	12.500
290.19	14.368
290.56	14.507
290.93	12.553
291.29	13.774
291.66	13.223
292.03	12.754
292.40	13.333
292.77	13.342
293.13	11.773
293.50	11.958
293.87	13.289
294.24	14.800
294.60	15.044
294.97	12.081
295.34	12.676
295.71	13.115
296.08	12.016
296.44	13.113
296.81	12.546
297.18	12.702
297.55	10.495
297.91	12.456
298.28	12.085
298.65	13.912
299.02	12.043
299.38	12.929
299.75	12.033
300.12	11.111
300.48	13.018
300.85	12.823
301.22	12.864
301.59	11.416
301.95	13.107
302.32	13.778
302.69	11.939
303.05	12.405
303.42	12.639
303.79	12.604
304.15	12.093
304.52	12.896
304.89	13.298
305.25	13.872
305.62	11.808
305.99	12.680
306.35	12.298
306.72	14.064
307.09	13.299
307.45	13.561
307.82	13.925
308.19	13.623
308.55	13.211
308.92	13.437
309.29	14.464
309.65	13.353
310.02	13.267
310.38	12.402
310.75	14.272
311.12	14.573
311.48	14.663
311.85	15.480
312.22	14.516
312.58	15.399
312.95	15.583
313.31	15.176
313.68	16.117
314.05	16.712
314.41	16.485
314.78	14.986
315.14	16.425
315.51	16.713
315.87	16.382
316.24	18.995
316.61	19.272
316.97	16.561
317.34	17.284
317.70	18.952
318.07	18.430
318.43	18.197
318.80	19.398
319.16	17.253
319.53	17.309
319.89	17.967
320.26	18.149
320.62	18.528
320.99	19.114
321.35	18.946
321.72	20.093
322.08	19.206
322.45	20.235
322.81	21.480
323.18	20.442
323.54	20.431
323.91	21.085
324.27	20.912
324.64	21.914
325.00	20.978
325.37	22.195
325.73	22.231
326.10	21.087
326.46	21.906
326.83	21.617
327.19	22.205
327.56	23.241
327.92	21.951
328.29	22.419
328.65	22.278
329.01	23.350
329.38	24.263
329.74	24.144
330.11	24.229
330.47	24.516
330.84	24.289
331.20	24.583
331.56	24.003
331.93	24.351
332.29	25.932
332.66	25.083
333.02	24.204
333.38	24.413
333.75	25.758
334.11	24.103
334.48	24.587
334.84	25.743
335.20	24.937
335.57	25.042
335.93	25.372
336.29	25.208
336.66	24.306
337.02	26.171
337.38	25.680
337.75	25.041
338.11	25.399
338.47	26.055
338.84	25.804
339.20	24.937
339.56	24.629
339.93	25.123
340.29	25.282
340.65	24.655
341.02	25.299
341.38	26.031
341.74	25.101
342.11	25.422
342.47	25.179
342.83	26.087
343.20	25.920
343.56	26.383
343.92	24.980
344.28	25.547
344.65	25.349
345.01	26.755
345.37	26.516
345.73	24.552
346.10	26.521
346.46	25.000
346.82	26.517
347.19	25.898
347.55	25.797
347.91	24.740
348.27	25.645
348.63	26.047
349.00	24.683
349.36	25.948
349.72	25.000
350.08	26.003
350.45	25.551
350.81	26.320
351.17	25.865
351.53	26.384
351.89	26.424
352.26	25.821
352.62	25.448
352.98	24.809
353.34	25.317
353.70	26.810
354.07	25.410
354.43	26.576
354.79	25.131
355.15	26.784
355.51	25.658
355.87	24.832
356.24	25.551
356.60	25.055
356.96	26.390
357.32	24.758
357.68	25.695
358.04	25.898
358.40	25.448
358.77	25.512
359.13	25.111
359.49	24.907
359.85	25.453
360.21	25.395
360.57	25.341
360.93	25.882
361.29	26.667
361.66	25.634
362.02	26.653
362.38	25.791
362.74	26.117
363.10	26.479
363.46	26.801
363.82	26.562
364.18	26.601
364.54	27.732
364.90	26.823
365.26	26.138
365.62	26.600
365.98	26.481
366.35	26.913
366.71	27.279
367.07	26.455
367.43	27.446
367.79	27.936
368.15	28.227
368.51	28.011
368.87	26.780
369.23	28.067
369.59	28.415
369.95	28.262
370.31	28.157
370.67	27.717
371.03	28.463
371.39	27.132
371.75	27.717
372.11	28.117
372.47	28.097
372.83	27.814
373.19	28.085
373.55	28.455
373.91	28.016
374.27	28.072
374.63	29.093
374.99	27.785
375.35	29.805
375.71	28.710
376.07	28.599
376.42	29.282
376.78	29.832
377.14	29.008
377.50	29.475
377.86	29.064
378.22	30.000
378.58	30.380
378.94	29.049
379.30	30.404
379.66	29.512
380.02	30.756
380.38	30.876
380.74	30.254
381.09	31.823
381.45	30.852
381.81	31.089
382.17	31.176
382.53	31.111
382.89	31.208
383.25	31.829
383.61	31.713
383.97	30.742
384.32	32.476
384.68	30.568
385.04	32.794
385.40	32.351
385.76	32.063
386.12	31.957
386.48	31.588
386.83	32.598
387.19	32.619
387.55	33.216
387.91	33.447
388.27	33.545
388.62	32.932
388.98	32.713
389.34	32.882
389.70	33.178
390.06	33.511
390.42	33.554
390.77	32.872
391.13	32.981
391.49	34.662
391.85	33.394
392.20	33.452
392.56	34.141
392.92	34.188
393.28	34.715
393.64	34.022
393.99	34.282
394.35	35.280
394.71	35.269
395.07	34.192
395.42	34.323
395.78	35.222
396.14	34.997
396.50	35.036
396.85	34.168
397.21	34.852
397.57	34.335
397.92	34.880
398.28	34.275
398.64	35.011
399.00	33.089
399.35	34.869
399.71	34.891
400.07	34.643
400.42	35.565
400.78	35.417
401.14	35.572
401.49	36.612
401.85	35.291
402.21	36.848
402.57	35.974
402.92	35.343
403.28	35.304
403.63	34.785
403.99	35.333
404.35	35.077
404.70	34.164
405.06	35.761
405.42	35.773
405.77	36.369
406.13	34.738
406.49	35.698
406.84	36.066
407.20	34.936
407.55	35.373
407.91	36.329
408.27	35.866
408.62	35.486
408.98	35.926
409.34	35.308
409.69	35.290
410.05	35.991
410.40	36.311
410.76	35.446
411.11	35.769
411.47	35.811
411.83	36.096
412.18	37.590
412.54	36.337
412.89	35.972
413.25	36.456
413.60	35.497
413.96	36.131
414.31	35.751
414.67	35.897
415.03	36.000
415.38	36.129
415.74	36.286
416.09	36.397
416.45	35.441
416.80	34.884
417.16	37.292
417.51	36.800
417.87	35.868
418.22	37.725
418.58	37.856
418.93	36.321
419.29	36.498
419.64	36.014
420.00	37.033
420.35	36.721
420.71	37.622
421.06	36.113
421.42	37.615
421.77	36.241
422.12	36.099
422.48	37.071
422.83	36.857
423.19	37.454
423.54	37.500
423.90	37.714
424.25	37.120
424.61	36.452
424.96	36.628
425.31	38.163
425.67	37.252
426.02	38.517
426.38	38.519
426.73	36.775
427.09	39.562
427.44	36.865
427.79	37.811
428.15	37.329
428.50	37.472
428.85	38.519
429.21	39.415
429.56	38.055
429.92	37.592
430.27	38.651
430.62	37.567
430.98	37.973
431.33	37.732
431.68	37.308
432.04	38.598
432.39	37.547
432.74	38.584
433.10	38.453
433.45	37.402
433.80	39.324
434.16	37.707
434.51	38.181
434.86	39.902
435.22	39.904
435.57	39.976
435.92	38.954
436.28	38.339
436.63	39.869
436.98	38.433
437.34	40.192
437.69	38.525
438.04	39.450
438.39	40.149
438.75	40.288
439.10	40.592
439.45	39.128
439.81	39.379
440.16	38.767
440.51	40.245
440.86	38.243
441.22	39.550
441.57	39.832
441.92	38.506
442.27	39.747
442.63	39.295
442.98	40.822
443.33	39.032
443.68	39.792
444.03	39.699
444.39	40.083
444.74	40.020
445.09	39.128
445.44	40.148
445.79	40.709
446.15	40.596
446.50	40.103
446.85	40.467
447.20	39.894
447.55	40.272
447.91	40.105
448.26	39.482
448.61	40.117
448.96	40.933
449.31	39.396
449.66	40.632
450.02	40.717
450.37	40.703
450.72	40.689
451.07	41.002
451.42	39.919
451.77	40.411
452.12	41.535
452.47	39.632
452.83	40.935
453.18	40.047
453.53	39.690
453.88	39.260
454.23	40.508
454.58	40.337
454.93	40.352
455.28	41.421
455.63	40.762
455.98	41.061
456.34	40.165
456.69	40.917
457.04	39.835
457.39	40.798
457.74	41.275
458.09	40.637
458.44	41.056
458.79	41.104
459.14	40.902
459.49	40.634
459.84	41.763
460.19	40.589
460.54	41.794
460.89	41.503
461.24	39.885
461.59	41.007
461.94	39.989
462.29	41.657
462.64	39.409
462.99	41.494
463.34	41.986
463.69	40.387
464.04	42.023
464.39	40.919
464.74	40.650
465.09	40.023
465.44	41.202
465.79	40.772
466.14	38.979
466.49	40.000
466.84	41.212
467.19	39.595
467.54	39.835
467.89	39.885
468.24	41.219
468.59	39.896
468.94	39.685
469.29	40.312
469.64	41.004
469.99	40.727
470.34	40.594
470.68	41.900
471.03	40.668
471.38	39.699
471.73	41.157
472.08	41.180
472.43	42.143
472.78	41.373
473.13	40.582
473.48	41.692
473.83	41.613
474.17	39.449
474.52	41.431
474.87	41.141
475.22	40.620
475.57	39.979
475.92	39.871
476.27	39.989
476.61	39.772
476.96	40.146
477.31	39.901
477.66	41.920
478.01	40.519
478.36	39.880
478.70	39.655
479.05	40.951
479.40	41.461
479.75	41.258
480.10	40.550
480.45	39.790
480.79	40.181
481.14	39.660
481.49	39.982
481.84	40.688
482.19	40.516
482.53	40.883
482.88	40.762
483.23	40.774
483.58	40.393
483.92	39.761
484.27	40.390
484.62	39.810
484.97	40.280
485.31	40.056
485.66	39.563
486.01	38.079
486.36	38.237
486.70	39.017
487.05	38.986
487.40	38.635
487.75	40.051
488.09	39.758
488.44	39.642
488.79	40.742
489.13	40.623
489.48	39.961
489.83	39.678
490.17	39.976
490.52	39.819
490.87	40.440
491.22	40.338
491.56	40.102
491.91	40.733
492.26	40.935
492.60	40.490
492.95	41.158
493.30	40.744
493.64	40.561
493.99	41.009
494.34	39.329
494.68	39.914
495.03	40.881
495.37	40.524
495.72	40.363
496.07	40.491
496.41	40.369
496.76	40.117
497.11	40.679
497.45	39.318
497.80	40.604
498.14	39.592
498.49	40.947
498.84	40.402
499.18	40.216
499.53	40.045
499.87	40.264
500.22	39.537
500.56	39.991
500.91	40.458
501.26	40.318
501.60	39.770
501.95	40.643
502.29	39.886
502.64	40.096
502.98	40.121
503.33	39.654
503.67	39.337
504.02	40.149
504.36	40.572
504.71	40.423
505.06	40.518
505.40	39.397
505.75	39.663
506.09	40.654
506.44	40.715
506.78	41.009
507.13	41.033
507.47	39.649
507.82	41.051
508.16	41.013
508.51	40.459
508.85	40.482
509.19	40.407
509.54	40.442
509.88	40.165
510.23	41.671
510.57	40.454
510.92	40.590
511.26	40.308
511.61	39.256
511.95	40.312
512.30	41.310
512.64	40.330
512.98	39.720
513.33	41.280
513.67	39.980
514.02	40.828
514.36	40.358
514.70	41.302
515.05	40.355
515.39	40.420
515.74	41.676
516.08	41.469
516.42	42.386
516.77	40.589
517.11	40.124
517.46	41.357
517.80	41.796
518.14	41.948
518.49	42.191
518.83	40.766
519.17	40.926
519.52	40.566
519.86	41.816
520.20	40.788
520.55	41.402
520.89	42.005
521.23	40.927
521.58	42.260
521.92	41.360
522.26	40.836
522.61	40.799
522.95	41.349
523.29	42.414
523.64	41.704
523.98	41.814
524.32	42.980
524.66	41.605
525.01	41.563
525.35	40.953
525.69	41.647
526.04	40.586
526.38	40.977
526.72	41.811
527.06	42.405
527.41	40.758
527.75	42.518
528.09	41.145
528.43	39.609
528.78	39.942
529.12	41.628
529.46	40.416
529.80	41.648
530.15	40.232
530.49	40.807
530.83	40.201
531.17	41.278
531.51	42.539
531.86	40.805
532.20	42.378
532.54	41.173
532.88	41.576
533.22	40.012
533.57	42.297
533.91	41.582
534.25	41.040
534.59	41.437
534.93	40.577
535.27	40.507
535.62	41.842
535.96	40.965
536.30	40.482
536.64	42.402
536.98	41.513
537.32	41.049
537.66	42.109
538.01	40.725
538.35	40.682
538.69	40.925
539.03	41.263
539.37	40.459
539.71	41.141
540.05	41.247
540.39	41.504
540.73	40.316
541.07	41.263
541.42	39.752
541.76	40.391
542.10	40.953
542.44	40.987
542.78	40.876
543.12	39.988
543.46	40.781
543.80	39.269
544.14	40.395
544.48	41.017
544.82	40.694
545.16	40.966
545.50	41.642
545.84	40.233
546.18	41.358
546.52	41.083
546.86	40.566
547.20	40.903
547.54	40.325
547.88	40.205
548.22	40.175
548.56	40.374
548.90	40.537
549.24	39.939
549.58	41.577
549.92	40.625
550.26	40.647
550.60	41.161
550.94	41.332
551.28	40.858
551.62	41.038
551.96	39.871
552.30	41.746
552.64	41.506
552.98	41.048
553.32	41.286
553.66	41.029
554.00	40.605
554.34	41.441
554.68	41.317
555.02	41.524
555.36	41.026
555.69	40.167
556.03	40.984
556.37	40.613
556.71	40.710
557.05	40.639
557.39	41.141
557.73	40.489
558.07	42.318
558.41	42.724
558.75	40.162
559.08	41.684
559.42	41.084
559.76	40.773
560.10	40.924
560.44	42.018
560.78	41.625
561.12	40.271
561.45	41.363
561.79	41.270
562.13	41.405
562.47	39.457
562.81	40.127
563.15	40.467
563.48	41.703
563.82	41.294
564.16	40.097
564.50	40.405
564.84	40.413
565.17	40.412
565.51	39.701
565.85	40.855
566.19	39.862
566.52	41.428
566.86	40.011
567.20	40.239
567.54	40.574
567.88	40.673
568.21	40.761
568.55	39.664
568.89	39.991
569.23	39.882
569.56	39.664
569.90	39.309
570.24	38.752
570.57	39.480
570.91	38.151
571.25	38.154
571.59	38.742
571.92	37.607
572.26	38.460
572.60	38.193
572.93	38.519
573.27	38.663
573.61	38.804
573.95	38.043
574.28	38.356
574.62	37.835
574.96	38.090
575.29	37.629
575.63	37.699
575.97	37.629
576.30	37.626
576.64	38.010
576.98	37.927
577.31	38.458
577.65	37.639
577.98	37.726
578.32	37.911
578.66	37.034
578.99	38.132
579.33	38.217
579.67	37.919
580.00	37.919
580.34	38.329
580.67	37.379
581.01	37.992
581.35	38.418
581.68	38.261
582.02	37.687
582.35	37.964
582.69	37.752
583.02	37.750
583.36	37.749
583.70	38.014
584.03	38.613
584.37	38.040
584.70	38.215
585.04	37.968
585.37	37.738
585.71	38.101
586.04	37.715
586.38	38.394
586.72	37.478
587.05	37.938
587.39	38.394
587.72	38.158
588.06	38.322
588.39	38.213
588.73	37.804
589.06	38.516
589.40	39.428
589.73	38.946
590.07	39.290
590.40	39.249
590.73	38.812
591.07	39.650
591.40	39.425
591.74	39.229
592.07	39.302
592.41	39.748
592.74	39.226
593.08	38.535
593.41	38.758
593.75	38.391
594.08	38.776
594.41	38.750
594.75	38.559
595.08	39.435
595.42	38.734
595.75	39.102
596.09	39.275
596.42	39.269
596.75	39.406
597.09	39.960
597.42	38.935
597.75	38.926
598.09	39.722
598.42	39.284
598.76	39.014
599.09	39.124
599.42	38.887
599.76	38.594
600.09	39.840
600.42	38.238
600.76	38.639
601.09	37.703
601.42	38.998
601.76	38.828
602.09	38.956
602.42	38.386
602.76	39.151
603.09	39.574
603.42	39.415
603.76	38.901
604.09	39.461
604.42	39.853
604.76	38.813
605.09	38.971
605.42	39.434
605.75	39.038
606.09	38.746
606.42	39.000
606.75	38.906
607.09	38.057
607.42	39.422
607.75	39.273
608.08	39.424
608.42	39.661
608.75	39.884
609.08	39.219
609.41	39.700
609.75	39.777
610.08	40.325
610.41	39.380
610.74	39.328
611.07	39.964
611.41	38.565
611.74	40.462
612.07	40.720
612.40	39.924
612.73	39.658
613.07	40.831
613.40	40.038
613.73	39.336
614.06	39.990
614.39	39.845
614.72	39.592
615.06	38.980
615.39	39.149
615.72	39.763
616.05	39.534
616.38	39.556
616.71	40.909
617.05	39.830
617.38	39.486
617.71	39.903
618.04	40.853
618.37	40.765
618.70	40.724
619.03	39.725
619.36	40.875
619.69	40.231
620.03	41.180
620.36	40.184
620.69	41.641
621.02	41.732
621.35	42.380
621.68	42.516
622.01	41.139
622.34	41.771
622.67	40.137
623.00	40.283
623.33	42.468
623.66	42.802
623.99	40.421
624.32	41.455
624.65	40.090
624.99	41.612
625.32	42.129
625.65	41.875
625.98	41.492
626.31	42.310
626.64	42.418
626.97	43.211
627.30	41.913
627.63	41.260
627.96	42.643
628.29	41.634
628.62	42.317
628.95	42.857
629.28	41.886
629.61	42.845
629.94	41.339
630.26	41.102
630.59	42.401
630.92	42.684
631.25	43.470
631.58	43.691
631.91	43.112
632.24	43.132
632.57	43.454
632.90	43.430
633.23	42.755
633.56	42.449
633.89	41.426
634.22	43.347
