SpectraSuite Data File
++++++++++++++++++++++++++++++++++++
Date: Thu May 14 14:26:41 PDT 2015
User: schluterlab
Dark Spectrum Present: Yes
Reference Spectrum Present: Yes
Number of Sampled Component Spectra: 1
Spectrometers: USB2E3373
Integration Time (usec): 3000 (USB2E3373)
Spectra Averaged: 3 (USB2E3373)
Boxcar Smoothing: 0 (USB2E3373)
Correct for Electrical Dark: No (USB2E3373)
Strobe/Lamp Enabled: No (USB2E3373)
Correct for Detector Non-linearity: No (USB2E3373)
Correct for Stray Light: No (USB2E3373)
Number of Pixels in Processed Spectrum: 2048
>>>>>Begin Processed Spectral Data<<<<<
178.53	0.000
178.91	-14.286
179.29	500.000
179.67	700.000
180.04	78.571
180.42	20.000
180.80	-140.000
181.18	1000.000
181.56	1300.000
181.94	-25.000
182.31	150.000
182.69	-366.667
183.07	750.000
183.45	-175.000
183.83	183.333
184.20	433.333
184.58	-1200.000
184.96	300.000
185.34	111.111
185.72	240.000
186.09	-44.444
186.47	-50.000
186.85	-180.000
187.23	44.444
187.61	600.000
187.98	-60.000
188.36	-25.000
188.74	175.000
189.12	500.000
189.49	37.500
189.87	75.000
190.25	166.667
190.63	80.000
191.00	11.111
191.38	0.000
191.76	25.000
192.14	133.333
192.51	150.000
192.89	216.667
193.27	0.000
193.65	142.857
194.02	300.000
194.40	200.000
194.78	-171.429
195.15	0.000
195.53	90.909
195.91	0.000
196.29	325.000
196.66	38.462
197.04	200.000
197.42	128.571
197.79	300.000
198.17	87.500
198.55	128.571
198.92	166.667
199.30	150.000
199.68	181.818
200.05	164.286
200.43	600.000
200.81	-100.000
201.18	0.000
201.56	22.222
201.94	0.000
202.31	-66.667
202.69	22.222
203.07	-1600.000
203.44	177.778
203.82	200.000
204.19	150.000
204.57	150.000
204.95	150.000
205.32	600.000
205.70	-175.000
206.08	116.667
206.45	166.667
206.83	40.000
207.20	150.000
207.58	180.000
207.96	83.333
208.33	250.000
208.71	-8.333
209.08	216.667
209.46	0.000
209.84	-50.000
210.21	-350.000
210.59	-700.000
210.96	-133.333
211.34	275.000
211.71	75.000
212.09	900.000
212.46	0.000
212.84	-0.000
213.22	0.000
213.59	375.000
213.97	60.000
214.34	133.333
214.72	-100.000
215.09	225.000
215.47	0.000
215.84	-28.571
216.22	-100.000
216.59	280.000
216.97	280.000
217.34	325.000
217.72	162.500
218.09	125.000
218.47	150.000
218.84	0.000
219.22	-80.000
219.59	88.235
219.97	80.000
220.34	-400.000
220.72	88.889
221.09	138.462
221.47	100.000
221.84	130.000
222.22	114.286
222.59	0.000
222.97	175.000
223.34	140.000
223.72	500.000
224.09	275.000
224.46	275.000
224.84	340.000
225.21	0.000
225.59	100.000
225.96	175.000
226.34	50.000
226.71	-66.667
227.08	650.000
227.46	53.333
227.83	325.000
228.21	78.947
228.58	-50.000
228.95	-400.000
229.33	100.000
229.70	130.000
230.08	73.684
230.45	-20.000
230.82	400.000
231.20	128.571
231.57	133.333
231.95	54.545
232.32	163.636
232.69	105.000
233.07	400.000
233.44	52.941
233.81	130.000
234.19	116.667
234.56	68.182
234.93	62.069
235.31	73.684
235.68	94.444
236.05	65.000
236.43	103.846
236.80	88.000
237.17	85.185
237.55	78.788
237.92	140.000
238.29	112.903
238.67	65.909
239.04	80.556
239.41	66.667
239.79	73.913
240.16	57.407
240.53	54.348
240.91	72.549
241.28	67.213
241.65	70.149
242.02	68.919
242.40	69.231
242.77	61.333
243.14	56.098
243.51	65.789
243.89	65.385
244.26	63.366
244.63	53.922
245.00	57.944
245.38	57.018
245.75	56.637
246.12	61.111
246.49	60.465
246.87	55.714
247.24	53.642
247.61	57.895
247.98	57.047
248.36	53.086
248.73	48.466
249.10	56.284
249.47	60.199
249.84	64.398
250.22	62.694
250.59	60.000
250.96	57.727
251.33	59.184
251.70	52.991
252.08	52.083
252.45	60.246
252.82	54.959
253.19	56.250
253.56	57.414
253.94	54.615
254.31	61.364
254.68	59.441
255.05	55.700
255.42	54.082
255.79	53.398
256.16	49.669
256.54	53.311
256.91	56.721
257.28	55.738
257.65	59.236
258.02	53.097
258.39	51.567
258.76	60.550
259.14	57.184
259.51	52.738
259.88	55.241
260.25	56.389
260.62	58.356
260.99	56.831
261.36	59.517
261.73	55.703
262.10	57.143
262.47	56.032
262.85	58.586
263.22	53.766
263.59	53.158
263.96	55.243
264.33	55.754
264.70	56.543
265.07	58.234
265.44	57.370
265.81	54.167
266.18	54.649
266.55	57.366
266.92	56.036
267.29	57.330
267.66	55.432
268.03	54.585
268.40	52.610
268.77	55.125
269.14	55.066
269.51	52.851
269.88	54.303
270.25	53.119
270.62	56.118
270.99	56.566
271.36	54.455
271.73	51.473
272.10	53.307
272.47	52.305
272.84	53.012
273.21	53.707
273.58	52.823
273.95	50.385
274.32	49.620
274.69	49.516
275.06	50.916
275.43	51.017
275.80	52.734
276.17	53.704
276.54	49.440
276.91	50.626
277.28	50.090
277.65	51.346
278.02	53.125
278.39	51.087
278.76	51.318
279.13	53.723
279.50	52.749
279.87	50.447
280.23	51.232
280.60	51.695
280.97	49.013
281.34	51.104
281.71	52.115
282.08	49.668
282.45	50.736
282.82	50.078
283.19	48.465
283.56	49.836
283.92	50.601
284.29	50.237
284.66	50.903
285.03	46.955
285.40	49.923
285.77	50.464
286.14	48.550
286.51	50.228
286.87	48.815
287.24	48.343
287.61	48.879
287.98	47.130
288.35	46.893
288.72	46.746
289.08	45.827
289.45	47.041
289.82	46.837
290.19	45.977
290.56	45.775
290.93	47.932
291.29	46.006
291.66	45.455
292.03	44.098
292.40	46.667
292.77	41.644
293.13	42.084
293.50	43.101
293.87	43.221
294.24	43.867
294.60	43.489
294.97	40.671
295.34	43.662
295.71	40.858
296.08	39.276
296.44	41.176
296.81	42.266
297.18	40.224
297.55	39.623
297.91	39.146
298.28	39.336
298.65	39.001
299.02	38.725
299.38	38.558
299.75	37.850
300.12	37.847
300.48	40.323
300.85	37.795
301.22	38.926
301.59	36.416
301.95	37.740
302.32	37.222
302.69	38.226
303.05	38.520
303.42	38.248
303.79	37.396
304.15	36.909
304.52	36.469
304.89	36.126
305.25	36.749
305.62	36.573
305.99	33.918
306.35	35.786
306.72	37.746
307.09	35.533
307.45	37.578
307.82	36.024
308.19	34.712
308.55	35.680
308.92	36.319
309.29	36.015
309.65	35.575
310.02	36.733
310.38	35.335
310.75	36.214
311.12	37.105
311.48	35.093
311.85	35.138
312.22	35.863
312.58	34.460
312.95	35.468
313.31	34.779
313.68	35.073
314.05	35.501
314.41	35.428
314.78	34.605
315.14	35.844
315.51	35.365
315.87	36.274
316.24	34.886
316.61	36.412
316.97	34.299
317.34	34.039
317.70	34.672
318.07	34.568
318.43	34.354
318.80	34.615
319.16	33.648
319.53	33.076
319.89	33.655
320.26	34.875
320.62	33.954
320.99	33.703
321.35	33.457
321.72	33.767
322.08	33.904
322.45	34.598
322.81	35.108
323.18	34.867
323.54	34.052
323.91	34.964
324.27	33.563
324.64	34.761
325.00	32.007
325.37	32.351
325.73	33.058
326.10	32.685
326.46	33.143
326.83	34.347
327.19	33.228
327.56	32.253
327.92	32.494
328.29	33.468
328.65	33.082
329.01	33.080
329.38	32.940
329.74	33.647
330.11	33.476
330.47	31.845
330.84	32.903
331.20	32.250
331.56	34.315
331.93	33.808
332.29	34.746
332.66	33.555
333.02	32.077
333.38	32.466
333.75	32.407
334.11	31.193
334.48	31.931
334.84	33.135
335.20	31.906
335.57	32.546
335.93	30.661
336.29	31.115
336.66	32.296
337.02	32.274
337.38	32.823
337.75	31.488
338.11	32.128
338.47	32.010
338.84	31.303
339.20	31.003
339.56	31.878
339.93	32.759
340.29	30.515
340.65	31.549
341.02	33.121
341.38	32.336
341.74	30.508
342.11	31.778
342.47	30.262
342.83	31.643
343.20	31.235
343.56	31.516
343.92	31.785
344.28	30.156
344.65	30.853
345.01	31.357
345.37	31.260
345.73	31.099
346.10	30.733
346.46	30.380
346.82	30.412
347.19	31.780
347.55	31.639
347.91	30.312
348.27	29.894
348.63	29.931
349.00	30.574
349.36	31.004
349.72	30.729
350.08	30.312
350.45	30.114
350.81	30.618
351.17	30.075
351.53	30.402
351.89	31.207
352.26	30.597
352.62	29.627
352.98	29.466
353.34	30.097
353.70	30.200
354.07	31.222
354.43	28.853
354.79	28.571
355.15	28.992
355.51	31.213
355.87	29.394
356.24	30.494
356.60	28.012
356.96	28.762
357.32	28.699
357.68	29.136
358.04	29.416
358.40	30.149
358.77	29.751
359.13	28.951
359.49	28.550
359.85	30.457
360.21	28.694
360.57	29.576
360.93	29.267
361.29	29.193
361.66	29.254
362.02	29.715
362.38	28.461
362.74	29.050
363.10	27.992
363.46	28.463
363.82	28.764
364.18	29.838
364.54	29.046
364.90	30.234
365.26	28.759
365.62	29.600
365.98	28.319
366.35	28.926
366.71	28.639
367.07	28.214
367.43	28.562
367.79	29.131
368.15	29.632
368.51	28.146
368.87	27.694
369.23	28.733
369.59	28.962
369.95	28.533
370.31	29.237
370.67	28.542
371.03	27.909
371.39	28.207
371.75	28.748
372.11	27.710
372.47	28.639
372.83	28.469
373.19	28.886
373.55	27.778
373.91	28.357
374.27	26.585
374.63	28.146
374.99	28.316
375.35	28.636
375.71	28.774
376.07	27.824
376.42	27.897
376.78	29.521
377.14	28.197
377.50	28.969
377.86	29.249
378.22	28.383
378.58	28.121
378.94	28.228
379.30	28.002
379.66	27.925
380.02	28.102
380.38	28.629
380.74	27.493
381.09	27.933
381.45	28.011
381.81	28.981
382.17	27.553
382.53	28.129
382.89	27.652
383.25	28.370
383.61	27.373
383.97	28.151
384.32	28.828
384.68	27.204
385.04	28.629
385.40	28.580
385.76	28.839
386.12	27.947
386.48	27.882
386.83	28.129
387.19	28.100
387.55	27.934
387.91	27.340
388.27	28.291
388.62	28.064
388.98	27.468
389.34	27.696
389.70	28.298
390.06	27.649
390.42	27.590
390.77	29.139
391.13	27.993
391.49	28.563
391.85	27.455
392.20	27.817
392.56	28.588
392.92	28.135
393.28	27.861
393.64	27.821
393.99	29.111
394.35	28.446
394.71	28.982
395.07	29.042
395.42	27.413
395.78	28.458
396.14	28.580
396.50	28.325
396.85	28.563
397.21	28.225
397.57	28.033
397.92	28.351
398.28	27.539
398.64	27.288
399.00	26.911
399.35	27.330
399.71	27.935
400.07	28.186
400.42	27.823
400.78	27.431
401.14	28.344
401.49	28.368
401.85	27.907
402.21	28.042
402.57	28.052
402.92	27.955
403.28	27.166
403.63	27.625
403.99	28.385
404.35	27.516
404.70	27.932
405.06	27.772
405.42	27.459
405.77	27.754
406.13	28.093
406.49	28.209
406.84	27.867
407.20	27.166
407.55	26.590
407.91	27.278
408.27	26.855
408.62	27.981
408.98	27.684
409.34	26.452
409.69	27.194
410.05	28.019
410.40	27.784
410.76	27.594
411.11	27.762
411.47	28.501
411.83	27.102
412.18	28.133
412.54	27.386
412.89	27.474
413.25	27.144
413.60	28.260
413.96	26.923
414.31	27.082
414.67	27.072
415.03	26.954
415.38	27.617
415.74	27.306
416.09	27.822
416.45	27.364
416.80	27.173
417.16	27.714
417.51	27.148
417.87	26.364
418.22	26.527
418.58	26.642
418.93	27.939
419.29	27.189
419.64	26.771
420.00	26.409
420.35	27.569
420.71	27.455
421.06	26.279
421.42	27.867
421.77	25.363
422.12	26.903
422.48	26.523
422.83	27.985
423.19	27.321
423.54	27.102
423.90	26.449
424.25	26.880
424.61	26.005
424.96	27.567
425.31	27.442
425.67	26.946
426.02	27.559
426.38	26.980
426.73	26.283
427.09	28.085
427.44	26.434
427.79	26.921
428.15	27.511
428.50	26.236
428.85	27.382
429.21	27.234
429.56	27.048
429.92	26.634
430.27	28.000
430.62	27.455
430.98	27.152
431.33	26.686
431.68	26.772
432.04	27.171
432.39	26.995
432.74	27.340
433.10	27.420
433.45	26.533
433.80	27.039
434.16	27.686
434.51	27.646
434.86	27.253
435.22	27.736
435.57	27.948
435.92	28.047
436.28	27.873
436.63	28.181
436.98	26.463
437.34	26.663
437.69	26.802
438.04	26.970
438.39	27.743
438.75	26.508
439.10	27.484
439.45	26.663
439.81	26.949
440.16	27.453
440.51	27.480
440.86	26.904
441.22	27.117
441.57	27.516
441.92	27.255
442.27	27.828
442.63	26.677
442.98	27.962
443.33	27.301
443.68	27.651
444.03	28.551
444.39	27.000
444.74	27.871
445.09	27.319
445.44	27.819
445.79	27.969
446.15	27.801
446.50	27.235
446.85	27.675
447.20	27.079
447.55	26.987
447.91	27.644
448.26	27.220
448.61	26.886
448.96	28.487
449.31	27.784
449.66	27.669
450.02	27.373
450.37	27.331
450.72	26.695
451.07	27.050
451.42	27.210
451.77	26.848
452.12	26.862
452.47	26.560
452.83	27.083
453.18	27.437
453.53	27.111
453.88	26.670
454.23	25.932
454.58	27.684
454.93	26.214
455.28	27.514
455.63	26.947
455.98	27.095
456.34	27.091
456.69	27.454
457.04	27.541
457.39	27.051
457.74	29.027
458.09	26.634
458.44	27.371
458.79	26.663
459.14	27.320
459.49	27.617
459.84	27.020
460.19	26.929
460.54	27.598
460.89	27.687
461.24	27.069
461.59	28.058
461.94	27.039
462.29	27.380
462.64	27.942
462.99	27.684
463.34	28.358
463.69	27.022
464.04	27.515
464.39	26.401
464.74	26.853
465.09	27.855
465.44	26.985
465.79	27.181
466.14	27.358
466.49	26.579
466.84	27.438
467.19	27.168
467.54	26.675
467.89	26.667
468.24	26.981
468.59	26.404
468.94	26.224
469.29	27.355
469.64	26.510
469.99	26.896
470.34	26.361
470.68	27.273
471.03	27.570
471.38	27.469
471.73	26.788
472.08	27.411
472.43	26.791
472.78	26.889
473.13	26.296
473.48	26.586
473.83	27.278
474.17	26.495
474.52	26.999
474.87	27.021
475.22	27.549
475.57	27.051
475.92	26.680
476.27	27.370
476.61	26.116
476.96	26.434
477.31	27.574
477.66	26.810
478.01	27.250
478.36	26.670
478.70	26.700
479.05	27.352
479.40	26.111
479.75	26.561
480.10	26.575
480.45	27.028
480.79	26.304
481.14	27.528
481.49	27.033
481.84	26.806
482.19	26.925
482.53	27.416
482.88	27.116
483.23	26.945
483.58	26.026
483.92	26.285
484.27	26.630
484.62	26.856
484.97	26.711
485.31	26.998
485.66	27.437
486.01	26.020
486.36	26.068
486.70	26.782
487.05	27.219
487.40	27.931
487.75	27.990
488.09	28.177
488.44	27.959
488.79	27.757
489.13	27.625
489.48	27.534
489.83	26.720
490.17	26.245
490.52	26.149
490.87	26.142
491.22	26.776
491.56	26.109
491.91	26.821
492.26	26.266
492.60	26.104
492.95	26.415
493.30	26.401
493.64	26.544
493.99	26.228
494.34	26.481
494.68	25.225
495.03	26.784
495.37	25.788
495.72	26.077
496.07	26.249
496.41	26.040
496.76	25.438
497.11	25.605
497.45	25.896
497.80	26.877
498.14	25.896
498.49	26.700
498.84	26.188
499.18	26.586
499.53	26.547
499.87	25.714
500.22	25.557
500.56	26.271
500.91	26.362
501.26	27.000
501.60	26.116
501.95	26.704
502.29	26.591
502.64	26.629
502.98	26.488
503.33	25.356
503.67	25.861
504.02	26.226
504.36	26.631
504.71	26.275
505.06	26.376
505.40	26.417
505.75	26.685
506.09	26.197
506.44	26.695
506.78	26.881
507.13	26.095
507.47	26.101
507.82	26.799
508.16	25.621
508.51	25.738
508.85	26.027
509.19	27.096
509.54	26.945
509.88	26.275
510.23	26.906
510.57	26.631
510.92	26.657
511.26	25.349
511.61	25.495
511.95	26.647
512.30	26.686
512.64	25.987
512.98	26.513
513.33	26.260
513.67	27.078
514.02	26.162
514.36	26.650
514.70	25.885
515.05	26.225
515.39	26.142
515.74	27.041
516.08	26.941
516.42	27.159
516.77	25.973
517.11	25.838
517.46	26.723
517.80	26.777
518.14	26.442
518.49	26.085
518.83	25.546
519.17	26.225
519.52	25.891
519.86	26.188
520.20	26.358
520.55	26.013
520.89	26.464
521.23	26.186
521.58	26.554
521.92	24.986
522.26	26.174
522.61	26.794
522.95	26.298
523.29	26.379
523.64	26.738
523.98	26.811
524.32	27.049
524.66	26.295
525.01	25.311
525.35	25.158
525.69	26.160
526.04	25.258
526.38	26.724
526.72	25.548
527.06	26.158
527.41	25.773
527.75	26.722
528.09	26.446
528.43	26.051
528.78	25.780
529.12	25.631
529.46	25.239
529.80	26.487
530.15	26.145
530.49	26.038
530.83	26.505
531.17	25.806
531.51	26.775
531.86	26.502
532.20	26.220
532.54	26.212
532.88	26.424
533.22	26.635
533.57	26.890
533.91	25.814
534.25	25.551
534.59	26.092
534.93	26.089
535.27	26.535
535.62	27.231
535.96	27.542
536.30	25.617
536.64	26.967
536.98	27.245
537.32	26.358
537.66	27.137
538.01	25.317
538.35	25.518
538.69	26.382
539.03	26.916
539.37	27.032
539.71	26.306
540.05	27.158
540.39	26.100
540.73	25.865
541.07	26.609
541.42	25.753
541.76	25.741
542.10	25.754
542.44	26.066
542.78	26.703
543.12	26.818
543.46	25.885
543.80	25.659
544.14	26.631
544.48	25.887
544.82	26.691
545.16	25.999
545.50	26.303
545.84	26.393
546.18	27.901
546.52	25.987
546.86	25.346
547.20	26.272
547.54	25.593
547.88	26.160
548.22	26.374
548.56	25.922
548.90	26.448
549.24	25.836
549.58	27.129
549.92	25.191
550.26	26.408
550.60	26.484
550.94	26.649
551.28	25.941
551.62	26.685
551.96	25.113
552.30	26.960
552.64	26.945
552.98	25.702
553.32	26.238
553.66	26.752
554.00	26.608
554.34	26.384
554.68	25.888
555.02	25.887
555.36	27.219
555.69	26.009
556.03	25.977
556.37	26.471
556.71	25.999
557.05	26.326
557.39	26.012
557.73	26.486
558.07	26.291
558.41	26.645
558.75	25.693
559.08	26.514
559.42	25.171
559.76	26.119
560.10	26.055
560.44	27.045
560.78	26.875
561.12	26.478
561.45	26.582
561.79	26.862
562.13	26.494
562.47	25.401
562.81	25.949
563.15	26.831
563.48	26.414
563.82	26.542
564.16	27.075
564.50	25.805
564.84	26.667
565.17	26.882
565.51	25.662
565.85	26.485
566.19	26.901
566.52	26.741
566.86	26.995
567.20	25.122
567.54	26.235
567.88	26.351
568.21	26.779
568.55	26.667
568.89	26.827
569.23	26.785
569.56	27.159
569.90	26.907
570.24	27.083
570.57	27.357
570.91	26.975
571.25	27.278
571.59	27.442
571.92	26.892
572.26	26.998
572.60	27.136
572.93	27.108
573.27	27.592
573.61	27.634
573.95	27.361
574.28	27.330
574.62	27.467
574.96	27.106
575.29	26.702
575.63	27.350
575.97	27.593
576.30	27.313
576.64	27.654
576.98	27.790
577.31	27.508
577.65	27.590
577.98	27.146
578.32	27.248
578.66	27.422
578.99	27.586
579.33	27.835
579.67	27.607
580.00	27.602
580.34	28.076
580.67	27.582
581.01	27.867
581.35	27.723
581.68	27.631
582.02	27.622
582.35	27.409
582.69	27.899
583.02	28.425
583.36	28.014
583.70	28.471
584.03	28.390
584.37	28.586
584.70	28.093
585.04	27.389
585.37	27.883
585.71	27.983
586.04	27.675
586.38	27.786
586.72	27.576
587.05	27.577
587.39	27.823
587.72	28.062
588.06	27.273
588.39	28.180
588.73	27.434
589.06	27.286
589.40	28.304
589.73	28.599
590.07	28.050
590.40	27.620
590.73	28.066
591.07	28.071
591.40	27.877
591.74	27.822
592.07	28.136
592.41	26.893
592.74	27.583
593.08	27.293
593.41	26.888
593.75	27.443
594.08	27.689
594.41	27.115
594.75	27.831
595.08	27.153
595.42	27.143
595.75	27.414
596.09	28.092
596.42	27.768
596.75	27.325
597.09	28.040
597.42	28.049
597.75	27.950
598.09	27.063
598.42	28.106
598.76	26.595
599.09	27.127
599.42	27.254
599.76	26.973
600.09	27.794
600.42	27.394
600.76	27.675
601.09	27.149
601.42	27.120
601.76	27.483
602.09	27.341
602.42	27.372
602.76	27.491
603.09	27.753
603.42	28.179
603.76	26.920
604.09	27.857
604.42	27.670
604.76	28.120
605.09	28.002
605.42	27.313
605.75	27.692
606.09	27.809
606.42	26.852
606.75	26.799
607.09	26.767
607.42	27.437
607.75	27.706
608.08	27.545
608.42	27.408
608.75	26.949
609.08	27.292
609.41	27.305
609.75	27.143
610.08	27.485
610.41	26.678
610.74	26.639
611.07	26.954
611.41	27.040
611.74	27.252
612.07	26.648
612.40	27.471
612.73	27.433
613.07	27.384
613.40	27.575
613.73	26.577
614.06	27.380
614.39	26.579
614.72	26.104
615.06	26.612
615.39	26.341
615.72	27.109
616.05	27.683
616.38	28.254
616.71	27.534
617.05	27.050
617.38	26.592
617.71	26.512
618.04	26.875
618.37	26.721
618.70	27.093
619.03	27.360
619.36	27.559
619.69	26.457
620.03	26.240
620.36	26.687
620.69	26.527
621.02	27.362
621.35	27.794
621.68	26.970
622.01	25.907
622.34	26.778
622.67	26.460
623.00	25.371
623.33	26.676
623.66	26.719
623.99	26.926
624.32	26.771
624.65	26.190
624.99	27.243
625.32	26.911
625.65	26.905
625.98	26.983
626.31	26.790
626.64	26.813
626.97	25.656
627.30	26.196
627.63	27.007
627.96	26.577
628.29	26.226
628.62	25.525
628.95	25.855
629.28	26.083
629.61	26.768
629.94	25.105
630.26	25.254
630.59	25.907
630.92	26.061
631.25	26.744
631.58	26.554
631.91	25.492
632.24	26.993
632.57	26.091
632.90	25.978
633.23	26.224
633.56	25.816
633.89	24.897
