SpectraSuite Data File
++++++++++++++++++++++++++++++++++++
Date: Thu May 14 14:27:25 PDT 2015
User: schluterlab
Dark Spectrum Present: Yes
Reference Spectrum Present: Yes
Number of Sampled Component Spectra: 1
Spectrometers: USB2E3373
Integration Time (usec): 3000 (USB2E3373)
Spectra Averaged: 3 (USB2E3373)
Boxcar Smoothing: 0 (USB2E3373)
Correct for Electrical Dark: No (USB2E3373)
Strobe/Lamp Enabled: No (USB2E3373)
Correct for Detector Non-linearity: No (USB2E3373)
Correct for Stray Light: No (USB2E3373)
Number of Pixels in Processed Spectrum: 2048
>>>>>Begin Processed Spectral Data<<<<<
178.53	0.000
178.91	-157.143
179.29	600.000
179.67	500.000
180.04	50.000
180.42	-80.000
180.80	-160.000
181.18	700.000
181.56	1100.000
181.94	-275.000
182.31	375.000
182.69	-666.667
183.07	650.000
183.45	-125.000
183.83	200.000
184.20	133.333
184.58	-1700.000
184.96	275.000
185.34	66.667
185.72	220.000
186.09	55.556
186.47	-500.000
186.85	-140.000
187.23	11.111
187.61	800.000
187.98	-140.000
188.36	-75.000
188.74	75.000
189.12	100.000
189.49	87.500
189.87	100.000
190.25	133.333
190.63	320.000
191.00	11.111
191.38	0.000
191.76	150.000
192.14	133.333
192.51	-500.000
192.89	250.000
193.27	0.000
193.65	157.143
194.02	0.000
194.40	185.714
194.78	-142.857
195.15	0.000
195.53	100.000
195.91	0.000
196.29	375.000
196.66	69.231
197.04	1000.000
197.42	128.571
197.79	250.000
198.17	150.000
198.55	185.714
198.92	211.111
199.30	100.000
199.68	127.273
200.05	100.000
200.43	150.000
200.81	-57.143
201.18	0.000
201.56	-44.444
201.94	0.000
202.31	33.333
202.69	133.333
203.07	-700.000
203.44	177.778
203.82	225.000
204.19	191.667
204.57	166.667
204.95	125.000
205.32	700.000
205.70	-350.000
206.08	300.000
206.45	83.333
206.83	80.000
207.20	66.667
207.58	120.000
207.96	133.333
208.33	350.000
208.71	-25.000
209.08	233.333
209.46	0.000
209.84	-50.000
210.21	-750.000
210.59	-300.000
210.96	-300.000
211.34	350.000
211.71	125.000
212.09	400.000
212.46	0.000
212.84	-350.000
213.22	80.000
213.59	175.000
213.97	130.000
214.34	433.333
214.72	-50.000
215.09	175.000
215.47	0.000
215.84	-185.714
216.22	150.000
216.59	180.000
216.97	300.000
217.34	325.000
217.72	187.500
218.09	100.000
218.47	25.000
218.84	0.000
219.22	-340.000
219.59	94.118
219.97	90.000
220.34	-400.000
220.72	177.778
221.09	107.692
221.47	200.000
221.84	130.000
222.22	14.286
222.59	0.000
222.97	137.500
223.34	140.000
223.72	600.000
224.09	75.000
224.46	275.000
224.84	440.000
225.21	0.000
225.59	100.000
225.96	0.000
226.34	65.385
226.71	-100.000
227.08	400.000
227.46	93.333
227.83	275.000
228.21	47.368
228.58	-137.500
228.95	-250.000
229.33	50.000
229.70	140.000
230.08	126.316
230.45	-10.000
230.82	166.667
231.20	-7.143
231.57	108.333
231.95	163.636
232.32	190.909
232.69	95.000
233.07	425.000
233.44	111.765
233.81	60.000
234.19	61.111
234.56	95.455
234.93	75.862
235.31	110.526
235.68	61.111
236.05	35.000
236.43	103.846
236.80	100.000
237.17	59.259
237.55	54.545
237.92	60.000
238.29	6.452
238.67	34.091
239.04	52.778
239.41	47.619
239.79	13.043
240.16	24.074
240.53	28.261
240.91	7.843
241.28	3.279
241.65	31.343
242.02	13.514
242.40	12.308
242.77	16.000
243.14	7.317
243.51	-1.316
243.89	14.103
244.26	20.792
244.63	18.627
245.00	15.888
245.38	10.526
245.75	-0.885
246.12	19.048
246.49	12.403
246.87	22.143
247.24	14.570
247.61	19.079
247.98	9.396
248.36	15.432
248.73	11.656
249.10	10.383
249.47	14.428
249.84	14.136
250.22	15.026
250.59	9.444
250.96	13.636
251.33	4.592
251.70	11.111
252.08	10.417
252.45	11.066
252.82	10.331
253.19	8.594
253.56	11.787
253.94	8.846
254.31	10.606
254.68	10.839
255.05	9.446
255.42	9.184
255.79	6.149
256.16	6.623
256.54	3.311
256.91	10.492
257.28	6.557
257.65	5.732
258.02	5.605
258.39	7.977
258.76	13.150
259.14	7.759
259.51	5.187
259.88	3.966
260.25	6.389
260.62	9.041
260.99	8.197
261.36	7.239
261.73	2.387
262.10	4.670
262.47	8.847
262.85	10.101
263.22	6.753
263.59	4.474
263.96	4.859
264.33	3.836
264.70	5.432
265.07	6.205
265.44	9.524
265.81	6.713
266.18	5.442
266.55	6.696
266.92	4.100
267.29	5.252
267.66	5.765
268.03	4.367
268.40	6.054
268.77	5.695
269.14	3.524
269.51	3.947
269.88	7.582
270.25	8.048
270.62	6.751
270.99	7.879
271.36	8.713
271.73	3.733
272.10	5.411
272.47	4.208
272.84	4.618
273.21	6.613
273.58	4.234
273.95	6.346
274.32	4.183
274.69	5.996
275.06	6.044
275.43	4.991
275.80	5.820
276.17	3.333
276.54	3.731
276.91	5.188
277.28	5.787
277.65	6.284
278.02	6.618
278.39	6.703
278.76	4.218
279.13	5.851
279.50	6.186
279.87	6.440
280.23	3.521
280.60	6.780
280.97	7.237
281.34	4.075
281.71	5.584
282.08	5.648
282.45	4.419
282.82	5.495
283.19	2.908
283.56	4.754
283.92	7.057
284.29	7.583
284.66	6.897
285.03	4.487
285.40	6.028
285.77	4.180
286.14	8.092
286.51	4.871
286.87	5.529
287.24	5.873
287.61	5.082
287.98	6.042
288.35	5.178
288.72	5.473
289.08	6.442
289.45	5.769
289.82	5.422
290.19	6.753
290.56	6.761
290.93	5.563
291.29	7.576
291.66	5.785
292.03	5.427
292.40	7.483
292.77	5.121
293.13	7.037
293.50	5.913
293.87	4.966
294.24	6.400
294.60	6.700
294.97	5.235
295.34	7.682
295.71	6.179
296.08	5.685
296.44	6.495
296.81	6.577
297.18	6.102
297.55	6.368
297.91	6.168
298.28	6.398
298.65	7.015
299.02	6.021
299.38	6.293
299.75	6.075
300.12	6.134
300.48	6.912
300.85	7.312
301.22	6.264
301.59	6.279
301.95	6.215
302.32	7.778
302.69	6.243
303.05	6.855
303.42	6.763
303.79	8.125
304.15	7.150
304.52	7.294
304.89	7.120
305.25	7.557
305.62	7.524
305.99	7.938
306.35	7.560
306.72	9.307
307.09	7.005
307.45	8.489
307.82	8.274
308.19	7.164
308.55	8.968
308.92	8.179
309.29	8.333
309.65	8.382
310.02	8.515
310.38	9.744
310.75	9.223
311.12	9.684
311.48	10.264
311.85	9.782
312.22	9.867
312.58	10.141
312.95	9.560
313.31	10.659
313.68	10.806
314.05	11.924
314.41	12.659
314.78	11.989
315.14	13.521
315.51	13.112
315.87	12.331
316.24	12.237
316.61	13.321
316.97	12.217
317.34	12.963
317.70	13.362
318.07	14.109
318.43	14.456
318.80	14.298
319.16	13.391
319.53	12.168
319.89	14.110
320.26	15.302
320.62	14.894
320.99	15.605
321.35	15.527
321.72	16.465
322.08	14.157
322.45	16.170
322.81	15.884
323.18	15.664
323.54	16.466
323.91	16.459
324.27	16.954
324.64	17.632
325.00	16.252
325.37	17.199
325.73	17.851
326.10	17.843
326.46	18.404
326.83	19.135
327.19	18.898
327.56	19.051
327.92	19.197
328.29	18.629
328.65	19.933
329.01	19.543
329.38	20.051
329.74	19.777
330.11	21.233
330.47	20.809
330.84	20.327
331.20	20.917
331.56	20.364
331.93	21.172
332.29	21.356
332.66	21.346
333.02	21.022
333.38	20.554
333.75	21.633
334.11	22.936
334.48	21.287
334.84	22.430
335.20	20.739
335.57	21.248
335.93	22.149
336.29	21.797
336.66	21.615
337.02	22.074
337.38	22.279
337.75	20.909
338.11	22.792
338.47	22.663
338.84	22.081
339.20	21.230
339.56	21.252
339.93	22.167
340.29	21.095
340.65	20.843
341.02	21.708
341.38	23.040
341.74	22.034
342.11	23.089
342.47	21.128
342.83	22.142
343.20	21.177
343.56	22.053
343.92	22.418
344.28	22.969
344.65	23.333
345.01	21.685
345.37	22.473
345.73	22.214
346.10	22.621
346.46	22.073
346.82	21.798
347.19	22.689
347.55	22.534
347.91	21.620
348.27	22.079
348.63	22.239
349.00	21.999
349.36	22.454
349.72	22.693
350.08	22.140
350.45	21.369
350.81	22.247
351.17	22.256
351.53	23.351
351.89	22.703
352.26	22.239
352.62	22.612
352.98	22.824
353.34	21.957
353.70	22.496
354.07	22.131
354.43	21.564
354.79	21.616
355.15	20.971
355.51	23.099
355.87	22.289
356.24	22.129
356.60	21.508
356.96	22.683
357.32	21.115
357.68	22.255
358.04	21.632
358.40	22.090
358.77	21.930
359.13	22.526
359.49	21.190
359.85	22.190
360.21	22.453
360.57	22.254
360.93	22.426
361.29	22.737
361.66	22.810
362.02	22.825
362.38	23.823
362.74	22.486
363.10	22.696
363.46	22.645
363.82	21.875
364.18	23.082
364.54	23.306
364.90	23.278
365.26	23.310
365.62	23.267
365.98	22.805
366.35	23.826
366.71	23.197
367.07	23.410
367.43	23.835
367.79	23.159
368.15	23.211
368.51	23.613
368.87	24.494
369.23	24.933
369.59	24.044
369.95	24.341
370.31	24.240
370.67	24.553
371.03	24.100
371.39	23.573
371.75	25.309
372.11	24.797
372.47	24.577
372.83	24.280
373.19	23.549
373.55	24.458
373.91	23.790
374.27	24.321
374.63	24.357
374.99	24.403
375.35	25.714
375.71	25.290
376.07	24.467
376.42	24.937
376.78	25.917
377.14	25.140
377.50	25.427
377.86	25.677
378.22	26.168
378.58	25.624
378.94	25.411
379.30	26.069
379.66	25.985
380.02	25.678
380.38	26.152
380.74	26.817
381.09	26.307
381.45	26.648
381.81	26.581
382.17	26.900
382.53	27.018
382.89	27.088
383.25	27.257
383.61	26.794
383.97	27.032
384.32	28.409
384.68	27.262
385.04	27.935
385.40	28.521
385.76	28.957
386.12	28.067
386.48	28.941
386.83	28.367
387.19	28.100
387.55	28.286
387.91	27.968
388.27	29.273
388.62	27.835
388.98	28.370
389.34	29.110
389.70	29.053
390.06	29.248
390.42	28.313
390.77	29.982
391.13	28.873
391.49	30.737
391.85	28.848
392.20	29.775
392.56	29.061
392.92	30.425
393.28	29.574
393.64	30.112
393.99	30.041
394.35	29.731
394.71	29.641
395.07	29.042
395.42	29.869
395.78	31.018
396.14	30.362
396.50	30.285
396.85	29.815
397.21	30.473
397.57	29.918
397.92	30.412
398.28	29.766
398.64	29.519
399.00	29.110
399.35	30.157
399.71	29.783
400.07	30.432
400.42	30.210
400.78	30.382
401.14	30.165
401.49	30.927
401.85	30.988
402.21	30.707
402.57	31.045
402.92	31.206
403.28	30.035
403.63	29.833
403.99	30.107
404.35	30.301
404.70	29.462
405.06	29.185
405.42	31.557
405.77	30.534
406.13	30.092
406.49	30.124
406.84	29.584
407.20	29.402
407.55	29.800
407.91	30.484
408.27	30.094
408.62	30.134
408.98	30.586
409.34	29.326
409.69	31.150
410.05	30.422
410.40	30.800
410.76	30.847
411.11	30.742
411.47	30.897
411.83	31.276
412.18	30.904
412.54	31.298
412.89	30.151
413.25	30.587
413.60	30.040
413.96	30.711
414.31	30.935
414.67	30.769
415.03	31.077
415.38	31.148
415.74	30.849
416.09	31.832
416.45	31.622
416.80	30.600
417.16	30.587
417.51	30.573
417.87	31.147
418.22	31.317
418.58	32.032
418.93	31.141
419.29	31.196
419.64	30.252
420.00	31.691
420.35	30.825
420.71	31.591
421.06	31.282
421.42	32.225
421.77	30.048
422.12	31.977
422.48	31.183
422.83	32.530
423.19	32.361
423.54	32.688
423.90	31.033
424.25	31.627
424.61	32.032
424.96	32.345
425.31	32.113
425.67	32.797
426.02	32.429
426.38	33.065
426.73	32.422
427.09	33.160
427.44	31.950
427.79	32.172
428.15	32.249
428.50	32.528
428.85	32.147
429.21	33.298
429.56	32.034
429.92	32.088
430.27	32.916
430.62	33.219
430.98	32.169
431.33	32.600
431.68	31.992
432.04	33.520
432.39	33.905
432.74	32.991
433.10	33.045
433.45	33.779
433.80	33.584
434.16	33.729
434.51	34.173
434.86	33.768
435.22	34.166
435.57	34.729
435.92	33.278
436.28	34.130
436.63	34.954
436.98	32.689
437.34	34.047
437.69	33.462
438.04	33.104
438.39	34.463
438.75	33.868
439.10	33.827
439.45	33.818
439.81	34.181
440.16	33.405
440.51	33.445
440.86	33.685
441.22	33.548
441.57	34.591
441.92	34.190
442.27	34.444
442.63	33.979
442.98	33.404
443.33	34.561
443.68	34.985
444.03	35.089
444.39	35.737
444.74	35.528
445.09	34.465
445.44	34.457
445.79	34.770
446.15	35.098
446.50	34.160
446.85	34.436
447.20	34.478
447.55	34.885
447.91	34.712
448.26	34.249
448.61	34.166
448.96	35.730
449.31	34.836
449.66	33.551
450.02	34.546
450.37	35.802
450.72	35.576
451.07	34.795
451.42	34.720
451.77	35.131
452.12	35.045
452.47	34.581
452.83	35.642
453.18	34.267
453.53	35.037
453.88	34.180
454.23	35.537
454.58	35.519
454.93	35.255
455.28	35.160
455.63	35.020
455.98	34.916
456.34	34.452
456.69	35.038
457.04	35.993
457.39	34.756
457.74	34.955
458.09	34.706
458.44	34.375
458.79	34.193
459.14	35.868
459.49	35.144
459.84	35.992
460.19	34.536
460.54	35.378
460.89	34.727
461.24	35.862
461.59	35.362
461.94	34.284
462.29	35.162
462.64	34.641
462.99	34.275
463.34	34.977
463.69	35.404
464.04	35.019
464.39	35.258
464.74	34.094
465.09	34.717
465.44	35.944
465.79	35.378
466.14	34.966
466.49	34.263
466.84	35.372
467.19	34.913
467.54	33.784
467.89	33.621
468.24	34.515
468.59	34.279
468.94	33.333
469.29	33.893
469.64	34.393
469.99	34.927
470.34	35.210
470.68	34.381
471.03	35.494
471.38	34.925
471.73	34.330
472.08	34.835
472.43	34.859
472.78	35.453
473.13	34.134
473.48	35.347
473.83	35.577
474.17	34.818
474.52	36.019
474.87	34.662
475.22	35.493
475.57	33.593
475.92	34.495
476.27	34.345
476.61	34.060
476.96	34.567
477.31	34.109
477.66	35.834
478.01	34.011
478.36	34.247
478.70	34.729
479.05	34.969
479.40	34.798
479.75	35.303
480.10	34.628
480.45	33.956
480.79	33.878
481.14	34.145
481.49	34.121
481.84	35.596
482.19	34.624
482.53	34.893
482.88	34.603
483.23	34.638
483.58	34.323
483.92	33.378
484.27	34.081
484.62	33.870
484.97	33.942
485.31	34.178
485.66	33.729
486.01	33.389
486.36	33.583
486.70	32.996
487.05	32.825
487.40	32.784
487.75	33.181
488.09	33.136
488.44	33.107
488.79	34.233
489.13	33.852
489.48	33.981
489.83	33.280
490.17	33.333
490.52	33.333
490.87	33.249
491.22	34.272
491.56	33.874
491.91	34.191
492.26	33.579
492.60	33.537
492.95	34.050
493.30	33.528
493.64	34.034
493.99	33.640
494.34	32.927
494.68	33.790
495.03	33.216
495.37	33.511
495.72	33.379
496.07	33.216
496.41	33.333
496.76	33.778
497.11	33.885
497.45	33.319
497.80	33.896
498.14	33.832
498.49	33.594
498.84	33.181
499.18	33.558
499.53	33.408
499.87	34.154
500.22	33.571
500.56	34.098
500.91	33.684
501.26	34.045
501.60	33.274
501.95	34.043
502.29	33.918
502.64	33.843
502.98	33.261
503.33	32.527
503.67	32.795
504.02	33.538
504.36	33.691
504.71	33.624
505.06	33.151
505.40	32.815
505.75	33.561
506.09	34.530
506.44	33.519
506.78	33.807
507.13	33.887
507.47	32.923
507.82	33.902
508.16	32.170
508.51	33.005
508.85	33.538
509.19	34.107
509.54	33.766
509.88	34.726
510.23	34.580
510.57	33.978
510.92	33.672
511.26	33.622
511.61	32.690
511.95	33.626
512.30	33.727
512.64	32.534
512.98	33.967
513.33	33.014
513.67	34.166
514.02	32.754
514.36	33.453
514.70	33.646
515.05	33.472
515.39	33.228
515.74	34.571
516.08	33.122
516.42	34.380
516.77	33.807
517.11	32.233
517.46	33.457
517.80	34.580
518.14	34.004
518.49	34.599
518.83	33.369
519.17	32.741
519.52	34.224
519.86	33.580
520.20	34.239
520.55	33.352
520.89	33.615
521.23	33.557
521.58	33.785
521.92	33.258
522.26	33.047
522.61	33.738
522.95	33.276
523.29	33.161
523.64	33.072
523.98	33.428
524.32	34.384
524.66	32.897
525.01	32.559
525.35	33.257
525.69	33.179
526.04	32.778
526.38	33.333
526.72	33.564
527.06	33.783
527.41	33.586
527.75	33.492
528.09	34.061
528.43	33.156
528.78	33.699
529.12	33.658
529.46	32.771
529.80	33.467
530.15	33.565
530.49	33.452
530.83	33.648
531.17	33.274
531.51	33.333
531.86	33.293
532.20	33.841
532.54	32.615
532.88	32.667
533.22	33.058
533.57	32.776
533.91	33.221
534.25	33.748
534.59	32.471
534.93	31.975
535.27	33.408
535.62	33.144
535.96	32.714
536.30	33.255
536.64	33.033
536.98	32.964
537.32	32.593
537.66	33.500
538.01	33.474
538.35	32.339
538.69	33.053
539.03	33.906
539.37	33.274
539.71	31.952
540.05	33.333
540.39	32.763
540.73	32.058
541.07	33.538
541.42	33.196
541.76	32.503
542.10	32.388
542.44	32.400
542.78	32.786
543.12	33.075
543.46	32.173
543.80	31.655
544.14	31.837
544.48	32.565
544.82	32.855
545.16	32.677
545.50	32.774
545.84	32.884
546.18	33.827
546.52	32.675
546.86	33.522
547.20	33.588
547.54	32.522
547.88	32.309
548.22	31.520
548.56	32.826
548.90	32.537
549.24	32.827
549.58	32.303
549.92	33.163
550.26	32.686
550.60	32.738
550.94	33.247
551.28	31.815
551.62	32.682
551.96	32.427
552.30	32.441
552.64	32.670
552.98	33.375
553.32	33.505
553.66	33.376
554.00	33.165
554.34	32.432
554.68	33.118
555.02	33.246
555.36	33.925
555.69	32.159
556.03	32.724
556.37	32.290
556.71	33.101
557.05	32.588
557.39	31.918
557.73	33.289
558.07	31.523
558.41	33.422
558.75	32.860
559.08	32.637
559.42	33.539
559.76	32.564
560.10	31.949
560.44	33.509
560.78	32.312
561.12	32.759
561.45	32.847
561.79	32.051
562.13	33.148
562.47	31.874
562.81	32.152
563.15	32.955
563.48	32.256
563.82	33.132
564.16	32.283
564.50	32.718
564.84	31.917
565.17	32.176
565.51	31.818
565.85	31.888
566.19	31.797
566.52	32.475
566.86	31.296
567.20	31.104
567.54	31.864
567.88	31.498
568.21	32.213
568.55	31.559
568.89	32.320
569.23	32.024
569.56	31.653
569.90	31.183
570.24	31.535
570.57	30.981
570.91	30.374
571.25	31.183
571.59	30.504
571.92	30.197
572.26	30.598
572.60	30.603
572.93	30.615
573.27	30.402
573.61	30.889
573.95	30.614
574.28	30.530
574.62	30.673
574.96	30.040
575.29	29.918
575.63	30.215
575.97	29.892
576.30	29.928
576.64	29.921
576.98	30.228
577.31	30.596
577.65	30.087
577.98	30.610
578.32	29.399
578.66	29.627
578.99	29.982
579.33	29.635
579.67	29.850
580.00	30.029
580.34	29.930
580.67	30.119
581.01	30.268
581.35	30.294
581.68	30.311
582.02	29.935
582.35	30.434
582.69	30.174
583.02	30.312
583.36	30.006
583.70	30.016
584.03	29.374
584.37	30.659
584.70	30.562
585.04	29.970
585.37	30.225
585.71	30.399
586.04	30.361
586.38	30.014
586.72	30.283
587.05	30.366
587.39	30.391
587.72	30.598
588.06	30.513
588.39	30.520
588.73	30.529
589.06	30.954
589.40	31.131
589.73	30.688
590.07	30.935
590.40	30.933
590.73	31.106
591.07	31.608
591.40	30.793
591.74	31.439
592.07	31.547
592.41	30.521
592.74	30.493
593.08	30.987
593.41	31.146
593.75	29.799
594.08	30.233
594.41	30.417
594.75	30.322
595.08	30.047
595.42	30.000
595.75	30.449
596.09	30.600
596.42	31.387
596.75	30.915
597.09	32.081
597.42	30.671
597.75	30.851
598.09	31.508
598.42	30.840
598.76	30.722
599.09	30.509
599.42	30.171
599.76	29.614
600.09	30.197
600.42	30.531
600.76	30.812
601.09	30.037
601.42	30.003
601.76	29.966
602.09	30.486
602.42	30.680
602.76	30.664
603.09	30.947
603.42	31.286
603.76	30.374
604.09	31.476
604.42	30.055
604.76	30.403
605.09	30.355
605.42	30.821
605.75	30.423
606.09	30.832
606.42	30.135
606.75	30.097
607.09	29.531
607.42	30.944
607.75	30.676
608.08	30.189
608.42	30.633
608.75	30.721
609.08	31.197
609.41	31.142
609.75	30.804
610.08	31.135
610.41	30.714
610.74	30.630
611.07	29.973
611.41	31.166
611.74	31.085
612.07	30.856
612.40	30.371
612.73	30.709
613.07	31.247
613.40	31.665
613.73	30.669
614.06	31.501
614.39	31.390
614.72	30.228
615.06	31.039
615.39	30.159
615.72	30.995
616.05	30.355
616.38	30.928
616.71	31.609
617.05	29.606
617.38	30.819
617.71	31.749
618.04	31.786
618.37	32.077
618.70	32.240
619.03	31.302
619.36	31.196
619.69	31.262
620.03	31.890
620.36	31.227
620.69	30.845
621.02	31.955
621.35	32.075
621.68	32.755
622.01	32.811
622.34	31.869
622.67	32.921
623.00	30.972
623.33	31.453
623.66	33.268
623.99	32.126
624.32	33.203
624.65	31.274
624.99	31.860
625.32	31.613
625.65	31.558
625.98	30.847
626.31	31.751
626.64	31.868
626.97	31.208
627.30	32.270
627.63	31.358
627.96	32.057
628.29	31.984
628.62	31.570
628.95	31.727
629.28	32.965
629.61	31.397
629.94	31.297
630.26	31.356
630.59	31.952
630.92	30.823
631.25	32.558
631.58	33.804
631.91	31.771
632.24	33.333
632.57	31.025
632.90	34.303
633.23	33.673
633.56	33.061
633.89	32.231
634.22	34.719
634.55	32.359
634.88	33.550
635.20	34.553
635.53	33.672
635.86	31.961
636.19	34.252
636.52	34.177
636.85	32.074
637.18	33.472
637.51	31.613
