SpectraSuite Data File
++++++++++++++++++++++++++++++++++++
Date: Thu May 14 14:27:14 PDT 2015
User: schluterlab
Dark Spectrum Present: Yes
Reference Spectrum Present: Yes
Number of Sampled Component Spectra: 1
Spectrometers: USB2E3373
Integration Time (usec): 3000 (USB2E3373)
Spectra Averaged: 3 (USB2E3373)
Boxcar Smoothing: 0 (USB2E3373)
Correct for Electrical Dark: No (USB2E3373)
Strobe/Lamp Enabled: No (USB2E3373)
Correct for Detector Non-linearity: No (USB2E3373)
Correct for Stray Light: No (USB2E3373)
Number of Pixels in Processed Spectrum: 2048
>>>>>Begin Processed Spectral Data<<<<<
178.53	0.000
178.91	-214.286
179.29	0.000
179.67	100.000
180.04	42.857
180.42	-130.000
180.80	-220.000
181.18	-300.000
181.56	1800.000
181.94	-300.000
182.31	275.000
182.69	-100.000
183.07	400.000
183.45	-25.000
183.83	200.000
184.20	300.000
184.58	-1100.000
184.96	-100.000
185.34	133.333
185.72	240.000
186.09	55.556
186.47	200.000
186.85	-180.000
187.23	11.111
187.61	600.000
187.98	-240.000
188.36	-150.000
188.74	275.000
189.12	466.667
189.49	118.750
189.87	150.000
190.25	144.444
190.63	180.000
191.00	44.444
191.38	0.000
191.76	-25.000
192.14	216.667
192.51	-450.000
192.89	200.000
193.27	0.000
193.65	128.571
194.02	300.000
194.40	114.286
194.78	-71.429
195.15	0.000
195.53	163.636
195.91	0.000
196.29	150.000
196.66	53.846
197.04	400.000
197.42	114.286
197.79	150.000
198.17	137.500
198.55	114.286
198.92	166.667
199.30	137.500
199.68	163.636
200.05	150.000
200.43	400.000
200.81	-85.714
201.18	0.000
201.56	33.333
201.94	0.000
202.31	-100.000
202.69	111.111
203.07	-0.000
203.44	111.111
203.82	25.000
204.19	91.667
204.57	66.667
204.95	175.000
205.32	300.000
205.70	-250.000
206.08	50.000
206.45	266.667
206.83	-180.000
207.20	183.333
207.58	60.000
207.96	50.000
208.33	350.000
208.71	-16.667
209.08	316.667
209.46	0.000
209.84	-166.667
210.21	-850.000
210.59	50.000
210.96	-100.000
211.34	225.000
211.71	50.000
212.09	700.000
212.46	0.000
212.84	150.000
213.22	180.000
213.59	300.000
213.97	130.000
214.34	466.667
214.72	-33.333
215.09	75.000
215.47	0.000
215.84	-57.143
216.22	50.000
216.59	140.000
216.97	200.000
217.34	325.000
217.72	162.500
218.09	100.000
218.47	200.000
218.84	0.000
219.22	-60.000
219.59	117.647
219.97	55.000
220.34	50.000
220.72	11.111
221.09	107.692
221.47	333.333
221.84	80.000
222.22	142.857
222.59	0.000
222.97	200.000
223.34	100.000
223.72	900.000
224.09	400.000
224.46	100.000
224.84	280.000
225.21	14.286
225.59	175.000
225.96	150.000
226.34	46.154
226.71	-133.333
227.08	50.000
227.46	60.000
227.83	125.000
228.21	100.000
228.58	-0.000
228.95	-0.000
229.33	100.000
229.70	150.000
230.08	126.316
230.45	-40.000
230.82	300.000
231.20	71.429
231.57	83.333
231.95	81.818
232.32	163.636
232.69	140.000
233.07	350.000
233.44	76.471
233.81	70.000
234.19	22.222
234.56	68.182
234.93	82.759
235.31	52.632
235.68	55.556
236.05	-15.000
236.43	96.154
236.80	84.000
237.17	40.741
237.55	24.242
237.92	60.000
238.29	35.484
238.67	36.364
239.04	44.444
239.41	26.190
239.79	26.087
240.16	18.519
240.53	39.130
240.91	27.451
241.28	9.836
241.65	38.806
242.02	33.784
242.40	21.538
242.77	29.333
243.14	8.537
243.51	11.842
243.89	19.231
244.26	21.782
244.63	22.549
245.00	24.299
245.38	14.035
245.75	1.770
246.12	15.079
246.49	6.202
246.87	19.286
247.24	13.907
247.61	17.105
247.98	18.121
248.36	9.877
248.73	4.294
249.10	10.929
249.47	16.915
249.84	21.990
250.22	10.363
250.59	16.111
250.96	13.636
251.33	5.102
251.70	11.538
252.08	12.917
252.45	13.934
252.82	13.223
253.19	9.375
253.56	9.506
253.94	8.077
254.31	16.667
254.68	12.937
255.05	14.984
255.42	11.565
255.79	9.709
256.16	9.934
256.54	9.934
256.91	12.131
257.28	10.164
257.65	9.873
258.02	7.375
258.39	9.972
258.76	12.844
259.14	12.356
259.51	11.239
259.88	10.482
260.25	8.333
260.62	9.863
260.99	13.934
261.36	12.601
261.73	9.284
262.10	8.242
262.47	9.920
262.85	12.374
263.22	8.312
263.59	7.632
263.96	11.253
264.33	8.696
264.70	8.148
265.07	13.126
265.44	10.204
265.81	9.028
266.18	10.884
266.55	9.598
266.92	7.745
267.29	12.691
267.66	8.204
268.03	10.699
268.40	10.230
268.77	6.834
269.14	8.150
269.51	9.430
269.88	11.680
270.25	9.457
270.62	9.494
270.99	9.293
271.36	9.307
271.73	11.395
272.10	9.218
272.47	10.220
272.84	8.233
273.21	9.018
273.58	8.669
273.95	9.615
274.32	7.034
274.69	6.770
275.06	9.890
275.43	8.133
275.80	11.817
276.17	8.704
276.54	9.888
276.91	8.766
277.28	9.584
277.65	10.233
278.02	10.662
278.39	7.065
278.76	8.436
279.13	8.333
279.50	9.794
279.87	10.555
280.23	5.810
280.60	10.339
280.97	9.868
281.34	7.810
281.71	10.829
282.08	7.973
282.45	9.329
282.82	8.006
283.19	8.885
283.56	8.525
283.92	9.009
284.29	11.374
284.66	8.374
285.03	7.372
285.40	8.655
285.77	8.514
286.14	10.076
286.51	8.219
286.87	8.057
287.24	7.380
287.61	8.371
287.98	8.459
288.35	8.580
288.72	8.876
289.08	10.249
289.45	8.432
289.82	8.133
290.19	8.908
290.56	9.718
290.93	9.558
291.29	8.127
291.66	7.851
292.03	7.734
292.40	10.068
292.77	7.547
293.13	8.390
293.50	7.753
293.87	8.591
294.24	9.333
294.60	7.838
294.97	8.322
295.34	9.347
295.71	6.810
296.08	8.786
296.44	7.966
296.81	7.674
297.18	7.472
297.55	9.198
297.91	7.829
298.28	6.872
298.65	7.610
299.02	8.146
299.38	7.437
299.75	7.944
300.12	7.639
300.48	7.719
300.85	8.211
301.22	6.600
301.59	8.219
301.95	6.893
302.32	8.889
302.69	7.886
303.05	9.467
303.42	8.537
303.79	7.500
304.15	8.623
304.52	8.774
304.89	8.063
305.25	8.592
305.62	8.359
305.99	8.866
306.35	7.258
306.72	8.583
307.09	7.716
307.45	8.489
307.82	8.476
308.19	7.669
308.55	8.004
308.92	8.374
309.29	8.525
309.65	7.992
310.02	7.327
310.38	8.071
310.75	9.515
311.12	9.971
311.48	10.068
311.85	8.832
312.22	8.918
312.58	9.484
312.95	8.700
313.31	9.575
313.68	11.172
314.05	10.298
314.41	12.204
314.78	10.263
315.14	11.252
315.51	11.265
315.87	10.801
316.24	11.416
316.61	13.410
316.97	11.584
317.34	11.817
317.70	12.576
318.07	13.051
318.43	13.946
318.80	13.462
319.16	13.648
319.53	11.825
319.89	12.883
320.26	14.235
320.62	14.273
320.99	15.051
321.35	14.418
321.72	15.442
322.08	15.059
322.45	14.634
322.81	15.975
323.18	15.752
323.54	15.603
323.91	15.302
324.27	16.695
324.64	19.060
325.00	17.081
325.37	18.837
325.73	18.182
326.10	18.735
326.46	19.137
326.83	20.657
327.19	18.819
327.56	19.684
327.92	20.378
328.29	19.919
328.65	20.184
329.01	21.743
329.38	21.483
329.74	22.432
330.11	23.459
330.47	21.567
330.84	22.825
331.20	23.500
331.56	23.397
331.93	24.435
332.29	23.898
332.66	24.419
333.02	24.037
333.38	24.581
333.75	24.074
334.11	24.687
334.48	23.927
334.84	27.443
335.20	23.426
335.57	25.126
335.93	25.124
336.29	24.792
336.66	25.484
337.02	25.836
337.38	26.361
337.75	26.860
338.11	26.577
338.47	25.310
338.84	25.888
339.20	25.611
339.56	25.124
339.93	25.534
340.29	24.557
340.65	25.385
341.02	26.177
341.38	26.677
341.74	25.504
342.11	25.583
342.47	23.193
342.83	26.651
343.20	24.857
343.56	24.699
343.92	24.900
344.28	25.078
344.65	24.961
345.01	24.805
345.37	25.272
345.73	24.084
346.10	25.585
346.46	25.237
346.82	24.345
347.19	24.675
347.55	24.507
347.91	24.071
348.27	23.748
348.63	24.981
349.00	24.310
349.36	26.097
349.72	24.628
350.08	25.111
350.45	24.563
350.81	24.510
351.17	23.534
351.53	23.578
351.89	25.437
352.26	24.254
352.62	23.433
352.98	23.817
353.34	24.272
353.70	24.576
354.07	24.814
354.43	23.994
354.79	24.383
355.15	24.135
355.51	24.708
355.87	23.411
356.24	24.335
356.60	23.873
356.96	24.463
357.32	23.569
357.68	24.012
358.04	22.455
358.40	24.552
358.77	24.123
359.13	23.338
359.49	23.494
359.85	23.423
360.21	24.319
360.57	24.049
360.93	23.836
361.29	24.421
361.66	24.982
362.02	24.843
362.38	24.245
362.74	23.254
363.10	24.622
363.46	23.615
363.82	24.787
364.18	24.138
364.54	23.721
364.90	24.950
365.26	24.138
365.62	23.867
365.98	24.030
366.35	24.027
366.71	25.850
367.07	24.966
367.43	24.425
367.79	24.950
368.15	23.880
368.51	24.222
368.87	24.494
369.23	24.000
369.59	25.068
369.95	24.476
370.31	24.916
370.67	25.585
371.03	24.584
371.39	24.110
371.75	25.309
372.11	24.729
372.47	24.577
372.83	25.196
373.19	24.149
373.55	24.051
373.91	24.131
374.27	24.386
374.63	25.778
374.99	24.469
375.35	25.584
375.71	25.032
376.07	25.307
376.42	24.685
376.78	25.171
377.14	25.078
377.50	25.553
377.86	25.677
378.22	25.269
378.58	25.624
378.94	25.646
379.30	26.948
379.66	25.867
380.02	25.447
380.38	26.555
380.74	25.972
381.09	26.249
381.45	25.341
381.81	25.937
382.17	26.781
382.53	26.316
382.89	26.524
383.25	26.377
383.61	25.810
383.97	27.444
384.32	27.811
384.68	25.406
385.04	26.894
385.40	27.048
385.76	27.140
386.12	26.152
386.48	26.471
386.83	27.235
387.19	26.709
387.55	26.526
387.91	26.884
388.27	27.194
388.62	26.690
388.98	26.114
389.34	27.873
389.70	26.845
390.06	27.413
390.42	26.687
390.77	26.731
391.13	27.230
391.49	26.812
391.85	27.515
392.20	27.817
392.56	28.057
392.92	27.481
393.28	25.926
393.64	27.207
393.99	27.484
394.35	27.804
394.71	27.725
395.07	27.365
395.42	26.099
395.78	29.250
396.14	26.797
396.50	25.772
396.85	27.490
397.21	27.337
397.57	27.091
397.92	26.690
398.28	26.507
398.64	26.716
399.00	26.492
399.35	26.230
399.71	26.250
400.07	27.120
400.42	26.310
400.78	26.100
401.14	26.807
401.49	25.640
401.85	26.337
402.21	26.709
402.57	27.347
402.92	26.655
403.28	25.995
403.63	25.716
403.99	26.069
404.35	25.412
404.70	26.856
405.06	25.054
405.42	26.054
405.77	26.554
406.13	25.662
406.49	26.239
406.84	26.094
407.20	26.104
407.55	26.166
407.91	25.581
408.27	25.206
408.62	26.120
408.98	25.479
409.34	25.103
409.69	25.711
410.05	27.081
410.40	25.348
410.76	25.631
411.11	25.891
411.47	25.921
411.83	26.396
412.18	26.084
412.54	25.963
412.89	25.669
413.25	26.749
413.60	25.732
413.96	26.107
414.31	25.609
414.67	25.880
415.03	25.169
415.38	25.914
415.74	25.290
416.09	26.095
416.45	25.924
416.80	24.663
417.16	25.734
417.51	26.276
417.87	25.567
418.22	26.287
418.58	25.898
418.93	25.902
419.29	26.264
419.64	26.230
420.00	25.460
420.35	26.951
420.71	26.020
421.06	26.279
421.42	26.606
421.77	26.494
422.12	27.061
422.48	25.755
422.83	26.835
423.19	26.790
423.54	26.770
423.90	26.891
424.25	26.720
424.61	26.521
424.96	26.744
425.31	27.070
425.67	27.214
426.02	27.006
426.38	26.980
426.73	26.842
427.09	28.720
427.44	26.761
427.79	28.082
428.15	27.511
428.50	27.528
428.85	28.416
429.21	29.096
429.56	28.134
429.92	27.568
430.27	28.482
430.62	28.041
430.98	27.693
431.33	28.837
431.68	27.682
432.04	27.933
432.39	29.405
432.74	28.824
433.10	29.043
433.45	28.428
433.80	29.345
434.16	29.545
434.51	29.137
434.86	29.642
435.22	29.330
435.57	30.425
435.92	28.102
436.28	30.262
436.63	29.711
436.98	30.166
437.34	29.989
437.69	30.490
438.04	29.667
438.39	29.753
438.75	29.939
439.10	30.550
439.45	30.129
439.81	30.565
440.16	30.349
440.51	30.435
440.86	30.295
441.22	31.458
441.57	31.342
441.92	31.377
442.27	30.859
442.63	31.446
442.98	31.750
443.33	31.299
443.68	31.021
444.03	32.267
444.39	32.594
444.74	31.853
445.09	32.184
445.44	31.665
445.79	32.040
446.15	32.169
446.50	32.403
446.85	31.712
447.20	32.592
447.55	31.485
447.91	31.885
448.26	32.611
448.61	32.997
448.96	33.208
449.31	32.503
449.66	32.516
450.02	33.175
450.37	32.978
450.72	31.970
451.07	32.802
451.42	33.391
451.77	32.685
452.12	33.578
452.47	33.868
452.83	34.009
453.18	33.567
453.53	32.165
453.88	33.241
454.23	33.785
454.58	34.649
454.93	34.102
455.28	34.678
455.63	33.769
455.98	33.911
456.34	32.862
456.69	34.392
457.04	34.456
457.39	34.313
457.74	34.508
458.09	33.773
458.44	34.375
458.79	33.110
459.14	33.665
459.49	34.465
459.84	34.890
460.19	34.703
460.54	35.945
460.89	34.780
461.24	33.793
461.59	34.754
461.94	34.284
462.29	36.282
462.64	34.943
462.99	35.091
463.34	35.561
463.69	35.229
464.04	33.908
464.39	34.809
464.74	35.918
465.09	35.409
465.44	34.871
465.79	35.801
466.14	34.497
466.49	35.368
466.84	35.647
467.19	35.202
467.54	34.019
467.89	35.805
468.24	34.238
468.59	34.742
468.94	36.131
469.29	35.453
469.64	35.664
469.99	35.309
470.34	37.067
470.68	36.842
471.03	36.018
471.38	36.167
471.73	35.371
472.08	37.627
472.43	35.762
472.78	37.280
473.13	35.967
473.48	37.100
473.83	37.493
474.17	36.518
474.52	36.681
474.87	36.323
475.22	36.169
475.57	36.968
475.92	36.137
476.27	36.528
476.61	35.722
476.96	35.610
477.31	36.139
477.66	37.356
478.01	36.960
478.36	36.491
478.70	36.897
479.05	37.883
479.40	37.216
479.75	36.840
480.10	37.234
480.45	36.281
480.79	37.324
481.14	36.259
481.49	37.165
481.84	36.597
482.19	37.161
482.53	36.642
482.88	37.483
483.23	37.528
483.58	36.419
483.92	36.525
484.27	36.537
484.62	36.881
484.97	36.820
485.31	36.114
485.66	36.376
486.01	34.367
486.36	34.548
486.70	34.923
487.05	35.103
487.40	35.268
487.75	36.438
488.09	36.996
488.44	36.467
488.79	37.437
489.13	37.581
489.48	37.204
489.83	37.746
490.17	37.181
490.52	37.438
490.87	37.225
491.22	38.085
491.56	37.756
491.91	38.290
492.26	37.473
492.60	37.735
492.95	37.824
493.30	38.548
493.64	37.889
493.99	37.763
494.34	37.239
494.68	37.602
495.03	37.753
495.37	39.148
495.72	37.868
496.07	38.081
496.41	38.653
496.76	38.032
497.11	38.556
497.45	37.635
497.80	38.383
498.14	38.458
498.49	38.557
498.84	38.848
499.18	38.596
499.53	38.430
499.87	38.857
500.22	38.112
500.56	38.641
500.91	39.451
501.26	38.955
501.60	37.958
501.95	38.081
502.29	39.096
502.64	39.528
502.98	38.352
503.33	38.618
503.67	38.116
504.02	38.266
504.36	39.231
504.71	38.815
505.06	39.427
505.40	38.574
505.75	38.980
506.09	39.733
506.44	39.694
506.78	38.945
507.13	38.681
507.47	39.223
507.82	39.347
508.16	39.293
508.51	39.334
508.85	39.632
509.19	38.702
509.54	40.010
509.88	39.145
510.23	39.922
510.57	40.164
510.92	40.252
511.26	39.683
511.61	39.112
511.95	40.215
512.30	40.276
512.64	39.280
512.98	39.070
513.33	40.272
513.67	40.388
514.02	39.550
514.36	41.535
514.70	40.729
515.05	40.667
515.39	41.050
515.74	40.933
516.08	40.729
516.42	40.712
516.77	41.220
517.11	39.814
517.46	40.562
517.80	41.529
518.14	41.077
518.49	41.649
518.83	40.394
519.17	40.765
519.52	40.356
519.86	41.130
520.20	40.841
520.55	39.869
520.89	41.667
521.23	40.927
521.58	41.073
521.92	40.737
522.26	41.352
522.61	41.493
522.95	41.522
523.29	40.747
523.64	40.695
523.98	41.586
524.32	42.350
524.66	41.434
525.01	40.147
525.35	40.953
525.69	40.197
526.04	40.643
526.38	41.092
526.72	42.099
527.06	40.938
527.41	41.341
527.75	41.568
528.09	41.558
528.43	40.616
528.78	42.023
529.12	40.768
529.46	40.585
529.80	40.789
530.15	41.333
530.49	40.985
530.83	41.440
531.17	40.860
531.51	40.915
531.86	41.707
532.20	41.646
532.54	40.874
532.88	41.273
533.22	41.072
533.57	39.931
533.91	40.180
534.25	40.701
534.59	40.862
534.93	39.219
535.27	41.014
535.62	40.648
535.96	40.093
536.30	40.893
536.64	41.502
536.98	42.005
537.32	41.420
537.66	41.298
538.01	39.758
538.35	40.682
538.69	41.046
539.03	41.876
539.37	40.283
539.71	41.562
540.05	40.707
540.39	39.609
540.73	40.498
541.07	40.773
541.42	38.984
541.76	38.909
542.10	40.832
542.44	40.073
542.78	39.964
543.12	39.035
543.46	40.904
543.80	39.388
544.14	40.215
544.48	41.312
544.82	41.771
545.16	40.608
545.50	39.964
545.84	40.294
546.18	40.556
546.52	40.892
546.86	41.321
547.20	41.094
547.54	40.137
547.88	39.783
548.22	40.058
548.56	38.912
548.90	39.522
549.24	39.818
549.58	40.442
549.92	41.327
550.26	40.906
550.60	40.523
550.94	40.556
551.28	40.858
551.62	41.644
551.96	40.194
552.30	40.280
552.64	40.697
552.98	40.549
553.32	41.029
553.66	40.772
554.00	40.605
554.34	41.377
554.68	39.445
555.02	40.999
555.36	41.354
555.69	40.999
556.03	40.984
556.37	41.489
556.71	40.520
557.05	40.575
557.39	40.942
557.73	41.413
558.07	40.927
558.41	41.462
558.75	41.853
559.08	42.450
559.42	41.358
559.76	42.334
560.10	40.723
560.44	40.567
560.78	41.500
561.12	41.195
561.45	41.363
561.79	41.026
562.13	41.343
562.47	40.012
562.81	40.696
563.15	41.162
563.48	41.081
563.82	41.173
564.16	40.581
564.50	40.465
564.84	39.115
565.17	41.059
565.51	38.435
565.85	40.558
566.19	39.343
566.52	40.140
566.86	39.955
567.20	39.260
567.54	39.193
567.88	38.889
568.21	39.130
568.55	39.137
568.89	38.538
569.23	37.347
569.56	37.515
569.90	37.883
570.24	36.661
570.57	36.241
570.91	36.130
571.25	36.072
571.59	35.708
571.92	35.821
572.26	36.316
572.60	35.490
572.93	36.293
573.27	35.768
573.61	35.945
573.95	35.324
574.28	35.039
574.62	35.425
574.96	34.495
575.29	35.294
575.63	34.904
575.97	34.898
576.30	35.702
576.64	35.481
576.98	35.262
577.31	35.064
577.65	35.576
577.98	35.109
578.32	34.712
578.66	34.112
578.99	34.753
579.33	34.904
579.67	34.859
580.00	35.379
580.34	35.035
580.67	34.863
581.01	34.920
581.35	34.600
581.68	35.209
582.02	34.202
582.35	34.923
582.69	34.827
583.02	34.554
583.36	35.079
583.70	35.469
584.03	34.821
584.37	35.349
584.70	35.257
585.04	35.341
585.37	35.440
585.71	34.995
586.04	34.500
586.38	34.958
586.72	34.796
587.05	35.508
587.39	35.353
587.72	36.029
588.06	35.904
588.39	35.524
588.73	35.503
589.06	36.146
589.40	35.956
589.73	36.247
590.07	36.771
590.40	36.545
590.73	35.984
591.07	36.709
591.40	36.820
591.74	36.884
592.07	37.556
592.41	36.987
592.74	36.280
593.08	36.401
593.41	35.958
593.75	35.776
594.08	35.474
594.41	36.122
594.75	35.470
595.08	36.676
595.42	36.591
595.75	35.906
596.09	36.937
596.42	36.797
596.75	37.129
597.09	38.101
597.42	35.956
597.75	35.986
598.09	36.548
598.42	36.832
598.76	36.186
599.09	36.312
599.42	35.836
599.76	35.754
600.09	36.403
600.42	35.903
600.76	36.030
601.09	35.679
601.42	35.565
601.76	36.483
602.09	36.419
602.42	35.951
602.76	36.052
603.09	36.784
603.42	35.694
603.76	35.906
604.09	36.622
604.42	36.661
604.76	36.225
605.09	35.820
605.42	36.324
605.75	35.538
606.09	35.909
606.42	35.644
606.75	35.682
607.09	35.100
607.42	36.108
607.75	36.499
608.08	36.267
608.42	36.114
608.75	36.526
609.08	35.654
609.41	36.656
609.75	37.188
610.08	37.071
610.41	36.449
610.74	35.966
611.07	36.545
611.41	36.592
611.74	37.182
612.07	36.793
612.40	37.215
612.73	37.751
613.07	37.653
613.40	37.440
613.73	36.158
614.06	37.193
614.39	36.540
614.72	36.245
615.06	36.429
615.39	36.588
615.72	37.014
616.05	37.008
616.38	36.983
616.71	37.774
617.05	37.167
617.38	35.902
617.71	37.419
618.04	37.453
618.37	37.432
618.70	38.122
619.03	37.933
619.36	38.101
619.69	38.437
620.03	37.602
620.36	36.994
620.69	37.138
621.02	38.386
621.35	39.985
621.68	39.986
622.01	39.359
622.34	37.796
622.67	37.595
623.00	37.652
623.33	38.952
623.66	38.716
623.99	38.776
624.32	39.246
624.65	37.645
624.99	39.012
625.32	37.949
625.65	38.840
625.98	37.695
626.31	39.050
626.64	39.194
626.97	39.610
627.30	38.345
627.63	38.635
627.96	40.465
628.29	39.611
628.62	39.295
628.95	39.351
629.28	38.658
629.61	39.141
629.94	37.238
630.26	39.576
630.59	39.378
630.92	39.740
631.25	39.624
631.58	40.490
631.91	40.300
632.24	40.442
632.57	41.176
632.90	39.920
633.23	40.918
633.56	40.612
633.89	40.496
634.22	42.620
634.55	41.649
634.88	40.801
635.20	43.057
635.53	43.164
635.86	41.278
636.19	42.948
636.52	41.878
636.85	43.105
637.18	39.917
