SpectraSuite Data File
++++++++++++++++++++++++++++++++++++
Date: Fri May 15 21:12:39 PDT 2015
User: schluterlab
Dark Spectrum Present: Yes
Reference Spectrum Present: Yes
Number of Sampled Component Spectra: 1
Spectrometers: USB2E3373
Integration Time (usec): 3000 (USB2E3373)
Spectra Averaged: 3 (USB2E3373)
Boxcar Smoothing: 0 (USB2E3373)
Correct for Electrical Dark: No (USB2E3373)
Strobe/Lamp Enabled: No (USB2E3373)
Correct for Detector Non-linearity: No (USB2E3373)
Correct for Stray Light: No (USB2E3373)
Number of Pixels in Processed Spectrum: 2048
>>>>>Begin Processed Spectral Data<<<<<
178.53	0.000
178.91	0.000
179.29	-50.000
179.67	-800.000
180.04	-0.000
180.42	-150.000
180.80	-400.000
181.18	266.667
181.56	600.000
181.94	100.000
182.31	400.000
182.69	-280.000
183.07	-266.667
183.45	-200.000
183.83	250.000
184.20	-100.000
184.58	133.333
184.96	225.000
185.34	33.333
185.72	-550.000
186.09	53.846
186.47	-800.000
186.85	-0.000
187.23	144.444
187.61	-200.000
187.98	-66.667
188.36	0.000
188.74	-366.667
189.12	-41.176
189.49	22.222
189.87	0.000
190.25	0.000
190.63	0.000
191.00	-233.333
191.38	-15.789
191.76	-400.000
192.14	75.000
192.51	-50.000
192.89	22.222
193.27	14.286
193.65	116.667
194.02	200.000
194.40	80.000
194.78	-162.500
195.15	25.000
195.53	-75.000
195.91	350.000
196.29	-225.000
196.66	146.154
197.04	28.571
197.42	-144.444
197.79	-700.000
198.17	-169.231
198.55	1400.000
198.92	-600.000
199.30	-100.000
199.68	-60.000
200.05	-500.000
200.43	0.000
200.81	0.000
201.18	-166.667
201.56	1100.000
201.94	-550.000
202.31	-0.000
202.69	-260.000
203.07	450.000
203.44	-200.000
203.82	0.000
204.19	-21.429
204.57	-466.667
204.95	137.500
205.32	-40.000
205.70	0.000
206.08	0.000
206.45	155.556
206.83	121.429
207.20	-185.714
207.58	100.000
207.96	-233.333
208.33	-160.000
208.71	-175.000
209.08	-233.333
209.46	-400.000
209.84	-220.000
210.21	-1300.000
210.59	-42.857
210.96	-83.333
211.34	-125.000
211.71	26.667
212.09	-185.714
212.46	-1400.000
212.84	0.000
213.22	-20.000
213.59	400.000
213.97	30.769
214.34	0.000
214.72	-100.000
215.09	400.000
215.47	7.692
215.84	-90.909
216.22	-433.333
216.59	-62.500
216.97	-150.000
217.34	-50.000
217.72	-400.000
218.09	25.000
218.47	162.500
218.84	-700.000
219.22	-122.222
219.59	-220.000
219.97	366.667
220.34	175.000
220.72	-100.000
221.09	-100.000
221.47	-50.000
221.84	-950.000
222.22	-500.000
222.59	-18.182
222.97	-50.000
223.34	-66.667
223.72	-7.143
224.09	9.524
224.46	35.714
224.84	400.000
225.21	-70.000
225.59	-20.000
225.96	250.000
226.34	425.000
226.71	-157.143
227.08	33.333
227.46	25.000
227.83	-300.000
228.21	-55.556
228.58	18.182
228.95	-75.000
229.33	160.000
229.70	-31.250
230.08	0.000
230.45	-114.286
230.82	100.000
231.20	20.000
231.57	92.857
231.95	14.286
232.32	-90.000
232.69	14.286
233.07	0.000
233.44	-100.000
233.81	-110.000
234.19	11.111
234.56	-64.706
234.93	500.000
235.31	-100.000
235.68	-320.000
236.05	-84.615
236.43	-55.000
236.80	41.176
237.17	-3.125
237.55	-40.000
237.92	-33.333
238.29	-11.111
238.67	3.333
239.04	0.000
239.41	-26.829
239.79	-36.667
240.16	-4.878
240.53	-28.947
240.91	-36.957
241.28	-12.698
241.65	-10.714
242.02	-6.849
242.40	-3.333
242.77	-8.475
243.14	-18.182
243.51	-6.250
243.89	11.494
244.26	-10.345
244.63	-8.333
245.00	3.093
245.38	2.062
245.75	-7.865
246.12	-6.897
246.49	-12.397
246.87	-0.962
247.24	-5.882
247.61	-7.895
247.98	-1.626
248.36	-3.750
248.73	2.632
249.10	-3.247
249.47	-8.861
249.84	0.000
250.22	-5.882
250.59	-5.882
250.96	-1.878
251.33	-6.977
251.70	-4.706
252.08	1.015
252.45	-1.485
252.82	-1.005
253.19	5.069
253.56	-2.336
253.94	4.054
254.31	2.609
254.68	2.193
255.05	0.787
255.42	-0.437
255.79	-1.158
256.16	-1.556
256.54	2.985
256.91	-0.380
257.28	-1.487
257.65	-3.745
258.02	-3.901
258.39	0.000
258.76	1.465
259.14	4.651
259.51	4.207
259.88	0.687
260.25	0.654
260.62	2.431
260.99	-2.034
261.36	-1.027
261.73	0.316
262.10	3.343
262.47	1.227
262.85	-1.254
263.22	-0.308
263.59	4.361
263.96	3.106
264.33	-2.121
264.70	-0.298
265.07	0.298
265.44	2.833
265.81	0.282
266.18	-0.273
266.55	3.342
266.92	-0.518
267.29	-3.916
267.66	-1.279
268.03	3.927
268.40	-0.783
268.77	2.674
269.14	0.000
269.51	2.057
269.88	0.748
270.25	0.255
270.62	-1.463
270.99	-0.767
271.36	1.467
271.73	1.643
272.10	-0.487
272.47	2.600
272.84	0.495
273.21	1.624
273.58	-0.482
273.95	1.831
274.32	-2.771
274.69	-0.452
275.06	0.670
275.43	1.587
275.80	0.442
276.17	0.920
276.54	0.857
276.91	0.219
277.28	-0.437
277.65	2.273
278.02	1.064
278.39	-1.751
278.76	-0.210
279.13	-2.490
279.50	1.681
279.87	-0.864
280.23	0.000
280.60	0.975
280.97	1.010
281.34	-0.577
281.71	0.821
282.08	-1.636
282.45	-0.391
282.82	0.193
283.19	1.354
283.56	0.000
283.92	0.569
284.29	0.769
284.66	0.581
285.03	0.589
285.40	1.323
285.77	-0.176
286.14	1.083
286.51	1.845
286.87	-0.731
287.24	-0.921
287.61	1.587
287.98	0.702
288.35	1.560
288.72	1.226
289.08	-2.257
289.45	0.176
289.82	2.273
290.19	-1.706
290.56	0.515
290.93	0.000
291.29	0.616
291.66	1.890
292.03	0.638
292.40	1.774
292.77	0.000
293.13	-0.974
293.50	-1.821
293.87	0.611
294.24	0.155
294.60	0.149
294.97	1.339
295.34	0.920
295.71	1.490
296.08	0.747
296.44	-0.569
296.81	-0.556
297.18	1.014
297.55	2.439
297.91	1.644
298.28	2.243
298.65	-0.814
299.02	0.539
299.38	-1.642
299.75	0.276
300.12	0.393
300.48	-0.527
300.85	0.127
301.22	1.039
301.59	1.579
301.95	1.013
302.32	1.946
302.69	0.498
303.05	1.114
303.42	0.498
303.79	1.519
304.15	2.389
304.52	-0.238
304.89	0.585
305.25	0.847
305.62	1.284
305.99	0.234
306.35	0.578
306.72	0.112
307.09	1.026
307.45	1.033
307.82	0.926
308.19	1.974
308.55	1.745
308.92	2.070
309.29	-0.335
309.65	1.184
310.02	1.870
310.38	1.098
310.75	1.202
311.12	0.215
311.48	1.273
311.85	1.571
312.22	1.055
312.58	1.805
312.95	1.494
313.31	0.414
313.68	2.408
314.05	1.939
314.41	1.959
314.78	1.959
315.14	2.261
315.51	3.520
315.87	3.689
316.24	4.550
316.61	3.642
316.97	3.770
317.34	3.320
317.70	3.537
318.07	3.942
318.43	4.902
318.80	5.777
319.16	4.297
319.53	6.458
319.89	6.890
320.26	6.275
320.62	9.729
320.99	6.785
321.35	9.969
321.72	9.138
322.08	9.970
322.45	11.066
322.81	10.707
323.18	10.500
323.54	12.259
323.91	13.535
324.27	14.648
324.64	15.637
325.00	17.974
325.37	18.549
325.73	17.407
326.10	19.982
326.46	20.717
326.83	20.997
327.19	21.447
327.56	23.979
327.92	25.176
328.29	24.464
328.65	26.415
329.01	26.195
329.38	27.558
329.74	28.517
330.11	28.823
330.47	29.592
330.84	29.712
331.20	31.749
331.56	32.778
331.93	33.059
332.29	32.814
332.66	33.575
333.02	34.758
333.38	32.814
333.75	33.974
334.11	34.646
334.48	36.446
334.84	35.073
335.20	36.962
335.57	35.721
335.93	36.585
336.29	37.845
336.66	36.512
337.02	37.268
337.38	36.481
337.75	38.364
338.11	39.675
338.47	38.139
338.84	39.834
339.20	39.580
339.56	39.541
339.93	40.107
340.29	40.642
340.65	38.889
341.02	39.894
341.38	40.354
341.74	41.254
342.11	39.601
342.47	40.214
342.83	41.436
343.20	40.070
343.56	42.348
343.92	41.275
344.28	41.674
344.65	42.401
345.01	41.314
345.37	42.052
345.73	42.594
346.10	42.709
346.46	42.557
346.82	39.771
347.19	41.646
347.55	43.525
347.91	41.343
348.27	43.573
348.63	42.845
349.00	42.658
349.36	42.145
349.72	43.367
350.08	43.115
350.45	43.416
350.81	43.937
351.17	42.915
351.53	44.490
351.89	43.518
352.26	43.120
352.62	44.194
352.98	42.892
353.34	43.317
353.70	43.932
354.07	43.548
354.43	43.715
354.79	44.178
355.15	45.079
355.51	44.383
355.87	43.932
356.24	42.985
356.60	44.543
356.96	44.841
357.32	46.246
357.68	44.175
358.04	44.911
358.40	45.900
358.77	44.737
359.13	44.275
359.49	43.837
359.85	45.554
360.21	46.172
360.57	44.682
360.93	46.747
361.29	44.789
361.66	46.944
362.02	45.833
362.38	45.621
362.74	45.799
363.10	46.275
363.46	45.589
363.82	47.708
364.18	45.461
364.54	45.515
364.90	45.950
365.26	46.288
365.62	47.153
365.98	48.094
366.35	47.924
366.71	47.524
367.07	48.186
367.43	47.304
367.79	46.360
368.15	46.447
368.51	48.507
368.87	46.662
369.23	45.560
369.59	47.449
369.95	46.994
370.31	46.315
370.67	46.866
371.03	46.154
371.39	46.389
371.75	46.886
372.11	47.789
372.47	49.556
372.83	47.339
373.19	46.291
373.55	46.282
373.91	46.220
374.27	48.335
374.63	47.164
374.99	48.014
375.35	47.563
375.71	48.252
376.07	47.683
376.42	47.959
376.78	49.060
377.14	47.529
377.50	47.942
377.86	48.862
378.22	47.798
378.58	48.205
378.94	47.007
379.30	48.347
379.66	47.398
380.02	48.437
380.38	47.535
380.74	47.995
381.09	46.933
381.45	46.177
381.81	48.057
382.17	46.827
382.53	47.720
382.89	49.090
383.25	47.418
383.61	48.902
383.97	47.556
384.32	47.092
384.68	47.307
385.04	45.650
385.40	47.418
385.76	48.113
386.12	48.254
386.48	48.404
386.83	47.115
387.19	46.703
387.55	48.620
387.91	47.127
388.27	45.971
388.62	47.955
388.98	48.005
389.34	46.471
389.70	47.421
390.06	46.822
390.42	47.668
390.77	47.417
391.13	47.226
391.49	47.801
391.85	47.173
392.20	45.637
392.56	47.298
392.92	47.035
393.28	47.052
393.64	46.306
393.99	47.335
394.35	46.806
394.71	47.765
395.07	47.266
395.42	46.752
395.78	47.818
396.14	46.280
396.50	46.481
396.85	47.585
397.21	46.241
397.57	45.141
397.92	45.896
398.28	47.126
398.64	44.699
399.00	46.614
399.35	45.372
399.71	45.434
400.07	46.372
400.42	45.594
400.78	46.295
401.14	46.521
401.49	45.861
401.85	45.765
402.21	46.205
402.57	45.812
402.92	44.542
403.28	45.614
403.63	45.839
403.99	44.962
404.35	45.409
404.70	44.762
405.06	45.065
405.42	45.681
405.77	43.463
406.13	44.296
406.49	44.701
406.84	45.782
407.20	44.551
407.55	45.654
407.91	44.251
408.27	44.041
408.62	44.554
408.98	43.438
409.34	43.990
409.69	43.798
410.05	44.150
410.40	42.778
410.76	44.813
411.11	44.000
411.47	43.721
411.83	43.628
412.18	43.372
412.54	43.071
412.89	42.919
413.25	43.923
413.60	43.230
413.96	43.006
414.31	43.171
414.67	42.656
415.03	42.011
415.38	41.384
415.74	43.844
416.09	43.762
416.45	44.429
416.80	42.498
417.16	42.818
417.51	43.504
417.87	43.025
418.22	43.782
418.58	43.010
418.93	42.696
419.29	41.037
419.64	42.255
420.00	43.514
420.35	42.567
420.71	41.920
421.06	41.375
421.42	42.788
421.77	42.486
422.12	41.600
422.48	41.310
422.83	42.285
423.19	42.381
423.54	41.211
423.90	40.636
424.25	41.791
424.61	42.105
424.96	43.031
425.31	42.692
425.67	41.843
426.02	41.637
426.38	41.140
426.73	41.646
427.09	42.722
427.44	42.176
427.79	40.955
428.15	40.655
428.50	40.339
428.85	40.541
429.21	40.634
429.56	41.563
429.92	39.753
430.27	41.103
430.62	40.460
430.98	40.127
431.33	40.852
431.68	40.555
432.04	40.414
432.39	39.532
432.74	39.928
433.10	40.862
433.45	41.219
433.80	40.685
434.16	39.557
434.51	39.946
434.86	40.767
435.22	40.213
435.57	39.551
435.92	41.018
436.28	39.595
436.63	40.217
436.98	40.093
437.34	39.504
437.69	40.012
438.04	39.943
438.39	38.546
438.75	40.376
439.10	39.219
439.45	39.866
439.81	38.838
440.16	40.499
440.51	39.463
440.86	39.637
441.22	38.009
441.57	38.852
441.92	39.559
442.27	39.246
442.63	39.133
442.98	38.943
443.33	36.672
443.68	38.515
444.03	40.040
444.39	38.810
444.74	38.852
445.09	38.586
445.44	38.519
445.79	38.731
446.15	38.051
446.50	37.160
446.85	38.682
447.20	37.435
447.55	38.728
447.91	38.353
448.26	38.133
448.61	38.515
448.96	37.866
449.31	37.514
449.66	37.166
450.02	37.707
450.37	37.700
450.72	36.884
451.07	36.772
451.42	37.141
451.77	37.131
452.12	36.364
452.47	36.446
452.83	36.631
453.18	37.887
453.53	36.536
453.88	37.037
454.23	36.632
454.58	37.846
454.93	37.887
455.28	36.000
455.63	37.384
455.98	36.921
456.34	36.782
456.69	35.896
457.04	37.177
457.39	35.966
457.74	34.764
458.09	35.079
458.44	36.454
458.79	35.910
459.14	37.185
459.49	36.299
459.84	35.928
460.19	36.286
460.54	35.330
460.89	35.909
461.24	36.522
461.59	35.629
461.94	34.591
462.29	36.490
462.64	36.545
462.99	35.477
463.34	34.910
463.69	35.393
464.04	35.593
464.39	34.688
464.74	35.767
465.09	36.057
465.44	35.314
465.79	34.694
466.14	34.778
466.49	34.963
466.84	35.158
467.19	35.044
467.54	34.100
467.89	34.302
468.24	34.367
468.59	35.492
468.94	35.238
469.29	35.934
469.64	33.288
469.99	35.249
470.34	34.266
470.68	35.794
471.03	33.687
471.38	35.093
471.73	33.613
472.08	34.464
472.43	33.758
472.78	33.036
473.13	34.422
473.48	33.681
473.83	33.250
474.17	33.744
474.52	34.205
474.87	34.545
475.22	33.984
475.57	32.806
475.92	33.077
476.27	33.877
476.61	34.086
476.96	32.292
477.31	32.937
477.66	33.371
478.01	33.577
478.36	32.625
478.70	33.333
479.05	32.637
479.40	33.015
479.75	31.543
480.10	31.695
480.45	32.400
480.79	32.528
481.14	32.992
481.49	32.660
481.84	32.819
482.19	31.291
482.53	32.806
482.88	32.649
483.23	33.397
483.58	31.745
483.92	31.075
484.27	31.267
484.62	32.407
484.97	31.385
485.31	30.202
485.66	29.742
486.01	29.857
486.36	29.594
486.70	30.198
487.05	30.087
487.40	30.352
487.75	29.915
488.09	29.728
488.44	30.915
488.79	29.959
489.13	30.449
489.48	30.911
489.83	30.493
490.17	30.157
490.52	29.931
490.87	31.143
491.22	30.898
491.56	30.787
491.91	30.449
492.26	31.065
492.60	30.470
492.95	32.022
493.30	30.630
493.64	31.139
493.99	30.725
494.34	29.854
494.68	30.762
495.03	30.365
495.37	30.128
495.72	30.035
496.07	29.659
496.41	30.094
496.76	30.170
497.11	29.157
497.45	29.833
497.80	31.080
498.14	29.707
498.49	29.863
498.84	29.192
499.18	30.422
499.53	29.365
499.87	29.086
500.22	29.773
500.56	30.055
500.91	29.367
501.26	29.115
501.60	29.562
501.95	29.064
502.29	28.765
502.64	29.344
502.98	29.255
503.33	28.482
503.67	28.675
504.02	28.886
504.36	28.996
504.71	29.242
505.06	28.586
505.40	28.629
505.75	28.763
506.09	28.231
506.44	28.696
506.78	29.592
507.13	28.645
507.47	27.781
507.82	27.831
508.16	28.420
508.51	28.699
508.85	29.147
509.19	27.621
509.54	28.150
509.88	28.155
510.23	28.510
510.57	27.151
510.92	27.719
511.26	27.932
511.61	28.933
511.95	28.384
512.30	28.714
512.64	27.824
512.98	27.344
513.33	28.428
513.67	27.914
514.02	28.776
514.36	28.343
514.70	28.380
515.05	28.790
515.39	27.037
515.74	28.802
516.08	28.691
516.42	28.622
516.77	28.730
517.11	28.249
517.46	28.665
517.80	28.963
518.14	27.985
518.49	27.885
518.83	28.007
519.17	27.592
519.52	26.821
519.86	26.591
520.20	27.096
520.55	27.830
520.89	27.102
521.23	28.499
521.58	28.202
521.92	26.795
522.26	27.651
522.61	26.494
522.95	28.212
523.29	27.827
523.64	28.018
523.98	27.933
524.32	26.418
524.66	26.953
525.01	27.078
525.35	27.803
525.69	26.734
526.04	27.050
526.38	27.626
526.72	27.142
527.06	25.486
527.41	27.045
527.75	26.206
528.09	26.246
528.43	28.022
528.78	26.667
529.12	26.581
529.46	25.276
529.80	27.232
530.15	26.733
530.49	27.003
530.83	27.291
531.17	26.058
531.51	27.633
531.86	25.425
532.20	26.166
532.54	26.685
532.88	27.379
533.22	26.546
533.57	25.426
533.91	25.718
534.25	25.846
534.59	24.567
534.93	24.795
535.27	24.873
535.62	24.822
535.96	26.484
536.30	25.726
536.64	25.224
536.98	25.087
537.32	26.031
537.66	27.770
538.01	26.294
538.35	26.352
538.69	26.232
539.03	25.564
539.37	24.966
539.71	26.040
540.05	25.322
540.39	26.039
540.73	25.035
541.07	25.345
541.42	24.933
541.76	25.946
542.10	25.809
542.44	25.087
542.78	23.744
543.12	24.794
543.46	24.618
543.80	25.260
544.14	24.099
544.48	25.650
544.82	24.402
545.16	25.751
545.50	25.501
545.84	25.071
546.18	24.965
546.52	24.441
546.86	24.802
547.20	25.107
547.54	23.251
547.88	24.728
548.22	23.406
548.56	23.681
548.90	24.528
549.24	24.311
549.58	24.118
549.92	23.374
550.26	23.810
550.60	23.866
550.94	24.795
551.28	24.730
551.62	25.231
551.96	24.812
552.30	22.734
552.64	23.272
552.98	23.488
553.32	23.823
553.66	23.730
554.00	24.015
554.34	23.043
554.68	22.861
555.02	23.958
555.36	24.084
555.69	23.370
556.03	22.627
556.37	23.701
556.71	22.888
557.05	23.788
557.39	22.156
557.73	23.988
558.07	23.303
558.41	24.273
558.75	22.525
559.08	23.010
559.42	23.571
559.76	23.219
560.10	23.089
560.44	22.189
560.78	23.706
561.12	23.484
561.45	23.331
561.79	23.249
562.13	22.072
562.47	21.942
562.81	21.542
563.15	22.426
563.48	22.984
563.82	23.267
564.16	22.563
564.50	21.351
564.84	23.494
565.17	22.401
565.51	23.156
565.85	22.565
566.19	22.878
566.52	22.788
566.86	23.008
567.20	22.603
567.54	21.594
567.88	21.910
568.21	21.833
568.55	21.848
568.89	21.407
569.23	21.233
569.56	20.884
569.90	22.209
570.24	20.767
570.57	20.000
570.91	20.146
571.25	19.796
571.59	19.745
571.92	19.319
572.26	19.807
572.60	20.124
572.93	20.521
573.27	19.404
573.61	20.197
573.95	20.317
574.28	19.306
574.62	19.273
574.96	19.496
575.29	19.031
575.63	18.839
575.97	18.894
576.30	18.696
576.64	19.046
576.98	19.588
577.31	19.612
577.65	19.037
577.98	18.914
578.32	18.832
578.66	18.698
578.99	18.390
579.33	18.911
579.67	18.547
580.00	18.633
580.34	18.930
580.67	18.274
581.01	18.852
581.35	18.497
581.68	18.540
582.02	18.315
582.35	18.292
582.69	18.153
583.02	18.586
583.36	18.311
583.70	18.302
584.03	18.682
584.37	19.509
584.70	18.516
585.04	17.876
585.37	18.256
585.71	18.168
586.04	18.104
586.38	17.978
586.72	18.049
587.05	18.804
587.39	19.010
587.72	18.699
588.06	18.350
588.39	18.741
588.73	18.559
589.06	18.950
589.40	19.046
589.73	19.423
590.07	18.580
590.40	19.002
590.73	19.028
591.07	18.787
591.40	18.878
591.74	19.231
592.07	18.970
592.41	19.125
592.74	18.479
593.08	17.848
593.41	18.287
593.75	17.468
594.08	18.194
594.41	18.268
594.75	18.359
595.08	18.086
595.42	17.519
595.75	18.062
596.09	18.413
596.42	18.437
596.75	18.295
597.09	18.405
597.42	18.067
597.75	18.507
598.09	17.836
598.42	18.051
598.76	18.061
599.09	18.470
599.42	17.582
599.76	18.360
600.09	17.798
600.42	17.551
600.76	17.199
601.09	17.023
601.42	17.822
601.76	17.745
602.09	17.739
602.42	18.534
602.76	17.487
603.09	18.314
603.42	18.478
603.76	17.742
604.09	18.064
604.42	17.090
604.76	18.291
605.09	17.733
605.42	17.652
605.75	17.688
606.09	17.070
606.42	17.431
606.75	17.489
607.09	18.505
607.42	16.571
607.75	17.007
608.08	17.206
608.42	17.131
608.75	17.205
609.08	16.891
609.41	17.970
609.75	17.692
610.08	18.323
610.41	17.150
610.74	16.772
611.07	17.571
611.41	18.111
611.74	18.124
612.07	17.345
612.40	17.888
612.73	17.571
613.07	17.942
613.40	18.490
613.73	17.348
614.06	17.418
614.39	17.992
614.72	16.695
615.06	16.927
615.39	17.686
615.72	16.900
616.05	16.760
616.38	16.353
616.71	17.064
617.05	18.283
617.38	17.348
617.71	17.862
618.04	17.524
618.37	18.348
618.70	18.152
619.03	18.889
619.36	17.294
619.69	17.058
620.03	18.846
620.36	17.454
620.69	18.201
621.02	18.349
621.35	18.174
621.68	18.537
622.01	17.833
622.34	19.393
622.67	17.981
623.00	18.300
623.33	18.369
623.66	18.100
623.99	17.474
624.32	17.414
624.65	16.617
624.99	18.736
625.32	17.286
625.65	17.753
625.98	18.292
626.31	17.539
626.64	18.458
626.97	18.237
627.30	16.813
627.63	18.891
627.96	18.059
628.29	17.484
628.62	17.896
628.95	17.836
629.28	17.742
629.61	17.747
629.94	18.768
630.26	17.885
630.59	18.522
630.92	19.590
631.25	17.026
631.58	18.722
631.91	17.654
632.24	17.546
632.57	20.000
632.90	17.675
633.23	18.471
633.56	17.632
633.89	18.249
634.22	19.136
634.55	18.551
634.88	18.008
635.20	19.103
635.53	18.400
635.86	17.815
636.19	18.370
