SpectraSuite Data File
++++++++++++++++++++++++++++++++++++
Date: Fri May 15 20:39:26 PDT 2015
User: schluterlab
Dark Spectrum Present: Yes
Reference Spectrum Present: Yes
Number of Sampled Component Spectra: 1
Spectrometers: USB2E3373
Integration Time (usec): 3000 (USB2E3373)
Spectra Averaged: 3 (USB2E3373)
Boxcar Smoothing: 0 (USB2E3373)
Correct for Electrical Dark: No (USB2E3373)
Strobe/Lamp Enabled: No (USB2E3373)
Correct for Detector Non-linearity: No (USB2E3373)
Correct for Stray Light: No (USB2E3373)
Number of Pixels in Processed Spectrum: 2048
>>>>>Begin Processed Spectral Data<<<<<
178.53	0.000
178.91	0.000
179.29	75.000
179.67	-50.000
180.04	-28.571
180.42	75.000
180.80	-600.000
181.18	233.333
181.56	350.000
181.94	-100.000
182.31	1000.000
182.69	20.000
183.07	-166.667
183.45	-40.000
183.83	50.000
184.20	45.455
184.58	88.889
184.96	-75.000
185.34	-233.333
185.72	-700.000
186.09	61.538
186.47	-200.000
186.85	100.000
187.23	155.556
187.61	-600.000
187.98	-200.000
188.36	-55.556
188.74	-66.667
189.12	-11.765
189.49	83.333
189.87	0.000
190.25	71.429
190.63	300.000
191.00	-300.000
191.38	57.895
191.76	500.000
192.14	175.000
192.51	0.000
192.89	22.222
193.27	-114.286
193.65	-50.000
194.02	209.091
194.40	40.000
194.78	-125.000
195.15	-66.667
195.53	-62.500
195.91	225.000
196.29	-125.000
196.66	84.615
197.04	271.429
197.42	-33.333
197.79	-300.000
198.17	-107.692
198.55	1100.000
198.92	-133.333
199.30	200.000
199.68	40.000
200.05	-433.333
200.43	0.000
200.81	-300.000
201.18	100.000
201.56	-0.000
201.94	-250.000
202.31	-233.333
202.69	-160.000
203.07	-25.000
203.44	-200.000
203.82	0.000
204.19	-21.429
204.57	-566.667
204.95	100.000
205.32	10.000
205.70	71.429
206.08	125.000
206.45	166.667
206.83	50.000
207.20	-214.286
207.58	-600.000
207.96	-200.000
208.33	-120.000
208.71	-225.000
209.08	-50.000
209.46	-600.000
209.84	60.000
210.21	-600.000
210.59	-28.571
210.96	0.000
211.34	-175.000
211.71	33.333
212.09	-171.429
212.46	-700.000
212.84	0.000
213.22	10.000
213.59	300.000
213.97	61.538
214.34	18.182
214.72	33.333
215.09	150.000
215.47	-38.462
215.84	27.273
216.22	100.000
216.59	25.000
216.97	400.000
217.34	-175.000
217.72	-100.000
218.09	-12.500
218.47	100.000
218.84	-100.000
219.22	100.000
219.59	-220.000
219.97	233.333
220.34	-25.000
220.72	14.286
221.09	-300.000
221.47	-300.000
221.84	-550.000
222.22	-100.000
222.59	-9.091
222.97	8.333
223.34	-66.667
223.72	-28.571
224.09	-14.286
224.46	17.857
224.84	533.333
225.21	-60.000
225.59	26.667
225.96	-300.000
226.34	200.000
226.71	-157.143
227.08	50.000
227.46	-100.000
227.83	-100.000
228.21	0.000
228.58	-36.364
228.95	75.000
229.33	100.000
229.70	12.500
230.08	-50.000
230.45	-14.286
230.82	128.571
231.20	-46.667
231.57	171.429
231.95	28.571
232.32	-10.000
232.69	0.000
233.07	-233.333
233.44	-40.000
233.81	20.000
234.19	133.333
234.56	-11.765
234.93	150.000
235.31	225.000
235.68	-200.000
236.05	-107.692
236.43	0.000
236.80	0.000
237.17	21.875
237.55	-5.000
237.92	33.333
238.29	11.111
238.67	33.333
239.04	29.412
239.41	-2.439
239.79	26.667
240.16	9.756
240.53	10.526
240.91	26.087
241.28	39.683
241.65	39.286
242.02	24.658
242.40	13.333
242.77	33.898
243.14	19.697
243.51	31.250
243.89	34.483
244.26	21.839
244.63	32.143
245.00	19.588
245.38	37.113
245.75	13.483
246.12	20.690
246.49	28.926
246.87	40.385
247.24	24.370
247.61	26.316
247.98	34.959
248.36	24.375
248.73	28.289
249.10	31.818
249.47	32.911
249.84	41.176
250.22	30.588
250.59	30.719
250.96	34.742
251.33	31.977
251.70	34.706
252.08	28.426
252.45	31.188
252.82	32.161
253.19	31.336
253.56	27.570
253.94	31.982
254.31	32.609
254.68	33.333
255.05	33.071
255.42	34.934
255.79	30.502
256.16	32.296
256.54	30.224
256.91	30.418
257.28	27.881
257.65	29.588
258.02	27.660
258.39	33.670
258.76	33.333
259.14	33.223
259.51	30.097
259.88	30.584
260.25	30.719
260.62	33.681
260.99	29.153
261.36	26.712
261.73	32.911
262.10	30.395
262.47	33.129
262.85	30.408
263.22	32.615
263.59	30.841
263.96	36.335
264.33	33.333
264.70	30.357
265.07	27.083
265.44	33.144
265.81	34.463
266.18	29.508
266.55	32.391
266.92	33.679
267.29	30.287
267.66	31.202
268.03	32.984
268.40	30.809
268.77	33.422
269.14	29.496
269.51	30.591
269.88	31.920
270.25	32.143
270.62	30.244
270.99	31.458
271.36	30.807
271.73	30.516
272.10	27.494
272.47	32.624
272.84	27.970
273.21	31.090
273.58	31.566
273.95	32.037
274.32	30.023
274.69	27.376
275.06	31.027
275.43	29.705
275.80	30.464
276.17	30.345
276.54	27.409
276.91	32.675
277.28	28.603
277.65	31.405
278.02	30.213
278.39	32.166
278.76	29.140
279.13	28.423
279.50	31.092
279.87	30.886
280.23	27.742
280.60	28.655
280.97	28.485
281.34	26.731
281.71	29.569
282.08	27.198
282.45	28.376
282.82	27.413
283.19	27.466
283.56	26.782
283.92	28.463
284.29	27.500
284.66	26.744
285.03	26.916
285.40	28.355
285.77	28.295
286.14	28.520
286.51	28.598
286.87	26.874
287.24	28.177
287.61	27.160
287.98	28.421
288.35	24.263
288.72	28.897
289.08	25.694
289.45	27.065
289.82	26.399
290.19	25.427
290.56	25.043
290.93	25.926
291.29	22.342
291.66	25.039
292.03	22.807
292.40	24.839
292.77	24.721
293.13	21.753
293.50	21.548
293.87	23.969
294.24	25.657
294.60	23.845
294.97	23.214
295.34	22.699
295.71	21.759
296.08	23.767
296.44	20.199
296.81	21.111
297.18	23.478
297.55	23.442
297.91	22.329
298.28	23.087
298.65	20.353
299.02	23.450
299.38	21.067
299.75	21.793
300.12	20.681
300.48	20.949
300.85	21.546
301.22	21.169
301.59	19.474
301.95	20.127
302.32	21.530
302.69	19.527
303.05	20.297
303.42	20.174
303.79	21.846
304.15	20.789
304.52	20.095
304.89	19.766
305.25	18.281
305.62	19.253
305.99	19.766
306.35	20.116
306.72	19.460
307.09	19.612
307.45	21.584
307.82	20.602
308.19	21.370
308.55	19.738
308.92	20.370
309.29	19.777
309.65	20.129
310.02	20.242
310.38	20.307
310.75	20.000
311.12	19.806
311.48	18.982
311.85	18.639
312.22	17.932
312.58	19.533
312.95	18.570
313.31	20.186
313.68	20.314
314.05	18.980
314.41	20.619
314.78	19.691
315.14	21.069
315.51	21.118
315.87	19.775
316.24	21.132
316.61	20.965
316.97	21.925
317.34	19.434
317.70	21.224
318.07	20.385
318.43	20.000
318.80	22.159
319.16	21.875
319.53	22.792
319.89	22.539
320.26	22.368
320.62	22.166
320.99	21.608
321.35	22.508
321.72	23.884
322.08	24.068
322.45	24.061
322.81	24.754
323.18	23.356
323.54	24.614
323.91	24.148
324.27	25.000
324.64	25.000
325.00	25.456
325.37	26.263
325.73	25.113
326.10	25.704
326.46	26.188
326.83	27.122
327.19	26.068
327.56	26.846
327.92	29.137
328.29	27.232
328.65	27.925
329.01	27.482
329.38	28.940
329.74	28.234
330.11	27.896
330.47	27.737
330.84	28.750
331.20	30.608
331.56	30.000
331.93	28.858
332.29	27.864
332.66	29.955
333.02	28.903
333.38	28.323
333.75	30.037
334.11	29.006
334.48	29.918
334.84	29.212
335.20	30.833
335.57	29.102
335.93	28.907
336.29	30.203
336.66	28.429
337.02	28.160
337.38	27.963
337.75	30.455
338.11	31.019
338.47	29.471
338.84	31.238
339.20	30.165
339.56	29.633
339.93	29.722
340.29	31.376
340.65	30.376
341.02	29.344
341.38	30.265
341.74	28.622
342.11	28.163
342.47	30.872
342.83	30.796
343.20	29.268
343.56	29.478
343.92	30.381
344.28	30.060
344.65	29.706
345.01	28.781
345.37	28.932
345.73	29.205
346.10	29.767
346.46	30.614
346.82	31.588
347.19	30.673
347.55	30.326
347.91	29.854
348.27	29.345
348.63	30.835
349.00	30.189
349.36	28.678
349.72	31.426
350.08	30.164
350.45	29.050
350.81	29.236
351.17	29.316
351.53	30.204
351.89	29.893
352.26	29.760
352.62	29.274
352.98	29.398
353.34	30.032
353.70	29.854
354.07	29.677
354.43	29.944
354.79	29.480
355.15	30.952
355.51	30.301
355.87	29.693
356.24	29.527
356.60	29.830
356.96	29.762
357.32	29.712
357.68	29.711
358.04	29.645
358.40	29.180
358.77	30.144
359.13	29.944
359.49	30.123
359.85	30.343
360.21	30.144
360.57	28.921
360.93	29.274
361.29	28.021
361.66	30.094
362.02	31.061
362.38	29.855
362.74	29.977
363.10	30.775
363.46	30.467
363.82	30.278
364.18	30.406
364.54	29.338
364.90	30.753
365.26	30.495
365.62	32.117
365.98	30.572
366.35	30.736
366.71	32.003
367.07	29.971
367.43	29.978
367.79	30.318
368.15	30.079
368.51	30.736
368.87	30.869
369.23	30.397
369.59	30.831
369.95	31.965
370.31	31.142
370.67	29.851
371.03	29.798
371.39	31.656
371.75	31.209
372.11	29.529
372.47	30.917
372.83	31.512
373.19	30.742
373.55	31.047
373.91	32.613
374.27	31.680
374.63	31.371
374.99	31.418
375.35	32.591
375.71	33.077
376.07	32.303
376.42	32.789
376.78	31.745
377.14	33.582
377.50	32.337
377.86	32.932
378.22	32.546
378.58	33.077
378.94	32.514
379.30	33.001
379.66	33.417
380.02	32.250
380.38	33.293
380.74	33.154
381.09	34.356
381.45	33.272
381.81	33.374
382.17	34.645
382.53	33.666
382.89	32.706
383.25	34.350
383.61	34.878
383.97	34.095
384.32	34.772
384.68	34.985
385.04	33.333
385.40	33.354
385.76	35.597
386.12	35.640
386.48	35.568
386.83	35.193
387.19	34.737
387.55	34.630
387.91	35.269
388.27	35.104
388.62	36.941
388.98	35.605
389.34	35.228
389.70	36.172
390.06	34.928
390.42	35.427
390.77	35.906
391.13	35.435
391.49	36.546
391.85	36.192
392.20	36.158
392.56	36.618
392.92	36.876
393.28	35.790
393.64	35.736
393.99	38.245
394.35	36.875
394.71	37.356
395.07	37.272
395.42	36.308
395.78	37.264
396.14	38.272
396.50	37.603
396.85	37.733
397.21	36.842
397.57	37.429
397.92	37.208
398.28	37.931
398.64	37.048
399.00	37.810
399.35	37.133
399.71	38.024
400.07	38.271
400.42	37.576
400.78	38.763
401.14	37.568
401.49	39.250
401.85	39.305
402.21	38.072
402.57	38.875
402.92	37.578
403.28	39.348
403.63	38.840
403.99	38.776
404.35	38.663
404.70	37.679
405.06	38.249
405.42	38.098
405.77	38.524
406.13	38.824
406.49	38.662
406.84	39.364
407.20	39.976
407.55	38.313
407.91	38.703
408.27	38.241
408.62	38.831
408.98	38.324
409.34	39.219
409.69	38.695
410.05	37.746
410.40	40.370
410.76	40.651
411.11	40.125
411.47	39.448
411.83	39.171
412.18	40.862
412.54	39.451
412.89	39.655
413.25	39.892
413.60	40.062
413.96	39.202
414.31	40.122
414.67	39.705
415.03	40.146
415.38	38.446
415.74	40.521
416.09	42.129
416.45	40.716
416.80	40.053
417.16	41.298
417.51	40.506
417.87	40.874
418.22	40.803
418.58	40.870
418.93	42.257
419.29	39.885
419.64	41.348
420.00	42.003
420.35	41.373
420.71	43.135
421.06	40.577
421.42	41.947
421.77	42.428
422.12	41.657
422.48	42.555
422.83	42.343
423.19	42.099
423.54	42.504
423.90	42.933
424.25	42.939
424.61	42.289
424.96	42.509
425.31	44.830
425.67	44.366
426.02	44.464
426.38	44.145
426.73	44.310
427.09	44.241
427.44	44.353
427.79	45.080
428.15	44.539
428.50	44.942
428.85	44.410
429.21	44.822
429.56	44.798
429.92	45.249
430.27	43.860
430.62	44.799
430.98	45.435
431.33	46.477
431.68	45.160
432.04	46.283
432.39	44.952
432.74	46.302
433.10	45.862
433.45	45.042
433.80	46.547
434.16	46.150
434.51	46.613
434.86	46.632
435.22	46.719
435.57	47.848
435.92	47.485
436.28	46.810
436.63	48.374
436.98	46.234
437.34	47.489
437.69	47.704
438.04	48.433
438.39	46.793
438.75	48.452
439.10	48.613
439.45	49.787
439.81	48.502
440.16	49.584
440.51	48.836
440.86	49.849
441.22	49.887
441.57	49.669
441.92	49.528
442.27	50.721
442.63	50.428
442.98	50.890
443.33	49.137
443.68	50.716
444.03	51.863
444.39	48.893
444.74	52.620
445.09	51.336
445.44	51.225
445.79	51.831
446.15	51.872
446.50	52.135
446.85	51.966
447.20	51.773
447.55	50.949
447.91	52.566
448.26	53.443
448.61	51.929
448.96	52.840
449.31	52.370
449.66	52.381
450.02	52.938
450.37	53.053
450.72	51.833
451.07	53.038
451.42	52.247
451.77	52.381
452.12	52.093
452.47	52.930
452.83	53.180
453.18	52.815
453.53	54.425
453.88	53.491
454.23	53.903
454.58	53.967
454.93	54.317
455.28	51.937
455.63	54.929
455.98	53.157
456.34	54.725
456.69	54.828
457.04	55.009
457.39	54.253
457.74	54.716
458.09	52.972
458.44	53.599
458.79	53.613
459.14	54.005
459.49	54.507
459.84	54.710
460.19	55.158
460.54	53.912
460.89	54.602
461.24	55.280
461.59	53.622
461.94	54.277
462.29	57.057
462.64	57.674
462.99	54.909
463.34	53.964
463.69	55.341
464.04	56.114
464.39	54.275
464.74	54.663
465.09	56.269
465.44	54.991
465.79	53.685
466.14	54.960
466.49	54.342
466.84	55.860
467.19	54.631
467.54	55.939
467.89	54.327
468.24	56.265
468.59	57.333
468.94	56.000
469.29	56.000
469.64	55.981
469.99	58.584
470.34	56.314
470.68	58.091
471.03	58.174
471.38	58.060
471.73	57.913
472.08	56.988
472.43	58.658
472.78	56.888
473.13	58.503
473.48	56.547
473.83	56.351
474.17	58.420
474.52	56.286
474.87	56.727
475.22	58.450
475.57	56.748
475.92	57.652
476.27	58.207
476.61	59.780
476.96	56.330
477.31	58.140
477.66	57.584
478.01	58.226
478.36	57.952
478.70	59.326
479.05	58.297
479.40	58.718
479.75	57.664
480.10	57.348
480.45	57.650
480.79	58.560
481.14	60.246
481.49	57.882
481.84	58.156
482.19	57.951
482.53	58.849
482.88	58.186
483.23	58.061
483.58	58.208
483.92	57.018
484.27	57.201
484.62	57.015
484.97	56.758
485.31	55.455
485.66	54.057
486.01	53.958
486.36	53.681
486.70	55.009
487.05	56.288
487.40	56.799
487.75	56.225
488.09	57.169
488.44	58.081
488.79	58.199
489.13	59.255
489.48	58.615
489.83	57.892
490.17	57.978
490.52	58.199
490.87	57.936
491.22	59.169
491.56	58.634
491.91	56.883
492.26	59.942
492.60	58.301
492.95	59.862
493.30	58.232
493.64	58.988
493.99	58.019
494.34	59.078
494.68	59.286
495.03	59.319
495.37	60.108
495.72	59.616
496.07	60.537
496.41	58.443
496.76	59.097
497.11	58.919
497.45	59.475
497.80	61.403
498.14	59.066
498.49	59.878
498.84	60.429
499.18	60.341
499.53	60.119
499.87	59.193
500.22	59.842
500.56	61.069
500.91	60.442
501.26	60.208
501.60	60.453
501.95	60.359
502.29	60.969
502.64	61.390
502.98	60.681
503.33	60.327
503.67	60.048
504.02	60.850
504.36	60.663
504.71	61.414
505.06	59.839
505.40	62.183
505.75	62.629
506.09	61.075
506.44	63.090
506.78	62.908
507.13	62.565
507.47	61.462
507.82	61.699
508.16	63.127
508.51	63.326
508.85	62.847
509.19	63.544
509.54	63.056
509.88	62.675
510.23	64.820
510.57	63.549
510.92	63.166
511.26	63.830
511.61	64.906
511.95	64.493
512.30	64.579
512.64	63.884
512.98	64.739
513.33	65.921
513.67	64.980
514.02	66.533
514.36	66.229
514.70	67.366
515.05	69.036
515.39	66.057
515.74	69.401
516.08	67.065
516.42	68.551
516.77	67.934
517.11	68.843
517.46	69.420
517.80	67.878
518.14	69.443
518.49	68.630
518.83	69.623
519.17	67.435
519.52	67.673
519.86	67.767
520.20	69.137
520.55	69.669
520.89	69.072
521.23	69.284
521.58	70.410
521.92	70.641
522.26	71.373
522.61	70.714
522.95	72.914
523.29	70.902
523.64	70.775
523.98	71.549
524.32	71.456
524.66	71.191
525.01	71.364
525.35	71.679
525.69	71.313
526.04	71.362
526.38	72.309
526.72	70.373
527.06	69.974
527.41	72.625
527.75	71.381
528.09	71.429
528.43	72.113
528.78	72.475
529.12	72.710
529.46	71.800
529.80	71.501
530.15	73.201
530.49	74.613
530.83	73.324
531.17	71.525
531.51	73.735
531.86	72.264
532.20	71.468
532.54	72.022
532.88	72.553
533.22	71.976
533.57	72.018
533.91	71.475
534.25	71.810
534.59	72.482
534.93	69.037
535.27	70.685
535.62	71.549
535.96	71.363
536.30	72.296
536.64	74.638
536.98	71.429
537.32	73.613
537.66	73.843
538.01	73.147
538.35	72.261
538.69	70.839
539.03	71.429
539.37	71.534
539.71	71.984
540.05	70.876
540.39	71.191
540.73	71.688
541.07	71.616
541.42	71.707
541.76	71.989
542.10	74.123
542.44	72.133
542.78	70.131
543.12	70.742
543.46	71.558
543.80	72.172
544.14	69.760
544.48	71.219
544.82	70.745
545.16	72.404
545.50	69.359
545.84	73.584
546.18	72.270
546.52	71.810
546.86	71.819
547.20	72.461
547.54	70.954
547.88	71.128
548.22	68.771
548.56	69.789
548.90	71.226
549.24	69.835
549.58	69.676
549.92	71.194
550.26	72.088
550.60	72.639
550.94	70.874
551.28	73.107
551.62	72.385
551.96	71.579
552.30	72.807
552.64	70.733
552.98	71.660
553.32	71.541
553.66	70.029
554.00	71.752
554.34	71.418
554.68	71.018
555.02	71.801
555.36	71.728
555.69	70.769
556.03	69.450
556.37	71.744
556.71	71.625
557.05	72.707
557.39	71.004
557.73	71.514
558.07	73.906
558.41	72.358
558.75	73.889
559.08	72.025
559.42	72.381
559.76	73.018
560.10	71.560
560.44	71.333
560.78	70.210
561.12	70.592
561.45	72.382
561.79	71.779
562.13	69.908
562.47	70.719
562.81	71.254
563.15	70.310
563.48	70.085
563.82	70.556
564.16	70.752
564.50	69.257
564.84	68.206
565.17	69.953
565.51	71.858
565.85	71.262
566.19	70.424
566.52	70.710
566.86	72.172
567.20	67.559
567.54	69.465
567.88	69.713
568.21	68.495
568.55	69.293
568.89	68.070
569.23	67.886
569.56	66.112
569.90	66.017
570.24	64.012
570.57	64.691
570.91	64.866
571.25	63.828
571.59	62.815
571.92	62.133
572.26	62.681
572.60	63.876
572.93	64.010
573.27	62.006
573.61	62.112
573.95	62.234
574.28	62.315
574.62	61.276
574.96	60.683
575.29	61.257
575.63	59.368
575.97	61.426
576.30	61.006
576.64	60.636
576.98	62.420
577.31	62.472
577.65	61.445
577.98	60.270
578.32	59.625
578.66	60.133
578.99	60.459
579.33	60.255
579.67	60.409
580.00	60.937
580.34	60.821
580.67	60.831
581.01	60.711
581.35	59.841
581.68	59.201
582.02	59.057
582.35	60.074
582.69	59.992
583.02	60.521
583.36	61.154
583.70	61.968
584.03	63.331
584.37	63.128
584.70	62.143
585.04	60.207
585.37	60.983
585.71	60.701
586.04	60.287
586.38	61.270
586.72	60.746
587.05	62.392
587.39	61.532
587.72	61.946
588.06	61.583
588.39	61.464
588.73	62.302
589.06	62.785
589.40	61.562
589.73	63.636
590.07	64.464
590.40	64.087
590.73	64.127
591.07	63.698
591.40	64.470
591.74	64.299
592.07	64.378
592.41	63.869
592.74	62.246
593.08	60.880
593.41	60.692
593.75	60.975
594.08	61.483
594.41	61.936
594.75	62.519
595.08	62.240
595.42	61.649
595.75	62.373
596.09	62.119
596.42	62.629
596.75	63.277
597.09	63.235
597.42	63.144
597.75	63.811
598.09	62.381
598.42	62.500
598.76	61.562
599.09	60.697
599.42	60.667
599.76	60.346
600.09	61.011
600.42	60.690
600.76	59.770
601.09	60.191
601.42	60.360
601.76	61.016
602.09	60.685
602.42	62.932
602.76	61.078
603.09	61.503
603.42	62.040
603.76	60.726
604.09	60.996
604.42	61.379
604.76	61.682
605.09	61.472
605.42	61.535
605.75	61.953
606.09	61.104
606.42	60.425
606.75	60.779
607.09	60.352
607.42	60.523
607.75	60.302
608.08	60.288
608.42	59.068
608.75	62.024
609.08	61.834
609.41	61.218
609.75	61.442
610.08	62.157
610.41	59.710
610.74	60.507
611.07	62.584
611.41	62.429
611.74	61.567
612.07	60.653
612.40	62.691
612.73	63.164
613.07	61.136
613.40	60.886
613.73	62.003
614.06	62.771
614.39	63.001
614.72	60.840
615.06	61.117
615.39	60.098
615.72	60.118
616.05	61.173
616.38	59.829
616.71	61.835
617.05	61.952
617.38	62.162
617.71	62.642
618.04	62.921
618.37	63.115
618.70	63.036
619.03	64.375
619.36	63.893
619.69	63.836
620.03	64.792
620.36	63.591
620.69	63.455
621.02	63.991
621.35	65.394
621.68	65.816
622.01	65.167
622.34	64.645
622.67	63.801
623.00	63.093
623.33	63.643
623.66	61.705
623.99	61.120
624.32	63.270
624.65	62.256
624.99	62.754
625.32	62.244
625.65	64.965
625.98	64.706
626.31	63.425
626.64	64.385
626.97	65.183
627.30	64.273
627.63	62.738
627.96	64.870
628.29	65.310
628.62	65.782
628.95	65.832
629.28	66.835
629.61	64.706
629.94	66.080
630.26	64.427
630.59	66.389
630.92	65.949
631.25	63.590
631.58	67.511
631.91	64.803
632.24	66.170
632.57	68.636
632.90	68.327
633.23	68.824
