SpectraSuite Data File
++++++++++++++++++++++++++++++++++++
Date: Fri May 15 20:44:13 PDT 2015
User: schluterlab
Dark Spectrum Present: Yes
Reference Spectrum Present: Yes
Number of Sampled Component Spectra: 1
Spectrometers: USB2E3373
Integration Time (usec): 3000 (USB2E3373)
Spectra Averaged: 3 (USB2E3373)
Boxcar Smoothing: 0 (USB2E3373)
Correct for Electrical Dark: No (USB2E3373)
Strobe/Lamp Enabled: No (USB2E3373)
Correct for Detector Non-linearity: No (USB2E3373)
Correct for Stray Light: No (USB2E3373)
Number of Pixels in Processed Spectrum: 2048
>>>>>Begin Processed Spectral Data<<<<<
178.53	0.000
178.91	0.000
179.29	-62.500
179.67	-500.000
180.04	-0.000
180.42	50.000
180.80	-100.000
181.18	-33.333
181.56	250.000
181.94	-300.000
182.31	900.000
182.69	-60.000
183.07	33.333
183.45	-160.000
183.83	166.667
184.20	-9.091
184.58	122.222
184.96	150.000
185.34	400.000
185.72	-300.000
186.09	76.923
186.47	-1000.000
186.85	66.667
187.23	111.111
187.61	-300.000
187.98	-66.667
188.36	11.111
188.74	100.000
189.12	29.412
189.49	33.333
189.87	0.000
190.25	135.714
190.63	100.000
191.00	-33.333
191.38	-36.842
191.76	-150.000
192.14	50.000
192.51	100.000
192.89	-11.111
193.27	-85.714
193.65	83.333
194.02	172.727
194.40	0.000
194.78	-125.000
195.15	-41.667
195.53	-112.500
195.91	150.000
196.29	-200.000
196.66	61.538
197.04	114.286
197.42	-55.556
197.79	-533.333
198.17	-92.308
198.55	800.000
198.92	-233.333
199.30	200.000
199.68	-40.000
200.05	-100.000
200.43	0.000
200.81	-33.333
201.18	-66.667
201.56	400.000
201.94	-600.000
202.31	200.000
202.69	-280.000
203.07	225.000
203.44	0.000
203.82	0.000
204.19	42.857
204.57	-366.667
204.95	175.000
205.32	40.000
205.70	14.286
206.08	-125.000
206.45	44.444
206.83	71.429
207.20	0.000
207.58	1100.000
207.96	-433.333
208.33	-80.000
208.71	0.000
209.08	-33.333
209.46	-400.000
209.84	-100.000
210.21	-600.000
210.59	57.143
210.96	-150.000
211.34	125.000
211.71	-33.333
212.09	-157.143
212.46	-1800.000
212.84	0.000
213.22	0.000
213.59	500.000
213.97	46.154
214.34	9.091
214.72	-100.000
215.09	350.000
215.47	15.385
215.84	45.455
216.22	-400.000
216.59	0.000
216.97	-50.000
217.34	75.000
217.72	-120.000
218.09	0.000
218.47	87.500
218.84	-300.000
219.22	-44.444
219.59	20.000
219.97	366.667
220.34	225.000
220.72	14.286
221.09	-50.000
221.47	-200.000
221.84	-450.000
222.22	-1000.000
222.59	45.455
222.97	33.333
223.34	-166.667
223.72	-28.571
224.09	38.095
224.46	-7.143
224.84	400.000
225.21	20.000
225.59	26.667
225.96	-400.000
226.34	350.000
226.71	-114.286
227.08	-83.333
227.46	-12.500
227.83	-800.000
228.21	-44.444
228.58	-45.455
228.95	-50.000
229.33	130.000
229.70	-12.500
230.08	-125.000
230.45	-28.571
230.82	71.429
231.20	-80.000
231.57	21.429
231.95	28.571
232.32	-70.000
232.69	14.286
233.07	-233.333
233.44	180.000
233.81	-60.000
234.19	-33.333
234.56	11.765
234.93	250.000
235.31	-150.000
235.68	-460.000
236.05	-53.846
236.43	-45.000
236.80	5.882
237.17	-25.000
237.55	-25.000
237.92	-3.704
238.29	0.000
238.67	26.667
239.04	-23.529
239.41	-31.707
239.79	-6.667
240.16	31.707
240.53	5.263
240.91	-21.739
241.28	11.111
241.65	10.714
242.02	16.438
242.40	8.333
242.77	1.695
243.14	0.000
243.51	15.000
243.89	29.885
244.26	3.448
244.63	16.667
245.00	5.155
245.38	22.680
245.75	-11.236
246.12	6.897
246.49	17.355
246.87	10.577
247.24	4.202
247.61	19.298
247.98	11.382
248.36	17.500
248.73	18.421
249.10	11.039
249.47	13.291
249.84	12.418
250.22	13.529
250.59	22.222
250.96	15.493
251.33	13.372
251.70	15.882
252.08	16.244
252.45	15.842
252.82	15.075
253.19	17.512
253.56	7.944
253.94	14.414
254.31	20.000
254.68	20.614
255.05	17.717
255.42	23.581
255.79	15.444
256.16	18.288
256.54	17.910
256.91	15.589
257.28	14.126
257.65	16.479
258.02	17.021
258.39	16.498
258.76	18.681
259.14	17.608
259.51	17.476
259.88	17.869
260.25	17.320
260.62	16.319
260.99	12.881
261.36	16.096
261.73	17.089
262.10	17.021
262.47	15.031
262.85	15.674
263.22	18.769
263.59	21.807
263.96	21.118
264.33	18.182
264.70	16.071
265.07	16.667
265.44	19.830
265.81	13.842
266.18	18.852
266.55	18.509
266.92	21.244
267.29	16.710
267.66	19.437
268.03	18.063
268.40	14.360
268.77	20.856
269.14	17.746
269.51	18.509
269.88	17.456
270.25	13.010
270.62	15.122
270.99	15.601
271.36	13.692
271.73	19.484
272.10	20.195
272.47	17.021
272.84	15.842
273.21	20.650
273.58	19.277
273.95	19.451
274.32	17.090
274.69	14.932
275.06	18.080
275.43	18.594
275.80	17.219
276.17	15.862
276.54	17.131
276.91	19.079
277.28	14.629
277.65	18.388
278.02	17.660
278.39	18.162
278.76	14.465
279.13	14.108
279.50	17.437
279.87	20.086
280.23	16.774
280.60	18.324
280.97	15.960
281.34	16.154
281.71	19.302
282.08	14.519
282.45	15.460
282.82	15.058
283.19	15.861
283.56	16.570
283.92	14.421
284.29	14.808
284.66	15.310
285.03	16.110
285.40	16.635
285.77	15.993
286.14	17.870
286.51	15.498
286.87	15.722
287.24	15.101
287.61	14.462
287.98	18.947
288.35	15.078
288.72	15.587
289.08	15.972
289.45	16.520
289.82	15.210
290.19	14.164
290.56	14.237
290.93	15.488
291.29	14.022
291.66	13.701
292.03	12.919
292.40	15.806
292.77	14.035
293.13	10.065
293.50	12.747
293.87	13.588
294.24	14.529
294.60	12.221
294.97	14.286
295.34	12.270
295.71	13.562
296.08	12.855
296.44	11.522
296.81	11.806
297.18	13.478
297.55	14.634
297.91	11.781
298.28	13.325
298.65	12.347
299.02	13.342
299.38	10.260
299.75	13.379
300.12	13.351
300.48	11.594
300.85	13.435
301.22	11.688
301.59	11.974
301.95	11.013
302.32	12.711
302.69	13.930
303.05	11.139
303.42	11.208
303.79	12.500
304.15	11.947
304.52	10.702
304.89	10.877
305.25	12.349
305.62	10.502
305.99	12.281
306.35	11.329
306.72	11.924
307.09	10.604
307.45	12.744
307.82	11.458
308.19	10.918
308.55	11.341
308.92	11.983
309.29	11.061
309.65	11.733
310.02	10.781
310.38	12.623
310.75	12.787
311.12	11.841
311.48	10.923
311.85	12.356
312.22	11.814
312.58	11.040
312.95	10.139
313.31	11.698
313.68	10.681
314.05	11.327
314.41	12.990
314.78	11.134
315.14	11.511
315.51	12.008
315.87	11.885
316.24	14.257
316.61	14.370
316.97	13.294
317.34	12.598
317.70	13.576
318.07	12.788
318.43	14.118
318.80	13.352
319.16	15.137
319.53	14.720
319.89	13.287
320.26	15.182
320.62	16.851
320.99	15.136
321.35	15.725
321.72	17.342
322.08	16.314
322.45	16.954
322.81	17.583
323.18	18.057
323.54	17.085
323.91	17.916
324.27	19.531
324.64	19.195
325.00	19.982
325.37	22.130
325.73	20.490
326.10	20.799
326.46	22.422
326.83	23.272
327.19	22.929
327.56	24.240
327.92	25.264
328.29	24.911
328.65	25.755
329.01	24.908
329.38	25.899
329.74	26.157
330.11	25.672
330.47	25.046
330.84	25.962
331.20	28.612
331.56	27.315
331.93	28.676
332.29	28.048
332.66	27.330
333.02	27.509
333.38	27.314
333.75	29.945
334.11	27.216
334.48	29.465
334.84	28.938
335.20	29.369
335.57	28.740
335.93	29.178
336.29	29.558
336.66	29.519
337.02	28.439
337.38	29.722
337.75	29.364
338.11	30.117
338.47	29.562
338.84	31.701
339.20	29.890
339.56	30.642
339.93	31.513
340.29	30.275
340.65	31.989
341.02	30.940
341.38	29.912
341.74	30.830
342.11	30.763
342.47	31.495
342.83	32.266
343.20	32.404
343.56	31.478
343.92	31.267
344.28	30.999
344.65	31.520
345.01	30.510
345.37	31.034
345.73	31.297
346.10	30.630
346.46	31.960
346.82	31.178
347.19	30.590
347.55	32.665
347.91	33.252
348.27	30.477
348.63	33.475
349.00	31.911
349.36	32.003
349.72	33.914
350.08	33.852
350.45	32.482
350.81	31.894
351.17	33.062
351.53	33.143
351.89	32.205
352.26	32.480
352.62	31.935
352.98	33.414
353.34	33.736
353.70	34.304
354.07	32.661
354.43	32.426
354.79	32.700
355.15	32.698
355.51	33.623
355.87	33.900
356.24	33.197
356.60	32.741
356.96	33.651
357.32	33.946
357.68	33.151
358.04	33.926
358.40	33.762
358.77	34.450
359.13	34.828
359.49	33.282
359.85	32.995
360.21	34.530
360.57	33.665
360.93	33.812
361.29	33.761
361.66	34.875
362.02	34.773
362.38	35.948
362.74	35.352
363.10	35.892
363.46	34.989
363.82	35.913
364.18	36.236
364.54	34.338
364.90	35.627
365.26	34.134
365.62	37.007
365.98	35.777
366.35	36.271
366.71	35.920
367.07	36.720
367.43	35.370
367.79	35.053
368.15	36.037
368.51	36.125
368.87	36.037
369.23	34.585
369.59	35.496
369.95	36.877
370.31	36.922
370.67	37.537
371.03	37.341
371.39	35.959
371.75	36.484
372.11	35.735
372.47	37.722
372.83	36.267
373.19	36.519
373.55	36.751
373.91	36.573
374.27	37.704
374.63	37.473
374.99	36.454
375.35	37.047
375.71	38.252
376.07	37.360
376.42	38.435
376.78	38.792
377.14	37.847
377.50	38.911
377.86	38.286
378.22	38.673
378.58	38.526
378.94	37.429
379.30	37.867
379.66	39.436
380.02	38.320
380.38	37.614
380.74	38.779
381.09	39.877
381.45	39.083
381.81	38.988
382.17	38.642
382.53	38.788
382.89	38.920
383.25	40.199
383.61	39.512
383.97	39.111
384.32	38.837
384.68	39.443
385.04	38.787
385.40	39.950
385.76	39.748
386.12	40.686
386.48	40.741
386.83	39.822
387.19	40.598
387.55	40.339
387.91	40.465
388.27	39.255
388.62	40.466
388.98	40.147
389.34	40.412
389.70	41.019
390.06	40.088
390.42	40.350
390.77	40.942
391.13	39.786
391.49	39.909
391.85	40.871
392.20	41.871
392.56	40.114
392.92	40.517
393.28	40.625
393.64	39.880
393.99	41.630
394.35	41.050
394.71	41.826
395.07	40.163
395.42	40.194
395.78	41.368
396.14	40.921
396.50	41.091
396.85	40.438
397.21	40.100
397.57	40.564
397.92	40.024
398.28	40.977
398.64	40.301
399.00	40.124
399.35	40.068
399.71	39.403
400.07	40.810
400.42	39.718
400.78	40.723
401.14	40.593
401.49	40.083
401.85	39.854
402.21	39.759
402.57	40.375
402.92	39.398
403.28	40.977
403.63	40.542
403.99	40.370
404.35	40.600
404.70	39.048
405.06	39.013
405.42	40.025
405.77	38.815
406.13	40.163
406.49	39.372
406.84	39.303
407.20	39.434
407.55	38.699
407.91	38.168
408.27	39.261
408.62	40.308
408.98	38.571
409.34	40.397
409.69	37.661
410.05	37.315
410.40	38.395
410.76	39.324
411.11	39.938
411.47	38.330
411.83	37.728
412.18	38.932
412.54	38.514
412.89	37.993
413.25	39.110
413.60	38.199
413.96	37.975
414.31	38.049
414.67	38.871
415.03	38.083
415.38	37.206
415.74	37.915
416.09	39.451
416.45	38.960
416.80	38.797
417.16	39.365
417.51	38.175
417.87	38.462
418.22	38.860
418.58	38.595
418.93	37.680
419.29	37.004
419.64	38.496
420.00	38.854
420.35	38.448
420.71	38.032
421.06	38.060
421.42	36.899
421.77	38.150
422.12	36.663
422.48	37.466
422.83	37.123
423.19	37.190
423.54	36.978
423.90	36.985
424.25	38.404
424.61	36.536
424.96	37.050
425.31	38.475
425.67	38.087
426.02	37.927
426.38	39.011
426.73	37.833
427.09	38.861
427.44	36.647
427.79	38.008
428.15	37.925
428.50	36.947
428.85	36.671
429.21	37.012
429.56	37.628
429.92	36.826
430.27	36.792
430.62	35.964
430.98	36.783
431.33	37.224
431.68	36.368
432.04	37.563
432.39	35.482
432.74	35.899
433.10	37.529
433.45	36.798
433.80	37.319
434.16	35.568
434.51	37.634
434.86	37.166
435.22	36.175
435.57	37.742
435.92	36.647
436.28	36.076
436.63	36.965
436.98	36.095
437.34	35.874
437.69	36.911
438.04	35.328
438.39	34.881
438.75	36.491
439.10	36.276
439.45	37.249
439.81	34.924
440.16	37.530
440.51	37.313
440.86	37.221
441.22	36.538
441.57	35.596
441.92	36.569
442.27	36.918
442.63	36.831
442.98	35.956
443.33	35.504
443.68	35.544
444.03	36.811
444.39	35.858
444.74	35.842
445.09	36.915
445.44	35.556
445.79	36.720
446.15	35.187
446.50	35.829
446.85	36.185
447.20	35.036
447.55	36.663
447.91	36.435
448.26	36.426
448.61	36.212
448.96	36.030
449.31	35.376
449.66	36.063
450.02	35.710
450.37	36.396
450.72	35.223
451.07	35.253
451.42	35.830
451.77	36.287
452.12	34.988
452.47	34.321
452.83	33.863
453.18	35.421
453.53	34.956
453.88	35.337
454.23	34.604
454.58	35.327
454.93	35.374
455.28	34.032
455.63	35.896
455.98	35.478
456.34	35.441
456.69	35.260
457.04	35.035
457.39	34.812
457.74	34.885
458.09	33.667
458.44	34.640
458.79	32.829
459.14	34.611
459.49	34.687
459.84	34.687
460.19	34.345
460.54	34.780
460.89	34.318
461.24	34.037
461.59	33.967
461.94	33.459
462.29	33.655
462.64	35.216
462.99	33.175
463.34	33.797
463.69	33.076
464.04	33.959
464.39	33.596
464.74	33.252
465.09	34.124
465.44	33.699
465.79	32.426
466.14	33.181
466.49	32.777
466.84	33.195
467.19	34.418
467.54	33.589
467.89	33.923
468.24	32.908
468.59	34.095
468.94	32.254
469.29	33.246
469.64	32.809
469.99	34.478
470.34	31.877
470.68	33.184
471.03	32.767
471.38	32.953
471.73	33.403
472.08	32.836
472.43	32.483
472.78	31.940
473.13	32.857
473.48	32.248
473.83	32.877
474.17	32.578
474.52	32.738
474.87	32.303
475.22	32.154
475.57	30.943
475.92	33.352
476.27	31.723
476.61	31.829
476.96	31.177
477.31	31.152
477.66	32.191
478.01	32.004
478.36	30.828
478.70	32.137
479.05	31.703
479.40	31.214
479.75	30.501
480.10	30.824
480.45	31.700
480.79	31.772
481.14	31.455
481.49	31.724
481.84	30.840
482.19	30.730
482.53	31.223
482.88	30.788
483.23	30.998
483.58	30.849
483.92	29.961
484.27	30.173
484.62	30.569
484.97	29.892
485.31	29.046
485.66	28.855
486.01	28.639
486.36	28.710
486.70	29.405
487.05	29.864
487.40	29.162
487.75	29.070
488.09	29.883
488.44	29.574
488.79	29.809
489.13	29.728
489.48	29.072
489.83	30.090
490.17	28.719
490.52	29.515
490.87	29.708
491.22	30.229
491.56	29.886
491.91	28.824
492.26	29.412
492.60	30.038
492.95	30.103
493.30	29.849
493.64	29.273
493.99	28.309
494.34	28.738
494.68	28.429
495.03	28.710
495.37	28.656
495.72	27.562
496.07	29.268
496.41	29.057
496.76	28.558
497.11	28.179
497.45	28.449
497.80	28.961
498.14	27.819
498.49	28.796
498.84	28.543
499.18	28.815
499.53	28.571
499.87	27.724
500.22	28.042
500.56	27.181
500.91	27.309
501.26	27.138
501.60	28.234
501.95	27.899
502.29	27.942
502.64	27.461
502.98	28.219
503.33	26.849
503.67	26.940
504.02	27.224
504.36	28.352
504.71	27.626
505.06	26.824
505.40	26.853
505.75	27.062
506.09	27.015
506.44	28.131
506.78	28.061
507.13	26.732
507.47	26.580
507.82	26.656
508.16	27.945
508.51	27.072
508.85	26.792
509.19	26.450
509.54	27.614
509.88	27.131
510.23	27.327
510.57	26.670
510.92	25.959
511.26	26.405
511.61	27.283
511.95	26.740
512.30	27.328
512.64	26.822
512.98	27.400
513.33	27.140
513.67	25.981
514.02	28.032
514.36	26.971
514.70	26.981
515.05	27.380
515.39	27.509
515.74	27.186
516.08	26.300
516.42	26.973
516.77	27.033
517.11	26.766
517.46	27.528
517.80	27.414
518.14	25.658
518.49	25.962
518.83	26.367
519.17	25.773
519.52	25.281
519.86	25.090
520.20	26.488
520.55	26.454
520.89	25.784
521.23	26.662
521.58	26.372
521.92	26.154
522.26	26.155
522.61	26.429
522.95	28.013
523.29	26.366
523.64	25.858
523.98	26.442
524.32	25.644
524.66	26.761
525.01	26.753
525.35	26.312
525.69	25.455
526.04	24.735
526.38	26.070
526.72	26.095
527.06	25.811
527.41	25.923
527.75	25.938
528.09	25.648
528.43	27.144
528.78	27.063
529.12	25.806
529.46	25.406
529.80	25.649
530.15	26.403
530.49	25.387
530.83	25.376
531.17	24.849
531.51	24.966
531.86	25.425
532.20	25.191
532.54	25.596
532.88	25.667
533.22	25.202
533.57	24.640
533.91	24.151
534.25	24.479
534.59	24.888
534.93	24.355
535.27	23.858
535.62	23.461
535.96	24.527
536.30	25.396
536.64	24.948
536.98	24.460
537.32	25.249
537.66	25.456
538.01	24.685
538.35	24.411
538.69	24.035
539.03	23.855
539.37	24.764
539.71	24.540
540.05	24.100
540.39	25.139
540.73	24.547
541.07	24.931
541.42	24.933
541.76	25.052
542.10	23.950
542.44	24.253
542.78	22.505
543.12	23.626
543.46	22.949
543.80	23.664
544.14	23.965
544.48	23.051
544.82	23.377
545.16	23.770
545.50	23.498
545.84	24.575
546.18	23.475
546.52	23.864
546.86	23.652
547.20	23.391
547.54	22.261
547.88	23.030
548.22	22.945
548.56	23.351
548.90	22.776
549.24	23.140
549.58	22.708
549.92	22.159
550.26	23.150
550.60	23.569
550.94	23.898
551.28	24.034
551.62	23.462
551.96	22.932
552.30	21.564
552.64	22.496
552.98	22.644
553.32	23.110
553.66	22.206
554.00	22.336
554.34	22.083
554.68	21.755
555.02	22.917
555.36	22.663
555.69	21.319
556.03	21.913
556.37	21.779
556.71	22.094
557.05	22.521
557.39	22.156
557.73	22.864
558.07	23.303
558.41	21.516
558.75	22.292
559.08	23.010
559.42	22.063
559.76	21.457
560.10	21.407
560.44	21.668
560.78	22.517
561.12	21.932
561.45	22.628
561.79	23.109
562.13	22.285
562.47	22.662
562.81	21.902
563.15	21.862
563.48	21.499
563.82	21.688
564.16	21.588
564.50	20.743
564.84	22.356
565.17	21.932
565.51	22.199
565.85	21.536
566.19	21.021
566.52	22.788
566.86	22.365
567.20	21.420
567.54	21.411
567.88	21.500
568.21	21.889
568.55	20.326
568.89	21.047
569.23	21.281
569.56	19.921
569.90	21.031
570.24	20.618
570.57	20.182
570.91	21.297
571.25	20.487
571.59	20.025
571.92	20.000
572.26	19.988
572.60	20.155
572.93	19.862
573.27	20.282
573.61	19.779
573.95	20.289
574.28	20.260
574.62	19.629
574.96	19.546
575.29	19.662
575.63	18.995
575.97	19.599
576.30	19.961
576.64	18.861
576.98	20.000
577.31	19.784
577.65	19.472
577.98	19.717
578.32	19.458
578.66	19.020
578.99	19.326
579.33	19.311
579.67	19.329
580.00	19.165
580.34	18.980
580.67	19.288
581.01	19.476
581.35	19.229
581.68	18.776
582.02	18.737
582.35	19.369
582.69	19.575
583.02	19.248
583.36	19.517
583.70	19.860
584.03	19.878
584.37	20.130
584.70	19.066
585.04	19.041
585.37	19.017
585.71	19.304
586.04	18.759
586.38	19.018
586.72	19.713
587.05	19.728
587.39	19.458
587.72	19.710
588.06	19.236
588.39	19.339
588.73	19.567
589.06	19.569
589.40	19.806
589.73	20.044
590.07	20.015
590.40	19.698
590.73	19.728
591.07	19.338
591.40	19.635
591.74	19.638
592.07	19.805
592.41	19.655
592.74	19.514
593.08	18.337
593.41	18.880
593.75	18.711
594.08	19.293
594.41	19.360
594.75	19.427
595.08	19.221
595.42	18.771
595.75	19.377
596.09	19.234
596.42	19.554
596.75	19.494
597.09	19.954
597.42	19.286
597.75	19.148
598.09	19.466
598.42	19.224
598.76	18.704
599.09	18.830
599.42	18.947
599.76	18.623
600.09	18.891
600.42	18.992
600.76	19.056
601.09	18.244
601.42	18.331
601.76	19.174
602.09	18.399
602.42	19.798
602.76	19.058
603.09	19.061
603.42	19.147
603.76	18.347
604.09	18.591
604.42	19.374
604.76	19.315
605.09	19.561
605.42	19.142
605.75	18.608
606.09	18.811
606.42	18.265
606.75	19.004
607.09	19.165
607.42	18.963
607.75	18.606
608.08	18.509
608.42	18.456
608.75	18.458
609.08	19.033
609.41	19.036
609.75	18.952
610.08	19.421
610.41	18.502
610.74	18.235
611.07	19.173
611.41	19.045
611.74	19.083
612.07	18.630
612.40	19.639
612.73	19.774
613.07	17.942
613.40	19.037
613.73	18.523
614.06	19.143
614.39	19.289
614.72	18.263
615.06	18.380
615.39	18.341
615.72	18.891
616.05	18.659
616.38	18.405
616.71	19.388
617.05	19.704
617.38	18.228
617.71	18.491
618.04	19.492
618.37	19.672
618.70	19.406
619.03	20.139
619.36	18.596
619.69	20.697
620.03	19.065
620.36	18.884
620.69	18.701
621.02	19.495
621.35	19.502
621.68	19.643
622.01	18.500
622.34	20.271
622.67	18.454
623.00	19.296
623.33	19.741
623.66	18.773
623.99	18.003
624.32	18.631
624.65	18.571
624.99	18.811
625.32	18.878
625.65	19.874
625.98	20.226
626.31	18.869
626.64	20.104
626.97	19.634
627.30	18.739
627.63	20.191
627.96	18.958
628.29	19.796
628.62	19.469
628.95	19.840
629.28	19.153
629.61	19.242
629.94	20.235
630.26	18.972
630.59	20.291
630.92	19.282
631.25	19.077
631.58	19.934
631.91	17.873
632.24	18.349
632.57	19.545
632.90	20.285
633.23	18.235
633.56	19.521
