SpectraSuite Data File
++++++++++++++++++++++++++++++++++++
Date: Fri May 15 20:27:27 PDT 2015
User: schluterlab
Dark Spectrum Present: Yes
Reference Spectrum Present: Yes
Number of Sampled Component Spectra: 1
Spectrometers: USB2E3373
Integration Time (usec): 3000 (USB2E3373)
Spectra Averaged: 3 (USB2E3373)
Boxcar Smoothing: 0 (USB2E3373)
Correct for Electrical Dark: No (USB2E3373)
Strobe/Lamp Enabled: No (USB2E3373)
Correct for Detector Non-linearity: No (USB2E3373)
Correct for Stray Light: No (USB2E3373)
Number of Pixels in Processed Spectrum: 2048
>>>>>Begin Processed Spectral Data<<<<<
178.53	0.000
178.91	0.000
179.29	25.000
179.67	-100.000
180.04	-100.000
180.42	75.000
180.80	300.000
181.18	533.333
181.56	750.000
181.94	50.000
182.31	-200.000
182.69	-40.000
183.07	-133.333
183.45	-160.000
183.83	200.000
184.20	36.364
184.58	200.000
184.96	125.000
185.34	-33.333
185.72	-650.000
186.09	53.846
186.47	-1100.000
186.85	200.000
187.23	100.000
187.61	400.000
187.98	-433.333
188.36	-33.333
188.74	-33.333
189.12	47.059
189.49	50.000
189.87	0.000
190.25	35.714
190.63	100.000
191.00	-166.667
191.38	21.053
191.76	750.000
192.14	-200.000
192.51	250.000
192.89	-66.667
193.27	-57.143
193.65	100.000
194.02	172.727
194.40	-40.000
194.78	-87.500
195.15	-25.000
195.53	-25.000
195.91	150.000
196.29	-125.000
196.66	107.692
197.04	28.571
197.42	-55.556
197.79	-533.333
198.17	-100.000
198.55	900.000
198.92	-300.000
199.30	-300.000
199.68	0.000
200.05	-166.667
200.43	0.000
200.81	-100.000
201.18	33.333
201.56	1400.000
201.94	-350.000
202.31	300.000
202.69	-180.000
203.07	175.000
203.44	-600.000
203.82	0.000
204.19	42.857
204.57	-500.000
204.95	12.500
205.32	-10.000
205.70	100.000
206.08	-175.000
206.45	177.778
206.83	64.286
207.20	-57.143
207.58	-600.000
207.96	-466.667
208.33	-70.000
208.71	25.000
209.08	-283.333
209.46	-700.000
209.84	-60.000
210.21	-600.000
210.59	0.000
210.96	66.667
211.34	0.000
211.71	60.000
212.09	-57.143
212.46	-1500.000
212.84	0.000
213.22	20.000
213.59	700.000
213.97	76.923
214.34	72.727
214.72	-83.333
215.09	250.000
215.47	38.462
215.84	-63.636
216.22	33.333
216.59	12.500
216.97	150.000
217.34	-75.000
217.72	-100.000
218.09	50.000
218.47	100.000
218.84	200.000
219.22	-33.333
219.59	-40.000
219.97	333.333
220.34	175.000
220.72	71.429
221.09	-200.000
221.47	450.000
221.84	-400.000
222.22	-450.000
222.59	36.364
222.97	50.000
223.34	-166.667
223.72	-64.286
224.09	33.333
224.46	46.429
224.84	400.000
225.21	10.000
225.59	40.000
225.96	600.000
226.34	300.000
226.71	-85.714
227.08	-50.000
227.46	-75.000
227.83	-350.000
228.21	-55.556
228.58	54.545
228.95	50.000
229.33	140.000
229.70	18.750
230.08	0.000
230.45	-157.143
230.82	14.286
231.20	46.667
231.57	35.714
231.95	42.857
232.32	-50.000
232.69	7.143
233.07	-133.333
233.44	-60.000
233.81	50.000
234.19	66.667
234.56	11.765
234.93	-100.000
235.31	0.000
235.68	-120.000
236.05	-23.077
236.43	15.000
236.80	-5.882
237.17	34.375
237.55	35.000
237.92	18.519
238.29	36.111
238.67	30.000
239.04	38.235
239.41	0.000
239.79	66.667
240.16	51.220
240.53	34.211
240.91	36.957
241.28	44.444
241.65	50.000
242.02	32.877
242.40	40.000
242.77	44.068
243.14	40.909
243.51	42.500
243.89	52.874
244.26	29.885
244.63	48.810
245.00	38.144
245.38	45.361
245.75	39.326
246.12	45.690
246.49	42.149
246.87	57.692
247.24	45.378
247.61	47.368
247.98	44.715
248.36	43.125
248.73	46.053
249.10	44.156
249.47	41.772
249.84	45.752
250.22	45.882
250.59	47.059
250.96	49.765
251.33	45.349
251.70	57.647
252.08	48.731
252.45	44.059
252.82	47.739
253.19	48.387
253.56	43.458
253.94	50.450
254.31	46.957
254.68	51.754
255.05	44.094
255.42	50.218
255.79	42.857
256.16	49.027
256.54	47.761
256.91	45.627
257.28	43.494
257.65	43.446
258.02	47.163
258.39	49.158
258.76	47.619
259.14	46.179
259.51	43.366
259.88	47.423
260.25	45.752
260.62	46.875
260.99	45.763
261.36	51.027
261.73	47.785
262.10	50.456
262.47	46.933
262.85	38.871
263.22	48.923
263.59	49.844
263.96	47.205
264.33	46.364
264.70	48.214
265.07	47.321
265.44	47.592
265.81	47.175
266.18	46.175
266.55	48.843
266.92	45.596
267.29	48.825
267.66	46.036
268.03	48.429
268.40	42.037
268.77	49.198
269.14	42.926
269.51	46.787
269.88	44.888
270.25	45.918
270.62	44.634
270.99	49.616
271.36	43.765
271.73	42.723
272.10	45.499
272.47	44.444
272.84	43.317
273.21	46.172
273.58	47.229
273.95	43.936
274.32	41.801
274.69	42.534
275.06	46.429
275.43	43.311
275.80	43.709
276.17	44.828
276.54	39.829
276.91	45.614
277.28	41.921
277.65	41.736
278.02	42.553
278.39	43.982
278.76	44.654
279.13	40.664
279.50	41.597
279.87	41.253
280.23	42.796
280.60	41.910
280.97	44.242
281.34	41.154
281.71	44.559
282.08	42.331
282.45	42.661
282.82	38.224
283.19	45.841
283.56	42.582
283.92	44.023
284.29	39.423
284.66	43.217
285.03	42.633
285.40	42.155
285.77	41.125
286.14	41.877
286.51	40.775
286.87	38.208
287.24	41.989
287.61	37.566
287.98	38.246
288.35	40.035
288.72	39.580
289.08	39.757
289.45	39.719
289.82	40.035
290.19	38.396
290.56	40.137
290.93	36.700
291.29	35.747
291.66	38.740
292.03	38.596
292.40	37.097
292.77	35.247
293.13	35.714
293.50	34.294
293.87	35.420
294.24	34.776
294.60	34.575
294.97	34.821
295.34	33.282
295.71	37.109
296.08	34.380
296.44	30.156
296.81	32.917
297.18	32.754
297.55	34.282
297.91	32.329
298.28	31.794
298.65	32.022
299.02	33.019
299.38	33.105
299.75	31.172
300.12	29.843
300.48	32.938
300.85	31.686
301.22	30.779
301.59	30.263
301.95	31.899
302.32	31.128
302.69	30.100
303.05	30.074
303.42	29.888
303.79	31.075
304.15	32.019
304.52	30.440
304.89	29.240
305.25	30.872
305.62	30.455
305.99	29.123
306.35	30.405
306.72	29.696
307.09	29.532
307.45	30.654
307.82	29.977
308.19	29.733
308.55	30.207
308.92	29.847
309.29	31.061
309.65	31.432
310.02	28.933
310.38	30.955
310.75	31.694
311.12	30.786
311.48	30.223
311.85	30.681
312.22	29.430
312.58	31.953
312.95	31.697
313.31	31.159
313.68	30.681
314.05	31.327
314.41	31.753
314.78	31.959
315.14	32.785
315.51	32.091
315.87	31.455
316.24	31.850
316.61	32.677
316.97	32.639
317.34	33.203
317.70	33.174
318.07	31.538
318.43	33.922
318.80	33.239
319.16	32.910
319.53	33.618
319.89	32.972
320.26	33.097
320.62	34.704
320.99	33.299
321.35	32.785
321.72	34.372
322.08	34.441
322.45	36.142
322.81	33.988
323.18	33.955
323.54	33.784
323.91	34.372
324.27	35.645
324.64	35.206
325.00	35.401
325.37	37.190
325.73	35.267
326.10	35.059
326.46	35.695
326.83	36.045
327.19	35.571
327.56	36.490
327.92	37.764
328.29	35.804
328.65	35.943
329.01	37.132
329.38	36.498
329.74	36.166
330.11	35.867
330.47	36.085
330.84	35.096
331.20	37.262
331.56	35.000
331.93	37.717
332.29	36.572
332.66	36.471
333.02	36.710
333.38	34.922
333.75	35.806
334.11	35.363
334.48	36.537
334.84	35.531
335.20	35.133
335.57	34.361
335.93	35.140
336.29	36.740
336.66	35.150
337.02	36.431
337.38	35.370
337.75	35.545
338.11	36.700
338.47	34.763
338.84	36.599
339.20	35.466
339.56	35.596
339.93	36.347
340.29	35.229
340.65	34.857
341.02	35.993
341.38	35.752
341.74	33.922
342.11	34.142
342.47	33.986
342.83	34.516
343.20	34.669
343.56	35.304
343.92	34.455
344.28	34.586
344.65	34.111
345.01	33.103
345.37	33.558
345.73	34.477
346.10	35.030
346.46	34.735
346.82	32.897
347.19	32.336
347.55	33.668
347.91	34.061
348.27	32.983
348.63	33.986
349.00	32.075
349.36	32.585
349.72	33.582
350.08	33.525
350.45	33.599
350.81	33.306
351.17	31.026
351.53	32.980
351.89	32.287
352.26	32.240
352.62	32.419
352.98	31.968
353.34	33.736
353.70	33.981
354.07	32.177
354.43	33.307
354.79	32.865
355.15	32.698
355.51	33.149
355.87	32.524
356.24	31.485
356.60	31.690
356.96	32.222
357.32	32.188
357.68	32.760
358.04	32.068
358.40	32.074
358.77	32.376
359.13	31.305
359.49	31.356
359.85	32.137
360.21	32.376
360.57	30.681
360.93	31.997
361.29	30.363
361.66	32.367
362.02	31.667
362.38	31.455
362.74	31.113
363.10	32.957
363.46	31.505
363.82	33.133
364.18	31.144
364.54	31.397
364.90	30.753
365.26	31.732
365.62	32.847
365.98	32.111
366.35	32.484
366.71	32.594
367.07	32.221
367.43	30.913
367.79	30.601
368.15	31.084
368.51	31.173
368.87	31.084
369.23	31.047
369.59	31.050
369.95	32.038
370.31	31.286
370.67	29.701
371.03	30.396
371.39	30.853
371.75	31.941
372.11	31.241
372.47	31.287
372.83	30.873
373.19	30.884
373.55	29.314
373.91	31.102
374.27	30.404
374.63	31.299
374.99	29.291
375.35	30.432
375.71	30.629
376.07	30.899
376.42	30.816
376.78	31.946
377.14	31.077
377.50	30.412
377.86	31.727
378.22	28.909
378.58	31.282
378.94	30.372
379.30	30.193
379.66	30.846
380.02	30.595
380.38	30.371
380.74	30.700
381.09	31.350
381.45	30.031
381.81	30.660
382.17	30.457
382.53	30.918
382.89	30.571
383.25	31.487
383.61	30.976
383.97	31.175
384.32	29.769
384.68	30.526
385.04	29.228
385.40	29.932
385.76	31.761
386.12	29.431
386.48	31.481
386.83	30.691
387.19	30.098
387.55	30.866
387.91	31.357
388.27	30.952
388.62	31.152
388.98	29.957
389.34	31.106
389.70	31.075
390.06	30.145
390.42	31.218
390.77	30.543
391.13	30.328
391.49	30.918
391.85	29.955
392.20	30.885
392.56	30.896
392.92	29.947
393.28	31.191
393.64	30.330
393.99	31.661
394.35	30.044
394.71	30.460
395.07	30.107
395.42	30.115
395.78	30.684
396.14	30.013
396.50	30.945
396.85	29.878
397.21	30.138
397.57	30.282
397.92	30.078
398.28	30.517
398.64	29.157
399.00	30.418
399.35	28.950
399.71	29.408
400.07	29.927
400.42	29.927
400.78	31.598
401.14	30.611
401.49	30.971
401.85	30.347
402.21	29.880
402.57	30.188
402.92	30.427
403.28	30.013
403.63	31.021
403.99	30.166
404.35	30.731
404.70	30.119
405.06	29.436
405.42	30.454
405.77	29.924
406.13	29.627
406.49	29.722
406.84	29.523
407.20	30.584
407.55	30.844
407.91	30.481
408.27	30.083
408.62	29.908
408.98	29.883
409.34	29.802
409.69	30.556
410.05	29.495
410.40	29.012
410.76	29.855
411.11	30.250
411.47	31.032
411.83	30.069
412.18	29.086
412.54	30.212
412.89	29.433
413.25	30.084
413.60	29.814
413.96	29.816
414.31	29.207
414.67	29.891
415.03	30.759
415.38	29.896
415.74	30.489
416.09	30.046
416.45	29.372
416.80	30.139
417.16	31.768
417.51	29.780
417.87	30.834
418.22	31.153
418.58	31.037
418.93	30.721
419.29	30.090
419.64	30.201
420.00	30.668
420.35	29.493
420.71	29.891
421.06	29.896
421.42	29.988
421.77	29.364
422.12	29.342
422.48	29.940
422.83	30.104
423.19	29.966
423.54	29.747
423.90	29.505
424.25	30.138
424.61	30.661
424.96	30.894
425.31	31.485
425.67	30.399
426.02	30.742
426.38	30.870
426.73	30.085
427.09	30.886
427.44	31.000
427.79	30.348
428.15	30.461
428.50	29.316
428.85	30.467
429.21	29.768
429.56	31.105
429.92	30.200
430.27	30.476
430.62	29.587
430.98	31.263
431.33	31.335
431.68	30.874
432.04	31.358
432.39	29.606
432.74	29.345
433.10	31.609
433.45	30.585
433.80	30.760
434.16	30.637
434.51	30.269
434.86	30.894
435.22	30.454
435.57	30.880
435.92	30.719
436.28	30.054
436.63	29.949
436.98	30.533
437.34	30.127
437.69	30.531
438.04	31.282
438.39	30.605
438.75	30.965
439.10	31.353
439.45	30.736
439.81	30.520
440.16	31.413
440.51	31.701
440.86	32.387
441.22	30.260
441.57	31.347
441.92	32.057
442.27	31.596
442.63	30.942
442.98	31.591
443.33	30.384
443.68	30.504
444.03	32.091
444.39	31.087
444.74	31.550
445.09	31.292
445.44	31.054
445.79	32.543
446.15	31.222
446.50	31.836
446.85	31.828
447.20	30.813
447.55	32.143
447.91	32.036
448.26	32.328
448.61	32.355
448.96	31.956
449.31	30.520
449.66	32.462
450.02	31.774
450.37	31.832
450.72	31.157
451.07	32.468
451.42	31.523
451.77	31.525
452.12	31.280
452.47	31.423
452.83	31.920
453.18	31.309
453.53	32.174
453.88	31.937
454.23	31.530
454.58	32.431
454.93	32.152
455.28	30.349
455.63	31.556
455.98	32.411
456.34	31.418
456.69	31.449
457.04	32.073
457.39	31.470
457.74	31.620
458.09	31.195
458.44	31.188
458.79	30.980
459.14	32.437
459.49	32.358
459.84	31.528
460.19	31.675
460.54	32.029
460.89	32.273
461.24	31.677
461.59	31.888
461.94	30.881
462.29	32.207
462.64	33.156
462.99	31.686
463.34	31.224
463.69	31.532
464.04	31.477
464.39	30.988
464.74	31.288
465.09	31.940
465.44	31.737
465.79	30.442
466.14	32.782
466.49	30.650
466.84	31.826
467.19	31.039
467.54	31.418
467.89	32.091
468.24	31.569
468.59	31.619
468.94	30.857
469.29	31.607
469.64	30.964
469.99	33.217
470.34	30.444
470.68	31.916
471.03	31.776
471.38	31.455
471.73	32.423
472.08	31.343
472.43	31.275
472.78	30.912
473.13	30.680
473.48	31.857
473.83	30.324
474.17	31.801
474.52	30.823
474.87	31.636
475.22	31.971
475.57	31.508
475.92	32.639
476.27	32.771
476.61	32.755
476.96	30.842
477.31	31.422
477.66	32.135
478.01	31.780
478.36	31.155
478.70	32.246
479.05	31.154
479.40	32.167
479.75	31.230
480.10	31.900
480.45	32.150
480.79	31.370
481.14	32.275
481.49	31.773
481.84	32.046
482.19	31.712
482.53	32.950
482.88	31.265
483.23	31.478
483.58	31.415
483.92	30.929
484.27	31.176
484.62	31.869
484.97	31.302
485.31	31.105
485.66	30.279
486.01	31.624
486.36	31.230
486.70	31.856
487.05	31.785
487.40	31.825
487.75	31.887
488.09	31.551
488.44	31.981
488.79	31.827
489.13	32.652
489.48	31.466
489.83	31.928
490.17	32.045
490.52	31.178
490.87	31.328
491.22	31.519
491.56	31.167
491.91	31.071
492.26	32.037
492.60	31.574
492.95	32.022
493.30	31.314
493.64	32.466
493.99	31.546
494.34	30.583
494.68	31.667
495.03	30.754
495.37	31.551
495.72	32.105
496.07	31.366
496.41	31.792
496.76	31.046
497.11	31.253
497.45	30.883
497.80	32.089
498.14	30.303
498.49	30.980
498.84	31.986
499.18	31.225
499.53	31.300
499.87	31.469
500.22	31.998
500.56	31.014
500.91	30.823
501.26	30.549
501.60	31.628
501.95	31.295
502.29	31.477
502.64	32.046
502.98	32.215
503.33	31.028
503.67	30.458
504.02	31.476
504.36	32.063
504.71	30.707
505.06	30.700
505.40	31.726
505.75	31.856
506.09	31.374
506.44	31.776
506.78	31.173
507.13	31.075
507.47	30.705
507.82	30.235
508.16	30.111
508.51	31.427
508.85	31.188
509.19	31.027
509.54	31.743
509.88	30.690
510.23	31.038
510.57	31.427
510.92	29.957
511.26	30.278
511.61	31.738
511.95	30.356
512.30	31.098
512.64	30.829
512.98	30.376
513.33	30.386
513.67	31.552
514.02	31.121
514.36	31.143
514.70	31.177
515.05	31.022
515.39	31.110
515.74	32.335
516.08	31.201
516.42	32.155
516.77	31.480
517.11	31.276
517.46	30.999
517.80	31.347
518.14	31.476
518.49	30.228
518.83	30.863
519.17	29.897
519.52	31.735
519.86	30.072
520.20	31.166
520.55	30.206
520.89	31.054
521.23	30.906
521.58	32.177
521.92	30.321
522.26	30.514
522.61	30.909
522.95	31.258
523.29	31.449
523.64	31.639
523.98	31.562
524.32	29.961
524.66	30.602
525.01	32.078
525.35	31.432
525.69	30.640
526.04	31.283
526.38	32.231
526.72	30.477
527.06	30.415
527.41	30.343
527.75	30.362
528.09	30.365
528.43	31.465
528.78	31.023
529.12	30.581
529.46	30.149
529.80	30.526
530.15	31.155
530.49	30.842
530.83	31.122
531.17	30.625
531.51	31.053
531.86	31.407
532.20	30.619
532.54	29.204
532.88	30.390
533.22	30.309
533.57	31.127
533.91	30.418
534.25	31.185
534.59	30.597
534.93	29.578
535.27	30.330
535.62	29.877
535.96	29.941
536.30	31.003
536.64	31.840
536.98	30.662
537.32	31.152
537.66	31.206
538.01	30.490
538.35	29.820
538.69	29.960
539.03	30.212
539.37	30.619
539.71	30.470
540.05	30.686
540.39	31.025
540.73	30.683
541.07	30.456
541.42	31.317
541.76	30.970
542.10	29.525
542.44	31.202
542.78	29.525
543.12	29.533
543.46	29.764
543.80	30.951
544.14	29.640
544.48	30.646
544.82	29.323
545.16	31.626
545.50	30.507
545.84	30.524
546.18	30.851
546.52	30.786
546.86	29.978
547.20	31.760
547.54	30.247
547.88	29.891
548.22	29.257
548.56	30.079
548.90	31.334
549.24	29.408
549.58	31.382
549.92	30.307
550.26	29.451
550.60	30.558
550.94	30.097
551.28	30.448
551.62	29.923
551.96	30.150
552.30	29.313
552.64	29.549
552.98	29.817
553.32	29.601
553.66	29.028
554.00	29.927
554.34	30.428
554.68	30.236
555.02	30.357
555.36	29.693
555.69	29.084
556.03	28.979
556.37	28.043
556.71	30.542
557.05	30.127
557.39	28.401
557.73	29.760
558.07	29.412
558.41	29.403
558.75	30.242
559.08	29.708
559.42	29.048
559.76	28.823
560.10	29.358
560.44	29.039
560.78	29.930
561.12	29.549
561.45	30.288
561.79	28.992
562.13	29.383
562.47	29.496
562.81	29.179
563.15	29.267
563.48	28.925
563.82	28.552
564.16	30.641
564.50	29.459
564.84	30.254
565.17	29.980
565.51	30.260
565.85	29.081
566.19	28.448
566.52	30.094
566.86	30.591
567.20	28.892
567.54	29.136
567.88	29.760
568.21	29.638
568.55	30.000
568.89	29.312
569.23	29.947
569.56	28.984
569.90	29.639
570.24	29.512
570.57	29.964
570.91	29.627
571.25	29.365
571.59	28.838
571.92	28.504
572.26	29.559
572.60	29.178
572.93	29.401
573.27	29.091
573.61	29.535
573.95	29.055
574.28	28.867
574.62	28.579
574.96	28.945
575.29	28.975
575.63	28.116
575.97	28.490
576.30	29.604
576.64	28.821
576.98	29.344
577.31	29.270
577.65	29.427
577.98	28.381
578.32	28.926
578.66	28.326
578.99	28.685
579.33	28.304
579.67	28.312
580.00	29.468
580.34	28.980
580.67	27.745
581.01	28.746
581.35	28.338
581.68	28.282
582.02	28.207
582.35	28.282
582.69	28.574
583.02	28.391
583.36	29.122
583.70	29.128
584.03	29.580
584.37	29.136
584.70	28.819
585.04	28.731
585.37	28.477
585.71	28.610
586.04	28.139
586.38	28.568
586.72	29.211
587.05	28.481
587.39	28.963
587.72	29.825
588.06	28.480
588.39	28.596
588.73	29.182
589.06	29.452
589.40	29.589
589.73	28.368
590.07	28.663
590.40	28.793
590.73	29.407
591.07	29.050
591.40	29.252
591.74	28.552
592.07	29.963
592.41	27.694
592.74	27.758
593.08	28.362
593.41	28.171
593.75	27.478
594.08	27.944
594.41	27.802
594.75	28.015
595.08	28.263
595.42	27.825
595.75	28.314
596.09	28.851
596.42	28.483
596.75	28.908
597.09	28.337
597.42	28.275
597.75	27.943
598.09	27.343
598.42	27.527
598.76	27.070
599.09	27.845
599.42	27.397
599.76	27.314
600.09	27.413
600.42	28.014
600.76	27.303
601.09	27.252
601.42	27.575
601.76	27.670
602.09	27.599
602.42	28.307
602.76	27.377
603.09	28.571
603.42	28.344
603.76	27.540
604.09	27.217
604.42	27.284
604.76	28.705
605.09	27.879
605.42	27.540
605.75	27.320
606.09	27.813
606.42	26.814
606.75	28.442
607.09	27.385
607.42	27.692
607.75	27.176
608.08	26.370
608.42	26.770
608.75	28.048
609.08	27.304
609.41	27.868
609.75	27.571
610.08	27.659
610.41	27.729
610.74	27.401
611.07	27.752
611.41	27.504
611.74	28.252
612.07	27.034
612.40	27.243
612.73	27.119
613.07	26.884
613.40	27.626
613.73	27.644
614.06	27.268
614.39	27.919
614.72	26.947
615.06	26.704
615.39	26.910
615.72	26.911
616.05	27.598
616.38	26.211
616.71	27.278
617.05	26.930
617.38	27.530
617.71	27.296
618.04	27.556
618.37	28.562
618.70	26.931
619.03	28.611
619.36	26.700
619.69	28.203
620.03	26.735
620.36	26.967
620.69	26.909
621.02	27.752
621.35	27.386
621.68	27.636
622.01	27.333
622.34	26.257
622.67	26.893
623.00	26.876
623.33	27.210
623.66	26.627
623.99	26.853
624.32	26.540
624.65	26.767
624.99	26.637
625.32	26.535
625.65	27.101
625.98	26.591
626.31	26.351
626.64	26.430
626.97	27.487
627.30	28.284
627.63	27.903
627.96	26.235
628.29	26.735
628.62	27.827
628.95	26.052
629.28	27.016
629.61	25.424
629.94	27.664
630.26	27.075
630.59	28.304
630.92	26.359
631.25	26.256
631.58	25.661
631.91	25.987
632.24	24.885
632.57	28.068
632.90	26.453
633.23	25.412
633.56	26.196
