SpectraSuite Data File
++++++++++++++++++++++++++++++++++++
Date: Fri May 15 20:34:31 PDT 2015
User: schluterlab
Dark Spectrum Present: Yes
Reference Spectrum Present: Yes
Number of Sampled Component Spectra: 1
Spectrometers: USB2E3373
Integration Time (usec): 3000 (USB2E3373)
Spectra Averaged: 3 (USB2E3373)
Boxcar Smoothing: 0 (USB2E3373)
Correct for Electrical Dark: No (USB2E3373)
Strobe/Lamp Enabled: No (USB2E3373)
Correct for Detector Non-linearity: No (USB2E3373)
Correct for Stray Light: No (USB2E3373)
Number of Pixels in Processed Spectrum: 2048
>>>>>Begin Processed Spectral Data<<<<<
178.53	0.000
178.91	0.000
179.29	37.500
179.67	-600.000
180.04	85.714
180.42	-25.000
180.80	-900.000
181.18	400.000
181.56	350.000
181.94	-350.000
182.31	1600.000
182.69	-100.000
183.07	-400.000
183.45	100.000
183.83	266.667
184.20	-54.545
184.58	122.222
184.96	-0.000
185.34	500.000
185.72	-450.000
186.09	107.692
186.47	-1100.000
186.85	300.000
187.23	144.444
187.61	200.000
187.98	-566.667
188.36	-22.222
188.74	-333.333
189.12	11.765
189.49	16.667
189.87	0.000
190.25	42.857
190.63	350.000
191.00	-133.333
191.38	5.263
191.76	-50.000
192.14	275.000
192.51	-250.000
192.89	-55.556
193.27	-142.857
193.65	200.000
194.02	200.000
194.40	-10.000
194.78	-150.000
195.15	-58.333
195.53	-162.500
195.91	75.000
196.29	-200.000
196.66	69.231
197.04	85.714
197.42	-22.222
197.79	-566.667
198.17	-53.846
198.55	1100.000
198.92	-133.333
199.30	-1400.000
199.68	-300.000
200.05	-333.333
200.43	0.000
200.81	133.333
201.18	0.000
201.56	1400.000
201.94	0.000
202.31	300.000
202.69	-220.000
203.07	200.000
203.44	200.000
203.82	0.000
204.19	-42.857
204.57	-533.333
204.95	225.000
205.32	-30.000
205.70	-42.857
206.08	-175.000
206.45	144.444
206.83	7.143
207.20	-242.857
207.58	-100.000
207.96	-466.667
208.33	-150.000
208.71	-150.000
209.08	-250.000
209.46	-700.000
209.84	-240.000
210.21	-1900.000
210.59	-142.857
210.96	-183.333
211.34	-125.000
211.71	-46.667
212.09	-228.571
212.46	-1300.000
212.84	0.000
213.22	-90.000
213.59	650.000
213.97	53.846
214.34	-36.364
214.72	-116.667
215.09	500.000
215.47	-7.692
215.84	-81.818
216.22	-633.333
216.59	-87.500
216.97	-100.000
217.34	-200.000
217.72	-200.000
218.09	-25.000
218.47	50.000
218.84	-400.000
219.22	-100.000
219.59	-140.000
219.97	633.333
220.34	300.000
220.72	-85.714
221.09	-100.000
221.47	-500.000
221.84	-800.000
222.22	-900.000
222.59	-81.818
222.97	-8.333
223.34	-333.333
223.72	-42.857
224.09	19.048
224.46	-3.571
224.84	666.667
225.21	-80.000
225.59	-26.667
225.96	-150.000
226.34	400.000
226.71	-100.000
227.08	-100.000
227.46	0.000
227.83	-1000.000
228.21	-33.333
228.58	72.727
228.95	-50.000
229.33	150.000
229.70	-6.250
230.08	-275.000
230.45	-142.857
230.82	-14.286
231.20	-46.667
231.57	-21.429
231.95	-200.000
232.32	-180.000
232.69	0.000
233.07	-233.333
233.44	-280.000
233.81	-80.000
234.19	-111.111
234.56	-82.353
234.93	850.000
235.31	-450.000
235.68	-420.000
236.05	-69.231
236.43	-15.000
236.80	-105.882
237.17	0.000
237.55	-5.000
237.92	-18.519
238.29	-22.222
238.67	-10.000
239.04	-41.176
239.41	-31.707
239.79	-36.667
240.16	-26.829
240.53	-50.000
240.91	-8.696
241.28	0.000
241.65	1.786
242.02	13.699
242.40	-10.000
242.77	-10.169
243.14	-19.697
243.51	-3.750
243.89	-1.149
244.26	-8.046
244.63	-4.762
245.00	1.031
245.38	8.247
245.75	-16.854
246.12	-0.862
246.49	3.306
246.87	1.923
247.24	-0.840
247.61	-8.772
247.98	-4.065
248.36	-3.750
248.73	5.921
249.10	-0.649
249.47	-2.532
249.84	0.000
250.22	0.588
250.59	2.614
250.96	7.042
251.33	-3.488
251.70	1.176
252.08	3.046
252.45	3.465
252.82	4.523
253.19	5.991
253.56	-4.206
253.94	3.153
254.31	3.478
254.68	5.702
255.05	1.969
255.42	3.493
255.79	4.247
256.16	6.615
256.54	5.970
256.91	1.901
257.28	4.461
257.65	0.749
258.02	1.418
258.39	7.744
258.76	1.465
259.14	5.648
259.51	2.913
259.88	3.436
260.25	0.327
260.62	5.556
260.99	3.051
261.36	0.342
261.73	1.266
262.10	0.912
262.47	1.534
262.85	1.881
263.22	2.462
263.59	3.427
263.96	3.106
264.33	6.970
264.70	2.679
265.07	2.679
265.44	4.533
265.81	4.237
266.18	4.098
266.55	4.627
266.92	5.699
267.29	4.700
267.66	5.371
268.03	3.141
268.40	3.655
268.77	5.615
269.14	3.118
269.51	4.884
269.88	3.741
270.25	1.276
270.62	2.439
270.99	1.023
271.36	2.689
271.73	6.808
272.10	5.839
272.47	4.255
272.84	3.960
273.21	5.336
273.58	4.578
273.95	1.831
274.32	5.312
274.69	1.810
275.06	5.357
275.43	4.762
275.80	4.415
276.17	2.529
276.54	3.854
276.91	4.605
277.28	3.057
277.65	5.992
278.02	3.191
278.39	3.501
278.76	3.145
279.13	2.697
279.50	6.933
279.87	3.240
280.23	2.366
280.60	7.797
280.97	3.838
281.34	5.000
281.71	5.955
282.08	3.885
282.45	2.935
282.82	4.247
283.19	4.062
283.56	4.432
283.92	2.846
284.29	3.077
284.66	2.326
285.03	1.965
285.40	4.726
285.77	3.691
286.14	4.152
286.51	4.613
286.87	4.570
287.24	3.683
287.61	3.704
287.98	5.614
288.35	3.293
288.72	3.853
289.08	2.951
289.45	4.394
289.82	3.322
290.19	2.560
290.56	2.401
290.93	2.525
291.29	2.465
291.66	5.039
292.03	4.147
292.40	4.677
292.77	3.828
293.13	2.597
293.50	0.910
293.87	4.275
294.24	4.946
294.60	3.279
294.97	3.869
295.34	1.994
295.71	4.322
296.08	1.943
296.44	1.138
296.81	4.583
297.18	2.029
297.55	4.878
297.91	2.603
298.28	5.409
298.65	3.664
299.02	4.178
299.38	1.505
299.75	3.724
300.12	3.141
300.48	2.372
300.85	3.422
301.22	2.857
301.59	2.237
301.95	3.924
302.32	3.891
302.69	2.488
303.05	3.589
303.42	2.491
303.79	3.271
304.15	3.345
304.52	2.021
304.89	2.456
305.25	3.027
305.62	1.984
305.99	3.860
306.35	3.237
306.72	2.925
307.09	2.965
307.45	2.411
307.82	1.736
308.19	4.181
308.55	4.253
308.92	4.466
309.29	2.123
309.65	3.767
310.02	3.850
310.38	3.622
310.75	3.169
311.12	3.229
311.48	2.863
311.85	2.723
312.22	2.743
312.58	4.140
312.95	2.348
313.31	3.727
313.68	3.665
314.05	3.980
314.41	3.299
314.78	3.093
315.14	3.597
315.51	4.348
315.87	4.098
316.24	4.247
316.61	4.528
316.97	5.159
317.34	4.102
317.70	5.067
318.07	4.904
318.43	4.902
318.80	4.830
319.16	6.055
319.53	5.698
319.89	5.217
320.26	5.972
320.62	6.319
320.99	4.906
321.35	6.372
321.72	7.892
322.08	7.251
322.45	6.904
322.81	8.743
323.18	6.968
323.54	8.012
323.91	7.205
324.27	7.813
324.64	8.427
325.00	9.124
325.37	9.642
325.73	8.341
326.10	9.446
326.46	9.776
326.83	9.536
327.19	10.201
327.56	10.860
327.92	9.771
328.29	10.179
328.65	10.566
329.01	10.478
329.38	10.415
329.74	10.670
330.11	11.029
330.47	10.761
330.84	11.635
331.20	11.977
331.56	12.315
331.93	12.511
332.29	12.099
332.66	10.860
333.02	11.617
333.38	11.824
333.75	12.088
334.11	10.564
334.48	11.786
334.84	12.179
335.20	11.345
335.57	11.695
335.93	10.208
336.29	11.971
336.66	10.899
337.02	12.082
337.38	11.574
337.75	12.818
338.11	13.165
338.47	12.774
338.84	12.384
339.20	10.420
339.56	12.752
339.93	12.444
340.29	12.385
340.65	12.634
341.02	11.525
341.38	11.416
341.74	12.014
342.11	11.438
342.47	11.922
342.83	12.543
343.20	11.585
343.56	11.739
343.92	12.932
344.28	12.639
344.65	11.226
345.01	11.582
345.37	12.279
345.73	11.381
346.10	12.338
346.46	11.775
346.82	10.638
347.19	10.308
347.55	11.612
347.91	13.026
348.27	12.207
348.63	12.436
349.00	12.141
349.36	11.554
349.72	11.360
350.08	10.820
350.45	11.732
350.81	10.880
351.17	10.912
351.53	11.755
351.89	11.148
352.26	10.560
352.62	11.855
352.98	10.843
353.34	11.192
353.70	12.217
354.07	11.210
354.43	12.170
354.79	11.561
355.15	11.984
355.51	11.313
355.87	11.974
356.24	11.011
356.60	11.803
356.96	11.905
357.32	11.422
357.68	10.790
358.04	11.066
358.40	10.852
358.77	12.440
359.13	11.769
359.49	10.863
359.85	11.310
360.21	11.324
360.57	10.635
360.93	11.346
361.29	10.725
361.66	11.599
362.02	12.424
362.38	10.739
362.74	10.674
363.10	12.265
363.46	11.342
363.82	11.721
364.18	11.070
364.54	10.809
364.90	11.398
365.26	11.718
365.62	12.701
365.98	12.097
366.35	11.216
366.71	12.121
367.07	11.611
367.43	10.568
367.79	11.166
368.15	10.696
368.51	10.779
368.87	11.127
369.23	11.697
369.59	11.953
369.95	12.023
370.31	11.488
370.67	10.970
371.03	11.426
371.39	11.451
371.75	11.502
372.11	11.341
372.47	10.947
372.83	12.349
373.19	11.626
373.55	11.119
373.91	11.375
374.27	11.765
374.63	11.773
374.99	11.844
375.35	11.908
375.71	12.378
376.07	11.728
376.42	11.429
376.78	11.342
377.14	12.458
377.50	11.886
377.86	12.115
378.22	11.870
378.58	11.026
378.94	11.153
379.30	11.478
379.66	11.599
380.02	10.546
380.38	11.625
380.74	11.490
381.09	12.454
381.45	11.682
381.81	11.598
382.17	11.421
382.53	11.243
382.89	11.802
383.25	12.383
383.61	12.439
383.97	10.603
384.32	12.008
384.68	11.393
385.04	11.949
385.40	10.703
385.76	11.321
386.12	11.708
386.48	12.324
386.83	12.429
387.19	11.477
387.55	11.543
387.91	11.491
388.27	11.111
388.62	11.831
388.98	11.541
389.34	11.805
389.70	11.933
390.06	11.831
390.42	11.528
390.77	11.380
391.13	11.665
391.49	11.772
391.85	11.436
392.20	11.990
392.56	11.125
392.92	11.685
393.28	12.323
393.64	11.231
393.99	12.665
394.35	11.638
394.71	11.814
395.07	12.005
395.42	11.536
395.78	11.987
396.14	11.791
396.50	11.921
396.85	12.428
397.21	11.717
397.57	12.414
397.92	12.403
398.28	11.724
398.64	10.663
399.00	12.472
399.35	11.512
399.71	11.660
400.07	12.455
400.42	11.506
400.78	12.492
401.14	11.615
401.49	12.150
401.85	11.030
402.21	11.807
402.57	11.312
402.92	11.920
403.28	11.341
403.63	10.656
403.99	12.054
404.35	11.305
404.70	11.071
405.06	10.400
405.42	11.001
405.77	10.691
406.13	11.118
406.49	11.960
406.84	11.247
407.20	11.921
407.55	9.916
407.91	10.561
408.27	11.727
408.62	12.185
408.98	11.460
409.34	11.896
409.69	11.693
410.05	11.022
410.40	11.173
410.76	11.761
411.11	10.938
411.47	12.229
411.83	10.295
412.18	11.326
412.54	11.298
412.89	10.776
413.25	11.191
413.60	10.932
413.96	11.472
414.31	12.073
414.67	10.969
415.03	11.651
415.38	10.836
415.74	11.336
416.09	10.777
416.45	11.411
416.80	11.104
417.16	10.566
417.51	11.792
417.87	11.343
418.22	10.298
418.58	11.037
418.93	11.473
419.29	11.204
419.64	11.147
420.00	11.524
420.35	11.582
420.71	11.786
421.06	10.804
421.42	11.238
421.77	10.983
422.12	11.521
422.48	11.695
422.83	11.253
423.19	11.456
423.54	10.406
423.90	10.601
424.25	11.538
424.61	11.261
424.96	10.859
425.31	11.554
425.67	10.974
426.02	11.366
426.38	10.582
426.73	11.622
427.09	11.835
427.44	11.647
427.79	11.019
428.15	12.379
428.50	11.266
428.85	10.258
429.21	12.111
429.56	12.345
429.92	12.121
430.27	10.977
430.62	10.716
430.98	10.510
431.33	11.882
431.68	11.879
432.04	11.627
432.39	11.295
432.74	11.305
433.10	12.069
433.45	11.529
433.80	10.969
434.16	11.357
434.51	11.613
434.86	11.440
435.22	11.666
435.57	12.539
435.92	12.156
436.28	11.270
436.63	11.865
436.98	11.240
437.34	11.434
437.69	11.986
438.04	11.852
438.39	10.996
438.75	11.233
439.10	11.602
439.45	12.112
439.81	11.437
440.16	11.936
440.51	12.716
440.86	13.172
441.22	12.387
441.57	12.638
441.92	11.752
442.27	12.195
442.63	13.223
442.98	13.326
443.33	11.575
443.68	12.891
444.03	12.668
444.39	12.887
444.74	12.319
445.09	12.472
445.44	12.251
445.79	13.254
446.15	12.445
446.50	12.035
446.85	12.912
447.20	13.399
447.55	13.616
447.91	12.465
448.26	13.660
448.61	13.472
448.96	13.425
449.31	12.370
449.66	12.892
450.02	13.177
450.37	12.685
450.72	13.230
451.07	13.291
451.42	13.233
451.77	12.658
452.12	13.517
452.47	12.814
452.83	13.428
453.18	13.219
453.53	13.464
453.88	13.904
454.23	12.477
454.58	13.539
454.93	13.531
455.28	12.317
455.63	13.763
455.98	13.590
456.34	13.346
456.69	13.278
457.04	14.178
457.39	12.758
457.74	13.120
458.09	12.772
458.44	12.639
458.79	13.277
459.14	13.902
459.49	13.433
459.84	13.706
460.19	13.653
460.54	12.958
460.89	13.920
461.24	13.043
461.59	13.658
461.94	12.201
462.29	13.691
462.64	13.688
462.99	13.812
463.34	13.143
463.69	13.063
464.04	13.620
464.39	13.281
464.74	13.497
465.09	13.288
465.44	13.676
465.79	12.925
466.14	13.227
466.49	12.306
466.84	13.563
467.19	12.766
467.54	12.963
467.89	12.129
468.24	13.443
468.59	13.397
468.94	12.508
469.29	13.246
469.64	14.149
469.99	12.964
470.34	13.379
470.68	13.274
471.03	13.305
471.38	12.625
471.73	12.885
472.08	12.890
472.43	12.752
472.78	12.748
473.13	13.265
473.48	13.420
473.83	13.200
474.17	13.666
474.52	12.508
474.87	13.636
475.22	13.118
475.57	12.874
475.92	13.439
476.27	13.795
476.61	13.426
476.96	12.660
477.31	13.304
477.66	13.483
478.01	13.532
478.36	13.344
478.70	13.322
479.05	13.077
479.40	13.196
479.75	12.252
480.10	13.364
480.45	12.550
480.79	14.149
481.14	13.268
481.49	12.956
481.84	13.272
482.19	12.675
482.53	13.333
482.88	13.270
483.23	12.380
483.58	13.113
483.92	13.117
484.27	12.078
484.62	12.909
484.97	12.396
485.31	12.970
485.66	12.574
486.01	13.377
486.36	13.070
486.70	13.099
487.05	13.067
487.40	12.952
487.75	12.817
488.09	12.083
488.44	12.792
488.79	12.551
489.13	12.821
489.48	12.227
489.83	12.646
490.17	12.494
490.52	12.517
490.87	12.124
491.22	12.560
491.56	12.097
491.91	12.189
492.26	12.299
492.60	12.668
492.95	12.887
493.30	11.920
493.64	12.623
493.99	12.077
494.34	12.039
494.68	12.000
495.03	11.533
495.37	11.923
495.72	12.519
496.07	12.293
496.41	11.887
496.76	12.437
497.11	12.017
497.45	12.554
497.80	11.958
498.14	12.370
498.49	11.478
498.84	12.974
499.18	12.450
499.53	12.153
499.87	11.770
500.22	11.968
500.56	11.750
500.91	12.199
501.26	11.320
501.60	12.199
501.95	12.179
502.29	12.494
502.64	12.114
502.98	11.939
503.33	11.575
503.67	11.807
504.02	11.828
504.36	12.370
504.71	11.818
505.06	11.626
505.40	11.929
505.75	12.320
506.09	11.759
506.44	12.372
506.78	12.449
507.13	11.737
507.47	11.436
507.82	11.218
508.16	11.146
508.51	11.857
508.85	12.350
509.19	11.549
509.54	11.421
509.88	11.165
510.23	11.565
510.57	11.812
510.92	11.141
511.26	11.348
511.61	11.166
511.95	11.945
512.30	11.419
512.64	12.020
512.98	11.230
513.33	12.255
513.67	11.541
514.02	12.243
514.36	11.943
514.70	11.888
515.05	12.338
515.39	11.570
515.74	11.677
516.08	11.417
516.42	12.367
516.77	11.995
517.11	11.039
517.46	10.652
517.80	11.323
518.14	11.390
518.49	11.178
518.83	11.422
519.17	10.794
519.52	11.723
519.86	10.924
520.20	11.604
520.55	10.319
520.89	11.418
521.23	12.033
521.58	11.987
521.92	10.962
522.26	11.126
522.61	11.558
522.95	11.788
523.29	11.817
523.64	11.563
523.98	11.342
524.32	11.340
524.66	12.036
525.01	11.494
525.35	11.860
525.69	10.909
526.04	10.053
526.38	11.284
526.72	10.988
527.06	11.089
527.41	11.675
527.75	10.657
528.09	11.030
528.43	11.749
528.78	10.693
529.12	11.355
529.46	11.631
529.80	11.906
530.15	10.957
530.49	10.438
530.83	11.423
531.17	10.611
531.51	10.739
531.86	9.653
532.20	11.065
532.54	10.960
532.88	11.773
533.22	11.559
533.57	10.813
533.91	10.313
534.25	11.654
534.59	10.135
534.93	11.265
535.27	10.470
535.62	10.305
535.96	11.220
536.30	11.939
536.64	10.820
536.98	10.662
537.32	10.597
537.66	11.851
538.01	10.490
538.35	11.096
538.69	11.851
539.03	10.390
539.37	11.104
539.71	10.907
540.05	10.319
540.39	10.388
540.73	11.018
541.07	10.497
541.42	11.559
541.76	10.805
542.10	9.704
542.44	10.424
542.78	10.186
543.12	10.371
543.46	10.570
543.80	10.687
544.14	10.481
544.48	10.859
544.82	10.321
545.16	10.997
545.50	10.814
545.84	10.694
546.18	11.064
546.52	10.310
546.86	10.137
547.20	10.944
547.54	9.682
547.88	11.073
548.22	9.599
548.56	10.752
548.90	10.512
549.24	9.780
549.58	11.213
549.92	9.650
550.26	9.744
550.60	10.335
550.94	10.754
551.28	11.051
551.62	9.923
551.96	9.624
552.30	9.430
552.64	10.719
552.98	10.056
553.32	9.130
553.66	9.579
554.00	9.635
554.34	10.044
554.68	10.472
555.02	10.565
555.36	9.948
555.69	8.352
556.03	9.636
556.37	8.897
556.71	9.097
557.05	10.515
557.39	8.848
557.73	10.195
558.07	9.955
558.41	8.346
558.75	9.275
559.08	8.747
559.42	9.762
559.76	9.047
560.10	9.709
560.44	8.935
560.78	9.930
561.12	9.520
561.45	9.417
561.79	9.524
562.13	9.084
562.47	8.993
562.81	9.294
563.15	9.873
563.48	10.113
563.82	9.883
564.16	8.565
564.50	9.122
564.84	10.174
565.17	9.926
565.51	10.246
565.85	10.357
566.19	10.279
566.52	9.249
566.86	10.733
567.20	8.904
567.54	9.063
567.88	9.959
568.21	10.181
568.55	9.348
568.89	9.908
569.23	9.581
569.56	8.932
569.90	10.191
570.24	9.751
570.57	9.891
570.91	10.422
571.25	9.602
571.59	9.467
571.92	9.511
572.26	8.998
572.60	9.488
572.93	9.758
573.27	9.279
573.61	9.517
573.95	9.530
574.28	9.296
574.62	9.230
574.96	9.449
575.29	9.566
575.63	9.303
575.97	9.379
576.30	9.446
576.64	8.927
576.98	9.858
577.31	9.363
577.65	9.794
577.98	9.510
578.32	9.364
578.66	9.112
578.99	9.125
579.33	8.893
579.67	9.336
580.00	9.367
580.34	9.229
580.67	9.248
581.01	9.702
581.35	9.496
581.68	9.644
582.02	9.084
582.35	9.452
582.69	9.408
583.02	9.229
583.36	9.179
583.70	9.398
584.03	9.258
584.37	9.853
584.70	9.588
585.04	8.860
585.37	9.361
585.71	9.109
586.04	9.102
586.38	9.389
586.72	9.326
587.05	9.330
587.39	9.533
587.72	9.486
588.06	9.244
588.39	9.114
588.73	9.341
589.06	9.524
589.40	9.506
589.73	9.456
590.07	9.215
590.40	8.940
590.73	9.308
591.07	9.160
591.40	9.216
591.74	8.914
592.07	9.462
592.41	9.364
592.74	9.438
593.08	8.802
593.41	9.127
593.75	8.832
594.08	8.617
594.41	9.207
594.75	8.855
595.08	9.043
595.42	9.091
595.75	8.975
596.09	9.030
596.42	8.475
596.75	9.325
597.09	9.021
597.42	9.124
597.75	8.612
598.09	8.646
598.42	8.078
598.76	9.224
599.09	9.295
599.42	8.867
599.76	9.067
600.09	8.748
600.42	9.060
600.76	8.730
601.09	8.321
601.42	8.735
601.76	8.734
602.09	8.705
602.42	8.888
602.76	9.083
603.09	9.095
603.42	9.281
603.76	8.508
604.09	8.303
604.42	8.672
604.76	9.479
605.09	9.644
605.42	8.984
605.75	8.450
606.09	8.662
606.42	8.465
606.75	8.831
607.09	9.275
607.42	8.551
607.75	8.659
608.08	8.670
608.42	9.045
608.75	8.530
609.08	8.520
609.41	8.629
609.75	8.115
610.08	8.487
610.41	8.309
610.74	7.996
611.07	9.044
611.41	7.836
611.74	9.275
612.07	7.602
612.40	8.042
612.73	7.740
613.07	8.211
613.40	9.026
613.73	8.226
614.06	8.125
614.39	8.404
614.72	8.123
615.06	8.268
615.39	7.806
615.72	8.127
616.05	8.659
616.38	7.806
616.71	8.746
617.05	8.771
617.38	8.045
617.71	8.302
618.04	8.000
618.37	9.584
618.70	8.845
619.03	9.028
619.36	7.525
619.69	8.491
620.03	8.327
620.36	7.797
620.69	7.852
621.02	7.798
621.35	7.884
621.68	7.738
622.01	7.667
622.34	9.258
622.67	8.438
623.00	8.499
623.33	8.079
623.66	8.302
623.99	8.623
624.32	7.985
624.65	7.143
624.99	8.503
625.32	7.657
625.65	8.405
625.98	9.186
626.31	7.980
626.64	7.972
626.97	8.988
627.30	7.356
627.63	8.059
627.96	8.446
628.29	8.418
628.62	8.063
628.95	7.515
629.28	6.452
629.61	7.777
629.94	8.993
630.26	8.300
630.59	7.596
630.92	8.205
631.25	7.692
631.58	7.269
631.91	7.018
632.24	6.881
632.57	8.182
632.90	8.660
633.23	7.529
633.56	7.557
633.89	7.152
634.22	8.519
634.55	6.861
634.88	6.769
635.20	6.795
635.53	7.600
635.86	7.152
636.19	8.279
636.52	7.143
636.85	8.189
637.18	5.912
637.51	7.044
637.83	6.702
638.16	8.868
638.49	6.131
638.82	8.553
639.15	6.377
639.48	6.878
639.81	6.974
640.13	6.782
640.46	7.434
640.79	7.364
641.12	5.613
641.45	7.357
641.77	6.074
642.10	8.847
642.43	4.341
642.76	5.776
