SpectraSuite Data File
++++++++++++++++++++++++++++++++++++
Date: Fri May 15 20:48:02 PDT 2015
User: schluterlab
Dark Spectrum Present: Yes
Reference Spectrum Present: Yes
Number of Sampled Component Spectra: 1
Spectrometers: USB2E3373
Integration Time (usec): 3000 (USB2E3373)
Spectra Averaged: 3 (USB2E3373)
Boxcar Smoothing: 0 (USB2E3373)
Correct for Electrical Dark: No (USB2E3373)
Strobe/Lamp Enabled: No (USB2E3373)
Correct for Detector Non-linearity: No (USB2E3373)
Correct for Stray Light: No (USB2E3373)
Number of Pixels in Processed Spectrum: 2048
>>>>>Begin Processed Spectral Data<<<<<
178.53	0.000
178.91	0.000
179.29	-12.500
179.67	-300.000
180.04	28.571
180.42	100.000
180.80	-200.000
181.18	-66.667
181.56	700.000
181.94	150.000
182.31	1200.000
182.69	-80.000
183.07	-466.667
183.45	-200.000
183.83	150.000
184.20	-45.455
184.58	144.444
184.96	250.000
185.34	-33.333
185.72	-850.000
186.09	76.923
186.47	-1600.000
186.85	233.333
187.23	222.222
187.61	1100.000
187.98	0.000
188.36	-66.667
188.74	-33.333
189.12	-35.294
189.49	-27.778
189.87	0.000
190.25	-28.571
190.63	100.000
191.00	-166.667
191.38	-47.368
191.76	0.000
192.14	25.000
192.51	100.000
192.89	66.667
193.27	-200.000
193.65	183.333
194.02	209.091
194.40	-60.000
194.78	-212.500
195.15	-83.333
195.53	0.000
195.91	100.000
196.29	-300.000
196.66	23.077
197.04	142.857
197.42	-111.111
197.79	-566.667
198.17	-192.308
198.55	1700.000
198.92	-266.667
199.30	-800.000
199.68	-140.000
200.05	-100.000
200.43	0.000
200.81	-33.333
201.18	-333.333
201.56	1500.000
201.94	-400.000
202.31	233.333
202.69	80.000
203.07	475.000
203.44	100.000
203.82	0.000
204.19	14.286
204.57	-733.333
204.95	212.500
205.32	20.000
205.70	42.857
206.08	75.000
206.45	133.333
206.83	0.000
207.20	-28.571
207.58	300.000
207.96	-300.000
208.33	-70.000
208.71	-150.000
209.08	-166.667
209.46	-800.000
209.84	-100.000
210.21	-500.000
210.59	-42.857
210.96	-183.333
211.34	-50.000
211.71	33.333
212.09	-171.429
212.46	-1400.000
212.84	0.000
213.22	-10.000
213.59	300.000
213.97	23.077
214.34	36.364
214.72	16.667
215.09	325.000
215.47	46.154
215.84	-27.273
216.22	-533.333
216.59	-75.000
216.97	-350.000
217.34	-50.000
217.72	-100.000
218.09	75.000
218.47	187.500
218.84	-1100.000
219.22	-88.889
219.59	-120.000
219.97	266.667
220.34	450.000
220.72	-57.143
221.09	-300.000
221.47	-200.000
221.84	-300.000
222.22	-1000.000
222.59	0.000
222.97	33.333
223.34	-500.000
223.72	-21.429
224.09	-23.810
224.46	35.714
224.84	466.667
225.21	30.000
225.59	-6.667
225.96	-150.000
226.34	450.000
226.71	-85.714
227.08	-100.000
227.46	75.000
227.83	-750.000
228.21	0.000
228.58	-100.000
228.95	-62.500
229.33	100.000
229.70	6.250
230.08	-62.500
230.45	-128.571
230.82	-42.857
231.20	33.333
231.57	57.143
231.95	-42.857
232.32	-80.000
232.69	92.857
233.07	-33.333
233.44	-160.000
233.81	-10.000
234.19	33.333
234.56	-47.059
234.93	500.000
235.31	150.000
235.68	-240.000
236.05	-69.231
236.43	-60.000
236.80	-17.647
237.17	-6.250
237.55	-20.000
237.92	-14.815
238.29	5.556
238.67	-6.667
239.04	-2.941
239.41	-24.390
239.79	26.667
240.16	7.317
240.53	13.158
240.91	0.000
241.28	15.873
241.65	32.143
242.02	16.438
242.40	13.333
242.77	22.034
243.14	9.091
243.51	16.250
243.89	21.839
244.26	6.897
244.63	16.667
245.00	28.866
245.38	18.557
245.75	8.989
246.12	17.241
246.49	22.314
246.87	28.846
247.24	21.849
247.61	9.649
247.98	19.512
248.36	16.250
248.73	18.421
249.10	14.286
249.47	15.823
249.84	21.569
250.22	23.529
250.59	22.222
250.96	23.474
251.33	20.349
251.70	23.529
252.08	23.858
252.45	28.218
252.82	22.613
253.19	20.737
253.56	13.551
253.94	20.721
254.31	23.043
254.68	22.368
255.05	16.535
255.42	20.087
255.79	23.552
256.16	22.957
256.54	23.134
256.91	18.251
257.28	20.074
257.65	16.479
258.02	20.213
258.39	21.549
258.76	24.908
259.14	24.917
259.51	20.712
259.88	17.182
260.25	21.569
260.62	21.181
260.99	19.322
261.36	19.521
261.73	20.886
262.10	21.581
262.47	19.632
262.85	20.690
263.22	20.308
263.59	20.249
263.96	21.429
264.33	22.727
264.70	19.643
265.07	18.155
265.44	22.096
265.81	21.469
266.18	19.399
266.55	19.537
266.92	22.798
267.29	24.021
267.66	21.995
268.03	22.513
268.40	22.977
268.77	21.658
269.14	21.583
269.51	21.594
269.88	20.948
270.25	22.959
270.62	19.024
270.99	19.693
271.36	20.538
271.73	19.014
272.10	23.358
272.47	20.804
272.84	21.782
273.21	19.026
273.58	23.855
273.95	18.078
274.32	20.323
274.69	19.683
275.06	20.313
275.43	19.728
275.80	22.517
276.17	18.851
276.54	22.698
276.91	21.711
277.28	19.214
277.65	21.901
278.02	19.574
278.39	22.101
278.76	21.384
279.13	17.842
279.50	19.748
279.87	20.950
280.23	20.430
280.60	21.832
280.97	21.414
281.34	17.308
281.71	23.203
282.08	19.427
282.45	19.961
282.82	21.815
283.19	22.050
283.56	21.580
283.92	19.734
284.29	20.192
284.66	17.636
285.03	20.039
285.40	19.660
285.77	20.035
286.14	18.592
286.51	21.956
286.87	18.464
287.24	20.442
287.61	19.400
287.98	20.702
288.35	19.584
288.72	19.965
289.08	19.097
289.45	19.332
289.82	19.930
290.19	17.747
290.56	17.324
290.93	17.340
291.29	16.795
291.66	18.110
292.03	16.427
292.40	17.903
292.77	15.789
293.13	16.396
293.50	15.781
293.87	16.947
294.24	17.620
294.60	15.499
294.97	18.006
295.34	14.571
295.71	15.648
296.08	15.845
296.44	15.932
296.81	16.806
297.18	15.942
297.55	17.344
297.91	14.658
298.28	17.678
298.65	15.332
299.02	16.173
299.38	14.364
299.75	14.207
300.12	14.791
300.48	16.469
300.85	17.110
301.22	14.935
301.59	13.421
301.95	14.684
302.32	15.694
302.69	14.428
303.05	13.738
303.42	14.570
303.79	16.472
304.15	16.726
304.52	13.674
304.89	12.865
305.25	13.559
305.62	14.119
305.99	14.620
306.35	13.410
306.72	12.711
307.09	12.999
307.45	15.270
307.82	13.773
308.19	14.518
308.55	14.395
308.92	15.577
309.29	13.743
309.65	12.487
310.02	14.191
310.38	14.160
310.75	14.645
311.12	13.348
311.48	14.634
311.85	13.403
312.22	13.186
312.58	13.694
312.95	13.020
313.31	15.010
313.68	15.393
314.05	13.367
314.41	16.082
314.78	16.289
315.14	15.416
315.51	15.321
315.87	15.266
316.24	15.672
316.61	15.748
316.97	15.575
317.34	16.309
317.70	16.348
318.07	14.615
318.43	16.275
318.80	16.288
319.16	17.188
319.53	18.708
319.89	17.224
320.26	18.219
320.62	18.957
320.99	17.641
321.35	19.836
321.72	19.522
322.08	20.242
322.45	19.594
322.81	19.843
323.18	20.412
323.54	20.270
323.91	20.935
324.27	20.117
324.64	21.255
325.00	23.175
325.37	22.773
325.73	22.303
326.10	23.342
326.46	24.664
326.83	24.759
327.19	24.412
327.56	25.804
327.92	26.496
328.29	25.982
328.65	27.453
329.01	26.746
329.38	28.940
329.74	27.951
330.11	28.360
330.47	26.623
330.84	28.654
331.20	30.418
331.56	28.241
331.93	29.863
332.29	29.331
332.66	29.683
333.02	29.554
333.38	29.973
333.75	29.212
334.11	28.469
334.48	31.006
334.84	31.593
335.20	30.375
335.57	30.553
335.93	30.352
336.29	30.847
336.66	30.245
337.02	30.855
337.38	31.296
337.75	31.727
338.11	31.199
338.47	33.303
338.84	31.516
339.20	31.901
339.56	32.294
339.93	32.766
340.29	32.110
340.65	31.093
341.02	31.028
341.38	31.770
341.74	31.095
342.11	30.676
342.47	32.740
342.83	32.612
343.20	31.707
343.56	33.652
343.92	31.621
344.28	31.768
344.65	31.088
345.01	33.362
345.37	32.044
345.73	33.640
346.10	33.218
346.46	31.876
346.82	31.588
347.19	32.336
347.55	32.414
347.91	32.524
348.27	32.336
348.63	32.453
349.00	31.747
349.36	32.918
349.72	33.416
350.08	33.279
350.45	31.844
350.81	32.475
351.17	32.003
351.53	33.878
351.89	31.792
352.26	32.960
352.62	33.387
352.98	32.932
353.34	32.609
353.70	33.576
354.07	33.790
354.43	33.066
354.79	32.453
355.15	33.651
355.51	32.911
355.87	33.981
356.24	32.708
356.60	33.630
356.96	33.730
357.32	34.665
357.68	32.916
358.04	33.441
358.40	33.842
358.77	35.407
359.13	33.307
359.49	32.666
359.85	34.243
360.21	35.008
360.57	34.583
360.93	34.342
361.29	32.855
361.66	34.013
362.02	34.242
362.38	35.872
362.74	34.898
363.10	35.214
363.46	34.915
363.82	34.636
364.18	34.022
364.54	34.926
364.90	35.842
365.26	34.643
365.62	36.788
365.98	36.217
366.35	36.344
366.71	36.068
367.07	35.196
367.43	34.867
367.79	35.124
368.15	36.181
368.51	35.907
368.87	34.961
369.23	35.162
369.59	36.880
369.95	36.364
370.31	38.150
370.67	36.418
371.03	37.043
371.39	35.886
371.75	36.484
372.11	36.662
372.47	37.130
372.83	37.402
373.19	37.161
373.55	36.968
373.91	36.357
374.27	37.066
374.63	38.263
374.99	36.241
375.35	36.978
375.71	37.063
376.07	36.236
376.42	37.891
376.78	37.315
377.14	37.035
377.50	37.981
377.86	37.015
378.22	38.098
378.58	37.244
378.94	36.673
379.30	37.617
379.66	37.680
380.02	36.787
380.38	36.945
380.74	37.582
381.09	39.202
381.45	37.737
381.81	38.371
382.17	37.500
382.53	37.914
382.89	39.297
383.25	38.643
383.61	39.207
383.97	39.238
384.32	39.087
384.68	39.690
385.04	38.358
385.40	39.203
385.76	40.943
386.12	40.815
386.48	41.060
386.83	39.759
387.19	40.415
387.55	40.276
387.91	39.914
388.27	39.194
388.62	40.088
388.98	39.963
389.34	40.537
389.70	40.646
390.06	39.270
390.42	40.868
390.77	40.942
391.13	39.723
391.49	42.238
391.85	41.196
392.20	40.490
392.56	40.750
392.92	41.104
393.28	40.861
393.64	41.321
393.99	42.257
394.35	40.797
394.71	41.890
395.07	40.855
395.42	40.316
395.78	40.651
396.14	41.425
396.50	42.549
396.85	42.305
397.21	42.920
397.57	42.257
397.92	41.222
398.28	42.356
398.64	40.783
399.00	42.946
399.35	40.632
399.71	41.356
400.07	42.987
400.42	42.411
400.78	42.682
401.14	42.529
401.49	44.014
401.85	42.596
402.21	42.651
402.57	43.437
402.92	41.970
403.28	43.296
403.63	44.641
403.99	42.730
404.35	43.660
404.70	42.560
405.06	41.069
405.42	42.387
405.77	42.940
406.13	43.772
406.49	43.221
406.84	43.276
407.20	43.227
407.55	43.078
407.91	43.516
408.27	44.359
408.62	44.554
408.98	43.561
409.34	44.238
409.69	43.669
410.05	43.411
410.40	44.136
410.76	44.934
411.11	44.250
411.47	44.444
411.83	43.001
412.18	43.951
412.54	43.571
412.89	43.904
413.25	43.682
413.60	44.596
413.96	43.988
414.31	43.780
414.67	43.938
415.03	44.075
415.38	43.603
415.74	45.016
416.09	45.265
416.45	46.050
416.80	44.019
417.16	47.721
417.51	46.103
417.87	45.763
418.22	46.632
418.58	45.753
418.93	46.332
419.29	44.622
419.64	46.209
420.00	46.537
420.35	44.597
420.71	45.930
421.06	46.347
421.42	46.514
421.77	45.145
422.12	45.403
422.48	45.154
422.83	45.128
423.19	46.332
423.54	45.091
423.90	45.053
424.25	47.015
424.61	46.389
424.96	46.341
425.31	47.545
425.67	46.831
426.02	47.585
426.38	47.464
426.73	47.700
427.09	48.228
427.44	47.235
427.79	47.024
428.15	47.087
428.50	47.971
428.85	45.209
429.21	47.029
429.56	47.493
429.92	46.225
430.27	46.466
430.62	46.472
430.98	47.134
431.33	47.950
431.68	47.462
432.04	48.016
432.39	47.176
432.74	46.603
433.10	47.759
433.45	47.551
433.80	48.462
434.16	47.978
434.51	47.527
434.86	48.432
435.22	48.121
435.57	48.908
435.92	48.623
436.28	48.360
436.63	48.374
436.98	48.725
437.34	47.973
437.69	49.314
438.04	47.863
438.39	47.526
438.75	48.877
439.10	48.613
439.45	49.848
439.81	47.523
440.16	49.584
440.51	49.433
440.86	50.453
441.22	48.473
441.57	49.614
441.92	50.052
442.27	49.169
442.63	49.465
442.98	48.995
443.33	48.915
443.68	48.647
444.03	48.982
444.39	49.287
444.74	50.669
445.09	48.831
445.44	49.117
445.79	50.077
446.15	48.513
446.50	49.861
446.85	49.681
447.20	48.488
447.55	49.609
447.91	49.239
448.26	49.516
448.61	49.626
448.96	50.143
449.31	49.942
449.66	49.652
450.02	49.572
450.37	51.452
450.72	49.542
451.07	50.380
451.42	48.876
451.77	49.910
452.12	48.206
452.47	49.646
452.83	49.411
453.18	49.715
453.53	50.506
453.88	50.213
454.23	50.338
454.58	50.441
454.93	51.095
455.28	49.905
455.63	50.341
455.98	49.850
456.34	49.936
456.69	50.508
457.04	51.166
457.39	51.094
457.74	50.665
458.09	48.323
458.44	50.673
458.79	48.908
459.14	50.000
459.49	50.448
459.84	49.803
460.19	50.121
460.54	51.284
460.89	51.250
461.24	50.186
461.59	50.831
461.94	50.063
462.29	49.879
462.64	51.827
462.99	51.523
463.34	50.348
463.69	50.708
464.04	51.453
464.39	51.304
464.74	50.000
465.09	50.780
465.44	50.894
465.79	49.036
466.14	50.456
466.49	51.006
466.84	50.863
467.19	50.063
467.54	50.702
467.89	51.674
468.24	51.703
468.59	52.571
468.94	50.603
469.29	53.049
469.64	51.606
469.99	53.048
470.34	51.195
470.68	52.796
471.03	53.220
471.38	51.712
471.73	53.011
472.08	52.239
472.43	53.960
472.78	51.337
473.13	51.565
473.48	52.117
473.83	51.743
474.17	52.591
474.52	52.329
474.87	52.667
475.22	52.044
475.57	51.666
475.92	52.057
476.27	52.503
476.61	54.167
476.96	51.366
477.31	51.812
477.66	52.528
478.01	53.172
478.36	52.124
478.70	53.453
479.05	53.297
479.40	53.789
479.75	52.190
480.10	51.408
480.45	53.350
480.79	53.474
481.14	54.457
481.49	52.365
481.84	53.185
482.19	50.935
482.53	52.038
482.88	52.124
483.23	51.631
483.58	51.698
483.92	51.452
484.27	51.139
484.62	50.964
484.97	51.119
485.31	50.253
485.66	47.528
486.01	46.985
486.36	47.438
486.70	48.270
487.05	49.609
487.40	49.069
487.75	49.831
488.09	50.216
488.44	50.241
488.79	50.990
489.13	52.123
489.48	52.245
489.83	52.018
490.17	52.000
490.52	53.164
490.87	51.828
491.22	53.438
491.56	52.799
491.91	52.868
492.26	53.768
492.60	52.687
492.95	54.156
493.30	51.979
493.64	53.487
493.99	52.464
494.34	52.718
494.68	53.095
495.03	53.382
495.37	53.484
495.72	54.064
496.07	54.244
496.41	52.594
496.76	53.155
497.11	52.073
497.45	53.890
497.80	54.137
498.14	53.701
498.49	53.276
498.84	53.792
499.18	53.966
499.53	54.167
499.87	53.696
500.22	53.561
500.56	54.715
500.91	53.614
501.26	52.842
501.60	54.107
501.95	54.634
502.29	53.656
502.64	54.247
502.98	55.106
503.33	53.842
503.67	54.506
504.02	54.692
504.36	54.132
504.71	53.687
505.06	54.051
505.40	54.416
505.75	56.134
506.09	54.688
506.44	55.236
506.78	55.153
507.13	54.654
507.47	55.718
507.82	56.303
508.16	54.939
508.51	55.824
508.85	56.149
509.19	55.508
509.54	55.335
509.88	55.825
510.23	56.267
510.57	55.959
510.92	55.277
511.26	56.901
511.61	57.536
511.95	58.137
512.30	57.206
512.64	57.652
512.98	57.945
513.33	56.911
513.67	58.727
514.02	60.297
514.36	60.171
514.70	59.732
515.05	60.341
515.39	58.501
515.74	60.719
516.08	60.610
516.42	60.601
516.77	60.562
517.11	60.356
517.46	61.221
517.80	60.846
518.14	62.400
518.49	59.555
518.83	60.510
519.17	59.733
519.52	60.213
519.86	60.924
520.20	61.968
520.55	60.725
520.89	62.673
521.23	61.811
521.58	63.722
521.92	63.590
522.26	63.435
522.61	62.597
522.95	65.629
523.29	63.278
523.64	63.405
523.98	64.744
524.32	63.918
524.66	64.469
525.01	64.091
525.35	64.355
525.69	65.118
526.04	64.418
526.38	65.240
526.72	62.917
527.06	63.554
527.41	64.974
527.75	63.204
528.09	63.987
528.43	64.754
528.78	65.281
529.12	63.871
529.46	64.263
529.80	63.965
530.15	65.941
530.49	65.724
530.83	66.279
531.17	65.144
531.51	67.031
531.86	65.398
532.20	64.997
532.54	65.827
532.88	65.435
533.22	65.726
533.57	64.024
533.91	63.708
534.25	65.560
534.59	64.336
534.93	64.065
535.27	63.832
535.62	62.994
535.96	65.949
536.30	65.963
536.64	67.402
536.98	65.854
537.32	66.572
537.66	67.041
538.01	65.874
538.35	66.089
538.69	64.913
539.03	64.388
539.37	64.536
539.71	65.303
540.05	64.426
540.39	65.928
540.73	64.296
541.07	65.055
541.42	64.516
541.76	67.240
542.10	65.520
542.44	64.698
542.78	64.006
543.12	65.522
543.46	65.925
543.80	67.037
544.14	64.486
544.48	64.757
544.82	65.619
545.16	66.257
545.50	65.287
545.84	66.572
546.18	66.525
546.52	66.474
546.86	66.068
547.20	67.883
547.54	65.936
547.88	65.693
548.22	64.037
548.56	63.786
548.90	66.105
549.24	65.702
549.58	66.220
549.92	64.832
550.26	65.714
550.60	66.766
550.94	68.185
551.28	69.165
551.62	68.462
551.96	67.143
552.30	67.544
552.64	65.656
552.98	66.104
553.32	65.763
553.66	65.022
554.00	67.226
554.34	68.168
554.68	67.183
555.02	67.188
555.36	68.960
555.69	66.374
556.03	65.667
556.37	66.050
556.71	66.715
557.05	67.860
557.39	65.799
557.73	67.916
558.07	68.250
558.41	67.764
558.75	67.888
559.08	68.479
559.42	69.206
559.76	69.416
560.10	68.578
560.44	66.567
560.78	66.364
561.12	66.573
561.45	67.674
561.79	65.476
562.13	66.572
562.47	66.763
562.81	67.219
563.15	65.021
563.48	67.256
563.82	67.536
564.16	65.877
564.50	65.270
564.84	65.730
565.17	64.923
565.51	67.623
565.85	67.490
566.19	66.910
566.52	66.153
566.86	66.645
567.20	64.010
567.54	65.450
567.88	65.085
568.21	64.140
568.55	63.533
568.89	64.271
569.23	61.868
569.56	62.303
569.90	61.551
570.24	58.169
570.57	60.291
570.91	60.091
571.25	58.796
571.59	58.144
571.92	57.156
572.26	57.428
572.60	57.178
572.93	57.484
573.27	56.771
573.61	57.757
573.95	57.482
574.28	56.356
574.62	56.039
574.96	55.497
575.29	55.805
575.63	54.496
575.97	55.706
576.30	56.087
576.64	55.470
576.98	56.680
577.31	56.943
577.65	55.849
577.98	55.220
578.32	55.308
578.66	54.288
578.99	55.545
579.33	55.109
579.67	55.690
580.00	56.152
580.34	56.468
580.67	55.440
581.01	55.596
581.35	55.426
581.68	55.009
582.02	54.762
582.35	55.023
582.69	55.045
583.02	54.561
583.36	55.477
583.70	56.334
584.03	57.965
584.37	57.820
584.70	57.060
585.04	55.492
585.37	55.577
585.71	55.789
586.04	54.791
586.38	55.375
586.72	57.475
587.05	56.875
587.39	56.584
587.72	57.518
588.06	56.878
588.39	57.448
588.73	57.021
589.06	57.730
589.40	58.106
589.73	59.182
590.07	59.177
590.40	59.288
590.73	60.791
591.07	60.008
591.40	59.662
591.74	60.317
592.07	60.158
592.41	60.027
592.74	58.463
593.08	57.003
593.41	57.727
593.75	56.984
594.08	57.055
594.41	58.261
594.75	57.443
595.08	58.456
595.42	57.821
595.75	58.919
596.09	58.561
596.42	60.190
596.75	59.591
597.09	59.727
597.42	58.853
597.75	60.650
598.09	59.212
598.42	59.116
598.76	59.245
599.09	58.694
599.42	56.915
599.76	57.938
600.09	57.541
600.42	57.278
600.76	56.872
601.09	58.664
601.42	57.697
601.76	59.031
602.09	59.447
602.42	59.478
602.76	59.550
603.09	59.219
603.42	61.246
603.76	57.903
604.09	58.809
604.42	59.983
604.76	59.546
605.09	60.055
605.42	59.187
605.75	59.282
606.09	58.301
606.42	58.507
606.75	58.528
607.09	58.154
607.42	58.352
607.75	58.792
608.08	58.535
608.42	58.566
608.75	60.530
609.08	60.937
609.41	60.508
609.75	60.131
610.08	60.409
610.41	59.179
610.74	59.288
611.07	61.395
611.41	61.131
611.74	61.247
612.07	60.064
612.40	61.926
612.73	62.260
613.07	60.630
613.40	61.707
613.73	62.395
614.06	61.324
614.39	61.252
614.72	61.457
615.06	61.453
615.39	60.207
615.72	60.280
616.05	61.341
616.38	60.627
616.71	62.813
617.05	63.125
617.38	62.791
617.71	63.962
618.04	63.619
618.37	63.619
618.70	63.366
619.03	65.208
619.36	64.761
619.69	66.641
620.03	66.107
620.36	65.021
620.69	63.812
621.02	65.443
621.35	67.220
621.68	68.112
622.01	66.500
622.34	65.682
622.67	67.508
623.00	64.012
623.33	65.625
623.66	65.295
623.99	63.843
624.32	65.475
624.65	64.511
624.99	66.215
625.32	63.760
625.65	68.185
625.98	67.768
626.31	65.170
626.64	70.104
626.97	67.539
627.30	68.214
627.63	68.544
627.96	69.362
628.29	68.363
628.62	69.125
628.95	70.541
629.28	70.766
629.61	70.189
629.94	70.381
630.26	70.850
630.59	70.656
630.92	70.256
631.25	69.949
631.58	74.009
631.91	70.833
632.24	74.312
632.57	75.909
632.90	71.767
633.23	71.882
