SpectraSuite Data File
++++++++++++++++++++++++++++++++++++
Date: Fri May 15 20:38:21 PDT 2015
User: schluterlab
Dark Spectrum Present: Yes
Reference Spectrum Present: Yes
Number of Sampled Component Spectra: 1
Spectrometers: USB2E3373
Integration Time (usec): 3000 (USB2E3373)
Spectra Averaged: 3 (USB2E3373)
Boxcar Smoothing: 0 (USB2E3373)
Correct for Electrical Dark: No (USB2E3373)
Strobe/Lamp Enabled: No (USB2E3373)
Correct for Detector Non-linearity: No (USB2E3373)
Correct for Stray Light: No (USB2E3373)
Number of Pixels in Processed Spectrum: 2048
>>>>>Begin Processed Spectral Data<<<<<
178.53	0.000
178.91	0.000
179.29	50.000
179.67	-450.000
180.04	14.286
180.42	50.000
180.80	-1100.000
181.18	466.667
181.56	600.000
181.94	-100.000
182.31	600.000
182.69	-20.000
183.07	200.000
183.45	-220.000
183.83	216.667
184.20	36.364
184.58	133.333
184.96	25.000
185.34	300.000
185.72	-300.000
186.09	84.615
186.47	-100.000
186.85	183.333
187.23	144.444
187.61	400.000
187.98	-166.667
188.36	-11.111
188.74	0.000
189.12	47.059
189.49	22.222
189.87	0.000
190.25	57.143
190.63	200.000
191.00	-166.667
191.38	5.263
191.76	150.000
192.14	200.000
192.51	-350.000
192.89	11.111
193.27	-128.571
193.65	116.667
194.02	63.636
194.40	80.000
194.78	-187.500
195.15	33.333
195.53	-62.500
195.91	125.000
196.29	-25.000
196.66	76.923
197.04	100.000
197.42	-33.333
197.79	-333.333
198.17	-130.769
198.55	1400.000
198.92	-233.333
199.30	400.000
199.68	-40.000
200.05	-300.000
200.43	0.000
200.81	-200.000
201.18	0.000
201.56	1000.000
201.94	-400.000
202.31	-233.333
202.69	-140.000
203.07	25.000
203.44	500.000
203.82	0.000
204.19	-21.429
204.57	-500.000
204.95	175.000
205.32	-50.000
205.70	-14.286
206.08	-200.000
206.45	33.333
206.83	57.143
207.20	-185.714
207.58	400.000
207.96	-33.333
208.33	-90.000
208.71	75.000
209.08	-116.667
209.46	-400.000
209.84	-20.000
210.21	-1000.000
210.59	-71.429
210.96	-50.000
211.34	-75.000
211.71	66.667
212.09	-42.857
212.46	-1000.000
212.84	0.000
213.22	50.000
213.59	650.000
213.97	100.000
214.34	27.273
214.72	-83.333
215.09	400.000
215.47	-61.538
215.84	-45.455
216.22	-266.667
216.59	0.000
216.97	150.000
217.34	-125.000
217.72	-60.000
218.09	-12.500
218.47	162.500
218.84	-300.000
219.22	-66.667
219.59	-140.000
219.97	133.333
220.34	150.000
220.72	-114.286
221.09	-50.000
221.47	100.000
221.84	-300.000
222.22	-300.000
222.59	81.818
222.97	41.667
223.34	-300.000
223.72	-14.286
224.09	-23.810
224.46	14.286
224.84	300.000
225.21	30.000
225.59	-60.000
225.96	-150.000
226.34	325.000
226.71	-85.714
227.08	-116.667
227.46	0.000
227.83	-550.000
228.21	22.222
228.58	-27.273
228.95	12.500
229.33	70.000
229.70	0.000
230.08	-137.500
230.45	-185.714
230.82	42.857
231.20	33.333
231.57	35.714
231.95	57.143
232.32	-90.000
232.69	14.286
233.07	66.667
233.44	-140.000
233.81	-90.000
234.19	44.444
234.56	-23.529
234.93	450.000
235.31	100.000
235.68	-60.000
236.05	-7.692
236.43	-5.000
236.80	17.647
237.17	40.625
237.55	45.000
237.92	11.111
238.29	27.778
238.67	6.667
239.04	14.706
239.41	4.878
239.79	16.667
240.16	31.707
240.53	31.579
240.91	17.391
241.28	47.619
241.65	39.286
242.02	35.616
242.40	45.000
242.77	50.847
243.14	24.242
243.51	22.500
243.89	42.529
244.26	28.736
244.63	44.048
245.00	43.299
245.38	48.454
245.75	23.596
246.12	33.621
246.49	42.149
246.87	45.192
247.24	47.059
247.61	32.456
247.98	43.089
248.36	34.375
248.73	34.868
249.10	47.403
249.47	39.241
249.84	45.098
250.22	41.176
250.59	37.908
250.96	41.315
251.33	45.930
251.70	44.118
252.08	39.086
252.45	38.119
252.82	42.211
253.19	43.318
253.56	44.393
253.94	44.144
254.31	40.000
254.68	45.614
255.05	41.339
255.42	48.472
255.79	47.104
256.16	46.693
256.54	45.896
256.91	38.783
257.28	44.981
257.65	43.071
258.02	43.617
258.39	44.108
258.76	47.985
259.14	46.179
259.51	44.660
259.88	47.423
260.25	46.732
260.62	52.083
260.99	44.068
261.36	42.466
261.73	48.101
262.10	41.337
262.47	45.706
262.85	42.633
263.22	45.538
263.59	47.664
263.96	45.031
264.33	45.758
264.70	43.452
265.07	47.619
265.44	49.292
265.81	42.090
266.18	47.268
266.55	43.445
266.92	45.596
267.29	44.125
267.66	44.757
268.03	43.455
268.40	43.342
268.77	46.791
269.14	44.844
269.51	44.216
269.88	43.392
270.25	44.388
270.62	42.439
270.99	44.757
271.36	41.565
271.73	42.958
272.10	46.715
272.47	45.626
272.84	46.782
273.21	45.476
273.58	44.337
273.95	45.309
274.32	43.418
274.69	43.213
275.06	45.312
275.43	43.084
275.80	44.150
276.17	45.977
276.54	42.827
276.91	46.272
277.28	42.576
277.65	45.248
278.02	40.213
278.39	45.952
278.76	43.816
279.13	39.004
279.50	46.218
279.87	43.413
280.23	41.075
280.60	42.885
280.97	44.242
281.34	42.692
281.71	45.585
282.08	40.286
282.45	41.487
282.82	41.892
283.19	43.714
283.56	41.233
283.92	41.935
284.29	38.654
284.66	39.341
285.03	40.668
285.40	42.722
285.77	40.422
286.14	40.614
286.51	43.727
286.87	41.316
287.24	43.094
287.61	39.506
287.98	41.404
288.35	38.995
288.72	41.856
289.08	40.625
289.45	39.367
289.82	40.734
290.19	40.102
290.56	38.765
290.93	37.710
291.29	36.364
291.66	36.378
292.03	36.045
292.40	37.097
292.77	35.407
293.13	33.604
293.50	35.053
293.87	36.183
294.24	34.312
294.60	36.811
294.97	34.375
295.34	35.276
295.71	35.022
296.08	32.436
296.44	33.570
296.81	33.056
297.18	35.507
297.55	33.198
297.91	32.192
298.28	33.113
298.65	30.936
299.02	31.941
299.38	30.643
299.75	31.034
300.12	32.592
300.48	31.489
300.85	31.432
301.22	31.429
301.59	30.921
301.95	32.785
302.32	30.869
302.69	29.975
303.05	30.446
303.42	31.880
303.79	30.491
304.15	29.869
304.52	30.559
304.89	27.719
305.25	29.177
305.62	28.005
305.99	29.006
306.35	29.133
306.72	28.234
307.09	30.103
307.45	29.162
307.82	29.745
308.19	28.339
308.55	29.444
308.92	28.431
309.29	28.603
309.65	28.956
310.02	28.053
310.38	30.626
310.75	29.290
311.12	29.279
311.48	28.314
311.85	27.225
312.22	30.169
312.58	29.087
312.95	28.709
313.31	28.778
313.68	28.796
314.05	30.918
314.41	31.546
314.78	29.691
315.14	31.449
315.51	29.710
315.87	30.430
316.24	31.749
316.61	30.709
316.97	31.151
317.34	30.469
317.70	31.549
318.07	31.923
318.43	33.039
318.80	30.587
319.16	33.594
319.53	32.858
319.89	32.382
320.26	34.008
320.62	35.406
320.99	34.447
321.35	35.252
321.72	35.618
322.08	37.160
322.45	35.330
322.81	35.855
323.18	35.819
323.54	37.645
323.91	37.585
324.27	37.793
324.64	38.670
325.00	39.142
325.37	40.588
325.73	38.622
326.10	40.418
326.46	40.538
326.83	39.895
327.19	41.064
327.56	41.182
327.92	41.373
328.29	40.893
328.65	41.509
329.01	41.360
329.38	40.829
329.74	42.021
330.11	42.910
330.47	41.651
330.84	43.173
331.20	45.437
331.56	42.685
331.93	43.562
332.29	43.630
332.66	42.715
333.02	44.145
333.38	42.530
333.75	43.223
334.11	41.898
334.48	43.790
334.84	44.505
335.20	45.197
335.57	44.062
335.93	43.993
336.29	44.107
336.66	42.688
337.02	43.959
337.38	42.870
337.75	43.818
338.11	46.078
338.47	44.708
338.84	44.917
339.20	44.973
339.56	43.303
339.93	45.121
340.29	45.963
340.65	45.520
341.02	44.238
341.38	44.513
341.74	43.286
342.11	43.588
342.47	44.484
342.83	43.858
343.20	45.209
343.56	44.783
343.92	44.996
344.28	44.321
344.65	46.114
345.01	45.462
345.37	43.566
345.73	44.937
346.10	46.764
346.46	44.575
346.82	44.599
347.19	43.724
347.55	45.865
347.91	46.683
348.27	43.735
348.63	45.400
349.00	45.119
349.36	46.467
349.72	45.274
350.08	45.082
350.45	44.054
350.81	45.349
351.17	45.195
351.53	46.122
351.89	44.922
352.26	45.760
352.62	46.048
352.98	44.418
353.34	45.491
353.70	47.977
354.07	44.758
354.43	46.918
354.79	46.573
355.15	45.873
355.51	45.491
355.87	46.845
356.24	45.840
356.60	44.947
356.96	46.032
357.32	46.406
357.68	45.582
358.04	46.365
358.40	46.704
358.77	45.853
359.13	46.357
359.49	46.225
359.85	46.646
360.21	47.129
360.57	46.060
360.93	46.067
361.29	44.864
361.66	47.335
362.02	46.894
362.38	47.525
362.74	47.313
363.10	48.232
363.46	46.331
363.82	49.512
364.18	47.528
364.54	47.868
364.90	47.025
365.26	47.453
365.62	48.248
365.98	48.974
366.35	48.580
366.71	48.780
367.07	48.403
367.43	47.592
367.79	48.339
368.15	48.887
368.51	48.580
368.87	48.744
369.23	46.859
369.59	49.198
369.95	49.633
370.31	49.133
370.67	49.776
371.03	47.946
371.39	49.818
371.75	48.498
372.11	48.431
372.47	50.074
372.83	48.545
373.19	47.932
373.55	48.592
373.91	48.236
374.27	49.610
374.63	50.538
374.99	49.220
375.35	49.721
375.71	50.280
376.07	49.228
376.42	50.952
376.78	49.799
377.14	49.425
377.50	50.066
377.86	49.398
378.22	50.032
378.58	50.128
378.94	48.897
379.30	50.156
379.66	49.781
380.02	50.092
380.38	49.361
380.74	49.791
381.09	50.982
381.45	49.908
381.81	49.846
382.17	50.761
382.53	50.031
382.89	51.475
383.25	51.027
383.61	50.305
383.97	50.794
384.32	50.219
384.68	50.217
385.04	50.245
385.40	49.969
385.76	52.138
386.12	51.940
386.48	50.958
386.83	51.110
387.19	50.733
387.55	51.129
387.91	50.489
388.27	50.672
388.62	51.353
388.98	50.522
389.34	50.968
389.70	51.212
390.06	50.157
390.42	50.842
390.77	51.079
391.13	49.937
391.49	51.746
391.85	52.632
392.20	50.094
392.56	49.968
392.92	51.791
393.28	51.297
393.64	50.931
393.99	53.417
394.35	51.739
394.71	51.149
395.07	48.837
395.42	52.338
395.78	52.443
396.14	51.198
396.50	51.237
396.85	50.934
397.21	50.439
397.57	50.470
397.92	51.528
398.28	50.690
398.64	51.506
399.00	51.185
399.35	50.564
399.71	50.603
400.07	52.177
400.42	50.367
400.78	52.541
401.14	50.635
401.49	51.340
401.85	51.920
402.21	50.964
402.57	51.062
402.92	49.875
403.28	51.504
403.63	50.000
403.99	49.554
404.35	50.406
404.70	48.929
405.06	50.705
405.42	49.782
405.77	50.610
406.13	50.582
406.49	51.214
406.84	51.467
407.20	50.572
407.55	50.805
407.91	50.668
408.27	50.096
408.62	50.154
408.98	50.955
409.34	50.991
409.69	50.840
410.05	50.123
410.40	49.198
410.76	49.940
411.11	51.000
411.47	50.493
411.83	49.718
412.18	51.094
412.54	48.752
412.89	49.384
413.25	51.203
413.60	50.621
413.96	49.632
414.31	49.512
414.67	49.006
415.03	50.399
415.38	49.608
415.74	50.684
416.09	50.229
416.45	49.156
416.80	48.711
417.16	51.312
417.51	49.434
417.87	49.609
418.22	50.518
418.58	50.435
418.93	50.658
419.29	48.592
419.64	51.005
420.00	50.882
420.35	49.552
420.71	49.028
421.06	49.478
421.42	49.459
421.77	49.827
422.12	48.241
422.48	48.674
422.83	48.434
423.19	49.718
423.54	49.853
423.90	48.057
424.25	48.680
424.61	49.755
424.96	47.967
425.31	50.318
425.67	50.117
426.02	49.588
426.38	50.031
426.73	50.182
427.09	50.063
427.44	50.353
427.79	48.969
428.15	49.272
428.50	48.879
428.85	48.219
429.21	49.576
429.56	48.571
429.92	46.841
430.27	47.669
430.62	48.197
430.98	48.248
431.33	48.318
431.68	47.410
432.04	49.022
432.39	46.891
432.74	46.903
433.10	48.678
433.45	49.223
433.80	47.475
434.16	47.812
434.51	48.065
434.86	48.722
435.22	48.065
435.57	49.407
435.92	47.545
436.28	46.810
436.63	48.488
436.98	47.393
437.34	47.550
437.69	48.062
438.04	48.832
438.39	46.610
438.75	49.362
439.10	47.312
439.45	48.996
439.81	48.746
440.16	49.406
440.51	47.761
440.86	50.211
441.22	49.321
441.57	48.068
441.92	48.531
442.27	49.279
442.63	47.430
442.98	48.535
443.33	47.078
443.68	47.639
444.03	48.187
444.39	47.467
444.74	48.606
445.09	48.385
445.44	47.692
445.79	49.768
446.15	47.797
446.50	47.310
446.85	48.672
447.20	48.071
447.55	47.824
447.91	47.490
448.26	49.175
448.61	48.014
448.96	48.480
449.31	48.266
449.66	47.619
450.02	48.374
450.37	48.192
450.72	48.855
451.07	47.975
451.42	47.566
451.77	46.534
452.12	47.608
452.47	47.778
452.83	47.821
453.18	46.553
453.53	47.598
453.88	47.602
454.23	46.773
454.58	49.055
454.93	47.809
455.28	45.905
455.63	47.737
455.98	47.925
456.34	46.935
456.69	48.285
457.04	47.700
457.39	47.388
457.74	46.977
458.09	46.851
458.44	47.162
458.79	46.891
459.14	46.224
459.49	47.104
459.84	47.152
460.19	46.238
460.54	46.699
460.89	46.591
461.24	46.708
461.59	45.368
461.94	46.478
462.29	47.286
462.64	46.977
462.99	46.513
463.34	46.453
463.69	45.495
464.04	46.005
464.39	45.058
464.74	46.196
465.09	45.664
465.44	45.470
465.79	44.671
466.14	46.579
466.49	45.486
466.84	46.579
467.19	45.620
467.54	44.891
467.89	46.304
468.24	44.830
468.59	44.889
468.94	43.873
469.29	45.443
469.64	46.070
469.99	47.162
470.34	44.027
470.68	46.532
471.03	44.657
471.38	45.078
471.73	45.028
472.08	44.980
472.43	44.430
472.78	44.003
473.13	45.102
473.48	44.430
473.83	43.773
474.17	45.013
474.52	45.118
474.87	44.606
475.22	44.417
475.57	44.043
475.92	44.487
476.27	44.529
476.61	44.387
476.96	42.777
477.31	44.348
477.66	43.371
478.01	43.739
478.36	43.682
478.70	44.426
479.05	44.176
479.40	43.826
479.75	43.379
480.10	43.830
480.45	43.750
480.79	43.706
481.14	45.287
481.49	43.300
481.84	44.112
482.19	42.610
482.53	43.453
482.88	42.959
483.23	42.850
483.58	42.972
483.92	43.175
484.27	41.933
484.62	42.582
484.97	42.579
485.31	42.197
485.66	41.940
486.01	42.801
486.36	42.247
486.70	42.090
487.05	42.573
487.40	41.055
487.75	41.718
488.09	40.822
488.44	40.818
488.79	41.539
489.13	41.827
489.48	41.599
489.83	41.659
490.17	41.393
490.52	42.079
490.87	40.167
491.22	43.075
491.56	40.655
491.91	41.348
492.26	41.663
492.60	41.219
492.95	42.105
493.30	40.791
493.64	41.896
493.99	41.063
494.34	41.359
494.68	40.857
495.03	40.341
495.37	41.119
495.72	41.545
496.07	40.195
496.41	41.179
496.76	41.179
497.11	39.870
497.45	40.191
497.80	40.616
498.14	40.189
498.49	40.630
498.84	40.719
499.18	40.663
499.53	40.972
499.87	39.397
500.22	40.455
500.56	40.545
500.91	39.859
501.26	40.237
501.60	39.646
501.95	40.078
502.29	40.872
502.64	40.492
502.98	40.849
503.33	38.857
503.67	40.482
504.02	39.443
504.36	40.178
504.71	39.444
505.06	39.155
505.40	39.543
505.75	39.948
506.09	38.976
506.44	39.938
506.78	40.357
507.13	39.814
507.47	38.799
507.82	38.355
508.16	38.933
508.51	40.609
508.85	39.246
509.19	38.691
509.54	39.946
509.88	39.860
510.23	39.537
510.57	40.406
510.92	38.593
511.26	39.989
511.61	39.439
511.95	39.397
512.30	39.690
512.64	38.787
512.98	39.753
513.33	39.843
513.67	39.454
514.02	40.561
514.36	40.057
514.70	39.452
515.05	39.013
515.39	39.374
515.74	39.760
516.08	39.271
516.42	40.459
516.77	39.672
517.11	38.872
517.46	39.677
517.80	38.617
518.14	39.008
518.49	39.002
518.83	38.396
519.17	38.690
519.52	37.951
519.86	38.595
520.20	39.247
520.55	39.149
520.89	38.645
521.23	38.379
521.58	39.180
521.92	39.295
522.26	38.452
522.61	39.805
522.95	40.397
523.29	37.929
523.64	39.708
523.98	40.376
524.32	38.595
524.66	39.181
525.01	38.506
525.35	39.209
525.69	38.451
526.04	38.228
526.38	39.883
526.72	37.345
527.06	38.781
527.41	37.467
527.75	38.539
528.09	38.538
528.43	38.420
528.78	36.964
529.12	37.742
529.46	38.337
529.80	37.619
530.15	39.340
530.49	37.508
530.83	38.030
531.17	37.005
531.51	39.330
531.86	38.545
532.20	36.882
532.54	37.509
532.88	38.193
533.22	38.239
533.57	37.942
533.91	38.512
534.25	38.346
534.59	38.422
534.93	36.627
535.27	36.739
535.62	37.330
535.96	37.247
536.30	38.061
536.64	38.525
536.98	36.516
537.32	37.198
537.66	39.481
538.01	38.322
538.35	37.101
538.69	37.617
539.03	35.680
539.37	37.685
539.71	37.491
540.05	36.999
540.39	37.327
540.73	37.657
541.07	37.500
541.42	37.231
541.76	36.407
542.10	37.577
542.44	37.804
542.78	35.926
543.12	36.126
543.46	37.413
543.80	37.196
544.14	34.846
544.48	36.576
544.82	37.321
545.16	37.500
545.50	36.582
545.84	37.394
546.18	36.950
546.52	36.842
546.86	36.017
547.20	38.269
547.54	36.678
547.88	36.481
548.22	35.766
548.56	35.224
548.90	36.388
549.24	35.950
549.58	35.684
549.92	34.882
550.26	36.703
550.60	37.323
550.94	36.370
551.28	35.781
551.62	36.923
551.96	37.519
552.30	36.111
552.64	36.107
552.98	36.568
553.32	35.235
553.66	35.849
554.00	35.620
554.34	36.337
554.68	35.103
555.02	36.905
555.36	35.602
555.69	36.117
556.03	34.832
556.37	35.445
556.71	35.018
557.05	35.496
557.39	34.647
557.73	34.558
558.07	35.294
558.41	35.299
558.75	34.373
559.08	34.594
559.42	35.000
559.76	36.429
560.10	35.092
560.44	35.666
560.78	35.874
561.12	36.530
561.45	36.191
561.79	36.275
562.13	35.131
562.47	35.468
562.81	35.159
563.15	35.543
563.48	35.219
563.82	35.484
564.16	34.749
564.50	34.932
564.84	35.877
565.17	34.943
565.51	36.749
565.85	35.528
566.19	35.080
566.52	35.322
566.86	35.283
567.20	34.496
567.54	35.341
567.88	34.915
568.21	34.955
568.55	35.000
568.89	35.575
569.23	35.676
569.56	35.245
569.90	35.810
570.24	34.983
570.57	35.309
570.91	35.343
571.25	34.758
571.59	34.787
571.92	34.163
572.26	34.088
572.60	33.984
572.93	34.233
573.27	33.918
573.61	34.696
573.95	34.762
574.28	34.243
574.62	33.867
574.96	33.732
575.29	33.922
575.63	33.169
575.97	32.638
576.30	33.989
576.64	33.272
576.98	33.977
577.31	33.694
577.65	34.794
577.98	34.172
578.32	34.140
578.66	33.290
578.99	33.294
579.33	33.350
579.67	32.803
580.00	33.392
580.34	33.806
580.67	33.259
581.01	33.934
581.35	33.958
581.68	33.832
582.02	33.602
582.35	33.965
582.69	34.223
583.02	33.988
583.36	33.073
583.70	33.567
584.03	33.723
584.37	34.133
584.70	33.874
585.04	32.953
585.37	33.342
585.71	33.745
586.04	33.661
586.38	32.862
586.72	33.372
587.05	33.738
587.39	33.799
587.72	34.254
588.06	33.213
588.39	32.982
588.73	33.364
589.06	33.366
589.40	33.011
589.73	33.333
590.07	33.573
590.40	33.475
590.73	34.843
591.07	33.291
591.40	33.215
591.74	33.439
592.07	33.581
592.41	34.055
592.74	34.289
593.08	33.322
593.41	33.542
593.75	33.497
594.08	31.995
594.41	32.242
594.75	33.015
595.08	34.166
595.42	33.530
595.75	33.496
596.09	32.447
596.42	32.782
596.75	32.948
597.09	33.576
597.42	33.153
597.75	33.669
598.09	32.458
598.42	32.762
598.76	33.119
599.09	32.652
599.42	32.929
599.76	32.769
600.09	33.258
600.42	32.714
600.76	32.504
601.09	32.099
601.42	31.962
601.76	32.870
602.09	33.663
602.42	33.488
602.76	32.598
603.09	32.350
603.42	33.654
603.76	32.460
604.09	33.050
604.42	32.572
604.76	32.354
605.09	31.993
605.42	33.318
605.75	32.137
606.09	32.909
606.42	32.235
606.75	32.381
607.09	32.484
607.42	32.654
607.75	31.750
608.08	31.851
608.42	32.115
608.75	32.819
609.08	32.885
609.41	32.386
609.75	32.812
610.08	33.100
610.41	31.691
610.74	32.131
611.07	33.178
611.41	32.745
611.74	33.635
612.07	32.869
612.40	31.783
612.73	32.147
613.07	31.946
613.40	32.604
613.73	31.505
614.06	31.664
614.39	32.995
614.72	31.709
615.06	32.402
615.39	32.151
615.72	32.024
616.05	31.955
616.38	31.225
616.71	31.560
617.05	31.810
617.38	31.427
617.71	30.503
618.04	32.635
618.37	33.102
618.70	32.937
619.03	32.986
619.36	31.187
619.69	33.965
620.03	32.432
620.36	31.974
620.69	31.763
621.02	31.269
621.35	31.452
621.68	32.993
622.01	32.667
622.34	30.966
622.67	33.754
623.00	32.542
623.33	32.241
623.66	31.114
623.99	32.602
624.32	31.939
624.65	31.278
624.99	31.828
625.32	31.463
625.65	32.286
625.98	31.910
626.31	31.006
626.64	32.149
626.97	32.461
627.30	32.137
627.63	32.669
627.96	31.806
628.29	31.915
628.62	31.563
628.95	31.363
629.28	31.754
629.61	32.502
629.94	32.942
630.26	30.632
630.59	31.217
630.92	30.667
631.25	31.179
631.58	31.388
631.91	29.934
632.24	31.537
632.57	31.136
632.90	30.842
633.23	31.647
633.56	31.990
