SpectraSuite Data File
++++++++++++++++++++++++++++++++++++
Date: Fri May 15 21:02:54 PDT 2015
User: schluterlab
Dark Spectrum Present: Yes
Reference Spectrum Present: Yes
Number of Sampled Component Spectra: 1
Spectrometers: USB2E3373
Integration Time (usec): 3000 (USB2E3373)
Spectra Averaged: 3 (USB2E3373)
Boxcar Smoothing: 0 (USB2E3373)
Correct for Electrical Dark: No (USB2E3373)
Strobe/Lamp Enabled: No (USB2E3373)
Correct for Detector Non-linearity: No (USB2E3373)
Correct for Stray Light: No (USB2E3373)
Number of Pixels in Processed Spectrum: 2048
>>>>>Begin Processed Spectral Data<<<<<
178.53	0.000
178.91	0.000
179.29	37.500
179.67	-500.000
180.04	71.429
180.42	-200.000
180.80	-500.000
181.18	333.333
181.56	500.000
181.94	-150.000
182.31	800.000
182.69	-160.000
183.07	-633.333
183.45	-20.000
183.83	183.333
184.20	-45.455
184.58	166.667
184.96	-0.000
185.34	133.333
185.72	-300.000
186.09	107.692
186.47	-1700.000
186.85	100.000
187.23	166.667
187.61	500.000
187.98	-200.000
188.36	33.333
188.74	-400.000
189.12	-35.294
189.49	-16.667
189.87	0.000
190.25	-28.571
190.63	100.000
191.00	-166.667
191.38	-10.526
191.76	450.000
192.14	75.000
192.51	-250.000
192.89	-144.444
193.27	-100.000
193.65	166.667
194.02	63.636
194.40	-90.000
194.78	-187.500
195.15	-33.333
195.53	-175.000
195.91	175.000
196.29	-175.000
196.66	76.923
197.04	14.286
197.42	-44.444
197.79	-466.667
198.17	-69.231
198.55	-100.000
198.92	-433.333
199.30	0.000
199.68	-500.000
200.05	-566.667
200.43	0.000
200.81	-66.667
201.18	-266.667
201.56	1300.000
201.94	-400.000
202.31	333.333
202.69	-480.000
203.07	250.000
203.44	-200.000
203.82	0.000
204.19	-14.286
204.57	-533.333
204.95	137.500
205.32	-30.000
205.70	-214.286
206.08	-350.000
206.45	22.222
206.83	21.429
207.20	-171.429
207.58	1000.000
207.96	-33.333
208.33	-120.000
208.71	-125.000
209.08	-183.333
209.46	-1100.000
209.84	-80.000
210.21	-900.000
210.59	-14.286
210.96	-150.000
211.34	-50.000
211.71	13.333
212.09	-42.857
212.46	-2400.000
212.84	0.000
213.22	-20.000
213.59	550.000
213.97	15.385
214.34	0.000
214.72	-216.667
215.09	500.000
215.47	30.769
215.84	9.091
216.22	-233.333
216.59	-200.000
216.97	-50.000
217.34	-225.000
217.72	-280.000
218.09	25.000
218.47	100.000
218.84	-1600.000
219.22	-144.444
219.59	-100.000
219.97	566.667
220.34	550.000
220.72	-71.429
221.09	-150.000
221.47	-750.000
221.84	-850.000
222.22	-250.000
222.59	9.091
222.97	16.667
223.34	-166.667
223.72	-50.000
224.09	-42.857
224.46	42.857
224.84	533.333
225.21	-60.000
225.59	0.000
225.96	-250.000
226.34	225.000
226.71	-71.429
227.08	-216.667
227.46	25.000
227.83	-350.000
228.21	-100.000
228.58	-27.273
228.95	-100.000
229.33	70.000
229.70	-37.500
230.08	-150.000
230.45	-57.143
230.82	0.000
231.20	-93.333
231.57	-14.286
231.95	-85.714
232.32	-80.000
232.69	-7.143
233.07	-133.333
233.44	-180.000
233.81	-160.000
234.19	22.222
234.56	-23.529
234.93	300.000
235.31	-150.000
235.68	-180.000
236.05	-76.923
236.43	-75.000
236.80	-17.647
237.17	25.000
237.55	10.000
237.92	7.407
238.29	11.111
238.67	23.333
239.04	14.706
239.41	-4.878
239.79	3.333
240.16	36.585
240.53	31.579
240.91	4.348
241.28	36.508
241.65	41.071
242.02	46.575
242.40	31.667
242.77	23.729
243.14	24.242
243.51	40.000
243.89	31.034
244.26	31.034
244.63	40.476
245.00	36.082
245.38	34.021
245.75	30.337
246.12	43.103
246.49	39.669
246.87	35.577
247.24	41.176
247.61	37.719
247.98	42.276
248.36	39.375
248.73	36.842
249.10	40.909
249.47	39.241
249.84	45.098
250.22	40.000
250.59	46.405
250.96	41.784
251.33	38.953
251.70	44.706
252.08	43.147
252.45	41.089
252.82	42.211
253.19	42.396
253.56	41.121
253.94	46.396
254.31	43.043
254.68	51.316
255.05	37.795
255.42	40.611
255.79	45.946
256.16	43.580
256.54	39.552
256.91	39.544
257.28	40.149
257.65	43.820
258.02	43.262
258.39	43.771
258.76	51.282
259.14	45.515
259.51	41.100
259.88	44.674
260.25	44.444
260.62	46.875
260.99	43.390
261.36	41.096
261.73	45.886
262.10	47.720
262.47	44.479
262.85	42.006
263.22	45.538
263.59	43.302
263.96	45.963
264.33	45.758
264.70	47.024
265.07	44.345
265.44	49.008
265.81	43.785
266.18	43.169
266.55	42.931
266.92	43.782
267.29	45.692
267.66	42.967
268.03	45.288
268.40	46.736
268.77	45.989
269.14	44.125
269.51	40.617
269.88	45.885
270.25	44.388
270.62	42.195
270.99	46.036
271.36	40.342
271.73	47.418
272.10	42.579
272.47	44.681
272.84	41.584
273.21	44.548
273.58	44.578
273.95	44.622
274.32	41.339
274.69	39.593
275.06	44.866
275.43	42.630
275.80	43.709
276.17	44.598
276.54	41.756
276.91	41.886
277.28	43.450
277.65	40.909
278.02	41.489
278.39	45.295
278.76	43.606
279.13	37.759
279.50	44.748
279.87	41.037
280.23	42.366
280.60	40.936
280.97	43.434
281.34	43.654
281.71	44.148
282.08	42.331
282.45	42.074
282.82	38.417
283.19	44.874
283.56	40.270
283.92	42.505
284.29	40.192
284.66	40.891
285.03	41.257
285.40	40.643
285.77	39.367
286.14	39.711
286.51	41.882
286.87	40.219
287.24	41.252
287.61	37.566
287.98	42.807
288.35	39.341
288.72	41.856
289.08	40.972
289.45	37.961
289.82	40.210
290.19	36.689
290.56	35.506
290.93	38.047
291.29	34.977
291.66	37.323
292.03	35.885
292.40	35.968
292.77	33.971
293.13	34.253
293.50	32.777
293.87	35.878
294.24	34.003
294.60	33.234
294.97	34.821
295.34	35.736
295.71	33.085
296.08	34.380
296.44	31.437
296.81	30.972
297.18	32.899
297.55	32.791
297.91	31.918
298.28	31.794
298.65	30.122
299.02	31.132
299.38	28.591
299.75	29.103
300.12	30.366
300.48	30.435
300.85	29.911
301.22	29.870
301.59	30.921
301.95	31.519
302.32	31.388
302.69	28.980
303.05	29.579
303.42	29.265
303.79	30.374
304.15	29.510
304.52	28.894
304.89	26.901
305.25	28.450
305.62	27.188
305.99	27.719
306.35	28.671
306.72	27.784
307.09	27.138
307.45	28.473
307.82	26.852
308.19	30.430
308.55	27.699
308.92	29.194
309.29	27.821
309.65	26.911
310.02	26.733
310.38	29.418
310.75	29.071
311.12	26.911
311.48	26.829
311.85	27.644
312.22	25.949
312.58	28.132
312.95	25.827
313.31	26.190
313.68	26.283
314.05	27.653
314.41	26.701
314.78	27.113
315.14	27.338
315.51	28.157
315.87	26.844
316.24	28.008
316.61	26.969
316.97	26.885
317.34	25.977
317.70	27.629
318.07	25.481
318.43	25.980
318.80	25.758
319.16	27.344
319.53	27.540
319.89	26.181
320.26	25.911
320.62	27.282
320.99	25.157
321.35	26.824
321.72	27.726
322.08	26.485
322.45	26.294
322.81	26.130
323.18	25.908
323.54	25.193
323.91	26.290
324.27	26.953
324.64	27.341
325.00	26.277
325.37	26.630
325.73	27.017
326.10	26.885
326.46	27.354
326.83	28.259
327.19	27.289
327.56	27.107
327.92	25.792
328.29	25.089
328.65	26.038
329.01	25.827
329.38	26.359
329.74	25.685
330.11	27.155
330.47	25.881
330.84	25.865
331.20	28.137
331.56	26.759
331.93	26.941
332.29	27.406
332.66	27.059
333.02	27.602
333.38	25.848
333.75	27.289
334.11	26.052
334.48	27.833
334.84	25.641
335.20	26.532
335.57	24.025
335.93	27.010
336.29	26.980
336.66	24.886
337.02	24.535
337.38	26.481
337.75	26.091
338.11	27.683
338.47	27.007
338.84	26.710
339.20	26.417
339.56	25.596
339.93	26.231
340.29	28.165
340.65	26.254
341.02	25.621
341.38	25.575
341.74	24.735
342.11	25.043
342.47	25.445
342.83	25.865
343.20	24.129
343.56	25.739
343.92	25.421
344.28	26.132
344.65	25.389
345.01	24.633
345.37	24.558
345.73	25.607
346.10	24.590
346.46	25.063
346.82	25.368
347.19	23.857
347.55	25.564
347.91	25.243
348.27	24.171
348.63	26.065
349.00	24.446
349.36	24.771
349.72	25.124
350.08	25.246
350.45	24.900
350.81	25.249
351.17	23.697
351.53	24.163
351.89	24.195
352.26	25.120
352.62	25.484
352.98	24.096
353.34	24.879
353.70	24.110
354.07	24.435
354.43	24.259
354.79	23.947
355.15	25.317
355.51	24.446
355.87	25.081
356.24	24.225
356.60	24.333
356.96	23.968
357.32	24.601
357.68	23.065
358.04	23.586
358.40	23.633
358.77	25.199
359.13	23.779
359.49	23.035
359.85	24.103
360.21	23.764
360.57	24.024
360.93	23.752
361.29	22.356
361.66	23.668
362.02	23.788
362.38	23.762
362.74	23.240
363.10	23.702
363.46	23.721
363.82	24.643
364.18	24.576
364.54	23.015
364.90	23.082
365.26	22.271
365.62	24.453
365.98	23.314
366.35	22.797
366.71	23.651
367.07	22.787
367.43	23.293
367.79	24.170
368.15	23.475
368.51	22.578
368.87	22.685
369.23	22.094
369.59	24.417
369.95	23.827
370.31	22.543
370.67	23.060
371.03	23.226
371.39	22.976
371.75	23.150
372.11	23.252
372.47	23.299
372.83	23.492
373.19	23.252
373.55	22.166
373.91	23.038
374.27	22.892
374.63	23.475
374.99	22.411
375.35	23.259
375.71	23.497
376.07	23.244
376.42	22.041
376.78	22.013
377.14	22.613
377.50	22.908
377.86	23.226
378.22	21.953
378.58	23.077
378.94	21.487
379.30	22.832
379.66	23.323
380.02	22.072
380.38	22.885
380.74	21.724
381.09	23.252
381.45	22.752
381.81	21.900
382.17	22.843
382.53	22.548
382.89	22.159
383.25	22.029
383.61	22.195
383.97	21.587
384.32	21.826
384.68	21.300
385.04	20.956
385.40	21.904
385.76	23.522
386.12	21.734
386.48	21.903
386.83	20.862
387.19	21.612
387.55	22.020
387.91	22.127
388.27	21.673
388.62	21.838
388.98	21.793
389.34	22.236
389.70	22.001
390.06	21.334
390.42	21.503
390.77	21.648
391.13	21.816
391.49	21.798
391.85	21.248
392.20	21.218
392.56	22.314
392.92	22.842
393.28	22.406
393.64	21.982
393.99	22.633
394.35	20.304
394.71	22.478
395.07	20.867
395.42	21.919
395.78	21.759
396.14	21.627
396.50	21.497
396.85	22.279
397.21	21.867
397.57	22.132
397.92	21.510
398.28	21.839
398.64	21.205
399.00	21.727
399.35	21.106
399.71	21.941
400.07	22.007
400.42	20.991
400.78	21.188
401.14	20.992
401.49	22.394
401.85	21.328
402.21	21.566
402.57	22.500
402.92	20.703
403.28	21.742
403.63	21.564
403.99	21.301
404.35	21.861
404.70	21.071
405.06	21.093
405.42	21.753
405.77	21.034
406.13	22.119
406.49	21.314
406.84	22.311
407.20	22.035
407.55	20.219
407.91	21.056
408.27	21.606
408.62	21.600
408.98	21.935
409.34	21.623
409.69	20.413
410.05	21.182
410.40	21.543
410.76	21.713
411.11	21.875
411.47	21.039
411.83	20.276
412.18	21.171
412.54	21.161
412.89	21.182
413.25	22.503
413.60	21.677
413.96	21.166
414.31	21.159
414.67	20.654
415.03	21.704
415.38	21.018
415.74	21.889
416.09	21.489
416.45	21.337
416.80	20.423
417.16	22.169
417.51	20.919
417.87	21.969
418.22	21.503
418.58	21.070
418.93	21.567
419.29	20.551
419.64	20.868
420.00	22.481
420.35	21.493
420.71	21.385
421.06	21.547
421.42	20.913
421.77	21.561
422.12	21.226
422.48	20.736
422.83	21.230
423.19	21.163
423.54	20.459
423.90	20.612
424.25	21.814
424.61	21.542
424.96	22.184
425.31	21.895
425.67	21.303
426.02	22.026
426.38	21.603
426.73	22.034
427.09	21.709
427.44	21.824
427.79	20.978
428.15	21.723
428.50	20.836
428.85	20.946
429.21	20.996
429.56	21.779
429.92	21.828
430.27	20.401
430.62	20.962
430.98	20.966
431.33	22.187
431.68	20.879
432.04	20.850
432.39	20.650
432.74	20.986
433.10	21.724
433.45	20.490
433.80	21.706
434.16	21.163
434.51	21.989
434.86	22.125
435.22	21.088
435.57	20.774
435.92	21.078
436.28	20.751
436.63	20.936
436.98	20.915
437.34	20.811
437.69	22.063
438.04	21.026
438.39	21.014
438.75	20.644
439.10	21.675
439.45	21.607
439.81	20.979
440.16	22.268
440.51	21.194
440.86	22.296
441.22	21.097
441.57	21.799
441.92	22.403
442.27	21.896
442.63	22.323
442.98	21.884
443.33	21.870
443.68	21.592
444.03	21.709
444.39	20.708
444.74	21.851
445.09	21.659
445.44	21.254
445.79	21.454
446.15	20.595
446.50	21.298
446.85	21.892
447.20	20.959
447.55	22.154
447.91	21.771
448.26	21.742
448.61	22.107
448.96	21.228
449.31	22.081
449.66	21.370
450.02	22.076
450.37	21.695
450.72	21.420
451.07	22.405
451.42	21.473
451.77	21.157
452.12	21.112
452.47	21.185
452.83	21.378
453.18	22.011
453.53	21.618
453.88	21.615
454.23	21.328
454.58	21.788
454.93	21.585
455.28	21.270
455.63	21.885
455.98	21.828
456.34	22.095
456.69	21.855
457.04	23.251
457.39	21.264
457.74	21.644
458.09	20.954
458.44	21.182
458.79	21.064
459.14	22.540
459.49	22.149
459.84	20.869
460.19	22.633
460.54	22.616
460.89	22.784
461.24	22.050
461.59	22.090
461.94	20.692
462.29	21.411
462.64	22.392
462.99	21.259
463.34	21.975
463.69	21.236
464.04	21.852
464.39	21.407
464.74	21.227
465.09	22.208
465.44	23.139
465.79	21.655
466.14	22.691
466.49	21.277
466.84	22.130
467.19	21.965
467.54	21.520
467.89	21.605
468.24	22.567
468.59	21.587
468.94	20.889
469.29	22.164
469.64	21.805
469.99	22.214
470.34	21.024
470.68	21.327
471.03	22.222
471.38	21.612
471.73	21.359
472.08	20.421
472.43	20.671
472.78	21.933
473.13	22.789
473.48	21.498
473.83	21.544
474.17	21.762
474.52	22.399
474.87	22.424
475.22	22.026
475.57	21.683
475.92	21.887
476.27	22.468
476.61	21.933
476.96	20.636
477.31	21.741
477.66	21.685
478.01	21.617
478.36	22.386
478.70	22.023
479.05	21.813
479.40	22.682
479.75	22.158
480.10	21.454
480.45	22.350
480.79	22.205
481.14	22.387
481.49	21.478
481.84	21.622
482.19	21.562
482.53	22.638
482.88	22.912
483.23	21.113
483.58	22.028
483.92	21.297
484.27	21.650
484.62	21.694
484.97	21.932
485.31	21.496
485.66	22.219
486.01	23.257
486.36	23.101
486.70	22.757
487.05	22.716
487.40	21.768
487.75	21.493
488.09	20.859
488.44	20.289
488.79	20.471
489.13	21.114
489.48	21.206
489.83	21.300
490.17	21.393
490.52	21.386
490.87	21.472
491.22	21.824
491.56	21.300
491.91	21.272
492.26	22.168
492.60	21.881
492.95	22.036
493.30	21.251
493.64	21.316
493.99	21.449
494.34	21.505
494.68	21.714
495.03	21.606
495.37	22.620
495.72	21.605
496.07	21.220
496.41	21.604
496.76	21.050
497.11	21.286
497.45	21.337
497.80	22.099
498.14	20.964
498.49	21.331
498.84	22.106
499.18	21.737
499.53	22.123
499.87	21.158
500.22	21.316
500.56	21.684
500.91	20.783
501.26	21.700
501.60	20.807
501.95	21.203
502.29	21.308
502.64	21.959
502.98	21.559
503.33	20.845
503.67	21.446
504.02	21.945
504.36	22.316
504.71	21.566
505.06	21.188
505.40	22.234
505.75	21.649
506.09	20.730
506.44	22.074
506.78	22.041
507.13	21.613
507.47	20.783
507.82	20.780
508.16	21.078
508.51	21.563
508.85	21.559
509.19	20.862
509.54	21.662
509.88	20.766
510.23	21.571
510.57	21.432
510.92	20.416
511.26	20.840
511.61	21.177
511.95	21.863
512.30	21.341
512.64	21.091
512.98	20.606
513.33	22.776
513.67	20.807
514.02	22.483
514.36	21.257
514.70	21.795
515.05	22.033
515.39	22.019
515.74	21.916
516.08	21.638
516.42	22.379
516.77	21.709
517.11	20.950
517.46	21.843
517.80	20.501
518.14	21.310
518.49	21.394
518.83	21.203
519.17	21.043
519.52	20.841
519.86	21.369
520.20	21.567
520.55	20.388
520.89	21.644
521.23	21.723
521.58	22.208
521.92	21.474
522.26	22.056
522.61	21.753
522.95	22.185
523.29	22.935
523.64	21.093
523.98	22.748
524.32	20.232
524.66	21.895
525.01	21.753
525.35	21.192
525.69	21.414
526.04	21.296
526.38	22.438
526.72	21.060
527.06	21.660
527.41	21.306
527.75	20.107
528.09	21.462
528.43	22.822
528.78	20.924
529.12	21.806
529.46	21.637
529.80	21.533
530.15	21.848
530.49	21.010
530.83	21.683
531.17	21.021
531.51	22.367
531.86	21.890
532.20	21.294
532.54	21.443
532.88	21.150
533.22	22.446
533.57	22.280
533.91	22.063
534.25	22.526
534.59	22.194
534.93	21.397
535.27	21.003
535.62	21.322
535.96	22.505
536.30	22.230
536.64	21.571
536.98	22.021
537.32	22.617
537.66	22.160
538.01	21.189
538.35	21.983
538.69	21.638
539.03	22.146
539.37	22.207
539.71	21.950
540.05	21.792
540.39	21.191
540.73	21.548
541.07	22.376
541.42	22.312
541.76	22.230
542.10	21.129
542.44	21.890
542.78	20.028
543.12	21.566
543.46	22.601
543.80	22.693
544.14	20.761
544.48	22.452
544.82	21.668
545.16	21.585
545.50	21.228
545.84	21.530
546.18	22.766
546.52	21.557
546.86	21.927
547.20	22.675
547.54	21.201
547.88	22.758
548.22	22.222
548.56	22.296
548.90	22.439
549.24	21.488
549.58	22.355
549.92	21.444
550.26	21.392
550.60	22.156
550.94	21.509
551.28	20.866
551.62	22.077
551.96	21.955
552.30	21.857
552.64	21.439
552.98	22.011
553.32	21.683
553.66	21.626
554.00	22.336
554.34	22.230
554.68	21.903
555.02	22.173
555.36	21.765
555.69	20.586
556.03	21.984
556.37	22.633
556.71	21.733
557.05	21.924
557.39	21.413
557.73	22.564
558.07	22.398
558.41	21.669
558.75	20.421
559.08	21.749
559.42	21.984
559.76	21.777
560.10	22.401
560.44	22.040
560.78	21.748
561.12	21.932
561.45	22.417
561.79	22.479
562.13	21.221
562.47	21.583
562.81	21.902
563.15	22.073
563.48	21.429
563.82	22.512
564.16	22.075
564.50	20.743
564.84	22.289
565.17	21.328
565.51	23.156
565.85	22.428
566.19	22.149
566.52	21.515
566.86	22.558
567.20	22.229
567.54	23.114
567.88	22.671
568.21	22.681
568.55	22.391
568.89	23.203
569.23	22.870
569.56	23.336
569.90	23.427
570.24	22.888
570.57	23.200
570.91	23.353
571.25	23.019
571.59	22.703
571.92	22.963
572.26	22.675
572.60	22.481
572.93	22.215
573.27	21.850
573.61	22.584
573.95	22.884
574.28	23.199
574.62	22.400
574.96	22.812
575.29	22.766
575.63	22.130
575.97	22.255
576.30	21.788
576.64	22.252
576.98	22.497
577.31	22.708
577.65	23.234
577.98	22.950
578.32	23.003
578.66	22.244
578.99	21.923
579.33	21.809
579.67	22.079
580.00	22.127
580.34	22.214
580.67	21.810
581.01	22.671
581.35	22.136
581.68	22.810
582.02	23.142
582.35	23.194
582.69	22.887
583.02	22.089
583.36	21.883
583.70	22.508
584.03	22.296
584.37	22.360
584.70	21.896
585.04	21.554
585.37	22.703
585.71	22.735
586.04	22.592
586.38	21.926
586.72	22.669
587.05	22.733
587.39	23.204
587.72	22.963
588.06	22.308
588.39	22.358
588.73	22.100
589.06	22.179
589.40	22.745
589.73	22.453
590.07	21.752
590.40	22.330
590.73	21.829
591.07	21.798
591.40	22.217
591.74	22.081
592.07	22.588
592.41	22.173
592.74	22.780
593.08	22.075
593.41	22.998
593.75	22.996
594.08	22.451
594.41	22.416
594.75	22.481
595.08	22.777
595.42	22.046
595.75	22.306
596.09	21.814
596.42	22.365
596.75	22.247
597.09	21.731
597.42	22.177
597.75	22.446
598.09	21.367
598.42	22.067
598.76	22.308
599.09	22.436
599.42	21.978
599.76	22.009
600.09	21.833
600.42	22.896
600.76	22.400
601.09	21.450
601.42	21.504
601.76	22.033
602.09	21.576
602.42	22.915
602.76	22.326
603.09	22.176
603.42	22.826
603.76	22.581
604.09	21.912
604.42	21.954
604.76	22.474
605.09	22.121
605.42	22.980
605.75	22.461
606.09	22.081
606.42	21.935
606.75	21.255
607.09	22.593
607.42	22.020
607.75	22.069
608.08	21.698
608.42	21.745
608.75	21.783
609.08	21.973
609.41	21.269
609.75	21.069
610.08	21.917
610.41	21.787
610.74	21.989
611.07	21.654
611.41	21.951
611.74	21.748
612.07	21.842
612.40	21.554
612.73	21.525
613.07	22.047
613.40	22.757
613.73	21.936
614.06	22.649
614.39	22.279
614.72	22.017
615.06	21.732
615.39	21.670
615.72	21.152
616.05	21.453
616.38	20.912
616.71	21.651
617.05	22.607
617.38	22.062
617.71	21.950
618.04	22.921
618.37	22.446
618.70	22.046
619.03	21.667
619.36	21.997
619.69	22.365
620.03	22.279
620.36	21.674
620.69	22.198
621.02	21.942
621.35	21.328
621.68	21.429
622.01	21.083
622.34	23.384
622.67	21.609
623.00	21.822
623.33	22.409
623.66	22.139
623.99	21.710
624.32	21.293
624.65	21.579
624.99	23.025
625.32	21.077
625.65	22.152
625.98	21.998
626.31	19.950
626.64	21.577
626.97	22.251
627.30	21.979
627.63	22.184
627.96	22.013
628.29	21.462
628.62	22.124
628.95	21.242
629.28	21.472
629.61	21.236
629.94	22.581
630.26	20.652
630.59	21.644
630.92	21.744
631.25	21.846
631.58	21.145
631.91	20.504
632.24	21.330
632.57	21.250
