SpectraSuite Data File
++++++++++++++++++++++++++++++++++++
Date: Fri May 15 20:39:40 PDT 2015
User: schluterlab
Dark Spectrum Present: Yes
Reference Spectrum Present: Yes
Number of Sampled Component Spectra: 1
Spectrometers: USB2E3373
Integration Time (usec): 3000 (USB2E3373)
Spectra Averaged: 3 (USB2E3373)
Boxcar Smoothing: 0 (USB2E3373)
Correct for Electrical Dark: No (USB2E3373)
Strobe/Lamp Enabled: No (USB2E3373)
Correct for Detector Non-linearity: No (USB2E3373)
Correct for Stray Light: No (USB2E3373)
Number of Pixels in Processed Spectrum: 2048
>>>>>Begin Processed Spectral Data<<<<<
178.53	0.000
178.91	0.000
179.29	-12.500
179.67	-400.000
180.04	-128.571
180.42	125.000
180.80	-100.000
181.18	66.667
181.56	150.000
181.94	-300.000
182.31	600.000
182.69	-80.000
183.07	-200.000
183.45	-240.000
183.83	66.667
184.20	118.182
184.58	233.333
184.96	-75.000
185.34	-66.667
185.72	-450.000
186.09	-15.385
186.47	300.000
186.85	166.667
187.23	133.333
187.61	500.000
187.98	-200.000
188.36	77.778
188.74	33.333
189.12	-11.765
189.49	61.111
189.87	0.000
190.25	50.000
190.63	300.000
191.00	-500.000
191.38	10.526
191.76	200.000
192.14	25.000
192.51	300.000
192.89	-44.444
193.27	85.714
193.65	133.333
194.02	100.000
194.40	100.000
194.78	-87.500
195.15	58.333
195.53	-12.500
195.91	200.000
196.29	-25.000
196.66	69.231
197.04	114.286
197.42	-66.667
197.79	-66.667
198.17	-100.000
198.55	1000.000
198.92	-566.667
199.30	-700.000
199.68	-120.000
200.05	-200.000
200.43	0.000
200.81	-100.000
201.18	-366.667
201.56	-300.000
201.94	-150.000
202.31	66.667
202.69	-80.000
203.07	200.000
203.44	-100.000
203.82	0.000
204.19	28.571
204.57	-333.333
204.95	112.500
205.32	80.000
205.70	71.429
206.08	25.000
206.45	66.667
206.83	-21.429
207.20	-85.714
207.58	300.000
207.96	-266.667
208.33	30.000
208.71	-150.000
209.08	-166.667
209.46	-1300.000
209.84	-200.000
210.21	-1100.000
210.59	157.143
210.96	-83.333
211.34	-100.000
211.71	40.000
212.09	14.286
212.46	-1400.000
212.84	0.000
213.22	80.000
213.59	650.000
213.97	30.769
214.34	81.818
214.72	-66.667
215.09	375.000
215.47	61.538
215.84	-54.545
216.22	-366.667
216.59	-137.500
216.97	-100.000
217.34	-125.000
217.72	-160.000
218.09	87.500
218.47	125.000
218.84	-1500.000
219.22	-55.556
219.59	-40.000
219.97	233.333
220.34	350.000
220.72	28.571
221.09	-100.000
221.47	-350.000
221.84	-300.000
222.22	-100.000
222.59	100.000
222.97	66.667
223.34	-133.333
223.72	7.143
224.09	47.619
224.46	-17.857
224.84	333.333
225.21	60.000
225.59	80.000
225.96	-50.000
226.34	300.000
226.71	-114.286
227.08	-16.667
227.46	-37.500
227.83	-550.000
228.21	-55.556
228.58	118.182
228.95	50.000
229.33	130.000
229.70	75.000
230.08	-112.500
230.45	-114.286
230.82	128.571
231.20	6.667
231.57	64.286
231.95	-14.286
232.32	-70.000
232.69	14.286
233.07	-100.000
233.44	-220.000
233.81	-10.000
234.19	-11.111
234.56	0.000
234.93	200.000
235.31	25.000
235.68	60.000
236.05	30.769
236.43	15.000
236.80	82.353
237.17	25.000
237.55	25.000
237.92	18.519
238.29	8.333
238.67	30.000
239.04	20.588
239.41	12.195
239.79	36.667
240.16	68.293
240.53	28.947
240.91	34.783
241.28	39.683
241.65	41.071
242.02	56.164
242.40	63.333
242.77	47.458
243.14	39.394
243.51	38.750
243.89	47.126
244.26	49.425
244.63	53.571
245.00	62.887
245.38	58.763
245.75	48.315
246.12	38.793
246.49	57.025
246.87	61.538
247.24	52.101
247.61	40.351
247.98	43.089
248.36	48.125
248.73	51.316
249.10	44.156
249.47	48.734
249.84	50.327
250.22	52.941
250.59	56.863
250.96	48.357
251.33	48.256
251.70	62.353
252.08	56.345
252.45	50.990
252.82	55.779
253.19	46.083
253.56	49.533
253.94	54.054
254.31	52.609
254.68	55.263
255.05	49.213
255.42	50.218
255.79	50.965
256.16	54.475
256.54	50.000
256.91	49.430
257.28	49.814
257.65	53.184
258.02	49.645
258.39	53.872
258.76	51.282
259.14	54.153
259.51	50.809
259.88	53.952
260.25	53.922
260.62	57.639
260.99	53.220
261.36	49.658
261.73	51.266
262.10	53.495
262.47	54.294
262.85	49.530
263.22	51.692
263.59	52.960
263.96	56.211
264.33	54.242
264.70	50.298
265.07	52.976
265.44	52.408
265.81	50.847
266.18	52.459
266.55	51.928
266.92	53.109
267.29	49.608
267.66	52.430
268.03	53.665
268.40	51.175
268.77	58.556
269.14	51.559
269.51	52.185
269.88	50.374
270.25	51.531
270.62	51.707
270.99	51.151
271.36	54.523
271.73	50.939
272.10	51.582
272.47	53.191
272.84	51.733
273.21	51.508
273.58	51.566
273.95	50.343
274.32	49.192
274.69	49.095
275.06	53.348
275.43	50.567
275.80	49.007
276.17	53.333
276.54	48.394
276.91	50.658
277.28	52.402
277.65	51.240
278.02	47.872
278.39	48.796
278.76	51.992
279.13	46.058
279.50	48.319
279.87	46.652
280.23	51.398
280.60	50.097
280.97	50.505
281.34	46.346
281.71	52.772
282.08	47.239
282.45	45.988
282.82	48.263
283.19	48.549
283.56	46.243
283.92	48.577
284.29	46.154
284.66	45.543
285.03	47.937
285.40	47.826
285.77	45.167
286.14	47.292
286.51	46.310
286.87	44.973
287.24	48.250
287.61	44.268
287.98	45.263
288.35	45.061
288.72	46.060
289.08	44.618
289.45	45.167
289.82	46.678
290.19	46.075
290.56	42.882
290.93	43.098
291.29	37.750
291.66	42.205
292.03	41.627
292.40	42.258
292.77	39.872
293.13	40.584
293.50	39.605
293.87	38.626
294.24	39.413
294.60	37.705
294.97	37.649
295.34	40.644
295.71	38.301
296.08	38.266
296.44	35.135
296.81	36.528
297.18	38.116
297.55	36.856
297.91	36.986
298.28	35.884
298.65	36.092
299.02	35.175
299.38	34.747
299.75	36.276
300.12	33.901
300.48	34.914
300.85	33.967
301.22	35.714
301.59	35.263
301.95	34.810
302.32	36.187
302.69	33.085
303.05	32.054
303.42	33.499
303.79	33.294
304.15	34.050
304.52	31.153
304.89	32.982
305.25	33.898
305.62	33.139
305.99	32.749
306.35	32.948
306.72	32.058
307.09	32.497
307.45	33.065
307.82	31.366
308.19	34.146
308.55	32.170
308.92	33.333
309.29	31.955
309.65	31.539
310.02	31.023
310.38	32.162
310.75	32.459
311.12	31.001
311.48	32.025
311.85	30.262
312.22	33.228
312.58	31.635
312.95	30.309
313.31	31.159
313.68	32.775
314.05	30.816
314.41	31.340
314.78	32.062
315.14	32.888
315.51	32.298
315.87	31.967
316.24	32.659
316.61	31.299
316.97	32.044
317.34	31.152
317.70	33.270
318.07	31.154
318.43	31.569
318.80	31.534
319.16	33.691
319.53	33.333
319.89	32.283
320.26	33.300
320.62	33.801
320.99	32.463
321.35	34.224
321.72	35.410
322.08	35.247
322.45	35.939
322.81	35.560
323.18	35.819
323.54	35.135
323.91	36.125
324.27	37.109
324.64	37.640
325.00	39.142
325.37	39.578
325.73	38.078
326.10	39.328
326.46	40.987
326.83	40.245
327.19	39.233
327.56	41.095
327.92	42.254
328.29	41.071
328.65	44.057
329.01	43.474
329.38	43.502
329.74	42.776
330.11	42.632
330.47	43.228
330.84	43.942
331.20	46.958
331.56	45.185
331.93	45.205
332.29	45.555
332.66	44.344
333.02	46.190
333.38	45.371
333.75	45.696
334.11	44.763
334.48	46.691
334.84	46.337
335.20	46.661
335.57	45.150
335.93	47.064
336.29	48.158
336.66	45.958
337.02	48.327
337.38	47.037
337.75	47.273
338.11	47.791
338.47	48.266
338.84	47.689
339.20	47.715
339.56	48.624
339.93	48.970
340.29	48.257
340.65	48.387
341.02	47.606
341.38	48.938
341.74	47.173
342.11	47.054
342.47	48.310
342.83	48.702
343.20	48.084
343.56	47.826
343.92	49.424
344.28	49.274
344.65	48.618
345.01	48.660
345.37	47.939
345.73	48.619
346.10	51.596
346.46	48.612
346.82	48.773
347.19	47.880
347.55	49.624
347.91	48.544
348.27	47.373
348.63	49.744
349.00	48.811
349.36	50.956
349.72	49.171
350.08	49.180
350.45	49.641
350.81	48.671
351.17	48.779
351.53	50.041
351.89	49.381
352.26	51.520
352.62	50.323
352.98	49.799
353.34	50.081
353.70	49.919
354.07	49.677
354.43	49.880
354.79	51.363
355.15	50.238
355.51	50.316
355.87	50.000
356.24	51.468
356.60	49.879
356.96	52.302
357.32	50.559
357.68	51.525
358.04	51.858
358.40	52.492
358.77	51.675
359.13	53.163
359.49	52.003
359.85	52.808
360.21	53.190
360.57	52.028
360.93	52.572
361.29	51.208
361.66	52.508
362.02	52.652
362.38	53.998
362.74	52.914
363.10	55.004
363.46	53.669
363.82	53.644
364.18	53.358
364.54	52.794
364.90	53.333
365.26	53.421
365.62	54.818
365.98	54.692
366.35	54.042
366.71	54.915
367.07	54.644
367.43	54.277
367.79	53.993
368.15	55.779
368.51	54.771
368.87	54.774
369.23	54.513
369.59	55.977
369.95	55.352
370.31	55.419
370.67	55.970
371.03	55.564
371.39	55.945
371.75	54.359
372.11	54.993
372.47	55.547
372.83	56.849
373.19	56.063
373.55	56.606
373.91	56.803
374.27	57.335
374.63	57.717
374.99	55.177
375.35	56.685
375.71	58.741
376.07	57.514
376.42	57.619
376.78	58.993
377.14	58.226
377.50	58.433
377.86	58.367
378.22	57.690
378.58	57.244
378.94	59.672
379.30	57.392
379.66	59.310
380.02	57.756
380.38	58.247
380.74	58.348
381.09	59.202
381.45	60.061
381.81	58.914
382.17	59.835
382.53	60.212
382.89	60.452
383.25	60.299
383.61	59.939
383.97	60.508
384.32	59.912
384.68	60.310
385.04	60.723
385.40	60.548
385.76	61.824
386.12	61.514
386.48	59.898
386.83	61.065
387.19	61.538
387.55	61.292
387.91	61.614
388.27	60.195
388.62	61.926
388.98	61.510
389.34	61.399
389.70	60.659
390.06	60.667
390.42	60.427
390.77	62.328
391.13	60.530
391.49	61.772
391.85	63.483
392.20	60.891
392.56	61.538
392.92	60.951
393.28	62.382
393.64	61.682
393.99	63.260
394.35	61.986
394.71	62.963
395.07	61.031
395.42	60.899
395.78	62.671
396.14	61.475
396.50	62.904
396.85	62.202
397.21	61.404
397.57	62.382
397.92	61.114
398.28	62.241
398.64	59.699
399.00	61.061
399.35	60.045
399.71	61.746
400.07	61.971
400.42	59.241
400.78	62.033
401.14	61.464
401.49	61.346
401.85	61.304
402.21	61.325
402.57	61.813
402.92	61.418
403.28	61.466
403.63	62.106
403.99	61.607
404.35	61.711
404.70	59.464
405.06	61.105
405.42	60.286
405.77	61.069
406.13	60.244
406.49	59.680
406.84	61.186
407.20	61.830
407.55	60.786
407.91	60.628
408.27	60.612
408.62	61.354
408.98	60.136
409.34	60.657
409.69	59.238
410.05	59.729
410.40	60.432
410.76	60.253
411.11	60.000
411.47	60.487
411.83	59.071
412.18	61.454
412.54	59.613
412.89	59.667
413.25	60.108
413.60	60.559
413.96	58.037
414.31	58.171
414.67	58.499
415.03	59.121
415.38	58.225
415.74	59.674
416.09	59.569
416.45	59.824
416.80	58.361
417.16	58.287
417.51	59.560
417.87	57.432
418.22	59.780
418.58	60.468
418.93	58.746
419.29	57.490
419.64	58.717
420.00	59.005
420.35	57.552
420.71	58.445
421.06	58.379
421.42	58.293
421.77	57.225
422.12	57.662
422.48	57.607
422.83	58.121
423.19	57.788
423.54	57.143
423.90	56.360
424.25	56.659
424.61	58.629
424.96	56.156
425.31	57.712
425.67	57.746
426.02	58.539
426.38	58.172
426.73	57.506
427.09	57.785
427.44	56.118
427.79	56.865
428.15	56.553
428.50	57.541
428.85	55.651
429.21	56.933
429.56	57.251
429.92	56.343
430.27	55.188
430.62	54.992
430.98	56.953
431.33	55.836
431.68	56.253
432.04	56.456
432.39	54.934
432.74	55.622
433.10	56.724
433.45	55.795
433.80	56.123
434.16	55.623
434.51	54.785
434.86	56.504
435.22	55.468
435.57	56.020
435.92	54.611
436.28	54.264
436.63	54.193
436.98	53.998
437.34	54.628
437.69	55.277
438.04	55.214
438.39	54.184
438.75	56.041
439.10	55.178
439.45	54.656
439.81	54.190
440.16	55.879
440.51	55.522
440.86	56.012
441.22	54.072
441.57	54.857
441.92	55.614
442.27	55.044
442.63	56.531
442.98	55.313
443.33	54.035
443.68	54.907
444.03	55.142
444.39	53.960
444.74	55.463
445.09	56.125
445.44	54.758
445.79	55.338
446.15	54.350
446.50	54.465
446.85	54.782
447.20	54.484
447.55	55.134
447.91	53.751
448.26	54.354
448.61	54.116
448.96	54.561
449.31	53.642
449.66	54.181
450.02	54.535
450.37	54.001
450.72	53.551
451.07	55.316
451.42	53.558
451.77	54.250
452.12	53.170
452.47	53.123
452.83	53.004
453.18	53.447
453.53	52.339
453.88	54.159
454.23	54.518
454.58	52.897
454.93	53.866
455.28	52.381
455.63	53.875
455.98	53.638
456.34	51.980
456.69	53.240
457.04	53.497
457.39	52.855
457.74	52.660
458.09	51.265
458.44	52.253
458.79	51.989
459.14	52.002
459.49	52.955
459.84	52.341
460.19	52.488
460.54	52.078
460.89	51.023
461.24	52.422
461.59	52.197
461.94	50.063
462.29	52.111
462.64	52.027
462.99	50.982
463.34	51.878
463.69	50.579
464.04	51.271
464.39	50.819
464.74	50.859
465.09	51.216
465.44	52.048
465.79	49.376
466.14	50.285
466.49	49.396
466.84	51.220
467.19	50.751
467.54	49.681
467.89	50.095
468.24	49.392
468.59	51.048
468.94	50.159
469.29	50.361
469.64	49.624
469.99	49.895
470.34	49.693
470.68	49.366
471.03	49.540
471.38	49.786
471.73	49.860
472.08	49.118
472.43	49.128
472.78	49.006
473.13	50.136
473.48	48.860
473.83	47.509
474.17	48.510
474.52	48.437
474.87	48.364
475.22	48.505
475.57	48.108
475.92	48.985
476.27	47.788
476.61	48.958
476.96	47.239
477.31	47.864
477.66	46.685
478.01	47.277
478.36	46.950
478.70	47.580
479.05	48.571
479.40	48.384
479.75	46.924
480.10	46.646
480.45	47.750
480.79	47.684
481.14	47.285
481.49	45.517
481.84	46.670
482.19	46.211
482.53	46.667
482.88	46.444
483.23	46.257
483.58	46.179
483.92	45.450
484.27	45.488
484.62	45.585
484.97	46.393
485.31	44.400
485.66	43.982
486.01	44.608
486.36	44.450
486.70	44.631
487.05	45.432
487.40	44.312
487.75	43.972
488.09	44.005
488.44	43.741
488.79	44.752
489.13	44.671
489.48	43.523
489.83	44.798
490.17	43.236
490.52	44.434
490.87	43.267
491.22	43.266
491.56	43.359
491.91	43.356
492.26	44.239
492.60	43.330
492.95	44.761
493.30	44.455
493.64	43.910
493.99	42.415
494.34	42.330
494.68	42.381
495.03	42.676
495.37	43.327
495.72	42.251
496.07	43.317
496.41	42.264
496.76	42.653
497.11	41.220
497.45	42.864
497.80	43.290
498.14	41.878
498.49	42.357
498.84	40.569
499.18	42.771
499.53	41.815
499.87	41.926
500.22	42.384
500.56	42.663
500.91	41.667
501.26	41.522
501.60	41.367
501.95	40.805
502.29	40.678
502.64	41.023
502.98	41.095
503.33	40.730
503.67	40.241
504.02	41.202
504.36	41.959
504.71	40.758
505.06	40.413
505.40	40.558
505.75	41.546
506.09	41.054
506.44	41.478
506.78	40.867
507.13	40.745
507.47	40.574
507.82	40.224
508.16	40.993
508.51	40.923
508.85	40.031
509.19	39.702
509.54	40.965
509.88	39.428
510.23	40.613
510.57	40.460
510.92	38.966
511.26	39.662
511.61	40.484
511.95	39.562
512.30	39.523
512.64	40.067
512.98	39.641
513.33	39.116
513.67	39.625
514.02	40.503
514.36	40.514
514.70	41.259
515.05	39.835
515.39	40.437
515.74	40.000
516.08	40.347
516.42	40.224
516.77	40.257
517.11	40.059
517.46	39.856
517.80	39.750
518.14	39.988
518.49	38.762
518.83	39.186
519.17	38.933
519.52	38.603
519.86	38.475
520.20	39.611
520.55	37.523
520.89	39.021
521.23	38.442
521.58	38.738
521.92	39.423
522.26	37.931
522.61	39.286
522.95	38.079
523.29	39.136
523.64	39.898
523.98	39.404
524.32	38.144
524.66	39.052
525.01	40.000
525.35	38.496
525.69	38.586
526.04	37.963
526.38	39.818
526.72	37.933
527.06	38.197
527.41	38.654
527.75	38.874
528.09	38.671
528.43	37.880
528.78	37.360
529.12	37.742
529.46	38.207
529.80	37.049
530.15	38.614
530.49	38.519
530.83	38.782
531.17	37.273
531.51	38.714
531.86	37.661
532.20	37.439
532.54	37.577
532.88	37.919
533.22	37.433
533.57	36.763
533.91	37.337
534.25	37.826
534.59	37.075
534.93	36.627
535.27	35.914
535.62	36.941
535.96	36.269
536.30	36.609
536.64	36.940
536.98	36.794
537.32	38.051
537.66	37.588
538.01	36.224
538.35	36.546
538.69	35.819
539.03	35.612
539.37	36.878
539.71	36.810
540.05	36.728
540.39	36.011
540.73	36.471
541.07	36.740
541.42	36.022
541.76	36.476
542.10	35.582
542.44	36.414
542.78	34.549
543.12	35.508
543.46	36.718
543.80	36.086
544.14	34.646
544.48	34.710
544.82	35.202
545.16	35.246
545.50	35.981
545.84	34.986
546.18	35.745
546.52	35.112
546.86	36.161
547.20	35.265
547.54	33.922
547.88	34.783
548.22	34.254
548.56	33.971
548.90	35.782
549.24	34.298
549.58	34.485
549.92	33.953
550.26	33.626
550.60	36.134
550.94	34.503
551.28	34.158
551.62	35.308
551.96	35.263
552.30	34.137
552.64	33.921
552.98	33.474
553.32	33.452
553.66	32.874
554.00	33.796
554.34	33.456
554.68	34.218
555.02	34.449
555.36	32.760
555.69	33.553
556.03	32.976
556.37	32.954
556.71	35.307
557.05	33.482
557.39	33.532
557.73	33.508
558.07	34.691
558.41	33.767
558.75	34.684
559.08	34.200
559.42	33.254
559.76	34.588
560.10	33.410
560.44	33.656
560.78	33.916
561.12	33.639
561.45	34.083
561.79	33.613
562.13	33.144
562.47	33.094
562.81	31.628
563.15	34.415
563.48	33.663
563.82	33.150
564.16	33.078
564.50	31.892
564.84	32.731
565.17	33.333
565.51	33.675
565.85	34.156
566.19	33.289
566.52	33.579
566.86	33.612
567.20	33.250
567.54	34.063
567.88	33.685
568.21	33.824
568.55	32.337
568.89	34.138
569.23	33.414
569.56	33.538
569.90	33.942
570.24	32.750
570.57	33.164
570.91	33.043
571.25	33.805
571.59	32.513
571.92	32.119
572.26	32.126
572.60	32.031
572.93	31.691
573.27	32.006
573.61	32.607
573.95	32.168
574.28	32.203
574.62	31.681
574.96	32.461
575.29	31.979
575.63	31.200
575.97	31.960
576.30	32.218
576.64	31.709
576.98	32.407
577.31	32.145
577.65	32.362
577.98	32.396
578.32	31.887
578.66	31.378
578.99	31.469
579.33	31.401
579.67	31.315
580.00	31.797
580.34	31.393
580.67	31.157
581.01	31.436
581.35	31.481
581.68	31.864
582.02	31.657
582.35	31.458
582.69	31.613
583.02	31.553
583.36	31.843
583.70	32.555
584.03	32.332
584.37	31.846
584.70	31.676
585.04	30.855
585.37	31.278
585.71	31.079
586.04	31.266
586.38	31.048
586.72	31.966
587.05	31.571
587.39	31.982
587.72	31.766
588.06	31.663
588.39	31.672
588.73	31.990
589.06	31.996
589.40	31.110
589.73	31.508
590.07	31.760
590.40	31.540
590.73	32.002
591.07	31.383
591.40	31.434
591.74	32.036
592.07	31.957
592.41	31.493
592.74	30.705
593.08	30.772
593.41	31.071
593.75	30.651
594.08	30.141
594.41	31.114
594.75	30.725
595.08	31.063
595.42	31.100
595.75	31.618
596.09	31.001
596.42	30.798
596.75	31.972
597.09	31.116
597.42	30.939
597.75	30.692
598.09	30.330
598.42	30.235
598.76	30.845
599.09	31.290
599.42	31.072
599.76	30.775
600.09	31.146
600.42	30.402
600.76	30.015
601.09	31.145
601.42	29.808
601.76	29.575
602.09	30.033
602.42	31.255
602.76	30.688
603.09	31.728
603.42	31.396
603.76	30.524
604.09	30.255
604.42	31.134
604.76	30.352
605.09	30.896
605.42	29.707
605.75	29.991
606.09	30.361
606.42	30.484
606.75	30.606
607.09	30.505
607.42	29.774
607.75	29.529
608.08	29.650
608.42	30.562
608.75	30.410
609.08	30.942
609.41	30.660
609.75	28.831
610.08	30.005
610.41	30.145
610.74	30.327
611.07	29.974
611.41	30.099
611.74	30.437
612.07	29.711
612.40	31.346
612.73	30.000
613.07	29.696
613.40	30.361
613.73	30.162
614.06	30.106
614.39	30.288
614.72	29.972
615.06	29.553
615.39	29.367
615.72	29.386
616.05	29.665
616.38	29.117
616.71	29.052
617.05	29.710
617.38	30.673
617.71	30.252
618.04	31.175
618.37	30.643
618.70	30.231
619.03	30.625
619.36	29.812
619.69	29.871
620.03	30.679
620.36	30.258
620.69	30.335
621.02	30.046
621.35	30.705
621.68	30.952
622.01	29.667
622.34	30.806
622.67	29.416
623.00	30.168
623.33	29.573
623.66	30.217
623.99	29.123
624.32	29.430
624.65	29.248
624.99	30.399
625.32	29.189
625.65	31.736
625.98	29.573
626.31	28.845
626.64	28.769
626.97	30.716
627.30	28.634
627.63	29.289
627.96	30.458
628.29	29.880
628.62	29.990
628.95	29.259
629.28	29.738
629.61	28.614
629.94	30.303
630.26	29.545
630.59	29.136
630.92	30.974
631.25	28.308
631.58	29.846
631.91	28.070
632.24	28.211
632.57	30.227
632.90	28.470
633.23	30.235
