SpectraSuite Data File
++++++++++++++++++++++++++++++++++++
Date: Fri May 15 20:31:50 PDT 2015
User: schluterlab
Dark Spectrum Present: Yes
Reference Spectrum Present: Yes
Number of Sampled Component Spectra: 1
Spectrometers: USB2E3373
Integration Time (usec): 3000 (USB2E3373)
Spectra Averaged: 3 (USB2E3373)
Boxcar Smoothing: 0 (USB2E3373)
Correct for Electrical Dark: No (USB2E3373)
Strobe/Lamp Enabled: No (USB2E3373)
Correct for Detector Non-linearity: No (USB2E3373)
Correct for Stray Light: No (USB2E3373)
Number of Pixels in Processed Spectrum: 2048
>>>>>Begin Processed Spectral Data<<<<<
178.53	0.000
178.91	0.000
179.29	37.500
179.67	-800.000
180.04	42.857
180.42	75.000
180.80	0.000
181.18	-66.667
181.56	650.000
181.94	0.000
182.31	300.000
182.69	-160.000
183.07	-66.667
183.45	220.000
183.83	100.000
184.20	9.091
184.58	44.444
184.96	-50.000
185.34	100.000
185.72	-500.000
186.09	184.615
186.47	-500.000
186.85	233.333
187.23	166.667
187.61	300.000
187.98	-433.333
188.36	22.222
188.74	0.000
189.12	47.059
189.49	44.444
189.87	0.000
190.25	14.286
190.63	-250.000
191.00	-66.667
191.38	26.316
191.76	300.000
192.14	100.000
192.51	-100.000
192.89	11.111
193.27	-114.286
193.65	83.333
194.02	209.091
194.40	70.000
194.78	12.500
195.15	-50.000
195.53	-112.500
195.91	375.000
196.29	-100.000
196.66	176.923
197.04	171.429
197.42	-122.222
197.79	-100.000
198.17	-38.462
198.55	1900.000
198.92	-433.333
199.30	-200.000
199.68	-340.000
200.05	-233.333
200.43	0.000
200.81	100.000
201.18	0.000
201.56	1200.000
201.94	-350.000
202.31	100.000
202.69	-240.000
203.07	275.000
203.44	-200.000
203.82	0.000
204.19	14.286
204.57	-100.000
204.95	225.000
205.32	-30.000
205.70	57.143
206.08	-300.000
206.45	111.111
206.83	42.857
207.20	28.571
207.58	200.000
207.96	-433.333
208.33	-80.000
208.71	-50.000
209.08	-183.333
209.46	-1400.000
209.84	20.000
210.21	-800.000
210.59	-14.286
210.96	-33.333
211.34	100.000
211.71	-40.000
212.09	-100.000
212.46	-1500.000
212.84	0.000
213.22	-10.000
213.59	600.000
213.97	100.000
214.34	54.545
214.72	-66.667
215.09	500.000
215.47	0.000
215.84	-81.818
216.22	-366.667
216.59	-62.500
216.97	-400.000
217.34	25.000
217.72	-160.000
218.09	-37.500
218.47	150.000
218.84	-300.000
219.22	-100.000
219.59	80.000
219.97	266.667
220.34	175.000
220.72	28.571
221.09	-300.000
221.47	-400.000
221.84	-900.000
222.22	-700.000
222.59	63.636
222.97	58.333
223.34	-233.333
223.72	-57.143
224.09	4.762
224.46	3.571
224.84	500.000
225.21	0.000
225.59	-26.667
225.96	-150.000
226.34	250.000
226.71	-71.429
227.08	66.667
227.46	0.000
227.83	-1050.000
228.21	-55.556
228.58	72.727
228.95	-12.500
229.33	180.000
229.70	6.250
230.08	-25.000
230.45	-157.143
230.82	-85.714
231.20	-13.333
231.57	42.857
231.95	85.714
232.32	-90.000
232.69	71.429
233.07	-66.667
233.44	-40.000
233.81	-90.000
234.19	55.556
234.56	5.882
234.93	300.000
235.31	-75.000
235.68	-280.000
236.05	-61.538
236.43	-25.000
236.80	11.765
237.17	25.000
237.55	-25.000
237.92	-18.519
238.29	-5.556
238.67	3.333
239.04	11.765
239.41	-36.585
239.79	23.333
240.16	26.829
240.53	23.684
240.91	-4.348
241.28	11.111
241.65	41.071
242.02	23.288
242.40	38.333
242.77	25.424
243.14	6.061
243.51	20.000
243.89	28.736
244.26	16.092
244.63	29.762
245.00	30.928
245.38	15.464
245.75	12.360
246.12	18.103
246.49	30.579
246.87	25.962
247.24	17.647
247.61	18.421
247.98	19.512
248.36	20.625
248.73	26.316
249.10	25.974
249.47	24.051
249.84	27.451
250.22	25.294
250.59	19.608
250.96	27.700
251.33	26.163
251.70	27.647
252.08	24.365
252.45	21.287
252.82	28.141
253.19	29.032
253.56	20.093
253.94	20.721
254.31	27.391
254.68	28.070
255.05	26.378
255.42	25.764
255.79	28.958
256.16	20.623
256.54	26.866
256.91	24.335
257.28	26.394
257.65	22.097
258.02	25.532
258.39	21.886
258.76	30.403
259.14	24.917
259.51	26.537
259.88	23.368
260.25	24.183
260.62	29.514
260.99	23.729
261.36	25.000
261.73	23.734
262.10	26.140
262.47	28.528
262.85	22.884
263.22	27.077
263.59	25.857
263.96	30.124
264.33	27.576
264.70	24.702
265.07	27.083
265.44	28.045
265.81	26.836
266.18	28.962
266.55	25.964
266.92	26.684
267.29	25.587
267.66	25.831
268.03	30.890
268.40	25.587
268.77	27.540
269.14	27.578
269.51	23.650
269.88	23.691
270.25	22.959
270.62	24.390
270.99	23.274
271.36	26.895
271.73	28.404
272.10	24.088
272.47	27.660
272.84	26.733
273.21	26.218
273.58	26.265
273.95	28.146
274.32	24.942
274.69	24.208
275.06	25.446
275.43	26.304
275.80	25.828
276.17	26.437
276.54	24.411
276.91	25.658
277.28	24.454
277.65	26.446
278.02	24.255
278.39	28.228
278.76	24.948
279.13	23.029
279.50	24.790
279.87	25.702
280.23	24.086
280.60	25.146
280.97	26.061
281.34	25.000
281.71	27.515
282.08	25.153
282.45	25.245
282.82	24.324
283.19	24.758
283.56	25.241
283.92	22.770
284.29	24.231
284.66	24.612
285.03	23.772
285.40	24.008
285.77	24.253
286.14	24.188
286.51	26.015
286.87	21.207
287.24	25.599
287.61	23.280
287.98	24.211
288.35	24.783
288.72	24.518
289.08	21.354
289.45	21.968
289.82	25.350
290.19	21.843
290.56	20.926
290.93	20.034
291.29	22.188
291.66	22.992
292.03	21.053
292.40	20.000
292.77	21.531
293.13	19.643
293.50	19.423
293.87	20.000
294.24	20.402
294.60	20.268
294.97	19.643
295.34	19.632
295.71	18.331
296.08	19.432
296.44	17.070
296.81	19.861
297.18	20.580
297.55	20.596
297.91	20.274
298.28	20.053
298.65	18.589
299.02	19.542
299.38	17.784
299.75	17.517
300.12	18.848
300.48	18.050
300.85	18.631
301.22	16.753
301.59	17.763
301.95	19.873
302.32	18.807
302.69	17.413
303.05	17.946
303.42	19.054
303.79	19.860
304.15	19.116
304.52	16.052
304.89	15.673
305.25	17.433
305.62	16.336
305.99	16.725
306.35	17.341
306.72	15.861
307.09	18.586
307.45	17.451
307.82	16.319
308.19	16.841
308.55	17.884
308.92	19.499
309.29	17.765
309.65	16.577
310.02	16.832
310.38	18.441
310.75	18.033
311.12	16.577
311.48	16.755
311.85	17.068
312.22	15.928
312.58	17.622
312.95	17.930
313.31	16.977
313.68	17.487
314.05	18.878
314.41	18.351
314.78	18.454
315.14	20.041
315.51	18.737
315.87	19.467
316.24	21.739
316.61	20.374
316.97	20.833
317.34	20.117
317.70	20.554
318.07	21.923
318.43	22.647
318.80	21.117
319.16	21.973
319.53	23.172
319.89	23.031
320.26	23.583
320.62	24.072
320.99	24.113
321.35	24.974
321.72	25.961
322.08	28.097
322.45	27.513
322.81	27.308
323.18	28.165
323.54	29.537
323.91	29.309
324.27	30.762
324.64	31.273
325.00	31.478
325.37	34.068
325.73	33.726
326.10	34.968
326.46	36.951
326.83	36.920
327.19	38.535
327.56	37.619
327.92	40.053
328.29	40.179
328.65	42.075
329.01	41.452
329.38	42.581
329.74	42.965
330.11	43.188
330.47	42.764
330.84	43.846
331.20	47.053
331.56	44.722
331.93	47.854
332.29	47.846
332.66	48.416
333.02	48.885
333.38	47.113
333.75	48.626
334.11	49.060
334.48	49.501
334.84	49.725
335.20	50.869
335.57	50.861
335.93	52.123
336.29	52.762
336.66	50.863
337.02	52.323
337.38	50.463
337.75	52.818
338.11	51.939
338.47	53.011
338.84	53.050
339.20	53.199
339.56	54.037
339.93	53.715
340.29	55.229
340.65	54.391
341.02	53.812
341.38	54.248
341.74	52.473
342.11	53.206
342.47	53.737
342.83	54.412
343.20	56.446
343.56	56.522
343.92	56.156
344.28	55.764
344.65	55.613
345.01	55.143
345.37	55.088
345.73	56.234
346.10	57.118
346.46	56.266
346.82	56.301
347.19	56.692
347.55	56.391
347.91	55.825
348.27	56.669
348.63	58.092
349.00	55.701
349.36	57.024
349.72	57.877
350.08	56.639
350.45	57.542
350.81	57.475
351.17	57.003
351.53	57.878
351.89	55.822
352.26	56.560
352.62	57.177
352.98	57.028
353.34	56.039
353.70	58.576
354.07	56.452
354.43	58.287
354.79	57.803
355.15	58.730
355.51	58.070
355.87	58.172
356.24	58.238
356.60	56.589
356.96	58.016
357.32	57.827
357.68	58.640
358.04	60.582
358.40	58.762
358.77	58.692
359.13	59.087
359.49	59.707
359.85	58.658
360.21	58.852
360.57	58.761
360.93	59.607
361.29	59.894
361.66	58.150
362.02	61.136
362.38	59.787
362.74	59.727
363.10	60.873
363.46	60.860
363.82	60.781
364.18	58.229
364.54	59.632
364.90	59.355
365.26	60.844
365.62	61.679
365.98	61.217
366.35	62.709
366.71	61.715
367.07	61.030
367.43	59.669
367.79	61.343
368.15	61.378
368.51	60.961
368.87	62.599
369.23	60.361
369.59	61.880
369.95	63.710
370.31	61.055
370.67	62.313
371.03	62.883
371.39	62.509
371.75	63.590
372.11	61.555
372.47	63.388
372.83	62.527
373.19	62.126
373.55	61.949
373.91	60.547
374.27	62.934
374.63	62.383
374.99	62.340
375.35	62.256
375.71	64.336
376.07	62.851
376.42	63.537
376.78	64.094
377.14	62.221
377.50	62.815
377.86	62.115
378.22	64.199
378.58	64.167
378.94	62.067
379.30	63.319
379.66	63.448
380.02	62.845
380.38	63.055
380.74	63.615
381.09	64.479
381.45	63.303
381.81	64.528
382.17	63.832
382.53	63.898
382.89	65.788
383.25	65.028
383.61	65.183
383.97	65.397
384.32	62.977
384.68	64.396
385.04	65.196
385.40	64.717
385.76	66.478
386.12	65.783
386.48	65.900
386.83	65.568
387.19	65.018
387.55	65.621
387.91	63.631
388.27	65.018
388.62	65.261
388.98	64.764
389.34	65.959
389.70	65.693
390.06	64.821
390.42	65.155
390.77	64.748
391.13	63.934
391.49	65.912
391.85	66.082
392.20	65.348
392.56	65.353
392.92	65.355
393.28	65.861
393.64	65.526
393.99	66.959
394.35	65.908
394.71	65.262
395.07	65.116
395.42	65.452
395.78	67.296
396.14	65.889
396.50	66.646
396.85	64.713
397.21	66.040
397.57	64.702
397.92	65.189
398.28	66.322
398.64	63.012
399.00	66.084
399.35	64.447
399.71	64.503
400.07	66.264
400.42	65.912
400.78	66.810
401.14	65.941
401.49	65.396
401.85	65.753
402.21	64.157
402.57	66.812
402.92	65.621
403.28	65.664
403.63	66.330
403.99	66.582
404.35	65.896
404.70	64.702
405.06	64.865
405.42	63.891
405.77	64.439
406.13	66.007
406.49	64.950
406.84	67.543
407.20	65.924
407.55	66.194
407.91	65.174
408.27	67.240
408.62	65.354
408.98	64.633
409.34	66.914
409.69	65.504
410.05	63.054
410.40	65.309
410.76	65.259
411.11	66.250
411.47	65.812
411.83	65.662
412.18	65.766
412.54	65.793
412.89	64.840
413.25	65.704
413.60	65.217
413.96	64.233
414.31	65.793
414.67	64.785
415.03	64.581
415.38	64.948
415.74	64.886
416.09	65.317
416.45	65.834
416.80	65.697
417.16	66.298
417.51	66.622
417.87	64.211
418.22	66.127
418.58	65.217
418.93	65.956
419.29	63.700
419.64	65.716
420.00	66.562
420.35	64.776
420.71	64.824
421.06	63.966
421.42	64.123
421.77	65.896
422.12	65.267
422.48	64.754
422.83	64.559
423.19	65.463
423.54	65.197
423.90	65.194
424.25	66.820
424.61	65.851
424.96	64.402
425.31	67.533
425.67	66.608
426.02	65.960
426.38	65.435
426.73	66.283
427.09	66.772
427.44	67.059
427.79	66.058
428.15	66.080
428.50	65.475
428.85	65.663
429.21	64.856
429.56	68.140
429.92	65.434
430.27	64.211
430.62	65.081
430.98	66.614
431.33	65.037
431.68	64.521
432.04	67.300
432.39	65.374
432.74	65.183
433.10	66.897
433.45	67.204
433.80	66.338
434.16	64.100
434.51	66.022
434.86	67.073
435.22	65.788
435.57	67.311
435.92	67.126
436.28	66.786
436.63	66.343
436.98	66.280
437.34	66.304
437.69	66.249
438.04	67.179
438.39	66.768
438.75	67.699
439.10	66.667
439.45	68.716
439.81	66.667
440.16	68.171
440.51	67.045
440.86	68.580
441.22	66.007
441.57	65.673
441.92	68.258
442.27	67.073
442.63	65.953
442.98	66.973
443.33	66.555
443.68	67.056
444.03	66.120
444.39	66.060
444.74	69.064
445.09	68.040
445.44	67.920
445.79	69.314
446.15	67.126
446.50	67.221
446.85	67.960
447.20	66.788
447.55	67.467
447.91	68.190
448.26	67.501
448.61	67.933
448.96	68.904
449.31	67.977
449.66	67.364
450.02	68.910
450.37	68.880
450.72	67.869
451.07	68.987
451.42	68.040
451.77	68.113
452.12	67.703
452.47	68.191
452.83	68.787
453.18	68.691
453.53	69.785
453.88	69.581
454.23	69.269
454.58	70.151
454.93	69.265
455.28	67.619
455.63	69.312
455.98	68.010
456.34	68.582
456.69	69.695
457.04	71.014
457.39	69.320
457.74	69.105
458.09	67.275
458.44	68.812
458.79	68.123
459.14	69.108
459.49	68.537
459.84	68.246
460.19	67.840
460.54	69.804
460.89	68.295
461.24	69.503
461.59	66.865
461.94	67.610
462.29	68.456
462.64	69.302
462.99	69.262
463.34	68.289
463.69	68.340
464.04	68.220
464.39	68.223
464.74	69.202
465.09	69.183
465.44	68.609
465.79	66.723
466.14	69.156
466.49	66.993
466.84	68.233
467.19	68.461
467.54	68.391
467.89	68.793
468.24	67.275
468.59	68.190
468.94	66.984
469.29	70.164
469.64	69.446
469.99	71.759
470.34	68.805
470.68	71.887
471.03	71.054
471.38	70.114
471.73	69.398
472.08	68.928
472.43	69.799
472.78	69.088
473.13	69.864
473.48	69.381
473.83	67.808
474.17	69.624
474.52	69.432
474.87	69.273
475.22	70.592
475.57	68.944
475.92	68.568
476.27	68.393
476.61	70.660
476.96	67.485
477.31	69.335
477.66	68.034
478.01	68.725
478.36	67.375
478.70	69.440
479.05	69.396
479.40	69.369
479.75	67.153
480.10	67.435
480.45	68.000
480.79	68.077
481.14	69.928
481.49	68.030
481.84	69.064
482.19	67.587
482.53	68.297
482.88	66.826
483.23	68.282
483.58	67.925
483.92	67.328
484.27	67.320
484.62	67.010
484.97	66.294
485.31	64.559
485.66	62.037
486.01	62.601
486.36	61.743
486.70	62.595
487.05	64.150
487.40	63.392
487.75	64.169
488.09	64.957
488.44	64.615
488.79	65.895
489.13	67.228
489.48	66.396
489.83	67.489
490.17	66.921
490.52	68.545
490.87	67.515
491.22	68.386
491.56	67.789
491.91	67.830
492.26	68.887
492.60	67.994
492.95	69.110
493.30	66.634
493.64	70.039
493.99	68.261
494.34	67.282
494.68	68.429
495.03	67.251
495.37	68.057
495.72	69.308
496.07	68.341
496.41	66.981
496.76	66.928
497.11	66.884
497.45	67.399
497.80	68.315
498.14	67.114
498.49	67.547
498.84	66.417
499.18	68.574
499.53	68.552
499.87	66.877
500.22	67.409
500.56	67.726
500.91	68.022
501.26	66.139
501.60	66.257
501.95	67.103
502.29	67.409
502.64	66.940
502.98	66.946
503.33	65.994
503.67	65.928
504.02	66.764
504.36	67.343
504.71	66.162
505.06	66.281
505.40	67.107
505.75	67.526
506.09	66.346
506.44	66.735
506.78	67.500
507.13	67.580
507.47	66.997
507.82	68.536
508.16	67.723
508.51	68.625
508.85	66.824
509.19	68.068
509.54	68.043
509.88	67.368
510.23	68.424
510.57	68.520
510.92	66.151
511.26	67.649
511.61	67.932
511.95	69.041
512.30	68.404
512.64	67.056
512.98	66.536
513.33	68.830
513.67	68.960
514.02	67.563
514.36	68.857
514.70	68.357
515.05	69.976
515.39	68.418
515.74	69.940
516.08	69.038
516.42	68.963
516.77	68.227
517.11	70.504
517.46	68.701
517.80	68.594
518.14	69.320
518.49	67.788
518.83	68.834
519.17	68.163
519.52	69.153
519.86	68.187
520.20	68.530
520.55	67.542
520.89	69.824
521.23	69.728
521.58	68.391
521.92	69.038
522.26	68.120
522.61	68.247
522.95	70.464
523.29	67.916
523.64	68.107
523.98	68.308
524.32	69.523
524.66	70.359
525.01	69.805
525.35	70.512
525.69	69.091
526.04	69.048
526.38	69.585
526.72	67.822
527.06	68.093
527.41	69.063
527.75	69.772
528.09	69.302
528.43	69.007
528.78	68.581
529.12	67.742
529.46	67.251
529.80	66.054
530.15	69.571
530.49	67.744
530.83	68.536
531.17	66.488
531.51	68.331
531.86	65.262
532.20	67.154
532.54	67.393
532.88	67.967
533.22	67.003
533.57	65.727
533.91	66.841
534.25	66.276
534.59	65.298
534.93	65.639
535.27	64.277
535.62	65.068
535.96	65.492
536.30	65.303
536.64	67.609
536.98	65.017
537.32	68.492
537.66	66.269
538.01	66.783
538.35	66.158
538.69	64.913
539.03	64.798
539.37	64.603
539.71	64.485
540.05	63.272
540.39	64.612
540.73	65.132
541.07	64.572
541.42	64.113
541.76	65.244
542.10	63.937
542.44	65.601
542.78	61.390
543.12	63.805
543.46	63.978
543.80	64.053
544.14	61.415
544.48	61.426
544.82	65.140
545.16	64.413
545.50	62.550
545.84	64.377
546.18	64.965
546.52	63.663
546.86	63.911
547.20	63.448
547.54	61.201
547.88	62.772
548.22	61.538
548.56	61.346
548.90	62.332
549.24	64.325
549.58	62.553
549.92	62.831
550.26	63.370
550.60	64.833
550.94	64.451
551.28	65.533
551.62	65.077
551.96	62.556
552.30	62.500
552.64	61.354
552.98	61.955
553.32	62.981
553.66	62.192
554.00	62.847
554.34	63.737
554.68	63.127
555.02	63.616
555.36	61.930
555.69	62.564
556.03	60.742
556.37	61.068
556.71	61.877
557.05	61.894
557.39	63.346
557.73	62.294
558.07	63.650
558.41	62.481
558.75	61.185
559.08	62.411
559.42	62.143
559.76	62.690
560.10	61.697
560.44	61.206
560.78	61.189
561.12	60.790
561.45	60.436
561.79	59.874
562.13	60.539
562.47	59.640
562.81	60.159
563.15	59.450
563.48	59.194
563.82	60.124
564.16	59.610
564.50	59.324
564.84	58.902
565.17	58.484
565.51	59.904
565.85	59.396
566.19	59.881
566.52	58.981
566.86	58.869
567.20	56.600
567.54	58.212
567.88	58.348
568.21	56.109
568.55	55.707
568.89	55.647
569.23	54.502
569.56	52.977
569.90	52.862
570.24	50.651
570.57	51.782
570.91	51.203
571.25	49.918
571.59	48.770
571.92	48.237
572.26	48.188
572.60	48.217
572.93	49.231
573.27	49.216
573.61	48.419
573.95	48.088
574.28	46.743
574.62	46.377
574.96	46.298
575.29	46.492
575.63	45.659
575.97	46.788
576.30	46.584
576.64	45.748
576.98	46.435
577.31	47.039
577.65	46.216
577.98	44.273
578.32	45.235
578.66	44.616
578.99	45.227
579.33	44.492
579.67	44.739
580.00	44.962
580.34	45.672
580.67	44.955
581.01	44.909
581.35	44.057
581.68	43.928
582.02	43.513
582.35	43.417
582.69	43.455
583.02	43.495
583.36	44.571
583.70	45.042
584.03	46.038
584.37	45.737
584.70	45.055
585.04	44.197
585.37	44.595
585.71	44.211
586.04	44.276
586.38	44.572
586.72	45.366
587.05	45.176
587.39	45.178
587.72	45.052
588.06	44.810
588.39	44.660
588.73	44.811
589.06	46.021
589.40	45.455
589.73	46.440
590.07	46.639
590.40	47.407
590.73	47.323
591.07	47.328
591.40	47.596
591.74	48.281
592.07	48.701
592.41	47.571
592.74	46.834
593.08	43.626
593.41	44.020
593.75	44.684
594.08	44.422
594.41	45.779
594.75	44.771
595.08	45.289
595.42	45.344
595.75	45.625
596.09	45.778
596.42	46.341
596.75	46.936
597.09	46.788
597.42	47.154
597.75	47.641
598.09	45.360
598.42	45.984
598.76	45.045
599.09	44.511
599.42	44.146
599.76	43.755
600.09	43.326
600.42	43.973
600.76	43.796
601.09	44.695
601.42	43.909
601.76	44.819
602.09	44.101
602.42	45.872
602.76	44.992
603.09	44.186
603.42	46.363
603.76	43.750
604.09	44.512
604.42	45.093
604.76	47.085
605.09	45.612
605.42	45.056
605.75	44.002
606.09	44.544
606.42	44.412
606.75	44.242
607.09	44.132
607.42	44.085
607.75	44.449
608.08	44.789
608.42	44.815
608.75	45.735
609.08	45.491
609.41	45.482
609.75	44.657
610.08	45.831
610.41	44.831
610.74	44.807
611.07	46.202
611.41	47.172
611.74	46.482
612.07	43.683
612.40	46.007
612.73	46.045
613.07	45.838
613.40	45.842
613.73	44.600
614.06	45.576
614.39	46.024
614.72	45.098
615.06	46.034
615.39	43.886
615.72	44.456
616.05	44.916
616.38	44.786
616.71	46.544
617.05	46.325
617.38	46.323
617.71	46.981
618.04	47.302
618.37	46.974
618.70	47.987
619.03	47.639
619.36	47.757
619.69	49.886
620.03	48.503
620.36	48.069
620.69	47.537
621.02	47.859
621.35	51.452
621.68	52.211
622.01	49.583
622.34	48.843
622.67	49.054
623.00	50.153
623.33	49.009
623.66	47.943
623.99	48.109
624.32	47.909
624.65	46.692
624.99	47.856
625.32	46.854
625.65	48.782
625.98	49.154
626.31	49.044
626.64	51.820
626.97	51.134
627.30	50.525
627.63	49.653
627.96	50.494
628.29	52.174
628.62	51.426
628.95	51.603
629.28	52.520
629.61	51.346
629.94	51.711
630.26	51.383
630.59	52.445
630.92	51.897
631.25	50.872
631.58	54.626
631.91	52.412
632.24	53.784
632.57	54.659
632.90	53.144
633.23	55.647
633.56	56.549
