SpectraSuite Data File
++++++++++++++++++++++++++++++++++++
Date: Fri May 15 21:04:52 PDT 2015
User: schluterlab
Dark Spectrum Present: Yes
Reference Spectrum Present: Yes
Number of Sampled Component Spectra: 1
Spectrometers: USB2E3373
Integration Time (usec): 3000 (USB2E3373)
Spectra Averaged: 3 (USB2E3373)
Boxcar Smoothing: 0 (USB2E3373)
Correct for Electrical Dark: No (USB2E3373)
Strobe/Lamp Enabled: No (USB2E3373)
Correct for Detector Non-linearity: No (USB2E3373)
Correct for Stray Light: No (USB2E3373)
Number of Pixels in Processed Spectrum: 2048
>>>>>Begin Processed Spectral Data<<<<<
178.53	0.000
178.91	0.000
179.29	-37.500
179.67	-100.000
180.04	85.714
180.42	-50.000
180.80	-500.000
181.18	266.667
181.56	200.000
181.94	-250.000
182.31	500.000
182.69	-100.000
183.07	-500.000
183.45	-120.000
183.83	116.667
184.20	0.000
184.58	277.778
184.96	-25.000
185.34	300.000
185.72	-400.000
186.09	100.000
186.47	200.000
186.85	233.333
187.23	188.889
187.61	500.000
187.98	-100.000
188.36	66.667
188.74	-33.333
189.12	-29.412
189.49	55.556
189.87	0.000
190.25	-21.429
190.63	-300.000
191.00	-33.333
191.38	0.000
191.76	150.000
192.14	175.000
192.51	-300.000
192.89	-88.889
193.27	-200.000
193.65	283.333
194.02	227.273
194.40	0.000
194.78	-212.500
195.15	-125.000
195.53	-112.500
195.91	400.000
196.29	-300.000
196.66	153.846
197.04	100.000
197.42	-11.111
197.79	-400.000
198.17	-100.000
198.55	1100.000
198.92	-333.333
199.30	-1200.000
199.68	-80.000
200.05	0.000
200.43	0.000
200.81	-166.667
201.18	-100.000
201.56	1100.000
201.94	-550.000
202.31	166.667
202.69	-220.000
203.07	500.000
203.44	-200.000
203.82	0.000
204.19	7.143
204.57	-866.667
204.95	212.500
205.32	20.000
205.70	-42.857
206.08	-25.000
206.45	188.889
206.83	-14.286
207.20	-114.286
207.58	100.000
207.96	-366.667
208.33	-80.000
208.71	-25.000
209.08	-316.667
209.46	-700.000
209.84	-100.000
210.21	-300.000
210.59	-14.286
210.96	16.667
211.34	-125.000
211.71	26.667
212.09	-271.429
212.46	-800.000
212.84	0.000
213.22	-20.000
213.59	1000.000
213.97	0.000
214.34	-9.091
214.72	-83.333
215.09	600.000
215.47	-15.385
215.84	-45.455
216.22	-166.667
216.59	-150.000
216.97	-200.000
217.34	-325.000
217.72	-360.000
218.09	-200.000
218.47	237.500
218.84	-2200.000
219.22	-88.889
219.59	-200.000
219.97	433.333
220.34	300.000
220.72	-157.143
221.09	-200.000
221.47	-300.000
221.84	-650.000
222.22	-350.000
222.59	-36.364
222.97	-33.333
223.34	-366.667
223.72	-57.143
224.09	52.381
224.46	25.000
224.84	933.333
225.21	-50.000
225.59	-26.667
225.96	0.000
226.34	450.000
226.71	-185.714
227.08	-216.667
227.46	12.500
227.83	-850.000
228.21	-66.667
228.58	-9.091
228.95	-187.500
229.33	110.000
229.70	18.750
230.08	-75.000
230.45	-85.714
230.82	100.000
231.20	-53.333
231.57	0.000
231.95	-71.429
232.32	-120.000
232.69	-7.143
233.07	-233.333
233.44	-20.000
233.81	-50.000
234.19	-33.333
234.56	-64.706
234.93	1200.000
235.31	-200.000
235.68	-440.000
236.05	-69.231
236.43	-50.000
236.80	-52.941
237.17	6.250
237.55	-25.000
237.92	-37.037
238.29	-5.556
238.67	16.667
239.04	-20.588
239.41	-43.902
239.79	-26.667
240.16	2.439
240.53	-13.158
240.91	-45.652
241.28	-7.937
241.65	1.786
242.02	6.849
242.40	-1.667
242.77	-6.780
243.14	-7.576
243.51	-17.500
243.89	6.897
244.26	-10.345
244.63	2.381
245.00	-7.216
245.38	2.062
245.75	-12.360
246.12	-3.448
246.49	-3.306
246.87	-1.923
247.24	-9.244
247.61	-7.895
247.98	-4.065
248.36	2.500
248.73	1.316
249.10	0.000
249.47	0.000
249.84	-1.961
250.22	0.588
250.59	1.307
250.96	7.042
251.33	-3.488
251.70	2.353
252.08	4.569
252.45	1.980
252.82	-2.010
253.19	5.069
253.56	-6.542
253.94	0.901
254.31	0.435
254.68	2.193
255.05	3.150
255.42	3.057
255.79	1.544
256.16	-2.724
256.54	4.104
256.91	3.802
257.28	1.115
257.65	0.000
258.02	-2.482
258.39	1.684
258.76	5.861
259.14	3.322
259.51	5.825
259.88	0.344
260.25	0.654
260.62	-1.042
260.99	-0.339
261.36	-1.370
261.73	0.949
262.10	4.863
262.47	-0.613
262.85	0.313
263.22	1.846
263.59	-1.246
263.96	3.106
264.33	3.939
264.70	0.000
265.07	-0.893
265.44	2.550
265.81	1.695
266.18	3.005
266.55	3.856
266.92	2.073
267.29	-0.522
267.66	3.581
268.03	3.665
268.40	1.044
268.77	5.080
269.14	1.679
269.51	3.342
269.88	0.499
270.25	2.296
270.62	-0.488
270.99	-0.512
271.36	2.689
271.73	2.817
272.10	1.703
272.47	1.891
272.84	3.960
273.21	3.944
273.58	3.855
273.95	4.805
274.32	0.000
274.69	1.131
275.06	3.348
275.43	1.361
275.80	2.208
276.17	1.609
276.54	2.570
276.91	0.658
277.28	0.655
277.65	4.545
278.02	4.468
278.39	1.313
278.76	2.725
279.13	-1.452
279.50	2.941
279.87	0.216
280.23	0.860
280.60	4.873
280.97	2.828
281.34	2.692
281.71	5.749
282.08	1.431
282.45	2.740
282.82	1.931
283.19	3.288
283.56	2.697
283.92	-0.190
284.29	1.538
284.66	1.550
285.03	1.375
285.40	3.592
285.77	1.406
286.14	4.152
286.51	3.875
286.87	1.463
287.24	2.394
287.61	2.293
287.98	3.860
288.35	0.867
288.72	1.926
289.08	2.951
289.45	3.339
289.82	1.573
290.19	1.195
290.56	0.343
290.93	1.178
291.29	0.462
291.66	2.205
292.03	2.073
292.40	2.742
292.77	1.754
293.13	-0.487
293.50	1.214
293.87	2.748
294.24	2.318
294.60	1.788
294.97	2.083
295.34	0.460
295.71	1.341
296.08	0.149
296.44	0.711
296.81	0.833
297.18	1.304
297.55	3.388
297.91	3.699
298.28	3.430
298.65	2.985
299.02	2.022
299.38	-0.958
299.75	2.483
300.12	1.571
300.48	0.922
300.85	2.281
301.22	1.039
301.59	1.447
301.95	2.278
302.32	3.891
302.69	1.493
303.05	1.114
303.42	1.370
303.79	2.921
304.15	3.345
304.52	0.951
304.89	1.754
305.25	1.090
305.62	1.750
305.99	1.520
306.35	1.040
306.72	1.462
307.09	2.737
307.45	1.493
307.82	1.273
308.19	1.510
308.55	2.072
308.92	2.723
309.29	1.006
309.65	2.260
310.02	2.970
310.38	0.439
310.75	1.530
311.12	2.368
311.48	2.121
311.85	2.827
312.22	2.532
312.58	2.017
312.95	1.708
313.31	1.242
313.68	1.571
314.05	2.041
314.41	2.784
314.78	3.093
315.14	3.494
315.51	2.795
315.87	3.279
316.24	4.651
316.61	4.429
316.97	5.060
317.34	4.688
317.70	4.302
318.07	4.423
318.43	4.412
318.80	4.545
319.16	4.883
319.53	5.698
319.89	5.217
320.26	5.162
320.62	6.118
320.99	4.280
321.35	6.166
321.72	7.684
322.08	7.452
322.45	6.904
322.81	6.974
323.18	7.360
323.54	8.301
323.91	7.303
324.27	8.984
324.64	9.082
325.00	10.401
325.37	11.295
325.73	9.701
326.10	10.536
326.46	10.673
326.83	11.199
327.19	11.857
327.56	11.990
327.92	13.028
328.29	11.875
328.65	12.170
329.01	12.868
329.38	13.364
329.74	12.276
330.11	13.531
330.47	13.265
330.84	13.846
331.20	14.354
331.56	13.426
331.93	14.338
332.29	15.399
332.66	14.751
333.02	15.149
333.38	14.299
333.75	15.476
334.11	15.398
334.48	15.866
334.84	16.484
335.20	16.285
335.57	15.231
335.93	16.260
336.29	15.746
336.66	16.349
337.02	14.963
337.38	15.833
337.75	16.091
338.11	16.321
338.47	16.515
338.84	15.896
339.20	15.814
339.56	17.615
339.93	16.920
340.29	16.514
340.65	18.100
341.02	16.135
341.38	16.106
341.74	16.078
342.11	16.898
342.47	17.616
342.83	17.907
343.20	16.638
343.56	17.304
343.92	17.360
344.28	17.592
344.65	17.185
345.01	15.730
345.37	17.073
345.73	18.661
346.10	17.688
346.46	17.998
346.82	17.840
347.19	17.706
347.55	17.627
347.91	18.366
348.27	18.836
348.63	18.143
349.00	16.899
349.36	18.454
349.72	18.657
350.08	17.787
350.45	18.196
350.81	17.857
351.17	18.730
351.53	18.776
351.89	18.332
352.26	17.920
352.62	18.629
352.98	18.072
353.34	19.082
353.70	18.447
354.07	18.952
354.43	19.536
354.79	18.249
355.15	20.317
355.51	20.411
355.87	20.631
356.24	18.679
356.60	19.402
356.96	19.841
357.32	19.569
357.68	18.999
358.04	19.628
358.40	19.534
358.77	21.691
359.13	18.735
359.49	19.260
359.85	19.423
360.21	19.059
360.57	19.357
360.93	19.592
361.29	18.882
361.66	19.436
362.02	20.000
362.38	20.944
362.74	20.136
363.10	20.918
363.46	20.237
363.82	22.615
364.18	19.483
364.54	20.074
364.90	21.290
365.26	19.651
365.62	22.409
365.98	21.114
366.35	22.360
366.71	21.360
367.07	21.843
367.43	20.201
367.79	20.989
368.15	21.393
368.51	22.287
368.87	20.101
369.23	21.155
369.59	21.720
369.95	22.654
370.31	22.399
370.67	21.642
371.03	20.687
371.39	21.955
371.75	21.685
372.11	21.826
372.47	22.115
372.83	21.789
373.19	21.826
373.55	21.300
373.91	22.030
374.27	22.750
374.63	22.182
374.99	21.631
375.35	22.354
375.71	22.587
376.07	23.174
376.42	22.857
376.78	23.221
377.14	22.613
377.50	23.572
377.86	23.628
378.22	22.974
378.58	22.179
378.94	22.369
379.30	22.520
379.66	23.511
380.02	22.808
380.38	22.946
380.74	22.621
381.09	23.926
381.45	23.425
381.81	23.442
382.17	24.556
382.53	23.485
382.89	23.038
383.25	23.584
383.61	23.902
383.97	23.111
384.32	23.765
384.68	23.653
385.04	23.529
385.40	23.149
385.76	24.843
386.12	25.420
386.48	24.904
386.83	23.526
387.19	24.176
387.55	23.777
387.91	25.244
388.27	23.626
388.62	24.103
388.98	24.494
389.34	24.859
389.70	25.109
390.06	23.663
390.42	24.870
390.77	23.937
391.13	24.212
391.49	24.644
391.85	25.081
392.20	24.670
392.56	24.730
392.92	24.545
393.28	25.295
393.64	24.685
393.99	26.270
394.35	24.352
394.71	25.223
395.07	24.953
395.42	24.044
395.78	24.365
396.14	24.968
396.50	25.174
396.85	24.276
397.21	24.436
397.57	24.201
397.92	24.805
398.28	24.885
398.64	24.036
399.00	24.774
399.35	24.605
399.71	24.411
400.07	24.426
400.42	23.929
400.78	25.903
401.14	24.622
401.49	24.538
401.85	24.375
402.21	25.482
402.57	24.250
402.92	24.341
403.28	23.810
403.63	25.158
403.99	24.426
404.35	24.922
404.70	23.333
405.06	23.737
405.42	24.612
405.77	23.591
406.13	24.040
406.49	24.452
406.84	24.756
407.20	24.383
407.55	23.245
407.91	24.799
408.27	24.156
408.62	23.385
408.98	23.475
409.34	24.535
409.69	23.127
410.05	24.631
410.40	24.136
410.76	24.306
411.11	23.250
411.47	24.523
411.83	23.540
412.18	23.938
412.54	23.908
412.89	22.968
413.25	24.609
413.60	23.727
413.96	22.822
414.31	24.695
414.67	24.246
415.03	23.169
415.38	23.107
415.74	24.560
416.09	24.102
416.45	24.578
416.80	22.604
417.16	25.207
417.51	23.651
417.87	23.207
418.22	23.769
418.58	23.010
418.93	23.762
419.29	23.047
419.64	23.655
420.00	25.126
420.35	23.701
420.71	23.694
421.06	23.450
421.42	23.858
421.77	23.410
422.12	23.383
422.48	23.498
422.83	23.898
423.19	23.081
423.54	23.222
423.90	22.497
424.25	22.847
424.61	23.317
424.96	22.938
425.31	23.628
425.67	24.061
426.02	23.852
426.38	23.482
426.73	23.184
427.09	23.671
427.44	22.941
427.79	22.982
428.15	23.483
428.50	22.532
428.85	21.683
429.21	23.316
429.56	22.695
429.92	22.599
430.27	22.907
430.62	22.791
430.98	22.718
431.33	22.608
431.68	22.501
432.04	22.750
432.39	22.362
432.74	21.768
433.10	23.621
433.45	22.820
433.80	23.331
434.16	22.216
434.51	23.226
434.86	22.590
435.22	22.378
435.57	22.208
435.92	21.916
436.28	22.123
436.63	22.248
436.98	21.900
437.34	21.658
437.69	22.660
438.04	22.279
438.39	21.991
438.75	21.615
439.10	22.128
439.45	22.398
439.81	21.590
440.16	22.922
440.51	23.045
440.86	22.356
441.22	21.719
441.57	21.689
441.92	22.508
442.27	22.561
442.63	22.859
442.98	22.286
443.33	21.925
443.68	21.698
444.03	22.404
444.39	22.479
444.74	22.575
445.09	22.327
445.44	22.279
445.79	22.073
446.15	21.476
446.50	21.076
446.85	22.210
447.20	21.794
447.55	22.154
447.91	22.166
448.26	22.368
448.61	21.359
448.96	22.031
449.31	21.561
449.66	21.545
450.02	21.620
450.37	21.577
450.72	21.134
451.07	21.456
451.42	21.536
451.77	20.735
452.12	20.275
452.47	21.120
452.83	21.201
453.18	21.316
453.53	20.923
453.88	21.129
454.23	20.836
454.58	20.844
454.93	20.941
455.28	20.000
455.63	20.769
455.98	20.625
456.34	20.945
456.69	20.902
457.04	19.975
457.39	20.049
457.74	19.952
458.09	19.600
458.44	19.544
458.79	20.112
459.14	20.995
459.49	21.194
459.84	20.474
460.19	20.024
460.54	19.927
460.89	19.943
461.24	20.124
461.59	20.071
461.94	18.994
462.29	20.567
462.64	20.598
462.99	19.634
463.34	19.750
463.69	18.533
464.04	19.976
464.39	19.345
464.74	19.509
465.09	19.775
465.44	19.619
465.79	19.955
466.14	19.783
466.49	19.206
466.84	20.048
467.19	19.650
467.54	18.902
467.89	18.762
468.24	18.674
468.59	20.127
468.94	17.143
469.29	18.885
469.64	19.275
469.99	18.921
470.34	18.567
470.68	19.836
471.03	18.542
471.38	18.046
471.73	18.697
472.08	18.046
472.43	18.188
472.78	16.724
473.13	17.959
473.48	18.762
473.83	17.559
474.17	18.588
474.52	18.188
474.87	17.879
475.22	18.365
475.57	17.787
475.92	18.212
476.27	18.626
476.61	17.593
476.96	16.899
477.31	18.496
477.66	17.809
478.01	18.304
478.36	17.756
478.70	17.836
479.05	18.022
479.40	18.177
479.75	16.945
480.10	17.512
480.45	17.100
480.79	17.573
481.14	17.520
481.49	16.749
481.84	17.133
482.19	17.493
482.53	17.218
482.88	17.184
483.23	16.699
483.58	17.075
483.92	16.409
484.27	16.727
484.62	15.957
484.97	16.045
485.31	16.221
485.66	15.932
486.01	15.969
486.36	16.541
486.70	16.757
487.05	16.730
487.40	16.572
487.75	16.225
488.09	15.760
488.44	16.369
488.79	16.436
489.13	16.546
489.48	15.861
489.83	16.592
490.17	16.225
490.52	15.704
490.87	15.687
491.22	16.141
491.56	15.417
491.91	15.153
492.26	15.411
492.60	15.691
492.95	16.134
493.30	14.998
493.64	15.864
493.99	15.652
494.34	14.951
494.68	15.667
495.03	14.891
495.37	15.162
495.72	14.185
496.07	15.659
496.41	15.472
496.76	15.108
497.11	14.718
497.45	15.322
497.80	14.884
498.14	14.804
498.49	14.931
498.84	15.120
499.18	15.110
499.53	15.129
499.87	14.105
500.22	14.738
500.56	14.675
500.91	14.357
501.26	14.286
501.60	13.871
501.95	13.877
502.29	14.625
502.64	14.479
502.98	14.504
503.33	14.457
503.67	14.795
504.02	14.614
504.36	13.904
504.71	13.990
505.06	13.941
505.40	13.706
505.75	14.227
506.09	13.837
506.44	14.528
506.78	14.235
507.13	14.323
507.47	13.368
507.82	13.568
508.16	13.893
508.51	13.641
508.85	13.658
509.19	13.784
509.54	13.083
509.88	13.323
510.23	13.287
510.57	13.736
510.92	12.846
511.26	14.021
511.61	13.366
511.95	13.808
512.30	13.525
512.64	13.634
512.98	13.419
513.33	13.542
513.67	13.644
514.02	14.188
514.36	13.771
514.70	14.044
515.05	14.101
515.39	13.341
515.74	13.832
516.08	13.748
516.42	14.370
516.77	13.224
517.11	12.938
517.46	13.824
517.80	13.349
518.14	13.350
518.49	12.981
518.83	13.366
519.17	12.250
519.52	12.670
519.86	12.665
520.20	13.366
520.55	12.570
520.89	14.241
521.23	12.920
521.58	13.502
521.92	13.333
522.26	14.639
522.61	12.792
522.95	14.106
523.29	13.659
523.64	12.961
523.98	13.804
524.32	11.856
524.66	13.636
525.01	13.831
525.35	13.999
525.69	12.391
526.04	12.698
526.38	14.073
526.72	12.623
527.06	12.711
527.41	13.325
527.75	13.137
528.09	13.223
528.43	13.639
528.78	12.739
529.12	12.968
529.46	12.411
529.80	12.793
530.15	13.795
530.49	12.929
530.83	12.927
531.17	13.096
531.51	12.996
531.86	12.169
532.20	11.552
532.54	12.662
532.88	12.731
533.22	12.366
533.57	12.582
533.91	11.554
534.25	12.826
534.59	11.995
534.93	11.768
535.27	11.421
535.62	12.443
535.96	12.785
536.30	12.533
536.64	12.336
536.98	12.056
537.32	12.873
537.66	12.342
538.01	12.098
538.35	11.859
538.69	12.317
539.03	11.552
539.37	12.113
539.71	12.270
540.05	11.948
540.39	11.704
540.73	12.483
541.07	12.086
541.42	12.231
541.76	12.526
542.10	11.356
542.44	12.022
542.78	10.530
543.12	10.165
543.46	12.517
543.80	11.242
544.14	11.549
544.48	11.925
544.82	11.552
545.16	12.158
545.50	11.883
545.84	12.323
546.18	11.135
546.52	11.464
546.86	11.862
547.20	11.230
547.54	10.459
547.88	11.345
548.22	10.914
548.56	10.686
548.90	11.927
549.24	10.882
549.58	12.130
549.92	11.079
550.26	10.989
550.60	11.524
550.94	11.426
551.28	9.892
551.62	11.385
551.96	12.030
552.30	10.819
552.64	11.636
552.98	11.041
553.32	11.412
553.66	11.176
554.00	11.752
554.34	10.931
554.68	10.472
555.02	10.863
555.36	10.621
555.69	10.916
556.03	10.849
556.37	9.893
556.71	10.830
557.05	11.260
557.39	9.517
557.73	10.795
558.07	11.765
558.41	10.184
558.75	10.288
559.08	10.402
559.42	9.365
559.76	10.568
560.10	10.474
560.44	11.020
560.78	11.189
561.12	10.790
561.45	10.119
561.79	11.134
562.13	10.504
562.47	9.856
562.81	10.519
563.15	10.508
563.48	10.396
563.82	10.844
564.16	10.376
564.50	10.608
564.84	10.375
565.17	10.597
565.51	10.383
565.85	10.974
566.19	10.743
566.52	10.188
566.86	10.733
567.20	10.212
567.54	10.401
567.88	10.018
568.21	11.256
568.55	10.163
568.89	10.370
569.23	10.255
569.56	10.158
569.90	11.125
570.24	10.569
570.57	10.836
570.91	10.840
571.25	9.767
571.59	10.090
571.92	10.281
572.26	10.205
572.60	10.264
572.93	10.355
573.27	10.094
573.61	10.352
573.95	10.377
574.28	10.169
574.62	10.374
574.96	10.322
575.29	9.793
575.63	9.743
575.97	9.786
576.30	9.980
576.64	9.616
576.98	10.167
577.31	9.708
577.65	9.794
577.98	10.186
578.32	10.052
578.66	9.585
578.99	9.757
579.33	9.668
579.67	10.018
580.00	9.975
580.34	9.677
580.67	10.114
581.01	9.894
581.35	9.927
581.68	9.683
582.02	9.727
582.35	9.675
582.69	9.778
583.02	9.806
583.36	9.912
583.70	9.813
584.03	9.925
584.37	10.164
584.70	10.165
585.04	9.456
585.37	9.582
585.71	9.627
586.04	9.581
586.38	9.336
586.72	9.699
587.05	9.648
587.39	9.841
587.72	10.005
588.06	9.826
588.39	9.399
588.73	9.951
589.06	9.980
589.40	9.886
589.73	10.223
590.07	9.856
590.40	10.101
590.73	9.967
591.07	9.245
591.40	9.350
591.74	10.090
592.07	9.416
592.41	9.717
592.74	9.478
593.08	9.745
593.41	10.016
593.75	9.879
594.08	9.200
594.41	9.534
594.75	9.008
595.08	9.270
595.42	9.238
595.75	9.238
596.09	9.461
596.42	9.880
596.75	9.858
597.09	9.704
597.42	9.214
597.75	9.299
598.09	9.190
598.42	8.845
598.76	9.438
599.09	9.615
599.42	9.511
599.76	8.841
600.09	9.427
600.42	9.591
600.76	9.138
601.09	8.511
601.42	9.166
601.76	8.972
602.09	9.323
602.42	9.646
602.76	8.829
603.09	9.468
603.42	9.699
603.76	8.750
604.09	8.870
604.42	9.602
604.76	9.479
605.09	9.644
605.42	9.029
605.75	9.238
606.09	8.960
606.42	9.091
606.75	8.874
607.09	9.319
607.42	8.418
607.75	9.014
608.08	8.760
608.42	9.365
608.75	9.253
609.08	9.018
609.41	9.391
609.75	8.921
610.08	8.937
610.41	8.744
610.74	8.874
611.07	8.527
611.41	8.718
611.74	9.328
612.07	8.887
612.40	8.534
612.73	8.362
613.07	9.393
613.40	10.120
613.73	8.058
614.06	9.015
614.39	8.855
614.72	9.412
615.06	9.050
615.39	8.461
615.72	9.257
616.05	8.883
616.38	8.148
616.71	8.869
617.05	9.018
617.38	8.862
617.71	8.365
618.04	9.206
618.37	9.206
618.70	8.845
619.03	10.486
619.36	7.670
619.69	9.704
620.03	9.131
620.36	8.441
620.69	9.422
621.02	9.251
621.35	8.880
621.68	8.673
622.01	8.833
622.34	9.737
622.67	9.069
623.00	9.877
623.33	8.765
623.66	9.125
623.99	8.926
624.32	9.506
624.65	7.970
624.99	8.051
625.32	8.036
625.65	9.819
625.98	9.025
626.31	7.980
626.64	8.839
626.97	8.813
627.30	9.457
627.63	9.272
627.96	8.625
628.29	8.603
628.62	9.243
628.95	10.120
629.28	8.770
629.61	9.073
629.94	9.189
630.26	8.597
630.59	9.365
630.92	7.897
631.25	7.692
631.58	8.260
631.91	7.127
632.24	8.716
632.57	9.545
632.90	8.778
633.23	8.235
633.56	7.053
633.89	7.645
634.22	9.877
634.55	8.386
634.88	7.918
635.20	8.205
635.53	8.533
635.86	6.762
636.19	8.150
636.52	8.418
636.85	6.576
637.18	8.302
637.51	7.925
637.83	6.965
638.16	9.686
638.49	7.084
638.82	10.263
639.15	8.005
639.48	7.840
639.81	8.229
640.13	5.195
640.46	7.580
640.79	4.860
