SpectraSuite Data File
++++++++++++++++++++++++++++++++++++
Date: Fri May 15 20:42:12 PDT 2015
User: schluterlab
Dark Spectrum Present: Yes
Reference Spectrum Present: Yes
Number of Sampled Component Spectra: 1
Spectrometers: USB2E3373
Integration Time (usec): 3000 (USB2E3373)
Spectra Averaged: 3 (USB2E3373)
Boxcar Smoothing: 0 (USB2E3373)
Correct for Electrical Dark: No (USB2E3373)
Strobe/Lamp Enabled: No (USB2E3373)
Correct for Detector Non-linearity: No (USB2E3373)
Correct for Stray Light: No (USB2E3373)
Number of Pixels in Processed Spectrum: 2048
>>>>>Begin Processed Spectral Data<<<<<
178.53	0.000
178.91	0.000
179.29	-12.500
179.67	-550.000
180.04	71.429
180.42	25.000
180.80	0.000
181.18	-33.333
181.56	500.000
181.94	-200.000
182.31	300.000
182.69	20.000
183.07	-100.000
183.45	-100.000
183.83	283.333
184.20	-45.455
184.58	88.889
184.96	-200.000
185.34	100.000
185.72	-200.000
186.09	23.077
186.47	-700.000
186.85	166.667
187.23	88.889
187.61	400.000
187.98	-100.000
188.36	-22.222
188.74	-133.333
189.12	5.882
189.49	16.667
189.87	0.000
190.25	28.571
190.63	-150.000
191.00	-366.667
191.38	-5.263
191.76	350.000
192.14	50.000
192.51	0.000
192.89	-33.333
193.27	14.286
193.65	-100.000
194.02	181.818
194.40	-20.000
194.78	-150.000
195.15	-41.667
195.53	-112.500
195.91	175.000
196.29	-275.000
196.66	138.462
197.04	100.000
197.42	33.333
197.79	-233.333
198.17	-30.769
198.55	800.000
198.92	-266.667
199.30	-600.000
199.68	100.000
200.05	-600.000
200.43	0.000
200.81	200.000
201.18	-266.667
201.56	1400.000
201.94	-300.000
202.31	-133.333
202.69	-240.000
203.07	75.000
203.44	100.000
203.82	0.000
204.19	7.143
204.57	-533.333
204.95	100.000
205.32	40.000
205.70	28.571
206.08	100.000
206.45	211.111
206.83	-28.571
207.20	42.857
207.58	400.000
207.96	-33.333
208.33	-50.000
208.71	125.000
209.08	-133.333
209.46	-900.000
209.84	80.000
210.21	-1700.000
210.59	-14.286
210.96	-33.333
211.34	-175.000
211.71	26.667
212.09	-142.857
212.46	-1200.000
212.84	0.000
213.22	0.000
213.59	350.000
213.97	38.462
214.34	-18.182
214.72	-83.333
215.09	350.000
215.47	-15.385
215.84	-27.273
216.22	-100.000
216.59	-162.500
216.97	100.000
217.34	125.000
217.72	20.000
218.09	0.000
218.47	75.000
218.84	-1200.000
219.22	-166.667
219.59	-20.000
219.97	300.000
220.34	225.000
220.72	71.429
221.09	-125.000
221.47	-350.000
221.84	-550.000
222.22	-850.000
222.59	0.000
222.97	50.000
223.34	-100.000
223.72	85.714
224.09	-19.048
224.46	21.429
224.84	433.333
225.21	10.000
225.59	-40.000
225.96	-150.000
226.34	50.000
226.71	-71.429
227.08	83.333
227.46	50.000
227.83	-500.000
228.21	-33.333
228.58	45.455
228.95	-12.500
229.33	140.000
229.70	-56.250
230.08	-100.000
230.45	-57.143
230.82	28.571
231.20	-6.667
231.57	100.000
231.95	28.571
232.32	60.000
232.69	14.286
233.07	-33.333
233.44	20.000
233.81	-70.000
234.19	77.778
234.56	-23.529
234.93	150.000
235.31	75.000
235.68	-180.000
236.05	-23.077
236.43	-45.000
236.80	23.529
237.17	15.625
237.55	25.000
237.92	7.407
238.29	33.333
238.67	26.667
239.04	32.353
239.41	-2.439
239.79	0.000
240.16	9.756
240.53	23.684
240.91	23.913
241.28	11.111
241.65	33.929
242.02	31.507
242.40	43.333
242.77	11.864
243.14	28.788
243.51	33.750
243.89	42.529
244.26	17.241
244.63	16.667
245.00	22.680
245.38	39.175
245.75	25.843
246.12	19.828
246.49	28.926
246.87	36.538
247.24	30.252
247.61	22.807
247.98	25.203
248.36	27.500
248.73	21.711
249.10	26.623
249.47	30.380
249.84	28.105
250.22	29.412
250.59	25.490
250.96	33.333
251.33	33.721
251.70	37.647
252.08	28.934
252.45	28.713
252.82	37.186
253.19	27.650
253.56	24.299
253.94	30.631
254.31	30.000
254.68	33.772
255.05	29.921
255.42	23.581
255.79	33.205
256.16	31.128
256.54	32.463
256.91	29.278
257.28	26.394
257.65	31.086
258.02	29.787
258.39	32.660
258.76	33.333
259.14	31.894
259.51	29.450
259.88	34.364
260.25	30.719
260.62	34.028
260.99	32.203
261.36	29.452
261.73	32.278
262.10	32.827
262.47	30.368
262.85	28.213
263.22	31.385
263.59	34.268
263.96	28.882
264.33	32.424
264.70	29.762
265.07	32.738
265.44	30.878
265.81	31.921
266.18	29.781
266.55	33.676
266.92	30.570
267.29	32.376
267.66	32.481
268.03	31.675
268.40	29.765
268.77	33.690
269.14	29.257
269.51	33.419
269.88	29.177
270.25	28.571
270.62	26.098
270.99	31.714
271.36	29.584
271.73	30.282
272.10	33.577
272.47	32.624
272.84	30.198
273.21	33.643
273.58	32.289
273.95	32.952
274.32	31.871
274.69	29.864
275.06	31.920
275.43	29.025
275.80	27.152
276.17	28.506
276.54	29.336
276.91	32.456
277.28	28.384
277.65	28.099
278.02	30.000
278.39	29.322
278.76	30.189
279.13	25.104
279.50	30.462
279.87	31.533
280.23	27.527
280.60	28.655
280.97	31.515
281.34	29.038
281.71	32.854
282.08	29.039
282.45	27.984
282.82	28.958
283.19	30.754
283.56	31.214
283.92	29.032
284.29	27.885
284.66	29.070
285.03	29.470
285.40	28.922
285.77	27.417
286.14	27.798
286.51	31.181
286.87	28.519
287.24	29.282
287.61	27.690
287.98	29.298
288.35	27.210
288.72	29.597
289.08	27.083
289.45	27.944
289.82	26.224
290.19	27.474
290.56	28.130
290.93	26.936
291.29	25.886
291.66	26.929
292.03	23.923
292.40	25.645
292.77	23.126
293.13	23.052
293.50	25.493
293.87	25.496
294.24	24.730
294.60	24.292
294.97	25.595
295.34	23.773
295.71	23.547
296.08	22.870
296.44	21.906
296.81	22.917
297.18	24.638
297.55	24.119
297.91	22.877
298.28	23.747
298.65	22.252
299.02	23.315
299.38	20.793
299.75	22.207
300.12	20.157
300.48	22.003
300.85	23.574
301.22	20.779
301.59	21.711
301.95	22.405
302.32	21.271
302.69	22.637
303.05	21.411
303.42	22.540
303.79	21.612
304.15	21.625
304.52	20.333
304.89	22.105
305.25	20.218
305.62	20.187
305.99	20.000
306.35	19.884
306.72	18.223
307.09	21.665
307.45	20.321
307.82	19.097
308.19	21.254
308.55	21.156
308.92	21.786
309.29	19.553
309.65	19.376
310.02	19.802
310.38	19.759
310.75	21.093
311.12	19.053
311.48	19.936
311.85	19.476
312.22	19.093
312.58	20.382
312.95	17.716
313.31	19.772
313.68	18.010
314.05	18.571
314.41	21.237
314.78	18.763
315.14	19.630
315.51	19.979
315.87	18.238
316.24	20.526
316.61	18.996
316.97	20.139
317.34	18.848
317.70	19.503
318.07	19.615
318.43	19.608
318.80	18.466
319.16	20.996
319.53	19.563
319.89	21.063
320.26	19.838
320.62	20.060
320.99	18.372
321.35	18.808
321.72	22.015
322.08	19.738
322.45	19.289
322.81	20.236
323.18	21.001
323.54	19.305
323.91	19.961
324.27	20.605
324.64	20.412
325.00	21.624
325.37	21.488
325.73	20.218
326.10	20.527
326.46	20.538
326.83	19.948
327.19	20.924
327.56	19.896
327.92	20.423
328.29	19.554
328.65	20.566
329.01	20.956
329.38	21.382
329.74	20.302
330.11	20.111
330.47	20.501
330.84	19.904
331.20	20.913
331.56	19.907
331.93	20.731
332.29	21.357
332.66	19.548
333.02	20.446
333.38	19.157
333.75	20.238
334.11	18.174
334.48	20.943
334.84	20.330
335.20	19.305
335.57	18.314
335.93	19.874
336.29	20.258
336.66	19.437
337.02	19.981
337.38	19.259
337.75	19.364
338.11	21.010
338.47	19.799
338.84	20.333
339.20	19.196
339.56	20.367
339.93	19.606
340.29	19.817
340.65	20.789
341.02	19.947
341.38	19.381
341.74	19.170
342.11	16.898
342.47	20.907
342.83	20.242
343.20	18.815
343.56	20.783
343.92	19.132
344.28	19.556
344.65	19.689
345.01	19.188
345.37	19.260
345.73	19.079
346.10	20.017
346.46	19.596
346.82	18.167
347.19	18.204
347.55	18.881
347.91	18.608
348.27	18.270
348.63	19.080
349.00	19.524
349.36	19.534
349.72	19.237
350.08	19.426
350.45	19.154
350.81	17.525
351.17	19.055
351.53	19.837
351.89	18.497
352.26	18.000
352.62	19.032
352.98	18.554
353.34	18.196
353.70	19.256
354.07	18.548
354.43	17.774
354.79	18.827
355.15	19.683
355.51	18.354
355.87	18.528
356.24	18.597
356.60	18.027
356.96	19.048
357.32	17.732
357.68	17.435
358.04	18.901
358.40	17.524
358.77	18.900
359.13	17.374
359.49	17.951
359.85	18.097
360.21	18.581
360.57	17.674
360.93	18.457
361.29	17.221
361.66	17.868
362.02	18.939
362.38	17.898
362.74	19.076
363.10	19.112
363.46	17.939
363.82	18.107
364.18	18.745
364.54	17.794
364.90	17.778
365.26	17.540
365.62	18.978
365.98	18.255
366.35	17.844
366.71	17.812
367.07	18.287
367.43	16.607
367.79	17.314
368.15	17.516
368.51	17.334
368.87	16.655
369.23	16.968
369.59	17.784
369.95	18.475
370.31	17.052
370.67	17.836
371.03	17.774
371.39	17.578
371.75	17.729
372.11	16.762
372.47	17.530
372.83	17.814
373.19	16.619
373.55	16.534
373.91	16.991
374.27	18.001
374.63	17.588
374.99	17.021
375.35	16.365
375.71	17.552
376.07	17.767
376.42	17.687
376.78	17.785
377.14	16.385
377.50	17.729
377.86	17.537
378.22	16.656
378.58	17.115
378.94	15.627
379.30	17.093
379.66	17.367
380.02	17.167
380.38	16.738
380.74	16.996
381.09	17.669
381.45	17.248
381.81	16.533
382.17	17.766
382.53	16.677
382.89	17.200
383.25	16.926
383.61	17.805
383.97	16.317
384.32	16.573
384.68	17.276
385.04	16.483
385.40	16.241
385.76	17.170
386.12	16.235
386.48	17.433
386.83	16.424
387.19	16.911
387.55	16.876
387.91	16.504
388.27	16.606
388.62	16.803
388.98	16.083
389.34	16.677
389.70	16.283
390.06	16.362
390.42	16.516
390.77	16.547
391.13	16.456
391.49	16.753
391.85	16.699
392.20	16.259
392.56	16.402
392.92	16.442
393.28	16.156
393.64	16.937
393.99	17.743
394.35	16.635
394.71	17.241
395.07	16.593
395.42	17.061
395.78	16.287
396.14	17.087
396.50	17.248
396.85	16.677
397.21	17.043
397.57	15.862
397.92	17.256
398.28	16.437
398.64	15.964
399.00	17.043
399.35	16.140
399.71	16.829
400.07	17.050
400.42	16.952
400.78	16.595
401.14	15.789
401.49	16.498
401.85	15.661
402.21	16.265
402.57	16.688
402.92	15.872
403.28	16.729
403.63	15.952
403.99	15.816
404.35	16.302
404.70	16.310
405.06	15.746
405.42	16.035
405.77	15.979
406.13	15.716
406.49	16.282
406.84	15.770
407.20	16.797
407.55	16.227
407.91	16.511
408.27	15.997
408.62	16.923
408.98	16.020
409.34	16.729
409.69	15.891
410.05	16.318
410.40	15.864
410.76	16.828
411.11	16.750
411.47	16.502
411.83	16.259
412.18	16.345
412.54	16.355
412.89	16.318
413.25	16.065
413.60	16.273
413.96	15.644
414.31	15.610
414.67	15.715
415.03	16.112
415.38	15.666
415.74	16.547
416.09	16.264
416.45	16.340
416.80	15.730
417.16	16.160
417.51	16.589
417.87	15.450
418.22	16.127
418.58	15.920
418.93	16.489
419.29	15.045
419.64	16.591
420.00	17.317
420.35	16.299
420.71	16.646
421.06	15.654
421.42	16.466
421.77	16.012
422.12	16.232
422.48	16.784
422.83	16.473
423.19	16.648
423.54	15.226
423.90	15.665
424.25	15.729
424.61	16.157
424.96	16.492
425.31	16.638
425.67	16.491
426.02	16.726
426.38	16.155
426.73	16.223
427.09	16.329
427.44	16.235
427.79	15.557
428.15	16.201
428.50	16.111
428.85	14.496
429.21	16.695
429.56	15.795
429.92	16.281
430.27	15.940
430.62	15.787
430.98	15.340
431.33	16.193
431.68	15.280
432.04	15.372
432.39	15.801
432.74	15.695
433.10	16.494
433.45	16.428
433.80	15.844
434.16	15.346
434.51	15.806
434.86	16.609
435.22	16.545
435.57	16.095
435.92	16.587
436.28	15.385
436.63	16.315
436.98	15.585
437.34	15.971
437.69	16.339
438.04	15.442
438.39	14.966
438.75	15.786
439.10	15.789
439.45	16.920
439.81	15.046
440.16	16.033
440.51	16.000
440.86	16.677
441.22	15.837
441.57	15.563
441.92	15.687
442.27	15.521
442.63	16.221
442.98	16.140
443.33	16.138
443.68	15.968
444.03	16.195
444.39	16.331
444.74	16.834
445.09	15.924
445.44	16.353
445.79	16.606
446.15	15.859
446.50	15.696
446.85	16.631
447.20	15.537
447.55	16.797
447.91	16.808
448.26	16.562
448.61	15.371
448.96	16.466
449.31	16.590
449.66	15.563
450.02	16.657
450.37	15.234
450.72	15.922
451.07	16.772
451.42	15.605
451.77	16.215
452.12	15.670
452.47	15.518
452.83	15.018
453.18	15.813
453.53	16.056
453.88	15.908
454.23	14.935
454.58	16.184
454.93	16.688
455.28	15.175
455.63	15.747
455.98	16.416
456.34	16.922
456.69	16.010
457.04	16.509
457.39	15.371
457.74	14.933
458.09	14.361
458.44	15.097
458.79	15.630
459.14	16.076
459.49	16.060
459.84	16.074
460.19	16.444
460.54	15.954
460.89	15.284
461.24	16.211
461.59	17.043
461.94	15.346
462.29	16.164
462.64	16.545
462.99	15.978
463.34	15.229
463.69	15.894
464.04	16.223
464.39	15.706
464.74	16.380
465.09	16.344
465.44	16.503
465.79	16.270
466.14	16.534
466.49	16.619
466.84	16.181
467.19	16.208
467.54	15.773
467.89	15.730
468.24	16.241
468.59	15.048
468.94	14.667
469.29	16.459
469.64	16.268
469.99	16.328
470.34	15.085
470.68	15.884
471.03	15.145
471.38	16.191
471.73	15.966
472.08	15.943
472.43	15.302
472.78	14.873
473.13	15.714
473.48	15.440
473.83	15.318
474.17	15.350
474.52	16.273
474.87	15.758
475.22	15.741
475.57	15.471
475.92	16.566
476.27	16.880
476.61	15.741
476.96	15.672
477.31	16.063
477.66	16.067
478.01	15.385
478.36	15.850
478.70	16.422
479.05	16.044
479.40	15.898
479.75	15.224
480.10	15.566
480.45	15.750
480.79	16.264
481.14	15.676
481.49	14.631
481.84	15.589
482.19	15.856
482.53	15.396
482.88	14.988
483.23	15.307
483.58	15.142
483.92	15.440
484.27	15.725
484.62	15.867
484.97	15.506
485.31	15.246
485.66	15.556
486.01	15.989
486.36	15.724
486.70	15.910
487.05	15.904
487.40	15.202
487.75	16.254
488.09	15.266
488.44	15.165
488.79	16.025
489.13	15.986
489.48	15.348
489.83	15.516
490.17	15.056
490.52	15.889
490.87	15.919
491.22	15.616
491.56	15.844
491.91	15.105
492.26	15.605
492.60	15.883
492.95	15.642
493.30	15.340
493.64	16.061
493.99	16.087
494.34	14.612
494.68	15.762
495.03	14.404
495.37	15.064
495.72	15.396
496.07	15.756
496.41	15.802
496.76	15.062
497.11	14.765
497.45	16.850
497.80	15.742
498.14	15.350
498.49	15.592
498.84	15.569
499.18	15.763
499.53	15.030
499.87	14.689
500.22	15.381
500.56	15.683
500.91	15.311
501.26	15.522
501.60	15.150
501.95	15.526
502.29	15.690
502.64	15.444
502.98	15.590
503.33	14.601
503.67	15.084
504.02	15.591
504.36	15.784
504.71	15.404
505.06	15.299
505.40	14.975
505.75	15.670
506.09	15.357
506.44	15.862
506.78	15.663
507.13	15.357
507.47	15.091
507.82	15.224
508.16	15.320
508.51	15.058
508.85	15.542
509.19	14.955
509.54	15.228
509.88	14.941
510.23	15.169
510.57	15.820
510.92	14.446
511.26	15.330
511.61	15.237
511.95	15.671
512.30	15.188
512.64	15.136
512.98	14.823
513.33	16.004
513.67	15.179
514.02	16.705
514.36	16.114
514.70	15.268
515.05	15.805
515.39	14.994
515.74	15.449
516.08	15.900
516.42	15.665
516.77	15.682
517.11	14.896
517.46	16.996
517.80	16.091
518.14	14.574
518.49	15.385
518.83	15.128
519.17	14.433
519.52	14.624
519.86	14.766
520.20	15.674
520.55	14.447
520.89	15.433
521.23	14.820
521.58	15.394
521.92	15.577
522.26	15.224
522.61	15.325
522.95	15.629
523.29	15.121
523.64	15.820
523.98	15.489
524.32	14.497
524.66	15.813
525.01	14.870
525.35	15.619
525.69	14.613
526.04	14.881
526.38	16.083
526.72	14.912
527.06	15.370
527.41	15.369
527.75	15.550
528.09	15.548
528.43	15.868
528.78	14.983
529.12	16.000
529.46	16.049
529.80	15.453
530.15	16.502
530.49	15.354
530.83	15.390
531.17	15.044
531.51	15.116
531.86	15.228
532.20	15.170
532.54	14.976
532.88	15.058
533.22	15.659
533.57	16.186
533.91	14.621
534.25	16.276
534.59	15.459
534.93	14.412
535.27	14.975
535.62	15.100
535.96	15.460
536.30	16.359
536.64	15.920
536.98	15.819
537.32	16.358
537.66	16.410
538.01	15.455
538.35	14.840
538.69	15.646
539.03	14.559
539.37	15.074
539.71	16.360
540.05	14.121
540.39	15.374
540.73	14.714
541.07	15.470
541.42	16.062
541.76	15.485
542.10	14.522
542.44	14.871
542.78	15.003
543.12	14.286
543.46	15.647
543.80	13.949
544.14	14.887
544.48	15.057
544.82	15.106
545.16	16.120
545.50	15.554
545.84	15.014
546.18	15.745
546.52	15.717
546.86	15.816
547.20	15.236
547.54	14.064
547.88	15.149
548.22	14.070
548.56	15.172
548.90	15.431
549.24	14.532
549.58	15.233
549.92	13.867
550.26	15.311
550.60	15.093
550.94	14.712
551.28	15.301
551.62	15.385
551.96	15.865
552.30	15.497
552.64	14.810
552.98	15.682
553.32	15.264
553.66	14.441
554.00	15.401
554.34	14.993
554.68	14.602
555.02	15.104
555.36	14.510
555.69	13.993
556.03	14.204
556.37	16.228
556.71	15.523
557.05	14.691
557.39	15.093
557.73	15.292
558.07	15.611
558.41	14.701
558.75	14.419
559.08	14.342
559.42	14.365
559.76	13.931
560.10	14.526
560.44	14.594
560.78	16.364
561.12	14.245
561.45	15.460
561.79	15.476
562.13	15.330
562.47	15.180
562.81	15.490
563.15	15.374
563.48	14.498
563.82	14.962
564.16	14.206
564.50	15.068
564.84	14.926
565.17	14.822
565.51	15.301
565.85	15.432
566.19	15.385
566.52	15.751
566.86	16.195
567.20	15.691
567.54	14.477
567.88	15.349
568.21	15.611
568.55	14.511
568.89	15.606
569.23	15.503
569.56	15.280
569.90	15.834
570.24	15.891
570.57	16.073
570.91	16.417
571.25	15.521
571.59	16.194
571.92	16.059
572.26	15.459
572.60	15.194
572.93	15.783
573.27	15.455
573.61	15.513
573.95	15.811
574.28	15.175
574.62	15.408
574.96	15.782
575.29	15.497
575.63	15.004
575.97	15.370
576.30	15.181
576.64	15.470
576.98	15.573
577.31	15.729
577.65	15.619
577.98	16.061
578.32	15.224
578.66	14.743
578.99	15.161
579.33	15.314
579.67	14.862
580.00	15.646
580.34	15.299
580.67	15.455
581.01	15.730
581.35	15.935
581.68	15.469
582.02	15.618
582.35	15.525
582.69	15.602
583.02	15.296
583.36	15.519
583.70	15.498
584.03	15.485
584.37	15.726
584.70	15.467
585.04	15.130
585.37	15.111
585.71	15.478
586.04	15.356
586.38	15.577
586.72	15.610
587.05	15.569
587.39	15.684
587.72	15.856
588.06	15.361
588.39	15.238
588.73	15.476
589.06	15.949
589.40	15.520
589.73	15.334
590.07	16.125
590.40	15.441
590.73	15.651
591.07	15.649
591.40	15.183
591.74	15.385
592.07	16.002
592.41	15.989
592.74	15.452
593.08	14.810
593.41	15.420
593.75	15.604
594.08	15.070
594.41	14.920
594.75	15.229
595.08	15.437
595.42	15.495
595.75	15.697
596.09	15.285
596.42	15.172
596.75	15.364
597.09	15.444
597.42	15.131
597.75	15.300
598.09	15.165
598.42	15.794
598.76	15.144
599.09	15.304
599.42	14.854
599.76	15.124
600.09	15.950
600.42	15.353
600.76	14.487
601.09	14.885
601.42	15.041
601.76	14.887
602.09	14.686
602.42	15.249
602.76	15.280
603.09	15.199
603.42	15.552
603.76	14.718
604.09	15.269
604.42	15.482
604.76	15.265
605.09	15.676
605.42	15.576
605.75	14.974
606.09	15.117
606.42	14.637
606.75	15.022
607.09	15.385
607.42	14.798
607.75	14.698
608.08	14.420
608.42	14.893
608.75	15.325
609.08	15.346
609.41	15.381
609.75	15.423
610.08	15.377
610.41	14.976
610.74	15.066
611.07	15.504
611.41	15.257
611.74	15.405
612.07	14.507
612.40	15.208
612.73	14.689
613.07	15.017
613.40	15.044
613.73	14.717
614.06	15.303
614.39	15.116
614.72	15.182
615.06	15.196
615.39	15.611
615.72	14.855
616.05	15.196
616.38	15.157
616.71	13.884
617.05	14.515
617.38	14.771
617.71	14.717
618.04	15.746
618.37	15.511
618.70	14.983
619.03	15.347
619.36	14.182
619.69	15.011
620.03	15.194
620.36	14.449
620.69	15.275
621.02	15.138
621.35	14.440
621.68	14.626
622.01	14.417
622.34	16.281
622.67	15.615
623.00	15.008
623.33	14.634
623.66	14.286
623.99	15.885
624.32	14.981
624.65	14.586
624.99	15.576
625.32	14.708
625.65	15.161
625.98	14.988
626.31	14.713
626.64	15.425
626.97	14.921
627.30	13.923
627.63	15.425
627.96	15.184
628.29	14.616
628.62	14.553
628.95	14.830
629.28	15.121
629.61	13.559
629.94	15.249
630.26	14.229
630.59	15.401
630.92	14.051
631.25	15.692
631.58	13.767
631.91	12.829
632.24	13.188
632.57	14.432
632.90	12.693
633.23	14.235
633.56	15.995
