SpectraSuite Data File
++++++++++++++++++++++++++++++++++++
Date: Fri May 15 20:53:58 PDT 2015
User: schluterlab
Dark Spectrum Present: Yes
Reference Spectrum Present: Yes
Number of Sampled Component Spectra: 1
Spectrometers: USB2E3373
Integration Time (usec): 3000 (USB2E3373)
Spectra Averaged: 3 (USB2E3373)
Boxcar Smoothing: 0 (USB2E3373)
Correct for Electrical Dark: No (USB2E3373)
Strobe/Lamp Enabled: No (USB2E3373)
Correct for Detector Non-linearity: No (USB2E3373)
Correct for Stray Light: No (USB2E3373)
Number of Pixels in Processed Spectrum: 2048
>>>>>Begin Processed Spectral Data<<<<<
178.53	0.000
178.91	0.000
179.29	-12.500
179.67	100.000
180.04	-0.000
180.42	-100.000
180.80	800.000
181.18	33.333
181.56	-0.000
181.94	-450.000
182.31	200.000
182.69	-100.000
183.07	-266.667
183.45	0.000
183.83	183.333
184.20	-45.455
184.58	-11.111
184.96	-225.000
185.34	-233.333
185.72	-450.000
186.09	30.769
186.47	-1100.000
186.85	150.000
187.23	77.778
187.61	-100.000
187.98	-200.000
188.36	-22.222
188.74	-633.333
189.12	-11.765
189.49	22.222
189.87	0.000
190.25	-7.143
190.63	-50.000
191.00	-133.333
191.38	-26.316
191.76	150.000
192.14	125.000
192.51	300.000
192.89	-66.667
193.27	-114.286
193.65	233.333
194.02	163.636
194.40	60.000
194.78	-37.500
195.15	-83.333
195.53	-75.000
195.91	350.000
196.29	-50.000
196.66	61.538
197.04	142.857
197.42	-11.111
197.79	-266.667
198.17	-53.846
198.55	700.000
198.92	-233.333
199.30	-400.000
199.68	0.000
200.05	-300.000
200.43	0.000
200.81	-33.333
201.18	-33.333
201.56	900.000
201.94	-550.000
202.31	-200.000
202.69	-120.000
203.07	-200.000
203.44	700.000
203.82	0.000
204.19	85.714
204.57	-433.333
204.95	25.000
205.32	-40.000
205.70	71.429
206.08	-200.000
206.45	188.889
206.83	0.000
207.20	-142.857
207.58	200.000
207.96	-300.000
208.33	-90.000
208.71	-75.000
209.08	-83.333
209.46	-100.000
209.84	-40.000
210.21	-1100.000
210.59	28.571
210.96	-66.667
211.34	-75.000
211.71	0.000
212.09	-171.429
212.46	-500.000
212.84	0.000
213.22	10.000
213.59	300.000
213.97	7.692
214.34	72.727
214.72	50.000
215.09	425.000
215.47	-53.846
215.84	-18.182
216.22	-433.333
216.59	-50.000
216.97	350.000
217.34	-100.000
217.72	-140.000
218.09	87.500
218.47	75.000
218.84	100.000
219.22	-33.333
219.59	-160.000
219.97	400.000
220.34	250.000
220.72	-100.000
221.09	-50.000
221.47	150.000
221.84	-600.000
222.22	-300.000
222.59	-45.455
222.97	33.333
223.34	-100.000
223.72	-14.286
224.09	-19.048
224.46	10.714
224.84	66.667
225.21	-40.000
225.59	-46.667
225.96	-550.000
226.34	50.000
226.71	42.857
227.08	-16.667
227.46	-50.000
227.83	-500.000
228.21	55.556
228.58	-9.091
228.95	-25.000
229.33	70.000
229.70	31.250
230.08	-25.000
230.45	142.857
230.82	-14.286
231.20	20.000
231.57	71.429
231.95	-14.286
232.32	-70.000
232.69	42.857
233.07	-100.000
233.44	60.000
233.81	-30.000
234.19	-122.222
234.56	0.000
234.93	700.000
235.31	-50.000
235.68	-240.000
236.05	-23.077
236.43	-30.000
236.80	41.176
237.17	12.500
237.55	20.000
237.92	7.407
238.29	-2.778
238.67	3.333
239.04	17.647
239.41	2.439
239.79	13.333
240.16	7.317
240.53	21.053
240.91	-10.870
241.28	19.048
241.65	23.214
242.02	32.877
242.40	8.333
242.77	10.169
243.14	4.545
243.51	13.750
243.89	20.690
244.26	22.989
244.63	15.476
245.00	17.526
245.38	24.742
245.75	2.247
246.12	14.655
246.49	23.140
246.87	21.154
247.24	16.807
247.61	17.544
247.98	15.447
248.36	20.000
248.73	17.763
249.10	12.987
249.47	17.722
249.84	14.379
250.22	25.294
250.59	18.954
250.96	23.944
251.33	13.953
251.70	21.176
252.08	17.766
252.45	15.347
252.82	20.101
253.19	23.041
253.56	19.159
253.94	16.667
254.31	16.957
254.68	19.737
255.05	18.898
255.42	21.397
255.79	22.780
256.16	22.957
256.54	25.373
256.91	19.772
257.28	19.331
257.65	19.850
258.02	19.149
258.39	22.559
258.76	23.077
259.14	20.266
259.51	18.447
259.88	19.931
260.25	21.569
260.62	21.528
260.99	14.576
261.36	17.466
261.73	19.620
262.10	24.316
262.47	23.006
262.85	19.436
263.22	17.846
263.59	23.364
263.96	21.118
264.33	19.394
264.70	21.429
265.07	18.750
265.44	22.663
265.81	20.904
266.18	23.224
266.55	23.393
266.92	19.948
267.29	19.843
267.66	19.437
268.03	20.681
268.40	20.627
268.77	24.866
269.14	22.782
269.51	24.165
269.88	18.204
270.25	21.173
270.62	19.512
270.99	16.624
271.36	17.359
271.73	19.249
272.10	21.168
272.47	19.858
272.84	21.040
273.21	18.561
273.58	19.518
273.95	18.993
274.32	18.476
274.69	18.100
275.06	19.866
275.43	18.821
275.80	22.296
276.17	18.851
276.54	18.630
276.91	20.175
277.28	17.249
277.65	20.455
278.02	19.362
278.39	19.037
278.76	20.545
279.13	19.087
279.50	22.059
279.87	20.302
280.23	19.570
280.60	18.908
280.97	18.182
281.34	17.308
281.71	18.480
282.08	17.382
282.45	18.200
282.82	18.919
283.19	18.956
283.56	20.039
283.92	16.509
284.29	17.692
284.66	19.767
285.03	18.271
285.40	19.849
285.77	18.629
286.14	16.245
286.51	19.742
286.87	16.819
287.24	19.337
287.61	17.637
287.98	18.772
288.35	17.158
288.72	18.039
289.08	17.882
289.45	18.102
289.82	17.133
290.19	17.235
290.56	17.667
290.93	17.845
291.29	15.871
291.66	18.268
292.03	15.470
292.40	14.516
292.77	15.949
293.13	15.584
293.50	15.933
293.87	15.725
294.24	17.465
294.60	15.201
294.97	15.923
295.34	14.110
295.71	15.648
296.08	15.247
296.44	13.371
296.81	14.861
297.18	15.072
297.55	15.312
297.91	15.068
298.28	14.380
298.65	15.468
299.02	15.094
299.38	12.859
299.75	14.345
300.12	13.743
300.48	13.043
300.85	15.082
301.22	13.766
301.59	12.500
301.95	15.316
302.32	14.786
302.69	14.552
303.05	14.233
303.42	13.574
303.79	14.369
304.15	13.978
304.52	11.772
304.89	12.632
305.25	13.559
305.62	12.369
305.99	13.099
306.35	12.832
306.72	12.598
307.09	14.139
307.45	14.122
307.82	12.384
308.19	14.866
308.55	14.395
308.92	13.399
309.29	13.296
309.65	13.563
310.02	12.871
310.38	13.502
310.75	12.896
311.12	14.316
311.48	12.831
311.85	13.194
312.22	13.080
312.58	13.057
312.95	13.234
313.31	13.561
313.68	13.194
314.05	13.673
314.41	14.124
314.78	13.918
315.14	14.697
315.51	14.803
315.87	15.369
316.24	15.167
316.61	15.551
316.97	15.675
317.34	15.332
317.70	16.444
318.07	14.904
318.43	16.765
318.80	17.235
319.16	17.285
319.53	17.664
319.89	17.421
320.26	18.826
320.62	18.756
320.99	18.372
321.35	18.191
321.72	21.080
322.08	19.637
322.45	20.406
322.81	20.825
323.18	21.590
323.54	21.622
323.91	23.272
324.27	23.438
324.64	23.876
325.00	23.905
325.37	24.793
325.73	25.567
326.10	26.431
326.46	26.099
326.83	27.734
327.19	27.899
327.56	27.454
327.92	28.697
328.29	27.232
328.65	29.057
329.01	30.607
329.38	29.401
329.74	29.839
330.11	30.120
330.47	30.056
330.84	29.135
331.20	31.369
331.56	31.204
331.93	32.237
332.29	32.722
332.66	32.036
333.02	31.784
333.38	32.447
333.75	32.234
334.11	29.364
334.48	33.454
334.84	32.143
335.20	32.937
335.57	32.638
335.93	33.243
336.29	33.610
336.66	33.243
337.02	34.015
337.38	32.222
337.75	34.273
338.11	33.363
338.47	34.124
338.84	33.826
339.20	34.461
339.56	35.138
339.93	34.378
340.29	34.679
340.65	35.125
341.02	33.954
341.38	35.664
341.74	34.629
342.11	34.315
342.47	35.053
342.83	35.208
343.20	35.017
343.56	35.391
343.92	35.252
344.28	35.440
344.65	35.147
345.01	34.399
345.37	35.576
345.73	35.816
346.10	35.289
346.46	35.828
346.82	36.088
347.19	34.830
347.55	36.591
347.91	36.003
348.27	36.055
348.63	37.819
349.00	35.029
349.36	36.326
349.72	36.070
350.08	36.967
350.45	36.233
350.81	36.130
351.17	37.459
351.53	36.980
351.89	35.590
352.26	36.320
352.62	38.387
352.98	36.707
353.34	36.473
353.70	36.165
354.07	38.468
354.43	37.310
354.79	37.490
355.15	38.968
355.51	38.449
355.87	38.916
356.24	38.418
356.60	38.399
356.96	39.048
357.32	39.058
357.68	37.295
358.04	38.530
358.40	38.746
358.77	40.032
359.13	39.071
359.49	38.675
359.85	39.080
360.21	39.713
360.57	39.327
360.93	39.334
361.29	39.426
361.66	39.812
362.02	40.985
362.38	40.594
362.74	41.030
363.10	42.588
363.46	41.142
363.82	42.825
364.18	41.402
364.54	41.397
364.90	42.151
365.26	41.703
365.62	43.431
365.98	42.302
366.35	42.899
366.71	42.572
367.07	43.904
367.43	42.272
367.79	43.110
368.15	43.790
368.51	43.409
368.87	43.144
369.23	43.538
369.59	44.388
369.95	44.355
370.31	45.376
370.67	45.597
371.03	44.735
371.39	45.222
371.75	45.495
372.11	44.437
372.47	46.450
372.83	46.558
373.19	45.150
373.55	45.704
373.91	46.364
374.27	47.059
374.63	46.518
374.99	46.879
375.35	46.657
375.71	48.252
376.07	48.244
376.42	47.143
376.78	48.054
377.14	47.123
377.50	47.875
377.86	48.126
378.22	48.564
378.58	49.167
378.94	48.708
379.30	49.033
379.66	49.592
380.02	48.743
380.38	49.422
380.74	49.372
381.09	50.920
381.45	49.541
381.81	50.463
382.17	49.619
382.53	51.218
382.89	51.099
383.25	52.334
383.61	51.768
383.97	52.063
384.32	51.094
384.68	51.889
385.04	52.022
385.40	52.271
385.76	53.899
386.12	53.687
386.48	53.321
386.83	52.441
387.19	52.869
387.55	55.144
387.91	54.034
388.27	52.930
388.62	54.688
388.98	53.100
389.34	54.591
389.70	54.879
390.06	53.933
390.42	54.275
390.77	54.872
391.13	54.414
391.49	54.657
391.85	55.686
392.20	54.739
392.56	55.563
392.92	54.844
393.28	55.483
393.64	55.375
393.99	57.179
394.35	56.167
394.71	56.705
395.07	56.191
395.42	56.709
395.78	56.678
396.14	56.431
396.50	55.105
396.85	57.244
397.21	56.955
397.57	55.486
397.92	55.782
398.28	56.954
398.64	56.747
399.00	57.280
399.35	56.095
399.71	56.347
400.07	57.195
400.42	55.936
400.78	58.053
401.14	56.443
401.49	57.058
401.85	56.551
402.21	56.807
402.57	56.875
402.92	56.399
403.28	58.208
403.63	58.260
403.99	57.589
404.35	57.776
404.70	56.429
405.06	56.816
405.42	57.613
405.77	56.827
406.13	57.742
406.49	56.306
406.84	57.396
407.20	58.338
407.55	58.146
407.91	57.019
408.27	57.234
408.62	56.431
408.98	57.425
409.34	58.302
409.69	56.848
410.05	56.958
410.40	57.099
410.76	58.745
411.11	57.562
411.47	57.659
411.83	57.062
412.18	57.979
412.54	56.492
412.89	57.020
413.25	56.980
413.60	58.261
413.96	56.626
414.31	57.439
414.67	57.344
415.03	57.856
415.38	56.201
415.74	57.524
416.09	56.826
416.45	58.069
416.80	58.295
417.16	58.425
417.51	58.228
417.87	56.910
418.22	59.650
418.58	57.592
418.93	58.307
419.29	58.003
419.64	57.809
420.00	57.935
420.35	57.970
420.71	59.113
421.06	57.397
421.42	58.774
421.77	58.439
422.12	58.116
422.48	57.878
422.83	58.295
423.19	58.070
423.54	58.436
423.90	58.481
424.25	57.692
424.61	58.996
424.96	57.840
425.31	58.694
425.67	59.272
426.02	59.128
426.38	59.487
426.73	60.109
427.09	59.937
427.44	59.765
427.79	59.635
428.15	59.405
428.50	58.934
428.85	58.907
429.21	58.574
429.56	59.569
429.92	59.065
430.27	57.794
430.62	58.285
430.98	58.439
431.33	59.411
431.68	58.137
432.04	59.698
432.39	58.756
432.74	57.847
433.10	58.908
433.45	58.662
433.80	60.766
434.16	59.834
434.51	58.925
434.86	60.046
435.22	59.002
435.57	58.952
435.92	59.820
436.28	58.855
436.63	59.156
436.98	58.285
437.34	58.742
437.69	61.598
438.04	59.259
438.39	58.583
438.75	59.806
439.10	58.461
439.45	59.525
439.81	58.777
440.16	60.629
440.51	59.642
440.86	62.477
441.22	58.145
441.57	60.265
441.92	60.388
442.27	60.588
442.63	59.315
442.98	59.966
443.33	59.655
443.68	58.355
444.03	60.060
444.39	58.977
444.74	59.197
445.09	59.354
445.44	59.430
445.79	59.876
446.15	59.251
446.50	58.902
446.85	59.830
447.20	59.750
447.55	61.328
447.91	60.068
448.26	60.159
448.61	59.931
448.96	60.184
449.31	60.000
449.66	58.479
450.02	59.327
450.37	60.107
450.72	59.908
451.07	60.759
451.42	59.863
451.77	58.650
452.12	58.971
452.47	60.399
452.83	59.246
453.18	60.089
453.53	59.102
453.88	59.320
454.23	58.697
454.58	60.957
454.93	59.858
455.28	56.952
455.63	58.586
455.98	60.132
456.34	58.748
456.69	58.450
457.04	59.483
457.39	59.842
457.74	58.827
458.09	56.563
458.44	59.391
458.79	57.199
459.14	58.638
459.49	58.567
459.84	57.417
460.19	58.070
460.54	59.291
460.89	59.205
461.24	59.689
461.59	58.195
461.94	57.925
462.29	57.419
462.64	59.402
462.99	56.872
463.34	57.093
463.69	56.950
464.04	56.901
464.39	57.793
464.74	56.871
465.09	58.391
465.44	58.107
465.79	56.406
466.14	57.013
466.49	56.872
466.84	56.811
467.19	56.758
467.54	55.619
467.89	57.486
468.24	56.022
468.59	56.000
468.94	55.619
469.29	56.525
469.64	55.434
469.99	57.603
470.34	55.768
470.68	56.003
471.03	57.042
471.38	57.418
471.73	57.283
472.08	56.242
472.43	55.503
472.78	54.626
473.13	56.190
473.48	56.091
473.83	55.106
474.17	56.023
474.52	54.882
474.87	54.667
475.22	55.339
475.57	54.828
475.92	55.952
476.27	53.842
476.61	55.035
476.96	53.374
477.31	54.083
477.66	53.708
478.01	54.576
478.36	54.739
478.70	55.030
479.05	54.835
479.40	52.994
479.75	53.597
480.10	53.866
480.45	53.550
480.79	54.028
481.14	53.330
481.49	53.399
481.84	53.716
482.19	53.368
482.53	53.333
482.88	52.983
483.23	52.447
483.58	53.019
483.92	51.936
484.27	52.279
484.62	51.905
484.97	50.373
485.31	50.867
485.66	49.946
486.01	50.894
486.36	50.693
486.70	50.523
487.05	50.503
487.40	50.362
487.75	50.338
488.09	49.289
488.44	49.656
488.79	49.608
489.13	49.960
489.48	51.176
489.83	51.390
490.17	50.607
490.52	50.115
490.87	50.069
491.22	51.098
491.56	50.142
491.91	50.287
492.26	51.580
492.60	49.328
492.95	50.566
493.30	49.292
493.64	50.639
493.99	49.082
494.34	49.660
494.68	49.143
495.03	48.710
495.37	49.215
495.72	50.278
496.07	49.805
496.41	49.953
496.76	48.918
497.11	48.253
497.45	49.690
497.80	49.546
498.14	48.385
498.49	48.603
498.84	48.453
499.18	48.494
499.53	48.562
499.87	48.298
500.22	48.368
500.56	49.017
500.91	47.590
501.26	48.245
501.60	47.565
501.95	47.889
502.29	48.378
502.64	47.539
502.98	47.509
503.33	47.887
503.67	46.554
504.02	46.481
504.36	46.710
504.71	46.465
505.06	47.811
505.40	47.259
505.75	47.268
506.09	46.629
506.44	47.741
506.78	47.857
507.13	46.691
507.47	46.057
507.82	46.902
508.16	46.223
508.51	47.324
508.85	45.997
509.19	46.142
509.54	46.702
509.88	46.063
510.23	46.369
510.57	46.072
510.92	44.403
511.26	45.827
511.61	46.700
511.95	46.575
512.30	45.732
512.64	46.244
512.98	45.536
513.33	46.223
513.67	44.912
514.02	45.423
514.36	46.629
514.70	46.970
515.05	46.592
515.39	44.687
515.74	46.228
516.08	45.726
516.42	46.172
516.77	46.226
517.11	45.935
517.46	45.841
517.80	45.292
518.14	45.193
518.49	45.012
518.83	44.593
519.17	43.481
519.52	44.819
519.86	43.998
520.20	43.985
520.55	44.090
520.89	44.981
521.23	44.269
521.58	45.174
521.92	45.064
522.26	45.413
522.61	45.130
522.95	44.967
523.29	44.346
523.64	44.917
523.98	45.949
524.32	43.428
524.66	44.174
525.01	43.896
525.35	43.552
525.69	43.098
526.04	43.386
526.38	44.617
526.72	42.642
527.06	42.672
527.41	43.602
527.75	43.164
528.09	43.787
528.43	44.835
528.78	42.838
529.12	44.129
529.46	42.755
529.80	42.812
530.15	43.432
530.49	43.030
530.83	43.297
531.17	41.572
531.51	43.023
531.86	42.624
532.20	41.406
532.54	42.138
532.88	42.574
533.22	41.398
533.57	41.612
533.91	42.232
534.25	41.927
534.59	41.052
534.93	41.158
535.27	41.053
535.62	40.894
535.96	42.661
536.30	41.821
536.64	40.799
536.98	41.742
537.32	42.461
537.66	42.637
538.01	41.888
538.35	39.875
538.69	40.613
539.03	40.260
539.37	41.386
539.71	39.945
540.05	39.986
540.39	40.097
540.73	40.725
541.07	40.262
541.42	40.457
541.76	39.229
542.10	40.124
542.44	40.306
542.78	39.711
543.12	40.247
543.46	39.291
543.80	40.597
544.14	38.385
544.48	38.175
544.82	38.551
545.16	39.481
545.50	39.119
545.84	39.589
546.18	40.213
546.52	38.861
546.86	38.749
547.20	39.199
547.54	37.173
547.88	38.723
548.22	37.804
548.56	37.137
548.90	38.881
549.24	38.499
549.58	37.870
549.92	37.598
550.26	37.875
550.60	38.216
550.94	38.611
551.28	37.403
551.62	37.692
551.96	37.820
552.30	37.500
552.64	38.223
552.98	38.186
553.32	37.946
553.66	37.083
554.00	38.394
554.34	38.479
554.68	37.094
555.02	38.244
555.36	37.173
555.69	36.484
556.03	37.616
556.37	36.512
556.71	37.329
557.05	36.764
557.39	35.465
557.73	37.856
558.07	37.858
558.41	35.911
558.75	37.023
559.08	36.958
559.42	37.143
559.76	37.710
560.10	35.398
560.44	36.337
560.78	36.084
561.12	35.966
561.45	35.699
561.79	35.574
562.13	36.480
562.47	36.475
562.81	36.095
563.15	36.319
563.48	35.007
563.82	35.690
564.16	36.699
564.50	35.270
564.84	35.743
565.17	34.876
565.51	37.295
565.85	35.528
566.19	35.477
566.52	36.260
566.86	35.347
567.20	35.118
567.54	35.401
567.88	34.446
568.21	35.124
568.55	33.967
568.89	35.010
569.23	35.147
569.56	34.588
569.90	34.105
570.24	33.420
570.57	34.218
570.91	34.367
571.25	32.621
571.59	32.482
571.92	32.267
572.26	32.518
572.60	31.814
572.93	31.691
573.27	31.850
573.61	33.055
573.95	31.786
574.28	31.886
574.62	31.376
574.96	31.339
575.29	30.868
575.63	30.163
575.97	30.903
576.30	31.066
576.64	31.020
576.98	31.377
577.31	31.162
577.65	31.399
577.98	31.403
578.32	30.865
578.66	30.518
578.99	30.370
579.33	30.477
579.67	30.230
580.00	30.987
580.34	30.597
580.67	30.391
581.01	30.451
581.35	30.534
581.68	30.525
582.02	30.262
582.35	30.325
582.69	30.074
583.02	29.994
583.36	30.092
583.70	30.607
584.03	30.498
584.37	30.294
584.70	30.137
585.04	29.145
585.37	29.951
585.71	30.141
586.04	30.055
586.38	30.035
586.72	30.273
587.05	30.272
587.39	30.277
587.72	30.372
588.06	29.698
588.39	29.707
588.73	29.884
589.06	30.235
589.40	31.006
589.73	30.120
590.07	30.853
590.40	31.153
590.73	31.507
591.07	29.601
591.40	29.920
591.74	30.724
592.07	31.169
592.41	30.477
592.74	30.068
593.08	29.514
593.41	29.588
593.75	29.670
594.08	28.871
594.41	29.403
594.75	30.153
595.08	30.306
595.42	28.782
595.75	29.966
596.09	29.281
596.42	29.682
596.75	29.218
597.09	29.385
597.42	29.810
597.75	29.913
598.09	29.244
598.42	29.061
598.76	29.601
599.09	28.486
599.42	28.685
599.76	28.518
600.09	29.223
600.42	28.848
600.76	28.529
601.09	28.779
601.42	28.398
601.76	28.384
602.09	28.424
602.42	29.233
602.76	28.268
603.09	28.613
603.42	29.515
603.76	28.024
604.09	28.838
604.42	29.019
604.76	29.372
605.09	29.250
605.42	28.894
605.75	28.371
606.09	28.832
606.42	28.232
606.75	28.745
607.09	28.396
607.42	28.533
607.75	27.531
608.08	27.673
608.42	28.278
608.75	28.530
609.08	28.201
609.41	28.071
609.75	28.730
610.08	28.357
610.41	27.585
610.74	28.571
611.07	28.992
611.41	27.971
611.74	28.785
612.07	29.229
612.40	28.446
612.73	28.531
613.07	28.234
613.40	28.118
613.73	27.196
614.06	28.102
614.39	28.539
614.72	27.619
615.06	27.933
615.39	27.020
615.72	27.395
616.05	27.933
616.38	26.838
616.71	28.135
617.05	27.795
617.38	28.033
617.71	27.736
618.04	28.317
618.37	28.436
618.70	29.175
619.03	29.792
619.36	28.003
619.69	27.597
620.03	28.926
620.36	28.469
620.69	28.408
621.02	28.287
621.35	28.880
621.68	28.146
622.01	29.167
622.34	28.252
622.67	27.839
623.00	26.646
623.33	28.049
623.66	27.076
623.99	27.837
624.32	27.909
624.65	27.068
624.99	28.743
625.32	27.824
625.65	29.065
625.98	28.203
626.31	27.847
626.64	28.943
626.97	28.098
627.30	28.634
627.63	29.029
627.96	28.212
628.29	28.030
628.62	27.827
628.95	27.756
629.28	28.730
629.61	28.814
629.94	29.814
630.26	26.877
630.59	30.281
630.92	29.333
631.25	27.077
631.58	28.524
631.91	28.618
632.24	28.555
632.57	29.318
632.90	27.521
633.23	27.294
633.56	28.589
