SpectraSuite Data File
++++++++++++++++++++++++++++++++++++
Date: Fri May 15 20:41:22 PDT 2015
User: schluterlab
Dark Spectrum Present: Yes
Reference Spectrum Present: Yes
Number of Sampled Component Spectra: 1
Spectrometers: USB2E3373
Integration Time (usec): 3000 (USB2E3373)
Spectra Averaged: 3 (USB2E3373)
Boxcar Smoothing: 0 (USB2E3373)
Correct for Electrical Dark: No (USB2E3373)
Strobe/Lamp Enabled: No (USB2E3373)
Correct for Detector Non-linearity: No (USB2E3373)
Correct for Stray Light: No (USB2E3373)
Number of Pixels in Processed Spectrum: 2048
>>>>>Begin Processed Spectral Data<<<<<
178.53	0.000
178.91	0.000
179.29	175.000
179.67	-250.000
180.04	28.571
180.42	0.000
180.80	-500.000
181.18	-166.667
181.56	-50.000
181.94	250.000
182.31	1300.000
182.69	60.000
183.07	-366.667
183.45	-140.000
183.83	250.000
184.20	-36.364
184.58	88.889
184.96	100.000
185.34	-0.000
185.72	-300.000
186.09	115.385
186.47	0.000
186.85	116.667
187.23	144.444
187.61	300.000
187.98	-33.333
188.36	77.778
188.74	200.000
189.12	-5.882
189.49	0.000
189.87	0.000
190.25	57.143
190.63	-250.000
191.00	0.000
191.38	15.789
191.76	300.000
192.14	100.000
192.51	150.000
192.89	-44.444
193.27	-171.429
193.65	100.000
194.02	118.182
194.40	60.000
194.78	-62.500
195.15	16.667
195.53	-87.500
195.91	375.000
196.29	-75.000
196.66	69.231
197.04	185.714
197.42	-22.222
197.79	-366.667
198.17	-84.615
198.55	1100.000
198.92	66.667
199.30	-700.000
199.68	-120.000
200.05	0.000
200.43	0.000
200.81	-166.667
201.18	-133.333
201.56	900.000
201.94	-450.000
202.31	-133.333
202.69	-140.000
203.07	275.000
203.44	700.000
203.82	0.000
204.19	57.143
204.57	-433.333
204.95	125.000
205.32	-70.000
205.70	28.571
206.08	-75.000
206.45	155.556
206.83	7.143
207.20	14.286
207.58	900.000
207.96	-433.333
208.33	-90.000
208.71	-50.000
209.08	-16.667
209.46	-1400.000
209.84	-260.000
210.21	-1200.000
210.59	-200.000
210.96	-33.333
211.34	-225.000
211.71	-26.667
212.09	-42.857
212.46	-1100.000
212.84	0.000
213.22	60.000
213.59	50.000
213.97	38.462
214.34	18.182
214.72	33.333
215.09	275.000
215.47	-38.462
215.84	-100.000
216.22	-200.000
216.59	-25.000
216.97	100.000
217.34	-100.000
217.72	-20.000
218.09	62.500
218.47	112.500
218.84	-100.000
219.22	0.000
219.59	0.000
219.97	333.333
220.34	125.000
220.72	-157.143
221.09	25.000
221.47	50.000
221.84	-650.000
222.22	-650.000
222.59	36.364
222.97	0.000
223.34	-133.333
223.72	-64.286
224.09	-14.286
224.46	42.857
224.84	200.000
225.21	0.000
225.59	53.333
225.96	-500.000
226.34	375.000
226.71	-57.143
227.08	133.333
227.46	-137.500
227.83	-850.000
228.21	111.111
228.58	54.545
228.95	-87.500
229.33	100.000
229.70	0.000
230.08	-137.500
230.45	-57.143
230.82	42.857
231.20	-6.667
231.57	21.429
231.95	-28.571
232.32	-70.000
232.69	0.000
233.07	-66.667
233.44	-80.000
233.81	-30.000
234.19	-33.333
234.56	29.412
234.93	250.000
235.31	-175.000
235.68	-60.000
236.05	46.154
236.43	-55.000
236.80	-17.647
237.17	3.125
237.55	-20.000
237.92	11.111
238.29	11.111
238.67	6.667
239.04	2.941
239.41	-26.829
239.79	13.333
240.16	19.512
240.53	-21.053
240.91	-17.391
241.28	11.111
241.65	33.929
242.02	23.288
242.40	13.333
242.77	23.729
243.14	-1.515
243.51	5.000
243.89	27.586
244.26	1.149
244.63	0.000
245.00	9.278
245.38	13.402
245.75	0.000
246.12	10.345
246.49	10.744
246.87	8.654
247.24	5.882
247.61	-0.877
247.98	12.195
248.36	9.375
248.73	7.237
249.10	8.442
249.47	13.291
249.84	13.725
250.22	10.000
250.59	20.915
250.96	18.779
251.33	14.535
251.70	8.824
252.08	13.198
252.45	8.416
252.82	11.558
253.19	13.825
253.56	10.748
253.94	11.712
254.31	11.739
254.68	17.105
255.05	11.024
255.42	13.974
255.79	13.514
256.16	13.619
256.54	15.299
256.91	12.928
257.28	12.268
257.65	11.610
258.02	9.574
258.39	16.835
258.76	14.286
259.14	17.940
259.51	12.621
259.88	14.433
260.25	11.765
260.62	17.361
260.99	11.525
261.36	10.959
261.73	14.241
262.10	15.502
262.47	13.804
262.85	12.226
263.22	13.538
263.59	13.084
263.96	13.665
264.33	10.606
264.70	11.012
265.07	16.071
265.44	16.714
265.81	13.559
266.18	13.661
266.55	15.424
266.92	15.285
267.29	11.749
267.66	13.043
268.03	13.613
268.40	11.227
268.77	16.578
269.14	11.990
269.51	14.396
269.88	12.968
270.25	12.755
270.62	11.707
270.99	12.020
271.36	13.203
271.73	16.197
272.10	13.382
272.47	13.712
272.84	14.604
273.21	13.457
273.58	14.940
273.95	13.043
274.32	10.162
274.69	11.312
275.06	14.509
275.43	13.152
275.80	13.687
276.17	11.724
276.54	12.634
276.91	16.009
277.28	13.100
277.65	15.289
278.02	12.553
278.39	13.348
278.76	15.094
279.13	12.241
279.50	14.286
279.87	15.119
280.23	12.473
280.60	13.645
280.97	14.545
281.34	10.385
281.71	14.784
282.08	12.883
282.45	12.916
282.82	10.811
283.19	12.573
283.56	11.368
283.92	11.575
284.29	11.731
284.66	12.597
285.03	11.788
285.40	10.586
285.77	11.599
286.14	12.274
286.51	15.867
286.87	10.603
287.24	10.497
287.61	9.524
287.98	13.158
288.35	12.132
288.72	10.858
289.08	11.458
289.45	12.302
289.82	14.510
290.19	12.287
290.56	9.949
290.93	10.606
291.29	9.861
291.66	11.024
292.03	10.845
292.40	10.645
292.77	9.888
293.13	9.903
293.50	9.712
293.87	12.214
294.24	9.583
294.60	11.177
294.97	11.310
295.34	9.663
295.71	10.581
296.08	10.613
296.44	8.393
296.81	11.111
297.18	10.580
297.55	11.518
297.91	8.493
298.28	11.741
298.65	8.820
299.02	9.030
299.38	8.071
299.75	8.138
300.12	7.723
300.48	8.432
300.85	9.125
301.22	9.481
301.59	8.684
301.95	10.127
302.32	10.895
302.69	9.204
303.05	9.158
303.42	9.838
303.79	9.579
304.15	10.394
304.52	8.918
304.89	8.772
305.25	9.564
305.62	7.935
305.99	8.187
306.35	9.480
306.72	8.549
307.09	9.806
307.45	9.759
307.82	9.606
308.19	10.685
308.55	8.724
308.92	10.240
309.29	9.944
309.65	9.473
310.02	9.351
310.38	9.879
310.75	9.945
311.12	9.473
311.48	9.756
311.85	9.948
312.22	9.705
312.58	11.359
312.95	9.178
313.31	8.592
313.68	10.157
314.05	10.918
314.41	10.412
314.78	10.928
315.14	13.258
315.51	12.112
315.87	11.373
316.24	13.650
316.61	12.008
316.97	13.095
317.34	12.012
317.70	12.333
318.07	13.462
318.43	13.333
318.80	12.879
319.16	14.258
319.53	14.530
319.89	13.386
320.26	14.980
320.62	15.446
320.99	14.927
321.35	15.108
321.72	17.445
322.08	17.321
322.45	16.650
322.81	16.994
323.18	16.683
323.54	16.023
323.91	17.429
324.27	18.555
324.64	19.288
325.00	17.883
325.37	20.386
325.73	17.498
326.10	20.254
326.46	20.807
326.83	20.210
327.19	21.011
327.56	22.328
327.92	22.183
328.29	21.071
328.65	23.302
329.01	23.254
329.38	22.396
329.74	21.907
330.11	22.614
330.47	23.191
330.84	23.558
331.20	25.095
331.56	23.426
331.93	24.658
332.29	24.290
332.66	23.529
333.02	23.978
333.38	23.831
333.75	25.092
334.11	22.919
334.48	24.841
334.84	25.733
335.20	22.232
335.57	23.481
335.93	23.758
336.29	24.217
336.66	24.160
337.02	24.071
337.38	23.056
337.75	24.818
338.11	24.076
338.47	25.091
338.84	25.323
339.20	25.960
339.56	23.853
339.93	26.052
340.29	24.862
340.65	25.538
341.02	25.266
341.38	24.690
341.74	24.823
342.11	22.617
342.47	24.555
342.83	25.087
343.20	25.087
343.56	26.261
343.92	24.624
344.28	24.594
344.65	24.352
345.01	23.163
345.37	25.315
345.73	25.858
346.10	26.402
346.46	23.465
346.82	23.895
347.19	24.190
347.55	22.723
347.91	24.919
348.27	24.737
348.63	24.361
349.00	25.103
349.36	25.603
349.72	25.539
350.08	25.000
350.45	25.379
350.81	23.754
351.17	25.081
351.53	25.878
351.89	24.360
352.26	24.240
352.62	24.677
352.98	25.221
353.34	25.604
353.70	24.838
354.07	25.403
354.43	23.779
354.79	24.855
355.15	25.952
355.51	24.842
355.87	24.515
356.24	24.225
356.60	24.818
356.96	25.159
357.32	25.479
357.68	24.081
358.04	24.798
358.40	25.000
358.77	26.396
359.13	25.220
359.49	24.499
359.85	24.883
360.21	25.518
360.57	25.555
360.93	25.567
361.29	24.622
361.66	26.567
362.02	25.455
362.38	26.352
362.74	26.192
363.10	26.712
363.46	25.945
363.82	26.597
364.18	25.092
364.54	25.221
364.90	25.663
365.26	26.638
365.62	27.445
365.98	25.806
366.35	27.604
366.71	26.755
367.07	27.576
367.43	26.240
367.79	25.866
368.15	26.849
368.51	26.875
368.87	26.059
369.23	25.993
369.59	26.385
369.95	27.933
370.31	27.384
370.67	27.164
371.03	26.736
371.39	26.550
371.75	26.154
372.11	26.106
372.47	27.441
372.83	27.324
373.19	28.103
373.55	26.137
373.91	27.718
374.27	27.498
374.63	26.920
374.99	26.879
375.35	27.159
375.71	28.112
376.07	27.388
376.42	26.667
376.78	27.651
377.14	27.014
377.50	27.224
377.86	27.175
378.22	27.186
378.58	27.628
378.94	27.221
379.30	27.199
379.66	28.088
380.02	27.223
380.38	28.058
380.74	27.349
381.09	28.282
381.45	27.339
381.81	28.378
382.17	28.236
382.53	28.732
382.89	27.558
383.25	27.629
383.61	27.683
383.97	26.794
384.32	27.142
384.68	26.997
385.04	26.777
385.40	26.073
385.76	28.050
386.12	28.525
386.48	28.608
386.83	27.901
387.19	28.022
387.55	27.980
387.91	28.362
388.27	28.083
388.62	28.131
388.98	27.379
389.34	28.482
389.70	28.589
390.06	27.879
390.42	27.850
390.77	28.058
391.13	27.869
391.49	27.361
391.85	28.655
392.20	27.809
392.56	27.781
392.92	27.481
393.28	27.476
393.64	27.748
393.99	28.464
394.35	26.945
394.71	27.586
395.07	28.473
395.42	27.505
395.78	28.599
396.14	27.491
396.50	27.838
396.85	28.654
397.21	28.947
397.57	27.837
397.92	27.142
398.28	28.966
398.64	27.229
399.00	27.709
399.35	27.257
399.71	27.685
400.07	28.356
400.42	28.274
400.78	28.781
401.14	28.312
401.49	27.576
401.85	27.666
402.21	27.530
402.57	27.875
402.92	27.980
403.28	28.321
403.63	27.932
403.99	27.870
404.35	28.607
404.70	27.440
405.06	27.027
405.42	28.465
405.77	27.891
406.13	27.881
406.49	28.064
406.84	28.240
407.20	28.417
407.55	28.075
407.91	28.610
408.27	27.661
408.62	28.308
408.98	27.603
409.34	27.819
409.69	27.390
410.05	27.525
410.40	27.593
410.76	28.287
411.11	27.562
411.47	28.271
411.83	27.997
412.18	28.378
412.54	27.653
412.89	26.601
413.25	27.677
413.60	28.758
413.96	27.975
414.31	28.049
414.67	28.352
415.03	28.762
415.38	27.154
415.74	27.948
416.09	28.217
416.45	28.359
416.80	28.751
417.16	28.798
417.51	28.448
417.87	27.379
418.22	27.591
418.58	27.692
418.93	28.777
419.29	26.825
419.64	28.062
420.00	28.652
420.35	27.642
420.71	28.493
421.06	27.747
421.42	28.005
421.77	27.861
422.12	28.377
422.48	28.045
422.83	28.074
423.19	28.047
423.54	27.807
423.90	27.915
424.25	28.817
424.61	27.846
424.96	28.049
425.31	28.538
425.67	28.521
426.02	28.386
426.38	29.430
426.73	28.935
427.09	29.051
427.44	29.059
427.79	28.049
428.15	28.277
428.50	29.194
428.85	28.440
429.21	28.636
429.56	28.787
429.92	28.146
430.27	27.920
430.62	28.542
430.98	27.495
431.33	29.075
431.68	28.362
432.04	29.067
432.39	28.237
432.74	28.503
433.10	30.115
433.45	29.331
433.80	28.555
434.16	27.701
434.51	28.441
434.86	29.384
435.22	28.996
435.57	29.570
435.92	29.281
436.28	28.980
436.63	28.922
436.98	29.085
437.34	29.099
437.69	29.756
438.04	30.085
438.39	28.528
438.75	29.630
439.10	29.598
439.45	30.310
439.81	29.358
440.16	30.344
440.51	30.746
440.86	31.057
441.22	29.525
441.57	29.746
441.92	30.640
442.27	30.432
442.63	30.782
442.98	30.327
443.33	30.273
443.68	30.027
444.03	30.303
444.39	30.694
444.74	31.327
445.09	30.401
445.44	29.915
445.79	31.511
446.15	29.626
446.50	29.839
446.85	30.393
447.20	30.553
447.55	30.469
447.91	31.810
448.26	31.645
448.61	31.434
448.96	30.866
449.31	30.347
449.66	30.604
450.02	30.918
450.37	31.239
450.72	31.558
451.07	32.025
451.42	31.586
451.77	30.802
452.12	31.758
452.47	31.230
452.83	31.272
453.18	31.562
453.53	32.933
453.88	32.665
454.23	32.760
454.58	32.494
454.93	32.152
455.28	32.190
455.63	32.362
455.98	32.351
456.34	30.651
456.69	31.321
457.04	32.766
457.39	32.078
457.74	32.527
458.09	31.666
458.44	31.422
458.79	31.092
459.14	31.350
459.49	31.821
459.84	31.134
460.19	31.917
460.54	32.518
460.89	32.159
461.24	32.857
461.59	33.076
461.94	31.761
462.29	32.630
462.64	32.625
462.99	32.972
463.34	31.572
463.69	31.725
464.04	31.538
464.39	31.716
464.74	32.270
465.09	32.938
465.44	31.506
465.79	32.256
466.14	32.098
466.49	31.340
466.84	32.481
467.19	33.104
467.54	31.801
467.89	32.596
468.24	31.813
468.59	33.587
468.94	32.000
469.29	33.639
469.64	32.946
469.99	34.828
470.34	33.584
470.68	33.930
471.03	33.616
471.38	33.595
471.73	33.543
472.08	32.904
472.43	33.758
472.78	33.242
473.13	33.605
473.48	33.550
473.83	33.126
474.17	33.614
474.52	34.014
474.87	33.636
475.22	32.947
475.57	32.185
475.92	34.504
476.27	32.945
476.61	33.507
476.96	33.408
477.31	34.397
477.66	33.596
478.01	34.812
478.36	33.551
478.70	34.475
479.05	34.396
479.40	35.082
479.75	33.525
480.10	33.487
480.45	33.600
480.79	34.491
481.14	33.248
481.49	32.857
481.84	34.073
482.19	33.957
482.53	33.669
482.88	33.317
483.23	32.965
483.58	33.302
483.92	33.398
484.27	33.820
484.62	32.586
484.97	32.007
485.31	32.153
485.66	30.226
486.01	29.817
486.36	29.711
486.70	30.270
487.05	31.025
487.40	31.593
487.75	31.521
488.09	31.737
488.44	31.878
488.79	32.835
489.13	33.854
489.48	32.835
489.83	34.081
490.17	33.213
490.52	34.042
490.87	33.919
491.22	34.384
491.56	33.634
491.91	33.413
492.26	33.836
492.60	33.589
492.95	34.727
493.30	33.024
493.64	34.528
493.99	34.396
494.34	34.029
494.68	33.714
495.03	33.674
495.37	34.936
495.72	33.367
496.07	34.683
496.41	33.632
496.76	34.040
497.11	32.790
497.45	34.129
497.80	34.712
498.14	34.078
498.49	33.773
498.84	34.082
499.18	34.940
499.53	34.127
499.87	33.755
500.22	33.927
500.56	34.241
500.91	33.082
501.26	33.910
501.60	33.940
501.95	34.789
502.29	34.673
502.64	34.797
502.98	34.238
503.33	33.862
503.67	33.831
504.02	34.213
504.36	35.032
504.71	33.788
505.06	34.021
505.40	35.431
505.75	35.876
506.09	34.617
506.44	36.088
506.78	34.694
507.13	35.109
507.47	35.405
507.82	34.776
508.16	35.816
508.51	35.572
508.85	35.845
509.19	35.232
509.54	35.335
509.88	35.868
510.23	36.794
510.57	36.398
510.92	35.394
511.26	36.116
511.61	36.524
511.95	35.507
512.30	36.475
512.64	36.672
512.98	36.833
513.33	36.821
513.67	37.464
514.02	37.700
514.36	37.086
514.70	37.179
515.05	37.662
515.39	37.898
515.74	39.281
516.08	37.776
516.42	38.810
516.77	38.268
517.11	37.864
517.46	39.019
517.80	38.677
518.14	38.212
518.49	37.981
518.83	39.186
519.17	38.205
519.52	38.544
519.86	38.355
520.20	39.793
520.55	39.024
520.89	40.527
521.23	38.759
521.58	40.820
521.92	40.385
522.26	39.297
522.61	40.390
522.95	41.656
523.29	39.327
523.64	40.978
523.98	40.765
524.32	39.820
524.66	40.845
525.01	40.584
525.35	41.218
525.69	41.077
526.04	39.947
526.38	42.023
526.72	40.288
527.06	40.402
527.41	41.029
527.75	41.086
528.09	40.997
528.43	42.674
528.78	41.584
529.12	41.097
529.46	40.091
529.80	40.722
530.15	41.584
530.49	41.886
530.83	41.860
531.17	40.967
531.51	42.339
531.86	41.604
532.20	40.223
532.54	41.593
532.88	42.916
533.22	41.398
533.57	41.153
533.91	40.535
534.25	42.253
534.59	40.924
534.93	40.025
535.27	41.180
535.62	41.737
535.96	41.357
536.30	42.942
536.64	43.074
536.98	41.603
537.32	41.963
537.66	43.408
538.01	41.748
538.35	41.193
538.69	41.345
539.03	41.558
539.37	42.261
539.71	41.104
540.05	42.770
540.39	40.859
540.73	43.096
541.07	41.506
541.42	42.204
541.76	42.808
542.10	41.569
542.44	42.391
542.78	40.399
543.12	41.346
543.46	41.725
543.80	42.748
544.14	40.788
544.48	41.173
544.82	41.900
545.16	42.077
545.50	41.989
545.84	42.068
546.18	41.702
546.52	41.096
546.86	41.912
547.20	41.273
547.54	40.919
547.88	40.217
548.22	40.039
548.56	40.172
548.90	40.836
549.24	40.496
549.58	40.762
549.92	41.101
550.26	42.491
550.60	41.115
550.94	42.494
551.28	42.427
551.62	43.231
551.96	42.857
552.30	41.301
552.64	40.550
552.98	40.577
553.32	42.225
553.66	41.147
554.00	41.752
554.34	42.393
554.68	41.077
555.02	41.964
555.36	42.184
555.69	40.952
556.03	40.685
556.37	40.712
556.71	40.939
557.05	40.716
557.39	40.074
557.73	42.129
558.07	41.252
558.41	42.037
558.75	41.777
559.08	42.238
559.42	42.143
559.76	41.633
560.10	39.602
560.44	40.655
560.78	41.189
561.12	40.762
561.45	41.040
561.79	40.616
562.13	41.519
562.47	40.360
562.81	40.778
563.15	41.044
563.48	40.665
563.82	40.631
564.16	40.738
564.50	39.189
564.84	39.357
565.17	39.772
565.51	40.779
565.85	40.741
566.19	40.517
566.52	40.818
566.86	39.781
567.20	39.228
567.54	38.139
567.88	38.899
568.21	39.027
568.55	37.500
568.89	36.910
569.23	37.747
569.56	35.989
569.90	35.648
570.24	35.132
570.57	35.382
570.91	34.820
571.25	33.180
571.59	33.448
571.92	32.919
572.26	33.122
572.60	33.550
572.93	32.978
573.27	33.292
573.61	33.174
573.95	32.769
574.28	32.203
574.62	31.986
574.96	32.112
575.29	31.878
575.63	31.226
575.97	31.662
576.30	32.274
576.64	31.762
576.98	32.329
577.31	31.728
577.65	31.674
577.98	31.445
578.32	30.949
578.66	30.948
578.99	31.259
579.33	31.776
579.67	30.734
580.00	32.051
580.34	31.343
580.67	30.935
581.01	31.196
581.35	30.771
581.68	30.781
582.02	30.262
582.35	30.158
582.69	30.600
583.02	31.104
583.36	30.494
583.70	31.412
584.03	31.387
584.37	32.242
584.70	31.511
585.04	30.544
585.37	30.786
585.71	30.165
586.04	31.089
586.38	30.648
586.72	31.306
587.05	31.051
587.39	30.724
587.72	32.340
588.06	30.999
588.39	31.074
588.73	30.830
589.06	31.703
589.40	32.285
589.73	32.530
590.07	32.742
590.40	32.624
590.73	32.949
591.07	32.655
591.40	33.259
591.74	33.529
592.07	33.442
592.41	32.730
592.74	31.581
593.08	30.807
593.41	31.499
593.75	30.455
594.08	30.587
594.41	31.441
594.75	31.336
595.08	31.404
595.42	31.873
595.75	31.656
596.09	31.548
596.42	32.410
596.75	33.126
597.09	31.344
597.42	32.159
597.75	32.203
598.09	32.141
598.42	32.491
598.76	32.046
599.09	31.250
599.42	30.201
599.76	30.963
600.09	30.468
600.42	30.212
600.76	30.349
601.09	30.267
601.42	30.631
601.76	30.250
602.09	30.693
602.42	31.466
602.76	31.112
603.09	31.894
603.42	31.814
603.76	30.444
604.09	30.215
604.42	31.218
604.76	30.619
605.09	31.261
605.42	31.512
605.75	31.918
606.09	30.403
606.42	29.775
606.75	30.476
607.09	30.681
607.42	30.483
607.75	30.284
608.08	30.144
608.42	29.968
608.75	31.952
609.08	31.241
609.41	31.675
609.75	31.401
610.08	30.504
610.41	29.710
610.74	30.814
611.07	31.525
611.41	31.759
611.74	31.450
612.07	30.889
612.40	31.400
612.73	31.977
613.07	31.159
613.40	30.635
613.73	31.449
614.06	31.386
614.39	31.134
614.72	30.868
615.06	31.173
615.39	30.404
615.72	30.301
616.05	30.279
616.38	29.744
616.71	31.376
617.05	32.304
617.38	30.798
617.71	31.572
618.04	31.937
618.37	31.589
618.70	32.607
619.03	33.750
619.36	32.127
619.69	33.738
620.03	33.528
620.36	31.617
620.69	32.263
621.02	32.569
621.35	33.610
621.68	33.333
622.01	33.417
622.34	33.679
622.67	33.991
623.00	32.006
623.33	32.698
623.66	31.788
623.99	31.770
624.32	33.764
624.65	31.654
624.99	32.506
625.32	31.160
625.65	33.543
625.98	32.877
626.31	32.003
626.64	34.402
626.97	34.555
627.30	33.100
627.63	34.229
627.96	33.603
628.29	33.950
628.62	35.300
628.95	34.970
629.28	35.484
629.61	34.197
629.94	34.702
630.26	35.079
630.59	35.796
630.92	34.769
631.25	33.846
631.58	36.674
631.91	34.539
632.24	36.124
632.57	36.705
632.90	34.282
633.23	34.824
633.56	37.154
633.89	35.265
634.22	36.790
634.55	36.976
634.88	37.165
