SpectraSuite Data File
++++++++++++++++++++++++++++++++++++
Date: Fri May 15 20:37:01 PDT 2015
User: schluterlab
Dark Spectrum Present: Yes
Reference Spectrum Present: Yes
Number of Sampled Component Spectra: 1
Spectrometers: USB2E3373
Integration Time (usec): 3000 (USB2E3373)
Spectra Averaged: 3 (USB2E3373)
Boxcar Smoothing: 0 (USB2E3373)
Correct for Electrical Dark: No (USB2E3373)
Strobe/Lamp Enabled: No (USB2E3373)
Correct for Detector Non-linearity: No (USB2E3373)
Correct for Stray Light: No (USB2E3373)
Number of Pixels in Processed Spectrum: 2048
>>>>>Begin Processed Spectral Data<<<<<
178.53	0.000
178.91	0.000
179.29	87.500
179.67	-450.000
180.04	-57.143
180.42	275.000
180.80	0.000
181.18	33.333
181.56	450.000
181.94	-300.000
182.31	100.000
182.69	-80.000
183.07	-400.000
183.45	20.000
183.83	150.000
184.20	100.000
184.58	111.111
184.96	-50.000
185.34	-33.333
185.72	-350.000
186.09	76.923
186.47	100.000
186.85	250.000
187.23	77.778
187.61	600.000
187.98	-266.667
188.36	11.111
188.74	-333.333
189.12	29.412
189.49	27.778
189.87	0.000
190.25	-14.286
190.63	-500.000
191.00	-333.333
191.38	-21.053
191.76	0.000
192.14	175.000
192.51	-100.000
192.89	33.333
193.27	-57.143
193.65	33.333
194.02	290.909
194.40	70.000
194.78	-150.000
195.15	0.000
195.53	-112.500
195.91	375.000
196.29	-100.000
196.66	100.000
197.04	114.286
197.42	22.222
197.79	-233.333
198.17	-69.231
198.55	900.000
198.92	-400.000
199.30	-500.000
199.68	-140.000
200.05	-266.667
200.43	0.000
200.81	200.000
201.18	-300.000
201.56	1900.000
201.94	-250.000
202.31	66.667
202.69	-300.000
203.07	175.000
203.44	300.000
203.82	0.000
204.19	64.286
204.57	-166.667
204.95	137.500
205.32	30.000
205.70	-28.571
206.08	150.000
206.45	100.000
206.83	92.857
207.20	-14.286
207.58	-800.000
207.96	-233.333
208.33	-150.000
208.71	-125.000
209.08	-83.333
209.46	-500.000
209.84	0.000
210.21	-1500.000
210.59	0.000
210.96	83.333
211.34	-175.000
211.71	-13.333
212.09	-185.714
212.46	-1700.000
212.84	0.000
213.22	50.000
213.59	100.000
213.97	38.462
214.34	0.000
214.72	-200.000
215.09	550.000
215.47	-23.077
215.84	-36.364
216.22	-100.000
216.59	-25.000
216.97	150.000
217.34	-75.000
217.72	-180.000
218.09	-62.500
218.47	162.500
218.84	-300.000
219.22	-77.778
219.59	-100.000
219.97	366.667
220.34	-75.000
220.72	-185.714
221.09	-225.000
221.47	-400.000
221.84	-850.000
222.22	-1050.000
222.59	-45.455
222.97	8.333
223.34	66.667
223.72	-35.714
224.09	-14.286
224.46	10.714
224.84	500.000
225.21	-30.000
225.59	-33.333
225.96	-450.000
226.34	75.000
226.71	42.857
227.08	-150.000
227.46	-25.000
227.83	-500.000
228.21	-11.111
228.58	27.273
228.95	-100.000
229.33	130.000
229.70	-68.750
230.08	-62.500
230.45	-157.143
230.82	57.143
231.20	-20.000
231.57	7.143
231.95	-71.429
232.32	-110.000
232.69	-7.143
233.07	-33.333
233.44	100.000
233.81	-130.000
234.19	-33.333
234.56	-64.706
234.93	900.000
235.31	25.000
235.68	-120.000
236.05	-38.462
236.43	-55.000
236.80	-35.294
237.17	0.000
237.55	-70.000
237.92	3.704
238.29	-19.444
238.67	3.333
239.04	26.471
239.41	-7.317
239.79	-30.000
240.16	19.512
240.53	0.000
240.91	-8.696
241.28	9.524
241.65	7.143
242.02	15.068
242.40	1.667
242.77	-11.864
243.14	-12.121
243.51	-2.500
243.89	12.644
244.26	-10.345
244.63	1.190
245.00	-2.062
245.38	10.309
245.75	-4.494
246.12	6.897
246.49	4.959
246.87	6.731
247.24	0.000
247.61	-6.140
247.98	-4.878
248.36	6.250
248.73	6.579
249.10	1.299
249.47	10.127
249.84	3.922
250.22	3.529
250.59	4.575
250.96	11.737
251.33	-0.581
251.70	10.000
252.08	1.015
252.45	4.950
252.82	8.040
253.19	5.991
253.56	0.000
253.94	3.604
254.31	7.826
254.68	4.825
255.05	5.906
255.42	6.114
255.79	4.633
256.16	4.669
256.54	5.970
256.91	6.084
257.28	4.461
257.65	-1.124
258.02	1.773
258.39	6.061
258.76	3.663
259.14	5.980
259.51	3.883
259.88	2.405
260.25	3.268
260.62	6.944
260.99	1.017
261.36	4.452
261.73	3.797
262.10	2.432
262.47	7.055
262.85	3.762
263.22	4.923
263.59	3.738
263.96	6.522
264.33	5.455
264.70	5.655
265.07	5.655
265.44	6.799
265.81	5.650
266.18	4.372
266.55	6.170
266.92	6.995
267.29	3.655
267.66	5.371
268.03	5.497
268.40	4.439
268.77	8.289
269.14	5.036
269.51	6.170
269.88	4.988
270.25	2.551
270.62	4.146
270.99	2.813
271.36	1.711
271.73	4.930
272.10	5.596
272.47	4.492
272.84	3.713
273.21	7.657
273.58	6.506
273.95	3.432
274.32	4.157
274.69	4.299
275.06	5.357
275.43	3.401
275.80	7.064
276.17	2.759
276.54	3.640
276.91	6.360
277.28	4.585
277.65	11.157
278.02	4.681
278.39	5.252
278.76	4.822
279.13	2.075
279.50	2.731
279.87	5.616
280.23	3.441
280.60	7.018
280.97	5.859
281.34	4.808
281.71	4.517
282.08	4.499
282.45	5.675
282.82	4.247
283.19	4.836
283.56	5.588
283.92	3.605
284.29	4.231
284.66	3.295
285.03	4.715
285.40	2.268
285.77	5.448
286.14	5.776
286.51	7.011
286.87	6.033
287.24	5.157
287.61	5.291
287.98	4.386
288.35	4.159
288.72	5.779
289.08	5.035
289.45	4.042
289.82	5.070
290.19	3.584
290.56	2.573
290.93	3.030
291.29	3.544
291.66	5.669
292.03	3.828
292.40	4.194
292.77	4.466
293.13	5.195
293.50	3.187
293.87	4.427
294.24	3.246
294.60	3.577
294.97	6.250
295.34	4.141
295.71	2.683
296.08	3.886
296.44	0.996
296.81	3.472
297.18	3.043
297.55	5.149
297.91	5.068
298.28	5.937
298.65	3.121
299.02	3.774
299.38	2.189
299.75	2.621
300.12	3.141
300.48	3.557
300.85	3.802
301.22	4.286
301.59	5.263
301.95	5.190
302.32	4.929
302.69	3.980
303.05	2.475
303.42	3.736
303.79	4.907
304.15	5.257
304.52	2.021
304.89	2.924
305.25	3.995
305.62	2.567
305.99	2.690
306.35	3.815
306.72	3.375
307.09	2.965
307.45	4.363
307.82	2.894
308.19	4.646
308.55	3.926
308.92	4.248
309.29	2.905
309.65	3.445
310.02	3.740
310.38	4.501
310.75	3.279
311.12	3.660
311.48	3.712
311.85	4.293
312.22	2.848
312.58	3.715
312.95	3.415
313.31	3.313
313.68	3.246
314.05	3.673
314.41	4.433
314.78	2.990
315.14	5.755
315.51	4.244
315.87	3.689
316.24	5.763
316.61	4.921
316.97	7.341
317.34	3.906
317.70	5.163
318.07	4.615
318.43	5.490
318.80	6.534
319.16	6.152
319.53	7.882
319.89	6.299
320.26	6.377
320.62	7.422
320.99	4.697
321.35	7.091
321.72	10.177
322.08	8.862
322.45	8.528
322.81	9.528
323.18	7.851
323.54	9.170
323.91	8.666
324.27	10.449
324.64	12.172
325.00	12.409
325.37	12.948
325.73	12.783
326.10	13.533
326.46	13.722
326.83	14.786
327.19	13.949
327.56	15.812
327.92	15.317
328.29	16.429
328.65	16.604
329.01	17.096
329.38	17.788
329.74	17.280
330.11	18.443
330.47	17.347
330.84	19.231
331.20	20.152
331.56	19.722
331.93	21.187
332.29	21.815
332.66	21.086
333.02	21.097
333.38	20.623
333.75	21.795
334.11	19.338
334.48	22.212
334.84	21.886
335.20	22.049
335.57	23.481
335.93	22.403
336.29	22.928
336.66	22.252
337.02	23.420
337.38	23.056
337.75	23.091
338.11	23.715
338.47	23.814
338.84	24.399
339.20	24.040
339.56	24.495
339.93	23.903
340.29	25.046
340.65	24.552
341.02	23.670
341.38	23.540
341.74	23.410
342.11	22.704
342.47	24.288
342.83	24.654
343.20	24.739
343.56	25.130
343.92	25.066
344.28	24.253
344.65	23.230
345.01	24.719
345.37	24.306
345.73	24.268
346.10	23.814
346.46	25.399
346.82	24.223
347.19	22.610
347.55	24.144
347.91	25.485
348.27	23.605
348.63	24.020
349.00	24.200
349.36	24.938
349.72	25.207
350.08	24.426
350.45	24.342
350.81	24.336
351.17	23.371
351.53	24.327
351.89	23.782
352.26	23.360
352.62	23.226
352.98	24.257
353.34	23.833
353.70	23.706
354.07	24.839
354.43	23.699
354.79	24.277
355.15	24.921
355.51	24.921
355.87	24.029
356.24	24.307
356.60	24.091
356.96	24.762
357.32	24.201
357.68	23.847
358.04	23.667
358.40	24.035
358.77	24.721
359.13	24.259
359.49	23.883
359.85	24.181
360.21	23.844
360.57	24.101
360.93	24.206
361.29	22.810
361.66	24.843
362.02	24.773
362.38	24.448
362.74	23.013
363.10	23.552
363.46	23.647
363.82	24.568
364.18	23.985
364.54	23.824
364.90	23.799
365.26	24.381
365.62	25.182
365.98	23.094
366.35	23.962
366.71	24.686
367.07	23.440
367.43	23.796
367.79	24.735
368.15	24.264
368.51	24.181
368.87	23.475
369.23	22.888
369.59	24.417
369.95	24.560
370.31	25.217
370.67	24.179
371.03	23.152
371.39	24.070
371.75	23.297
372.11	23.823
372.47	25.222
372.83	24.414
373.19	23.680
373.55	23.899
373.91	23.398
374.27	24.522
374.63	25.269
374.99	23.475
375.35	23.816
375.71	23.846
376.07	24.017
376.42	24.286
376.78	24.430
377.14	23.290
377.50	22.908
377.86	24.297
378.22	23.484
378.58	22.821
378.94	23.188
379.30	23.581
379.66	24.389
380.02	23.912
380.38	23.433
380.74	22.920
381.09	23.926
381.45	23.547
381.81	23.751
382.17	23.921
382.53	23.485
382.89	23.666
383.25	23.895
383.61	23.598
383.97	22.921
384.32	23.765
384.68	23.653
385.04	23.223
385.40	22.900
385.76	25.031
386.12	24.968
386.48	23.883
386.83	23.462
387.19	23.687
387.55	23.777
387.91	23.900
388.27	23.321
388.62	24.418
388.98	23.941
389.34	23.923
389.70	23.555
390.06	23.285
390.42	23.446
390.77	24.722
391.13	23.518
391.49	24.191
391.85	23.002
392.20	23.854
392.56	23.140
392.92	23.429
393.28	22.995
393.64	23.423
393.99	24.577
394.35	22.834
394.71	24.202
395.07	23.319
395.42	22.769
395.78	22.866
396.14	23.392
396.50	23.018
396.85	22.923
397.21	22.744
397.57	23.699
397.92	23.128
398.28	24.368
398.64	21.807
399.00	22.799
399.35	22.460
399.71	23.148
400.07	23.398
400.42	22.705
400.78	23.209
401.14	22.505
401.49	22.990
401.85	23.218
402.21	23.193
402.57	22.625
402.92	22.146
403.28	22.306
403.63	22.257
403.99	22.640
404.35	23.860
404.70	21.786
405.06	21.445
405.42	22.809
405.77	21.499
406.13	21.595
406.49	22.084
406.84	22.555
407.20	22.697
407.55	22.086
407.91	21.791
408.27	22.052
408.62	21.785
408.98	21.811
409.34	22.367
409.69	21.447
410.05	21.675
410.40	21.173
410.76	21.592
411.11	22.500
411.47	22.025
411.83	20.778
412.18	22.136
412.54	21.036
412.89	21.367
413.25	22.804
413.60	21.988
413.96	21.595
414.31	22.439
414.67	20.590
415.03	21.771
415.38	21.149
415.74	21.498
416.09	22.665
416.45	20.864
416.80	20.753
417.16	21.340
417.51	20.586
417.87	20.926
418.22	21.308
418.58	21.137
418.93	22.257
419.29	20.615
419.64	21.646
420.00	22.733
420.35	20.537
420.71	21.932
421.06	21.301
421.42	21.334
421.77	21.329
422.12	20.772
422.48	20.790
422.83	21.810
423.19	21.670
423.54	20.929
423.90	20.200
424.25	21.642
424.61	21.114
424.96	20.732
425.31	20.913
425.67	21.420
426.02	21.496
426.38	21.039
426.73	21.065
427.09	21.456
427.44	21.882
427.79	21.567
428.15	21.905
428.50	20.715
428.85	21.253
429.21	21.279
429.56	22.318
429.92	21.007
430.27	20.602
430.62	20.282
430.98	20.754
431.33	21.346
431.68	20.984
432.04	20.738
432.39	20.536
432.74	20.625
433.10	21.322
433.45	21.087
433.80	21.068
434.16	20.055
434.51	21.129
434.86	21.951
435.22	21.817
435.57	22.021
435.92	21.078
436.28	20.155
436.63	20.308
436.98	21.205
437.34	20.750
437.69	21.407
438.04	20.741
438.39	20.403
438.75	20.522
439.10	20.939
439.45	21.302
439.81	20.734
440.16	21.971
440.51	22.328
440.86	22.236
441.22	21.719
441.57	20.916
441.92	21.459
442.27	22.450
442.63	21.895
442.98	21.654
443.33	21.925
443.68	20.424
444.03	21.560
444.39	21.397
444.74	22.018
445.09	21.548
445.44	21.026
445.79	21.454
446.15	21.916
446.50	21.076
446.85	21.148
447.20	21.064
447.55	22.600
447.91	21.602
448.26	22.083
448.61	21.819
448.96	21.801
449.31	20.462
449.66	21.661
450.02	22.248
450.37	21.458
450.72	22.165
451.07	21.519
451.42	21.036
451.77	21.218
452.12	20.634
452.47	19.961
452.83	21.260
453.18	20.873
453.53	21.997
453.88	21.736
454.23	21.389
454.58	21.348
454.93	22.552
455.28	21.651
455.63	22.195
455.98	22.730
456.34	21.711
456.69	20.775
457.04	22.621
457.39	21.932
457.74	21.342
458.09	20.777
458.44	21.123
458.79	21.345
459.14	21.625
459.49	22.328
459.84	22.222
460.19	21.056
460.54	21.455
460.89	21.932
461.24	21.366
461.59	21.437
461.94	20.566
462.29	22.195
462.64	22.060
462.99	21.598
463.34	21.349
463.69	21.429
464.04	21.973
464.39	22.013
464.74	21.227
465.09	22.021
465.44	22.274
465.79	20.692
466.14	21.494
466.49	20.759
466.84	21.713
467.19	20.964
467.54	21.711
467.89	21.099
468.24	20.499
468.59	22.159
468.94	21.460
469.29	21.377
469.64	21.463
469.99	22.214
470.34	20.068
470.68	22.670
471.03	21.656
471.38	20.185
471.73	21.569
472.08	21.438
472.43	21.678
472.78	20.151
473.13	20.408
473.48	21.107
473.83	19.801
474.17	21.438
474.52	21.634
474.87	21.333
475.22	21.415
475.57	20.158
475.92	20.516
476.27	21.013
476.61	20.833
476.96	20.747
477.31	21.255
477.66	20.730
478.01	20.887
478.36	20.261
478.70	20.827
479.05	20.714
479.40	21.039
479.75	20.177
480.10	20.276
480.45	20.350
480.79	20.796
481.14	21.004
481.49	19.754
481.84	20.367
482.19	20.206
482.53	20.576
482.88	20.811
483.23	20.058
483.58	20.142
483.92	19.603
484.27	19.964
484.62	19.857
484.97	19.071
485.31	19.292
485.66	18.350
486.01	18.543
486.36	18.244
486.70	18.613
487.05	19.209
487.40	19.338
487.75	19.437
488.09	19.036
488.44	19.567
488.79	19.462
489.13	19.832
489.48	20.051
489.83	20.135
490.17	19.326
490.52	19.677
490.87	19.528
491.22	19.771
491.56	19.734
491.91	18.834
492.26	20.029
492.60	19.866
492.95	19.970
493.30	19.150
493.64	19.303
493.99	19.372
494.34	19.466
494.68	19.048
495.03	19.124
495.37	18.400
495.72	19.738
496.07	20.049
496.41	18.066
496.76	18.931
497.11	18.817
497.45	18.998
497.80	19.425
498.14	19.175
498.49	18.690
498.84	18.214
499.18	19.277
499.53	19.395
499.87	17.996
500.22	18.348
500.56	18.659
500.91	18.373
501.26	17.449
501.60	18.593
501.95	18.729
502.29	18.935
502.64	19.112
502.98	18.500
503.33	18.300
503.67	17.590
504.02	19.013
504.36	18.852
504.71	18.384
505.06	18.017
505.40	17.817
505.75	18.763
506.09	19.260
506.44	19.097
506.78	18.980
507.13	18.511
507.47	18.225
507.82	18.056
508.16	18.119
508.51	18.258
508.85	17.792
509.19	18.095
509.54	19.249
509.88	17.691
510.23	18.289
510.57	18.439
510.92	18.284
511.26	17.512
511.61	18.592
511.95	18.411
512.30	18.404
512.64	18.865
512.98	17.967
513.33	18.914
513.67	18.022
514.02	19.050
514.36	18.743
514.70	18.823
515.05	18.390
515.39	17.237
515.74	18.922
516.08	18.769
516.42	18.375
516.77	18.607
517.11	18.220
517.46	18.133
517.80	17.640
518.14	18.004
518.49	18.690
518.83	17.315
519.17	17.465
519.52	16.874
519.86	18.187
520.20	17.740
520.55	16.823
520.89	18.632
521.23	18.239
521.58	18.991
521.92	18.141
522.26	17.827
522.61	18.701
522.95	18.808
523.29	17.662
523.64	19.060
523.98	17.498
524.32	16.753
524.66	18.182
525.01	17.987
525.35	18.535
525.69	17.912
526.04	17.196
526.38	19.326
526.72	16.743
527.06	17.250
527.41	17.942
527.75	18.164
528.09	17.010
528.43	18.298
528.78	16.832
529.12	16.903
529.46	16.569
529.80	17.796
530.15	17.360
530.49	16.835
530.83	17.442
531.17	16.924
531.51	17.442
531.86	16.995
532.20	16.980
532.54	18.176
532.88	17.933
533.22	16.465
533.57	16.579
533.91	16.449
534.25	17.253
534.59	16.292
534.93	15.922
535.27	16.244
535.62	16.656
535.96	16.960
536.30	17.678
536.64	17.367
536.98	16.655
537.32	16.927
537.66	16.900
538.01	17.832
538.35	16.505
538.69	16.245
539.03	15.516
539.37	16.555
539.71	16.633
540.05	16.022
540.39	17.036
540.73	15.969
541.07	17.265
541.42	17.272
541.76	17.481
542.10	16.105
542.44	16.748
542.78	14.797
543.12	15.385
543.46	16.412
543.80	16.447
544.14	15.688
544.48	16.855
544.82	16.200
545.16	17.077
545.50	16.489
545.84	15.439
546.18	16.809
546.52	16.150
546.86	15.313
547.20	16.237
547.54	15.124
547.88	15.965
548.22	14.990
548.56	15.435
548.90	16.240
549.24	15.358
549.58	14.951
549.92	14.510
550.26	15.458
550.60	15.985
550.94	15.982
551.28	15.379
551.62	15.308
551.96	16.165
552.30	15.132
552.64	15.797
552.98	15.541
553.32	15.478
553.66	13.498
554.00	14.453
554.34	16.987
554.68	14.971
555.02	15.327
555.36	16.156
555.69	14.359
556.03	13.990
556.37	14.235
556.71	15.523
557.05	15.809
557.39	15.019
557.73	14.093
558.07	14.630
558.41	14.242
558.75	15.433
559.08	15.288
559.42	14.524
559.76	15.532
560.10	15.596
560.44	13.701
560.78	15.245
561.12	15.656
561.45	15.812
561.79	14.636
562.13	14.053
562.47	14.245
562.81	13.833
563.15	13.893
563.48	14.427
563.82	14.619
564.16	14.276
564.50	14.527
564.84	14.859
565.17	14.017
565.51	14.413
565.85	14.129
566.19	14.523
566.52	15.013
566.86	14.910
567.20	13.761
567.54	13.625
567.88	13.825
568.21	14.140
568.55	14.185
568.89	13.347
569.23	13.577
569.56	12.872
569.90	13.561
570.24	13.361
570.57	13.382
570.91	13.838
571.25	12.529
571.59	12.395
571.92	12.267
572.26	12.228
572.60	12.620
572.93	12.990
573.27	12.257
573.61	12.679
573.95	12.671
574.28	12.341
574.62	11.976
574.96	12.341
575.29	12.292
575.63	12.076
575.97	12.307
576.30	12.033
576.64	12.291
576.98	12.381
577.31	12.067
577.65	12.294
577.98	12.278
578.32	12.096
578.66	12.186
578.99	12.073
579.33	11.866
579.67	11.784
580.00	11.949
580.34	11.741
580.67	11.968
581.01	12.296
581.35	11.929
581.68	11.573
582.02	11.727
582.35	11.588
582.69	12.174
583.02	11.899
583.36	12.113
583.70	12.409
584.03	12.205
584.37	12.592
584.70	11.923
585.04	11.632
585.37	11.720
585.71	11.701
586.04	12.027
586.38	11.443
586.72	11.650
587.05	12.189
587.39	12.413
587.72	12.138
588.06	11.818
588.39	11.621
588.73	12.271
589.06	12.361
589.40	11.994
589.73	12.705
590.07	12.727
590.40	12.113
590.73	12.232
591.07	11.874
591.40	12.289
591.74	12.670
592.07	12.430
592.41	12.588
592.74	11.310
593.08	11.980
593.41	12.158
593.75	12.038
594.08	11.603
594.41	12.082
594.75	11.527
595.08	11.880
595.42	11.741
595.75	11.791
596.09	12.236
596.42	12.278
596.75	12.256
597.09	12.210
597.42	11.834
597.75	12.506
598.09	11.906
598.42	12.049
598.76	11.497
599.09	11.939
599.42	11.254
599.76	11.776
600.09	11.576
600.42	11.941
600.76	11.293
601.09	11.412
601.42	11.516
601.76	11.116
602.09	11.510
602.42	12.089
602.76	12.351
603.09	12.334
603.42	11.747
603.76	11.250
604.09	10.976
604.42	11.294
604.76	11.972
605.09	11.517
605.42	11.919
605.75	11.427
606.09	12.144
606.42	12.093
606.75	11.515
607.09	12.044
607.42	11.520
607.75	12.389
608.08	11.411
608.42	11.695
608.75	12.819
609.08	11.709
609.41	11.980
609.75	12.046
610.08	11.932
610.41	12.126
610.74	11.848
611.07	12.248
611.41	11.832
611.74	12.900
612.07	12.473
612.40	12.309
612.73	11.808
613.07	11.361
613.40	12.418
613.73	11.024
614.06	12.354
614.39	11.337
614.72	11.821
615.06	11.955
615.39	11.790
615.72	11.518
616.05	11.844
616.38	10.655
616.71	12.171
617.05	12.415
617.38	11.439
617.71	12.075
618.04	11.492
618.37	12.736
618.70	12.937
619.03	13.819
619.36	11.795
619.69	12.964
620.03	13.440
620.36	13.233
620.69	12.634
621.02	13.303
621.35	13.444
621.68	11.990
622.01	12.833
622.34	13.089
622.67	12.934
623.00	12.175
623.33	12.271
623.66	12.491
623.99	12.557
624.32	12.395
624.65	11.353
624.99	12.190
625.32	11.903
625.65	13.040
625.98	14.263
626.31	11.554
626.64	12.912
626.97	13.176
627.30	12.785
627.63	12.218
627.96	13.208
628.29	12.858
628.62	12.291
628.95	14.729
629.28	12.500
629.61	13.260
629.94	12.121
630.26	13.538
630.59	15.505
630.92	14.256
631.25	12.410
631.58	12.885
631.91	12.390
632.24	13.303
632.57	12.955
632.90	13.523
633.23	12.235
633.56	13.098
633.89	12.700
634.22	12.593
634.55	13.469
634.88	11.367
635.20	11.795
635.53	13.200
635.86	12.224
636.19	13.583
636.52	12.372
636.85	12.159
637.18	11.824
637.51	12.075
