SpectraSuite Data File
++++++++++++++++++++++++++++++++++++
Date: Fri May 15 21:12:51 PDT 2015
User: schluterlab
Dark Spectrum Present: Yes
Reference Spectrum Present: Yes
Number of Sampled Component Spectra: 1
Spectrometers: USB2E3373
Integration Time (usec): 3000 (USB2E3373)
Spectra Averaged: 3 (USB2E3373)
Boxcar Smoothing: 0 (USB2E3373)
Correct for Electrical Dark: No (USB2E3373)
Strobe/Lamp Enabled: No (USB2E3373)
Correct for Detector Non-linearity: No (USB2E3373)
Correct for Stray Light: No (USB2E3373)
Number of Pixels in Processed Spectrum: 2048
>>>>>Begin Processed Spectral Data<<<<<
178.53	0.000
178.91	0.000
179.29	37.500
179.67	-550.000
180.04	142.857
180.42	0.000
180.80	-600.000
181.18	200.000
181.56	-50.000
181.94	50.000
182.31	1100.000
182.69	-140.000
183.07	0.000
183.45	0.000
183.83	333.333
184.20	9.091
184.58	244.444
184.96	250.000
185.34	266.667
185.72	-400.000
186.09	146.154
186.47	-700.000
186.85	183.333
187.23	111.111
187.61	200.000
187.98	-233.333
188.36	-66.667
188.74	-600.000
189.12	-5.882
189.49	61.111
189.87	0.000
190.25	78.571
190.63	200.000
191.00	-533.333
191.38	-21.053
191.76	100.000
192.14	275.000
192.51	-150.000
192.89	-122.222
193.27	-114.286
193.65	183.333
194.02	209.091
194.40	-10.000
194.78	-162.500
195.15	-58.333
195.53	-62.500
195.91	275.000
196.29	-100.000
196.66	169.231
197.04	100.000
197.42	-33.333
197.79	-500.000
198.17	-84.615
198.55	1900.000
198.92	-533.333
199.30	-400.000
199.68	-60.000
200.05	-166.667
200.43	0.000
200.81	-33.333
201.18	-33.333
201.56	800.000
201.94	-300.000
202.31	166.667
202.69	-100.000
203.07	325.000
203.44	1100.000
203.82	0.000
204.19	57.143
204.57	-266.667
204.95	112.500
205.32	10.000
205.70	-85.714
206.08	-100.000
206.45	111.111
206.83	64.286
207.20	-157.143
207.58	800.000
207.96	-333.333
208.33	-180.000
208.71	-175.000
209.08	-83.333
209.46	-1200.000
209.84	-260.000
210.21	-400.000
210.59	-42.857
210.96	133.333
211.34	75.000
211.71	6.667
212.09	-57.143
212.46	-1000.000
212.84	0.000
213.22	0.000
213.59	650.000
213.97	38.462
214.34	36.364
214.72	-133.333
215.09	375.000
215.47	-38.462
215.84	-18.182
216.22	-33.333
216.59	-75.000
216.97	0.000
217.34	-275.000
217.72	-260.000
218.09	62.500
218.47	187.500
218.84	-1400.000
219.22	-88.889
219.59	-20.000
219.97	666.667
220.34	275.000
220.72	-71.429
221.09	-225.000
221.47	-550.000
221.84	-850.000
222.22	-300.000
222.59	-45.455
222.97	-16.667
223.34	-100.000
223.72	-7.143
224.09	66.667
224.46	3.571
224.84	533.333
225.21	-90.000
225.59	33.333
225.96	-200.000
226.34	125.000
226.71	-100.000
227.08	16.667
227.46	-50.000
227.83	-550.000
228.21	55.556
228.58	0.000
228.95	-37.500
229.33	80.000
229.70	12.500
230.08	-137.500
230.45	-157.143
230.82	-42.857
231.20	-80.000
231.57	42.857
231.95	-114.286
232.32	-100.000
232.69	-35.714
233.07	0.000
233.44	-120.000
233.81	-80.000
234.19	-55.556
234.56	-23.529
234.93	450.000
235.31	25.000
235.68	-360.000
236.05	-53.846
236.43	-75.000
236.80	0.000
237.17	-6.250
237.55	-40.000
237.92	-3.704
238.29	-8.333
238.67	-16.667
239.04	5.882
239.41	-26.829
239.79	-3.333
240.16	4.878
240.53	-31.579
240.91	-8.696
241.28	7.937
241.65	8.929
242.02	5.479
242.40	-15.000
242.77	8.475
243.14	-6.061
243.51	-3.750
243.89	4.598
244.26	6.897
244.63	-3.571
245.00	-6.186
245.38	-4.124
245.75	-3.371
246.12	5.172
246.49	1.653
246.87	11.538
247.24	-10.084
247.61	7.018
247.98	0.000
248.36	1.250
248.73	5.921
249.10	-0.649
249.47	5.063
249.84	8.497
250.22	5.882
250.59	5.882
250.96	8.920
251.33	2.326
251.70	6.471
252.08	7.107
252.45	9.901
252.82	5.025
253.19	10.138
253.56	-0.467
253.94	8.559
254.31	8.261
254.68	10.965
255.05	9.055
255.42	8.734
255.79	6.178
256.16	8.560
256.54	9.328
256.91	5.703
257.28	6.320
257.65	6.742
258.02	2.837
258.39	10.101
258.76	5.128
259.14	2.990
259.51	6.149
259.88	5.498
260.25	9.150
260.62	6.250
260.99	3.051
261.36	7.534
261.73	5.380
262.10	9.119
262.47	7.669
262.85	7.524
263.22	2.154
263.59	8.100
263.96	11.180
264.33	6.970
264.70	3.571
265.07	4.167
265.44	6.516
265.81	9.605
266.18	8.743
266.55	7.969
266.92	8.808
267.29	8.877
267.66	8.440
268.03	6.283
268.40	6.005
268.77	8.021
269.14	7.194
269.51	7.455
269.88	6.733
270.25	6.888
270.62	5.854
270.99	4.348
271.36	4.890
271.73	7.981
272.10	7.299
272.47	6.856
272.84	5.693
273.21	7.425
273.58	6.265
273.95	5.950
274.32	6.236
274.69	4.977
275.06	5.580
275.43	7.710
275.80	6.402
276.17	6.897
276.54	9.208
276.91	6.579
277.28	5.677
277.65	8.471
278.02	5.319
278.39	5.470
278.76	8.595
279.13	3.320
279.50	7.563
279.87	7.991
280.23	5.806
280.60	8.382
280.97	7.677
281.34	4.808
281.71	8.830
282.08	7.566
282.45	4.501
282.82	7.143
283.19	7.930
283.56	8.092
283.92	4.175
284.29	5.962
284.66	5.039
285.03	5.894
285.40	6.238
285.77	6.503
286.14	6.498
286.51	9.225
286.87	6.581
287.24	7.551
287.61	5.467
287.98	8.246
288.35	4.679
288.72	7.180
289.08	7.118
289.45	8.963
289.82	7.168
290.19	6.314
290.56	5.832
290.93	5.387
291.29	5.239
291.66	5.512
292.03	4.306
292.40	6.774
292.77	4.944
293.13	2.922
293.50	5.463
293.87	4.885
294.24	5.255
294.60	6.706
294.97	5.208
295.34	5.521
295.71	5.812
296.08	4.036
296.44	4.125
296.81	4.583
297.18	5.362
297.55	5.420
297.91	6.301
298.28	6.596
298.65	4.613
299.02	6.739
299.38	3.146
299.75	4.414
300.12	5.236
300.48	5.797
300.85	6.084
301.22	4.675
301.59	5.395
301.95	5.443
302.32	7.263
302.69	6.219
303.05	4.950
303.42	4.608
303.79	5.607
304.15	3.584
304.52	4.400
304.89	6.316
305.25	4.964
305.62	4.551
305.99	4.211
306.35	4.393
306.72	5.174
307.09	5.245
307.45	5.855
307.82	4.282
308.19	6.388
308.55	5.780
308.92	5.556
309.29	4.581
309.65	5.490
310.02	6.491
310.38	5.598
310.75	5.683
311.12	4.952
311.48	5.302
311.85	6.073
312.22	5.274
312.58	5.626
312.95	5.550
313.31	5.590
313.68	6.073
314.05	6.531
314.41	7.423
314.78	7.423
315.14	6.989
315.51	7.557
315.87	7.889
316.24	9.909
316.61	8.760
316.97	8.532
317.34	9.375
317.70	7.744
318.07	10.000
318.43	10.686
318.80	10.133
319.16	10.547
319.53	11.586
319.89	12.402
320.26	12.652
320.62	13.039
320.99	14.301
321.35	13.669
321.72	15.472
322.08	15.005
322.45	15.635
322.81	16.798
323.18	15.996
323.54	15.734
323.91	17.722
324.27	18.555
324.64	18.633
325.00	21.533
325.37	21.671
325.73	20.762
326.10	22.979
326.46	24.036
326.83	23.622
327.19	23.627
327.56	25.630
327.92	25.616
328.29	25.804
328.65	25.943
329.01	26.930
329.38	26.452
329.74	27.668
330.11	27.618
330.47	28.200
330.84	28.462
331.20	30.513
331.56	29.167
331.93	29.406
332.29	29.606
332.66	29.864
333.02	30.855
333.38	28.598
333.75	30.128
334.11	30.528
334.48	31.278
334.84	30.952
335.20	30.192
335.57	30.100
335.93	31.346
336.29	31.031
336.66	31.335
337.02	31.134
337.38	31.296
337.75	31.909
338.11	31.921
338.47	31.296
338.84	32.440
339.20	32.084
339.56	31.835
339.93	33.393
340.29	31.835
340.65	33.065
341.02	32.447
341.38	32.478
341.74	33.216
342.11	31.282
342.47	34.075
342.83	33.045
343.20	32.491
343.56	34.174
343.92	34.190
344.28	33.817
344.65	32.815
345.01	34.313
345.37	33.642
345.73	33.640
346.10	33.736
346.46	33.558
346.82	32.651
347.19	32.835
347.55	34.252
347.91	34.223
348.27	33.226
348.63	33.986
349.00	34.126
349.36	33.250
349.72	34.328
350.08	34.918
350.45	34.158
350.81	33.721
351.17	34.202
351.53	34.857
351.89	33.443
352.26	34.400
352.62	34.758
352.98	33.173
353.34	35.346
353.70	35.113
354.07	35.726
354.43	34.187
354.79	35.756
355.15	35.794
355.51	35.443
355.87	35.599
356.24	36.052
356.60	35.166
356.96	35.397
357.32	35.703
357.68	35.809
358.04	35.622
358.40	36.415
358.77	36.364
359.13	35.709
359.49	36.133
359.85	38.222
360.21	36.603
360.57	35.501
360.93	36.536
361.29	35.952
361.66	37.304
362.02	37.500
362.38	36.634
362.74	36.866
363.10	37.773
363.46	37.880
363.82	37.415
364.18	36.827
364.54	37.279
364.90	38.638
365.26	37.773
365.62	38.613
365.98	38.930
366.35	38.237
366.71	39.024
367.07	38.462
367.43	39.252
367.79	37.880
368.15	38.406
368.51	39.694
368.87	39.483
369.23	38.917
369.59	39.577
369.95	40.176
370.31	40.101
370.67	40.149
371.03	40.478
371.39	39.898
371.75	40.659
372.11	39.230
372.47	41.124
372.83	40.596
373.19	41.155
373.55	41.083
373.91	39.669
374.27	41.673
374.63	42.283
374.99	40.638
375.35	43.175
375.71	41.608
376.07	41.784
376.42	43.469
376.78	42.819
377.14	42.180
377.50	42.895
377.86	44.043
378.22	42.246
378.58	42.885
378.94	42.848
379.30	42.670
379.66	43.762
380.02	42.612
380.38	43.031
380.74	42.968
381.09	44.294
381.45	44.220
381.81	44.911
382.17	44.480
382.53	44.847
382.89	45.888
383.25	45.426
383.61	44.939
383.97	44.762
384.32	45.341
384.68	44.706
385.04	43.689
385.40	45.488
385.76	46.730
386.12	46.248
386.48	47.382
386.83	46.798
387.19	47.070
387.55	46.236
387.91	46.149
388.27	45.299
388.62	46.948
388.98	46.470
389.34	46.908
389.70	47.669
390.06	47.137
390.42	46.567
390.77	47.744
391.13	47.793
391.49	47.542
391.85	48.928
392.20	48.336
392.56	48.252
392.92	47.504
393.28	47.170
393.64	46.967
393.99	48.966
394.35	48.514
394.71	48.851
395.07	47.643
395.42	48.755
395.78	49.316
396.14	49.685
396.50	48.637
396.85	48.616
397.21	48.684
397.57	49.028
397.92	49.191
398.28	49.195
398.64	48.253
399.00	49.718
399.35	47.630
399.71	47.674
400.07	50.726
400.42	47.552
400.78	49.296
401.14	48.941
401.49	48.839
401.85	49.238
402.21	50.120
402.57	50.187
402.92	48.934
403.28	50.313
403.63	49.937
403.99	51.531
404.35	50.344
404.70	48.631
405.06	50.235
405.42	50.404
405.77	49.157
406.13	51.048
406.49	50.266
406.84	50.489
407.20	50.753
407.55	48.873
407.91	48.997
408.27	49.777
408.62	49.662
408.98	50.400
409.34	50.372
409.69	49.871
410.05	49.446
410.40	49.568
410.76	49.759
411.11	51.125
411.47	49.704
411.83	50.282
412.18	50.322
412.54	49.126
412.89	50.924
413.25	50.120
413.60	51.056
413.96	49.877
414.31	50.976
414.67	49.840
415.03	51.132
415.38	49.478
415.74	50.358
416.09	51.078
416.45	50.236
416.80	49.240
417.16	50.414
417.51	50.366
417.87	50.326
418.22	51.813
418.58	50.301
418.93	51.034
419.29	49.552
419.64	49.773
420.00	51.259
420.35	50.269
420.71	50.851
421.06	49.417
421.42	51.202
421.77	50.578
422.12	49.886
422.48	49.811
422.83	50.522
423.19	49.887
423.54	49.735
423.90	49.588
424.25	49.885
424.61	50.490
424.96	49.942
425.31	52.397
425.67	50.411
426.02	51.296
426.38	50.720
426.73	50.908
427.09	51.582
427.44	51.294
427.79	51.090
428.15	50.607
428.50	49.909
428.85	49.693
429.21	51.104
429.56	50.458
429.92	50.539
430.27	49.875
430.62	49.922
430.98	50.265
431.33	50.368
431.68	49.817
432.04	51.090
432.39	49.686
432.74	49.549
433.10	51.034
433.45	50.060
433.80	49.971
434.16	49.972
434.51	50.054
434.86	50.058
435.22	49.411
435.57	49.470
435.92	50.838
436.28	49.732
436.63	50.029
436.98	49.073
437.34	49.546
437.69	50.805
438.04	49.915
438.39	50.641
438.75	50.213
439.10	49.745
439.45	49.422
439.81	50.703
440.16	50.653
440.51	51.045
440.86	51.118
441.22	49.548
441.57	50.166
441.92	50.787
442.27	50.610
442.63	50.482
442.98	50.029
443.33	49.583
443.68	49.814
444.03	50.571
444.39	49.779
444.74	51.003
445.09	50.891
445.44	50.655
445.79	50.129
446.15	50.606
446.50	49.806
446.85	50.319
447.20	49.270
447.55	50.502
447.91	49.577
448.26	50.655
448.61	50.259
448.96	49.857
449.31	50.173
449.66	50.174
450.02	49.800
450.37	50.089
450.72	50.229
451.07	51.203
451.42	49.001
451.77	50.030
452.12	48.565
452.47	48.744
452.83	49.117
453.18	49.779
453.53	49.747
453.88	49.362
454.23	49.785
454.58	50.063
454.93	48.776
455.28	48.000
455.63	48.357
455.98	49.669
456.34	49.234
456.69	49.365
457.04	50.095
457.39	48.542
457.74	49.577
458.09	49.264
458.44	48.566
458.79	48.235
459.14	48.341
459.49	49.313
459.84	48.505
460.19	49.211
460.54	49.022
460.89	49.545
461.24	48.385
461.59	49.050
461.94	47.673
462.29	49.095
462.64	48.970
462.99	47.461
463.34	47.566
463.69	49.163
464.04	47.881
464.39	47.787
464.74	48.528
465.09	48.472
465.44	48.759
465.79	46.145
466.14	47.491
466.49	47.326
466.84	47.829
467.19	46.809
467.54	47.446
467.89	47.821
468.24	47.019
468.59	48.508
468.94	45.333
469.29	48.262
469.64	47.915
469.99	47.863
470.34	47.577
470.68	48.844
471.03	46.426
471.38	47.718
471.73	46.078
472.08	46.811
472.43	47.383
472.78	46.265
473.13	45.646
473.48	46.971
473.83	45.953
474.17	47.280
474.52	45.948
474.87	46.606
475.22	46.248
475.57	45.906
475.92	45.858
476.27	46.042
476.61	45.023
476.96	45.231
477.31	46.403
477.66	44.326
478.01	45.985
478.36	46.514
478.70	47.526
479.05	45.934
479.40	45.840
479.75	44.526
480.10	45.469
480.45	45.450
480.79	45.619
481.14	46.516
481.49	44.778
481.84	45.946
482.19	43.966
482.53	45.707
482.88	44.773
483.23	43.714
483.58	44.528
483.92	44.288
484.27	44.348
484.62	44.061
484.97	43.491
485.31	43.822
485.66	41.967
486.01	42.742
486.36	43.232
486.70	43.766
487.05	43.489
487.40	43.149
487.75	43.239
488.09	41.780
488.44	42.297
488.79	42.510
489.13	42.748
489.48	42.796
489.83	42.825
490.17	43.730
490.52	42.818
490.87	42.527
491.22	43.219
491.56	43.027
491.91	43.308
492.26	44.191
492.60	42.562
492.95	43.581
493.30	43.332
493.64	43.418
493.99	43.333
494.34	42.670
494.68	43.048
495.03	41.898
495.37	42.738
495.72	44.069
496.07	43.610
496.41	42.264
496.76	42.515
497.11	41.733
497.45	42.339
497.80	43.542
498.14	42.176
498.49	42.610
498.84	41.567
499.18	43.072
499.53	42.460
499.87	41.488
500.22	41.741
500.56	41.906
500.91	41.717
501.26	41.226
501.60	41.958
501.95	42.067
502.29	42.082
502.64	41.795
502.98	41.589
503.33	41.066
503.67	41.639
504.02	42.180
504.36	41.465
504.71	41.061
505.06	40.765
505.40	40.761
505.75	42.062
506.09	40.902
506.44	41.427
506.78	42.194
507.13	41.365
507.47	40.627
507.82	41.079
508.16	40.729
508.51	40.189
508.85	40.607
509.19	40.234
509.54	40.912
509.88	40.939
510.23	41.528
510.57	41.368
510.92	39.339
511.26	40.753
511.61	40.979
511.95	40.110
512.30	39.856
512.64	39.900
512.98	40.539
513.33	40.291
513.67	40.364
514.02	40.847
514.36	41.771
514.70	41.142
515.05	41.187
515.39	39.728
515.74	40.778
516.08	40.765
516.42	41.578
516.77	40.609
517.11	40.119
517.46	40.036
517.80	39.928
518.14	40.171
518.49	39.303
518.83	39.490
519.17	39.418
519.52	39.787
519.86	38.836
520.20	39.490
520.55	39.400
520.89	39.900
521.23	40.595
521.58	40.126
521.92	39.744
522.26	40.534
522.61	39.481
522.95	40.132
523.29	38.945
523.64	39.454
523.98	39.533
524.32	39.562
524.66	39.181
525.01	38.896
525.35	38.820
525.69	38.855
526.04	39.749
526.38	40.078
526.72	37.083
527.06	39.624
527.41	38.127
527.75	39.343
528.09	38.272
528.43	39.635
528.78	38.152
529.12	38.903
529.46	39.181
529.80	37.809
530.15	38.218
530.49	38.923
530.83	39.603
531.17	37.273
531.51	39.535
531.86	37.797
532.20	37.578
532.54	37.440
532.88	38.877
533.22	37.702
533.57	37.549
533.91	36.815
534.25	38.672
534.59	37.139
534.93	37.319
535.27	36.739
535.62	36.941
535.96	37.117
536.30	37.335
536.64	37.629
536.98	37.491
537.32	38.762
537.66	38.079
538.01	37.692
538.35	37.795
538.69	36.152
539.03	36.500
539.37	36.810
539.71	35.719
540.05	36.253
540.39	36.011
540.73	36.820
541.07	37.431
541.42	37.702
541.76	35.375
542.10	35.375
542.44	35.928
542.78	35.169
543.12	35.577
543.46	35.188
543.80	35.739
544.14	34.846
544.48	35.043
544.82	35.475
545.16	36.544
545.50	35.648
545.84	35.694
546.18	37.163
546.52	35.616
546.86	35.226
547.20	36.409
547.54	35.194
547.88	35.598
548.22	33.531
548.56	34.631
548.90	36.119
549.24	35.813
549.58	35.120
549.92	33.810
550.26	33.480
550.60	35.167
550.94	35.250
551.28	34.776
551.62	35.769
551.96	34.887
552.30	34.722
552.64	33.145
552.98	33.826
553.32	33.524
553.66	34.906
554.00	34.745
554.34	33.604
554.68	34.587
555.02	34.375
555.36	34.031
555.69	33.846
556.03	33.405
556.37	33.879
556.71	33.935
557.05	33.482
557.39	33.086
557.73	34.708
558.07	35.671
558.41	33.231
558.75	33.359
559.08	32.782
559.42	32.937
559.76	33.387
560.10	34.862
560.44	32.465
560.78	33.147
561.12	34.203
561.45	33.942
561.79	33.193
562.13	33.428
562.47	32.518
562.81	32.493
563.15	33.145
563.48	33.380
563.82	33.082
564.16	32.799
564.50	32.770
564.84	32.999
565.17	32.663
565.51	34.290
565.85	32.990
566.19	32.626
566.52	34.115
566.86	33.483
567.20	32.503
567.54	32.178
567.88	33.216
568.21	32.070
568.55	31.739
568.89	32.700
569.23	32.210
569.56	31.699
569.90	31.547
570.24	30.852
570.57	31.200
570.91	31.370
571.25	30.648
571.59	30.271
571.92	30.519
572.26	30.072
572.60	29.953
572.93	29.903
573.27	29.687
573.61	29.893
573.95	29.574
574.28	29.635
574.62	29.672
574.96	29.344
575.29	29.480
575.63	28.608
575.97	28.734
576.30	29.688
576.64	28.662
576.98	29.575
577.31	29.319
577.65	28.945
577.98	29.628
578.32	29.072
578.66	28.369
578.99	28.498
579.33	28.204
579.67	28.589
580.00	28.734
580.34	28.433
580.67	28.388
581.01	27.810
581.35	28.359
581.68	28.577
582.02	28.501
582.35	28.357
582.69	28.983
583.02	28.605
583.36	28.886
583.70	28.634
584.03	28.941
584.37	28.741
584.70	28.764
585.04	27.798
585.37	28.084
585.71	28.018
586.04	28.341
586.38	28.248
586.72	28.465
587.05	28.481
587.39	28.320
587.72	28.704
588.06	28.204
588.39	28.140
588.73	28.327
589.06	29.485
589.40	28.621
589.73	29.025
590.07	28.323
590.40	28.406
590.73	29.942
591.07	28.838
591.40	28.495
591.74	28.326
592.07	28.803
592.41	28.489
592.74	28.953
593.08	27.419
593.41	27.908
593.75	28.198
594.08	27.738
594.41	27.547
594.75	27.672
595.08	27.582
595.42	27.530
595.75	27.938
596.09	28.577
596.42	27.656
596.75	28.153
597.09	27.608
597.42	26.874
597.75	27.668
598.09	27.026
598.42	27.617
598.76	26.813
599.09	27.724
599.42	27.094
599.76	27.163
600.09	27.526
600.42	27.483
600.76	26.895
601.09	27.099
601.42	26.675
601.76	26.796
602.09	27.393
602.42	27.675
602.76	26.952
603.09	27.367
603.42	27.467
603.76	26.613
604.09	27.096
604.42	27.750
604.76	27.726
605.09	27.468
605.42	26.727
605.75	26.751
606.09	27.219
606.42	26.606
606.75	26.580
607.09	27.077
607.42	26.894
607.75	26.732
608.08	26.460
608.42	25.948
608.75	26.602
609.08	27.055
609.41	26.904
609.75	27.571
610.08	26.410
610.41	26.473
610.74	26.719
611.07	27.132
611.41	26.725
611.74	26.599
612.07	26.178
612.40	26.915
612.73	26.893
613.07	25.478
613.40	26.751
613.73	26.581
614.06	26.489
614.39	26.340
614.72	26.443
615.06	26.648
615.39	25.764
615.72	26.103
616.05	25.922
616.38	25.812
616.71	26.483
617.05	26.313
617.38	26.461
617.71	25.912
618.04	25.841
618.37	26.356
618.70	26.535
619.03	27.222
619.36	25.977
619.69	26.763
620.03	28.123
620.36	26.681
620.69	26.410
621.02	27.370
621.35	27.220
621.68	28.997
622.01	27.667
622.34	26.895
622.67	27.208
623.00	27.259
623.33	25.838
623.66	26.103
623.99	27.610
624.32	26.160
624.65	25.414
624.99	27.088
625.32	26.914
625.65	26.551
625.98	26.833
626.31	25.852
626.64	27.470
626.97	27.487
627.30	27.145
627.63	26.950
627.96	27.673
628.29	25.624
628.62	27.237
628.95	27.054
629.28	27.722
629.61	26.321
629.94	27.566
630.26	26.976
630.59	27.680
630.92	26.872
631.25	25.436
631.58	25.991
631.91	26.425
632.24	27.408
632.57	26.023
632.90	26.097
633.23	27.647
633.56	28.841
633.89	25.647
634.22	28.519
634.55	26.175
634.88	27.075
635.20	25.513
635.53	27.733
635.86	27.958
636.19	27.426
636.52	27.423
636.85	26.055
637.18	26.164
