SpectraSuite Data File
++++++++++++++++++++++++++++++++++++
Date: Fri May 15 21:06:05 PDT 2015
User: schluterlab
Dark Spectrum Present: Yes
Reference Spectrum Present: Yes
Number of Sampled Component Spectra: 1
Spectrometers: USB2E3373
Integration Time (usec): 3000 (USB2E3373)
Spectra Averaged: 3 (USB2E3373)
Boxcar Smoothing: 0 (USB2E3373)
Correct for Electrical Dark: No (USB2E3373)
Strobe/Lamp Enabled: No (USB2E3373)
Correct for Detector Non-linearity: No (USB2E3373)
Correct for Stray Light: No (USB2E3373)
Number of Pixels in Processed Spectrum: 2048
>>>>>Begin Processed Spectral Data<<<<<
178.53	0.000
178.91	0.000
179.29	37.500
179.67	-400.000
180.04	-28.571
180.42	150.000
180.80	700.000
181.18	166.667
181.56	50.000
181.94	-50.000
182.31	1500.000
182.69	-140.000
183.07	-66.667
183.45	-120.000
183.83	216.667
184.20	-27.273
184.58	122.222
184.96	-125.000
185.34	-33.333
185.72	-100.000
186.09	130.769
186.47	-800.000
186.85	150.000
187.23	111.111
187.61	-0.000
187.98	-300.000
188.36	-122.222
188.74	-700.000
189.12	47.059
189.49	0.000
189.87	0.000
190.25	21.429
190.63	100.000
191.00	0.000
191.38	-10.526
191.76	400.000
192.14	-0.000
192.51	-400.000
192.89	-22.222
193.27	-200.000
193.65	150.000
194.02	90.909
194.40	-40.000
194.78	-137.500
195.15	-83.333
195.53	-62.500
195.91	175.000
196.29	-125.000
196.66	69.231
197.04	157.143
197.42	-100.000
197.79	-300.000
198.17	-123.077
198.55	900.000
198.92	-500.000
199.30	-500.000
199.68	-220.000
200.05	-300.000
200.43	0.000
200.81	-166.667
201.18	-100.000
201.56	500.000
201.94	-400.000
202.31	166.667
202.69	-200.000
203.07	325.000
203.44	300.000
203.82	0.000
204.19	-28.571
204.57	-500.000
204.95	87.500
205.32	-30.000
205.70	57.143
206.08	-150.000
206.45	177.778
206.83	114.286
207.20	-71.429
207.58	400.000
207.96	-600.000
208.33	-80.000
208.71	-375.000
209.08	-300.000
209.46	-700.000
209.84	-140.000
210.21	-1000.000
210.59	85.714
210.96	-200.000
211.34	-225.000
211.71	6.667
212.09	-57.143
212.46	-1100.000
212.84	0.000
213.22	80.000
213.59	700.000
213.97	-7.692
214.34	45.455
214.72	-166.667
215.09	450.000
215.47	-15.385
215.84	-27.273
216.22	-533.333
216.59	-137.500
216.97	-650.000
217.34	25.000
217.72	-340.000
218.09	-50.000
218.47	287.500
218.84	-1000.000
219.22	-88.889
219.59	-160.000
219.97	266.667
220.34	350.000
220.72	0.000
221.09	-150.000
221.47	-350.000
221.84	-650.000
222.22	-750.000
222.59	-100.000
222.97	-41.667
223.34	66.667
223.72	0.000
224.09	-33.333
224.46	-3.571
224.84	500.000
225.21	-70.000
225.59	-40.000
225.96	50.000
226.34	275.000
226.71	-200.000
227.08	-100.000
227.46	-25.000
227.83	-900.000
228.21	-44.444
228.58	-90.909
228.95	0.000
229.33	70.000
229.70	-37.500
230.08	-25.000
230.45	-214.286
230.82	-14.286
231.20	-33.333
231.57	50.000
231.95	-57.143
232.32	-80.000
232.69	42.857
233.07	-300.000
233.44	-80.000
233.81	-80.000
234.19	33.333
234.56	-58.824
234.93	650.000
235.31	25.000
235.68	-260.000
236.05	-76.923
236.43	-55.000
236.80	-5.882
237.17	-9.375
237.55	-30.000
237.92	-18.519
238.29	-8.333
238.67	-3.333
239.04	5.882
239.41	-39.024
239.79	-33.333
240.16	-14.634
240.53	-28.947
240.91	-23.913
241.28	9.524
241.65	-14.286
242.02	4.110
242.40	-8.333
242.77	-8.475
243.14	-9.091
243.51	2.500
243.89	2.299
244.26	0.000
244.63	-2.381
245.00	2.062
245.38	-1.031
245.75	-26.966
246.12	0.000
246.49	-4.132
246.87	0.000
247.24	-5.882
247.61	-8.772
247.98	-12.195
248.36	-1.250
248.73	0.000
249.10	-9.091
249.47	-1.899
249.84	-3.268
250.22	-4.706
250.59	3.268
250.96	5.634
251.33	-7.558
251.70	0.588
252.08	-4.569
252.45	0.000
252.82	5.528
253.19	0.922
253.56	-7.009
253.94	-0.901
254.31	1.739
254.68	3.070
255.05	-2.362
255.42	1.747
255.79	-0.386
256.16	-4.280
256.54	3.358
256.91	-0.760
257.28	2.230
257.65	-2.247
258.02	-2.837
258.39	4.040
258.76	4.029
259.14	0.332
259.51	0.324
259.88	-1.375
260.25	-3.268
260.62	1.042
260.99	-4.407
261.36	-2.055
261.73	-1.266
262.10	-1.216
262.47	-0.613
262.85	-1.881
263.22	1.538
263.59	1.869
263.96	-0.621
264.33	2.121
264.70	-3.274
265.07	-0.893
265.44	3.966
265.81	0.282
266.18	-1.366
266.55	2.057
266.92	0.518
267.29	1.567
267.66	-1.023
268.03	0.785
268.40	-0.261
268.77	-0.802
269.14	0.480
269.51	0.771
269.88	-2.244
270.25	0.255
270.62	0.000
270.99	-1.790
271.36	-1.222
271.73	3.052
272.10	1.946
272.47	-0.473
272.84	0.000
273.21	0.696
273.58	0.241
273.95	1.602
274.32	-1.386
274.69	-0.905
275.06	-0.446
275.43	0.000
275.80	-0.662
276.17	-0.920
276.54	0.642
276.91	1.535
277.28	-1.747
277.65	1.860
278.02	0.213
278.39	-1.532
278.76	0.000
279.13	-2.075
279.50	-0.210
279.87	2.160
280.23	0.860
280.60	1.754
280.97	1.010
281.34	-0.385
281.71	1.643
282.08	-0.613
282.45	0.000
282.82	-1.158
283.19	0.193
283.56	-0.578
283.92	-1.328
284.29	-0.769
284.66	0.000
285.03	-2.358
285.40	-0.567
285.77	-1.230
286.14	2.708
286.51	1.292
286.87	-0.548
287.24	-0.184
287.61	-1.411
287.98	2.807
288.35	0.173
288.72	1.926
289.08	-0.347
289.45	2.636
289.82	1.573
290.19	-1.195
290.56	0.000
290.93	0.505
291.29	0.616
291.66	0.630
292.03	-0.319
292.40	0.484
292.77	-0.319
293.13	-1.623
293.50	-1.214
293.87	0.916
294.24	0.464
294.60	1.192
294.97	2.679
295.34	-1.227
295.71	-1.490
296.08	0.598
296.44	-1.565
296.81	-0.556
297.18	-0.580
297.55	2.304
297.91	0.959
298.28	2.243
298.65	0.271
299.02	-0.270
299.38	-1.642
299.75	1.379
300.12	0.262
300.48	0.395
300.85	0.887
301.22	1.169
301.59	0.263
301.95	1.392
302.32	1.556
302.69	0.622
303.05	-0.743
303.42	-0.249
303.79	0.818
304.15	1.792
304.52	-1.070
304.89	-0.702
305.25	0.000
305.62	-0.117
305.99	-0.351
306.35	0.578
306.72	-0.450
307.09	0.684
307.45	1.033
307.82	0.000
308.19	0.929
308.55	0.981
308.92	1.307
309.29	0.335
309.65	0.431
310.02	1.210
310.38	0.659
310.75	1.311
311.12	1.292
311.48	1.060
311.85	0.524
312.22	0.738
312.58	1.274
312.95	1.067
313.31	0.932
313.68	1.257
314.05	1.020
314.41	1.649
314.78	1.443
315.14	2.158
315.51	1.863
315.87	1.742
316.24	3.134
316.61	1.280
316.97	1.687
317.34	1.270
317.70	1.721
318.07	2.212
318.43	1.765
318.80	2.462
319.16	3.125
319.53	4.274
319.89	2.559
320.26	3.644
320.62	3.811
320.99	2.192
321.35	2.775
321.72	5.504
322.08	4.532
322.45	4.569
322.81	4.224
323.18	5.201
323.54	5.116
323.91	5.648
324.27	5.859
324.64	5.056
325.00	6.387
325.37	6.703
325.73	5.802
326.10	6.358
326.46	7.265
326.83	6.562
327.19	7.672
327.56	8.254
327.92	8.187
328.29	8.304
328.65	8.396
329.01	8.640
329.38	8.295
329.74	8.026
330.11	8.897
330.47	7.514
330.84	7.788
331.20	10.266
331.56	8.241
331.93	10.320
332.29	9.349
332.66	9.412
333.02	8.364
333.38	7.791
333.75	9.707
334.11	8.415
334.48	9.882
334.84	9.615
335.20	10.064
335.57	9.701
335.93	9.666
336.29	9.853
336.66	9.718
337.02	9.015
337.38	8.981
337.75	9.000
338.11	10.640
338.47	10.401
338.84	10.351
339.20	10.878
339.56	10.275
339.93	10.564
340.29	9.725
340.65	11.022
341.02	9.397
341.38	9.292
341.74	9.629
342.11	9.359
342.47	9.698
342.83	10.467
343.20	9.582
343.56	10.957
343.92	7.972
344.28	10.845
344.65	10.104
345.01	9.853
345.37	9.840
345.73	11.213
346.10	10.267
346.46	9.588
346.82	10.147
347.19	8.313
347.55	9.524
347.91	9.790
348.27	9.135
348.63	9.114
349.00	8.696
349.36	8.811
349.72	9.121
350.08	9.344
350.45	9.657
350.81	9.053
351.17	8.550
351.53	10.367
351.89	8.671
352.26	9.840
352.62	9.677
352.98	9.558
353.34	8.293
353.70	9.709
354.07	10.403
354.43	8.887
354.79	8.836
355.15	9.286
355.51	9.810
355.87	9.223
356.24	8.401
356.60	8.812
356.96	8.730
357.32	8.706
357.68	8.366
358.04	9.451
358.40	7.958
358.77	9.410
359.13	8.167
359.49	8.706
359.85	9.438
360.21	7.656
360.57	9.564
360.93	8.169
361.29	7.326
361.66	8.856
362.02	8.485
362.38	9.825
362.74	7.873
363.10	8.503
363.46	8.451
363.82	8.790
364.18	8.118
364.54	7.574
364.90	8.746
365.26	8.806
365.62	9.854
365.98	8.578
366.35	9.323
366.71	8.500
367.07	8.563
367.43	7.333
367.79	7.986
368.15	7.035
368.51	8.303
368.87	7.681
369.23	8.014
369.59	7.070
369.95	8.138
370.31	8.092
370.67	7.687
371.03	7.842
371.39	8.242
371.75	8.425
372.11	7.846
372.47	7.766
372.83	7.949
373.19	9.058
373.55	7.870
373.91	8.495
374.27	8.363
374.63	7.681
374.99	7.092
375.35	7.869
375.71	7.972
376.07	7.654
376.42	7.347
376.78	8.188
377.14	7.380
377.50	7.503
377.86	7.430
378.22	7.084
378.58	7.821
378.94	7.940
379.30	7.611
379.66	7.774
380.02	6.806
380.38	7.425
380.74	7.301
381.09	7.301
381.45	6.850
381.81	7.588
382.17	7.170
382.53	7.370
382.89	7.407
383.25	7.343
383.61	7.500
383.97	7.365
384.32	7.255
384.68	7.554
385.04	6.801
385.40	6.347
385.76	7.925
386.12	7.115
386.48	7.663
386.83	6.785
387.19	7.448
387.55	7.277
387.91	7.152
388.27	6.777
388.62	7.426
388.98	6.691
389.34	6.871
389.70	7.707
390.06	7.489
390.42	6.477
390.77	6.606
391.13	6.053
391.49	7.374
391.85	7.083
392.20	6.780
392.56	6.739
392.92	6.988
393.28	6.427
393.64	6.727
393.99	7.962
394.35	5.946
394.71	6.960
395.07	7.228
395.42	6.375
395.78	6.254
396.14	7.566
396.50	6.722
396.85	7.276
397.21	6.579
397.57	6.270
397.92	6.890
398.28	6.207
398.64	6.506
399.00	6.659
399.35	6.208
399.71	7.180
400.07	6.348
400.42	6.977
400.78	7.348
401.14	6.231
401.49	6.849
401.85	6.703
402.21	6.687
402.57	6.187
402.92	5.897
403.28	6.642
403.63	7.062
403.99	5.612
404.35	6.496
404.70	5.655
405.06	5.640
405.42	5.718
405.77	5.636
406.13	5.180
406.49	5.033
406.84	5.685
407.20	6.081
407.55	5.280
407.91	5.281
408.27	6.182
408.62	6.338
408.98	6.100
409.34	6.568
409.69	4.780
410.05	5.480
410.40	6.235
410.76	5.609
411.11	5.812
411.47	5.983
411.83	5.022
412.18	5.470
412.54	5.493
412.89	5.296
413.25	6.197
413.60	5.217
413.96	5.276
414.31	5.610
414.67	4.939
415.03	5.726
415.38	5.091
415.74	5.472
416.09	6.205
416.45	5.334
416.80	4.759
417.16	4.972
417.51	6.396
417.87	5.671
418.22	5.635
418.58	5.619
418.93	6.082
419.29	5.122
419.64	5.120
420.00	5.416
420.35	5.015
420.71	5.529
421.06	5.095
421.42	5.529
421.77	5.723
422.12	4.938
422.48	5.306
422.83	5.510
423.19	5.813
423.54	4.762
423.90	4.476
424.25	5.970
424.61	5.692
424.96	5.923
425.31	5.950
425.67	4.988
426.02	6.066
426.38	4.822
426.73	5.932
427.09	6.266
427.44	6.647
427.79	5.421
428.15	5.340
428.50	5.027
428.85	4.484
429.21	5.490
429.56	5.499
429.92	6.112
430.27	5.163
430.62	4.705
430.98	5.467
431.33	5.626
431.68	5.547
432.04	4.695
432.39	5.305
432.74	5.352
433.10	5.920
433.45	5.078
433.80	5.049
434.16	4.986
434.51	5.968
434.86	5.401
435.22	5.160
435.57	5.427
435.92	5.329
436.28	5.188
436.63	5.705
436.98	5.736
437.34	5.566
437.69	4.770
438.04	5.470
438.39	4.582
438.75	4.797
439.10	5.716
439.45	5.660
439.81	5.443
440.16	5.701
440.51	5.313
440.86	6.405
441.22	5.882
441.57	4.912
441.92	6.139
442.27	5.931
442.63	6.852
442.98	6.203
443.33	5.787
443.68	5.623
444.03	5.961
444.39	6.001
444.74	6.132
445.09	5.846
445.44	5.926
445.79	6.447
446.15	6.002
446.50	5.324
446.85	5.951
447.20	5.839
447.55	5.804
447.91	5.753
448.26	5.862
448.61	6.851
448.96	6.540
449.31	5.260
449.66	6.504
450.02	6.332
450.37	5.868
450.72	5.556
451.07	5.759
451.42	6.305
451.77	6.872
452.12	6.100
452.47	5.731
452.83	6.125
453.18	6.452
453.53	5.815
453.88	6.254
454.23	6.638
454.58	6.360
454.93	6.701
455.28	5.905
455.63	6.386
455.98	6.314
456.34	5.556
456.69	6.544
457.04	7.498
457.39	5.954
457.74	5.441
458.09	5.768
458.44	6.144
458.79	5.770
459.14	7.037
459.49	6.507
459.84	5.809
460.19	6.857
460.54	6.235
460.89	6.193
461.24	6.460
461.59	7.007
461.94	5.660
462.29	6.514
462.64	6.844
462.99	6.567
463.34	6.606
463.69	6.692
464.04	5.993
464.39	6.489
464.74	6.380
465.09	6.488
465.44	6.578
465.79	6.406
466.14	7.355
466.49	6.498
466.84	6.008
467.19	6.320
467.54	5.683
467.89	6.254
468.24	6.448
468.59	6.476
468.94	6.222
469.29	6.689
469.64	7.587
469.99	6.797
470.34	6.075
470.68	7.755
471.03	7.502
471.38	6.277
471.73	6.583
472.08	7.056
472.43	6.242
472.78	5.346
473.13	6.939
473.48	6.906
473.83	5.729
474.17	6.347
474.52	6.063
474.87	7.333
475.22	6.528
475.57	6.211
475.92	6.583
476.27	7.218
476.61	6.887
476.96	6.470
477.31	7.409
477.66	6.573
478.01	6.457
478.36	6.046
478.70	7.232
479.05	6.593
479.40	6.041
479.75	6.621
480.10	7.168
480.45	6.750
480.79	6.596
481.14	6.814
481.49	5.961
481.84	6.371
482.19	6.268
482.53	6.091
482.88	6.301
483.23	6.622
483.58	6.651
483.92	6.438
484.27	5.652
484.62	6.768
484.97	6.468
485.31	6.250
485.66	6.260
486.01	6.266
486.36	6.059
486.70	6.252
487.05	6.522
487.40	6.231
487.75	6.366
488.09	6.088
488.44	6.396
488.79	6.649
489.13	6.210
489.48	6.584
489.83	6.143
490.17	6.292
490.52	6.143
490.87	6.386
491.22	6.781
491.56	6.357
491.91	5.880
492.26	6.271
492.60	5.806
492.95	6.837
493.30	6.839
493.64	6.532
493.99	6.618
494.34	5.971
494.68	6.476
495.03	6.472
495.37	6.526
495.72	6.259
496.07	6.390
496.41	7.123
496.76	6.449
497.11	6.614
497.45	6.826
497.80	6.963
498.14	6.607
498.49	5.993
498.84	6.437
499.18	5.974
499.53	6.349
499.87	6.274
500.22	5.638
500.56	6.304
500.91	6.175
501.26	6.327
501.60	6.247
501.95	6.696
502.29	6.199
502.64	6.322
502.98	6.611
503.33	5.668
503.67	6.602
504.02	6.403
504.36	6.977
504.71	6.212
505.06	5.838
505.40	6.244
505.75	6.598
506.09	6.234
506.44	6.725
506.78	6.582
507.13	6.774
507.47	6.319
507.82	5.929
508.16	6.339
508.51	6.506
508.85	6.489
509.19	5.748
509.54	6.381
509.88	6.095
510.23	6.347
510.57	6.093
510.92	5.544
511.26	6.492
511.61	5.776
511.95	6.575
512.30	6.375
512.64	6.566
512.98	6.120
513.33	6.267
513.67	6.481
514.02	6.522
514.36	7.257
514.70	6.643
515.05	7.227
515.39	6.494
515.74	6.407
516.08	6.874
516.42	6.832
516.77	6.437
517.11	6.350
517.46	7.241
517.80	6.734
518.14	6.246
518.49	6.250
518.83	6.379
519.17	5.943
519.52	6.217
519.86	6.242
520.20	6.744
520.55	5.253
520.89	6.775
521.23	6.396
521.58	6.940
521.92	7.372
522.26	6.962
522.61	5.844
522.95	7.483
523.29	7.370
523.64	5.845
523.98	6.805
524.32	6.121
524.66	6.402
525.01	6.494
525.35	6.805
525.69	6.128
526.04	6.151
526.38	7.198
526.72	6.279
527.06	6.874
527.41	6.662
527.75	6.099
528.09	6.113
528.43	7.495
528.78	6.139
529.12	6.452
529.46	5.848
529.80	6.776
530.15	6.997
530.49	5.657
530.83	6.498
531.17	5.910
531.51	7.456
531.86	6.390
532.20	5.915
532.54	6.127
532.88	6.297
533.22	7.392
533.57	6.356
533.91	5.744
534.25	7.357
534.59	5.645
534.93	6.482
535.27	5.457
535.62	6.027
535.96	6.784
536.30	6.926
536.64	6.823
536.98	6.272
537.32	7.397
537.66	7.644
538.01	6.853
538.35	7.212
538.69	6.724
539.03	6.904
539.37	6.258
539.71	6.408
540.05	6.382
540.39	6.233
540.73	6.485
541.07	5.801
541.42	6.989
541.76	7.020
542.10	6.125
542.44	6.393
542.78	5.850
543.12	6.250
543.46	7.232
543.80	6.246
544.14	5.741
544.48	6.462
544.82	6.288
545.16	6.694
545.50	7.210
545.84	6.728
546.18	7.092
546.52	5.263
546.86	6.470
547.20	6.581
547.54	5.866
547.88	5.842
548.22	5.720
548.56	5.937
548.90	7.615
549.24	5.441
549.58	7.193
549.92	6.004
550.26	6.593
550.60	6.097
550.94	6.647
551.28	5.951
551.62	7.154
551.96	6.541
552.30	5.848
552.64	5.783
552.98	6.259
553.32	6.847
553.66	6.096
554.00	5.182
554.34	5.687
554.68	6.342
555.02	6.845
555.36	6.283
555.69	5.201
556.03	6.281
556.37	5.623
556.71	6.209
557.05	6.189
557.39	5.651
557.73	6.447
558.07	6.637
558.41	6.508
558.75	7.093
559.08	5.753
559.42	6.270
559.76	6.725
560.10	5.734
560.44	5.436
560.78	6.014
561.12	5.501
561.45	6.184
561.79	5.462
562.13	6.813
562.47	5.252
562.81	5.692
563.15	5.853
563.48	6.648
563.82	5.834
564.16	5.989
564.50	5.608
564.84	6.158
565.17	6.439
565.51	6.352
565.85	5.693
566.19	7.029
566.52	5.697
566.86	7.198
567.20	6.164
567.54	5.109
567.88	5.390
568.21	6.165
568.55	5.598
568.89	6.674
569.23	5.729
569.56	5.123
569.90	6.131
570.24	5.694
570.57	5.673
570.91	5.856
571.25	5.426
571.59	5.357
571.92	5.926
572.26	5.133
572.60	5.922
572.93	5.805
573.27	5.455
573.61	5.430
573.95	5.571
574.28	5.297
574.62	5.568
574.96	5.510
575.29	5.528
575.63	5.235
575.97	5.096
576.30	5.285
576.64	4.980
576.98	5.689
577.31	5.382
577.65	5.482
577.98	5.283
578.32	4.901
578.66	5.201
578.99	5.288
579.33	5.096
579.67	5.047
580.00	5.367
580.34	5.075
580.67	5.193
581.01	5.331
581.35	5.340
581.68	5.373
582.02	5.175
582.35	5.070
582.69	5.162
583.02	5.383
583.36	5.299
583.70	5.426
584.03	5.199
584.37	5.929
584.70	5.357
585.04	5.078
585.37	5.430
585.71	5.381
586.04	5.371
586.38	4.988
586.72	5.280
587.05	5.315
587.39	5.451
587.72	5.385
588.06	5.480
588.39	5.497
588.73	5.128
589.06	5.806
589.40	5.669
589.73	5.586
590.07	6.382
590.40	5.766
590.73	5.807
591.07	5.047
591.40	5.922
591.74	5.430
592.07	6.401
592.41	5.654
592.74	5.337
593.08	5.274
593.41	5.371
593.75	5.005
594.08	5.390
594.41	5.568
594.75	5.458
595.08	5.297
595.42	5.484
595.75	5.445
596.09	5.356
596.42	5.788
596.75	5.906
597.09	5.968
597.42	5.375
597.75	5.360
598.09	5.794
598.42	5.370
598.76	5.749
599.09	5.809
599.42	5.873
599.76	5.643
600.09	5.317
600.42	5.042
600.76	5.461
601.09	5.267
601.42	5.327
601.76	5.439
602.09	5.239
602.42	5.771
602.76	5.475
603.09	5.440
603.42	5.226
603.76	4.798
604.09	5.427
604.42	5.584
604.76	5.251
605.09	5.804
605.42	5.056
605.75	5.648
606.09	5.393
606.42	5.213
606.75	5.281
607.09	6.066
607.42	5.583
607.75	5.551
608.08	5.256
608.42	5.893
608.75	6.024
609.08	5.331
609.41	6.345
609.75	5.091
610.08	5.941
610.41	5.652
610.74	5.948
611.07	5.840
611.41	5.605
611.74	6.130
612.07	5.996
612.40	5.580
612.73	5.367
613.07	5.512
613.40	6.072
613.73	5.820
614.06	5.398
614.39	6.148
614.72	5.602
615.06	6.369
615.39	5.950
615.72	5.813
616.05	5.084
616.38	5.584
616.71	5.749
617.05	5.991
617.38	5.531
617.71	5.723
618.04	5.968
618.37	6.053
618.70	6.139
619.03	6.389
619.36	5.644
619.69	5.989
620.03	7.524
620.36	5.222
620.69	6.638
621.02	6.422
621.35	6.722
621.68	5.952
622.01	5.333
622.34	7.263
622.67	5.836
623.00	7.121
623.33	6.402
623.66	5.236
623.99	6.203
624.32	5.779
624.65	5.414
624.99	7.148
625.32	5.989
625.65	6.756
625.98	6.366
626.31	6.068
626.64	7.192
626.97	6.981
627.30	5.954
627.63	6.672
627.96	6.828
628.29	6.105
628.62	6.686
628.95	6.413
629.28	5.847
629.61	5.085
629.94	6.647
630.26	6.818
630.59	6.972
630.92	6.564
631.25	6.667
631.58	5.507
631.91	5.044
632.24	5.505
632.57	6.705
632.90	5.694
633.23	7.412
633.56	5.038
633.89	4.809
634.22	8.272
634.55	5.210
634.88	7.535
635.20	6.282
635.53	5.867
635.86	5.202
636.19	7.762
636.52	5.230
636.85	5.583
637.18	6.541
637.51	7.296
637.83	5.913
638.16	7.913
638.49	5.995
638.82	8.158
639.15	7.327
639.48	7.153
639.81	7.810
640.13	6.494
640.46	6.851
640.79	4.860
641.12	7.386
641.45	4.955
641.77	6.074
642.10	7.899
642.43	4.662
642.76	7.921
643.09	7.916
643.41	5.663
643.74	5.931
644.07	7.882
644.40	6.419
644.73	7.356
645.05	7.718
645.38	6.173
645.71	5.496
646.04	4.847
646.36	6.206
646.69	9.892
647.02	8.129
647.35	8.209
647.67	7.130
648.00	7.090
648.33	8.191
648.66	7.119
648.98	2.848
649.31	5.124
649.64	6.436
649.96	4.052
650.29	6.814
650.62	6.838
650.94	5.926
651.27	4.283
651.60	7.207
651.92	7.867
652.25	4.440
652.58	7.167
652.90	8.062
653.23	6.218
653.56	5.076
653.88	7.904
654.21	3.853
654.54	6.282
654.86	6.282
655.19	5.994
655.52	6.424
655.84	4.988
656.17	5.339
