SpectraSuite Data File
++++++++++++++++++++++++++++++++++++
Date: Fri May 15 20:31:30 PDT 2015
User: schluterlab
Dark Spectrum Present: Yes
Reference Spectrum Present: Yes
Number of Sampled Component Spectra: 1
Spectrometers: USB2E3373
Integration Time (usec): 3000 (USB2E3373)
Spectra Averaged: 3 (USB2E3373)
Boxcar Smoothing: 0 (USB2E3373)
Correct for Electrical Dark: No (USB2E3373)
Strobe/Lamp Enabled: No (USB2E3373)
Correct for Detector Non-linearity: No (USB2E3373)
Correct for Stray Light: No (USB2E3373)
Number of Pixels in Processed Spectrum: 2048
>>>>>Begin Processed Spectral Data<<<<<
178.53	0.000
178.91	0.000
179.29	50.000
179.67	-400.000
180.04	57.143
180.42	-50.000
180.80	100.000
181.18	-33.333
181.56	700.000
181.94	-300.000
182.31	400.000
182.69	-20.000
183.07	-33.333
183.45	20.000
183.83	250.000
184.20	-72.727
184.58	88.889
184.96	350.000
185.34	133.333
185.72	-500.000
186.09	84.615
186.47	-1600.000
186.85	266.667
187.23	166.667
187.61	600.000
187.98	-633.333
188.36	33.333
188.74	-100.000
189.12	11.765
189.49	44.444
189.87	0.000
190.25	42.857
190.63	-350.000
191.00	-166.667
191.38	5.263
191.76	-200.000
192.14	75.000
192.51	-150.000
192.89	-166.667
193.27	-114.286
193.65	33.333
194.02	200.000
194.40	50.000
194.78	-112.500
195.15	-91.667
195.53	-37.500
195.91	425.000
196.29	-350.000
196.66	153.846
197.04	285.714
197.42	-88.889
197.79	-433.333
198.17	-107.692
198.55	2300.000
198.92	-466.667
199.30	-300.000
199.68	-300.000
200.05	-433.333
200.43	0.000
200.81	-133.333
201.18	66.667
201.56	2000.000
201.94	-750.000
202.31	133.333
202.69	-340.000
203.07	275.000
203.44	500.000
203.82	0.000
204.19	35.714
204.57	-466.667
204.95	150.000
205.32	-120.000
205.70	-100.000
206.08	0.000
206.45	66.667
206.83	35.714
207.20	-71.429
207.58	500.000
207.96	-500.000
208.33	-160.000
208.71	-50.000
209.08	-200.000
209.46	-300.000
209.84	-220.000
210.21	-1400.000
210.59	-142.857
210.96	-50.000
211.34	75.000
211.71	-13.333
212.09	-242.857
212.46	-2000.000
212.84	0.000
213.22	70.000
213.59	700.000
213.97	23.077
214.34	54.545
214.72	16.667
215.09	575.000
215.47	-15.385
215.84	-63.636
216.22	-333.333
216.59	-187.500
216.97	100.000
217.34	-250.000
217.72	-180.000
218.09	-100.000
218.47	175.000
218.84	-1400.000
219.22	-88.889
219.59	-140.000
219.97	500.000
220.34	150.000
220.72	42.857
221.09	-100.000
221.47	300.000
221.84	-650.000
222.22	-850.000
222.59	18.182
222.97	8.333
223.34	-400.000
223.72	-142.857
224.09	-9.524
224.46	-42.857
224.84	600.000
225.21	-90.000
225.59	-46.667
225.96	0.000
226.34	25.000
226.71	-114.286
227.08	-16.667
227.46	-175.000
227.83	-700.000
228.21	44.444
228.58	9.091
228.95	-50.000
229.33	190.000
229.70	-50.000
230.08	-112.500
230.45	-200.000
230.82	71.429
231.20	-20.000
231.57	-35.714
231.95	-71.429
232.32	-160.000
232.69	21.429
233.07	-300.000
233.44	-240.000
233.81	-230.000
234.19	-11.111
234.56	-5.882
234.93	1000.000
235.31	-350.000
235.68	-340.000
236.05	-146.154
236.43	-80.000
236.80	-5.882
237.17	-31.250
237.55	-50.000
237.92	-11.111
238.29	-22.222
238.67	26.667
239.04	-41.176
239.41	-26.829
239.79	-40.000
240.16	-17.073
240.53	-26.316
240.91	-39.130
241.28	3.175
241.65	-5.357
242.02	1.370
242.40	11.667
242.77	1.695
243.14	-6.061
243.51	6.250
243.89	11.494
244.26	-1.149
244.63	-7.143
245.00	5.155
245.38	-3.093
245.75	-12.360
246.12	-1.724
246.49	-2.479
246.87	9.615
247.24	-2.521
247.61	-7.895
247.98	-1.626
248.36	12.500
248.73	0.658
249.10	0.000
249.47	2.532
249.84	10.458
250.22	8.235
250.59	1.307
250.96	6.103
251.33	0.581
251.70	1.176
252.08	1.523
252.45	1.980
252.82	4.523
253.19	1.382
253.56	0.935
253.94	4.505
254.31	0.435
254.68	3.070
255.05	7.087
255.42	3.057
255.79	3.861
256.16	2.335
256.54	8.582
256.91	4.183
257.28	2.602
257.65	1.124
258.02	3.546
258.39	8.081
258.76	6.227
259.14	11.628
259.51	4.854
259.88	3.436
260.25	1.307
260.62	4.861
260.99	4.407
261.36	0.342
261.73	3.797
262.10	3.647
262.47	5.215
262.85	2.508
263.22	3.385
263.59	4.984
263.96	5.280
264.33	4.848
264.70	4.167
265.07	1.488
265.44	6.232
265.81	3.107
266.18	3.552
266.55	4.884
266.92	6.477
267.29	4.439
267.66	3.069
268.03	4.450
268.40	2.089
268.77	3.209
269.14	4.796
269.51	5.913
269.88	3.741
270.25	4.337
270.62	2.439
270.99	2.813
271.36	3.667
271.73	4.930
272.10	5.839
272.47	5.910
272.84	2.970
273.21	5.104
273.58	3.614
273.95	7.094
274.32	5.081
274.69	2.262
275.06	5.804
275.43	3.855
275.80	3.753
276.17	5.287
276.54	6.424
276.91	6.360
277.28	4.803
277.65	5.992
278.02	3.404
278.39	3.720
278.76	4.822
279.13	1.037
279.50	5.462
279.87	5.832
280.23	2.581
280.60	6.043
280.97	5.455
281.34	5.769
281.71	6.366
282.08	3.067
282.45	4.305
282.82	3.475
283.19	4.062
283.56	4.817
283.92	3.416
284.29	2.885
284.66	4.264
285.03	2.750
285.40	4.726
285.77	5.975
286.14	3.249
286.51	7.011
286.87	3.839
287.24	1.842
287.61	3.704
287.98	5.439
288.35	4.333
288.72	5.779
289.08	1.215
289.45	4.218
289.82	6.119
290.19	2.389
290.56	2.058
290.93	2.525
291.29	4.006
291.66	5.354
292.03	2.552
292.40	6.129
292.77	4.466
293.13	0.974
293.50	3.187
293.87	4.733
294.24	3.864
294.60	5.514
294.97	4.315
295.34	2.914
295.71	3.279
296.08	3.139
296.44	1.138
296.81	3.889
297.18	4.203
297.55	5.827
297.91	2.877
298.28	3.958
298.65	3.121
299.02	4.582
299.38	0.821
299.75	3.586
300.12	2.487
300.48	3.689
300.85	2.915
301.22	3.636
301.59	1.579
301.95	5.696
302.32	3.891
302.69	2.363
303.05	3.218
303.42	3.362
303.79	3.621
304.15	3.823
304.52	2.378
304.89	1.871
305.25	3.390
305.62	2.450
305.99	2.339
306.35	3.699
306.72	3.037
307.09	2.623
307.45	3.330
307.82	4.167
308.19	2.207
308.55	3.817
308.92	3.704
309.29	3.464
309.65	2.583
310.02	1.980
310.38	3.842
310.75	3.825
311.12	3.337
311.48	3.181
311.85	2.408
312.22	1.793
312.58	3.291
312.95	2.668
313.31	1.656
313.68	3.141
314.05	3.163
314.41	3.918
314.78	3.299
315.14	3.905
315.51	4.244
315.87	2.561
316.24	4.247
316.61	3.248
316.97	3.968
317.34	3.320
317.70	3.633
318.07	2.212
318.43	3.431
318.80	3.125
319.16	3.223
319.53	4.368
319.89	3.740
320.26	3.239
320.62	4.313
320.99	2.818
321.35	4.830
321.72	4.050
322.08	4.431
322.45	3.858
322.81	5.010
323.18	3.337
323.54	2.317
323.91	3.700
324.27	3.906
324.64	3.371
325.00	5.292
325.37	4.500
325.73	3.083
326.10	3.815
326.46	4.395
326.83	3.500
327.19	3.662
327.56	4.518
327.92	5.018
328.29	3.482
328.65	3.868
329.01	5.055
329.38	4.700
329.74	3.777
330.11	4.541
330.47	3.154
330.84	2.885
331.20	5.798
331.56	3.981
331.93	4.475
332.29	4.766
332.66	5.158
333.02	2.974
333.38	4.033
333.75	4.304
334.11	4.834
334.48	4.714
334.84	4.029
335.20	4.575
335.57	4.080
335.93	4.065
336.29	3.223
336.66	3.724
337.02	2.881
337.38	3.056
337.75	4.636
338.11	5.230
338.47	4.745
338.84	4.159
339.20	4.113
339.56	4.312
339.93	4.655
340.29	4.312
340.65	4.839
341.02	4.344
341.38	4.159
341.74	3.534
342.11	3.033
342.47	2.669
342.83	4.758
343.20	5.052
343.56	3.826
343.92	5.137
344.28	4.184
344.65	2.677
345.01	3.198
345.37	4.962
345.73	4.937
346.10	3.969
346.46	5.046
346.82	5.074
347.19	4.156
347.55	4.428
347.91	4.773
348.27	4.285
348.63	3.663
349.00	4.184
349.36	3.574
349.72	4.809
350.08	4.344
350.45	3.831
350.81	3.654
351.17	3.176
351.53	4.653
351.89	4.129
352.26	3.520
352.62	4.194
352.98	3.534
353.34	4.348
353.70	5.097
354.07	4.758
354.43	4.083
354.79	3.303
355.15	5.397
355.51	3.481
355.87	4.531
356.24	3.344
356.60	4.123
356.96	4.921
357.32	3.834
357.68	3.127
358.04	3.796
358.40	3.376
358.77	4.466
359.13	3.523
359.49	4.083
359.85	4.602
360.21	4.386
360.57	3.596
360.93	4.917
361.29	3.474
361.66	3.605
362.02	4.470
362.38	3.351
362.74	3.861
363.10	3.837
363.46	4.299
363.82	4.808
364.18	3.985
364.54	3.971
364.90	3.584
365.26	4.003
365.62	3.942
365.98	4.032
366.35	4.734
366.71	3.400
367.07	3.701
367.43	3.379
367.79	4.311
368.15	3.877
368.51	4.006
368.87	3.374
369.23	3.321
369.59	2.770
369.95	3.959
370.31	3.902
370.67	3.209
371.03	3.883
371.39	3.136
371.75	3.590
372.11	3.638
372.47	3.476
372.83	3.762
373.19	4.137
373.55	3.466
373.91	3.384
374.27	3.544
374.63	4.020
374.99	3.901
375.35	3.830
375.71	3.916
376.07	3.722
376.42	3.401
376.78	4.228
377.14	4.130
377.50	3.453
377.86	4.016
378.22	3.829
378.58	3.141
378.94	3.907
379.30	3.930
379.66	4.201
380.02	3.311
380.38	3.469
380.74	3.710
381.09	4.663
381.45	3.486
381.81	3.825
382.17	3.744
382.53	3.248
382.89	3.139
383.25	4.418
383.61	3.415
383.97	2.540
384.32	3.377
384.68	3.220
385.04	3.309
385.40	2.925
385.76	3.962
386.12	4.010
386.48	4.151
386.83	3.551
387.19	3.724
387.55	3.952
387.91	3.056
388.27	3.602
388.62	3.524
388.98	3.929
389.34	4.060
389.70	3.978
390.06	3.335
390.42	2.915
390.77	3.597
391.13	3.216
391.49	2.911
391.85	3.379
392.20	3.829
392.56	3.306
392.92	4.110
393.28	3.125
393.64	3.303
393.99	4.451
394.35	2.657
394.71	4.087
395.07	3.268
395.42	3.582
395.78	3.322
396.14	3.342
396.50	3.741
396.85	3.735
397.21	3.947
397.57	3.448
397.92	3.535
398.28	3.333
398.64	3.133
399.00	3.781
399.35	2.878
399.71	3.963
400.07	4.111
400.42	3.611
400.78	3.062
401.14	3.751
401.49	4.288
401.85	3.291
402.21	3.554
402.57	3.562
402.92	3.137
403.28	4.073
403.63	3.342
403.99	3.189
404.35	3.123
404.70	3.512
405.06	3.760
405.42	3.791
405.77	3.544
406.13	3.201
406.49	3.197
406.84	4.340
407.20	3.793
407.55	2.833
407.91	2.540
408.27	2.613
408.62	3.508
408.98	4.375
409.34	4.151
409.69	3.747
410.05	3.633
410.40	3.519
410.76	4.162
411.11	3.063
411.47	3.550
411.83	2.888
412.18	3.861
412.54	3.558
412.89	2.956
413.25	3.791
413.60	3.416
413.96	3.988
414.31	4.146
414.67	3.656
415.03	4.128
415.38	3.525
415.74	3.779
416.09	3.592
416.45	4.591
416.80	3.900
417.16	3.315
417.51	3.864
417.87	3.781
418.22	3.886
418.58	3.211
418.93	4.765
419.29	2.561
419.64	3.046
420.00	3.841
420.35	3.821
420.71	4.313
421.06	3.806
421.42	3.726
421.77	3.757
422.12	3.689
422.48	3.628
422.83	3.596
423.19	4.007
423.54	3.233
423.90	3.357
424.25	3.559
424.61	3.672
424.96	3.659
425.31	3.640
425.67	3.228
426.02	4.594
426.38	3.757
426.73	4.237
427.09	4.051
427.44	4.118
427.79	4.420
428.15	4.490
428.50	3.331
428.85	3.440
429.21	4.131
429.56	4.313
429.92	4.058
430.27	4.361
430.62	3.502
430.98	4.087
431.33	4.416
431.68	3.611
432.04	3.466
432.39	3.423
432.74	3.548
433.10	4.770
433.45	4.182
433.80	3.947
434.16	3.213
434.51	4.355
434.86	4.007
435.22	4.094
435.57	2.870
435.92	4.790
436.28	3.876
436.63	3.879
436.98	3.013
437.34	3.327
437.69	4.055
438.04	3.476
438.39	3.482
438.75	3.947
439.10	4.188
439.45	3.956
439.81	3.914
440.16	3.919
440.51	4.716
440.86	4.532
441.22	4.186
441.57	3.918
441.92	4.302
442.27	4.047
442.63	4.872
442.98	3.733
443.33	4.062
443.68	3.714
444.03	4.421
444.39	3.837
444.74	3.846
445.09	3.786
445.44	4.046
445.79	3.816
446.15	3.524
446.50	3.716
446.85	4.942
447.20	3.806
447.55	4.074
447.91	3.384
448.26	3.813
448.61	4.836
448.96	4.188
449.31	3.468
449.66	4.297
450.02	4.164
450.37	4.031
450.72	4.238
451.07	4.620
451.42	3.995
451.77	4.280
452.12	4.007
452.47	3.606
452.83	4.535
453.18	4.364
453.53	4.362
453.88	4.129
454.23	4.302
454.58	4.534
454.93	4.059
455.28	2.794
455.63	4.650
455.98	4.871
456.34	5.236
456.69	4.130
457.04	4.537
457.39	3.706
457.74	3.688
458.09	4.061
458.44	3.979
458.79	3.417
459.14	5.320
459.49	4.776
459.84	4.456
460.19	4.248
460.54	4.279
460.89	4.205
461.24	4.472
461.59	4.097
461.94	4.717
462.29	5.066
462.64	3.987
462.99	4.672
463.34	4.172
463.69	4.118
464.04	4.600
464.39	3.639
464.74	3.926
465.09	4.492
465.44	4.732
465.79	3.855
466.14	4.732
466.49	4.198
466.84	4.224
467.19	4.693
467.54	4.853
467.89	4.359
468.24	4.075
468.59	4.635
468.94	4.063
469.29	4.984
469.64	4.511
469.99	4.275
470.34	3.823
470.68	4.847
471.03	4.812
471.38	4.708
471.73	3.852
472.08	3.799
472.43	3.490
472.78	3.838
473.13	4.966
473.48	5.016
473.83	4.545
474.17	4.404
474.52	5.361
474.87	5.091
475.22	3.905
475.57	4.969
475.92	4.169
476.27	4.715
476.61	4.745
476.96	4.518
477.31	4.273
477.66	4.719
478.01	4.548
478.36	4.684
478.70	5.003
479.05	4.725
479.40	4.716
479.75	4.432
480.10	4.455
480.45	5.100
480.79	4.431
481.14	4.457
481.49	4.187
481.84	4.344
482.19	4.163
482.53	4.125
482.88	4.630
483.23	4.175
483.58	3.915
483.92	4.066
484.27	4.467
484.62	4.796
484.97	4.809
485.31	4.046
485.66	4.406
486.01	4.675
486.36	4.373
486.70	4.631
487.05	4.512
487.40	4.602
487.75	4.254
488.09	4.450
488.44	4.436
488.79	4.109
489.13	4.688
489.48	4.617
489.83	4.798
490.17	4.674
490.52	4.480
490.87	4.396
491.22	4.202
491.56	4.175
491.91	4.254
492.26	4.278
492.60	4.511
492.95	4.820
493.30	4.250
493.64	4.568
493.99	5.169
494.34	4.515
494.68	4.238
495.03	4.136
495.37	4.465
495.72	4.897
496.07	4.488
496.41	4.292
496.76	4.883
497.11	4.611
497.45	5.203
497.80	4.743
498.14	5.117
498.49	4.520
498.84	4.441
499.18	4.819
499.53	4.266
499.87	4.329
500.22	4.352
500.56	4.639
500.91	4.719
501.26	5.141
501.60	4.329
501.95	4.706
502.29	4.939
502.64	4.971
502.98	4.292
503.33	3.794
503.67	4.627
504.02	5.376
504.36	5.443
504.71	4.646
505.06	4.479
505.40	4.315
505.75	4.536
506.09	5.271
506.44	6.006
506.78	5.000
507.13	4.964
507.47	4.334
507.82	4.487
508.16	5.018
508.51	5.299
508.85	5.285
509.19	4.098
509.54	4.879
509.88	4.207
510.23	4.572
510.57	4.917
510.92	3.891
511.26	3.928
511.61	4.840
511.95	4.822
512.30	4.823
512.64	5.008
512.98	4.043
513.33	4.868
513.67	4.946
514.02	5.664
514.36	5.886
514.70	5.361
515.05	5.464
515.39	5.372
515.74	5.689
516.08	5.021
516.42	5.006
516.77	5.617
517.11	4.807
517.46	5.087
517.80	5.364
518.14	4.225
518.49	5.048
518.83	4.739
519.17	3.942
519.52	4.737
519.86	4.922
520.20	4.800
520.55	4.315
520.89	5.207
521.23	5.320
521.58	5.615
521.92	5.000
522.26	5.270
522.61	5.065
522.95	5.430
523.29	5.083
523.64	5.464
523.98	5.120
524.32	4.317
524.66	4.994
525.01	5.844
525.35	5.574
525.69	4.781
526.04	4.034
526.38	6.096
526.72	5.428
527.06	5.123
527.41	5.541
527.75	5.161
528.09	5.847
528.43	6.617
528.78	4.884
529.12	5.419
529.46	4.288
529.80	5.573
530.15	5.677
530.49	5.185
530.83	4.856
531.17	4.970
531.51	5.951
531.86	4.623
532.20	4.802
532.54	5.650
532.88	5.339
533.22	5.242
533.57	6.356
533.91	4.896
534.25	5.404
534.59	4.811
534.93	5.664
535.27	5.140
535.62	5.703
535.96	5.610
536.30	5.013
536.64	5.307
536.98	4.669
537.32	5.192
537.66	7.013
538.01	5.035
538.35	5.479
538.69	6.059
539.03	5.058
539.37	5.720
539.71	5.658
540.05	5.771
540.39	5.956
540.73	5.439
541.07	6.285
541.42	6.452
541.76	5.575
542.10	5.231
542.44	4.934
542.78	4.680
543.12	5.975
543.46	5.702
543.80	5.760
544.14	5.741
544.48	5.463
544.82	6.220
545.16	5.874
545.50	5.474
545.84	6.941
546.18	5.674
546.52	5.984
546.86	5.248
547.20	5.508
547.54	4.947
547.88	6.046
548.22	4.734
548.56	5.079
548.90	5.526
549.24	5.785
549.58	6.276
549.92	4.432
550.26	5.348
550.60	5.502
550.94	6.199
551.28	5.564
551.62	6.769
551.96	5.338
552.30	5.190
552.64	5.924
552.98	5.696
553.32	5.421
553.66	4.644
554.00	5.328
554.34	5.687
554.68	6.121
555.02	5.952
555.36	6.058
555.69	4.396
556.03	5.425
556.37	4.911
556.71	6.282
557.05	5.444
557.39	5.204
557.73	5.922
558.07	6.938
558.41	5.054
558.75	5.456
559.08	5.516
559.42	4.444
559.76	4.804
560.10	5.505
560.44	5.585
560.78	5.245
561.12	6.065
561.45	5.200
561.79	5.112
562.13	5.465
562.47	5.540
562.81	5.331
563.15	5.994
563.48	5.516
563.82	5.697
564.16	5.292
564.50	5.473
564.84	5.489
565.17	5.835
565.51	6.011
565.85	5.281
566.19	5.637
566.52	5.898
566.86	6.555
567.20	4.608
567.54	5.231
567.88	5.565
568.21	5.769
568.55	4.783
568.89	5.390
569.23	5.055
569.56	4.991
569.90	5.481
570.24	5.620
570.57	5.127
570.91	5.647
571.25	5.163
571.59	4.858
571.92	4.830
572.26	4.710
572.60	4.930
572.93	5.334
573.27	5.047
573.61	5.310
573.95	5.188
574.28	4.926
574.62	4.983
574.96	4.812
575.29	5.048
575.63	4.768
575.97	4.825
576.30	4.695
576.64	5.007
576.98	5.328
577.31	4.694
577.65	5.275
577.98	5.030
578.32	5.005
578.66	4.578
578.99	4.750
579.33	4.647
579.67	4.895
580.00	4.962
580.34	5.000
580.67	4.698
581.01	4.803
581.35	5.103
581.68	4.822
582.02	4.680
582.35	4.828
582.69	5.103
583.02	5.063
583.36	4.992
583.70	5.530
584.03	4.893
584.37	5.421
584.70	5.055
585.04	5.155
585.37	5.135
585.71	4.912
586.04	4.740
586.38	4.641
586.72	5.337
587.05	5.488
587.39	5.368
587.72	5.057
588.06	5.563
588.39	4.927
588.73	5.281
589.06	5.545
589.40	5.427
589.73	5.842
590.07	5.476
590.40	5.689
590.73	5.601
591.07	5.216
591.40	4.764
591.74	5.204
592.07	5.937
592.41	6.184
592.74	4.978
593.08	5.030
593.41	5.041
593.75	5.267
594.08	4.772
594.41	5.131
594.75	5.267
595.08	5.411
595.42	5.116
595.75	5.520
596.09	4.926
596.42	5.126
596.75	5.639
597.09	5.695
597.42	4.968
597.75	5.314
598.09	5.115
598.42	5.912
598.76	5.277
599.09	5.208
599.42	5.419
599.76	5.229
600.09	5.128
600.42	5.307
600.76	4.866
601.09	5.076
601.42	5.210
601.76	5.161
602.09	4.909
602.42	5.518
602.76	5.433
603.09	5.274
603.42	5.518
603.76	4.798
604.09	5.468
604.42	5.330
604.76	5.696
605.09	5.484
605.42	5.463
605.75	5.692
606.09	5.223
606.42	5.296
606.75	5.411
607.09	5.846
607.42	5.317
607.75	4.663
608.08	5.166
608.42	5.025
608.75	5.783
609.08	5.431
609.41	5.279
609.75	5.645
610.08	5.442
610.41	5.507
610.74	5.607
611.07	5.271
611.41	5.968
611.74	6.876
612.07	4.711
612.40	5.525
612.73	5.480
613.07	5.343
613.40	5.525
613.73	5.652
614.06	5.620
614.39	5.527
614.72	4.930
615.06	5.251
615.39	5.513
615.72	5.759
616.05	5.866
616.38	5.812
616.71	5.321
617.05	6.177
617.38	5.783
617.71	5.346
618.04	5.968
618.37	6.242
618.70	6.073
619.03	6.181
619.36	4.920
619.69	5.914
620.03	7.085
620.36	6.152
620.69	5.139
621.02	6.422
621.35	6.556
621.68	6.378
622.01	5.417
622.34	6.145
622.67	6.940
623.00	6.355
623.33	6.250
623.66	5.684
623.99	5.598
624.32	5.932
624.65	5.038
624.99	5.944
625.32	5.686
625.65	5.106
625.98	6.527
626.31	5.320
626.64	7.452
626.97	6.283
627.30	5.166
627.63	6.326
627.96	6.379
628.29	6.383
628.62	5.211
628.95	5.711
629.28	6.149
629.61	5.085
629.94	6.158
630.26	6.423
630.59	7.492
630.92	6.769
631.25	6.667
631.58	6.278
631.91	3.838
632.24	5.734
632.57	5.909
632.90	5.694
633.23	6.471
633.56	5.290
633.89	6.289
634.22	8.272
634.55	4.447
634.88	6.003
635.20	4.359
635.53	6.267
635.86	5.072
636.19	7.633
636.52	6.505
636.85	4.218
637.18	4.025
637.51	7.421
637.83	5.913
638.16	8.458
638.49	5.586
638.82	6.842
639.15	5.834
639.48	5.915
639.81	5.997
640.13	5.916
640.46	5.831
640.79	3.682
641.12	6.647
641.45	5.856
641.77	7.556
642.10	7.425
642.43	6.109
642.76	7.096
643.09	6.624
643.41	5.178
643.74	4.448
644.07	5.911
644.40	7.601
644.73	7.180
645.05	6.711
645.38	6.702
645.71	5.142
646.04	5.566
646.36	4.787
646.69	5.755
647.02	6.238
647.35	7.090
647.67	5.302
648.00	6.343
648.33	9.898
648.66	8.475
648.98	5.193
649.31	5.620
649.64	6.436
649.96	4.862
650.29	4.600
650.62	7.350
650.94	7.963
651.27	5.214
651.60	6.667
651.92	7.692
652.25	5.329
652.58	6.500
652.90	5.146
653.23	6.387
653.56	6.261
653.88	7.045
654.21	3.678
654.54	6.621
654.86	6.112
655.19	5.117
655.52	7.121
655.84	4.804
656.17	5.263
656.49	7.069
656.82	7.564
657.15	5.785
657.47	4.412
657.80	3.229
658.13	3.306
