SpectraSuite Data File
++++++++++++++++++++++++++++++++++++
Date: Fri May 15 20:35:12 PDT 2015
User: schluterlab
Dark Spectrum Present: Yes
Reference Spectrum Present: Yes
Number of Sampled Component Spectra: 1
Spectrometers: USB2E3373
Integration Time (usec): 3000 (USB2E3373)
Spectra Averaged: 3 (USB2E3373)
Boxcar Smoothing: 0 (USB2E3373)
Correct for Electrical Dark: No (USB2E3373)
Strobe/Lamp Enabled: No (USB2E3373)
Correct for Detector Non-linearity: No (USB2E3373)
Correct for Stray Light: No (USB2E3373)
Number of Pixels in Processed Spectrum: 2048
>>>>>Begin Processed Spectral Data<<<<<
178.53	0.000
178.91	0.000
179.29	-100.000
179.67	-450.000
180.04	71.429
180.42	-100.000
180.80	-200.000
181.18	233.333
181.56	200.000
181.94	-400.000
182.31	100.000
182.69	20.000
183.07	-366.667
183.45	-180.000
183.83	166.667
184.20	-72.727
184.58	222.222
184.96	100.000
185.34	200.000
185.72	-300.000
186.09	69.231
186.47	-1200.000
186.85	216.667
187.23	144.444
187.61	300.000
187.98	-333.333
188.36	-100.000
188.74	-233.333
189.12	0.000
189.49	16.667
189.87	0.000
190.25	85.714
190.63	-100.000
191.00	-333.333
191.38	-21.053
191.76	50.000
192.14	225.000
192.51	-50.000
192.89	-111.111
193.27	-142.857
193.65	166.667
194.02	127.273
194.40	10.000
194.78	-212.500
195.15	-83.333
195.53	-137.500
195.91	450.000
196.29	-300.000
196.66	138.462
197.04	142.857
197.42	22.222
197.79	-500.000
198.17	-161.538
198.55	2000.000
198.92	-466.667
199.30	-300.000
199.68	-120.000
200.05	-233.333
200.43	0.000
200.81	-133.333
201.18	-233.333
201.56	800.000
201.94	-250.000
202.31	-66.667
202.69	-140.000
203.07	100.000
203.44	100.000
203.82	0.000
204.19	28.571
204.57	-333.333
204.95	87.500
205.32	-80.000
205.70	-14.286
206.08	-175.000
206.45	166.667
206.83	35.714
207.20	-157.143
207.58	-400.000
207.96	-166.667
208.33	-80.000
208.71	-100.000
209.08	-100.000
209.46	-700.000
209.84	-140.000
210.21	-800.000
210.59	57.143
210.96	-83.333
211.34	0.000
211.71	-53.333
212.09	-100.000
212.46	-2300.000
212.84	0.000
213.22	0.000
213.59	950.000
213.97	-15.385
214.34	27.273
214.72	0.000
215.09	750.000
215.47	7.692
215.84	-9.091
216.22	-100.000
216.59	-125.000
216.97	100.000
217.34	-25.000
217.72	-40.000
218.09	-150.000
218.47	87.500
218.84	-1000.000
219.22	-55.556
219.59	-260.000
219.97	400.000
220.34	250.000
220.72	-85.714
221.09	-100.000
221.47	-100.000
221.84	-600.000
222.22	-1150.000
222.59	27.273
222.97	8.333
223.34	-100.000
223.72	-92.857
224.09	-28.571
224.46	25.000
224.84	700.000
225.21	-50.000
225.59	33.333
225.96	-150.000
226.34	450.000
226.71	-185.714
227.08	-100.000
227.46	-12.500
227.83	-750.000
228.21	-33.333
228.58	54.545
228.95	-75.000
229.33	110.000
229.70	43.750
230.08	-162.500
230.45	-85.714
230.82	-42.857
231.20	-33.333
231.57	28.571
231.95	-57.143
232.32	-40.000
232.69	50.000
233.07	100.000
233.44	-60.000
233.81	-10.000
234.19	-11.111
234.56	-5.882
234.93	150.000
235.31	0.000
235.68	-20.000
236.05	-69.231
236.43	-20.000
236.80	17.647
237.17	43.750
237.55	25.000
237.92	7.407
238.29	27.778
238.67	33.333
239.04	29.412
239.41	19.512
239.79	50.000
240.16	46.341
240.53	42.105
240.91	28.261
241.28	52.381
241.65	50.000
242.02	42.466
242.40	41.667
242.77	42.373
243.14	43.939
243.51	57.500
243.89	59.770
244.26	55.172
244.63	52.381
245.00	53.608
245.38	58.763
245.75	41.573
246.12	38.793
246.49	45.455
246.87	56.731
247.24	46.218
247.61	54.386
247.98	51.220
248.36	51.875
248.73	48.684
249.10	48.701
249.47	52.532
249.84	54.248
250.22	52.353
250.59	51.634
250.96	51.174
251.33	59.302
251.70	64.118
252.08	55.330
252.45	47.030
252.82	58.794
253.19	60.829
253.56	52.804
253.94	54.054
254.31	50.870
254.68	62.719
255.05	53.937
255.42	53.712
255.79	55.212
256.16	52.140
256.54	58.582
256.91	50.951
257.28	52.416
257.65	52.434
258.02	50.355
258.39	56.902
258.76	58.974
259.14	54.817
259.51	54.045
259.88	50.515
260.25	53.922
260.62	57.292
260.99	53.898
261.36	52.055
261.73	56.646
262.10	55.015
262.47	56.748
262.85	57.994
263.22	59.385
263.59	54.517
263.96	56.832
264.33	55.455
264.70	55.952
265.07	55.060
265.44	56.657
265.81	55.650
266.18	56.284
266.55	57.841
266.92	59.585
267.29	56.397
267.66	57.545
268.03	57.853
268.40	52.480
268.77	58.021
269.14	52.278
269.51	57.069
269.88	52.868
270.25	55.357
270.62	52.683
270.99	54.476
271.36	51.100
271.73	56.338
272.10	54.988
272.47	56.974
272.84	56.188
273.21	54.524
273.58	55.904
273.95	53.776
274.32	52.887
274.69	50.452
275.06	56.473
275.43	48.299
275.80	55.629
276.17	51.954
276.54	52.891
276.91	55.702
277.28	53.275
277.65	48.967
278.02	47.660
278.39	53.611
278.76	54.088
279.13	49.585
279.50	54.412
279.87	51.836
280.23	51.828
280.60	48.928
280.97	52.323
281.34	49.038
281.71	54.415
282.08	52.965
282.45	49.902
282.82	53.089
283.19	52.224
283.56	51.638
283.92	50.095
284.29	50.000
284.66	49.225
285.03	51.473
285.40	48.960
285.77	49.033
286.14	48.556
286.51	50.923
286.87	49.543
287.24	50.460
287.61	49.030
287.98	46.842
288.35	47.660
288.72	49.037
289.08	47.917
289.45	48.330
289.82	45.804
290.19	45.051
290.56	45.969
290.93	45.118
291.29	43.451
291.66	46.142
292.03	42.584
292.40	43.387
292.77	43.062
293.13	41.883
293.50	40.819
293.87	40.763
294.24	41.113
294.60	41.431
294.97	42.113
295.34	41.564
295.71	40.686
296.08	39.013
296.44	38.691
296.81	39.722
297.18	39.130
297.55	39.702
297.91	40.411
298.28	38.654
298.65	38.806
299.02	37.736
299.38	36.115
299.75	37.793
300.12	38.351
300.48	37.418
300.85	35.488
301.22	37.143
301.59	36.842
301.95	36.709
302.32	39.040
302.69	37.811
303.05	35.644
303.42	34.994
303.79	36.098
304.15	35.484
304.52	35.077
304.89	35.205
305.25	34.746
305.62	35.239
305.99	34.035
306.35	35.260
306.72	34.196
307.09	33.295
307.45	33.180
307.82	34.144
308.19	35.889
308.55	33.697
308.92	36.166
309.29	35.196
309.65	33.800
310.02	33.883
310.38	31.943
310.75	33.552
311.12	33.800
311.48	34.571
311.85	32.356
312.22	33.650
312.58	33.758
312.95	33.511
313.31	33.333
313.68	32.984
314.05	32.959
314.41	33.093
314.78	33.918
315.14	33.710
315.51	33.437
315.87	33.504
316.24	34.378
316.61	33.858
316.97	33.433
317.34	31.738
317.70	30.784
318.07	31.538
318.43	32.157
318.80	32.008
319.16	33.008
319.53	31.909
319.89	32.579
320.26	33.300
320.62	33.099
320.99	31.628
321.35	31.655
321.72	32.710
322.08	32.830
322.45	32.690
322.81	33.595
323.18	33.268
323.54	31.950
323.91	32.132
324.27	31.348
324.64	32.303
325.00	31.113
325.37	32.048
325.73	29.284
326.10	30.790
326.46	32.197
326.83	32.021
327.19	31.997
327.56	32.580
327.92	32.306
328.29	32.857
328.65	31.887
329.01	31.801
329.38	33.088
329.74	32.861
330.11	32.159
330.47	32.004
330.84	31.442
331.20	32.605
331.56	31.944
331.93	31.142
332.29	32.447
332.66	31.041
333.02	31.877
333.38	31.347
333.75	32.326
334.11	31.244
334.48	31.097
334.84	32.784
335.20	30.741
335.57	29.737
335.93	29.810
336.29	30.571
336.66	30.790
337.02	30.669
337.38	29.630
337.75	29.636
338.11	30.658
338.47	31.478
338.84	30.591
339.20	30.256
339.56	30.917
339.93	29.991
340.29	31.468
340.65	31.093
341.02	29.433
341.38	28.584
341.74	30.124
342.11	29.463
342.47	30.961
342.83	31.747
343.20	29.965
343.56	30.000
343.92	30.558
344.28	29.974
344.65	30.138
345.01	29.213
345.37	29.689
345.73	29.623
346.10	30.026
346.46	28.595
346.82	28.969
347.19	28.845
347.55	29.073
347.91	28.883
348.27	29.103
348.63	28.876
349.00	28.712
349.36	29.842
349.72	29.353
350.08	29.754
350.45	29.449
350.81	28.322
351.17	27.362
351.53	28.327
351.89	27.993
352.26	27.680
352.62	29.919
352.98	28.594
353.34	27.456
353.70	29.126
354.07	28.629
354.43	28.503
354.79	27.581
355.15	28.492
355.51	29.272
355.87	29.126
356.24	27.651
356.60	27.486
356.96	28.651
357.32	27.556
357.68	27.287
358.04	27.464
358.40	28.537
358.77	28.309
359.13	28.183
359.49	28.351
359.85	27.613
360.21	28.309
360.57	26.779
360.93	28.971
361.29	26.133
361.66	28.762
362.02	27.879
362.38	27.647
362.74	26.798
363.10	27.163
363.46	26.761
363.82	28.775
364.18	27.749
364.54	27.721
364.90	27.097
365.26	26.638
365.62	28.394
365.98	27.639
366.35	27.895
366.71	28.677
367.07	26.996
367.43	27.103
367.79	27.420
368.15	26.920
368.51	27.458
368.87	27.495
369.23	26.570
369.59	27.041
369.95	27.566
370.31	26.228
370.67	27.388
371.03	26.736
371.39	27.061
371.75	26.740
372.11	26.391
372.47	26.923
372.83	26.473
373.19	27.104
373.55	25.343
373.91	25.990
374.27	27.427
374.63	27.064
374.99	26.383
375.35	25.348
375.71	26.014
376.07	26.053
376.42	26.735
376.78	25.436
377.14	26.269
377.50	25.830
377.86	25.368
378.22	25.973
378.58	26.282
378.94	26.591
379.30	26.700
379.66	26.771
380.02	25.322
380.38	25.137
380.74	25.135
381.09	25.767
381.45	25.505
381.81	25.478
382.17	25.127
382.53	25.984
382.89	26.679
383.25	25.762
383.61	25.549
383.97	24.889
384.32	25.328
384.68	25.573
385.04	25.551
385.40	24.393
385.76	26.101
386.12	25.809
386.48	25.543
386.83	25.238
387.19	25.702
387.55	26.851
387.91	24.817
388.27	25.275
388.62	25.677
388.98	24.923
389.34	25.859
389.70	26.041
390.06	25.551
390.42	24.676
390.77	25.376
391.13	24.275
391.49	25.485
391.85	25.601
392.20	25.235
392.56	24.031
392.92	25.073
393.28	25.000
393.64	25.165
393.99	26.082
394.35	24.541
394.71	24.777
395.07	25.330
395.42	25.137
395.78	25.472
396.14	24.275
396.50	24.160
396.85	24.855
397.21	24.185
397.57	25.266
397.92	25.524
398.28	25.057
398.64	25.241
399.00	25.621
399.35	23.928
399.71	24.296
400.07	25.574
400.42	24.969
400.78	25.168
401.14	24.319
401.49	24.836
401.85	24.863
402.21	25.361
402.57	24.625
402.92	24.216
403.28	24.875
403.63	25.347
403.99	26.339
404.35	25.671
404.70	23.393
405.06	24.442
405.42	24.487
405.77	24.346
406.13	24.854
406.49	24.630
406.84	24.389
407.20	25.226
407.55	24.340
407.91	24.131
408.27	24.092
408.62	24.738
408.98	24.892
409.34	25.093
409.69	23.966
410.05	23.768
410.40	23.827
410.76	25.271
411.11	24.500
411.47	24.589
411.83	23.792
412.18	24.260
412.54	24.719
412.89	23.645
413.25	24.188
413.60	24.783
413.96	23.926
414.31	23.659
414.67	23.156
415.03	25.366
415.38	23.433
415.74	24.104
416.09	24.428
416.45	24.510
416.80	24.587
417.16	24.862
417.51	25.117
417.87	24.707
418.22	24.352
418.58	23.880
418.93	24.514
419.29	23.111
419.64	23.396
420.00	24.685
420.35	24.299
420.71	24.970
421.06	23.818
421.42	24.038
421.77	24.624
422.12	24.007
422.48	24.093
422.83	24.362
423.19	23.646
423.54	23.633
423.90	23.852
424.25	24.512
424.61	24.051
424.96	24.216
425.31	24.957
425.67	24.354
426.02	24.087
426.38	24.859
426.73	23.850
427.09	24.367
427.44	25.471
427.79	23.748
428.15	24.393
428.50	24.349
428.85	22.850
429.21	24.109
429.56	23.827
429.92	24.191
430.27	24.060
430.62	23.680
430.98	24.469
431.33	25.184
431.68	24.490
432.04	24.036
432.39	23.388
432.74	23.572
433.10	24.885
433.45	23.656
433.80	23.099
434.16	23.767
434.51	23.978
434.86	25.145
435.22	23.836
435.57	23.706
435.92	24.671
436.28	23.137
436.63	24.643
436.98	23.638
437.34	23.835
437.69	25.403
438.04	22.165
438.39	23.519
438.75	24.165
439.10	23.939
439.45	24.163
439.81	23.976
440.16	24.228
440.51	23.940
440.86	24.834
441.22	23.756
441.57	23.400
441.92	25.079
442.27	24.778
442.63	24.732
442.98	24.239
443.33	23.706
443.68	23.714
444.03	24.342
444.39	24.643
444.74	24.972
445.09	24.555
445.44	24.672
445.79	25.064
446.15	23.293
446.50	23.350
446.85	24.761
447.20	23.879
447.55	24.498
447.91	23.971
448.26	24.189
448.61	24.698
448.96	24.555
449.31	24.220
449.66	23.751
450.02	23.845
450.37	24.126
450.72	23.769
451.07	24.494
451.42	23.596
451.77	24.292
452.12	23.624
452.47	22.988
452.83	24.146
453.18	23.782
453.53	24.526
453.88	23.801
454.23	23.725
454.58	24.496
454.93	24.549
455.28	22.159
455.63	23.993
455.98	23.211
456.34	23.180
456.69	24.015
457.04	23.693
457.39	22.965
457.74	22.914
458.09	23.484
458.44	22.937
458.79	23.193
459.14	24.199
459.49	24.060
459.84	24.140
460.19	23.968
460.54	25.000
460.89	23.409
461.24	23.789
461.59	24.703
461.94	23.585
462.29	23.824
462.64	23.920
462.99	23.426
463.34	23.435
463.69	22.329
464.04	23.305
464.39	23.226
464.74	23.313
465.09	23.768
465.44	23.774
465.79	23.583
466.14	25.086
466.49	22.772
466.84	23.795
467.19	24.218
467.54	24.074
467.89	23.121
468.24	23.236
468.59	23.175
468.94	22.794
469.29	24.066
469.64	23.787
469.99	23.686
470.34	20.751
470.68	23.714
471.03	23.001
471.38	22.325
471.73	22.409
472.08	22.320
472.43	21.946
472.78	22.344
473.13	21.973
473.48	23.062
473.83	23.724
474.17	22.992
474.52	23.676
474.87	23.758
475.22	23.124
475.57	22.360
475.92	22.874
476.27	23.283
476.61	23.495
476.96	22.588
477.31	23.797
477.66	22.640
478.01	22.740
478.36	23.203
478.70	23.817
479.05	24.286
479.40	23.317
479.75	22.315
480.10	22.069
480.45	22.750
480.79	23.867
481.14	22.695
481.49	22.266
481.84	22.732
482.19	22.685
482.53	23.357
482.88	22.625
483.23	22.025
483.58	22.311
483.92	22.894
484.27	22.334
484.62	23.039
484.97	22.803
485.31	23.121
485.66	22.569
486.01	23.453
486.36	23.702
486.70	24.721
487.05	24.615
487.40	25.284
487.75	24.845
488.09	24.938
488.44	23.796
488.79	24.841
489.13	23.638
489.48	22.745
489.83	22.691
490.17	22.157
490.52	22.356
490.87	22.027
491.22	22.970
491.56	23.102
491.91	22.036
492.26	22.314
492.60	22.553
492.95	22.332
493.30	21.202
493.64	22.642
493.99	22.802
494.34	21.505
494.68	22.381
495.03	21.655
495.37	22.375
495.72	22.362
496.07	22.537
496.41	22.311
496.76	22.156
497.11	21.705
497.45	22.387
497.80	22.250
498.14	21.858
498.49	23.007
498.84	22.405
499.18	22.590
499.53	22.817
499.87	21.936
500.22	22.453
500.56	21.836
500.91	22.339
501.26	21.700
501.60	22.577
501.95	22.222
502.29	22.373
502.64	23.263
502.98	22.792
503.33	21.422
503.67	22.651
504.02	22.630
504.36	21.969
504.71	21.263
505.06	21.792
505.40	21.269
505.75	21.701
506.09	21.997
506.44	21.663
506.78	22.449
507.13	21.923
507.47	21.097
507.82	20.299
508.16	21.078
508.51	22.036
508.85	21.873
509.19	22.086
509.54	22.145
509.88	21.359
510.23	21.840
510.57	21.539
510.92	21.322
511.26	20.567
511.61	22.112
511.95	21.753
512.30	21.674
512.64	22.037
512.98	21.224
513.33	21.712
513.67	21.035
514.02	22.025
514.36	22.229
514.70	21.620
515.05	22.327
515.39	21.429
515.74	22.275
516.08	21.458
516.42	21.555
516.77	21.065
517.11	20.831
517.46	21.424
517.80	21.156
518.14	21.188
518.49	21.575
518.83	21.021
519.17	20.558
519.52	20.663
519.86	20.288
520.20	21.021
520.55	20.013
520.89	20.765
521.23	20.266
521.58	21.703
521.92	21.154
522.26	21.080
522.61	19.870
522.95	20.993
523.29	20.457
523.64	20.712
523.98	20.933
524.32	20.296
524.66	20.423
525.01	20.195
525.35	21.192
525.69	20.673
526.04	20.238
526.38	22.309
526.72	19.948
527.06	20.298
527.41	20.580
527.75	19.839
528.09	20.332
528.43	21.269
528.78	19.274
529.12	21.032
529.46	20.403
529.80	20.709
530.15	21.452
530.49	20.471
530.83	21.341
531.17	20.349
531.51	20.588
531.86	20.326
532.20	21.016
532.54	21.171
532.88	20.876
533.22	19.892
533.57	20.904
533.91	21.084
534.25	21.549
534.59	21.360
534.93	21.208
535.27	20.431
535.62	21.063
535.96	21.461
536.30	21.570
536.64	20.951
536.98	20.070
537.32	21.622
537.66	20.687
538.01	21.259
538.35	20.874
538.69	21.105
539.03	21.189
539.37	21.602
539.71	21.132
540.05	20.502
540.39	21.884
540.73	21.757
541.07	21.685
541.42	22.513
541.76	22.161
542.10	21.198
542.44	22.029
542.78	19.821
543.12	20.673
543.46	21.905
543.80	21.582
544.14	20.227
544.48	20.653
544.82	21.736
545.16	21.585
545.50	21.696
545.84	21.530
546.18	21.418
546.52	20.981
546.86	20.776
547.20	21.459
547.54	21.060
547.88	21.739
548.22	21.105
548.56	21.504
548.90	21.968
549.24	21.488
549.58	21.157
549.92	20.157
550.26	20.879
550.60	20.818
550.94	21.285
551.28	20.402
551.62	21.538
551.96	21.128
552.30	21.126
552.64	19.535
552.98	21.027
553.32	20.328
553.66	20.464
554.00	18.832
554.34	21.123
554.68	20.354
555.02	20.461
555.36	21.092
555.69	20.733
556.03	20.842
556.37	20.214
556.71	21.661
557.05	21.402
557.39	19.405
557.73	21.364
558.07	21.342
558.41	20.980
558.75	20.733
559.08	21.198
559.42	19.524
559.76	21.537
560.10	20.719
560.44	20.700
560.78	21.608
561.12	21.580
561.45	20.590
561.79	21.499
562.13	21.221
562.47	19.856
562.81	21.686
563.15	22.073
563.48	21.429
563.82	21.277
564.16	22.493
564.50	20.946
564.84	22.624
565.17	20.523
565.51	21.926
565.85	22.634
566.19	21.552
566.52	22.453
566.86	23.008
567.20	21.606
567.54	22.506
567.88	22.320
568.21	23.643
568.55	22.609
568.89	23.717
569.23	23.736
569.56	23.161
569.90	23.914
570.24	23.483
570.57	24.255
570.91	24.817
571.25	24.005
571.59	24.260
571.92	23.674
572.26	23.883
572.60	24.341
572.93	24.474
573.27	23.950
573.61	24.344
573.95	24.276
574.28	24.470
574.62	24.434
574.96	24.508
575.29	24.533
575.63	24.410
575.97	24.695
576.30	24.656
576.64	23.762
576.98	24.968
577.31	24.994
577.65	24.931
577.98	25.148
578.32	24.588
578.66	24.801
578.99	25.175
579.33	25.106
579.67	24.830
580.00	24.658
580.34	24.950
580.67	25.321
581.01	25.384
581.35	25.022
581.68	24.818
582.02	24.995
582.35	24.903
582.69	25.691
583.02	25.187
583.36	25.929
583.70	26.168
584.03	25.688
584.37	25.974
584.70	24.835
585.04	24.197
585.37	24.570
585.71	24.759
586.04	24.937
586.38	24.567
586.72	26.055
587.05	25.217
587.39	25.552
587.72	25.396
588.06	25.076
588.39	24.779
588.73	25.153
589.06	25.212
589.40	25.372
589.73	25.666
590.07	25.264
590.40	24.961
590.73	25.288
591.07	24.512
591.40	24.711
591.74	24.253
592.07	24.026
592.41	24.647
592.74	24.213
593.08	23.786
593.41	23.954
593.75	24.403
594.08	24.202
594.41	24.854
594.75	24.122
595.08	24.782
595.42	24.144
595.75	24.596
596.09	24.785
596.42	25.052
596.75	24.956
597.09	23.690
597.42	24.119
597.75	24.691
598.09	23.450
598.42	23.691
598.76	23.252
599.09	23.678
599.42	24.138
599.76	24.643
600.09	24.170
600.42	24.223
600.76	23.514
601.09	23.931
601.42	24.011
601.76	24.772
602.09	23.927
602.42	24.684
602.76	24.363
603.09	24.003
603.42	24.666
603.76	23.911
604.09	24.261
604.42	24.281
604.76	25.100
605.09	24.497
605.42	24.515
605.75	23.949
606.09	24.246
606.42	24.520
606.75	24.156
607.09	23.868
607.42	23.438
607.75	23.801
608.08	24.124
608.42	24.029
608.75	24.434
609.08	23.667
609.41	23.706
609.75	24.194
610.08	23.065
610.41	23.333
610.74	23.403
611.07	24.031
611.41	24.754
611.74	24.041
612.07	23.180
612.40	23.687
612.73	23.898
613.07	23.566
613.40	23.523
613.73	22.832
614.06	23.706
614.39	23.012
614.72	23.081
615.06	23.352
615.39	22.926
615.72	22.766
616.05	24.190
616.38	22.450
616.71	23.180
617.05	24.212
617.38	23.193
617.71	22.956
618.04	23.810
618.37	24.905
618.70	23.630
619.03	23.681
619.36	22.938
619.69	23.806
620.03	22.498
620.36	22.389
620.69	22.698
621.02	22.554
621.35	23.154
621.68	22.789
622.01	21.083
622.34	22.506
622.67	22.713
623.00	22.282
623.33	22.104
623.66	22.289
623.99	22.239
624.32	22.281
624.65	22.030
624.99	21.520
625.32	21.607
625.65	23.488
625.98	21.918
626.31	21.446
626.64	22.704
626.97	21.728
627.30	21.191
627.63	21.837
627.96	21.833
628.29	21.924
628.62	22.812
628.95	21.443
629.28	20.968
629.61	20.538
629.94	21.408
630.26	20.850
630.59	21.124
630.92	20.410
631.25	20.923
631.58	20.595
631.91	19.627
632.24	19.151
632.57	20.909
632.90	18.624
