SpectraSuite Data File
++++++++++++++++++++++++++++++++++++
Date: Fri May 15 20:39:34 PDT 2015
User: schluterlab
Dark Spectrum Present: Yes
Reference Spectrum Present: Yes
Number of Sampled Component Spectra: 1
Spectrometers: USB2E3373
Integration Time (usec): 3000 (USB2E3373)
Spectra Averaged: 3 (USB2E3373)
Boxcar Smoothing: 0 (USB2E3373)
Correct for Electrical Dark: No (USB2E3373)
Strobe/Lamp Enabled: No (USB2E3373)
Correct for Detector Non-linearity: No (USB2E3373)
Correct for Stray Light: No (USB2E3373)
Number of Pixels in Processed Spectrum: 2048
>>>>>Begin Processed Spectral Data<<<<<
178.53	0.000
178.91	0.000
179.29	-37.500
179.67	-600.000
180.04	85.714
180.42	75.000
180.80	0.000
181.18	-0.000
181.56	100.000
181.94	-200.000
182.31	-400.000
182.69	-60.000
183.07	-266.667
183.45	-240.000
183.83	66.667
184.20	-63.636
184.58	44.444
184.96	-25.000
185.34	-166.667
185.72	0.000
186.09	138.462
186.47	-800.000
186.85	150.000
187.23	100.000
187.61	800.000
187.98	0.000
188.36	-22.222
188.74	-300.000
189.12	76.471
189.49	55.556
189.87	0.000
190.25	14.286
190.63	0.000
191.00	133.333
191.38	-5.263
191.76	-50.000
192.14	125.000
192.51	-300.000
192.89	-100.000
193.27	-157.143
193.65	216.667
194.02	218.182
194.40	-60.000
194.78	-100.000
195.15	-58.333
195.53	-137.500
195.91	175.000
196.29	-150.000
196.66	107.692
197.04	100.000
197.42	22.222
197.79	-366.667
198.17	-69.231
198.55	600.000
198.92	-66.667
199.30	-200.000
199.68	-100.000
200.05	-300.000
200.43	0.000
200.81	-66.667
201.18	-100.000
201.56	1000.000
201.94	-450.000
202.31	-0.000
202.69	-260.000
203.07	-25.000
203.44	-100.000
203.82	0.000
204.19	85.714
204.57	-366.667
204.95	87.500
205.32	70.000
205.70	42.857
206.08	-75.000
206.45	177.778
206.83	92.857
207.20	-114.286
207.58	-900.000
207.96	-33.333
208.33	-140.000
208.71	-75.000
209.08	-100.000
209.46	-700.000
209.84	-100.000
210.21	-700.000
210.59	28.571
210.96	0.000
211.34	0.000
211.71	80.000
212.09	-114.286
212.46	-1400.000
212.84	0.000
213.22	100.000
213.59	700.000
213.97	23.077
214.34	27.273
214.72	-150.000
215.09	250.000
215.47	46.154
215.84	-81.818
216.22	-500.000
216.59	-25.000
216.97	100.000
217.34	-150.000
217.72	-120.000
218.09	50.000
218.47	75.000
218.84	100.000
219.22	-77.778
219.59	-60.000
219.97	400.000
220.34	50.000
220.72	-28.571
221.09	0.000
221.47	0.000
221.84	-250.000
222.22	-550.000
222.59	45.455
222.97	-41.667
223.34	-233.333
223.72	-21.429
224.09	-4.762
224.46	50.000
224.84	433.333
225.21	80.000
225.59	40.000
225.96	-50.000
226.34	225.000
226.71	42.857
227.08	83.333
227.46	37.500
227.83	150.000
228.21	0.000
228.58	54.545
228.95	-112.500
229.33	160.000
229.70	-31.250
230.08	-62.500
230.45	-142.857
230.82	42.857
231.20	-13.333
231.57	100.000
231.95	71.429
232.32	-90.000
232.69	57.143
233.07	-100.000
233.44	-40.000
233.81	-60.000
234.19	122.222
234.56	-52.941
234.93	750.000
235.31	-75.000
235.68	-400.000
236.05	-30.769
236.43	-35.000
236.80	29.412
237.17	9.375
237.55	5.000
237.92	-37.037
238.29	16.667
238.67	36.667
239.04	23.529
239.41	0.000
239.79	3.333
240.16	31.707
240.53	21.053
240.91	6.522
241.28	25.397
241.65	23.214
242.02	26.027
242.40	33.333
242.77	8.475
243.14	15.152
243.51	-8.750
243.89	19.540
244.26	3.448
244.63	11.905
245.00	25.773
245.38	6.186
245.75	10.112
246.12	12.069
246.49	9.917
246.87	14.423
247.24	12.605
247.61	3.509
247.98	13.821
248.36	18.125
248.73	15.132
249.10	12.338
249.47	10.759
249.84	13.072
250.22	20.000
250.59	16.993
250.96	19.718
251.33	16.860
251.70	20.588
252.08	15.736
252.45	15.347
252.82	18.090
253.19	15.207
253.56	13.084
253.94	17.117
254.31	16.522
254.68	17.544
255.05	16.142
255.42	13.100
255.79	21.236
256.16	21.012
256.54	19.030
256.91	14.829
257.28	15.613
257.65	15.730
258.02	10.638
258.39	17.508
258.76	19.414
259.14	18.937
259.51	15.858
259.88	14.777
260.25	17.320
260.62	17.708
260.99	18.983
261.36	16.781
261.73	21.519
262.10	18.845
262.47	17.791
262.85	15.987
263.22	16.923
263.59	17.134
263.96	19.876
264.33	14.242
264.70	17.262
265.07	15.179
265.44	18.130
265.81	19.209
266.18	18.579
266.55	22.365
266.92	16.062
267.29	17.493
267.66	16.113
268.03	20.681
268.40	16.971
268.77	16.310
269.14	17.266
269.51	19.794
269.88	16.958
270.25	15.561
270.62	16.829
270.99	18.159
271.36	17.115
271.73	19.718
272.10	17.275
272.47	17.967
272.84	14.604
273.21	19.258
273.58	15.422
273.95	19.222
274.32	15.012
274.69	15.611
275.06	20.759
275.43	17.007
275.80	17.439
276.17	19.080
276.54	15.203
276.91	17.763
277.28	17.249
277.65	20.455
278.02	16.809
278.39	17.505
278.76	15.514
279.13	16.805
279.50	18.277
279.87	15.335
280.23	18.065
280.60	19.688
280.97	16.566
281.34	15.385
281.71	18.686
282.08	14.519
282.45	15.264
282.82	13.707
283.19	17.021
283.56	17.726
283.92	14.611
284.29	16.731
284.66	13.953
285.03	15.128
285.40	16.446
285.77	15.993
286.14	14.801
286.51	17.897
286.87	14.991
287.24	14.365
287.61	15.168
287.98	15.965
288.35	15.945
288.72	16.462
289.08	15.278
289.45	17.047
289.82	17.832
290.19	14.676
290.56	14.580
290.93	15.657
291.29	13.251
291.66	14.646
292.03	15.470
292.40	15.000
292.77	14.035
293.13	14.123
293.50	12.140
293.87	13.130
294.24	12.519
294.60	14.158
294.97	14.435
295.34	11.503
295.71	13.115
296.08	14.051
296.44	11.949
296.81	12.778
297.18	13.333
297.55	14.905
297.91	11.644
298.28	16.359
298.65	13.976
299.02	10.916
299.38	10.670
299.75	12.828
300.12	10.864
300.48	12.385
300.85	12.674
301.22	12.338
301.59	11.974
301.95	13.165
302.32	13.359
302.69	12.313
303.05	12.376
303.42	12.578
303.79	12.500
304.15	12.425
304.52	10.702
304.89	11.345
305.25	11.259
305.62	12.019
305.99	11.579
306.35	11.214
306.72	11.474
307.09	13.113
307.45	12.859
307.82	11.111
308.19	11.382
308.55	11.559
308.92	12.963
309.29	11.620
309.65	12.379
310.02	11.221
310.38	10.209
310.75	12.240
311.12	12.379
311.48	11.877
311.85	12.356
312.22	11.498
312.58	12.102
312.95	10.993
313.31	10.145
313.68	12.147
314.05	11.327
314.41	11.237
314.78	11.856
315.14	13.361
315.51	12.215
315.87	11.578
316.24	13.852
316.61	13.091
316.97	12.996
317.34	13.672
317.70	12.237
318.07	13.462
318.43	13.235
318.80	12.784
319.16	13.574
319.53	15.005
319.89	13.681
320.26	14.676
320.62	14.544
320.99	13.883
321.35	14.697
321.72	15.992
322.08	14.804
322.45	16.853
322.81	15.815
323.18	14.917
323.54	16.120
323.91	16.845
324.27	17.188
324.64	17.978
325.00	18.339
325.37	18.457
325.73	18.314
326.10	18.619
326.46	19.552
326.83	19.948
327.19	21.011
327.56	20.417
327.92	21.391
328.29	21.696
328.65	22.642
329.01	22.610
329.38	22.488
329.74	21.719
330.11	23.726
330.47	22.820
330.84	24.519
331.20	26.806
331.56	23.611
331.93	24.932
332.29	24.748
332.66	24.977
333.02	25.465
333.38	24.656
333.75	26.190
334.11	23.993
334.48	26.836
334.84	25.733
335.20	26.258
335.57	24.751
335.93	26.649
336.29	25.046
336.66	26.431
337.02	25.929
337.38	26.481
337.75	27.273
338.11	26.510
338.47	26.460
338.84	26.895
339.20	26.234
339.56	26.972
339.93	27.037
340.29	27.248
340.65	28.405
341.02	27.128
341.38	26.991
341.74	25.883
342.11	25.043
342.47	26.779
342.83	26.817
343.20	26.481
343.56	26.696
343.92	26.218
344.28	27.071
344.65	27.029
345.01	27.226
345.37	26.325
345.73	28.870
346.10	26.920
346.46	26.913
346.82	26.432
347.19	26.018
347.55	26.901
347.91	27.427
348.27	27.648
348.63	27.683
349.00	26.415
349.36	27.847
349.72	28.027
350.08	26.066
350.45	27.454
350.81	26.578
351.17	25.977
351.53	28.082
351.89	27.746
352.26	27.520
352.62	27.500
352.98	27.068
353.34	27.295
353.70	26.456
354.07	27.661
354.43	27.782
354.79	28.076
355.15	27.302
355.51	28.006
355.87	27.104
356.24	26.509
356.60	28.133
356.96	27.143
357.32	27.077
357.68	27.287
358.04	27.625
358.40	26.688
358.77	28.389
359.13	27.382
359.49	27.119
359.85	28.393
360.21	27.831
360.57	27.927
360.93	28.215
361.29	26.813
361.66	28.762
362.02	28.939
362.38	28.561
362.74	28.236
363.10	27.916
363.46	27.650
363.82	29.827
364.18	27.601
364.54	28.382
364.90	28.387
365.26	28.967
365.62	29.635
365.98	29.106
366.35	28.623
366.71	28.086
367.07	28.520
367.43	27.318
367.79	28.763
368.15	29.218
368.51	28.478
368.87	28.571
369.23	27.653
369.59	29.082
369.95	29.765
370.31	28.902
370.67	28.881
371.03	28.305
371.39	28.665
371.75	29.377
372.11	27.746
372.47	28.550
372.83	28.886
373.19	28.887
373.55	28.520
373.91	28.438
374.27	29.554
374.63	30.007
374.99	28.936
375.35	29.248
375.71	29.231
376.07	29.284
376.42	29.728
376.78	30.671
377.14	29.722
377.50	29.947
377.86	30.054
378.22	29.228
378.58	29.808
378.94	28.544
379.30	29.258
379.66	30.596
380.02	29.736
380.38	29.641
380.74	29.264
381.09	29.877
381.45	29.847
381.81	29.611
382.17	29.822
382.53	29.544
382.89	29.692
383.25	30.243
383.61	30.427
383.97	29.397
384.32	29.268
384.68	29.969
385.04	29.289
385.40	28.874
385.76	30.063
386.12	30.142
386.48	30.907
386.83	28.789
387.19	29.609
387.55	29.987
387.91	30.257
388.27	29.548
388.62	29.767
388.98	29.466
389.34	28.857
389.70	30.516
390.06	29.327
390.42	28.497
390.77	29.039
391.13	28.436
391.49	29.172
391.85	29.110
392.20	28.939
392.56	29.498
392.92	29.419
393.28	29.009
393.64	29.009
393.99	29.655
394.35	28.210
394.71	28.672
395.07	28.850
395.42	28.719
395.78	28.339
396.14	28.689
396.50	29.233
396.85	29.169
397.21	28.822
397.57	27.962
397.92	28.460
398.28	27.586
398.64	27.048
399.00	27.427
399.35	27.765
399.71	28.145
400.07	28.597
400.42	28.213
400.78	27.067
401.14	26.981
401.49	27.397
401.85	26.996
402.21	27.771
402.57	27.188
402.92	27.227
403.28	27.444
403.63	27.617
403.99	27.105
404.35	25.984
404.70	26.548
405.06	26.616
405.42	26.476
405.77	26.380
406.13	26.484
406.49	26.169
406.84	26.284
407.20	26.430
407.55	25.177
407.91	26.404
408.27	25.558
408.62	25.292
408.98	25.632
409.34	26.022
409.69	25.969
410.05	24.815
410.40	25.494
410.76	25.633
411.11	25.438
411.47	25.838
411.83	25.298
412.18	25.354
412.54	24.969
412.89	24.323
413.25	26.414
413.60	25.093
413.96	25.031
414.31	24.573
414.67	25.465
415.03	25.433
415.38	24.608
415.74	25.342
416.09	25.735
416.45	25.456
416.80	25.248
417.16	25.622
417.51	25.583
417.87	25.033
418.22	26.425
418.58	25.819
418.93	26.897
419.29	24.840
419.64	26.636
420.00	26.448
420.35	25.313
420.71	26.974
421.06	27.072
421.42	26.683
421.77	27.399
422.12	27.185
422.48	26.638
422.83	28.016
423.19	27.991
423.54	27.043
423.90	26.090
424.25	27.555
424.61	28.335
424.96	27.294
425.31	29.463
425.67	28.815
426.02	28.327
426.38	29.618
426.73	29.116
427.09	29.177
427.44	29.353
427.79	28.757
428.15	29.551
428.50	30.224
428.85	29.607
429.21	30.560
429.56	30.243
429.92	30.354
430.27	30.025
430.62	29.117
430.98	29.671
431.33	30.599
431.68	29.409
432.04	30.352
432.39	30.291
432.74	30.908
433.10	31.667
433.45	30.346
433.80	30.470
434.16	30.194
434.51	31.344
434.86	30.546
435.22	31.969
435.57	31.441
435.92	32.036
436.28	30.590
436.63	31.888
436.98	31.634
437.34	32.426
437.69	33.512
438.04	32.934
438.39	32.498
438.75	32.423
439.10	32.881
439.45	32.988
439.81	32.599
440.16	33.729
440.51	34.149
440.86	34.018
441.22	33.088
441.57	33.830
441.92	33.578
442.27	34.146
442.63	34.529
442.98	33.946
443.33	34.780
443.68	34.324
444.03	34.426
444.39	34.137
444.74	35.786
445.09	35.579
445.44	34.872
445.79	35.792
446.15	33.921
446.50	34.498
446.85	35.069
447.20	34.672
447.55	35.603
447.91	35.871
448.26	35.401
448.61	35.751
448.96	35.915
449.31	35.607
449.66	35.482
450.02	35.482
450.37	35.803
450.72	35.567
451.07	36.266
451.42	35.456
451.77	35.986
452.12	35.108
452.47	35.802
452.83	36.337
453.18	35.294
453.53	37.105
453.88	35.216
454.23	35.956
454.58	36.398
454.93	36.534
455.28	35.365
455.63	36.516
455.98	36.801
456.34	37.356
456.69	37.992
457.04	37.240
457.39	36.574
457.74	36.336
458.09	35.609
458.44	35.927
458.79	36.751
459.14	36.270
459.49	36.896
459.84	37.451
460.19	36.165
460.54	36.736
460.89	37.102
461.24	36.522
461.59	36.580
461.94	37.421
462.29	37.696
462.64	37.209
462.99	36.899
463.34	37.344
463.69	36.873
464.04	36.562
464.39	36.931
464.74	36.810
465.09	36.931
465.44	36.469
465.79	36.791
466.14	36.488
466.49	36.285
466.84	36.645
467.19	38.736
467.54	36.271
467.89	36.260
468.24	36.375
468.59	38.095
468.94	36.825
469.29	37.443
469.64	37.457
469.99	39.313
470.34	37.065
470.68	38.330
471.03	37.933
471.38	38.231
471.73	37.675
472.08	37.585
472.43	37.987
472.78	37.697
473.13	38.367
473.48	38.241
473.83	37.733
474.17	38.277
474.52	37.652
474.87	37.879
475.22	36.913
475.57	37.606
475.92	37.575
476.27	37.893
476.61	39.178
476.96	37.256
477.31	38.291
477.66	36.966
478.01	37.732
478.36	37.908
478.70	39.152
479.05	38.846
479.40	38.315
479.75	37.331
480.10	36.918
480.45	37.200
480.79	38.671
481.14	38.012
481.49	36.847
481.84	37.162
482.19	36.997
482.53	37.266
482.88	38.568
483.23	37.524
483.58	38.019
483.92	37.657
484.27	37.192
484.62	36.889
484.97	36.899
485.31	35.477
485.66	33.907
486.01	33.412
486.36	33.317
486.70	34.342
487.05	34.979
487.40	34.721
487.75	35.437
488.09	35.012
488.44	35.729
488.79	36.496
489.13	37.019
489.48	37.666
489.83	36.861
490.17	37.079
490.52	37.552
490.87	36.927
491.22	38.395
491.56	37.287
491.91	36.950
492.26	38.503
492.60	37.236
492.95	38.711
493.30	36.395
493.64	37.721
493.99	37.923
494.34	37.039
494.68	38.238
495.03	36.545
495.37	37.537
495.72	37.961
496.07	37.415
496.41	37.500
496.76	36.711
497.11	36.563
497.45	37.470
497.80	39.152
498.14	37.506
498.49	38.141
498.84	38.723
499.18	38.303
499.53	37.897
499.87	37.597
500.22	37.537
500.56	37.115
500.91	37.249
501.26	37.420
501.60	37.580
501.95	37.943
502.29	37.143
502.64	37.259
502.98	37.000
503.33	36.744
503.67	37.639
504.02	37.928
504.36	37.655
504.71	36.364
505.06	36.839
505.40	37.970
505.75	37.680
506.09	36.898
506.44	36.858
506.78	37.755
507.13	37.746
507.47	37.493
507.82	37.286
508.16	37.454
508.51	38.143
508.85	37.520
509.19	37.307
509.54	37.051
509.88	37.109
510.23	38.784
510.57	38.856
510.92	36.780
511.26	38.025
511.61	37.679
511.95	38.301
512.30	37.916
512.64	37.896
512.98	37.900
513.33	38.388
513.67	38.204
514.02	39.703
514.36	38.971
514.70	38.811
515.05	39.600
515.39	38.371
515.74	39.461
516.08	39.331
516.42	39.399
516.77	38.327
517.11	38.872
517.46	39.258
517.80	38.141
518.14	39.253
518.49	38.522
518.83	38.457
519.17	37.477
519.52	38.721
519.86	38.175
520.20	38.396
520.55	39.087
520.89	40.276
521.23	38.949
521.58	39.621
521.92	40.385
522.26	37.736
522.61	39.091
522.95	40.927
523.29	39.199
523.64	38.945
523.98	39.469
524.32	37.564
524.66	38.476
525.01	38.896
525.35	38.691
525.69	38.182
526.04	37.831
526.38	39.624
526.72	37.933
527.06	37.095
527.41	38.654
527.75	39.544
528.09	38.870
528.43	38.420
528.78	38.218
529.12	37.935
529.46	37.882
529.80	38.315
530.15	38.218
530.49	38.047
530.83	38.098
531.17	37.542
531.51	37.893
531.86	37.050
532.20	37.091
532.54	38.325
532.88	37.782
533.22	37.433
533.57	38.729
533.91	36.423
534.25	36.849
534.59	36.305
534.93	34.865
535.27	36.485
535.62	35.645
535.96	36.008
536.30	37.335
536.64	38.456
536.98	36.516
537.32	37.269
537.66	37.938
538.01	36.923
538.35	36.338
538.69	36.551
539.03	35.817
539.37	36.406
539.71	35.719
540.05	37.135
540.39	36.911
540.73	35.146
541.07	36.257
541.42	37.097
541.76	35.857
542.10	36.132
542.44	35.511
542.78	34.756
543.12	35.783
543.46	36.300
543.80	36.641
544.14	34.045
544.48	36.576
544.82	36.022
545.16	37.158
545.50	36.248
545.84	37.323
546.18	34.610
546.52	37.058
546.86	35.873
547.20	36.481
547.54	34.488
547.88	35.802
548.22	34.320
548.56	34.763
548.90	35.445
549.24	33.815
549.58	34.485
549.92	34.453
550.26	35.604
550.60	36.877
550.94	36.072
551.28	36.399
551.62	37.462
551.96	35.865
552.30	35.746
552.64	35.190
552.98	35.584
553.32	34.593
553.66	35.414
554.00	35.474
554.34	36.041
554.68	35.398
555.02	36.012
555.36	35.752
555.69	34.652
556.03	34.904
556.37	34.947
556.71	34.946
557.05	35.720
557.39	35.390
557.73	36.507
558.07	36.425
558.41	34.839
558.75	36.633
559.08	35.697
559.42	35.556
559.76	36.509
560.10	35.550
560.44	35.145
560.78	34.336
561.12	33.639
561.45	34.786
561.79	34.664
562.13	34.351
562.47	34.173
562.81	34.654
563.15	34.626
563.48	35.219
563.82	34.317
564.16	35.237
564.50	33.581
564.84	34.070
565.17	33.333
565.51	33.948
565.85	34.088
566.19	33.952
566.52	34.584
566.86	33.933
567.20	32.441
567.54	32.786
567.88	33.099
568.21	32.466
568.55	32.065
568.89	31.366
569.23	31.103
569.56	30.123
569.90	30.085
570.24	29.922
570.57	29.164
570.91	29.174
571.25	27.951
571.59	28.340
571.92	27.230
572.26	28.110
572.60	27.659
572.93	27.706
573.27	27.429
573.61	27.804
573.95	27.280
574.28	27.516
574.62	26.138
574.96	26.328
575.29	26.275
575.63	26.173
575.97	26.620
576.30	26.708
576.64	26.464
576.98	27.053
577.31	26.468
577.65	26.674
577.98	26.479
578.32	25.735
578.66	25.747
578.99	25.807
579.33	26.255
579.67	26.091
580.00	26.076
580.34	26.716
580.67	26.014
581.01	26.105
581.35	25.883
581.68	25.546
582.02	25.418
582.35	25.608
582.69	25.458
583.02	25.721
583.36	25.929
583.70	26.687
584.03	27.273
584.37	27.019
584.70	26.676
585.04	26.088
585.37	26.314
585.71	26.043
586.04	26.147
586.38	26.060
586.72	27.030
587.05	26.834
587.39	26.782
587.72	27.255
588.06	26.986
588.39	26.374
588.73	26.832
589.06	27.397
589.40	27.757
589.73	28.112
590.07	28.437
590.40	28.251
590.73	28.501
591.07	29.220
591.40	29.297
591.74	28.914
592.07	28.571
592.41	29.064
592.74	27.877
593.08	26.546
593.41	26.820
593.75	27.053
594.08	26.777
594.41	27.511
594.75	27.824
595.08	27.469
595.42	27.052
595.75	27.676
596.09	27.443
596.42	28.524
596.75	28.597
597.09	29.157
597.42	28.771
597.75	28.081
598.09	26.618
598.42	27.843
598.76	27.928
599.09	27.524
599.42	26.525
599.76	26.561
600.09	27.300
600.42	27.142
600.76	26.746
601.09	27.252
601.42	26.439
601.76	27.273
602.09	27.228
602.42	28.138
602.76	27.462
603.09	28.281
603.42	27.759
603.76	27.419
604.09	27.217
604.42	27.200
604.76	28.304
605.09	27.422
605.42	27.856
605.75	27.277
606.09	27.134
606.42	26.606
606.75	27.835
607.09	27.560
607.42	27.780
607.75	26.732
608.08	27.044
608.42	27.364
608.75	28.434
609.08	28.500
609.41	27.310
609.75	27.923
610.08	28.657
610.41	26.667
610.74	27.694
611.07	27.855
611.41	28.490
611.74	28.838
612.07	28.105
612.40	28.118
612.73	28.249
613.07	28.628
613.40	28.556
613.73	28.036
614.06	27.824
614.39	28.483
614.72	28.179
615.06	28.268
615.39	27.948
615.72	27.180
616.05	27.877
616.38	28.091
616.71	28.318
617.05	28.660
617.38	28.975
617.71	28.679
618.04	28.825
618.37	29.760
618.70	30.429
619.03	29.931
619.36	29.233
619.69	31.160
620.03	30.679
620.36	30.758
620.69	29.764
621.02	30.887
621.35	31.784
621.68	31.122
622.01	30.833
622.34	31.285
622.67	30.284
623.00	29.556
623.33	30.640
623.66	30.292
623.99	29.879
624.32	30.570
624.65	29.323
624.99	30.248
625.32	28.431
625.65	30.715
625.98	30.540
626.31	29.759
626.64	30.849
626.97	30.541
627.30	30.648
627.63	31.716
627.96	31.447
628.29	32.007
628.62	33.432
628.95	32.565
629.28	33.165
629.61	31.206
629.94	32.942
630.26	32.708
630.59	34.131
630.92	35.385
631.25	32.103
631.58	33.590
631.91	32.566
632.24	33.372
632.57	33.523
632.90	32.740
633.23	34.235
633.56	35.390
633.89	34.649
