SpectraSuite Data File
++++++++++++++++++++++++++++++++++++
Date: Fri May 15 21:04:42 PDT 2015
User: schluterlab
Dark Spectrum Present: Yes
Reference Spectrum Present: Yes
Number of Sampled Component Spectra: 1
Spectrometers: USB2E3373
Integration Time (usec): 3000 (USB2E3373)
Spectra Averaged: 3 (USB2E3373)
Boxcar Smoothing: 0 (USB2E3373)
Correct for Electrical Dark: No (USB2E3373)
Strobe/Lamp Enabled: No (USB2E3373)
Correct for Detector Non-linearity: No (USB2E3373)
Correct for Stray Light: No (USB2E3373)
Number of Pixels in Processed Spectrum: 2048
>>>>>Begin Processed Spectral Data<<<<<
178.53	0.000
178.91	0.000
179.29	-12.500
179.67	-600.000
180.04	-0.000
180.42	75.000
180.80	-1100.000
181.18	333.333
181.56	200.000
181.94	-450.000
182.31	600.000
182.69	0.000
183.07	-266.667
183.45	-80.000
183.83	183.333
184.20	-109.091
184.58	166.667
184.96	-50.000
185.34	133.333
185.72	-250.000
186.09	123.077
186.47	-900.000
186.85	66.667
187.23	155.556
187.61	400.000
187.98	-200.000
188.36	66.667
188.74	-333.333
189.12	-5.882
189.49	16.667
189.87	0.000
190.25	42.857
190.63	-150.000
191.00	-366.667
191.38	-15.789
191.76	-300.000
192.14	200.000
192.51	-250.000
192.89	-111.111
193.27	-57.143
193.65	250.000
194.02	172.727
194.40	-10.000
194.78	-262.500
195.15	-125.000
195.53	-237.500
195.91	500.000
196.29	-375.000
196.66	107.692
197.04	171.429
197.42	-66.667
197.79	-533.333
198.17	-123.077
198.55	2400.000
198.92	-533.333
199.30	-1200.000
199.68	-200.000
200.05	-400.000
200.43	0.000
200.81	-66.667
201.18	-333.333
201.56	400.000
201.94	-500.000
202.31	400.000
202.69	-200.000
203.07	300.000
203.44	-600.000
203.82	0.000
204.19	-100.000
204.57	-600.000
204.95	162.500
205.32	-70.000
205.70	-57.143
206.08	-125.000
206.45	111.111
206.83	28.571
207.20	-171.429
207.58	1500.000
207.96	-666.667
208.33	-80.000
208.71	-150.000
209.08	-200.000
209.46	-700.000
209.84	-180.000
210.21	-1400.000
210.59	-14.286
210.96	0.000
211.34	-200.000
211.71	-6.667
212.09	-185.714
212.46	-2200.000
212.84	0.000
213.22	-40.000
213.59	900.000
213.97	15.385
214.34	-18.182
214.72	-316.667
215.09	400.000
215.47	-53.846
215.84	-72.727
216.22	-633.333
216.59	-187.500
216.97	-350.000
217.34	-225.000
217.72	-220.000
218.09	-25.000
218.47	200.000
218.84	-1000.000
219.22	-144.444
219.59	-140.000
219.97	666.667
220.34	575.000
220.72	-71.429
221.09	-225.000
221.47	-250.000
221.84	-1150.000
222.22	-1200.000
222.59	-45.455
222.97	0.000
223.34	-333.333
223.72	-71.429
224.09	-38.095
224.46	28.571
224.84	666.667
225.21	-80.000
225.59	33.333
225.96	-600.000
226.34	450.000
226.71	-28.571
227.08	-83.333
227.46	-200.000
227.83	-550.000
228.21	-66.667
228.58	0.000
228.95	-62.500
229.33	170.000
229.70	-37.500
230.08	-162.500
230.45	-157.143
230.82	-142.857
231.20	-126.667
231.57	7.143
231.95	-28.571
232.32	-30.000
232.69	50.000
233.07	-400.000
233.44	-80.000
233.81	-210.000
234.19	33.333
234.56	-76.471
234.93	1000.000
235.31	-200.000
235.68	-320.000
236.05	-123.077
236.43	-95.000
236.80	23.529
237.17	-12.500
237.55	-25.000
237.92	-44.444
238.29	2.778
238.67	26.667
239.04	-2.941
239.41	-48.780
239.79	-46.667
240.16	-7.317
240.53	-31.579
240.91	-19.565
241.28	-12.698
241.65	1.786
242.02	16.438
242.40	-10.000
242.77	-11.864
243.14	-9.091
243.51	-7.500
243.89	2.299
244.26	-9.195
244.63	-7.143
245.00	-10.309
245.38	-2.062
245.75	-19.101
246.12	-1.724
246.49	6.612
246.87	-2.885
247.24	-13.445
247.61	-10.526
247.98	-8.130
248.36	-3.125
248.73	-0.658
249.10	-10.390
249.47	-3.797
249.84	-0.654
250.22	-1.765
250.59	-0.654
250.96	6.573
251.33	-1.744
251.70	0.588
252.08	-1.015
252.45	-4.455
252.82	-4.020
253.19	0.922
253.56	-3.738
253.94	1.351
254.31	-3.913
254.68	4.386
255.05	-5.118
255.42	-0.873
255.79	1.158
256.16	2.335
256.54	1.119
256.91	-0.380
257.28	0.000
257.65	-5.618
258.02	-4.610
258.39	2.694
258.76	2.930
259.14	2.658
259.51	0.647
259.88	-2.062
260.25	-0.654
260.62	0.000
260.99	-1.017
261.36	-3.425
261.73	-2.215
262.10	1.824
262.47	-0.920
262.85	0.627
263.22	1.231
263.59	2.181
263.96	2.174
264.33	1.212
264.70	-1.488
265.07	-1.488
265.44	2.266
265.81	0.000
266.18	0.546
266.55	1.028
266.92	1.554
267.29	0.522
267.66	1.535
268.03	1.047
268.40	-0.261
268.77	4.545
269.14	1.679
269.51	1.799
269.88	0.499
270.25	-2.041
270.62	1.220
270.99	-3.325
271.36	-0.489
271.73	1.174
272.10	0.000
272.47	3.310
272.84	-0.743
273.21	2.552
273.58	1.205
273.95	2.975
274.32	-0.693
274.69	-1.810
275.06	5.134
275.43	0.907
275.80	0.662
276.17	0.000
276.54	3.212
276.91	1.535
277.28	-0.437
277.65	3.719
278.02	-0.851
278.39	1.313
278.76	0.419
279.13	0.000
279.50	1.261
279.87	0.216
280.23	-1.720
280.60	2.339
280.97	-0.606
281.34	0.962
281.71	2.669
282.08	-0.204
282.45	0.000
282.82	0.193
283.19	-0.774
283.56	2.119
283.92	-0.190
284.29	0.769
284.66	-0.194
285.03	0.982
285.40	0.378
285.77	0.527
286.14	2.347
286.51	2.214
286.87	1.828
287.24	0.921
287.61	0.176
287.98	3.333
288.35	0.520
288.72	2.452
289.08	0.000
289.45	2.285
289.82	1.399
290.19	1.706
290.56	1.201
290.93	-0.168
291.29	0.924
291.66	2.992
292.03	0.319
292.40	1.774
292.77	-0.159
293.13	-1.948
293.50	-0.607
293.87	1.374
294.24	0.618
294.60	1.788
294.97	0.595
295.34	0.153
295.71	-0.596
296.08	-0.747
296.44	-0.853
296.81	1.250
297.18	-0.145
297.55	2.168
297.91	1.507
298.28	2.639
298.65	0.814
299.02	0.809
299.38	-1.642
299.75	-0.138
300.12	0.524
300.48	0.527
300.85	1.521
301.22	0.130
301.59	0.395
301.95	1.392
302.32	1.686
302.69	1.244
303.05	1.361
303.42	1.619
303.79	0.935
304.15	2.031
304.52	1.070
304.89	1.053
305.25	0.000
305.62	-0.583
305.99	0.351
306.35	0.578
306.72	-0.225
307.09	1.938
307.45	1.148
307.82	-0.347
308.19	1.045
308.55	1.527
308.92	2.397
309.29	-0.782
309.65	0.969
310.02	1.980
310.38	2.086
310.75	1.639
311.12	1.399
311.48	2.121
311.85	1.466
312.22	1.160
312.58	2.123
312.95	0.640
313.31	0.518
313.68	1.571
314.05	0.918
314.41	2.062
314.78	1.856
315.14	3.186
315.51	2.070
315.87	2.664
316.24	4.146
316.61	3.642
316.97	2.579
317.34	3.125
317.70	2.008
318.07	3.077
318.43	3.039
318.80	3.030
319.16	4.004
319.53	3.989
319.89	4.134
320.26	3.947
320.62	4.915
320.99	3.653
321.35	4.625
321.72	5.296
322.08	4.431
322.45	5.482
322.81	5.599
323.18	4.220
323.54	5.116
323.91	6.524
324.27	6.348
324.64	7.303
325.00	8.120
325.37	8.264
325.73	7.344
326.10	7.720
326.46	9.776
326.83	8.311
327.19	9.329
327.56	10.078
327.92	9.771
328.29	10.089
328.65	10.094
329.01	9.375
329.38	10.691
329.74	9.632
330.11	10.936
330.47	9.276
330.84	10.577
331.20	11.312
331.56	11.296
331.93	13.699
332.29	13.016
332.66	11.674
333.02	11.989
333.38	12.924
333.75	13.187
334.11	12.086
334.48	14.234
334.84	12.729
335.20	12.900
335.57	12.511
335.93	13.550
336.29	13.904
336.66	12.171
337.02	12.082
337.38	12.778
337.75	12.636
338.11	14.337
338.47	14.872
338.84	13.309
339.20	14.260
339.56	13.853
339.93	13.429
340.29	14.128
340.65	13.441
341.02	15.071
341.38	14.602
341.74	13.339
342.11	12.392
342.47	13.078
342.83	14.965
343.20	13.415
343.56	13.565
343.92	13.020
344.28	13.322
344.65	13.817
345.01	12.792
345.37	14.466
345.73	15.481
346.10	15.358
346.46	13.793
346.82	14.812
347.19	13.549
347.55	14.703
347.91	14.806
348.27	13.258
348.63	12.777
349.00	13.946
349.36	14.381
349.72	15.091
350.08	13.033
350.45	13.647
350.81	13.372
351.17	13.192
351.53	15.837
351.89	13.212
352.26	13.520
352.62	13.387
352.98	12.209
353.34	14.251
353.70	13.997
354.07	13.468
354.43	13.931
354.79	13.460
355.15	14.206
355.51	13.687
355.87	13.997
356.24	12.316
356.60	13.500
356.96	14.444
357.32	13.578
357.68	13.604
358.04	13.328
358.40	12.621
358.77	14.833
359.13	12.970
359.49	14.330
359.85	14.197
360.21	12.998
360.57	13.466
360.93	14.448
361.29	11.934
361.66	14.420
362.02	13.030
362.38	14.014
362.74	13.323
363.10	14.673
363.46	13.269
363.82	14.726
364.18	13.653
364.54	13.309
364.90	14.122
365.26	13.028
365.62	14.234
365.98	13.636
366.35	13.328
366.71	13.452
367.07	13.353
367.43	13.587
367.79	13.357
368.15	13.137
368.51	13.765
368.87	13.568
369.23	12.635
369.59	13.265
369.95	13.783
370.31	13.656
370.67	12.836
371.03	12.696
371.39	12.691
371.75	13.187
372.11	13.837
372.47	13.314
372.83	13.627
373.19	13.409
373.55	12.563
373.91	13.319
374.27	14.033
374.63	13.711
374.99	12.695
375.35	13.301
375.71	13.427
376.07	12.921
376.42	12.653
376.78	14.161
377.14	12.729
377.50	14.143
377.86	12.651
378.22	13.465
378.58	12.692
378.94	13.233
379.30	12.851
379.66	13.417
380.02	12.692
380.38	12.538
380.74	12.148
381.09	12.638
381.45	12.905
381.81	13.325
382.17	13.135
382.53	12.680
382.89	12.304
383.25	13.752
383.61	13.232
383.97	11.810
384.32	12.946
384.68	12.817
385.04	12.868
385.40	12.259
385.76	12.642
386.12	14.101
386.48	13.665
386.83	11.921
387.19	12.698
387.55	12.610
387.91	11.614
388.27	12.088
388.62	11.957
388.98	12.830
389.34	12.742
389.70	12.803
390.06	12.209
390.42	12.111
390.77	11.838
391.13	11.728
391.49	11.966
391.85	12.086
392.20	11.676
392.56	12.715
392.92	12.977
393.28	12.500
393.64	12.613
393.99	13.229
394.35	11.195
394.71	12.771
395.07	12.131
395.42	11.597
395.78	11.857
396.14	12.421
396.50	11.731
396.85	11.719
397.21	12.343
397.57	11.850
397.92	11.803
398.28	11.264
398.64	11.928
399.00	12.528
399.35	10.327
399.71	12.177
400.07	11.185
400.42	11.261
400.78	10.961
401.14	11.918
401.49	12.150
401.85	11.761
402.21	12.410
402.57	11.688
402.92	10.728
403.28	11.779
403.63	10.845
403.99	11.543
404.35	11.555
404.70	11.250
405.06	11.457
405.42	11.498
405.77	10.575
406.13	11.059
406.49	11.012
406.84	11.369
407.20	10.897
407.55	10.560
407.91	10.896
408.27	10.707
408.62	11.015
408.98	10.967
409.34	10.223
409.69	10.401
410.05	10.530
410.40	10.741
410.76	10.917
411.11	10.563
411.47	10.191
411.83	10.107
412.18	11.133
412.54	10.986
412.89	10.160
413.25	10.890
413.60	10.248
413.96	10.736
414.31	10.915
414.67	10.135
415.03	8.988
415.38	10.640
415.74	10.945
416.09	10.516
416.45	10.466
416.80	10.443
417.16	11.119
417.51	11.592
417.87	10.104
418.22	10.104
418.58	10.234
418.93	11.034
419.29	9.731
419.64	9.786
420.00	10.831
420.35	9.851
420.71	10.207
421.06	9.699
421.42	9.916
421.77	9.364
422.12	9.875
422.48	9.800
422.83	9.513
423.19	9.989
423.54	9.347
423.90	8.716
424.25	9.874
424.61	10.098
424.96	9.582
425.31	9.705
425.67	9.800
426.02	10.895
426.38	9.956
426.73	9.746
427.09	10.380
427.44	10.882
427.79	9.723
428.15	9.951
428.50	9.631
428.85	9.398
429.21	9.677
429.56	10.350
429.92	9.553
430.27	9.975
430.62	9.200
430.98	9.660
431.33	10.095
431.68	9.419
432.04	9.223
432.39	9.926
432.74	8.358
433.10	11.207
433.45	9.737
433.80	9.228
434.16	9.252
434.51	9.624
434.86	10.046
435.22	9.647
435.57	9.545
435.92	9.102
436.28	9.243
436.63	9.469
436.98	9.907
437.34	9.074
437.69	10.555
438.04	8.946
438.39	9.224
438.75	9.532
439.10	9.225
439.45	9.130
439.81	8.563
440.16	9.026
440.51	10.090
440.86	10.272
441.22	9.219
441.57	9.492
441.92	9.654
442.27	9.424
442.63	10.546
442.98	10.109
443.33	8.959
443.68	9.178
444.03	9.637
444.39	9.493
444.74	10.089
445.09	9.688
445.44	9.060
445.79	9.541
446.15	9.416
446.50	9.262
446.85	9.033
447.20	8.498
447.55	9.877
447.91	9.250
448.26	9.676
448.61	9.845
448.96	9.639
449.31	9.191
449.66	9.292
450.02	9.355
450.37	9.425
450.72	8.992
451.07	9.684
451.42	8.926
451.77	9.644
452.12	8.911
452.47	8.822
452.83	9.187
453.18	9.551
453.53	9.418
453.88	9.107
454.23	9.219
454.58	9.572
454.93	9.278
455.28	8.635
455.63	10.167
455.98	9.441
456.34	9.068
456.69	9.085
457.04	9.893
457.39	9.599
457.74	8.585
458.09	9.064
458.44	8.602
458.79	8.683
459.14	9.439
459.49	10.030
459.84	9.363
460.19	8.677
460.54	8.985
460.89	8.580
461.24	9.006
461.59	9.679
461.94	8.931
462.29	9.952
462.64	9.767
462.99	10.359
463.34	8.484
463.69	9.138
464.04	9.322
464.39	9.703
464.74	9.080
465.09	8.796
465.44	8.886
465.79	8.220
466.14	9.179
466.49	8.971
466.84	9.042
467.19	9.074
467.54	8.940
467.89	8.781
468.24	9.124
468.59	9.143
468.94	7.810
469.29	9.246
469.64	8.681
469.99	10.371
470.34	8.532
470.68	9.023
471.03	9.554
471.38	8.702
471.73	9.034
472.08	8.752
472.43	8.255
472.78	7.745
473.13	8.707
473.48	9.251
473.83	9.215
474.17	9.456
474.52	8.998
474.87	9.394
475.22	8.420
475.57	8.809
475.92	8.996
476.27	8.556
476.61	9.375
476.96	8.812
477.31	9.140
477.66	8.539
478.01	8.647
478.36	9.205
478.70	8.809
479.05	9.341
479.40	8.903
479.75	8.551
480.10	8.602
480.45	8.000
480.79	8.912
481.14	9.068
481.49	8.177
481.84	8.639
482.19	8.513
482.53	7.962
482.88	8.305
483.23	8.301
483.58	8.632
483.92	7.648
484.27	8.523
484.62	8.696
484.97	8.167
485.31	8.273
485.66	8.221
486.01	8.034
486.36	7.862
486.70	8.144
487.05	8.264
487.40	8.273
487.75	8.056
488.09	7.973
488.44	8.253
488.79	8.554
489.13	8.574
489.48	8.123
489.83	8.161
490.17	8.225
490.52	7.852
490.87	8.237
491.22	8.405
491.56	7.875
491.91	7.648
492.26	8.119
492.60	8.013
492.95	8.460
493.30	7.621
493.64	8.202
493.99	8.309
494.34	7.913
494.68	8.143
495.03	7.835
495.37	8.194
495.72	8.127
496.07	7.512
496.41	7.830
496.76	8.614
497.11	7.732
497.45	8.735
497.80	8.779
498.14	8.346
498.49	7.669
498.84	8.932
499.18	8.082
499.53	8.036
499.87	7.928
500.22	8.160
500.56	7.867
500.91	7.580
501.26	7.909
501.60	7.575
501.95	7.666
502.29	8.087
502.64	8.205
502.98	7.301
503.33	7.445
503.67	7.904
504.02	8.504
504.36	8.115
504.71	7.879
505.06	7.650
505.40	7.005
505.75	7.938
506.09	7.755
506.44	8.573
506.78	7.806
507.13	8.066
507.47	7.728
507.82	7.746
508.16	7.501
508.51	7.555
508.85	7.954
509.19	7.504
509.54	8.418
509.88	7.659
510.23	7.047
510.57	8.391
510.92	7.090
511.26	7.583
511.61	8.086
511.95	7.726
512.30	8.204
512.64	7.902
512.98	7.075
513.33	8.338
513.67	7.902
514.02	8.124
514.36	8.229
514.70	7.284
515.05	8.049
515.39	7.910
515.74	8.084
516.08	8.249
516.42	8.186
516.77	8.543
517.11	7.181
517.46	8.079
517.80	7.807
518.14	8.267
518.49	8.173
518.83	7.473
519.17	7.580
519.52	7.519
519.86	7.083
520.20	8.019
520.55	6.942
520.89	8.720
521.23	8.170
521.58	7.950
521.92	7.628
522.26	8.068
522.61	8.117
522.95	7.351
523.29	7.942
523.64	8.958
523.98	8.555
524.32	6.508
524.66	7.939
525.01	9.156
525.35	8.620
525.69	7.407
526.04	6.349
526.38	7.977
526.72	7.260
527.06	8.042
527.41	7.982
527.75	7.038
528.09	7.575
528.43	8.305
528.78	7.063
529.12	8.129
529.46	7.277
529.80	8.233
530.15	7.987
530.49	6.869
530.83	8.208
531.17	6.985
531.51	8.550
531.86	7.070
532.20	6.333
532.54	8.033
532.88	8.419
533.22	7.728
533.57	7.274
533.91	6.397
534.25	7.357
534.59	7.569
534.93	7.174
535.27	6.916
535.62	6.351
535.96	7.632
536.30	8.377
536.64	7.305
536.98	8.571
537.32	7.183
537.66	8.555
538.01	7.622
538.35	7.698
538.69	7.989
539.03	6.835
539.37	7.873
539.71	6.953
540.05	7.264
540.39	8.380
540.73	7.601
541.07	7.804
541.42	7.460
541.76	7.020
542.10	6.882
542.44	8.270
542.78	6.263
543.12	7.349
543.46	7.997
543.80	8.189
544.14	7.076
544.48	8.061
544.82	7.656
545.16	7.240
545.50	8.611
545.84	7.436
546.18	8.369
546.52	7.570
546.86	7.045
547.20	8.155
547.54	6.784
547.88	7.813
548.22	7.035
548.56	7.850
548.90	8.086
549.24	7.438
549.58	7.616
549.92	7.148
550.26	6.813
550.60	7.138
550.94	6.945
551.28	7.264
551.62	7.769
551.96	7.218
552.30	6.433
552.64	6.276
552.98	7.314
553.32	7.418
553.66	5.951
554.00	6.788
554.34	7.386
554.68	7.080
555.02	7.217
555.36	6.507
555.69	6.520
556.03	6.567
556.37	6.690
556.71	6.137
557.05	6.637
557.39	5.502
557.73	8.171
558.07	7.240
558.41	7.121
558.75	6.625
559.08	6.935
559.42	6.429
559.76	6.565
560.10	6.957
560.44	6.478
560.78	7.762
561.12	6.629
561.45	7.027
561.79	7.563
562.13	7.239
562.47	6.331
562.81	7.853
563.15	7.193
563.48	7.638
563.82	7.275
564.16	6.128
564.50	7.297
564.84	6.426
565.17	6.707
565.51	7.104
565.85	7.339
566.19	7.029
566.52	6.903
566.86	7.455
567.20	6.725
567.54	6.448
567.88	6.385
568.21	7.183
568.55	6.467
568.89	6.828
569.23	6.307
569.56	6.173
569.90	6.780
570.24	6.103
570.57	7.018
570.91	6.518
571.25	6.149
571.59	6.229
571.92	6.104
572.26	6.008
572.60	6.326
572.93	6.715
573.27	6.238
573.61	5.996
573.95	6.390
574.28	5.667
574.62	5.797
574.96	6.008
575.29	5.982
575.63	6.038
575.97	5.313
576.30	6.073
576.64	5.642
576.98	6.435
577.31	5.972
577.65	6.284
577.98	5.769
578.32	5.902
578.66	6.211
578.99	5.826
579.33	5.896
579.67	5.728
580.00	5.671
580.34	5.846
580.67	6.034
581.01	5.956
581.35	5.879
581.68	5.806
582.02	5.818
582.35	5.682
582.69	5.843
583.02	6.088
583.36	6.009
583.70	6.438
584.03	6.311
584.37	6.098
584.70	5.934
585.04	5.907
585.37	5.921
585.71	5.801
586.04	5.472
586.38	6.055
586.72	5.882
587.05	6.326
587.39	6.290
587.72	6.288
588.06	5.812
588.39	6.181
588.73	6.074
589.06	6.327
589.40	6.395
589.73	6.681
590.07	5.967
590.40	6.269
590.73	6.672
591.07	5.895
591.40	6.901
591.74	6.109
592.07	6.169
592.41	6.228
592.74	6.014
593.08	5.833
593.41	6.030
593.75	5.659
594.08	6.111
594.41	6.186
594.75	5.573
595.08	6.621
595.42	6.146
595.75	5.896
596.09	5.864
596.42	5.498
596.75	6.439
597.09	6.333
597.42	6.323
597.75	6.413
598.09	5.885
598.42	6.092
598.76	5.792
599.09	5.849
599.42	6.366
599.76	6.245
600.09	6.184
600.42	6.141
600.76	5.795
601.09	5.573
601.42	5.915
601.76	5.597
602.09	6.023
602.42	6.487
602.76	6.324
603.09	5.772
603.42	6.062
603.76	5.766
604.09	5.832
604.42	6.472
604.76	6.765
605.09	5.987
605.42	6.321
605.75	5.429
606.09	5.987
606.42	5.713
606.75	6.017
607.09	6.242
607.42	5.184
607.75	5.950
608.08	5.436
608.42	5.893
608.75	6.554
609.08	6.178
609.41	6.091
609.75	6.552
610.08	5.492
610.41	6.039
610.74	5.363
611.07	6.202
611.41	6.331
611.74	5.704
612.07	5.728
612.40	5.635
612.73	5.537
613.07	6.355
613.40	6.346
613.73	5.316
614.06	5.620
614.39	6.543
614.72	6.218
615.06	5.810
615.39	6.550
615.72	5.544
616.05	5.754
616.38	5.641
616.71	5.933
617.05	5.250
617.38	6.285
617.71	5.849
618.04	6.349
618.37	7.377
618.70	6.733
619.03	6.319
619.36	5.644
619.69	5.307
620.03	7.085
620.36	5.651
620.69	6.852
621.02	6.575
621.35	6.556
621.68	5.952
622.01	6.667
622.34	6.624
622.67	6.546
623.00	6.355
623.33	6.402
623.66	6.283
623.99	6.732
624.32	6.388
624.65	5.865
624.99	6.321
625.32	5.838
625.65	6.991
625.98	7.252
626.31	5.902
626.64	7.106
626.97	7.417
627.30	6.567
627.63	6.326
627.96	6.559
628.29	5.828
628.62	7.276
628.95	6.112
629.28	7.056
629.61	6.680
629.94	6.452
630.26	5.929
630.59	6.972
630.92	6.462
631.25	5.538
631.58	6.828
631.91	6.031
632.24	6.766
632.57	6.591
632.90	6.524
633.23	7.176
633.56	5.793
633.89	6.042
634.22	6.790
634.55	5.845
634.88	7.535
635.20	6.538
635.53	5.067
635.86	6.372
636.19	7.762
636.52	5.740
636.85	5.955
637.18	7.170
637.51	6.541
637.83	7.227
638.16	7.776
638.49	6.540
638.82	8.947
639.15	7.734
639.48	5.502
639.81	8.229
640.13	6.349
640.46	6.268
640.79	6.480
641.12	6.499
641.45	5.105
641.77	7.704
642.10	7.425
642.43	6.592
642.76	7.756
643.09	5.493
643.41	5.340
643.74	5.766
644.07	8.867
644.40	6.926
644.73	7.180
645.05	7.047
645.38	5.467
645.71	3.901
646.04	7.361
646.36	6.560
646.69	8.993
647.02	7.750
647.35	6.903
647.67	8.410
648.00	7.463
648.33	9.215
648.66	6.271
648.98	3.853
649.31	6.446
649.64	6.750
649.96	6.645
