SpectraSuite Data File
++++++++++++++++++++++++++++++++++++
Date: Fri May 15 20:36:52 PDT 2015
User: schluterlab
Dark Spectrum Present: Yes
Reference Spectrum Present: Yes
Number of Sampled Component Spectra: 1
Spectrometers: USB2E3373
Integration Time (usec): 3000 (USB2E3373)
Spectra Averaged: 3 (USB2E3373)
Boxcar Smoothing: 0 (USB2E3373)
Correct for Electrical Dark: No (USB2E3373)
Strobe/Lamp Enabled: No (USB2E3373)
Correct for Detector Non-linearity: No (USB2E3373)
Correct for Stray Light: No (USB2E3373)
Number of Pixels in Processed Spectrum: 2048
>>>>>Begin Processed Spectral Data<<<<<
178.53	0.000
178.91	0.000
179.29	62.500
179.67	-750.000
180.04	-100.000
180.42	-175.000
180.80	300.000
181.18	-133.333
181.56	550.000
181.94	-200.000
182.31	400.000
182.69	-200.000
183.07	-200.000
183.45	-200.000
183.83	66.667
184.20	-145.455
184.58	155.556
184.96	50.000
185.34	433.333
185.72	-350.000
186.09	53.846
186.47	-400.000
186.85	100.000
187.23	111.111
187.61	-500.000
187.98	-400.000
188.36	66.667
188.74	-166.667
189.12	-5.882
189.49	27.778
189.87	0.000
190.25	150.000
190.63	-100.000
191.00	-33.333
191.38	-5.263
191.76	400.000
192.14	225.000
192.51	-50.000
192.89	-44.444
193.27	-42.857
193.65	166.667
194.02	172.727
194.40	-10.000
194.78	-112.500
195.15	33.333
195.53	-50.000
195.91	400.000
196.29	-75.000
196.66	53.846
197.04	100.000
197.42	-77.778
197.79	-400.000
198.17	-76.923
198.55	1600.000
198.92	-133.333
199.30	800.000
199.68	40.000
200.05	-100.000
200.43	0.000
200.81	0.000
201.18	-33.333
201.56	1600.000
201.94	-100.000
202.31	-33.333
202.69	-400.000
203.07	150.000
203.44	100.000
203.82	0.000
204.19	-21.429
204.57	-200.000
204.95	237.500
205.32	20.000
205.70	-100.000
206.08	-125.000
206.45	77.778
206.83	28.571
207.20	-157.143
207.58	400.000
207.96	-166.667
208.33	-110.000
208.71	-75.000
209.08	-166.667
209.46	-100.000
209.84	-200.000
210.21	-500.000
210.59	-71.429
210.96	-83.333
211.34	-175.000
211.71	0.000
212.09	-71.429
212.46	-1400.000
212.84	0.000
213.22	10.000
213.59	400.000
213.97	38.462
214.34	-72.727
214.72	-50.000
215.09	300.000
215.47	-84.615
215.84	-90.909
216.22	-333.333
216.59	-50.000
216.97	500.000
217.34	-200.000
217.72	-220.000
218.09	12.500
218.47	250.000
218.84	-400.000
219.22	-44.444
219.59	20.000
219.97	266.667
220.34	150.000
220.72	14.286
221.09	-200.000
221.47	400.000
221.84	-500.000
222.22	-350.000
222.59	9.091
222.97	16.667
223.34	-66.667
223.72	-50.000
224.09	-14.286
224.46	39.286
224.84	466.667
225.21	-70.000
225.59	-40.000
225.96	-400.000
226.34	325.000
226.71	-14.286
227.08	-16.667
227.46	25.000
227.83	-800.000
228.21	-11.111
228.58	36.364
228.95	-62.500
229.33	100.000
229.70	68.750
230.08	-62.500
230.45	-85.714
230.82	71.429
231.20	20.000
231.57	21.429
231.95	-14.286
232.32	-150.000
232.69	92.857
233.07	133.333
233.44	-40.000
233.81	-170.000
234.19	-11.111
234.56	-17.647
234.93	150.000
235.31	-50.000
235.68	-220.000
236.05	-30.769
236.43	-5.000
236.80	-17.647
237.17	18.750
237.55	15.000
237.92	40.741
238.29	19.444
238.67	66.667
239.04	2.941
239.41	2.439
239.79	-6.667
240.16	73.171
240.53	15.789
240.91	10.870
241.28	47.619
241.65	39.286
242.02	24.658
242.40	50.000
242.77	45.763
243.14	36.364
243.51	30.000
243.89	55.172
244.26	19.540
244.63	46.429
245.00	28.866
245.38	39.175
245.75	31.461
246.12	27.586
246.49	34.711
246.87	44.231
247.24	33.613
247.61	33.333
247.98	31.707
248.36	36.250
248.73	46.053
249.10	31.169
249.47	44.937
249.84	41.176
250.22	37.647
250.59	36.601
250.96	44.131
251.33	43.023
251.70	41.176
252.08	39.086
252.45	43.564
252.82	37.688
253.19	40.092
253.56	35.981
253.94	35.586
254.31	38.696
254.68	40.789
255.05	42.126
255.42	41.485
255.79	41.699
256.16	40.856
256.54	40.299
256.91	35.741
257.28	38.662
257.65	41.948
258.02	40.780
258.39	41.077
258.76	42.491
259.14	39.535
259.51	36.893
259.88	40.206
260.25	36.601
260.62	40.625
260.99	38.305
261.36	38.014
261.73	38.924
262.10	38.906
262.47	40.184
262.85	39.498
263.22	39.077
263.59	39.252
263.96	41.925
264.33	41.818
264.70	38.095
265.07	43.452
265.44	43.343
265.81	37.571
266.18	38.525
266.55	41.645
266.92	38.601
267.29	41.253
267.66	39.642
268.03	40.838
268.40	41.775
268.77	41.444
269.14	40.288
269.51	39.846
269.88	41.147
270.25	36.480
270.62	37.073
270.99	39.898
271.36	37.408
271.73	36.150
272.10	37.470
272.47	39.007
272.84	39.109
273.21	39.211
273.58	38.072
273.95	38.673
274.32	36.721
274.69	34.389
275.06	42.188
275.43	36.054
275.80	36.203
276.17	34.253
276.54	38.972
276.91	39.254
277.28	38.210
277.65	37.190
278.02	38.723
278.39	37.418
278.76	37.107
279.13	34.855
279.50	39.496
279.87	38.877
280.23	33.763
280.60	34.698
280.97	38.990
281.34	36.538
281.71	41.068
282.08	35.992
282.45	37.965
282.82	37.452
283.19	34.429
283.56	37.765
283.92	36.433
284.29	34.808
284.66	36.240
285.03	35.953
285.40	35.917
285.77	34.271
286.14	38.267
286.51	37.269
286.87	34.186
287.24	35.912
287.61	36.684
287.98	35.439
288.35	34.489
288.72	36.077
289.08	32.986
289.45	35.325
289.82	32.343
290.19	31.741
290.56	32.247
290.93	33.838
291.29	31.895
291.66	33.228
292.03	32.855
292.40	32.581
292.77	33.014
293.13	31.169
293.50	30.956
293.87	30.840
294.24	31.685
294.60	28.614
294.97	29.911
295.34	31.748
295.71	28.763
296.08	30.942
296.44	29.018
296.81	27.917
297.18	29.275
297.55	31.572
297.91	28.219
298.28	30.343
298.65	27.951
299.02	26.280
299.38	26.949
299.75	29.517
300.12	27.749
300.48	28.327
300.85	29.151
301.22	27.662
301.59	29.211
301.95	28.481
302.32	27.756
302.69	26.368
303.05	27.970
303.42	26.401
303.79	28.505
304.15	28.076
304.52	26.635
304.89	27.135
305.25	27.724
305.62	25.904
305.99	26.667
306.35	26.936
306.72	26.209
307.09	26.910
307.45	28.014
307.82	26.736
308.19	28.804
308.55	25.627
308.92	28.322
309.29	28.045
309.65	26.695
310.02	28.053
310.38	28.211
310.75	28.306
311.12	28.525
311.48	27.466
311.85	26.911
312.22	27.004
312.58	28.344
312.95	27.215
313.31	27.743
313.68	27.853
314.05	28.980
314.41	29.278
314.78	28.247
315.14	29.085
315.51	29.917
315.87	29.201
316.24	31.951
316.61	30.709
316.97	31.548
317.34	31.055
317.70	31.644
318.07	32.019
318.43	32.451
318.80	31.534
319.16	34.766
319.53	33.808
319.89	32.283
320.26	33.502
320.62	33.801
320.99	34.551
321.35	34.738
321.72	34.476
322.08	36.455
322.45	37.360
322.81	36.149
323.18	36.310
323.54	37.355
323.91	36.709
324.27	36.133
324.64	39.981
325.00	39.872
325.37	39.027
325.73	38.713
326.10	40.690
326.46	39.910
326.83	41.382
327.19	41.674
327.56	42.745
327.92	43.046
328.29	43.214
328.65	43.396
329.01	43.290
329.38	44.055
329.74	42.493
330.11	43.837
330.47	42.857
330.84	45.000
331.20	47.243
331.56	44.722
331.93	46.301
332.29	47.479
332.66	45.792
333.02	45.818
333.38	43.813
333.75	46.795
334.11	43.957
334.48	45.422
334.84	46.062
335.20	46.203
335.57	45.150
335.93	45.890
336.29	47.514
336.66	45.141
337.02	45.725
337.38	46.204
337.75	45.636
338.11	45.987
338.47	45.712
338.84	48.706
339.20	45.978
339.56	46.055
339.93	45.748
340.29	46.330
340.65	46.147
341.02	46.720
341.38	45.575
341.74	45.671
342.11	46.274
342.47	47.153
342.83	46.453
343.20	45.296
343.56	47.043
343.92	47.121
344.28	47.395
344.65	45.855
345.01	45.981
345.37	46.678
345.73	47.950
346.10	48.059
346.46	46.426
346.82	46.481
347.19	46.384
347.55	47.786
347.91	47.735
348.27	45.998
348.63	46.848
349.00	46.924
349.36	47.714
349.72	46.932
350.08	47.459
350.45	47.486
350.81	47.508
351.17	48.127
351.53	47.673
351.89	46.903
352.26	45.280
352.62	47.661
352.98	47.068
353.34	45.572
353.70	48.463
354.07	47.984
354.43	47.958
354.79	47.647
355.15	46.667
355.51	48.813
355.87	47.735
356.24	45.514
356.60	48.181
356.96	47.619
357.32	45.767
357.68	47.146
358.04	46.607
358.40	46.383
358.77	47.847
359.13	47.958
359.49	47.535
359.85	48.128
360.21	48.086
360.57	46.825
360.93	47.655
361.29	47.130
361.66	47.649
362.02	49.015
362.38	49.048
362.74	48.297
363.10	48.984
363.46	49.222
363.82	49.737
364.18	48.930
364.54	48.676
364.90	47.599
365.26	47.671
365.62	50.365
365.98	48.607
366.35	50.255
366.71	50.998
367.07	50.000
367.43	50.036
367.79	49.823
368.15	48.959
368.51	51.129
368.87	49.246
369.23	50.325
369.59	50.656
369.95	49.927
370.31	51.084
370.67	50.672
371.03	48.245
371.39	51.131
371.75	49.817
372.11	50.428
372.47	51.997
372.83	50.390
373.19	50.642
373.55	50.253
373.91	50.252
374.27	52.516
374.63	50.897
374.99	51.489
375.35	52.577
375.71	51.958
376.07	52.037
376.42	51.769
376.78	52.282
377.14	52.674
377.50	52.523
377.86	53.079
378.22	53.031
378.58	52.756
378.94	53.182
379.30	52.589
379.66	53.480
380.02	51.747
380.38	52.587
380.74	52.304
381.09	53.988
381.45	53.517
381.81	52.869
382.17	54.251
382.53	54.029
382.89	55.556
383.25	53.516
383.61	54.939
383.97	54.032
384.32	53.971
384.68	55.418
385.04	55.208
385.40	54.823
385.76	56.164
386.12	55.433
386.48	57.471
386.83	55.358
387.19	55.556
387.55	56.462
387.91	56.479
388.27	55.495
388.62	57.017
388.98	56.538
389.34	57.402
389.70	57.241
390.06	56.828
390.42	57.707
390.77	57.292
391.13	56.116
391.49	58.344
391.85	57.895
392.20	57.878
392.56	59.568
392.92	58.133
393.28	58.785
393.64	58.078
393.99	60.000
394.35	58.887
394.71	60.089
395.07	58.517
395.42	57.195
395.78	61.368
396.14	60.025
396.50	60.114
396.85	60.077
397.21	60.777
397.57	59.310
397.92	59.617
398.28	61.149
398.64	58.434
399.00	61.117
399.35	60.102
399.71	60.310
400.07	62.636
400.42	59.670
400.78	62.217
401.14	61.525
401.49	61.108
401.85	61.304
402.21	62.289
402.57	62.313
402.92	61.731
403.28	63.972
403.63	63.871
403.99	64.094
404.35	63.148
404.70	62.262
405.06	61.927
405.42	63.456
405.77	63.858
406.13	63.912
406.49	63.233
406.84	64.976
407.20	64.238
407.55	64.649
407.91	63.770
408.27	64.308
408.62	64.985
408.98	65.065
409.34	64.994
409.69	64.793
410.05	63.300
410.40	65.123
410.76	66.224
411.11	66.750
411.47	66.338
411.83	66.478
412.18	67.375
412.54	65.980
412.89	66.256
413.25	67.389
413.60	67.205
413.96	65.767
414.31	66.829
414.67	66.389
415.03	67.244
415.38	67.428
415.74	66.580
416.09	67.015
416.45	68.467
416.80	68.341
417.16	69.268
417.51	68.621
417.87	66.493
418.22	69.041
418.58	69.565
418.93	69.404
419.29	67.350
419.64	68.179
420.00	69.395
420.35	68.597
420.71	68.226
421.06	69.306
421.42	70.192
421.77	68.960
422.12	67.934
422.48	69.139
422.83	69.374
423.19	69.639
423.54	70.312
423.90	69.788
424.25	69.862
424.61	70.073
424.96	70.441
425.31	71.982
425.67	71.362
426.02	71.731
426.38	72.323
426.73	71.065
427.09	73.228
427.44	71.412
427.79	72.363
428.15	71.238
428.50	72.380
428.85	70.393
429.21	71.817
429.56	73.100
429.92	71.700
430.27	70.777
430.62	70.727
430.98	72.930
431.33	71.767
431.68	70.487
432.04	73.002
432.39	70.565
432.74	72.520
433.10	72.011
433.45	71.983
433.80	73.302
434.16	71.856
434.51	72.366
434.86	74.971
435.22	72.350
435.57	73.986
435.92	73.353
436.28	71.556
436.63	73.189
436.98	72.827
437.34	72.474
437.69	74.240
438.04	73.732
438.39	72.755
438.75	74.681
439.10	73.062
439.45	73.220
439.81	72.294
440.16	75.772
440.51	74.448
440.86	76.616
441.22	73.473
441.57	75.000
441.92	75.341
442.27	75.166
442.63	74.197
442.98	74.210
443.33	73.734
443.68	73.899
444.03	75.161
444.39	75.258
444.74	76.310
445.09	76.670
445.44	74.644
445.79	75.812
446.15	74.670
446.50	75.430
446.85	75.770
447.20	75.130
447.55	76.618
447.91	74.958
448.26	74.616
448.61	75.417
448.96	76.764
449.31	74.855
449.66	74.390
450.02	75.014
450.37	76.704
450.72	75.601
451.07	77.025
451.42	75.406
451.77	75.708
452.12	75.837
452.47	76.948
452.83	77.091
453.18	75.901
453.53	76.738
453.88	77.110
454.23	76.152
454.58	76.763
454.93	76.869
455.28	73.778
455.63	76.007
455.98	77.330
456.34	76.692
456.69	76.811
457.04	76.812
457.39	76.185
457.74	76.421
458.09	74.632
458.44	76.126
458.79	75.238
459.14	76.201
459.49	76.537
459.84	74.958
460.19	74.939
460.54	75.978
460.89	75.227
461.24	76.211
461.59	75.950
461.94	75.912
462.29	77.624
462.64	78.472
462.99	77.183
463.34	75.869
463.69	75.097
464.04	77.421
464.39	75.136
464.74	74.724
465.09	75.296
465.44	75.880
465.79	72.732
466.14	75.200
466.49	76.078
466.84	76.205
467.19	76.220
467.54	73.755
467.89	75.805
468.24	75.547
468.59	76.762
468.94	76.635
469.29	76.721
469.64	75.325
469.99	78.486
470.34	76.041
470.68	78.896
471.03	77.990
471.38	76.534
471.73	78.081
472.08	77.951
472.43	77.651
472.78	74.846
473.13	77.619
473.48	76.678
473.83	75.778
474.17	77.461
474.52	77.856
474.87	75.758
475.22	76.083
475.57	75.720
475.92	76.632
476.27	76.484
476.61	76.794
476.96	74.456
477.31	77.285
477.66	75.787
478.01	76.923
478.36	76.797
478.70	77.597
479.05	76.484
479.40	75.146
479.75	76.434
480.10	75.422
480.45	75.650
480.79	78.348
481.14	77.100
481.49	75.419
481.84	77.510
482.19	75.865
482.53	76.355
482.88	75.131
483.23	74.856
483.58	75.613
483.92	75.460
484.27	74.613
484.62	76.289
484.97	73.964
485.31	72.905
485.66	69.291
486.01	69.358
486.36	69.137
486.70	70.559
487.05	71.432
487.40	71.846
487.75	73.183
488.09	73.208
488.44	74.347
488.79	74.374
489.13	75.801
489.48	74.476
489.83	74.888
490.17	75.461
490.52	75.704
490.87	75.428
491.22	76.457
491.56	75.759
491.91	76.099
492.26	77.686
492.60	76.104
492.95	77.619
493.30	75.330
493.64	76.130
493.99	75.942
494.34	75.194
494.68	76.524
495.03	75.912
495.37	75.466
495.72	77.234
496.07	76.488
496.41	76.368
496.76	75.910
497.11	74.709
497.45	76.229
497.80	78.759
498.14	75.310
498.49	76.536
498.84	75.798
499.18	75.703
499.53	76.587
499.87	74.805
500.22	76.409
500.56	77.660
500.91	76.707
501.26	75.482
501.60	75.848
501.95	75.400
502.29	76.659
502.64	75.820
502.98	75.777
503.33	74.111
503.67	75.952
504.02	75.904
504.36	75.903
504.71	75.758
505.06	75.340
505.40	75.482
505.75	76.237
506.09	75.418
506.44	78.029
506.78	77.296
507.13	75.698
507.47	76.084
507.82	77.030
508.16	77.496
508.51	78.227
508.85	76.347
509.19	77.382
509.54	77.909
509.88	77.131
510.23	78.214
510.57	76.430
510.92	76.812
511.26	76.978
511.61	77.723
511.95	77.260
512.30	76.718
512.64	77.629
512.98	77.765
513.33	77.057
513.67	78.511
514.02	78.661
514.36	78.286
514.70	79.545
515.05	80.670
515.39	79.457
515.74	80.958
516.08	79.438
516.42	80.683
516.77	80.047
517.11	79.407
517.46	79.832
517.80	79.321
518.14	79.731
518.49	77.764
518.83	79.222
519.17	78.714
519.52	77.916
519.86	78.571
520.20	78.797
520.55	79.862
520.89	80.427
521.23	80.431
521.58	80.946
521.92	80.833
522.26	79.831
522.61	81.299
522.95	82.252
523.29	79.797
523.64	79.670
523.98	80.881
524.32	80.155
524.66	82.458
525.01	79.740
525.35	81.400
525.69	81.751
526.04	80.754
526.38	81.323
526.72	78.875
527.06	78.923
527.41	79.881
527.75	80.295
528.09	79.601
528.43	81.972
528.78	81.320
529.12	80.258
529.46	80.637
529.80	79.861
530.15	82.310
530.49	80.943
530.83	83.174
531.17	78.711
531.51	82.011
531.86	81.713
532.20	80.724
532.54	80.667
532.88	81.862
533.22	79.435
533.57	79.030
533.91	80.548
534.25	80.339
534.59	79.346
534.93	77.911
535.27	79.569
535.62	78.872
535.96	78.669
536.30	79.947
536.64	81.875
536.98	80.418
537.32	80.299
537.66	79.593
538.01	80.420
538.35	79.958
538.69	79.095
539.03	79.016
539.37	79.879
539.71	78.596
540.05	78.683
540.39	80.055
540.73	80.962
541.07	79.696
541.42	79.368
541.76	80.730
542.10	79.147
542.44	79.083
542.78	78.458
543.12	78.915
543.46	78.442
543.80	80.708
544.14	76.502
544.48	77.482
544.82	80.383
545.16	79.098
545.50	76.769
545.84	79.958
546.18	79.291
546.52	78.731
546.86	78.936
547.20	80.544
547.54	77.032
547.88	77.921
548.22	76.529
548.56	75.528
548.90	77.426
549.24	78.857
549.58	77.080
549.92	78.270
550.26	78.974
550.60	79.108
550.94	80.433
551.28	79.985
551.62	81.000
551.96	79.549
552.30	77.485
552.64	77.292
552.98	77.637
553.32	77.175
553.66	78.229
554.00	78.248
554.34	79.394
554.68	77.139
555.02	79.836
555.36	77.861
555.69	77.582
556.03	77.159
556.37	77.011
556.71	79.422
557.05	77.852
557.39	78.216
557.73	78.861
558.07	79.412
558.41	79.096
558.75	79.267
559.08	79.827
559.42	80.159
559.76	80.144
560.10	78.517
560.44	78.034
560.78	77.063
561.12	78.068
561.45	77.442
561.79	77.381
562.13	77.999
562.47	76.619
562.81	76.657
563.15	75.670
563.48	75.813
563.82	76.596
564.16	77.855
564.50	75.946
564.84	75.703
565.17	75.050
565.51	77.186
565.85	77.092
566.19	76.326
566.52	76.340
566.86	76.542
567.20	75.093
567.54	74.209
567.88	74.575
568.21	74.095
568.55	74.022
568.89	71.663
569.23	72.075
569.56	70.184
569.90	70.686
570.24	66.022
570.57	69.418
570.91	68.247
571.25	66.985
571.59	66.054
571.92	64.919
572.26	65.610
572.60	65.612
572.93	65.861
573.27	65.517
573.61	65.483
573.95	65.784
574.28	64.062
574.62	63.488
574.96	63.451
575.29	63.377
575.63	62.296
575.97	62.971
576.30	63.762
576.64	62.675
576.98	64.015
577.31	63.701
577.65	63.761
577.98	62.743
578.32	62.252
578.66	61.509
578.99	62.541
579.33	62.628
579.67	62.604
580.00	63.266
580.34	63.234
580.67	62.760
581.01	62.896
581.35	61.563
581.68	61.523
582.02	61.020
582.35	60.557
582.69	61.005
583.02	61.824
583.36	63.378
583.70	64.200
584.03	64.860
584.37	64.625
584.70	63.297
585.04	62.772
585.37	61.720
585.71	61.343
586.04	62.683
586.38	61.776
586.72	62.324
587.05	63.200
587.39	63.405
587.72	63.423
588.06	62.801
588.39	63.771
588.73	64.683
589.06	65.851
589.40	64.431
589.73	65.024
590.07	65.748
590.40	66.680
590.73	67.051
591.07	66.115
591.40	66.741
591.74	67.014
592.07	66.976
592.41	65.150
592.74	63.919
593.08	61.858
593.41	62.471
593.75	62.807
594.08	62.616
594.41	63.428
594.75	64.389
595.08	63.678
595.42	64.336
595.75	64.101
596.09	63.995
596.42	65.358
596.75	66.252
597.09	66.150
597.42	65.537
597.75	66.285
598.09	64.871
598.42	64.305
598.76	63.921
599.09	63.742
599.42	62.865
599.76	62.603
600.09	62.670
600.42	62.699
600.76	61.590
601.09	62.557
601.42	62.162
601.76	63.438
602.09	64.026
602.42	65.080
602.76	64.346
603.09	64.576
603.42	65.092
603.76	63.992
604.09	63.183
604.42	63.452
604.76	64.486
605.09	65.448
605.42	63.883
605.75	63.704
606.09	63.227
606.42	62.927
606.75	63.247
607.09	63.956
607.42	63.226
607.75	63.321
608.08	64.061
608.42	63.180
608.75	65.108
609.08	65.421
609.41	66.548
609.75	65.020
610.08	65.402
610.41	64.444
610.74	64.066
611.07	65.840
611.41	65.957
611.74	66.151
612.07	65.096
612.40	66.904
612.73	67.345
613.07	65.467
613.40	65.153
613.73	65.585
614.06	65.721
614.39	66.949
614.72	65.714
615.06	66.257
615.39	64.902
615.72	64.316
616.05	64.469
616.38	64.729
616.71	66.483
617.05	66.461
617.38	67.316
617.71	67.736
618.04	66.921
618.37	67.213
618.70	68.185
619.03	70.833
619.36	68.524
619.69	70.584
620.03	71.001
620.36	70.029
620.69	69.236
621.02	69.266
621.35	72.531
621.68	72.619
622.01	70.833
622.34	69.673
622.67	71.530
623.00	68.913
623.33	67.988
623.66	67.988
623.99	69.138
624.32	69.658
624.65	68.045
624.99	70.354
625.32	68.613
625.65	69.442
625.98	71.072
626.31	70.574
626.64	72.184
626.97	71.553
627.30	72.417
627.63	71.837
627.96	72.327
628.29	72.340
628.62	73.648
628.95	75.551
629.28	75.302
629.61	74.377
629.94	74.976
630.26	75.198
630.59	76.171
630.92	75.897
631.25	72.410
631.58	78.414
631.91	76.754
632.24	76.147
632.57	75.795
632.90	77.817
633.23	76.235
