SpectraSuite Data File
++++++++++++++++++++++++++++++++++++
Date: Fri May 15 21:07:20 PDT 2015
User: schluterlab
Dark Spectrum Present: Yes
Reference Spectrum Present: Yes
Number of Sampled Component Spectra: 1
Spectrometers: USB2E3373
Integration Time (usec): 3000 (USB2E3373)
Spectra Averaged: 3 (USB2E3373)
Boxcar Smoothing: 0 (USB2E3373)
Correct for Electrical Dark: No (USB2E3373)
Strobe/Lamp Enabled: No (USB2E3373)
Correct for Detector Non-linearity: No (USB2E3373)
Correct for Stray Light: No (USB2E3373)
Number of Pixels in Processed Spectrum: 2048
>>>>>Begin Processed Spectral Data<<<<<
178.53	0.000
178.91	0.000
179.29	0.000
179.67	-50.000
180.04	85.714
180.42	0.000
180.80	-1200.000
181.18	333.333
181.56	300.000
181.94	150.000
182.31	-0.000
182.69	40.000
183.07	-300.000
183.45	-60.000
183.83	250.000
184.20	63.636
184.58	188.889
184.96	100.000
185.34	166.667
185.72	-650.000
186.09	146.154
186.47	-1100.000
186.85	66.667
187.23	100.000
187.61	300.000
187.98	-366.667
188.36	0.000
188.74	66.667
189.12	35.294
189.49	0.000
189.87	0.000
190.25	28.571
190.63	150.000
191.00	-633.333
191.38	-15.789
191.76	300.000
192.14	200.000
192.51	200.000
192.89	-22.222
193.27	-100.000
193.65	350.000
194.02	163.636
194.40	10.000
194.78	-87.500
195.15	8.333
195.53	37.500
195.91	100.000
196.29	175.000
196.66	69.231
197.04	100.000
197.42	-55.556
197.79	-633.333
198.17	-100.000
198.55	1600.000
198.92	-233.333
199.30	-200.000
199.68	-100.000
200.05	33.333
200.43	0.000
200.81	-100.000
201.18	-100.000
201.56	1400.000
201.94	50.000
202.31	100.000
202.69	-220.000
203.07	75.000
203.44	-400.000
203.82	0.000
204.19	64.286
204.57	-433.333
204.95	-0.000
205.32	-80.000
205.70	-157.143
206.08	225.000
206.45	222.222
206.83	0.000
207.20	-142.857
207.58	300.000
207.96	-333.333
208.33	-250.000
208.71	-100.000
209.08	-116.667
209.46	-600.000
209.84	-80.000
210.21	-1900.000
210.59	-85.714
210.96	-50.000
211.34	-250.000
211.71	-33.333
212.09	-185.714
212.46	-2000.000
212.84	0.000
213.22	140.000
213.59	250.000
213.97	7.692
214.34	9.091
214.72	16.667
215.09	225.000
215.47	-15.385
215.84	27.273
216.22	-200.000
216.59	-25.000
216.97	50.000
217.34	-100.000
217.72	-140.000
218.09	25.000
218.47	150.000
218.84	0.000
219.22	-122.222
219.59	120.000
219.97	233.333
220.34	225.000
220.72	14.286
221.09	-150.000
221.47	-150.000
221.84	-300.000
222.22	-650.000
222.59	-27.273
222.97	108.333
223.34	-300.000
223.72	-42.857
224.09	0.000
224.46	-21.429
224.84	600.000
225.21	-20.000
225.59	26.667
225.96	-250.000
226.34	375.000
226.71	-114.286
227.08	-116.667
227.46	-37.500
227.83	-600.000
228.21	-33.333
228.58	-72.727
228.95	-187.500
229.33	160.000
229.70	-37.500
230.08	-100.000
230.45	-128.571
230.82	-14.286
231.20	0.000
231.57	-35.714
231.95	-14.286
232.32	-90.000
232.69	-14.286
233.07	-66.667
233.44	-80.000
233.81	-80.000
234.19	111.111
234.56	29.412
234.93	200.000
235.31	-25.000
235.68	-160.000
236.05	-61.538
236.43	-50.000
236.80	0.000
237.17	-12.500
237.55	-20.000
237.92	-18.519
238.29	33.333
238.67	10.000
239.04	0.000
239.41	-2.439
239.79	-13.333
240.16	9.756
240.53	-26.316
240.91	-15.217
241.28	14.286
241.65	35.714
242.02	10.959
242.40	10.000
242.77	22.034
243.14	6.061
243.51	11.250
243.89	31.034
244.26	16.092
244.63	16.667
245.00	13.402
245.38	30.928
245.75	2.247
246.12	10.345
246.49	23.140
246.87	25.962
247.24	15.966
247.61	10.526
247.98	17.886
248.36	21.875
248.73	23.684
249.10	21.429
249.47	16.456
249.84	22.876
250.22	21.765
250.59	23.529
250.96	23.944
251.33	19.767
251.70	24.706
252.08	21.320
252.45	19.307
252.82	24.121
253.19	19.355
253.56	25.234
253.94	20.721
254.31	22.174
254.68	26.316
255.05	20.472
255.42	21.834
255.79	21.622
256.16	24.903
256.54	23.507
256.91	22.053
257.28	22.305
257.65	20.974
258.02	18.085
258.39	23.232
258.76	22.344
259.14	22.259
259.51	21.359
259.88	19.588
260.25	23.856
260.62	23.264
260.99	18.305
261.36	25.000
261.73	25.633
262.10	20.365
262.47	21.472
262.85	21.317
263.22	23.385
263.59	23.676
263.96	20.497
264.33	23.030
264.70	20.536
265.07	24.702
265.44	24.929
265.81	25.706
266.18	24.590
266.55	23.650
266.92	23.316
267.29	22.454
267.66	24.552
268.03	23.037
268.40	21.410
268.77	21.658
269.14	23.261
269.51	21.851
269.88	19.701
270.25	20.408
270.62	22.439
270.99	19.693
271.36	20.538
271.73	23.005
272.10	21.898
272.47	23.404
272.84	22.525
273.21	22.738
273.58	22.892
273.95	22.883
274.32	21.016
274.69	21.041
275.06	22.098
275.43	23.810
275.80	22.517
276.17	19.770
276.54	21.199
276.91	22.807
277.28	20.524
277.65	22.314
278.02	20.851
278.39	20.569
278.76	21.593
279.13	19.502
279.50	19.748
279.87	21.598
280.23	21.505
280.60	21.637
280.97	22.020
281.34	19.808
281.71	23.203
282.08	19.632
282.45	21.331
282.82	19.884
283.19	21.857
283.56	22.351
283.92	20.873
284.29	20.192
284.66	22.481
285.03	20.629
285.40	18.904
285.77	18.278
286.14	20.578
286.51	23.063
286.87	19.744
287.24	19.705
287.61	19.577
287.98	20.351
288.35	19.411
288.72	22.067
289.08	19.618
289.45	20.387
289.82	21.329
290.19	18.430
290.56	21.269
290.93	21.212
291.29	18.028
291.66	18.268
292.03	17.065
292.40	18.871
292.77	17.544
293.13	15.747
293.50	15.023
293.87	17.252
294.24	17.929
294.60	18.033
294.97	17.857
295.34	18.558
295.71	16.393
296.08	17.339
296.44	16.216
296.81	16.389
297.18	16.957
297.55	18.564
297.91	17.534
298.28	17.810
298.65	16.011
299.02	15.633
299.38	14.364
299.75	15.310
300.12	15.445
300.48	15.283
300.85	16.857
301.22	15.974
301.59	15.132
301.95	17.342
302.32	16.602
302.69	14.925
303.05	13.366
303.42	14.819
303.79	16.005
304.15	15.173
304.52	15.577
304.89	15.439
305.25	15.617
305.62	13.186
305.99	16.257
306.35	13.757
306.72	15.073
307.09	15.393
307.45	15.729
307.82	14.699
308.19	14.634
308.55	14.831
308.92	13.834
309.29	13.966
309.65	13.778
310.02	14.191
310.38	14.490
310.75	15.082
311.12	15.285
311.48	15.376
311.85	14.869
312.22	14.557
312.58	14.650
312.95	12.700
313.31	13.768
313.68	13.927
314.05	13.367
314.41	15.361
314.78	13.299
315.14	13.566
315.51	13.975
315.87	14.242
316.24	14.358
316.61	14.567
316.97	15.179
317.34	13.965
317.70	13.098
318.07	13.846
318.43	14.020
318.80	13.258
319.16	14.746
319.53	15.480
319.89	13.287
320.26	13.968
320.62	14.744
320.99	14.196
321.35	12.230
321.72	14.538
322.08	13.696
322.45	12.487
322.81	14.342
323.18	14.033
323.54	12.259
323.91	13.924
324.27	12.402
324.64	14.607
325.00	14.142
325.37	14.876
325.73	13.055
326.10	14.623
326.46	13.274
326.83	13.473
327.19	14.124
327.56	13.988
327.92	14.525
328.29	12.589
328.65	14.811
329.01	13.971
329.38	13.364
329.74	12.653
330.11	13.068
330.47	12.059
330.84	14.712
331.20	14.544
331.56	12.963
331.93	12.877
332.29	14.482
332.66	13.122
333.02	13.290
333.38	11.732
333.75	14.011
334.11	12.444
334.48	13.327
334.84	13.278
335.20	13.449
335.57	11.786
335.93	13.008
336.29	13.628
336.66	13.261
337.02	12.268
337.38	11.204
337.75	14.000
338.11	14.518
338.47	13.869
338.84	12.384
339.20	13.346
339.56	13.670
339.93	13.071
340.29	13.670
340.65	12.276
341.02	13.830
341.38	12.920
341.74	12.456
342.11	12.045
342.47	12.278
342.83	13.495
343.20	12.631
343.56	13.304
343.92	12.400
344.28	13.322
344.65	12.694
345.01	13.483
345.37	12.279
345.73	13.975
346.10	13.546
346.46	11.606
346.82	12.111
347.19	12.219
347.55	12.281
347.91	13.430
348.27	13.339
348.63	12.521
349.00	11.567
349.36	13.217
349.72	12.852
350.08	12.131
350.45	12.530
350.81	11.379
351.17	12.215
351.53	12.898
351.89	11.974
352.26	12.480
352.62	12.823
352.98	12.530
353.34	11.836
353.70	13.188
354.07	12.581
354.43	12.650
354.79	11.065
355.15	13.492
355.51	12.342
355.87	12.379
356.24	11.501
356.60	11.641
356.96	12.698
357.32	12.859
357.68	11.493
358.04	12.359
358.40	11.656
358.77	12.201
359.13	11.849
359.49	11.479
359.85	12.090
360.21	11.404
360.57	11.400
360.93	12.179
361.29	10.952
361.66	12.461
362.02	12.500
362.38	12.034
362.74	11.734
363.10	12.114
363.46	12.157
363.82	12.923
364.18	12.472
364.54	11.985
364.90	11.828
365.26	11.863
365.62	12.847
365.98	12.317
366.35	13.110
366.71	12.269
367.07	11.684
367.43	12.293
367.79	11.661
368.15	11.630
368.51	12.090
368.87	11.271
369.23	11.480
369.59	12.245
369.95	12.170
370.31	11.344
370.67	11.866
371.03	11.128
371.39	11.160
371.75	11.282
372.11	11.555
372.47	11.391
372.83	11.852
373.19	12.197
373.55	11.408
373.91	12.239
374.27	11.269
374.63	12.060
374.99	10.709
375.35	11.281
375.71	11.608
376.07	11.306
376.42	10.952
376.78	11.074
377.14	12.119
377.50	12.085
377.86	10.977
378.22	11.487
378.58	11.410
378.94	10.838
379.30	11.416
379.66	11.223
380.02	11.159
380.38	11.442
380.74	11.011
381.09	11.902
381.45	10.520
381.81	10.857
382.17	11.421
382.53	11.368
382.89	10.358
383.25	12.072
383.61	12.012
383.97	11.175
384.32	10.882
384.68	11.331
385.04	10.723
385.40	10.330
385.76	11.761
386.12	11.643
386.48	11.494
386.83	10.590
387.19	11.783
387.55	11.355
387.91	12.042
388.27	10.928
388.62	11.076
388.98	11.479
389.34	11.868
389.70	12.368
390.06	10.950
390.42	10.946
390.77	10.464
391.13	10.971
391.49	10.867
391.85	11.176
392.20	10.923
392.56	11.189
392.92	12.155
393.28	11.203
393.64	11.532
393.99	11.473
394.35	11.069
394.71	11.494
395.07	11.188
395.42	10.808
395.78	11.205
396.14	11.538
396.50	11.795
396.85	11.977
397.21	11.341
397.57	11.160
397.92	11.204
398.28	11.667
398.64	10.663
399.00	11.512
399.35	10.327
399.71	10.511
400.07	11.548
400.42	11.138
400.78	11.268
401.14	11.434
401.49	11.554
401.85	11.335
402.21	11.928
402.57	11.875
402.92	10.602
403.28	10.902
403.63	10.845
403.99	10.459
404.35	10.681
404.70	11.786
405.06	10.635
405.42	11.436
405.77	10.110
406.13	11.292
406.49	11.072
406.84	11.797
407.20	11.620
407.55	9.659
407.91	10.160
408.27	10.771
408.62	12.062
408.98	11.645
409.34	11.276
409.69	10.853
410.05	11.207
410.40	12.099
410.76	10.796
411.11	11.688
411.47	11.374
411.83	10.609
412.18	11.776
412.54	11.361
412.89	10.406
413.25	11.191
413.60	10.683
413.96	10.798
414.31	11.463
414.67	10.840
415.03	10.985
415.38	11.358
415.74	11.336
416.09	11.169
416.45	11.074
416.80	11.038
417.16	11.119
417.51	10.859
417.87	10.952
418.22	10.946
418.58	11.037
418.93	12.351
419.29	10.115
419.64	10.888
420.00	11.839
420.35	10.985
420.71	11.422
421.06	11.725
421.42	11.358
421.77	10.578
422.12	10.783
422.48	11.532
422.83	11.195
423.19	10.948
423.54	10.758
423.90	11.249
424.25	11.194
424.61	12.118
424.96	11.614
425.31	11.265
425.67	10.857
426.02	12.073
426.38	10.833
426.73	11.380
427.09	11.582
427.44	10.941
427.79	10.843
428.15	11.286
428.50	11.266
428.85	10.995
429.21	11.262
429.56	11.590
429.92	11.351
430.27	10.927
430.62	10.664
430.98	10.616
431.33	11.094
431.68	11.303
432.04	11.571
432.39	10.610
432.74	11.245
433.10	11.667
433.45	10.872
433.80	11.143
434.16	10.526
434.51	11.559
434.86	10.685
435.22	11.049
435.57	11.104
435.92	11.377
436.28	11.449
436.63	11.295
436.98	11.182
437.34	10.950
437.69	11.628
438.04	11.396
438.39	11.240
438.75	11.111
439.10	11.149
439.45	10.956
439.81	10.826
440.16	11.461
440.51	11.701
440.86	12.145
441.22	11.425
441.57	11.369
441.92	11.333
442.27	11.585
442.63	11.991
442.98	10.913
443.33	11.185
443.68	10.981
444.03	11.376
444.39	11.510
444.74	11.761
445.09	11.637
445.44	11.966
445.79	11.294
446.15	10.958
446.50	10.649
446.85	11.849
447.20	11.314
447.55	11.496
447.91	11.393
448.26	11.440
448.61	12.032
448.96	11.532
449.31	10.694
449.66	10.918
450.02	11.865
450.37	11.440
450.72	11.111
451.07	11.835
451.42	11.548
451.77	12.598
452.12	11.543
452.47	10.689
452.83	11.013
453.18	11.701
453.53	11.568
453.88	11.840
454.23	12.047
454.58	11.839
454.93	11.534
455.28	11.746
455.63	12.461
455.98	12.087
456.34	11.622
456.69	12.198
457.04	12.413
457.39	11.968
457.74	11.245
458.09	11.360
458.44	11.235
458.79	11.989
459.14	12.815
459.49	12.597
459.84	13.029
460.19	11.408
460.54	12.469
460.89	11.989
461.24	12.547
461.59	13.302
461.94	12.013
462.29	13.450
462.64	12.957
462.99	13.270
463.34	12.656
463.69	11.519
464.04	13.317
464.39	12.917
464.74	12.209
465.09	12.539
465.44	12.522
465.79	12.585
466.14	12.486
466.49	12.248
466.84	12.255
467.19	12.829
467.54	12.005
467.89	12.508
468.24	12.530
468.59	13.397
468.94	12.635
469.29	12.721
469.64	12.509
469.99	12.263
470.34	12.560
470.68	13.497
471.03	13.447
471.38	12.839
471.73	13.095
472.08	12.958
472.43	12.886
472.78	11.652
473.13	13.537
473.48	13.029
473.83	13.263
474.17	13.795
474.52	12.763
474.87	13.273
475.22	12.386
475.57	13.382
475.92	13.330
476.27	13.620
476.61	13.542
476.96	13.330
477.31	12.980
477.66	13.202
478.01	13.419
478.36	13.181
478.70	13.322
479.05	13.626
479.40	13.143
479.75	12.930
480.10	13.210
480.45	13.800
480.79	12.790
481.14	14.037
481.49	13.054
481.84	13.031
482.19	13.003
482.53	12.854
482.88	13.413
483.23	13.100
483.58	12.736
483.92	12.730
484.27	12.762
484.62	13.043
484.97	13.308
485.31	12.536
485.66	12.225
486.01	12.218
486.36	12.369
486.70	12.468
487.05	12.598
487.40	12.461
487.75	12.028
488.09	12.886
488.44	12.517
488.79	12.813
489.13	12.821
489.48	12.912
489.83	12.511
490.17	12.944
490.52	13.164
490.87	13.420
491.22	13.324
491.56	12.903
491.91	13.050
492.26	13.272
492.60	13.196
492.95	13.625
493.30	13.141
493.64	13.016
493.99	13.140
494.34	12.864
494.68	12.381
495.03	13.041
495.37	13.494
495.72	13.680
496.07	13.415
496.41	13.160
496.76	13.542
497.11	12.436
497.45	13.842
497.80	13.169
498.14	13.363
498.49	13.255
498.84	13.373
499.18	12.651
499.53	13.442
499.87	12.451
500.22	12.809
500.56	13.011
500.91	13.554
501.26	12.654
501.60	13.232
501.95	13.197
502.29	12.785
502.64	13.610
502.98	13.024
503.33	12.296
503.67	13.301
504.02	13.783
504.36	12.914
504.71	12.778
505.06	13.437
505.40	13.147
505.75	13.454
506.09	13.127
506.44	13.552
506.78	13.622
507.13	13.547
507.47	12.585
507.82	12.874
508.16	12.995
508.51	12.487
508.85	13.344
509.19	12.720
509.54	12.064
509.88	13.323
510.23	13.072
510.57	13.736
510.92	13.060
511.26	13.257
511.61	12.816
511.95	13.918
512.30	13.027
512.64	14.079
512.98	13.363
513.33	13.710
513.67	13.530
514.02	14.188
514.36	13.657
514.70	14.452
515.05	14.512
515.39	13.872
515.74	13.653
516.08	13.987
516.42	14.429
516.77	13.692
517.11	12.997
517.46	13.645
517.80	13.230
518.14	13.472
518.49	13.882
518.83	14.216
519.17	12.796
519.52	13.203
519.86	14.046
520.20	13.183
520.55	13.321
520.89	14.304
521.23	14.313
521.58	14.196
521.92	14.103
522.26	13.663
522.61	15.000
522.95	14.371
523.29	13.151
523.64	14.676
523.98	14.193
524.32	13.660
524.66	14.341
525.01	14.740
525.35	14.323
525.69	13.266
526.04	13.690
526.38	14.786
526.72	13.800
527.06	14.786
527.41	13.984
527.75	13.070
528.09	14.551
528.43	14.247
528.78	13.531
529.12	13.742
529.46	14.815
529.80	14.503
530.15	14.917
530.49	13.872
530.83	14.227
531.17	12.559
531.51	14.979
531.86	13.664
532.20	13.987
532.54	14.500
532.88	14.648
533.22	14.113
533.57	14.089
533.91	13.251
534.25	14.583
534.59	13.085
534.93	13.468
535.27	13.706
535.62	14.712
535.96	14.351
536.30	14.116
536.64	14.955
536.98	14.146
537.32	13.940
537.66	15.428
538.01	14.406
538.35	13.592
538.69	13.915
539.03	13.397
539.37	14.468
539.71	14.383
540.05	13.510
540.39	14.543
540.73	14.156
541.07	14.641
541.42	13.978
541.76	14.797
542.10	14.315
542.44	13.690
542.78	13.489
543.12	13.255
543.46	13.700
543.80	14.018
544.14	13.952
544.48	14.124
544.82	13.807
545.16	14.276
545.50	14.286
545.84	14.164
546.18	14.255
546.52	14.203
546.86	14.234
547.20	14.449
547.54	13.640
547.88	14.674
548.22	12.886
548.56	12.929
548.90	14.151
549.24	13.154
549.58	14.104
549.92	13.653
550.26	13.187
550.60	14.275
550.94	14.040
551.28	13.369
551.62	14.308
551.96	13.759
552.30	13.450
552.64	13.188
552.98	13.361
553.32	13.980
553.66	13.280
554.00	13.358
554.34	13.589
554.68	13.422
555.02	14.211
555.36	14.211
555.69	13.114
556.03	13.276
556.37	13.452
556.71	14.007
557.05	13.572
557.39	13.755
557.73	13.793
558.07	14.178
558.41	13.859
558.75	14.497
559.08	12.924
559.42	13.175
559.76	14.011
560.10	12.691
560.44	13.105
560.78	13.287
561.12	14.245
561.45	13.703
561.79	13.725
562.13	14.265
562.47	13.309
562.81	14.409
563.15	14.669
563.48	14.074
563.82	14.413
564.16	13.510
564.50	13.581
564.84	13.855
565.17	13.615
565.51	14.139
565.85	13.649
566.19	13.793
566.52	13.673
566.86	13.689
567.20	13.761
567.54	13.990
567.88	13.943
568.21	14.762
568.55	12.500
568.89	13.450
569.23	13.577
569.56	13.222
569.90	13.033
570.24	12.616
570.57	13.018
570.91	13.663
571.25	12.595
571.59	12.862
571.92	12.919
572.26	12.591
572.60	12.713
572.93	12.614
573.27	12.288
573.61	12.589
573.95	12.835
574.28	12.579
574.62	12.611
574.96	12.565
575.29	12.317
575.63	12.387
575.97	12.117
576.30	12.932
576.64	12.848
576.98	13.153
577.31	12.657
577.65	12.683
577.98	12.764
578.32	12.534
578.66	12.293
578.99	12.845
579.33	12.391
579.67	12.642
580.00	12.785
580.34	12.761
580.67	12.512
581.01	12.632
581.35	12.834
581.68	12.635
582.02	12.736
582.35	12.498
582.69	12.622
583.02	12.433
583.36	12.988
583.70	13.058
584.03	12.927
584.37	13.467
584.70	12.720
585.04	12.150
585.37	12.727
585.71	12.738
586.04	12.532
586.38	12.670
586.72	12.798
587.05	12.940
587.39	13.307
587.72	13.368
588.06	13.119
588.39	12.988
588.73	13.126
589.06	13.633
589.40	13.273
589.73	13.436
590.07	13.595
590.40	14.048
590.73	14.003
591.07	13.868
591.40	14.025
591.74	13.484
592.07	14.332
592.41	14.046
592.74	13.660
593.08	13.378
593.41	13.674
593.75	13.510
594.08	13.457
594.41	13.428
594.75	13.244
595.08	13.810
595.42	13.728
595.75	13.406
596.09	14.425
596.42	14.138
596.75	14.210
597.09	14.169
597.42	13.686
597.75	14.659
598.09	13.626
598.42	13.403
598.76	13.814
599.09	13.982
599.42	14.324
599.76	14.221
600.09	14.178
600.42	14.253
600.76	14.116
601.09	13.969
601.42	14.493
601.76	14.133
602.09	13.944
602.42	15.417
602.76	14.813
603.09	14.327
603.42	15.176
603.76	14.355
604.09	14.459
604.42	15.271
604.76	15.220
605.09	15.219
605.42	14.718
605.75	14.842
606.09	14.820
606.42	14.679
606.75	14.329
607.09	15.473
607.42	14.444
607.75	14.165
608.08	13.971
608.42	15.030
608.75	14.795
609.08	14.798
609.41	15.127
609.75	15.071
610.08	15.227
610.41	15.121
610.74	14.773
611.07	15.039
611.41	14.997
611.74	15.832
612.07	14.454
612.40	15.646
612.73	15.367
613.07	14.904
613.40	16.247
613.73	14.102
614.06	16.027
614.39	15.736
614.72	14.790
615.06	15.196
615.39	15.557
615.72	15.231
616.05	16.145
616.38	15.043
616.71	15.474
617.05	15.256
617.38	16.028
617.71	15.660
618.04	15.873
618.37	16.330
618.70	15.380
619.03	17.153
619.36	15.123
619.69	17.210
620.03	16.289
620.36	16.452
620.69	17.059
621.02	16.437
621.35	16.680
621.68	16.412
622.01	17.750
622.34	16.600
622.67	15.615
623.00	16.233
623.33	16.082
623.66	16.230
623.99	15.961
624.32	16.958
624.65	15.338
624.99	17.306
625.32	15.921
625.65	16.732
625.98	16.680
626.31	16.293
626.64	18.718
626.97	17.277
627.30	17.075
627.63	18.198
627.96	17.161
628.29	16.281
628.62	17.502
628.95	18.136
629.28	16.935
629.61	15.952
629.94	17.302
630.26	16.897
630.59	17.690
630.92	18.462
631.25	17.949
631.58	16.850
631.91	15.351
632.24	16.972
632.57	18.182
632.90	17.912
633.23	16.941
