SpectraSuite Data File
++++++++++++++++++++++++++++++++++++
Date: Fri May 15 21:05:42 PDT 2015
User: schluterlab
Dark Spectrum Present: Yes
Reference Spectrum Present: Yes
Number of Sampled Component Spectra: 1
Spectrometers: USB2E3373
Integration Time (usec): 3000 (USB2E3373)
Spectra Averaged: 3 (USB2E3373)
Boxcar Smoothing: 0 (USB2E3373)
Correct for Electrical Dark: No (USB2E3373)
Strobe/Lamp Enabled: No (USB2E3373)
Correct for Detector Non-linearity: No (USB2E3373)
Correct for Stray Light: No (USB2E3373)
Number of Pixels in Processed Spectrum: 2048
>>>>>Begin Processed Spectral Data<<<<<
178.53	0.000
178.91	0.000
179.29	87.500
179.67	-450.000
180.04	14.286
180.42	-275.000
180.80	-1300.000
181.18	133.333
181.56	750.000
181.94	-350.000
182.31	1400.000
182.69	-140.000
183.07	-233.333
183.45	80.000
183.83	250.000
184.20	-36.364
184.58	177.778
184.96	-50.000
185.34	166.667
185.72	-200.000
186.09	84.615
186.47	-500.000
186.85	83.333
187.23	133.333
187.61	600.000
187.98	-266.667
188.36	0.000
188.74	-333.333
189.12	-17.647
189.49	61.111
189.87	0.000
190.25	-92.857
190.63	0.000
191.00	-400.000
191.38	-10.526
191.76	0.000
192.14	375.000
192.51	-100.000
192.89	-88.889
193.27	-185.714
193.65	233.333
194.02	154.545
194.40	50.000
194.78	-25.000
195.15	-116.667
195.53	-62.500
195.91	300.000
196.29	-125.000
196.66	192.308
197.04	185.714
197.42	-55.556
197.79	-233.333
198.17	-115.385
198.55	1800.000
198.92	-433.333
199.30	400.000
199.68	-140.000
200.05	33.333
200.43	0.000
200.81	-300.000
201.18	-400.000
201.56	400.000
201.94	-200.000
202.31	-100.000
202.69	-260.000
203.07	-50.000
203.44	200.000
203.82	0.000
204.19	-21.429
204.57	-433.333
204.95	162.500
205.32	20.000
205.70	-42.857
206.08	-150.000
206.45	211.111
206.83	78.571
207.20	-142.857
207.58	1300.000
207.96	-500.000
208.33	-50.000
208.71	-350.000
209.08	-16.667
209.46	-800.000
209.84	-80.000
210.21	-1800.000
210.59	-100.000
210.96	33.333
211.34	-50.000
211.71	-40.000
212.09	-171.429
212.46	-1900.000
212.84	0.000
213.22	140.000
213.59	550.000
213.97	53.846
214.34	54.545
214.72	-133.333
215.09	450.000
215.47	-38.462
215.84	-27.273
216.22	-166.667
216.59	-50.000
216.97	600.000
217.34	-250.000
217.72	-200.000
218.09	-25.000
218.47	162.500
218.84	-600.000
219.22	-77.778
219.59	-80.000
219.97	466.667
220.34	225.000
220.72	0.000
221.09	-150.000
221.47	-200.000
221.84	-150.000
222.22	-1150.000
222.59	9.091
222.97	58.333
223.34	-500.000
223.72	-14.286
224.09	0.000
224.46	-10.714
224.84	566.667
225.21	-40.000
225.59	6.667
225.96	-250.000
226.34	275.000
226.71	-57.143
227.08	-150.000
227.46	-75.000
227.83	-800.000
228.21	33.333
228.58	-27.273
228.95	-100.000
229.33	90.000
229.70	25.000
230.08	-100.000
230.45	-142.857
230.82	-14.286
231.20	-26.667
231.57	85.714
231.95	42.857
232.32	-110.000
232.69	21.429
233.07	-400.000
233.44	-160.000
233.81	-30.000
234.19	0.000
234.56	41.176
234.93	450.000
235.31	100.000
235.68	-500.000
236.05	-38.462
236.43	10.000
236.80	41.176
237.17	28.125
237.55	30.000
237.92	0.000
238.29	38.889
238.67	33.333
239.04	26.471
239.41	2.439
239.79	13.333
240.16	31.707
240.53	31.579
240.91	-2.174
241.28	20.635
241.65	25.000
242.02	32.877
242.40	36.667
242.77	37.288
243.14	27.273
243.51	37.500
243.89	35.632
244.26	24.138
244.63	27.381
245.00	30.928
245.38	35.052
245.75	30.337
246.12	37.069
246.49	43.802
246.87	34.615
247.24	21.849
247.61	29.825
247.98	26.016
248.36	31.875
248.73	36.184
249.10	34.416
249.47	32.911
249.84	26.144
250.22	37.059
250.59	33.987
250.96	36.620
251.33	31.395
251.70	33.529
252.08	38.579
252.45	37.624
252.82	36.181
253.19	37.327
253.56	29.907
253.94	38.739
254.31	36.522
254.68	38.596
255.05	40.157
255.42	39.301
255.79	40.154
256.16	40.078
256.54	36.194
256.91	39.163
257.28	37.175
257.65	35.955
258.02	34.752
258.39	40.741
258.76	42.125
259.14	40.532
259.51	34.628
259.88	36.770
260.25	38.889
260.62	41.667
260.99	37.627
261.36	38.014
261.73	38.291
262.10	40.729
262.47	35.583
262.85	37.931
263.22	41.538
263.59	42.056
263.96	41.615
264.33	40.303
264.70	40.774
265.07	38.095
265.44	42.210
265.81	40.113
266.18	42.077
266.55	38.046
266.92	37.824
267.29	38.642
267.66	38.363
268.03	44.503
268.40	38.120
268.77	40.374
269.14	39.329
269.51	42.159
269.88	36.658
270.25	41.071
270.62	36.829
270.99	37.852
271.36	35.452
271.73	38.732
272.10	40.876
272.47	37.825
272.84	39.604
273.21	39.443
273.58	35.422
273.95	37.300
274.32	35.797
274.69	38.235
275.06	37.277
275.43	39.683
275.80	39.514
276.17	39.770
276.54	36.831
276.91	33.991
277.28	38.210
277.65	39.050
278.02	37.021
278.39	36.543
278.76	36.897
279.13	35.477
279.50	39.916
279.87	37.365
280.23	35.269
280.60	37.817
280.97	37.778
281.34	39.231
281.71	40.041
282.08	35.992
282.45	36.008
282.82	37.838
283.19	38.298
283.56	36.031
283.92	34.345
284.29	38.077
284.66	37.597
285.03	38.114
285.40	32.892
285.77	36.204
286.14	36.643
286.51	38.930
286.87	34.004
287.24	35.543
287.61	34.921
287.98	34.737
288.35	33.276
288.72	35.902
289.08	32.986
289.45	35.501
289.82	36.538
290.19	31.399
290.56	33.105
290.93	32.828
291.29	32.357
291.66	31.339
292.03	33.014
292.40	33.065
292.77	31.579
293.13	31.006
293.50	31.411
293.87	29.313
294.24	30.912
294.60	29.955
294.97	29.464
295.34	29.755
295.71	31.148
296.08	30.493
296.44	27.169
296.81	27.778
297.18	30.580
297.55	29.268
297.91	27.808
298.28	28.628
298.65	26.594
299.02	30.593
299.38	27.497
299.75	26.483
300.12	27.749
300.48	25.165
300.85	25.349
301.22	27.792
301.59	27.105
301.95	27.342
302.32	28.145
302.69	26.368
303.05	25.743
303.42	26.775
303.79	27.453
304.15	26.643
304.52	24.257
304.89	25.146
305.25	24.818
305.62	22.287
305.99	24.912
306.35	24.855
306.72	24.184
307.09	24.971
307.45	24.225
307.82	24.653
308.19	27.294
308.55	23.991
308.92	27.233
309.29	26.816
309.65	24.543
310.02	25.633
310.38	24.698
310.75	25.246
311.12	24.220
311.48	24.284
311.85	24.398
312.22	22.046
312.58	23.248
312.95	24.333
313.31	23.085
313.68	23.979
314.05	23.265
314.41	25.361
314.78	24.948
315.14	24.666
315.51	25.362
315.87	23.156
316.24	24.469
316.61	23.228
316.97	25.099
317.34	24.414
317.70	24.092
318.07	24.808
318.43	24.902
318.80	22.538
319.16	23.730
319.53	25.736
319.89	23.819
320.26	24.899
320.62	24.674
320.99	23.382
321.35	24.152
321.72	24.299
322.08	24.572
322.45	24.467
322.81	23.281
323.18	23.454
323.54	22.297
323.91	23.174
324.27	24.219
324.64	24.438
325.00	24.270
325.37	25.161
325.73	21.850
326.10	24.432
326.46	25.471
326.83	23.710
327.19	24.673
327.56	24.240
327.92	24.032
328.29	24.375
328.65	24.340
329.01	23.438
329.38	22.949
329.74	22.568
330.11	22.057
330.47	22.263
330.84	22.788
331.20	24.620
331.56	22.685
331.93	23.470
332.29	23.373
332.66	23.258
333.02	21.840
333.38	21.540
333.75	24.908
334.11	22.471
334.48	23.663
334.84	23.626
335.20	22.781
335.57	21.578
335.93	24.029
336.29	24.401
336.66	22.525
337.02	22.491
337.38	22.130
337.75	22.545
338.11	22.362
338.47	23.540
338.84	22.274
339.20	22.029
339.56	22.752
339.93	21.576
340.29	22.661
340.65	23.208
341.02	22.252
341.38	22.743
341.74	21.908
342.11	21.837
342.47	21.085
342.83	22.145
343.20	21.864
343.56	22.522
343.92	21.966
344.28	22.118
344.65	22.107
345.01	21.435
345.37	21.951
345.73	23.013
346.10	23.382
346.46	23.297
346.82	21.604
347.19	21.862
347.55	21.637
347.91	21.602
348.27	22.878
348.63	23.935
349.00	20.837
349.36	22.111
349.72	21.725
350.08	21.475
350.45	21.389
350.81	20.515
351.17	21.580
351.53	21.796
351.89	21.387
352.26	22.240
352.62	22.581
352.98	21.928
353.34	21.498
353.70	22.168
354.07	21.694
354.43	21.938
354.79	21.222
355.15	22.143
355.51	20.649
355.87	21.602
356.24	21.533
356.60	22.150
356.96	22.302
357.32	21.086
357.68	20.797
358.04	21.567
358.40	21.302
358.77	21.132
359.13	20.336
359.49	19.877
359.85	21.607
360.21	20.415
360.57	20.581
360.93	20.121
361.29	19.411
361.66	20.690
362.02	22.045
362.38	21.478
362.74	20.515
363.10	21.294
363.46	20.534
363.82	21.638
364.18	20.959
364.54	19.265
364.90	20.430
365.26	21.179
365.62	21.241
365.98	21.041
366.35	22.141
366.71	20.769
367.07	20.755
367.43	20.489
367.79	21.837
368.15	20.890
368.51	20.320
368.87	19.742
369.23	18.412
369.59	20.190
369.95	20.455
370.31	20.882
370.67	19.776
371.03	20.314
371.39	19.329
371.75	20.513
372.11	20.328
372.47	20.118
372.83	20.014
373.19	20.613
373.55	18.628
373.91	20.302
374.27	20.057
374.63	19.454
374.99	19.291
375.35	20.543
375.71	20.490
376.07	19.874
376.42	20.816
376.78	19.866
377.14	20.108
377.50	20.584
377.86	19.746
378.22	19.081
378.58	19.679
378.94	19.723
379.30	19.152
379.66	19.624
380.02	19.742
380.38	18.746
380.74	19.629
381.09	20.123
381.45	19.511
381.81	19.556
382.17	19.924
382.53	19.738
382.89	19.711
383.25	19.353
383.61	20.610
383.97	19.492
384.32	19.762
384.68	19.133
385.04	19.056
385.40	19.228
385.76	20.252
386.12	19.082
386.48	19.923
386.83	20.355
387.19	19.414
387.55	20.452
387.91	18.888
388.27	19.536
388.62	20.138
388.98	19.276
389.34	19.925
389.70	20.075
390.06	18.817
390.42	18.977
390.77	18.443
391.13	19.420
391.49	19.534
391.85	19.363
392.20	19.021
392.56	18.945
392.92	19.201
393.28	18.750
393.64	19.159
393.99	19.937
394.35	19.798
394.71	19.796
395.07	19.296
395.42	19.247
395.78	19.023
396.14	18.916
396.50	18.643
396.85	20.026
397.21	19.048
397.57	19.248
397.92	18.574
398.28	19.138
398.64	18.313
399.00	19.187
399.35	18.736
399.71	18.323
400.07	19.710
400.42	18.421
400.78	20.086
401.14	18.572
401.49	19.655
401.85	19.135
402.21	19.277
402.57	19.812
402.92	17.754
403.28	18.860
403.63	18.537
403.99	19.579
404.35	19.363
404.70	18.036
405.06	18.978
405.42	18.272
405.77	18.245
406.13	18.743
406.49	18.591
406.84	18.032
407.20	18.603
407.55	18.931
407.91	18.583
408.27	18.101
408.62	19.015
408.98	18.977
409.34	18.525
409.69	18.346
410.05	18.411
410.40	18.519
410.76	18.999
411.11	18.938
411.47	19.658
411.83	17.577
412.18	18.340
412.54	18.414
412.89	18.165
413.25	19.314
413.60	18.758
413.96	18.957
414.31	18.476
414.67	19.051
415.03	18.109
415.38	18.407
415.74	19.088
416.09	19.334
416.45	18.231
416.80	18.506
417.16	19.130
417.51	19.121
417.87	18.579
418.22	19.495
418.58	18.328
418.93	19.122
419.29	17.862
419.64	19.248
420.00	19.458
420.35	19.582
420.71	19.198
421.06	18.723
421.42	18.750
421.77	19.191
422.12	18.275
422.48	18.192
422.83	19.142
423.19	18.792
423.54	18.283
423.90	17.727
424.25	18.599
424.61	19.094
424.96	18.467
425.31	19.295
425.67	18.721
426.02	18.963
426.38	18.597
426.73	19.249
427.09	18.228
427.44	19.706
427.79	18.916
428.15	18.629
428.50	18.595
428.85	18.120
429.21	18.053
429.56	19.191
429.92	18.747
430.27	19.248
430.62	18.087
430.98	19.108
431.33	18.612
431.68	18.524
432.04	19.564
432.39	18.540
432.74	17.438
433.10	18.793
433.45	17.981
433.80	18.514
434.16	18.172
434.51	19.194
434.86	19.048
435.22	18.676
435.57	18.528
435.92	18.443
436.28	17.531
436.63	19.167
436.98	17.671
437.34	18.391
437.69	18.843
438.04	18.575
438.39	17.899
438.75	17.729
439.10	18.563
439.45	19.111
439.81	19.083
440.16	19.002
440.51	19.701
440.86	19.033
441.22	19.514
441.57	19.095
441.92	19.517
442.27	18.625
442.63	19.433
442.98	19.012
443.33	17.974
443.68	18.621
444.03	18.877
444.39	19.134
444.74	19.342
445.09	18.987
445.44	19.202
445.79	19.649
446.15	19.438
446.50	18.691
446.85	19.766
447.20	18.561
447.55	19.699
447.91	19.177
448.26	19.010
448.61	19.459
448.96	19.679
449.31	19.769
449.66	18.931
450.02	18.996
450.37	18.969
450.72	18.270
451.07	19.494
451.42	19.538
451.77	19.228
452.12	19.498
452.47	18.931
452.83	19.847
453.18	18.343
453.53	19.848
453.88	19.976
454.23	19.053
454.58	19.521
454.93	20.296
455.28	19.048
455.63	19.467
455.98	20.084
456.34	19.476
456.69	19.822
457.04	20.794
457.39	19.684
457.74	18.682
458.09	18.717
458.44	19.017
458.79	18.992
459.14	20.481
459.49	19.284
459.84	19.797
460.19	18.143
460.54	19.866
460.89	19.034
461.24	20.373
461.59	19.715
461.94	19.434
462.29	19.964
462.64	19.734
462.99	19.973
463.34	18.985
463.69	18.790
464.04	19.613
464.39	19.466
464.74	19.141
465.09	19.900
465.44	19.446
465.79	19.274
466.14	20.639
466.49	19.896
466.84	19.750
467.19	20.213
467.54	19.349
467.89	19.394
468.24	19.708
468.59	20.635
468.94	19.238
469.29	20.000
469.64	20.574
469.99	19.762
470.34	17.816
470.68	20.582
471.03	20.311
471.38	20.043
471.73	20.168
472.08	19.674
472.43	19.128
472.78	19.602
473.13	19.728
473.48	19.349
473.83	20.984
474.17	18.523
474.52	20.294
474.87	19.455
475.22	19.951
475.57	19.593
475.92	19.967
476.27	20.605
476.61	19.965
476.96	19.241
477.31	19.470
477.66	19.045
478.01	19.596
478.36	19.771
478.70	20.065
479.05	19.890
479.40	20.403
479.75	19.969
480.10	19.048
480.45	20.350
480.79	20.141
481.14	20.799
481.49	19.261
481.84	19.739
482.19	19.504
482.53	19.856
482.88	20.000
483.23	19.290
483.58	18.868
483.92	20.039
484.27	19.280
484.62	19.588
484.97	19.237
485.31	19.762
485.66	19.237
486.01	19.328
486.36	19.463
486.70	19.910
487.05	19.790
487.40	19.623
487.75	19.634
488.09	18.263
488.44	18.741
488.79	18.491
489.13	19.231
489.48	19.282
489.83	19.103
490.17	19.551
490.52	19.630
490.87	19.482
491.22	19.866
491.56	19.260
491.91	19.264
492.26	20.175
492.60	19.866
492.95	20.856
493.30	20.371
493.64	20.088
493.99	19.952
494.34	19.223
494.68	19.238
495.03	18.881
495.37	19.823
495.72	20.040
496.07	19.854
496.41	19.906
496.76	18.839
497.11	19.516
497.45	19.236
497.80	19.980
498.14	19.921
498.49	19.807
498.84	19.461
499.18	19.378
499.53	20.238
499.87	18.969
500.22	19.139
500.56	20.575
500.91	19.378
501.26	19.179
501.60	19.282
501.95	20.281
502.29	20.242
502.64	19.932
502.98	19.438
503.33	18.732
503.67	19.663
504.02	19.550
504.36	20.287
504.71	19.596
505.06	19.326
505.40	20.000
505.75	20.619
506.09	19.919
506.44	19.559
506.78	19.796
507.13	19.855
507.47	19.478
507.82	19.338
508.16	19.387
508.51	19.727
508.85	19.571
509.19	19.319
509.54	19.196
509.88	19.040
510.23	19.580
510.57	19.829
510.92	19.456
511.26	19.804
511.61	19.857
511.95	19.507
512.30	19.789
512.64	20.312
512.98	19.540
513.33	20.425
513.67	20.239
514.02	21.053
514.36	19.943
514.70	20.047
515.05	20.740
515.39	19.540
515.74	20.958
516.08	20.143
516.42	20.730
516.77	19.836
517.11	19.822
517.46	19.449
517.80	20.024
518.14	19.963
518.49	19.772
518.83	20.109
519.17	19.345
519.52	20.130
519.86	19.088
520.20	20.535
520.55	19.950
520.89	20.640
521.23	19.886
521.58	20.189
521.92	20.385
522.26	19.388
522.61	20.195
522.95	20.662
523.29	20.648
523.64	19.695
523.98	19.961
524.32	19.265
524.66	20.166
525.01	20.779
525.35	19.896
525.69	18.653
526.04	19.180
526.38	20.493
526.72	19.228
527.06	19.715
527.41	20.580
527.75	19.973
528.09	20.266
528.43	20.729
528.78	20.000
529.12	19.806
529.46	19.168
529.80	19.949
530.15	20.528
530.49	20.471
530.83	19.973
531.17	20.416
531.51	20.725
531.86	20.122
532.20	19.137
532.54	20.762
532.88	20.534
533.22	21.237
533.57	19.790
533.91	18.799
534.25	20.182
534.59	19.371
534.93	19.446
535.27	19.480
535.62	19.637
535.96	19.896
536.30	20.844
536.64	20.606
536.98	18.815
537.32	20.270
537.66	20.477
538.01	19.930
538.35	20.250
538.69	20.839
539.03	19.344
539.37	19.650
539.71	20.245
540.05	20.163
540.39	20.637
540.73	20.502
541.07	19.475
541.42	21.169
541.76	21.060
542.10	19.890
542.44	20.431
542.78	17.894
543.12	19.437
543.46	20.654
543.80	20.194
544.14	18.558
544.48	19.320
544.82	20.232
545.16	20.970
545.50	19.826
545.84	19.830
546.18	19.858
546.52	19.755
546.86	19.410
547.20	20.744
547.54	19.081
547.88	19.429
548.22	19.461
548.56	19.327
548.90	20.485
549.24	19.284
549.58	19.323
549.92	19.442
550.26	20.147
550.60	19.851
550.94	19.642
551.28	20.093
551.62	19.615
551.96	20.376
552.30	20.029
552.64	19.535
552.98	20.042
553.32	20.328
553.66	19.884
554.00	19.635
554.34	20.606
554.68	19.543
555.02	20.461
555.36	19.970
555.69	18.608
556.03	19.129
556.37	19.288
556.71	20.361
557.05	19.314
557.39	19.703
557.73	20.540
558.07	20.588
558.41	19.219
558.75	18.784
559.08	19.858
559.42	20.159
559.76	19.936
560.10	19.725
560.44	19.136
560.78	19.441
561.12	19.817
561.45	21.012
561.79	19.678
562.13	20.582
562.47	20.000
562.81	20.389
563.15	20.169
563.48	19.236
563.82	20.384
564.16	20.543
564.50	18.784
564.84	19.946
565.17	20.054
565.51	20.150
565.85	20.439
566.19	20.225
566.52	19.906
566.86	20.823
567.20	20.423
567.54	20.377
567.88	19.977
568.21	20.362
568.55	19.946
568.89	19.610
569.23	20.173
569.56	19.352
569.90	20.382
570.24	19.501
570.57	19.855
570.91	20.112
571.25	19.796
571.59	19.713
571.92	18.993
572.26	19.173
572.60	19.070
572.93	19.203
573.27	19.373
573.61	19.541
573.95	19.661
574.28	19.015
574.62	19.222
574.96	19.646
575.29	19.056
575.63	18.269
575.97	18.515
576.30	18.752
576.64	18.490
576.98	19.537
577.31	18.776
577.65	19.472
577.98	19.527
578.32	19.333
578.66	18.698
578.99	19.069
579.33	18.711
579.67	19.076
580.00	18.709
580.34	19.129
580.67	18.373
581.01	19.212
581.35	19.358
581.68	19.661
582.02	19.416
582.35	19.443
582.69	19.186
583.02	19.077
583.36	19.068
583.70	19.522
584.03	18.988
584.37	19.142
584.70	19.313
585.04	19.041
585.37	18.747
585.71	19.501
586.04	18.810
586.38	18.992
586.72	19.369
587.05	19.815
587.39	19.597
587.72	20.093
588.06	19.347
588.39	18.969
588.73	19.170
589.06	19.406
589.40	19.426
589.73	19.241
590.07	19.637
590.40	19.582
590.73	19.687
591.07	19.466
591.40	19.101
591.74	19.548
592.07	20.130
592.41	20.141
592.74	19.554
593.08	19.106
593.41	19.638
593.75	19.235
594.08	19.258
594.41	19.942
594.75	19.542
595.08	19.599
595.42	19.691
595.75	19.151
596.09	19.664
596.42	19.430
596.75	19.405
597.09	19.818
597.42	19.874
597.75	19.652
598.09	19.421
598.42	19.449
598.76	19.777
599.09	19.631
599.42	18.871
599.76	19.526
600.09	19.495
600.42	19.901
600.76	19.577
601.09	19.046
601.42	19.154
601.76	19.532
602.09	18.688
602.42	19.714
602.76	19.100
603.09	20.307
603.42	20.276
603.76	19.315
604.09	18.793
604.42	19.712
604.76	20.071
605.09	19.698
605.42	19.594
605.75	19.702
606.09	19.406
606.42	19.224
606.75	19.913
607.09	20.308
607.42	19.628
607.75	19.316
608.08	18.104
608.42	19.781
608.75	20.386
609.08	18.984
609.41	19.543
609.75	19.254
610.08	19.121
610.41	20.580
610.74	19.405
611.07	19.845
611.41	19.357
611.74	20.416
612.07	18.683
612.40	19.694
612.73	19.266
613.07	19.404
613.40	20.131
613.73	19.698
614.06	19.922
614.39	19.007
614.72	19.552
615.06	19.721
615.39	18.559
615.72	19.214
616.05	20.447
616.38	19.031
616.71	19.388
617.05	20.259
617.38	18.730
617.71	19.623
618.04	19.873
618.37	20.177
618.70	20.990
619.03	20.069
619.36	18.090
619.69	20.394
620.03	20.161
620.36	19.957
620.69	19.843
621.02	20.566
621.35	20.332
621.68	20.748
622.01	19.667
622.34	20.591
622.67	20.189
623.00	20.674
623.33	20.579
623.66	20.120
623.99	20.197
624.32	20.989
624.65	20.150
624.99	19.865
625.32	19.939
625.65	20.738
625.98	19.823
626.31	19.867
626.64	20.364
626.97	19.110
627.30	19.264
627.63	20.884
627.96	20.126
628.29	20.907
628.62	20.059
628.95	20.641
629.28	19.456
629.61	21.336
629.94	20.919
630.26	20.553
630.59	20.291
630.92	19.282
631.25	20.103
631.58	19.824
631.91	18.750
632.24	19.610
632.57	21.364
632.90	18.861
