SpectraSuite Data File
++++++++++++++++++++++++++++++++++++
Date: Fri May 15 20:51:39 PDT 2015
User: schluterlab
Dark Spectrum Present: Yes
Reference Spectrum Present: Yes
Number of Sampled Component Spectra: 1
Spectrometers: USB2E3373
Integration Time (usec): 3000 (USB2E3373)
Spectra Averaged: 3 (USB2E3373)
Boxcar Smoothing: 0 (USB2E3373)
Correct for Electrical Dark: No (USB2E3373)
Strobe/Lamp Enabled: No (USB2E3373)
Correct for Detector Non-linearity: No (USB2E3373)
Correct for Stray Light: No (USB2E3373)
Number of Pixels in Processed Spectrum: 2048
>>>>>Begin Processed Spectral Data<<<<<
178.53	0.000
178.91	0.000
179.29	62.500
179.67	-400.000
180.04	-71.429
180.42	-75.000
180.80	-800.000
181.18	200.000
181.56	500.000
181.94	-200.000
182.31	1100.000
182.69	-160.000
183.07	-533.333
183.45	-220.000
183.83	166.667
184.20	-72.727
184.58	77.778
184.96	-100.000
185.34	-366.667
185.72	-500.000
186.09	138.462
186.47	-700.000
186.85	166.667
187.23	144.444
187.61	-0.000
187.98	-666.667
188.36	-66.667
188.74	-266.667
189.12	11.765
189.49	27.778
189.87	0.000
190.25	64.286
190.63	350.000
191.00	-133.333
191.38	21.053
191.76	250.000
192.14	25.000
192.51	300.000
192.89	-44.444
193.27	-42.857
193.65	283.333
194.02	172.727
194.40	-60.000
194.78	-112.500
195.15	-25.000
195.53	-12.500
195.91	100.000
196.29	-225.000
196.66	100.000
197.04	171.429
197.42	-77.778
197.79	-433.333
198.17	-92.308
198.55	1800.000
198.92	-433.333
199.30	-800.000
199.68	-40.000
200.05	66.667
200.43	0.000
200.81	-166.667
201.18	0.000
201.56	1400.000
201.94	-550.000
202.31	66.667
202.69	-240.000
203.07	200.000
203.44	100.000
203.82	0.000
204.19	7.143
204.57	-333.333
204.95	12.500
205.32	10.000
205.70	-57.143
206.08	-100.000
206.45	244.444
206.83	64.286
207.20	-157.143
207.58	600.000
207.96	-266.667
208.33	-60.000
208.71	-75.000
209.08	-133.333
209.46	100.000
209.84	-140.000
210.21	-1200.000
210.59	100.000
210.96	-83.333
211.34	-325.000
211.71	6.667
212.09	-28.571
212.46	-1100.000
212.84	0.000
213.22	-30.000
213.59	500.000
213.97	30.769
214.34	-36.364
214.72	-133.333
215.09	175.000
215.47	-46.154
215.84	0.000
216.22	-466.667
216.59	-125.000
216.97	50.000
217.34	50.000
217.72	-200.000
218.09	-37.500
218.47	-12.500
218.84	-300.000
219.22	-11.111
219.59	-240.000
219.97	133.333
220.34	250.000
220.72	57.143
221.09	-50.000
221.47	200.000
221.84	-850.000
222.22	-450.000
222.59	45.455
222.97	0.000
223.34	-300.000
223.72	-28.571
224.09	28.571
224.46	-14.286
224.84	233.333
225.21	0.000
225.59	0.000
225.96	0.000
226.34	400.000
226.71	14.286
227.08	-166.667
227.46	-75.000
227.83	-300.000
228.21	11.111
228.58	-63.636
228.95	-37.500
229.33	210.000
229.70	-12.500
230.08	-187.500
230.45	-142.857
230.82	0.000
231.20	-20.000
231.57	42.857
231.95	14.286
232.32	40.000
232.69	0.000
233.07	0.000
233.44	-100.000
233.81	-160.000
234.19	-66.667
234.56	-5.882
234.93	350.000
235.31	250.000
235.68	-280.000
236.05	-30.769
236.43	-25.000
236.80	5.882
237.17	21.875
237.55	25.000
237.92	-3.704
238.29	50.000
238.67	36.667
239.04	20.588
239.41	-12.195
239.79	0.000
240.16	21.951
240.53	5.263
240.91	-2.174
241.28	26.984
241.65	28.571
242.02	30.137
242.40	15.000
242.77	28.814
243.14	36.364
243.51	30.000
243.89	45.977
244.26	24.138
244.63	25.000
245.00	23.711
245.38	27.835
245.75	21.348
246.12	22.414
246.49	17.355
246.87	25.962
247.24	21.008
247.61	20.175
247.98	20.325
248.36	28.750
248.73	28.289
249.10	28.571
249.47	22.152
249.84	36.601
250.22	22.353
250.59	25.490
250.96	25.822
251.33	27.907
251.70	28.824
252.08	26.904
252.45	27.228
252.82	29.648
253.19	27.650
253.56	22.430
253.94	26.577
254.31	31.739
254.68	29.386
255.05	24.016
255.42	27.948
255.79	33.977
256.16	28.405
256.54	26.493
256.91	23.954
257.28	26.022
257.65	30.337
258.02	29.078
258.39	33.333
258.76	29.670
259.14	28.239
259.51	22.977
259.88	29.553
260.25	29.739
260.62	28.819
260.99	26.780
261.36	26.027
261.73	30.380
262.10	31.915
262.47	28.528
262.85	28.840
263.22	26.769
263.59	29.595
263.96	31.056
264.33	26.970
264.70	28.869
265.07	29.464
265.44	29.178
265.81	27.966
266.18	28.962
266.55	29.820
266.92	29.793
267.29	32.376
267.66	30.179
268.03	30.890
268.40	30.548
268.77	33.422
269.14	27.338
269.51	26.992
269.88	27.182
270.25	25.765
270.62	26.098
270.99	26.598
271.36	25.917
271.73	30.047
272.10	28.467
272.47	26.714
272.84	27.228
273.21	30.394
273.58	30.361
273.95	28.375
274.32	27.714
274.69	27.376
275.06	30.134
275.43	26.757
275.80	30.022
276.17	28.736
276.54	26.552
276.91	29.167
277.28	27.729
277.65	28.719
278.02	29.149
278.39	24.289
278.76	26.415
279.13	26.971
279.50	30.252
279.87	26.782
280.23	24.731
280.60	27.875
280.97	28.485
281.34	25.385
281.71	30.390
282.08	27.198
282.45	26.614
282.82	26.834
283.19	27.273
283.56	26.975
283.92	25.996
284.29	26.731
284.66	24.806
285.03	25.540
285.40	26.087
285.77	25.483
286.14	25.451
286.51	30.074
286.87	23.949
287.24	25.414
287.61	26.279
287.98	26.842
288.35	25.477
288.72	24.869
289.08	25.174
289.45	25.659
289.82	25.000
290.19	25.768
290.56	23.842
290.93	23.064
291.29	24.345
291.66	23.622
292.03	23.285
292.40	25.000
292.77	21.053
293.13	21.429
293.50	21.851
293.87	24.122
294.24	23.184
294.60	21.759
294.97	23.214
295.34	20.399
295.71	22.206
296.08	20.927
296.44	21.479
296.81	20.556
297.18	21.014
297.55	22.493
297.91	19.863
298.28	20.580
298.65	20.081
299.02	18.598
299.38	17.784
299.75	20.414
300.12	18.063
300.48	18.182
300.85	20.913
301.22	19.481
301.59	18.158
301.95	19.494
302.32	20.233
302.69	18.781
303.05	19.307
303.42	18.306
303.79	20.678
304.15	19.116
304.52	17.717
304.89	19.298
305.25	18.523
305.62	17.503
305.99	18.947
306.35	19.884
306.72	18.335
307.09	19.498
307.45	19.518
307.82	19.097
308.19	19.396
308.55	18.757
308.92	18.410
309.29	18.883
309.65	18.622
310.02	17.712
310.38	18.441
310.75	18.798
311.12	19.053
311.48	18.876
311.85	18.534
312.22	18.565
312.58	19.321
312.95	19.104
313.31	19.151
313.68	20.314
314.05	18.571
314.41	20.309
314.78	20.722
315.14	22.302
315.51	21.118
315.87	20.594
316.24	22.346
316.61	22.343
316.97	22.123
317.34	21.875
317.70	21.702
318.07	22.115
318.43	24.118
318.80	23.958
319.16	23.828
319.53	26.211
319.89	24.803
320.26	25.000
320.62	27.482
320.99	26.200
321.35	26.927
321.72	27.103
322.08	28.097
322.45	28.223
322.81	27.308
323.18	27.576
323.54	28.185
323.91	27.751
324.27	28.809
324.64	29.494
325.00	29.836
325.37	31.221
325.73	29.737
326.10	31.698
326.46	32.556
326.83	31.671
327.19	31.735
327.56	32.754
327.92	33.275
328.29	34.464
328.65	32.358
329.01	33.915
329.38	34.194
329.74	33.428
330.11	33.828
330.47	34.045
330.84	34.904
331.20	36.027
331.56	32.963
331.93	35.434
332.29	34.739
332.66	35.656
333.02	33.922
333.38	34.097
333.75	36.355
334.11	33.751
334.48	35.267
334.84	35.440
335.20	34.309
335.57	35.086
335.93	35.682
336.29	36.280
336.66	34.787
337.02	34.387
337.38	34.444
337.75	36.727
338.11	34.355
338.47	35.766
338.84	34.750
339.20	35.466
339.56	34.954
339.93	35.094
340.29	35.138
340.65	34.767
341.02	35.816
341.38	34.248
341.74	33.481
342.11	33.189
342.47	33.363
342.83	34.602
343.20	34.233
343.56	35.391
343.92	35.252
344.28	35.098
344.65	32.642
345.01	34.140
345.37	34.062
345.73	34.310
346.10	34.513
346.46	33.726
346.82	34.370
347.19	34.248
347.55	34.169
347.91	34.951
348.27	33.711
348.63	34.923
349.00	34.126
349.36	34.331
349.72	35.075
350.08	34.098
350.45	32.961
350.81	33.223
351.17	31.840
351.53	34.204
351.89	32.865
352.26	33.040
352.62	34.113
352.98	32.851
353.34	31.562
353.70	34.385
354.07	33.306
354.43	33.066
354.79	33.443
355.15	33.492
355.51	34.335
355.87	33.010
356.24	31.321
356.60	32.336
356.96	33.175
357.32	33.466
357.68	32.682
358.04	31.987
358.40	32.717
358.77	33.413
359.13	33.867
359.49	33.128
359.85	32.683
360.21	33.014
360.57	32.594
360.93	31.997
361.29	31.420
361.66	32.210
362.02	33.106
362.38	33.663
362.74	34.292
363.10	33.333
363.46	32.691
363.82	33.283
364.18	31.808
364.54	32.059
364.90	33.047
365.26	33.552
365.62	33.796
365.98	32.625
366.35	34.304
366.71	33.555
367.07	33.454
367.43	32.782
367.79	33.428
368.15	33.597
368.51	32.411
368.87	32.663
369.23	31.841
369.59	32.653
369.95	33.358
370.31	33.237
370.67	32.761
371.03	32.562
371.39	33.042
371.75	32.234
372.11	33.738
372.47	34.024
372.83	33.570
373.19	33.381
373.55	33.502
373.91	32.613
374.27	33.664
374.63	34.458
374.99	32.199
375.35	33.078
375.71	34.126
376.07	33.216
376.42	33.741
376.78	34.765
377.14	33.243
377.50	34.329
377.86	33.066
378.22	33.759
378.58	34.487
378.94	33.585
379.30	33.999
379.66	34.859
380.02	33.415
380.38	33.171
380.74	33.573
381.09	35.092
381.45	34.190
381.81	33.313
382.17	34.518
382.53	34.853
382.89	35.279
383.25	34.039
383.61	34.939
383.97	33.587
384.32	34.021
384.68	32.446
385.04	34.314
385.40	34.039
385.76	35.912
386.12	35.317
386.48	34.227
386.83	34.115
387.19	35.226
387.55	35.257
387.91	33.924
388.27	33.150
388.62	34.487
388.98	33.886
389.34	34.104
389.70	34.804
390.06	34.361
390.42	34.585
390.77	34.205
391.13	33.985
391.49	34.929
391.85	33.463
392.20	34.840
392.56	34.393
392.92	34.821
393.28	35.613
393.64	34.414
393.99	35.611
394.35	35.294
394.71	34.802
395.07	34.507
395.42	34.730
395.78	35.309
396.14	34.048
396.50	35.257
396.85	35.029
397.21	35.589
397.57	34.671
397.92	35.351
398.28	35.115
398.64	34.157
399.00	35.214
399.35	32.844
399.71	34.233
400.07	35.248
400.42	34.639
400.78	34.966
401.14	33.696
401.49	34.306
401.85	34.857
402.21	34.699
402.57	34.312
402.92	35.006
403.28	34.398
403.63	33.796
403.99	34.184
404.35	34.916
404.70	33.810
405.06	33.901
405.42	34.307
405.77	34.747
406.13	33.411
406.49	34.044
406.84	34.658
407.20	34.738
407.55	34.192
407.91	33.690
408.27	34.608
408.62	33.969
408.98	34.319
409.34	33.953
409.69	32.235
410.05	32.759
410.40	33.765
410.76	34.560
411.11	33.750
411.47	33.794
411.83	33.522
412.18	34.106
412.54	33.708
412.89	33.313
413.25	33.935
413.60	33.416
413.96	33.742
414.31	33.476
414.67	32.906
415.03	32.956
415.38	33.551
415.74	34.007
416.09	33.246
416.45	34.841
416.80	32.650
417.16	34.116
417.51	33.511
417.87	32.920
418.22	33.614
418.58	33.445
418.93	33.981
419.29	32.522
419.64	33.182
420.00	35.390
420.35	33.672
420.71	33.900
421.06	33.702
421.42	32.873
421.77	33.757
422.12	32.917
422.48	32.485
422.83	33.121
423.19	32.844
423.54	33.804
423.90	32.155
424.25	32.377
424.61	33.231
424.96	32.520
425.31	33.218
425.67	33.392
426.02	32.803
426.38	32.812
426.73	32.930
427.09	33.797
427.44	32.765
427.79	32.823
428.15	33.374
428.50	32.344
428.85	32.985
429.21	33.220
429.56	33.369
429.92	32.152
430.27	32.581
430.62	31.887
430.98	32.166
431.33	32.755
431.68	32.862
432.04	32.309
432.39	32.516
432.74	32.231
433.10	32.471
433.45	31.959
433.80	33.198
434.16	32.687
434.51	32.043
434.86	33.159
435.22	33.483
435.57	32.439
435.92	32.096
436.28	32.021
436.63	32.402
436.98	32.966
437.34	31.639
437.69	33.095
438.04	32.137
438.39	32.560
438.75	32.362
439.10	32.088
439.45	33.049
439.81	32.599
440.16	32.007
440.51	32.836
440.86	34.260
441.22	32.240
441.57	32.230
441.92	33.054
442.27	33.149
442.63	33.084
442.98	32.567
443.33	30.718
443.68	33.210
444.03	32.688
444.39	32.415
444.74	32.720
445.09	32.628
445.44	32.707
445.79	32.800
446.15	31.057
446.50	31.836
446.85	32.200
447.20	32.690
447.55	31.920
447.91	31.867
448.26	32.214
448.61	31.952
448.96	32.874
449.31	32.601
449.66	32.636
450.02	32.744
450.37	31.357
450.72	31.157
451.07	32.975
451.42	31.024
451.77	31.766
452.12	30.921
452.47	31.487
452.83	31.802
453.18	31.499
453.53	31.795
453.88	32.605
454.23	31.961
454.58	31.990
454.93	31.508
455.28	30.349
455.63	31.618
455.98	31.509
456.34	31.673
456.69	32.973
457.04	32.262
457.39	32.139
457.74	31.499
458.09	30.959
458.44	31.480
458.79	31.541
459.14	31.579
459.49	31.463
459.84	31.698
460.19	31.129
460.54	31.479
460.89	31.534
461.24	32.671
461.59	31.770
461.94	31.509
462.29	30.881
462.64	31.561
462.99	31.347
463.34	31.085
463.69	31.403
464.04	30.872
464.39	30.928
464.74	31.288
465.09	30.880
465.44	30.756
465.79	30.215
466.14	30.844
466.49	30.477
466.84	30.220
467.19	30.851
467.54	30.268
467.89	30.512
468.24	30.535
468.59	30.730
468.94	29.524
469.29	30.557
469.64	30.212
469.99	31.114
470.34	29.761
470.68	31.096
471.03	30.786
471.38	31.027
471.73	30.812
472.08	29.240
472.43	30.067
472.78	30.158
473.13	30.680
473.48	30.293
473.83	29.452
474.17	30.505
474.52	29.866
474.87	30.364
475.22	29.591
475.57	29.927
475.92	30.170
476.27	30.733
476.61	29.977
476.96	28.890
477.31	30.557
477.66	29.944
478.01	29.478
478.36	30.447
478.70	29.636
479.05	30.275
479.40	29.359
479.75	29.041
480.10	29.391
480.45	29.000
480.79	30.161
481.14	29.303
481.49	29.754
481.84	29.295
482.19	29.326
482.53	29.209
482.88	29.165
483.23	28.455
483.58	28.302
483.92	27.686
484.27	27.758
484.62	28.104
484.97	28.773
485.31	27.962
485.66	27.781
486.01	28.560
486.36	28.376
486.70	28.252
487.05	28.211
487.40	28.645
487.75	27.324
488.09	26.916
488.44	27.338
488.79	27.718
489.13	28.125
489.48	27.148
489.83	27.758
490.17	28.315
490.52	27.621
490.87	27.395
491.22	28.176
491.56	28.226
491.91	28.059
492.26	27.807
492.60	27.927
492.95	28.087
493.30	28.090
493.64	27.800
493.99	27.295
494.34	27.233
494.68	27.762
495.03	26.667
495.37	27.429
495.72	27.764
496.07	26.829
496.41	27.877
496.76	27.499
497.11	27.201
497.45	27.685
497.80	28.052
498.14	26.428
498.49	27.019
498.84	27.196
499.18	26.807
499.53	26.091
499.87	26.265
500.22	27.646
500.56	27.685
500.91	26.506
501.26	26.742
501.60	27.152
501.95	27.608
502.29	27.458
502.64	26.931
502.98	27.035
503.33	25.793
503.67	26.265
504.02	26.393
504.36	26.076
504.71	26.667
505.06	26.724
505.40	26.599
505.75	27.268
506.09	26.660
506.44	27.156
506.78	26.276
507.13	26.577
507.47	25.953
507.82	26.229
508.16	26.307
508.51	26.233
508.85	25.693
509.19	26.237
509.54	26.059
509.88	25.566
510.23	25.229
510.57	26.296
510.92	25.000
511.26	25.859
511.61	25.138
511.95	26.301
512.30	25.554
512.64	26.043
512.98	24.818
513.33	26.133
513.67	25.412
514.02	26.030
514.36	26.800
514.70	26.573
515.05	27.027
515.39	25.620
515.74	26.287
516.08	26.181
516.42	26.031
516.77	26.507
517.11	26.884
517.46	26.810
517.80	25.089
518.14	25.720
518.49	25.240
518.83	25.577
519.17	25.652
519.52	25.400
519.86	25.090
520.20	25.820
520.55	24.953
520.89	26.349
521.23	25.332
521.58	25.615
521.92	25.449
522.26	24.789
522.61	25.000
522.95	26.159
523.29	25.222
523.64	26.112
523.98	25.016
524.32	24.356
524.66	25.352
525.01	25.390
525.35	26.572
525.69	24.310
526.04	23.677
526.38	26.005
526.72	23.937
527.06	24.838
527.41	25.726
527.75	25.000
528.09	24.850
528.43	25.523
528.78	25.479
529.12	25.355
529.46	24.691
529.80	24.636
530.15	24.950
530.49	23.973
530.83	23.666
531.17	25.252
531.51	26.197
531.86	24.337
532.20	24.774
532.54	23.962
532.88	24.778
533.22	24.328
533.57	23.984
533.91	24.282
534.25	25.846
534.59	24.182
534.93	23.726
535.27	23.414
535.62	24.238
535.96	25.049
536.30	24.077
536.64	24.328
536.98	24.948
537.32	25.249
537.66	24.755
538.01	25.734
538.35	24.202
538.69	24.101
539.03	23.172
539.37	24.764
539.71	23.995
540.05	24.304
540.39	23.753
540.73	23.989
541.07	24.517
541.42	23.858
541.76	25.189
542.10	24.019
542.44	24.183
542.78	22.092
543.12	23.558
543.46	23.366
543.80	24.427
544.14	21.963
544.48	23.251
544.82	23.992
545.16	24.454
545.50	23.498
545.84	24.504
546.18	24.113
546.52	24.658
546.86	23.005
547.20	23.677
547.54	23.110
547.88	24.185
548.22	22.485
548.56	23.021
548.90	23.383
549.24	23.140
549.58	23.484
549.92	23.159
550.26	23.736
550.60	23.271
550.94	23.002
551.28	24.189
551.62	22.077
551.96	23.684
552.30	23.173
552.64	22.708
552.98	22.996
553.32	22.468
553.66	23.440
554.00	23.577
554.34	23.338
554.68	22.419
555.02	22.842
555.36	22.663
555.69	22.125
556.03	22.912
556.37	22.562
556.71	22.816
557.05	22.446
557.39	22.677
557.73	22.639
558.07	23.077
558.41	22.894
558.75	22.993
559.08	22.380
559.42	22.222
559.76	22.978
560.10	21.483
560.44	22.487
560.78	23.077
561.12	23.131
561.45	23.190
561.79	22.759
562.13	22.995
562.47	22.302
562.81	22.622
563.15	22.708
563.48	22.914
563.82	22.787
564.16	22.493
564.50	21.689
564.84	22.088
565.17	22.535
565.51	23.087
565.85	21.948
566.19	22.149
566.52	22.587
566.86	23.008
567.20	21.793
567.54	23.114
567.88	22.378
568.21	22.681
568.55	22.011
568.89	22.998
569.23	22.484
569.56	22.023
569.90	23.021
570.24	22.069
570.57	22.582
570.91	22.517
571.25	21.769
571.59	21.987
571.92	21.274
572.26	21.286
572.60	21.488
572.93	21.086
573.27	21.348
573.61	21.599
573.95	21.846
574.28	21.398
574.62	21.332
574.96	21.616
575.29	21.580
575.63	20.757
575.97	20.927
576.30	21.310
576.64	20.795
576.98	21.905
577.31	21.111
577.65	21.972
577.98	21.196
578.32	21.481
578.66	20.589
578.99	20.894
579.33	20.709
579.67	20.767
580.00	20.759
580.34	21.194
580.67	20.796
581.01	20.821
581.35	21.016
581.68	21.197
582.02	21.380
582.35	20.966
582.69	21.075
583.02	20.508
583.36	20.156
583.70	20.535
584.03	20.851
584.37	20.723
584.70	20.467
585.04	20.440
585.37	20.541
585.71	20.760
586.04	20.701
586.38	20.405
586.72	20.775
587.05	21.404
587.39	20.828
587.72	20.667
588.06	20.703
588.39	20.735
588.73	20.726
589.06	21.070
589.40	20.256
589.73	21.030
590.07	20.657
590.40	20.820
590.73	21.746
591.07	20.696
591.40	20.258
591.74	21.674
592.07	21.382
592.41	21.422
592.74	20.789
593.08	20.014
593.41	20.857
593.75	20.445
594.08	20.426
594.41	20.269
594.75	20.267
595.08	20.507
595.42	20.721
595.75	20.766
596.09	20.446
596.42	19.678
596.75	20.915
597.09	19.772
597.42	20.235
597.75	20.705
598.09	19.602
598.42	19.630
598.76	20.077
599.09	20.232
599.42	20.197
599.76	20.504
600.09	20.664
600.42	20.394
600.76	20.319
601.09	19.389
601.42	19.663
601.76	19.333
602.09	19.802
602.42	20.008
602.76	19.992
603.09	20.847
603.42	21.321
603.76	19.919
604.09	19.401
604.42	20.262
604.76	20.783
605.09	20.201
605.42	20.903
605.75	19.702
606.09	19.873
606.42	20.058
606.75	20.649
607.09	19.868
607.42	19.273
607.75	20.160
608.08	19.317
608.42	19.826
608.75	20.145
609.08	19.731
609.41	19.848
609.75	19.859
610.08	20.869
610.41	20.048
610.74	20.088
611.07	20.310
611.41	19.979
611.74	19.829
612.07	19.914
612.40	20.350
612.73	20.565
613.07	19.798
613.40	20.186
613.73	20.034
614.06	20.367
614.39	19.910
614.72	19.720
615.06	20.782
615.39	19.869
615.72	19.806
616.05	19.609
616.38	19.373
616.71	20.000
617.05	19.642
617.38	19.987
617.71	20.063
618.04	20.762
618.37	20.492
618.70	20.594
619.03	20.486
619.36	19.175
619.69	19.939
620.03	20.234
620.36	20.243
620.69	19.772
621.02	20.183
621.35	20.249
621.68	19.728
622.01	21.333
622.34	19.792
622.67	21.136
623.00	20.444
623.33	19.893
623.66	19.073
623.99	19.213
624.32	21.369
624.65	19.850
624.99	19.789
625.32	20.773
625.65	21.210
625.98	20.064
626.31	19.618
626.64	19.237
626.97	20.419
627.30	19.615
627.63	20.191
627.96	19.587
628.29	19.981
628.62	19.666
628.95	20.641
629.28	20.262
629.61	19.342
629.94	20.332
630.26	19.862
630.59	20.708
630.92	21.231
631.25	18.769
631.58	20.485
631.91	19.298
632.24	19.495
632.57	19.773
632.90	20.166
633.23	18.706
