SpectraSuite Data File
++++++++++++++++++++++++++++++++++++
Date: Fri May 15 21:05:52 PDT 2015
User: schluterlab
Dark Spectrum Present: Yes
Reference Spectrum Present: Yes
Number of Sampled Component Spectra: 1
Spectrometers: USB2E3373
Integration Time (usec): 3000 (USB2E3373)
Spectra Averaged: 3 (USB2E3373)
Boxcar Smoothing: 0 (USB2E3373)
Correct for Electrical Dark: No (USB2E3373)
Strobe/Lamp Enabled: No (USB2E3373)
Correct for Detector Non-linearity: No (USB2E3373)
Correct for Stray Light: No (USB2E3373)
Number of Pixels in Processed Spectrum: 2048
>>>>>Begin Processed Spectral Data<<<<<
178.53	0.000
178.91	0.000
179.29	-37.500
179.67	-500.000
180.04	85.714
180.42	-150.000
180.80	-900.000
181.18	100.000
181.56	250.000
181.94	-250.000
182.31	1400.000
182.69	-80.000
183.07	-400.000
183.45	80.000
183.83	150.000
184.20	-127.273
184.58	55.556
184.96	-0.000
185.34	100.000
185.72	-250.000
186.09	153.846
186.47	-1000.000
186.85	166.667
187.23	77.778
187.61	500.000
187.98	-466.667
188.36	-22.222
188.74	-133.333
189.12	-35.294
189.49	11.111
189.87	0.000
190.25	42.857
190.63	-100.000
191.00	-266.667
191.38	-5.263
191.76	50.000
192.14	100.000
192.51	0.000
192.89	-133.333
193.27	-100.000
193.65	233.333
194.02	154.545
194.40	10.000
194.78	-212.500
195.15	-100.000
195.53	-137.500
195.91	475.000
196.29	50.000
196.66	161.538
197.04	300.000
197.42	-33.333
197.79	-400.000
198.17	-146.154
198.55	1600.000
198.92	-566.667
199.30	-800.000
199.68	-80.000
200.05	233.333
200.43	0.000
200.81	-100.000
201.18	-200.000
201.56	900.000
201.94	-550.000
202.31	100.000
202.69	-220.000
203.07	275.000
203.44	0.000
203.82	0.000
204.19	21.429
204.57	-366.667
204.95	187.500
205.32	0.000
205.70	-128.571
206.08	-125.000
206.45	166.667
206.83	57.143
207.20	-142.857
207.58	1100.000
207.96	-433.333
208.33	-130.000
208.71	-275.000
209.08	-83.333
209.46	-1000.000
209.84	-120.000
210.21	-900.000
210.59	-57.143
210.96	-33.333
211.34	-275.000
211.71	26.667
212.09	-242.857
212.46	-1300.000
212.84	0.000
213.22	30.000
213.59	850.000
213.97	30.769
214.34	27.273
214.72	16.667
215.09	300.000
215.47	-30.769
215.84	-45.455
216.22	-600.000
216.59	-125.000
216.97	-250.000
217.34	-175.000
217.72	-300.000
218.09	-25.000
218.47	175.000
218.84	100.000
219.22	33.333
219.59	-160.000
219.97	366.667
220.34	250.000
220.72	-28.571
221.09	-150.000
221.47	-350.000
221.84	-900.000
222.22	-850.000
222.59	-36.364
222.97	-50.000
223.34	-200.000
223.72	7.143
224.09	47.619
224.46	17.857
224.84	600.000
225.21	-110.000
225.59	0.000
225.96	-150.000
226.34	200.000
226.71	-171.429
227.08	-66.667
227.46	112.500
227.83	-500.000
228.21	-33.333
228.58	27.273
228.95	-25.000
229.33	90.000
229.70	6.250
230.08	-12.500
230.45	-57.143
230.82	-228.571
231.20	-46.667
231.57	-14.286
231.95	-57.143
232.32	-100.000
232.69	-21.429
233.07	-266.667
233.44	-40.000
233.81	-160.000
234.19	88.889
234.56	-82.353
234.93	350.000
235.31	-100.000
235.68	-140.000
236.05	-84.615
236.43	-25.000
236.80	-23.529
237.17	-15.625
237.55	-40.000
237.92	-18.519
238.29	-2.778
238.67	-10.000
239.04	5.882
239.41	-17.073
239.79	-43.333
240.16	14.634
240.53	0.000
240.91	-13.043
241.28	9.524
241.65	7.143
242.02	13.699
242.40	10.000
242.77	20.339
243.14	-6.061
243.51	17.500
243.89	21.839
244.26	12.644
244.63	14.286
245.00	19.588
245.38	20.619
245.75	5.618
246.12	12.931
246.49	13.223
246.87	12.500
247.24	15.126
247.61	-1.754
247.98	11.382
248.36	15.000
248.73	13.158
249.10	15.584
249.47	13.291
249.84	9.804
250.22	18.824
250.59	10.458
250.96	23.005
251.33	15.116
251.70	17.059
252.08	21.827
252.45	18.317
252.82	15.075
253.19	18.894
253.56	15.888
253.94	18.468
254.31	20.000
254.68	22.368
255.05	16.535
255.42	17.031
255.79	21.622
256.16	17.899
256.54	16.791
256.91	11.787
257.28	16.729
257.65	15.356
258.02	16.312
258.39	14.478
258.76	16.484
259.14	20.598
259.51	18.123
259.88	22.337
260.25	16.340
260.62	16.319
260.99	14.576
261.36	14.726
261.73	18.987
262.10	19.453
262.47	15.644
262.85	18.495
263.22	16.923
263.59	15.888
263.96	19.876
264.33	19.394
264.70	15.179
265.07	16.667
265.44	16.147
265.81	17.797
266.18	18.579
266.55	19.280
266.92	18.394
267.29	17.232
267.66	17.647
268.03	17.801
268.40	18.799
268.77	18.717
269.14	16.787
269.51	16.195
269.88	16.209
270.25	12.245
270.62	16.585
270.99	16.880
271.36	15.648
271.73	16.901
272.10	19.221
272.47	15.839
272.84	20.050
273.21	19.026
273.58	17.349
273.95	18.993
274.32	18.476
274.69	14.253
275.06	16.518
275.43	18.141
275.80	16.336
276.17	15.632
276.54	17.773
276.91	16.667
277.28	17.904
277.65	18.388
278.02	17.872
278.39	16.849
278.76	15.094
279.13	13.071
279.50	16.597
279.87	17.279
280.23	14.409
280.60	18.324
280.97	18.182
281.34	15.385
281.71	18.480
282.08	16.973
282.45	14.481
282.82	16.795
283.19	15.087
283.56	17.148
283.92	16.319
284.29	15.577
284.66	15.698
285.03	16.896
285.40	13.800
285.77	13.884
286.14	16.968
286.51	16.421
286.87	15.722
287.24	15.838
287.61	13.933
287.98	18.070
288.35	15.945
288.72	14.886
289.08	12.500
289.45	16.872
289.82	15.734
290.19	13.311
290.56	15.266
290.93	14.983
291.29	14.484
291.66	15.118
292.03	15.789
292.40	14.516
292.77	14.354
293.13	12.987
293.50	12.747
293.87	14.198
294.24	13.447
294.60	15.052
294.97	14.583
295.34	12.730
295.71	12.668
296.08	13.154
296.44	11.380
296.81	13.611
297.18	13.913
297.55	12.060
297.91	12.329
298.28	14.380
298.65	11.805
299.02	12.668
299.38	11.218
299.75	12.414
300.12	12.435
300.48	10.408
300.85	12.674
301.22	12.468
301.59	11.579
301.95	12.658
302.32	14.008
302.69	11.940
303.05	11.139
303.42	11.831
303.79	12.967
304.15	13.023
304.52	10.583
304.89	11.111
305.25	12.228
305.62	11.085
305.99	10.526
306.35	10.405
306.72	9.899
307.09	12.657
307.45	11.711
307.82	9.838
308.19	12.311
308.55	11.668
308.92	11.547
309.29	11.173
309.65	9.688
310.02	10.451
310.38	11.526
310.75	10.820
311.12	12.056
311.48	10.817
311.85	11.414
312.22	10.338
312.58	11.571
312.95	10.139
313.31	11.594
313.68	11.518
314.05	10.000
314.41	10.412
314.78	10.619
315.14	11.614
315.51	10.455
315.87	10.348
316.24	12.336
316.61	11.614
316.97	11.111
317.34	11.816
317.70	10.516
318.07	10.577
318.43	11.569
318.80	10.795
319.16	10.645
319.53	11.681
319.89	11.122
320.26	11.032
320.62	10.933
320.99	10.647
321.35	11.100
321.72	11.734
322.08	12.991
322.45	12.690
322.81	12.475
323.18	12.071
323.54	12.162
323.91	10.516
324.27	12.207
324.64	13.202
325.00	13.686
325.37	14.692
325.73	13.055
326.10	15.350
326.46	16.323
326.83	16.448
327.19	15.780
327.56	17.984
327.92	16.637
328.29	15.982
328.65	17.170
329.01	17.739
329.38	17.972
329.74	17.280
330.11	18.906
330.47	18.275
330.84	18.750
331.20	20.437
331.56	18.426
331.93	21.096
332.29	20.532
332.66	19.095
333.02	20.725
333.38	20.623
333.75	22.253
334.11	19.875
334.48	22.756
334.84	22.894
335.20	22.141
335.57	21.487
335.93	22.584
336.29	22.652
336.66	22.888
337.02	22.491
337.38	21.944
337.75	23.545
338.11	22.633
338.47	23.723
338.84	24.492
339.20	24.497
339.56	23.486
339.93	22.739
340.29	24.128
340.65	25.358
341.02	23.759
341.38	23.894
341.74	24.558
342.11	23.744
342.47	25.445
342.83	26.125
343.20	24.042
343.56	24.870
343.92	24.978
344.28	24.936
344.65	24.007
345.01	23.682
345.37	23.549
345.73	26.109
346.10	25.280
346.46	24.138
346.82	25.532
347.19	25.270
347.55	25.480
347.91	24.838
348.27	24.818
348.63	25.383
349.00	24.364
349.36	24.938
349.72	26.119
350.08	23.934
350.45	25.619
350.81	25.581
351.17	24.674
351.53	25.714
351.89	23.947
352.26	25.120
352.62	24.839
352.98	25.221
353.34	24.960
353.70	26.214
354.07	24.758
354.43	25.620
354.79	26.342
355.15	26.667
355.51	25.633
355.87	27.023
356.24	23.980
356.60	25.061
356.96	26.190
357.32	26.837
357.68	25.723
358.04	25.767
358.40	26.045
358.77	26.156
359.13	26.741
359.49	25.886
359.85	26.287
360.21	25.997
360.57	26.549
360.93	25.643
361.29	25.604
361.66	27.351
362.02	27.045
362.38	27.723
362.74	26.268
363.10	27.916
363.46	26.390
363.82	28.024
364.18	25.830
364.54	26.471
364.90	26.380
365.26	27.147
365.62	27.883
365.98	27.493
366.35	27.749
366.71	27.716
367.07	28.012
367.43	28.109
367.79	27.774
368.15	27.782
368.51	27.677
368.87	28.141
369.23	27.292
369.59	28.644
369.95	28.372
370.31	27.818
370.67	28.731
371.03	27.110
371.39	29.103
371.75	28.718
372.11	27.675
372.47	28.328
372.83	28.389
373.19	28.031
373.55	27.870
373.91	28.366
374.27	29.624
374.63	29.505
374.99	28.369
375.35	29.248
375.71	29.580
376.07	28.230
376.42	28.707
376.78	28.926
377.14	28.368
377.50	29.681
377.86	28.849
378.22	29.930
378.58	29.423
378.94	29.679
379.30	30.193
379.66	31.034
380.02	29.246
380.38	28.971
380.74	29.503
381.09	29.387
381.45	30.092
381.81	30.845
382.17	30.711
382.53	28.919
382.89	31.073
383.25	30.865
383.61	30.488
383.97	30.730
384.32	31.082
384.68	30.960
385.04	30.576
385.40	30.492
385.76	31.384
386.12	31.177
386.48	31.098
386.83	30.755
387.19	31.990
387.55	32.058
387.91	30.929
388.27	30.525
388.62	30.711
388.98	31.492
389.34	32.480
389.70	32.132
390.06	31.340
390.42	31.088
390.77	32.505
391.13	32.282
391.49	31.953
391.85	31.904
392.20	31.952
392.56	32.549
392.92	32.061
393.28	32.370
393.64	32.312
393.99	32.727
394.35	32.574
394.71	33.269
395.07	32.307
395.42	32.362
395.78	32.508
396.14	32.472
396.50	33.228
396.85	33.033
397.21	32.957
397.57	32.038
397.92	32.415
398.28	33.103
398.64	32.470
399.00	32.901
399.35	32.506
399.71	32.970
400.07	33.736
400.42	32.619
400.78	33.313
401.14	34.120
401.49	33.889
401.85	33.029
402.21	33.916
402.57	33.250
402.92	32.748
403.28	34.712
403.63	33.985
403.99	33.673
404.35	34.291
404.70	32.857
405.06	32.080
405.42	34.058
405.77	33.062
406.13	33.586
406.49	34.577
406.84	34.046
407.20	34.979
407.55	33.226
407.91	33.489
408.27	34.162
408.62	34.154
408.98	33.826
409.34	35.006
409.69	32.752
410.05	33.682
410.40	34.259
410.76	35.223
411.11	34.688
411.47	34.122
411.83	34.526
412.18	34.427
412.54	34.145
412.89	33.867
413.25	35.018
413.60	34.099
413.96	33.926
414.31	34.329
414.67	34.702
415.03	33.955
415.38	34.138
415.74	35.309
416.09	34.618
416.45	34.909
416.80	34.435
417.16	36.464
417.51	36.309
417.87	35.398
418.22	36.658
418.58	35.853
418.93	36.364
419.29	33.675
419.64	35.386
420.00	37.406
420.35	35.761
420.71	36.209
421.06	36.955
421.42	36.238
421.77	35.954
422.12	35.698
422.48	35.679
422.83	36.485
423.19	36.512
423.54	36.449
423.90	35.807
424.25	36.739
424.61	36.659
424.96	37.108
425.31	37.377
425.67	37.207
426.02	38.398
426.38	36.694
426.73	38.801
427.09	37.848
427.44	38.294
427.79	37.301
428.15	37.075
428.50	37.190
428.85	36.671
429.21	38.427
429.56	37.898
429.92	38.007
430.27	37.644
430.62	37.585
430.98	38.376
431.33	38.381
431.68	38.305
432.04	38.681
432.39	37.707
432.74	37.943
433.10	38.851
433.45	38.710
433.80	38.886
434.16	38.283
434.51	38.441
434.86	39.082
435.22	40.045
435.57	39.052
435.92	40.060
436.28	39.475
436.63	39.703
436.98	39.397
437.34	40.290
437.69	40.608
438.04	40.171
438.39	39.157
438.75	41.166
439.10	39.615
439.45	40.536
439.81	39.450
440.16	41.865
440.51	40.179
440.86	40.906
441.22	40.385
441.57	40.949
441.92	42.550
442.27	41.463
442.63	41.435
442.98	40.724
443.33	41.235
443.68	40.690
444.03	41.331
444.39	40.138
444.74	41.862
445.09	41.815
445.44	41.880
445.79	42.135
446.15	41.520
446.50	40.765
446.85	42.455
447.20	41.658
447.55	41.406
447.91	41.286
448.26	41.890
448.61	41.451
448.96	42.111
449.31	42.948
449.66	41.521
450.02	42.670
450.37	42.442
450.72	42.841
451.07	42.089
451.42	42.572
451.77	42.616
452.12	41.746
452.47	42.692
452.83	42.285
453.18	41.872
453.53	42.478
453.88	43.230
454.23	42.840
454.58	43.010
454.93	43.557
455.28	41.968
455.63	42.467
455.98	43.716
456.34	43.167
456.69	43.583
457.04	43.793
457.39	43.864
457.74	42.382
458.09	42.554
458.44	42.774
458.79	41.737
459.14	43.650
459.49	43.701
459.84	43.880
460.19	42.961
460.54	43.032
460.89	43.182
461.24	44.224
461.59	42.933
461.94	42.893
462.29	44.150
462.64	44.983
462.99	43.466
463.34	42.907
463.69	42.407
464.04	42.676
464.39	44.572
464.74	43.558
465.09	44.167
465.44	43.739
465.79	43.141
466.14	43.387
466.49	42.956
466.84	44.259
467.19	43.367
467.54	42.976
467.89	43.083
468.24	44.221
468.59	43.556
468.94	44.063
469.29	44.262
469.64	43.199
469.99	45.830
470.34	43.208
470.68	44.817
471.03	44.232
471.38	44.508
471.73	44.678
472.08	43.148
472.43	43.893
472.78	44.208
473.13	44.558
473.48	44.365
473.83	42.341
474.17	43.977
474.52	44.097
474.87	44.061
475.22	44.356
475.57	43.930
475.92	44.871
476.27	44.354
476.61	44.965
476.96	43.224
477.31	44.240
477.66	44.213
478.01	44.357
478.36	44.118
478.70	44.589
479.05	44.066
479.40	43.667
479.75	43.691
480.10	43.984
480.45	44.400
480.79	45.468
481.14	45.184
481.49	44.039
481.84	44.305
482.19	43.826
482.53	43.165
482.88	43.914
483.23	43.858
483.58	43.443
483.92	43.369
484.27	43.437
484.62	43.568
484.97	43.615
485.31	42.955
485.66	41.617
486.01	41.721
486.36	41.813
486.70	42.090
487.05	42.908
487.40	42.865
487.75	43.099
488.09	42.923
488.44	43.226
488.79	43.967
489.13	43.670
489.48	43.908
489.83	44.439
490.17	43.640
490.52	43.788
490.87	43.869
491.22	44.938
491.56	43.975
491.91	43.021
492.26	44.823
492.60	43.426
492.95	44.466
493.30	44.064
493.64	44.155
493.99	43.671
494.34	44.175
494.68	43.857
495.03	43.552
495.37	44.897
495.72	45.634
496.07	45.317
496.41	43.821
496.76	44.081
497.11	43.037
497.45	44.200
497.80	44.652
498.14	43.467
498.49	44.744
498.84	43.164
499.18	44.378
499.53	44.792
499.87	43.677
500.22	44.906
500.56	45.638
500.91	45.080
501.26	43.450
501.60	44.319
501.95	44.202
502.29	44.068
502.64	45.125
502.98	44.894
503.33	43.516
503.67	43.133
504.02	43.842
504.36	44.879
504.71	43.485
505.06	44.540
505.40	43.959
505.75	44.330
506.09	43.893
506.44	44.302
506.78	43.980
507.13	44.002
507.47	43.081
507.82	43.910
508.16	43.001
508.51	44.386
508.85	43.904
509.19	44.918
509.54	45.898
509.88	44.175
510.23	45.239
510.57	44.522
510.92	41.898
511.26	44.463
511.61	44.774
511.95	45.041
512.30	44.568
512.64	43.684
512.98	44.975
513.33	45.104
513.67	44.912
514.02	44.050
514.36	46.229
514.70	45.862
515.05	44.477
515.39	45.159
515.74	47.066
516.08	45.786
516.42	45.819
516.77	45.933
517.11	45.223
517.46	46.499
517.80	45.471
518.14	45.989
518.49	45.072
518.83	44.654
519.17	44.512
519.52	44.287
519.86	45.318
520.20	46.476
520.55	44.215
520.89	45.609
521.23	45.218
521.58	46.120
521.92	46.154
522.26	45.738
522.61	46.039
522.95	47.815
523.29	45.172
523.64	45.934
523.98	46.468
524.32	44.845
524.66	45.903
525.01	46.299
525.35	45.755
525.69	46.465
526.04	45.370
526.38	46.109
526.72	44.408
527.06	45.460
527.41	46.768
527.75	45.643
528.09	45.382
528.43	45.982
528.78	44.554
529.12	45.097
529.46	44.250
529.80	44.142
530.15	45.611
530.49	45.859
530.83	46.101
531.17	44.258
531.51	47.059
531.86	44.052
532.20	45.442
532.54	45.337
532.88	45.311
533.22	46.640
533.57	45.020
533.91	45.496
534.25	46.029
534.59	45.029
534.93	43.612
535.27	44.480
535.62	44.459
535.96	44.553
536.30	45.449
536.64	46.382
536.98	45.505
537.32	46.017
537.66	45.582
538.01	45.035
538.35	44.591
538.69	44.075
539.03	43.336
539.37	45.357
539.71	43.899
540.05	44.263
540.39	44.391
540.73	44.003
541.07	45.511
541.42	44.960
541.76	44.391
542.10	44.253
542.44	43.155
542.78	42.808
543.12	44.712
543.46	44.089
543.80	44.761
544.14	42.123
544.48	44.570
544.82	43.609
545.16	45.560
545.50	44.927
545.84	44.901
546.18	44.043
546.52	44.124
546.86	44.357
547.20	45.279
547.54	43.322
547.88	43.750
548.22	42.078
548.56	43.074
548.90	43.396
549.24	44.215
549.58	44.358
549.92	43.746
550.26	43.150
550.60	44.312
550.94	43.988
551.28	44.900
551.62	44.846
551.96	44.286
552.30	43.567
552.64	42.595
552.98	43.390
553.32	43.509
553.66	43.469
554.00	44.161
554.34	43.279
554.68	43.363
555.02	44.345
555.36	42.558
555.69	42.564
556.03	42.398
556.37	43.701
556.71	42.816
557.05	42.878
557.39	42.156
557.73	43.103
558.07	44.193
558.41	44.257
558.75	43.414
559.08	43.499
559.42	43.492
559.76	43.795
560.10	42.278
560.44	43.485
560.78	42.028
561.12	42.877
561.45	43.781
561.79	43.557
562.13	42.796
562.47	42.158
562.81	41.859
563.15	42.525
563.48	42.433
563.82	43.583
564.16	42.409
564.50	41.419
564.84	41.700
565.17	41.315
565.51	43.443
565.85	42.524
566.19	41.645
566.52	41.086
566.86	41.774
567.20	41.719
567.54	41.727
567.88	43.175
568.21	41.629
568.55	41.087
568.89	42.043
569.23	40.684
569.56	39.974
569.90	40.479
570.24	39.263
570.57	39.455
570.91	40.119
571.25	38.573
571.59	38.181
571.92	37.867
572.26	38.768
572.60	37.891
572.93	38.061
573.27	38.025
573.61	37.530
573.95	37.957
574.28	37.447
574.62	37.249
574.96	37.073
575.29	36.774
575.63	35.968
575.97	36.893
576.30	37.026
576.64	36.848
576.98	37.658
577.31	37.208
577.65	37.271
577.98	37.384
578.32	36.475
578.66	36.278
578.99	36.336
579.33	36.323
579.67	36.437
580.00	36.886
580.34	36.443
580.67	36.375
581.01	37.056
581.35	36.972
581.68	36.331
582.02	36.410
582.35	36.063
582.69	35.840
583.02	36.018
583.36	36.622
583.70	36.526
584.03	37.003
584.37	37.436
584.70	36.456
585.04	36.140
585.37	35.946
585.71	36.040
586.04	35.855
586.38	36.356
586.72	36.901
587.05	36.540
587.39	36.567
587.72	36.905
588.06	36.701
588.39	36.827
588.73	36.996
589.06	37.378
589.40	36.813
589.73	37.605
590.07	36.896
590.40	36.184
590.73	37.521
591.07	36.684
591.40	37.177
591.74	37.285
592.07	38.404
592.41	37.367
592.74	36.479
593.08	35.243
593.41	35.881
593.75	36.277
594.08	35.290
594.41	36.099
594.75	35.802
595.08	35.982
595.42	35.591
595.75	36.200
596.09	36.435
596.42	36.461
596.75	36.323
597.09	37.267
597.42	36.902
597.75	36.464
598.09	35.038
598.42	34.838
598.76	35.264
599.09	35.417
599.42	35.279
599.76	34.575
600.09	35.407
600.42	34.723
600.76	34.175
601.09	34.389
601.42	34.822
601.76	35.728
602.09	35.644
602.42	36.226
602.76	35.866
603.09	36.088
603.42	36.706
603.76	34.919
604.09	35.318
604.42	35.195
604.76	35.425
605.09	35.146
605.42	35.124
605.75	35.683
606.09	35.584
606.42	34.696
606.75	34.805
607.09	34.242
607.42	34.869
607.75	33.925
608.08	33.917
608.42	34.765
608.75	34.988
609.08	35.027
609.41	35.482
609.75	35.131
610.08	34.848
610.41	35.604
610.74	33.837
611.07	34.625
611.41	35.288
611.74	35.661
612.07	34.690
612.40	35.503
612.73	35.085
613.07	34.139
613.40	34.300
613.73	34.359
614.06	34.001
614.39	34.461
614.72	33.950
615.06	34.804
615.39	33.297
615.72	32.939
616.05	34.134
616.38	33.732
616.71	34.557
617.05	34.157
617.38	35.072
617.71	34.088
618.04	36.063
618.37	35.561
618.70	34.851
619.03	36.042
619.36	33.502
619.69	35.785
620.03	35.939
620.36	35.122
620.69	34.475
621.02	35.398
621.35	35.436
621.68	35.119
622.01	35.000
622.34	34.717
622.67	34.779
623.00	34.992
623.33	33.537
623.66	34.705
623.99	34.039
624.32	35.285
624.65	33.459
624.99	34.462
625.32	34.723
625.65	35.742
625.98	35.375
626.31	35.245
626.64	33.882
626.97	34.642
627.30	34.939
627.63	34.055
627.96	36.388
628.29	35.523
628.62	36.578
628.95	35.271
629.28	36.492
629.61	35.494
629.94	36.461
630.26	36.067
630.59	37.253
630.92	35.282
631.25	34.256
631.58	36.013
631.91	34.978
632.24	35.206
632.57	36.705
