SpectraSuite Data File
++++++++++++++++++++++++++++++++++++
Date: Fri May 15 20:59:21 PDT 2015
User: schluterlab
Dark Spectrum Present: Yes
Reference Spectrum Present: Yes
Number of Sampled Component Spectra: 1
Spectrometers: USB2E3373
Integration Time (usec): 3000 (USB2E3373)
Spectra Averaged: 3 (USB2E3373)
Boxcar Smoothing: 0 (USB2E3373)
Correct for Electrical Dark: No (USB2E3373)
Strobe/Lamp Enabled: No (USB2E3373)
Correct for Detector Non-linearity: No (USB2E3373)
Correct for Stray Light: No (USB2E3373)
Number of Pixels in Processed Spectrum: 2048
>>>>>Begin Processed Spectral Data<<<<<
178.53	0.000
178.91	0.000
179.29	62.500
179.67	-850.000
180.04	171.429
180.42	-200.000
180.80	400.000
181.18	100.000
181.56	400.000
181.94	250.000
182.31	1000.000
182.69	-120.000
183.07	-233.333
183.45	-180.000
183.83	183.333
184.20	54.545
184.58	133.333
184.96	-100.000
185.34	233.333
185.72	-500.000
186.09	38.462
186.47	-1500.000
186.85	233.333
187.23	111.111
187.61	-100.000
187.98	-366.667
188.36	-22.222
188.74	-266.667
189.12	76.471
189.49	27.778
189.87	0.000
190.25	42.857
190.63	-250.000
191.00	-200.000
191.38	-36.842
191.76	200.000
192.14	225.000
192.51	-50.000
192.89	-133.333
193.27	-171.429
193.65	200.000
194.02	136.364
194.40	-10.000
194.78	-125.000
195.15	-16.667
195.53	-200.000
195.91	175.000
196.29	-100.000
196.66	123.077
197.04	28.571
197.42	44.444
197.79	-600.000
198.17	-115.385
198.55	1800.000
198.92	-366.667
199.30	-1600.000
199.68	-60.000
200.05	-300.000
200.43	0.000
200.81	-166.667
201.18	-200.000
201.56	700.000
201.94	-500.000
202.31	166.667
202.69	-120.000
203.07	75.000
203.44	0.000
203.82	0.000
204.19	-14.286
204.57	-433.333
204.95	87.500
205.32	-50.000
205.70	114.286
206.08	125.000
206.45	266.667
206.83	42.857
207.20	-71.429
207.58	200.000
207.96	-300.000
208.33	-120.000
208.71	25.000
209.08	-116.667
209.46	-1200.000
209.84	-60.000
210.21	-500.000
210.59	85.714
210.96	-133.333
211.34	-25.000
211.71	-20.000
212.09	-42.857
212.46	-2100.000
212.84	0.000
213.22	-20.000
213.59	550.000
213.97	-15.385
214.34	45.455
214.72	-100.000
215.09	600.000
215.47	-23.077
215.84	-54.545
216.22	-600.000
216.59	-25.000
216.97	350.000
217.34	-25.000
217.72	-200.000
218.09	62.500
218.47	175.000
218.84	-1200.000
219.22	-122.222
219.59	-180.000
219.97	700.000
220.34	300.000
220.72	-114.286
221.09	-75.000
221.47	-150.000
221.84	-450.000
222.22	-450.000
222.59	0.000
222.97	0.000
223.34	-533.333
223.72	14.286
224.09	28.571
224.46	25.000
224.84	633.333
225.21	-80.000
225.59	0.000
225.96	100.000
226.34	275.000
226.71	-57.143
227.08	-66.667
227.46	-12.500
227.83	-550.000
228.21	11.111
228.58	72.727
228.95	12.500
229.33	130.000
229.70	37.500
230.08	-137.500
230.45	-71.429
230.82	-14.286
231.20	-60.000
231.57	64.286
231.95	-114.286
232.32	20.000
232.69	21.429
233.07	-33.333
233.44	-200.000
233.81	-50.000
234.19	-44.444
234.56	-17.647
234.93	300.000
235.31	-225.000
235.68	-160.000
236.05	7.692
236.43	-40.000
236.80	0.000
237.17	56.250
237.55	0.000
237.92	-11.111
238.29	16.667
238.67	50.000
239.04	0.000
239.41	0.000
239.79	6.667
240.16	58.537
240.53	18.421
240.91	19.565
241.28	44.444
241.65	58.929
242.02	39.726
242.40	40.000
242.77	37.288
243.14	24.242
243.51	37.500
243.89	42.529
244.26	27.586
244.63	33.333
245.00	44.330
245.38	37.113
245.75	28.090
246.12	31.897
246.49	42.975
246.87	32.692
247.24	30.252
247.61	44.737
247.98	39.024
248.36	32.500
248.73	34.211
249.10	39.610
249.47	37.342
249.84	43.791
250.22	41.765
250.59	44.444
250.96	41.315
251.33	31.977
251.70	42.941
252.08	39.594
252.45	37.129
252.82	36.683
253.19	41.014
253.56	42.056
253.94	43.243
254.31	43.043
254.68	43.860
255.05	44.488
255.42	41.921
255.79	39.382
256.16	41.634
256.54	42.164
256.91	37.643
257.28	39.405
257.65	40.824
258.02	41.489
258.39	41.751
258.76	41.758
259.14	41.528
259.51	47.249
259.88	39.519
260.25	41.503
260.62	44.444
260.99	38.305
261.36	44.178
261.73	42.722
262.10	43.161
262.47	39.877
262.85	38.558
263.22	40.000
263.59	44.860
263.96	45.652
264.33	42.121
264.70	42.560
265.07	42.262
265.44	45.042
265.81	39.831
266.18	42.350
266.55	41.388
266.92	41.969
267.29	40.992
267.66	43.223
268.03	45.026
268.40	41.514
268.77	48.930
269.14	38.849
269.51	44.216
269.88	41.646
270.25	41.327
270.62	37.805
270.99	42.967
271.36	40.587
271.73	42.254
272.10	40.633
272.47	38.771
272.84	42.327
273.21	42.691
273.58	42.892
273.95	38.902
274.32	38.106
274.69	34.842
275.06	43.304
275.43	40.363
275.80	41.280
276.17	41.609
276.54	39.400
276.91	41.667
277.28	37.118
277.65	39.876
278.02	39.362
278.39	42.232
278.76	40.671
279.13	37.552
279.50	40.336
279.87	37.365
280.23	37.204
280.60	42.300
280.97	41.818
281.34	36.538
281.71	42.094
282.08	38.446
282.45	38.552
282.82	38.031
283.19	40.812
283.56	39.499
283.92	37.571
284.29	38.269
284.66	37.984
285.03	39.686
285.40	39.698
285.77	38.489
286.14	38.628
286.51	40.959
286.87	35.649
287.24	39.042
287.61	37.919
287.98	40.175
288.35	38.302
288.72	37.478
289.08	35.069
289.45	36.555
289.82	37.937
290.19	34.983
290.56	36.364
290.93	37.710
291.29	34.052
291.66	35.591
292.03	34.769
292.40	33.548
292.77	33.333
293.13	31.656
293.50	33.232
293.87	32.977
294.24	33.849
294.60	33.234
294.97	31.250
295.34	32.362
295.71	31.595
296.08	29.447
296.44	27.881
296.81	30.000
297.18	31.449
297.55	29.675
297.91	29.863
298.28	31.135
298.65	29.851
299.02	29.111
299.38	27.770
299.75	28.828
300.12	28.010
300.48	30.040
300.85	28.771
301.22	27.922
301.59	26.711
301.95	28.987
302.32	29.831
302.69	28.234
303.05	27.723
303.42	29.265
303.79	28.505
304.15	27.838
304.52	27.586
304.89	27.135
305.25	28.814
305.62	27.421
305.99	27.485
306.35	28.439
306.72	26.209
307.09	26.796
307.45	27.325
307.82	27.431
308.19	26.249
308.55	25.736
308.92	27.015
309.29	25.922
309.65	24.973
310.02	25.413
310.38	27.442
310.75	26.667
311.12	26.480
311.48	26.405
311.85	26.387
312.22	25.422
312.58	26.221
312.95	25.507
313.31	25.569
313.68	24.921
314.05	25.408
314.41	26.495
314.78	24.433
315.14	26.002
315.51	25.880
315.87	25.307
316.24	25.581
316.61	26.575
316.97	26.190
317.34	25.195
317.70	25.335
318.07	25.577
318.43	24.902
318.80	23.864
319.16	25.000
319.53	26.021
319.89	25.591
320.26	26.417
320.62	26.680
320.99	25.574
321.35	26.208
321.72	26.168
322.08	25.881
322.45	25.584
322.81	25.737
323.18	26.104
323.54	25.676
323.91	25.122
324.27	25.781
324.64	27.060
325.00	24.270
325.37	26.814
325.73	23.753
326.10	25.341
326.46	25.740
326.83	25.897
327.19	25.545
327.56	25.195
327.92	26.056
328.29	25.804
328.65	26.604
329.01	26.379
329.38	25.806
329.74	26.062
330.11	25.209
330.47	23.933
330.84	24.904
331.20	25.951
331.56	25.278
331.93	25.936
332.29	25.023
332.66	25.973
333.02	24.628
333.38	25.115
333.75	25.183
334.11	23.903
334.48	25.476
334.84	24.817
335.20	24.886
335.57	25.023
335.93	26.378
336.29	25.138
336.66	24.069
337.02	24.071
337.38	24.444
337.75	25.000
338.11	25.609
338.47	23.996
338.84	24.214
339.20	24.771
339.56	25.321
339.93	24.261
340.29	25.505
340.65	25.358
341.02	24.911
341.38	23.186
341.74	24.205
342.11	22.790
342.47	24.110
342.83	24.827
343.20	24.303
343.56	24.870
343.92	23.649
344.28	24.167
344.65	23.921
345.01	23.509
345.37	23.465
345.73	24.854
346.10	23.210
346.46	24.306
346.82	22.995
347.19	21.945
347.55	24.060
347.91	23.544
348.27	23.686
348.63	24.361
349.00	22.806
349.36	22.860
349.72	24.627
350.08	23.689
350.45	23.863
350.81	23.588
351.17	23.046
351.53	23.510
351.89	22.626
352.26	22.960
352.62	23.306
352.98	21.767
353.34	22.464
353.70	23.786
354.07	24.032
354.43	22.098
354.79	21.718
355.15	23.175
355.51	23.813
355.87	22.896
356.24	21.697
356.60	22.635
356.96	23.095
357.32	22.444
357.68	22.596
358.04	23.506
358.40	23.392
358.77	23.285
359.13	23.379
359.49	22.573
359.85	20.983
360.21	23.285
360.57	21.576
360.93	22.769
361.29	21.752
361.66	23.433
362.02	22.424
362.38	22.163
362.74	22.559
363.10	22.573
363.46	22.683
363.82	21.713
364.18	21.771
364.54	21.618
364.90	22.294
365.26	22.416
365.62	23.285
365.98	21.114
366.35	22.724
366.71	22.395
367.07	22.496
367.43	21.855
367.79	21.979
368.15	22.254
368.51	21.122
368.87	22.182
369.23	20.939
369.59	22.157
369.95	22.507
370.31	21.965
370.67	21.716
371.03	22.031
371.39	21.590
371.75	22.418
372.11	21.255
372.47	22.115
372.83	21.930
373.19	21.113
373.55	21.805
373.91	21.814
374.27	22.750
374.63	21.895
374.99	22.411
375.35	22.006
375.71	21.748
376.07	20.014
376.42	22.381
376.78	22.013
377.14	21.666
377.50	21.647
377.86	22.289
378.22	20.932
378.58	22.115
378.94	21.172
379.30	21.460
379.66	21.505
380.02	21.459
380.38	21.242
380.74	21.245
381.09	21.288
381.45	21.284
381.81	21.283
382.17	21.066
382.53	20.237
382.89	21.532
383.25	21.469
383.61	21.524
383.97	20.571
384.32	20.826
384.68	20.805
385.04	20.833
385.40	20.846
385.76	21.132
386.12	20.440
386.48	21.201
386.83	21.370
387.19	21.551
387.55	21.644
387.91	21.638
388.27	21.368
388.62	22.026
388.98	20.994
389.34	21.112
389.70	21.753
390.06	19.824
390.42	19.948
390.77	20.667
391.13	20.177
391.49	21.669
391.85	21.183
392.20	20.841
392.56	20.852
392.92	21.433
393.28	21.050
393.64	19.880
393.99	21.379
394.35	20.367
394.71	20.307
395.07	20.176
395.42	20.522
395.78	20.065
396.14	20.429
396.50	21.306
396.85	20.155
397.21	21.303
397.57	20.000
397.92	20.671
398.28	21.034
398.64	19.940
399.00	20.993
399.35	20.485
399.71	20.735
400.07	21.342
400.42	20.930
400.78	21.004
401.14	21.234
401.49	20.965
401.85	19.927
402.21	20.783
402.57	21.250
402.92	20.263
403.28	21.930
403.63	21.185
403.99	20.344
404.35	20.987
404.70	20.893
405.06	20.740
405.42	20.261
405.77	20.569
406.13	20.431
406.49	19.361
406.84	20.477
407.20	20.891
407.55	20.283
407.91	20.321
408.27	20.268
408.62	21.169
408.98	20.641
409.34	21.004
409.69	20.672
410.05	19.643
410.40	20.679
410.76	20.024
411.11	21.437
411.47	21.696
411.83	20.088
412.18	20.849
412.54	20.412
412.89	20.382
413.25	19.856
413.60	20.621
413.96	21.166
414.31	20.549
414.67	21.488
415.03	20.573
415.38	20.692
415.74	21.173
416.09	21.489
416.45	20.999
416.80	20.621
417.16	21.271
417.51	21.452
417.87	21.382
418.22	21.632
418.58	20.870
418.93	21.693
419.29	19.334
419.64	20.804
420.00	21.788
420.35	20.955
420.71	21.446
421.06	20.810
421.42	20.913
421.77	21.098
422.12	20.545
422.48	20.736
422.83	20.940
423.19	21.332
423.54	20.400
423.90	20.848
424.25	21.068
424.61	22.154
424.96	21.022
425.31	21.779
425.67	21.479
426.02	21.260
426.38	20.977
426.73	22.215
427.09	21.709
427.44	21.529
427.79	21.391
428.15	21.177
428.50	21.623
428.85	20.946
429.21	21.109
429.56	21.402
429.92	21.572
430.27	21.353
430.62	20.596
430.98	21.125
431.33	21.399
431.68	20.513
432.04	21.297
432.39	20.593
432.74	20.565
433.10	22.184
433.45	21.446
433.80	21.764
434.16	20.111
434.51	21.237
434.86	21.254
435.22	21.032
435.57	22.021
435.92	21.317
436.28	21.169
436.63	21.905
436.98	20.857
437.34	21.053
437.69	21.407
438.04	21.766
438.39	20.831
438.75	21.190
439.10	21.845
439.45	22.094
439.81	22.324
440.16	22.150
440.51	21.791
440.86	22.900
441.22	21.041
441.57	21.689
441.92	22.613
442.27	21.896
442.63	22.698
442.98	21.252
443.33	21.592
443.68	21.698
444.03	22.305
444.39	22.036
444.74	22.241
445.09	21.659
445.44	22.336
445.79	22.383
446.15	22.302
446.50	21.963
446.85	21.998
447.20	22.471
447.55	22.879
447.91	22.843
448.26	22.311
448.61	22.453
448.96	22.490
449.31	21.214
449.66	22.184
450.02	22.076
450.37	21.517
450.72	22.222
451.07	21.899
451.42	22.659
451.77	22.966
452.12	22.189
452.47	21.571
452.83	21.555
453.18	22.138
453.53	22.882
453.88	22.465
454.23	22.680
454.58	23.048
454.93	23.196
455.28	22.159
455.63	22.567
455.98	23.572
456.34	22.861
456.69	23.761
457.04	22.432
457.39	23.147
457.74	22.249
458.09	21.778
458.44	23.171
458.79	22.353
459.14	24.199
459.49	22.925
459.84	22.617
460.19	22.573
460.54	23.227
460.89	22.443
461.24	23.043
461.59	24.050
461.94	22.704
462.29	23.522
462.64	23.920
462.99	23.900
463.34	23.296
463.69	23.359
464.04	22.821
464.39	23.287
464.74	22.761
465.09	23.394
465.44	23.485
465.79	22.619
466.14	23.888
466.49	23.347
466.84	23.319
467.19	24.218
467.54	22.478
467.89	22.615
468.24	22.384
468.59	24.063
468.94	23.937
469.29	24.000
469.64	24.675
469.99	24.036
470.34	23.823
470.68	24.758
471.03	24.275
471.38	25.107
471.73	23.669
472.08	24.016
472.43	23.154
472.78	23.578
473.13	24.694
473.48	24.691
473.83	23.288
474.17	24.417
474.52	23.867
474.87	24.909
475.22	24.039
475.57	23.151
475.92	24.355
476.27	24.505
476.61	24.479
476.96	23.090
477.31	24.283
477.66	23.876
478.01	23.695
478.36	24.129
478.70	23.926
479.05	23.901
479.40	24.430
479.75	24.035
480.10	24.834
480.45	24.000
480.79	25.126
481.14	24.078
481.49	23.744
481.84	23.600
482.19	23.714
482.53	23.981
482.88	24.535
483.23	24.376
483.58	24.575
483.92	24.153
484.27	24.294
484.62	23.980
484.97	23.176
485.31	22.868
485.66	22.300
486.01	21.744
486.36	21.716
486.70	22.757
487.05	23.386
487.40	22.958
487.75	23.042
488.09	23.733
488.44	23.693
488.79	24.244
489.13	24.880
489.48	24.369
489.83	24.305
490.17	24.494
490.52	24.249
490.87	24.618
491.22	25.883
491.56	25.047
491.91	24.761
492.26	25.231
492.60	25.288
492.95	25.086
493.30	25.208
493.64	25.737
493.99	24.928
494.34	24.466
494.68	25.333
495.03	24.331
495.37	25.074
495.72	24.987
496.07	25.220
496.41	24.528
496.76	24.228
497.11	24.965
497.45	26.062
497.80	25.227
498.14	25.584
498.49	25.394
498.84	25.050
499.18	25.904
499.53	25.099
499.87	24.611
500.22	25.025
500.56	25.013
500.91	25.753
501.26	25.012
501.60	25.381
501.95	25.230
502.29	24.939
502.64	25.676
502.98	26.147
503.33	25.216
503.67	25.108
504.02	25.513
504.36	25.433
504.71	25.404
505.06	25.466
505.40	25.990
505.75	25.722
506.09	26.001
506.44	26.797
506.78	26.020
507.13	26.215
507.47	25.744
507.82	25.588
508.16	25.990
508.51	26.285
508.85	25.432
509.19	25.546
509.54	26.702
509.88	25.297
510.23	26.197
510.57	26.403
510.92	25.160
511.26	25.586
511.61	26.238
511.95	26.959
512.30	26.497
512.64	26.544
512.98	26.165
513.33	26.693
513.67	26.379
514.02	27.231
514.36	27.886
514.70	27.506
515.05	28.026
515.39	27.273
515.74	28.802
516.08	27.077
516.42	27.267
516.77	27.384
517.11	27.596
517.46	28.486
517.80	28.725
518.14	27.250
518.49	27.524
518.83	27.400
519.17	26.925
519.52	26.880
519.86	26.891
520.20	28.007
520.55	26.579
520.89	28.105
521.23	27.802
521.58	28.770
521.92	28.269
522.26	27.586
522.61	26.948
522.95	29.470
523.29	28.907
523.64	28.590
523.98	27.868
524.32	27.448
524.66	29.257
525.01	28.247
525.35	28.581
525.69	28.754
526.04	28.241
526.38	29.183
526.72	28.188
527.06	29.053
527.41	29.090
527.75	28.083
528.09	28.239
528.43	30.182
528.78	27.525
529.12	28.774
529.46	28.525
529.80	28.562
530.15	29.901
530.49	28.013
530.83	28.591
531.17	28.073
531.51	29.412
531.86	28.212
532.20	28.323
532.54	28.523
532.88	28.063
533.22	28.293
533.57	28.637
533.91	27.611
534.25	29.102
534.59	27.518
534.93	27.061
535.27	27.728
535.62	27.414
535.96	28.571
536.30	29.551
536.64	28.532
536.98	27.875
537.32	29.516
537.66	28.892
538.01	28.601
538.35	28.294
538.69	28.695
539.03	28.366
539.37	28.668
539.71	28.630
540.05	27.699
540.39	29.571
540.73	28.173
541.07	27.693
541.42	29.906
541.76	29.456
542.10	27.598
542.44	28.700
542.78	27.942
543.12	28.159
543.46	28.025
543.80	28.799
544.14	27.570
544.48	28.248
544.82	28.093
545.16	30.191
545.50	28.905
545.84	28.399
546.18	28.936
546.52	29.344
546.86	28.181
547.20	29.256
547.54	26.926
547.88	27.242
548.22	26.496
548.56	27.573
548.90	28.774
549.24	28.168
549.58	28.632
549.92	28.377
550.26	29.084
550.60	30.037
550.94	29.724
551.28	29.907
551.62	30.154
551.96	28.647
552.30	29.532
552.64	28.632
552.98	29.255
553.32	28.959
553.66	28.447
554.00	29.270
554.34	29.764
554.68	29.130
555.02	29.762
555.36	28.945
555.69	29.084
556.03	29.408
556.37	28.470
556.71	29.170
557.05	28.859
557.39	28.401
557.73	28.786
558.07	30.317
558.41	29.250
558.75	30.086
559.08	28.605
559.42	29.127
559.76	29.624
560.10	29.893
560.44	27.774
560.78	29.441
561.12	28.702
561.45	29.304
561.79	29.202
562.13	28.957
562.47	28.777
562.81	29.827
563.15	28.984
563.48	29.137
563.82	28.758
564.16	27.786
564.50	28.378
564.84	28.380
565.17	28.437
565.51	28.757
565.85	29.492
566.19	29.576
566.52	29.088
566.86	29.177
567.20	28.020
567.54	27.859
567.88	27.241
568.21	28.450
568.55	27.717
568.89	27.567
569.23	27.732
569.56	26.445
569.90	26.553
570.24	26.014
570.57	25.891
570.91	25.967
571.25	24.630
571.59	24.478
571.92	24.504
572.26	24.396
572.60	24.620
572.93	24.506
573.27	24.608
573.61	24.732
573.95	24.577
574.28	23.941
574.62	23.595
574.96	23.635
575.29	23.650
575.63	23.115
575.97	24.017
576.30	24.065
576.64	23.338
576.98	24.170
577.31	24.011
577.65	23.853
577.98	23.288
578.32	23.191
578.66	23.404
578.99	23.538
579.33	23.632
579.67	23.442
580.00	23.266
580.34	24.204
580.67	23.566
581.01	23.487
581.35	23.191
581.68	22.988
582.02	22.775
582.35	22.841
582.69	22.789
583.02	23.392
583.36	24.202
583.70	24.611
584.03	24.965
584.37	24.816
584.70	24.698
585.04	23.057
585.37	23.907
585.71	23.821
586.04	23.197
586.38	23.206
586.72	24.735
587.05	24.177
587.39	24.266
587.72	24.658
588.06	24.329
588.39	24.808
588.73	24.359
589.06	24.886
589.40	24.784
589.73	26.031
590.07	25.906
590.40	25.580
590.73	25.824
591.07	25.657
591.40	25.868
591.74	26.380
592.07	26.160
592.41	25.707
592.74	25.607
593.08	23.926
593.41	24.514
593.75	24.403
594.08	24.133
594.41	25.036
594.75	24.237
595.08	24.972
595.42	24.512
595.75	25.798
596.09	25.254
596.42	25.300
596.75	26.155
597.09	26.059
597.42	26.197
597.75	25.470
598.09	26.075
598.42	25.496
598.76	25.354
599.09	25.000
599.42	24.744
599.76	24.868
600.09	24.887
600.42	24.640
600.76	23.737
601.09	24.504
601.42	24.403
601.76	24.692
602.09	24.670
602.42	25.990
602.76	25.212
603.09	25.540
603.42	25.585
603.76	24.556
604.09	24.990
604.42	26.058
604.76	26.480
605.09	25.640
605.42	25.508
605.75	25.350
606.09	25.817
606.42	24.437
606.75	25.195
607.09	24.703
607.42	25.255
607.75	24.956
608.08	24.978
608.42	25.400
608.75	25.687
609.08	25.710
609.41	26.548
609.75	26.008
610.08	25.761
610.41	24.831
610.74	25.549
611.07	26.098
611.41	26.155
611.74	27.026
612.07	26.606
612.40	25.766
612.73	26.667
613.07	25.534
613.40	26.094
613.73	26.693
614.06	25.097
614.39	26.847
614.72	25.490
615.06	26.145
615.39	25.437
615.72	25.188
616.05	25.531
616.38	25.698
616.71	26.300
617.05	26.992
617.38	26.587
617.71	27.107
618.04	27.492
618.37	27.554
618.70	27.987
619.03	27.917
619.36	26.918
619.69	29.719
620.03	28.269
620.36	28.183
620.69	27.552
621.02	27.752
621.35	27.967
621.68	29.847
622.01	29.167
622.34	28.013
622.67	29.022
623.00	28.790
623.33	27.744
623.66	28.197
623.99	27.610
624.32	28.669
624.65	26.541
624.99	27.916
625.32	27.672
625.65	28.594
625.98	29.976
626.31	29.426
626.64	30.069
626.97	30.105
627.30	30.035
627.63	30.156
627.96	30.548
628.29	30.342
628.62	30.678
628.95	30.962
629.28	30.544
629.61	29.212
629.94	30.792
630.26	29.545
630.59	31.842
630.92	29.436
631.25	30.359
631.58	30.837
631.91	30.921
632.24	31.537
632.57	32.955
632.90	32.740
