SpectraSuite Data File
++++++++++++++++++++++++++++++++++++
Date: Fri May 15 20:27:05 PDT 2015
User: schluterlab
Dark Spectrum Present: Yes
Reference Spectrum Present: Yes
Number of Sampled Component Spectra: 1
Spectrometers: USB2E3373
Integration Time (usec): 3000 (USB2E3373)
Spectra Averaged: 3 (USB2E3373)
Boxcar Smoothing: 0 (USB2E3373)
Correct for Electrical Dark: No (USB2E3373)
Strobe/Lamp Enabled: No (USB2E3373)
Correct for Detector Non-linearity: No (USB2E3373)
Correct for Stray Light: No (USB2E3373)
Number of Pixels in Processed Spectrum: 2048
>>>>>Begin Processed Spectral Data<<<<<
178.53	0.000
178.91	0.000
179.29	-37.500
179.67	-1000.000
180.04	-71.429
180.42	0.000
180.80	-1400.000
181.18	33.333
181.56	150.000
181.94	250.000
182.31	400.000
182.69	-60.000
183.07	-33.333
183.45	60.000
183.83	83.333
184.20	27.273
184.58	144.444
184.96	-25.000
185.34	66.667
185.72	0.000
186.09	38.462
186.47	-400.000
186.85	16.667
187.23	11.111
187.61	-400.000
187.98	-266.667
188.36	-100.000
188.74	0.000
189.12	29.412
189.49	5.556
189.87	0.000
190.25	100.000
190.63	0.000
191.00	-66.667
191.38	47.368
191.76	350.000
192.14	-25.000
192.51	400.000
192.89	-22.222
193.27	-85.714
193.65	283.333
194.02	63.636
194.40	30.000
194.78	-125.000
195.15	8.333
195.53	-87.500
195.91	175.000
196.29	-275.000
196.66	76.923
197.04	85.714
197.42	-122.222
197.79	-266.667
198.17	0.000
198.55	1500.000
198.92	66.667
199.30	-100.000
199.68	-160.000
200.05	-133.333
200.43	0.000
200.81	66.667
201.18	-33.333
201.56	400.000
201.94	-700.000
202.31	133.333
202.69	-120.000
203.07	100.000
203.44	1000.000
203.82	0.000
204.19	-7.143
204.57	-733.333
204.95	137.500
205.32	-50.000
205.70	142.857
206.08	75.000
206.45	144.444
206.83	92.857
207.20	-42.857
207.58	1100.000
207.96	-300.000
208.33	-90.000
208.71	100.000
209.08	-50.000
209.46	-400.000
209.84	-160.000
210.21	-600.000
210.59	157.143
210.96	16.667
211.34	-125.000
211.71	20.000
212.09	-171.429
212.46	-1200.000
212.84	0.000
213.22	10.000
213.59	600.000
213.97	0.000
214.34	54.545
214.72	-66.667
215.09	275.000
215.47	-61.538
215.84	-63.636
216.22	-166.667
216.59	-37.500
216.97	450.000
217.34	-125.000
217.72	-180.000
218.09	87.500
218.47	112.500
218.84	-700.000
219.22	-22.222
219.59	-60.000
219.97	500.000
220.34	150.000
220.72	28.571
221.09	-100.000
221.47	-50.000
221.84	-200.000
222.22	-1050.000
222.59	127.273
222.97	-8.333
223.34	-266.667
223.72	-21.429
224.09	42.857
224.46	-3.571
224.84	400.000
225.21	50.000
225.59	13.333
225.96	-500.000
226.34	200.000
226.71	-28.571
227.08	16.667
227.46	0.000
227.83	-50.000
228.21	-11.111
228.58	-45.455
228.95	-37.500
229.33	180.000
229.70	-37.500
230.08	50.000
230.45	-42.857
230.82	57.143
231.20	-73.333
231.57	50.000
231.95	-71.429
232.32	-90.000
232.69	28.571
233.07	300.000
233.44	40.000
233.81	-10.000
234.19	-100.000
234.56	11.765
234.93	400.000
235.31	125.000
235.68	-240.000
236.05	15.385
236.43	-5.000
236.80	47.059
237.17	21.875
237.55	10.000
237.92	29.630
238.29	27.778
238.67	33.333
239.04	8.824
239.41	9.756
239.79	36.667
240.16	24.390
240.53	-13.158
240.91	0.000
241.28	22.222
241.65	30.357
242.02	24.658
242.40	15.000
242.77	23.729
243.14	28.788
243.51	21.250
243.89	33.333
244.26	12.644
244.63	21.429
245.00	23.711
245.38	25.773
245.75	17.978
246.12	18.103
246.49	30.579
246.87	34.615
247.24	24.370
247.61	14.912
247.98	27.642
248.36	28.125
248.73	23.684
249.10	22.078
249.47	29.114
249.84	19.608
250.22	28.235
250.59	24.183
250.96	30.047
251.33	23.256
251.70	34.706
252.08	30.964
252.45	31.188
252.82	26.131
253.19	27.189
253.56	25.234
253.94	26.126
254.31	23.478
254.68	34.211
255.05	24.803
255.42	33.188
255.79	24.710
256.16	30.350
256.54	30.970
256.91	22.433
257.28	25.279
257.65	28.839
258.02	28.369
258.39	33.333
258.76	32.601
259.14	30.897
259.51	31.392
259.88	26.117
260.25	27.451
260.62	31.597
260.99	24.068
261.36	23.288
261.73	27.532
262.10	28.571
262.47	27.607
262.85	28.213
263.22	27.077
263.59	28.972
263.96	33.230
264.33	27.879
264.70	28.274
265.07	27.976
265.44	30.595
265.81	30.226
266.18	27.596
266.55	29.306
266.92	30.052
267.29	32.115
267.66	27.110
268.03	29.843
268.40	25.065
268.77	31.283
269.14	28.537
269.51	26.221
269.88	29.177
270.25	28.316
270.62	25.854
270.99	27.366
271.36	26.161
271.73	27.230
272.10	27.494
272.47	30.496
272.84	27.723
273.21	31.787
273.58	30.361
273.95	27.918
274.32	26.328
274.69	27.602
275.06	30.134
275.43	26.304
275.80	29.360
276.17	27.126
276.54	26.124
276.91	29.167
277.28	28.603
277.65	27.066
278.02	25.745
278.39	27.133
278.76	26.625
279.13	22.614
279.50	28.992
279.87	26.782
280.23	26.237
280.60	27.680
280.97	27.879
281.34	26.731
281.71	28.747
282.08	26.176
282.45	27.397
282.82	25.869
283.19	26.886
283.56	28.131
283.92	25.617
284.29	26.346
284.66	24.612
285.03	25.540
285.40	26.276
285.77	24.429
286.14	23.827
286.51	26.015
286.87	25.960
287.24	27.072
287.61	26.455
287.98	28.246
288.35	24.610
288.72	25.219
289.08	25.694
289.45	24.956
289.82	23.951
290.19	24.403
290.56	25.386
290.93	24.747
291.29	24.037
291.66	22.835
292.03	21.531
292.40	23.065
292.77	22.648
293.13	21.104
293.50	21.093
293.87	22.290
294.24	22.257
294.60	21.610
294.97	21.280
295.34	21.166
295.71	21.013
296.08	20.030
296.44	20.626
296.81	20.972
297.18	20.725
297.55	22.222
297.91	20.685
298.28	20.712
298.65	19.810
299.02	19.946
299.38	19.015
299.75	18.759
300.12	18.063
300.48	20.026
300.85	20.152
301.22	19.740
301.59	20.263
301.95	21.139
302.32	20.882
302.69	20.274
303.05	19.554
303.42	19.054
303.79	20.444
304.15	17.682
304.52	18.312
304.89	20.117
305.25	17.191
305.62	17.153
305.99	17.895
306.35	19.306
306.72	19.348
307.09	17.902
307.45	19.747
307.82	17.361
308.19	18.118
308.55	17.993
308.92	18.410
309.29	17.654
309.65	17.546
310.02	19.582
310.38	18.771
310.75	18.798
311.12	17.546
311.48	16.437
311.85	17.487
312.22	16.561
312.58	17.091
312.95	17.716
313.31	18.116
313.68	17.277
314.05	17.143
314.41	18.247
314.78	16.289
315.14	17.677
315.51	18.530
315.87	16.598
316.24	17.897
316.61	16.634
316.97	18.552
317.34	16.699
317.70	17.686
318.07	15.962
318.43	17.059
318.80	16.761
319.16	17.383
319.53	17.854
319.89	17.028
320.26	16.903
320.62	18.054
320.99	15.449
321.35	16.444
321.72	16.926
322.08	16.213
322.45	16.548
322.81	16.699
323.18	16.585
323.54	16.892
323.91	16.845
324.27	17.090
324.64	17.416
325.00	17.609
325.37	17.723
325.73	16.138
326.10	18.074
326.46	16.861
326.83	17.760
327.19	17.001
327.56	17.463
327.92	16.901
328.29	16.071
328.65	16.226
329.01	16.544
329.38	17.419
329.74	16.431
330.11	16.497
330.47	16.605
330.84	16.827
331.20	17.015
331.56	15.463
331.93	17.991
332.29	17.140
332.66	16.652
333.02	15.428
333.38	16.224
333.75	16.758
334.11	16.383
334.48	17.770
334.84	16.575
335.20	16.285
335.57	15.322
335.93	17.254
336.29	16.943
336.66	14.714
337.02	16.450
337.38	15.833
337.75	16.636
338.11	16.501
338.47	16.606
338.84	16.821
339.20	17.185
339.56	16.055
339.93	15.846
340.29	15.413
340.65	16.756
341.02	16.755
341.38	16.106
341.74	15.989
342.11	16.551
342.47	15.747
342.83	16.782
343.20	16.638
343.56	16.174
343.92	17.803
344.28	17.250
344.65	15.458
345.01	16.422
345.37	15.980
345.73	16.736
346.10	16.566
346.46	16.064
346.82	15.957
347.19	15.960
347.55	16.708
347.91	16.990
348.27	16.330
348.63	16.610
349.00	16.243
349.36	15.711
349.72	15.672
350.08	15.328
350.45	16.201
350.81	15.033
351.17	14.739
351.53	16.163
351.89	14.864
352.26	15.360
352.62	15.968
352.98	15.904
353.34	14.895
353.70	15.777
354.07	15.323
354.43	15.773
354.79	15.194
355.15	16.032
355.51	15.981
355.87	16.262
356.24	15.008
356.60	15.117
356.96	16.190
357.32	15.495
357.68	15.403
358.04	15.024
358.40	14.871
358.77	16.427
359.13	14.572
359.49	15.177
359.85	15.913
360.21	14.115
360.57	15.302
360.93	15.204
361.29	14.804
361.66	16.379
362.02	15.076
362.38	15.613
362.74	14.989
363.10	15.500
363.46	15.345
363.82	16.454
364.18	15.646
364.54	15.956
364.90	16.129
365.26	13.537
365.62	14.818
365.98	15.762
366.35	16.023
366.71	15.299
367.07	15.965
367.43	14.738
367.79	14.488
368.15	16.009
368.51	15.222
368.87	15.004
369.23	14.368
369.59	14.213
369.95	15.323
370.31	15.029
370.67	14.776
371.03	15.235
371.39	14.807
371.75	14.872
372.11	15.264
372.47	15.385
372.83	15.756
373.19	14.622
373.55	14.224
373.91	14.615
374.27	15.308
374.63	14.429
374.99	14.681
375.35	15.669
375.71	15.315
376.07	14.326
376.42	15.034
376.78	14.631
377.14	14.557
377.50	13.546
377.86	14.391
378.22	15.061
378.58	15.000
378.94	14.745
379.30	14.286
379.66	14.859
380.02	14.286
380.38	15.277
380.74	14.243
381.09	14.724
381.45	14.312
381.81	14.436
382.17	14.086
382.53	15.303
382.89	15.380
383.25	14.872
383.61	15.000
383.97	14.476
384.32	14.447
384.68	14.551
385.04	13.419
385.40	13.815
385.76	15.346
386.12	14.877
386.48	14.751
386.83	13.824
387.19	15.201
387.55	14.366
387.91	14.425
388.27	15.018
388.62	14.978
388.98	13.996
389.34	14.616
389.70	13.611
390.06	14.600
390.42	14.119
390.77	13.734
391.13	14.187
391.49	15.071
391.85	13.970
392.20	14.062
392.56	14.050
392.92	15.443
393.28	13.443
393.64	14.294
393.99	15.486
394.35	13.472
394.71	15.773
395.07	14.393
395.42	13.297
395.78	13.550
396.14	15.259
396.50	14.268
396.85	14.552
397.21	14.474
397.57	13.918
397.92	14.919
398.28	14.598
398.64	13.614
399.00	14.560
399.35	13.826
399.71	14.532
400.07	14.510
400.42	13.647
400.78	14.329
401.14	14.943
401.49	14.294
401.85	13.955
402.21	14.518
402.57	14.562
402.92	14.053
403.28	14.975
403.63	14.943
403.99	14.094
404.35	14.803
404.70	13.690
405.06	13.043
405.42	14.667
405.77	13.713
406.13	14.494
406.49	13.558
406.84	13.631
407.20	14.148
407.55	13.909
407.91	13.904
408.27	14.213
408.62	15.200
408.98	14.418
409.34	14.126
409.69	14.276
410.05	14.286
410.40	14.383
410.76	14.656
411.11	13.688
411.47	13.478
411.83	13.873
412.18	14.479
412.54	14.045
412.89	14.224
413.25	14.440
413.60	13.789
413.96	14.049
414.31	14.939
414.67	14.817
415.03	13.715
415.38	13.903
415.74	14.593
416.09	14.892
416.45	14.990
416.80	14.210
417.16	13.881
417.51	14.724
417.87	14.863
418.22	14.119
418.58	14.916
418.93	15.549
419.29	13.636
419.64	13.869
420.00	15.113
420.35	14.567
420.71	15.188
421.06	14.672
421.42	14.724
421.77	14.566
422.12	14.586
422.48	14.131
422.83	14.675
423.19	14.673
423.54	13.345
423.90	13.604
424.25	14.351
424.61	14.933
424.96	14.576
425.31	14.674
425.67	14.202
426.02	15.135
426.38	14.590
426.73	14.225
427.09	14.747
427.44	14.471
427.79	14.378
428.15	15.291
428.50	13.992
428.85	13.575
429.21	14.488
429.56	14.609
429.92	15.203
430.27	14.687
430.62	13.800
430.98	14.544
431.33	14.721
431.68	14.233
432.04	14.030
432.39	14.604
432.74	14.372
433.10	15.345
433.45	14.815
433.80	14.452
434.16	13.906
434.51	14.032
434.86	15.041
435.22	13.685
435.57	14.847
435.92	14.790
436.28	14.073
436.63	14.489
436.98	14.195
437.34	14.035
437.69	15.206
438.04	13.960
438.39	13.500
438.75	14.572
439.10	14.771
439.45	15.520
439.81	13.945
440.16	15.439
440.51	15.104
440.86	15.166
441.22	14.536
441.57	15.287
441.92	15.058
442.27	14.579
442.63	15.096
442.98	14.762
443.33	14.190
443.68	14.801
444.03	15.698
444.39	14.855
444.74	15.552
445.09	14.365
445.44	14.929
445.79	14.905
446.15	15.639
446.50	14.920
446.85	14.825
447.20	14.651
447.55	14.676
447.91	14.157
448.26	15.424
448.61	14.796
448.96	15.548
449.31	14.566
449.66	15.389
450.02	14.775
450.37	14.523
450.72	14.891
451.07	15.380
451.42	14.107
451.77	14.406
452.12	15.072
452.47	15.132
452.83	14.900
453.18	14.421
453.53	15.613
453.88	14.876
454.23	15.612
454.58	15.680
454.93	14.820
455.28	13.841
455.63	15.065
455.98	16.416
456.34	14.815
456.69	15.311
457.04	15.249
457.39	14.945
457.74	14.027
458.09	15.127
458.44	15.565
458.79	15.070
459.14	15.217
459.49	15.284
459.84	15.680
460.19	15.291
460.54	15.403
460.89	14.830
461.24	14.410
461.59	15.974
461.94	14.151
462.29	15.078
462.64	15.482
462.99	15.369
463.34	15.160
463.69	15.187
464.04	15.678
464.39	15.100
464.74	15.767
465.09	15.284
465.44	15.638
465.79	15.023
466.14	15.564
466.49	15.871
466.84	15.467
467.19	15.770
467.54	15.453
467.89	15.287
468.24	14.477
468.59	16.000
468.94	16.000
469.29	15.672
469.64	15.926
469.99	15.837
470.34	14.471
470.68	16.555
471.03	15.357
471.38	16.049
471.73	15.126
472.08	16.147
472.43	15.101
472.78	13.639
473.13	15.510
473.48	15.635
473.83	15.255
474.17	16.516
474.52	15.826
474.87	15.818
475.22	15.497
475.57	16.375
475.92	15.798
476.27	16.182
476.61	15.451
476.96	14.835
477.31	16.171
477.66	15.281
478.01	15.104
478.36	15.741
478.70	15.226
479.05	16.209
479.40	15.898
479.75	15.276
480.10	15.566
480.45	16.350
480.79	16.516
481.14	16.957
481.49	15.517
481.84	15.975
482.19	15.809
482.53	16.259
482.88	15.370
483.23	15.595
483.58	15.802
483.92	16.021
484.27	15.223
484.62	15.778
484.97	15.257
485.31	15.426
485.66	15.852
486.01	15.734
486.36	15.373
486.70	15.027
487.05	14.988
487.40	14.969
487.75	14.817
488.09	14.308
488.44	14.924
488.79	15.092
489.13	16.266
489.48	15.990
489.83	16.054
490.17	15.191
490.52	15.843
490.87	16.196
491.22	16.285
491.56	16.556
491.91	15.440
492.26	15.751
492.60	16.267
492.95	16.429
493.30	15.388
493.64	15.914
493.99	16.280
494.34	14.757
494.68	16.048
495.03	15.620
495.37	16.290
495.72	16.153
496.07	16.390
496.41	16.179
496.76	15.983
497.11	15.137
497.45	16.372
497.80	16.801
498.14	15.847
498.49	15.947
498.84	15.918
499.18	16.014
499.53	16.171
499.87	15.370
500.22	15.776
500.56	16.036
500.91	15.713
501.26	15.868
501.60	15.888
501.95	16.351
502.29	16.126
502.64	16.602
502.98	16.724
503.33	16.330
503.67	16.482
504.02	16.276
504.36	16.576
504.71	16.212
505.06	16.004
505.40	15.635
505.75	16.186
506.09	16.675
506.44	16.632
506.78	16.429
507.13	17.115
507.47	15.979
507.82	16.346
508.16	16.323
508.51	17.261
508.85	16.431
509.19	16.445
509.54	15.979
509.88	16.451
510.23	16.945
510.57	16.782
510.92	16.205
511.26	16.912
511.61	17.547
511.95	16.877
512.30	17.295
512.64	17.084
512.98	15.890
513.33	16.508
513.67	16.430
514.02	17.506
514.36	17.429
514.70	17.716
515.05	17.274
515.39	16.411
515.74	17.126
516.08	17.633
516.42	16.843
516.77	17.496
517.11	17.389
517.46	17.834
517.80	16.806
518.14	17.085
518.49	17.127
518.83	16.100
519.17	16.555
519.52	16.815
519.86	16.327
520.20	16.829
520.55	17.448
520.89	17.691
521.23	17.226
521.58	18.170
521.92	17.115
522.26	16.721
522.61	17.857
522.95	17.351
523.29	17.598
523.64	18.043
523.98	17.045
524.32	16.559
524.66	17.670
525.01	17.597
525.35	18.146
525.69	17.104
526.04	16.733
526.38	18.547
526.72	16.808
527.06	17.639
527.41	18.404
527.75	17.426
528.09	17.342
528.43	18.636
528.78	17.294
529.12	18.065
529.46	17.674
529.80	18.113
530.15	17.954
530.49	17.845
530.83	18.194
531.17	17.663
531.51	17.852
531.86	17.199
532.20	17.537
532.54	17.223
532.88	18.070
533.22	17.742
533.57	17.169
533.91	16.580
534.25	17.904
534.59	17.255
534.93	16.992
535.27	17.259
535.62	16.202
535.96	17.286
536.30	17.942
536.64	18.263
536.98	16.516
537.32	18.421
537.66	18.794
538.01	17.972
538.35	17.753
538.69	18.375
539.03	17.498
539.37	17.900
539.71	17.791
540.05	17.923
540.39	17.382
540.73	17.643
541.07	17.956
541.42	17.339
541.76	17.481
542.10	16.793
542.44	17.026
542.78	16.242
543.12	16.827
543.46	17.733
543.80	16.794
544.14	16.555
544.48	17.455
544.82	17.840
545.16	18.238
545.50	17.156
545.84	18.414
546.18	19.504
546.52	17.520
546.86	17.254
547.20	16.738
547.54	17.102
547.88	18.886
548.22	16.963
548.56	18.470
548.90	17.588
549.24	17.769
549.58	18.406
549.92	17.084
550.26	17.216
550.60	18.662
550.94	18.596
551.28	17.388
551.62	18.462
551.96	17.293
552.30	18.494
552.64	16.643
552.98	17.511
553.32	17.832
553.66	17.562
554.00	17.445
554.34	18.021
554.68	17.552
555.02	17.783
555.36	17.876
555.69	17.363
556.03	16.488
556.37	17.722
556.71	17.256
557.05	18.121
557.39	16.506
557.73	17.616
558.07	18.401
558.41	17.458
558.75	17.537
559.08	17.573
559.42	17.937
559.76	17.054
560.10	17.508
560.44	18.466
560.78	17.063
561.12	17.772
561.45	18.623
561.79	17.577
562.13	17.743
562.47	17.338
562.81	17.651
563.15	17.772
563.48	17.397
563.82	17.296
564.16	18.175
564.50	17.973
564.84	17.671
565.17	16.767
565.51	18.238
565.85	17.901
566.19	18.700
566.52	17.694
566.86	17.674
567.20	16.127
567.54	17.032
567.88	17.868
568.21	16.855
568.55	17.880
568.89	17.556
569.23	17.477
569.56	17.513
569.90	17.418
570.24	17.008
570.57	17.018
570.91	16.765
571.25	16.179
571.59	16.225
571.92	16.119
572.26	15.972
572.60	15.783
572.93	16.159
573.27	15.831
573.61	16.348
573.95	16.221
574.28	15.996
574.62	16.120
574.96	16.031
575.29	15.724
575.63	15.496
575.97	15.153
576.30	15.294
576.64	15.417
576.98	16.139
577.31	15.827
577.65	15.963
577.98	16.314
578.32	15.871
578.66	15.280
578.99	15.044
579.33	15.788
579.67	15.140
580.00	15.418
580.34	15.597
580.67	15.678
581.01	15.802
581.35	15.848
581.68	15.883
582.02	15.911
582.35	15.766
582.69	15.602
583.02	15.702
583.36	15.425
583.70	15.940
584.03	15.569
584.37	15.839
584.70	15.632
585.04	15.648
585.37	15.676
585.71	15.478
586.04	15.935
586.38	15.577
586.72	15.868
587.05	16.118
587.39	15.879
587.72	16.102
588.06	15.638
588.39	15.694
588.73	16.087
589.06	15.590
589.40	15.970
589.73	16.101
590.07	16.201
590.40	16.563
590.73	17.175
591.07	16.115
591.40	16.607
591.74	16.787
592.07	17.161
592.41	17.270
592.74	17.005
593.08	16.451
593.41	16.244
593.75	16.618
594.08	15.929
594.41	16.485
594.75	15.534
595.08	16.194
595.42	16.342
595.75	15.734
596.09	16.693
596.42	15.502
596.75	16.652
597.09	16.811
597.42	16.396
597.75	16.445
598.09	16.433
598.42	16.697
598.76	15.573
599.09	16.186
599.42	15.953
599.76	15.350
600.09	16.365
600.42	16.149
600.76	16.122
601.09	16.374
601.42	15.942
601.76	15.840
602.09	15.718
602.42	16.596
602.76	16.469
603.09	16.944
603.42	17.015
603.76	15.887
604.09	15.958
604.42	15.990
604.76	16.867
605.09	16.636
605.42	16.343
605.75	15.893
606.09	15.754
606.42	16.389
606.75	16.667
607.09	16.484
607.42	15.640
607.75	16.652
608.08	15.364
608.42	16.309
608.75	16.145
609.08	16.243
609.41	17.513
609.75	16.230
610.08	16.875
610.41	16.280
610.74	16.821
611.07	16.848
611.41	16.450
611.74	16.951
612.07	16.167
612.40	17.451
612.73	16.384
613.07	15.861
613.40	16.575
613.73	15.949
614.06	16.973
614.39	17.202
614.72	16.695
615.06	17.207
615.39	16.539
615.72	16.631
616.05	16.983
616.38	15.897
616.71	16.147
617.05	16.368
617.38	16.719
617.71	16.478
618.04	17.206
618.37	17.528
618.70	16.568
619.03	17.986
619.36	16.932
619.69	16.983
620.03	19.065
620.36	17.597
620.69	17.630
621.02	18.196
621.35	17.593
621.68	16.752
622.01	18.083
622.34	18.516
622.67	18.375
623.00	18.453
623.33	17.378
623.66	16.978
623.99	17.927
624.32	16.730
624.65	17.218
624.99	18.284
625.32	17.286
625.65	18.382
625.98	18.533
626.31	17.290
626.64	17.244
626.97	17.976
627.30	18.827
627.63	18.631
627.96	18.509
628.29	17.854
628.62	18.682
628.95	18.136
629.28	18.246
629.61	18.146
629.94	18.964
630.26	17.984
630.59	19.459
630.92	18.974
631.25	18.359
631.58	19.053
631.91	18.202
632.24	18.463
632.57	20.909
632.90	17.082
633.23	20.118
633.56	18.640
633.89	17.756
