SpectraSuite Data File
++++++++++++++++++++++++++++++++++++
Date: Fri May 15 20:49:47 PDT 2015
User: schluterlab
Dark Spectrum Present: Yes
Reference Spectrum Present: Yes
Number of Sampled Component Spectra: 1
Spectrometers: USB2E3373
Integration Time (usec): 3000 (USB2E3373)
Spectra Averaged: 3 (USB2E3373)
Boxcar Smoothing: 0 (USB2E3373)
Correct for Electrical Dark: No (USB2E3373)
Strobe/Lamp Enabled: No (USB2E3373)
Correct for Detector Non-linearity: No (USB2E3373)
Correct for Stray Light: No (USB2E3373)
Number of Pixels in Processed Spectrum: 2048
>>>>>Begin Processed Spectral Data<<<<<
178.53	0.000
178.91	0.000
179.29	-37.500
179.67	-50.000
180.04	185.714
180.42	150.000
180.80	-700.000
181.18	166.667
181.56	450.000
181.94	-200.000
182.31	300.000
182.69	0.000
183.07	-433.333
183.45	-20.000
183.83	133.333
184.20	-27.273
184.58	133.333
184.96	-25.000
185.34	166.667
185.72	-700.000
186.09	100.000
186.47	-100.000
186.85	83.333
187.23	66.667
187.61	1100.000
187.98	-66.667
188.36	-88.889
188.74	-166.667
189.12	41.176
189.49	55.556
189.87	0.000
190.25	42.857
190.63	-150.000
191.00	-400.000
191.38	15.789
191.76	250.000
192.14	-200.000
192.51	650.000
192.89	-77.778
193.27	-228.571
193.65	183.333
194.02	218.182
194.40	50.000
194.78	-112.500
195.15	-125.000
195.53	-212.500
195.91	275.000
196.29	-50.000
196.66	92.308
197.04	71.429
197.42	-11.111
197.79	-900.000
198.17	-23.077
198.55	1200.000
198.92	-366.667
199.30	-800.000
199.68	-140.000
200.05	-600.000
200.43	0.000
200.81	-133.333
201.18	33.333
201.56	1700.000
201.94	-300.000
202.31	-200.000
202.69	-180.000
203.07	175.000
203.44	-300.000
203.82	0.000
204.19	0.000
204.57	-400.000
204.95	137.500
205.32	-90.000
205.70	-142.857
206.08	-25.000
206.45	177.778
206.83	28.571
207.20	-28.571
207.58	1100.000
207.96	-300.000
208.33	-80.000
208.71	-225.000
209.08	-183.333
209.46	-400.000
209.84	-40.000
210.21	-1000.000
210.59	57.143
210.96	0.000
211.34	225.000
211.71	13.333
212.09	-214.286
212.46	-2200.000
212.84	0.000
213.22	20.000
213.59	700.000
213.97	23.077
214.34	-63.636
214.72	-116.667
215.09	450.000
215.47	30.769
215.84	-54.545
216.22	-333.333
216.59	-125.000
216.97	-300.000
217.34	-275.000
217.72	0.000
218.09	-62.500
218.47	112.500
218.84	-1000.000
219.22	-88.889
219.59	-20.000
219.97	266.667
220.34	275.000
220.72	-57.143
221.09	-175.000
221.47	-200.000
221.84	-800.000
222.22	-800.000
222.59	-27.273
222.97	8.333
223.34	-533.333
223.72	-50.000
224.09	-14.286
224.46	35.714
224.84	366.667
225.21	-10.000
225.59	40.000
225.96	-350.000
226.34	225.000
226.71	-171.429
227.08	-200.000
227.46	-137.500
227.83	-750.000
228.21	-11.111
228.58	0.000
228.95	-62.500
229.33	110.000
229.70	-12.500
230.08	-62.500
230.45	-114.286
230.82	-71.429
231.20	0.000
231.57	42.857
231.95	-57.143
232.32	-90.000
232.69	-71.429
233.07	166.667
233.44	-80.000
233.81	-50.000
234.19	22.222
234.56	-11.765
234.93	650.000
235.31	25.000
235.68	-180.000
236.05	-30.769
236.43	-65.000
236.80	17.647
237.17	-12.500
237.55	-5.000
237.92	11.111
238.29	8.333
238.67	66.667
239.04	-8.824
239.41	-19.512
239.79	-30.000
240.16	21.951
240.53	26.316
240.91	-13.043
241.28	14.286
241.65	8.929
242.02	17.808
242.40	23.333
242.77	1.695
243.14	4.545
243.51	16.250
243.89	27.586
244.26	19.540
244.63	10.714
245.00	19.588
245.38	23.711
245.75	10.112
246.12	14.655
246.49	9.917
246.87	26.923
247.24	14.286
247.61	16.667
247.98	14.634
248.36	19.375
248.73	16.447
249.10	15.584
249.47	18.987
249.84	15.033
250.22	15.294
250.59	23.529
250.96	25.352
251.33	19.186
251.70	24.706
252.08	18.782
252.45	17.822
252.82	20.101
253.19	26.728
253.56	19.626
253.94	22.973
254.31	18.696
254.68	24.561
255.05	22.835
255.42	20.087
255.79	24.710
256.16	21.012
256.54	25.000
256.91	16.730
257.28	18.587
257.65	22.097
258.02	21.631
258.39	25.589
258.76	24.176
259.14	21.927
259.51	24.595
259.88	22.680
260.25	20.915
260.62	25.694
260.99	17.288
261.36	17.123
261.73	22.785
262.10	21.581
262.47	22.393
262.85	22.257
263.22	22.154
263.59	24.611
263.96	23.292
264.33	20.606
264.70	23.214
265.07	24.107
265.44	24.079
265.81	23.446
266.18	21.585
266.55	23.393
266.92	22.798
267.29	23.499
267.66	22.251
268.03	23.037
268.40	21.410
268.77	25.134
269.14	23.261
269.51	26.478
269.88	21.197
270.25	20.663
270.62	21.463
270.99	25.064
271.36	22.494
271.73	22.300
272.10	23.844
272.47	24.350
272.84	21.782
273.21	22.274
273.58	23.133
273.95	22.197
274.32	21.709
274.69	22.172
275.06	23.661
275.43	20.181
275.80	23.841
276.17	23.678
276.54	21.627
276.91	23.684
277.28	22.271
277.65	23.967
278.02	19.362
278.39	22.101
278.76	22.432
279.13	17.842
279.50	24.160
279.87	22.246
280.23	23.011
280.60	21.442
280.97	20.808
281.34	22.885
281.71	24.025
282.08	18.200
282.45	20.939
282.82	24.324
283.19	20.890
283.56	23.121
283.92	21.063
284.29	21.346
284.66	18.992
285.03	21.415
285.40	20.605
285.77	19.859
286.14	19.675
286.51	21.956
286.87	20.475
287.24	20.810
287.61	20.459
287.98	21.930
288.35	20.797
288.72	22.242
289.08	20.312
289.45	20.738
289.82	18.706
290.19	19.113
290.56	17.324
290.93	19.192
291.29	17.565
291.66	19.843
292.03	19.458
292.40	19.355
292.77	18.979
293.13	19.481
293.50	17.754
293.87	18.321
294.24	21.020
294.60	18.927
294.97	18.601
295.34	15.798
295.71	18.778
296.08	17.339
296.44	16.643
296.81	15.694
297.18	17.536
297.55	17.886
297.91	16.438
298.28	16.755
298.65	18.453
299.02	17.116
299.38	14.637
299.75	17.103
300.12	16.230
300.48	15.679
300.85	15.970
301.22	15.714
301.59	15.132
301.95	16.709
302.32	17.250
302.69	15.174
303.05	16.584
303.42	15.816
303.79	16.589
304.15	15.651
304.52	14.150
304.89	16.491
305.25	15.254
305.62	14.702
305.99	16.023
306.35	15.838
306.72	16.085
307.09	15.393
307.45	15.155
307.82	15.509
308.19	15.912
308.55	15.594
308.92	17.102
309.29	14.749
309.65	14.747
310.02	14.741
310.38	15.697
310.75	15.847
311.12	14.639
311.48	15.270
311.85	16.335
312.22	14.873
312.58	15.393
312.95	14.088
313.31	14.907
313.68	15.393
314.05	14.082
314.41	15.979
314.78	16.598
315.14	16.136
315.51	15.942
315.87	14.652
316.24	17.796
316.61	17.323
316.97	17.163
317.34	15.137
317.70	16.826
318.07	16.250
318.43	17.255
318.80	16.856
319.16	17.578
319.53	18.993
319.89	16.535
320.26	17.206
320.62	18.556
320.99	16.701
321.35	16.958
321.72	18.692
322.08	17.523
322.45	18.071
322.81	18.468
323.18	18.057
323.54	18.822
323.91	18.014
324.27	19.629
324.64	18.820
325.00	19.069
325.37	20.845
325.73	18.404
326.10	19.709
326.46	19.552
326.83	20.210
327.19	19.965
327.56	18.332
327.92	21.831
328.29	20.446
328.65	21.038
329.01	19.945
329.38	20.461
329.74	18.791
330.11	20.945
330.47	19.202
330.84	19.712
331.20	22.909
331.56	20.093
331.93	21.553
332.29	21.723
332.66	20.724
333.02	21.654
333.38	21.448
333.75	20.696
334.11	19.606
334.48	21.668
334.84	21.978
335.20	19.579
335.57	21.306
335.93	21.680
336.29	20.902
336.66	19.619
337.02	20.539
337.38	19.352
337.75	20.909
338.11	21.821
338.47	21.168
338.84	20.980
339.20	20.475
339.56	21.743
339.93	20.412
340.29	21.193
340.65	21.147
341.02	21.897
341.38	21.062
341.74	19.611
342.11	20.884
342.47	20.819
342.83	22.405
343.20	20.819
343.56	21.217
343.92	21.789
344.28	20.581
344.65	21.416
345.01	20.225
345.37	20.521
345.73	22.678
346.10	21.484
346.46	21.362
346.82	21.031
347.19	21.031
347.55	21.136
347.91	21.197
348.27	20.614
348.63	21.380
349.00	21.329
349.36	21.363
349.72	21.559
350.08	21.230
350.45	21.149
350.81	20.598
351.17	21.254
351.53	20.408
351.89	20.809
352.26	20.800
352.62	20.323
352.98	20.643
353.34	20.451
353.70	22.330
354.07	21.210
354.43	21.057
354.79	20.809
355.15	21.349
355.51	21.282
355.87	21.359
356.24	19.494
356.60	21.746
356.96	21.825
357.32	21.565
357.68	21.110
358.04	21.082
358.40	19.936
358.77	22.010
359.13	20.897
359.49	20.416
359.85	20.983
360.21	21.691
360.57	20.888
360.93	20.953
361.29	20.393
361.66	22.335
362.02	21.894
362.38	21.554
362.74	21.575
363.10	20.692
363.46	20.830
363.82	22.164
364.18	20.959
364.54	20.809
364.90	20.215
365.26	21.033
365.62	21.825
365.98	21.481
366.35	22.068
366.71	21.508
367.07	22.206
367.43	21.352
367.79	21.484
368.15	20.818
368.51	21.631
368.87	20.962
369.23	20.578
369.59	20.991
369.95	22.214
370.31	21.604
370.67	21.194
371.03	21.583
371.39	21.225
371.75	21.245
372.11	22.111
372.47	22.707
372.83	21.434
373.19	22.325
373.55	21.588
373.91	22.030
374.27	21.970
374.63	21.823
374.99	21.560
375.35	22.284
375.71	23.007
376.07	22.051
376.42	22.449
376.78	23.289
377.14	22.139
377.50	23.373
377.86	22.758
378.22	22.336
378.58	22.821
378.94	21.865
379.30	22.458
379.66	23.950
380.02	22.685
380.38	22.946
380.74	22.861
381.09	23.742
381.45	23.303
381.81	22.702
382.17	22.906
382.53	22.174
382.89	22.850
383.25	22.962
383.61	23.963
383.97	22.603
384.32	23.702
384.68	23.282
385.04	23.713
385.40	23.398
385.76	24.340
386.12	23.933
386.48	24.393
386.83	23.716
387.19	24.115
387.55	24.404
387.91	23.961
388.27	24.359
388.62	25.047
388.98	24.187
389.34	23.548
389.70	25.047
390.06	24.795
390.42	24.093
390.77	24.264
391.13	24.212
391.49	24.127
391.85	24.496
392.20	25.047
392.56	24.857
392.92	25.073
393.28	24.175
393.64	25.285
393.99	25.956
394.35	25.364
394.71	25.862
395.07	25.581
395.42	24.529
395.78	26.189
396.14	26.103
396.50	25.618
396.85	25.306
397.21	25.063
397.57	25.204
397.92	25.225
398.28	25.747
398.64	25.361
399.00	26.185
399.35	25.621
399.71	25.503
400.07	26.602
400.42	25.826
400.78	26.516
401.14	26.255
401.49	26.802
401.85	26.935
402.21	26.867
402.57	26.875
402.92	26.035
403.28	26.504
403.63	28.499
403.99	26.531
404.35	26.483
404.70	26.190
405.06	27.145
405.42	27.284
405.77	26.322
406.13	27.125
406.49	26.939
406.84	26.773
407.20	28.116
407.55	28.010
407.91	27.540
408.27	28.043
408.62	27.938
408.98	27.172
409.34	28.067
409.69	27.519
410.05	27.278
410.40	27.778
410.76	28.589
411.11	27.375
411.47	28.863
411.83	28.060
412.18	28.893
412.54	28.090
412.89	26.909
413.25	28.941
413.60	27.702
413.96	27.301
414.31	29.146
414.67	29.057
415.03	28.562
415.38	29.243
415.74	29.967
416.09	29.327
416.45	29.372
416.80	29.081
417.16	30.387
417.51	29.247
417.87	28.944
418.22	29.922
418.58	29.900
418.93	30.658
419.29	28.489
419.64	29.164
420.00	31.108
420.35	29.373
420.71	29.951
421.06	29.650
421.42	30.709
421.77	30.347
422.12	29.285
422.48	30.374
422.83	29.988
423.19	29.628
423.54	30.041
423.90	30.094
424.25	30.367
424.61	31.028
424.96	29.326
425.31	31.254
425.67	30.692
426.02	30.624
426.38	31.810
426.73	31.356
427.09	31.772
427.44	31.412
427.79	30.053
428.15	31.371
428.50	31.133
428.85	30.160
429.21	31.183
429.56	31.536
429.92	31.125
430.27	30.075
430.62	30.319
430.98	31.104
431.33	31.441
431.68	31.554
432.04	31.191
432.39	30.747
432.74	30.728
433.10	31.782
433.45	32.378
433.80	30.934
434.16	30.803
434.51	31.667
434.86	30.836
435.22	32.249
435.57	31.441
435.92	30.958
436.28	31.246
436.63	31.888
436.98	31.518
437.34	31.155
437.69	32.856
438.04	32.080
438.39	30.788
438.75	32.726
439.10	32.032
439.45	32.075
439.81	31.865
440.16	32.898
440.51	33.791
440.86	33.051
441.22	32.579
441.57	32.561
441.92	32.686
442.27	32.650
442.63	32.709
442.98	32.740
443.33	32.443
443.68	31.671
444.03	32.886
444.39	32.022
444.74	34.058
445.09	33.630
445.44	33.447
445.79	33.471
446.15	32.709
446.50	32.280
446.85	33.209
447.20	32.795
447.55	33.594
447.91	32.769
448.26	33.125
448.61	32.988
448.96	33.563
449.31	33.410
449.66	33.275
450.02	32.573
450.37	33.432
450.72	32.589
451.07	34.177
451.42	32.459
451.77	32.489
452.12	32.895
452.47	33.419
452.83	33.687
453.18	33.144
453.53	34.450
453.88	32.605
454.23	33.497
454.58	34.131
454.93	33.247
455.28	32.508
455.63	33.106
455.98	33.915
456.34	32.439
456.69	33.736
457.04	33.774
457.39	33.293
457.74	33.978
458.09	31.901
458.44	32.651
458.79	33.277
459.14	33.467
459.49	33.194
459.84	32.995
460.19	33.799
460.54	33.252
460.89	33.580
461.24	33.354
461.59	33.373
461.94	33.585
462.29	34.077
462.64	35.216
462.99	33.446
463.34	33.449
463.69	33.784
464.04	33.838
464.39	33.475
464.74	32.822
465.09	33.999
465.44	33.583
465.79	32.653
466.14	34.265
466.49	33.410
466.84	33.432
467.19	33.229
467.54	33.269
467.89	34.365
468.24	34.428
468.59	34.349
468.94	34.222
469.29	34.230
469.64	33.630
469.99	34.548
470.34	33.379
470.68	35.272
471.03	34.324
471.38	34.094
471.73	35.364
472.08	33.514
472.43	34.430
472.78	34.750
473.13	33.946
473.48	34.658
473.83	32.254
474.17	33.808
474.52	34.588
474.87	33.879
475.22	33.740
475.57	33.597
475.92	34.284
476.27	33.877
476.61	35.012
476.96	33.017
477.31	34.451
477.66	33.876
478.01	33.015
478.36	34.695
478.70	34.421
479.05	33.571
479.40	34.075
479.75	32.899
480.10	33.333
480.45	33.500
480.79	34.592
481.14	34.939
481.49	34.384
481.84	34.846
482.19	33.630
482.53	33.429
482.88	33.842
483.23	33.637
483.58	33.160
483.92	33.253
484.27	33.592
484.62	33.707
484.97	33.416
485.31	32.478
485.66	30.790
486.01	30.407
486.36	30.479
486.70	32.108
487.05	32.410
487.40	32.627
487.75	33.042
488.09	33.282
488.44	34.285
488.79	34.217
489.13	34.255
489.48	33.647
489.83	33.587
490.17	32.629
490.52	34.365
490.87	33.781
491.22	34.527
491.56	33.397
491.91	33.939
492.26	34.565
492.60	33.733
492.95	34.678
493.30	32.829
493.64	34.086
493.99	34.106
494.34	33.641
494.68	34.333
495.03	33.820
495.37	33.759
495.72	33.872
496.07	34.390
496.41	33.255
496.76	34.040
497.11	33.209
497.45	33.652
497.80	34.914
498.14	34.078
498.49	33.926
498.84	34.531
499.18	33.936
499.53	34.375
499.87	33.317
500.22	33.531
500.56	34.695
500.91	33.635
501.26	33.811
501.60	33.005
501.95	33.916
502.29	32.494
502.64	33.929
502.98	33.794
503.33	33.285
503.67	33.639
504.02	34.018
504.36	34.191
504.71	32.828
505.06	34.524
505.40	33.858
505.75	33.454
506.09	33.908
506.44	34.651
506.78	34.286
507.13	34.230
507.47	33.577
507.82	34.135
508.16	34.337
508.51	34.050
508.85	34.118
509.19	33.475
509.54	34.102
509.88	34.574
510.23	34.212
510.57	34.741
510.92	33.689
511.26	34.915
511.61	34.213
511.95	34.521
512.30	35.366
512.64	34.391
512.98	33.857
513.33	35.031
513.67	34.736
514.02	35.698
514.36	35.771
514.70	34.732
515.05	35.781
515.39	35.950
515.74	35.868
516.08	34.788
516.42	34.688
516.77	35.986
517.11	36.142
517.46	35.607
517.80	35.042
518.14	35.334
518.49	34.976
518.83	36.027
519.17	34.809
519.52	34.932
519.86	35.054
520.20	35.905
520.55	34.396
520.89	37.139
521.23	34.769
521.58	35.836
521.92	36.218
522.26	35.654
522.61	35.714
522.95	37.152
523.29	36.277
523.64	37.230
523.98	36.552
524.32	36.082
524.66	36.364
525.01	35.909
525.35	37.330
525.69	36.431
526.04	35.317
526.38	37.095
526.72	35.317
527.06	34.565
527.41	36.214
527.75	35.188
528.09	36.346
528.43	36.732
528.78	35.710
529.12	36.129
529.46	36.062
529.80	35.339
530.15	35.908
530.49	36.094
530.83	36.731
531.17	35.191
531.51	37.756
531.86	36.778
532.20	36.465
532.54	36.692
532.88	36.550
533.22	35.618
533.57	35.911
533.91	35.052
534.25	36.458
534.59	35.664
534.93	36.060
535.27	33.947
535.62	35.450
535.96	35.616
536.30	36.807
536.64	36.733
536.98	35.261
537.32	36.486
537.66	37.237
538.01	37.343
538.35	35.922
538.69	36.751
539.03	35.885
539.37	36.608
539.71	36.128
540.05	35.777
540.39	36.150
540.73	35.425
541.07	36.188
541.42	35.685
541.76	36.201
542.10	35.926
542.44	36.067
542.78	34.825
543.12	34.478
543.46	35.327
543.80	35.739
544.14	33.712
544.48	35.909
544.82	35.202
545.16	34.973
545.50	36.248
545.84	36.615
546.18	36.738
546.52	35.761
546.86	35.298
547.20	35.265
547.54	34.912
547.88	35.938
548.22	35.306
548.56	34.433
548.90	35.580
549.24	35.055
549.58	34.203
549.92	35.525
550.26	35.238
550.60	36.059
550.94	36.370
551.28	37.017
551.62	36.154
551.96	36.391
552.30	35.453
552.64	34.838
552.98	36.146
553.32	34.665
553.66	34.833
554.00	35.401
554.34	36.189
554.68	34.661
555.02	36.682
555.36	35.752
555.69	34.872
556.03	35.118
556.37	33.167
556.71	35.668
557.05	35.869
557.39	34.944
557.73	35.607
558.07	36.275
558.41	35.528
558.75	35.853
559.08	35.461
559.42	37.222
559.76	36.349
560.10	35.703
560.44	34.773
560.78	34.266
561.12	35.472
561.45	35.980
561.79	34.174
562.13	35.557
562.47	34.460
562.81	35.591
563.15	34.203
563.48	35.149
563.82	34.454
564.16	34.680
564.50	33.581
564.84	34.203
565.17	33.870
565.51	35.656
565.85	34.225
566.19	34.483
566.52	34.920
566.86	34.383
567.20	33.313
567.54	34.367
567.88	34.681
568.21	33.767
568.55	33.424
568.89	33.008
569.23	32.836
569.56	31.524
569.90	31.953
570.24	31.038
570.57	30.982
570.91	31.614
571.25	30.483
571.59	30.614
571.92	30.252
572.26	30.978
572.60	31.318
572.93	30.750
573.27	30.909
573.61	30.907
573.95	30.311
574.28	30.535
574.62	30.028
574.96	30.192
575.29	29.833
575.63	29.386
575.97	30.008
576.30	29.800
576.64	29.801
576.98	30.167
577.31	30.179
577.65	29.564
577.98	29.480
578.32	29.197
578.66	29.400
578.99	29.808
579.33	29.903
579.67	29.119
580.00	30.278
580.34	30.100
580.67	29.847
581.01	29.803
581.35	29.522
581.68	28.675
582.02	28.941
582.35	29.415
582.69	28.983
583.02	29.652
583.36	30.021
583.70	30.919
584.03	31.888
584.37	31.705
584.70	30.440
585.04	29.819
585.37	29.631
585.71	29.450
586.04	29.324
586.38	29.208
586.72	30.531
587.05	30.474
587.39	30.361
587.72	30.290
588.06	30.169
588.39	30.419
588.73	30.556
589.06	30.985
589.40	30.522
589.73	31.033
590.07	31.647
590.40	31.308
590.73	31.960
591.07	31.976
591.40	31.523
591.74	31.719
592.07	31.679
592.41	31.449
592.74	29.789
593.08	29.235
593.41	29.325
593.75	29.212
594.08	29.969
594.41	29.876
594.75	30.573
595.08	30.420
595.42	29.481
595.75	31.055
596.09	30.649
596.42	31.170
596.75	30.506
597.09	31.298
597.42	30.759
597.75	30.829
598.09	30.285
598.42	30.776
598.76	29.515
599.09	29.808
599.42	28.837
599.76	29.421
600.09	29.789
600.42	29.757
600.76	29.123
601.09	29.885
601.42	29.495
601.76	29.536
602.09	30.116
602.42	31.003
602.76	30.263
603.09	30.565
603.42	31.229
603.76	29.194
604.09	29.648
604.42	30.034
604.76	30.975
605.09	30.256
605.42	30.926
605.75	29.641
606.09	29.724
606.42	29.858
606.75	30.390
607.09	29.978
607.42	29.375
607.75	29.707
608.08	29.515
608.42	29.785
608.75	30.410
609.08	30.294
609.41	30.152
609.75	29.788
610.08	30.005
610.41	29.903
610.74	30.522
611.07	31.008
611.41	31.085
611.74	31.183
612.07	30.193
612.40	31.072
612.73	29.661
613.07	30.259
613.40	30.306
613.73	30.666
614.06	30.440
614.39	30.231
614.72	30.140
615.06	29.888
615.39	29.367
615.72	29.386
616.05	30.056
616.38	28.604
616.71	31.193
617.05	30.821
617.38	30.735
617.71	30.503
618.04	30.921
618.37	30.580
618.70	32.013
619.03	32.500
619.36	32.055
619.69	32.070
620.03	32.286
620.36	31.044
620.69	31.478
621.02	31.575
621.35	32.697
621.68	34.779
622.01	31.833
622.34	31.445
622.67	32.492
623.00	31.853
623.33	31.555
623.66	31.040
623.99	31.770
624.32	31.179
624.65	31.278
624.99	31.603
625.32	31.387
625.65	32.600
625.98	32.554
626.31	32.003
626.64	32.149
626.97	33.944
627.30	32.662
627.63	33.536
627.96	32.884
628.29	33.210
628.62	34.120
628.95	33.567
629.28	33.266
629.61	33.300
629.94	32.160
630.26	32.510
630.59	34.339
630.92	33.744
631.25	32.000
631.58	33.921
631.91	32.675
632.24	32.339
632.57	33.636
632.90	32.503
