SpectraSuite Data File
++++++++++++++++++++++++++++++++++++
Date: Fri May 15 20:40:48 PDT 2015
User: schluterlab
Dark Spectrum Present: Yes
Reference Spectrum Present: Yes
Number of Sampled Component Spectra: 1
Spectrometers: USB2E3373
Integration Time (usec): 3000 (USB2E3373)
Spectra Averaged: 3 (USB2E3373)
Boxcar Smoothing: 0 (USB2E3373)
Correct for Electrical Dark: No (USB2E3373)
Strobe/Lamp Enabled: No (USB2E3373)
Correct for Detector Non-linearity: No (USB2E3373)
Correct for Stray Light: No (USB2E3373)
Number of Pixels in Processed Spectrum: 2048
>>>>>Begin Processed Spectral Data<<<<<
178.53	0.000
178.91	0.000
179.29	-37.500
179.67	-150.000
180.04	14.286
180.42	25.000
180.80	-200.000
181.18	166.667
181.56	100.000
181.94	350.000
182.31	200.000
182.69	-20.000
183.07	-533.333
183.45	-120.000
183.83	250.000
184.20	36.364
184.58	100.000
184.96	-25.000
185.34	-33.333
185.72	0.000
186.09	161.538
186.47	-1500.000
186.85	66.667
187.23	144.444
187.61	-100.000
187.98	-233.333
188.36	-55.556
188.74	-200.000
189.12	-5.882
189.49	16.667
189.87	0.000
190.25	14.286
190.63	200.000
191.00	-366.667
191.38	-26.316
191.76	250.000
192.14	-125.000
192.51	300.000
192.89	-55.556
193.27	-157.143
193.65	133.333
194.02	127.273
194.40	40.000
194.78	-87.500
195.15	25.000
195.53	37.500
195.91	50.000
196.29	25.000
196.66	76.923
197.04	157.143
197.42	-66.667
197.79	-666.667
198.17	-76.923
198.55	1000.000
198.92	-100.000
199.30	-1300.000
199.68	-100.000
200.05	-100.000
200.43	0.000
200.81	66.667
201.18	-166.667
201.56	800.000
201.94	-200.000
202.31	66.667
202.69	-140.000
203.07	50.000
203.44	-600.000
203.82	0.000
204.19	71.429
204.57	-233.333
204.95	100.000
205.32	-40.000
205.70	28.571
206.08	-100.000
206.45	100.000
206.83	7.143
207.20	-42.857
207.58	800.000
207.96	-33.333
208.33	-30.000
208.71	-350.000
209.08	-116.667
209.46	-800.000
209.84	0.000
210.21	-1100.000
210.59	-157.143
210.96	-166.667
211.34	-250.000
211.71	33.333
212.09	71.429
212.46	-1600.000
212.84	0.000
213.22	-30.000
213.59	250.000
213.97	38.462
214.34	9.091
214.72	-50.000
215.09	200.000
215.47	-53.846
215.84	72.727
216.22	-266.667
216.59	-37.500
216.97	-50.000
217.34	0.000
217.72	40.000
218.09	-125.000
218.47	162.500
218.84	-100.000
219.22	-111.111
219.59	-200.000
219.97	666.667
220.34	225.000
220.72	28.571
221.09	-150.000
221.47	400.000
221.84	-250.000
222.22	-1000.000
222.59	-18.182
222.97	83.333
223.34	-200.000
223.72	50.000
224.09	19.048
224.46	10.714
224.84	400.000
225.21	-110.000
225.59	-46.667
225.96	0.000
226.34	500.000
226.71	-100.000
227.08	-100.000
227.46	12.500
227.83	-450.000
228.21	44.444
228.58	-36.364
228.95	37.500
229.33	50.000
229.70	75.000
230.08	-150.000
230.45	-142.857
230.82	85.714
231.20	-73.333
231.57	-35.714
231.95	-142.857
232.32	-80.000
232.69	14.286
233.07	-300.000
233.44	-140.000
233.81	-80.000
234.19	22.222
234.56	-35.294
234.93	650.000
235.31	50.000
235.68	-340.000
236.05	-100.000
236.43	-65.000
236.80	-47.059
237.17	9.375
237.55	5.000
237.92	-7.407
238.29	8.333
238.67	0.000
239.04	-35.294
239.41	-24.390
239.79	-20.000
240.16	-7.317
240.53	-26.316
240.91	-15.217
241.28	-3.175
241.65	10.714
242.02	19.178
242.40	-16.667
242.77	-15.254
243.14	4.545
243.51	1.250
243.89	9.195
244.26	-4.598
244.63	-7.143
245.00	-3.093
245.38	5.155
245.75	-11.236
246.12	-0.862
246.49	-2.479
246.87	-0.962
247.24	-8.403
247.61	-14.912
247.98	0.813
248.36	1.250
248.73	-3.289
249.10	-3.247
249.47	-1.266
249.84	-3.922
250.22	5.882
250.59	-4.575
250.96	4.695
251.33	-8.140
251.70	-1.765
252.08	-3.553
252.45	-1.980
252.82	0.503
253.19	-1.382
253.56	-3.271
253.94	0.000
254.31	5.217
254.68	3.947
255.05	0.000
255.42	-1.310
255.79	0.386
256.16	-0.778
256.54	3.731
256.91	0.000
257.28	-2.230
257.65	-1.498
258.02	-1.418
258.39	-2.357
258.76	3.663
259.14	-1.661
259.51	3.236
259.88	0.000
260.25	1.307
260.62	0.000
260.99	-4.407
261.36	0.342
261.73	-0.949
262.10	3.343
262.47	0.000
262.85	-1.881
263.22	-1.231
263.59	2.492
263.96	3.416
264.33	0.303
264.70	-2.381
265.07	-1.488
265.44	0.283
265.81	0.000
266.18	-0.820
266.55	-1.285
266.92	0.259
267.29	0.783
267.66	0.256
268.03	0.262
268.40	-2.089
268.77	1.604
269.14	1.199
269.51	-0.771
269.88	-0.748
270.25	-3.827
270.62	-0.488
270.99	-1.535
271.36	0.000
271.73	-0.704
272.10	-0.730
272.47	1.182
272.84	-1.238
273.21	3.480
273.58	0.964
273.95	-0.458
274.32	-0.462
274.69	-2.262
275.06	1.339
275.43	0.227
275.80	-0.221
276.17	-3.678
276.54	0.642
276.91	0.877
277.28	-1.965
277.65	0.207
278.02	0.426
278.39	-1.532
278.76	-1.677
279.13	-3.320
279.50	1.261
279.87	-0.432
280.23	-1.290
280.60	2.339
280.97	1.616
281.34	-1.154
281.71	1.437
282.08	-0.204
282.45	0.000
282.82	-1.158
283.19	-0.774
283.56	0.193
283.92	-1.518
284.29	-0.962
284.66	0.194
285.03	-0.982
285.40	0.378
285.77	1.054
286.14	0.361
286.51	-0.369
286.87	0.731
287.24	-0.552
287.61	-1.764
287.98	1.228
288.35	-0.520
288.72	-0.701
289.08	-0.521
289.45	0.176
289.82	0.524
290.19	-1.365
290.56	-0.686
290.93	-2.862
291.29	-1.079
291.66	2.835
292.03	-0.478
292.40	0.161
292.77	0.000
293.13	-1.948
293.50	-2.428
293.87	1.221
294.24	0.155
294.60	0.000
294.97	1.488
295.34	-0.153
295.71	-0.745
296.08	-0.448
296.44	-1.849
296.81	-0.139
297.18	0.435
297.55	2.033
297.91	1.370
298.28	1.979
298.65	0.271
299.02	-0.674
299.38	-1.778
299.75	-0.138
300.12	-0.131
300.48	-0.264
300.85	0.887
301.22	-0.390
301.59	-1.184
301.95	-0.633
302.32	0.778
302.69	-0.746
303.05	-1.238
303.42	0.125
303.79	1.752
304.15	0.597
304.52	-0.476
304.89	0.117
305.25	-0.484
305.62	-0.233
305.99	-1.404
306.35	-1.387
306.72	-1.912
307.09	-0.570
307.45	0.344
307.82	-0.926
308.19	0.116
308.55	0.000
308.92	0.000
309.29	-1.564
309.65	-0.538
310.02	0.110
310.38	-0.439
310.75	-0.437
311.12	-0.646
311.48	-1.379
311.85	0.524
312.22	-0.949
312.58	-1.062
312.95	-0.747
313.31	-0.104
313.68	-0.314
314.05	0.918
314.41	-0.619
314.78	-0.206
315.14	0.617
315.51	1.242
315.87	-0.205
316.24	1.517
316.61	0.000
316.97	0.298
317.34	0.391
317.70	-0.765
318.07	0.385
318.43	0.000
318.80	-0.284
319.16	0.781
319.53	1.994
319.89	0.492
320.26	0.405
320.62	0.301
320.99	-0.626
321.35	0.925
321.72	1.869
322.08	0.604
322.45	-0.203
322.81	1.572
323.18	0.981
323.54	1.062
323.91	0.389
324.27	1.074
324.64	1.217
325.00	2.646
325.37	1.745
325.73	0.997
326.10	1.544
326.46	1.794
326.83	1.575
327.19	1.395
327.56	2.693
327.92	1.849
328.29	2.411
328.65	2.642
329.01	2.206
329.38	2.581
329.74	0.755
330.11	3.614
330.47	2.134
330.84	1.442
331.20	2.947
331.56	3.056
331.93	2.648
332.29	3.483
332.66	1.810
333.02	2.788
333.38	1.833
333.75	2.289
334.11	2.328
334.48	3.173
334.84	1.465
335.20	2.287
335.57	2.992
335.93	2.800
336.29	2.947
336.66	2.452
337.02	1.673
337.38	2.778
337.75	2.273
338.11	2.705
338.47	3.102
338.84	2.218
339.20	1.828
339.56	2.569
339.93	2.328
340.29	2.385
340.65	3.495
341.02	3.280
341.38	2.743
341.74	2.032
342.11	2.253
342.47	1.690
342.83	3.201
343.20	2.526
343.56	2.522
343.92	2.480
344.28	2.904
344.65	2.418
345.01	2.247
345.37	2.523
345.73	2.594
346.10	3.538
346.46	2.691
346.82	2.455
347.19	2.328
347.55	3.175
347.91	3.236
348.27	2.668
348.63	2.896
349.00	2.543
349.36	2.078
349.72	2.488
350.08	2.951
350.45	3.192
350.81	1.661
351.17	2.117
351.53	2.449
351.89	2.312
352.26	2.640
352.62	2.177
352.98	3.052
353.34	2.093
353.70	3.398
354.07	1.452
354.43	2.242
354.79	0.826
355.15	3.016
355.51	2.453
355.87	2.427
356.24	1.387
356.60	1.859
356.96	3.889
357.32	1.997
357.68	3.284
358.04	1.454
358.40	1.929
358.77	2.791
359.13	1.361
359.49	1.849
359.85	2.496
360.21	1.515
360.57	1.301
360.93	2.648
361.29	2.115
361.66	1.254
362.02	2.273
362.38	2.818
362.74	1.741
363.10	2.859
363.46	1.631
363.82	3.381
364.18	1.550
364.54	2.279
364.90	2.007
365.26	1.892
365.62	3.212
365.98	1.833
366.35	2.331
366.71	2.513
367.07	2.250
367.43	1.797
367.79	2.544
368.15	2.513
368.51	2.476
368.87	1.149
369.23	1.444
369.59	1.822
369.95	3.006
370.31	2.601
370.67	2.313
371.03	2.091
371.39	2.334
371.75	2.711
372.11	1.997
372.47	1.627
372.83	2.555
373.19	2.140
373.55	2.310
373.91	2.376
374.27	1.984
374.63	2.154
374.99	2.270
375.35	2.019
375.71	2.448
376.07	1.334
376.42	2.381
376.78	2.081
377.14	2.437
377.50	2.324
377.86	2.544
378.22	2.361
378.58	1.731
378.94	1.575
379.30	2.059
379.66	2.382
380.02	1.533
380.38	1.522
380.74	1.616
381.09	2.577
381.45	1.835
381.81	1.542
382.17	1.904
382.53	1.999
382.89	1.507
383.25	2.551
383.61	2.622
383.97	1.587
384.32	1.626
384.68	2.229
385.04	2.083
385.40	2.302
385.76	2.516
386.12	2.393
386.48	1.788
386.83	1.902
387.19	2.076
387.55	2.509
387.91	2.078
388.27	1.893
388.62	2.203
388.98	1.657
389.34	2.249
389.70	2.610
390.06	1.636
390.42	1.749
390.77	1.112
391.13	1.765
391.49	2.135
391.85	1.494
392.20	2.574
392.56	1.399
392.92	2.055
393.28	2.123
393.64	1.982
393.99	2.382
394.35	0.949
394.71	3.001
395.07	1.760
395.42	2.429
395.78	2.345
396.14	1.892
396.50	2.029
396.85	1.739
397.21	1.754
397.57	2.006
397.92	2.337
398.28	2.241
398.64	1.867
399.00	2.652
399.35	1.806
399.71	2.412
400.07	1.874
400.42	2.632
400.78	2.756
401.14	1.694
401.49	2.263
401.85	1.523
402.21	2.349
402.57	1.625
402.92	1.757
403.28	2.444
403.63	2.396
403.99	1.977
404.35	2.498
404.70	2.083
405.06	2.468
405.42	1.305
405.77	1.336
406.13	1.572
406.49	2.013
406.84	1.956
407.20	2.468
407.55	1.030
407.91	1.604
408.27	1.275
408.62	2.031
408.98	1.972
409.34	2.416
409.69	1.292
410.05	1.724
410.40	1.235
410.76	2.292
411.11	1.687
411.47	2.893
411.83	1.507
412.18	1.931
412.54	2.247
412.89	1.786
413.25	2.106
413.60	1.739
413.96	2.270
414.31	2.744
414.67	1.924
415.03	1.531
415.38	1.958
415.74	2.866
416.09	2.939
416.45	2.836
416.80	1.520
417.16	1.796
417.51	2.931
417.87	2.347
418.22	2.008
418.58	1.806
418.93	2.508
419.29	1.601
419.64	1.685
420.00	2.960
420.35	2.090
420.71	2.369
421.06	2.824
421.42	2.825
421.77	2.486
422.12	1.986
422.48	2.328
422.83	1.740
423.19	2.935
423.54	1.529
423.90	1.649
424.25	2.526
424.61	2.509
424.96	2.846
425.31	2.889
425.67	2.171
426.02	2.120
426.38	2.192
426.73	2.603
427.09	2.975
427.44	2.588
427.79	2.887
428.15	2.670
428.50	1.878
428.85	1.904
429.21	2.490
429.56	2.372
429.92	2.568
430.27	2.757
430.62	1.830
430.98	2.601
431.33	2.944
431.68	2.198
432.04	2.404
432.39	2.168
432.74	1.804
433.10	3.333
433.45	1.971
433.80	2.263
434.16	1.884
434.51	2.849
434.86	2.555
435.22	2.243
435.57	2.558
435.92	2.635
436.28	2.266
436.63	2.054
436.98	2.144
437.34	2.420
437.69	2.147
438.04	2.108
438.39	2.505
438.75	1.882
439.10	2.490
439.45	2.982
439.81	2.813
440.16	2.553
440.51	3.104
440.86	3.505
441.22	2.093
441.57	2.539
441.92	2.361
442.27	2.605
442.63	3.747
442.98	3.791
443.33	2.615
443.68	2.812
444.03	3.676
444.39	3.492
444.74	3.177
445.09	3.007
445.44	2.963
445.79	3.146
446.15	2.368
446.50	2.163
446.85	2.869
447.20	3.233
447.55	3.850
447.91	3.102
448.26	3.643
448.61	3.512
448.96	3.213
449.31	2.370
449.66	2.962
450.02	3.195
450.37	2.964
450.72	2.978
451.07	2.911
451.42	2.747
451.77	3.737
452.12	2.452
452.47	2.962
452.83	3.062
453.18	3.226
453.53	4.425
453.88	3.097
454.23	3.135
454.58	2.771
454.93	3.544
455.28	2.095
455.63	3.782
455.98	3.488
456.34	3.448
456.69	3.748
457.04	3.592
457.39	3.341
457.74	3.567
458.09	2.707
458.44	2.809
458.79	3.025
459.14	4.005
459.49	4.179
459.84	3.779
460.19	3.095
460.54	4.034
460.89	3.750
461.24	3.106
461.59	4.513
461.94	3.711
462.29	4.343
462.64	3.787
462.99	3.724
463.34	2.782
463.69	3.861
464.04	3.390
464.39	3.457
464.74	3.374
465.09	3.618
465.44	4.385
465.79	2.664
466.14	3.820
466.49	3.048
466.84	4.343
467.19	3.567
467.54	3.257
467.89	2.590
468.24	2.920
468.59	4.254
468.94	3.746
469.29	2.951
469.64	4.443
469.99	2.943
470.34	3.003
470.68	3.356
471.03	4.388
471.38	2.853
471.73	3.221
472.08	3.324
472.43	3.154
472.78	2.810
473.13	2.925
473.48	4.300
473.83	3.611
474.17	4.598
474.52	4.212
474.87	3.697
475.22	3.234
475.57	3.106
475.92	4.169
476.27	3.725
476.61	3.704
476.96	3.179
477.31	4.056
477.66	2.809
478.01	2.920
478.36	4.139
478.70	3.263
479.05	4.011
479.40	3.975
479.75	3.806
480.10	3.738
480.45	3.650
480.79	4.179
481.14	3.689
481.49	2.956
481.84	3.089
482.19	3.368
482.53	3.741
482.88	4.344
483.23	3.935
483.58	4.292
483.92	3.630
484.27	3.191
484.62	4.124
484.97	3.648
485.31	3.757
485.66	3.788
486.01	3.870
486.36	3.622
486.70	3.964
487.05	3.529
487.40	3.464
487.75	3.944
488.09	3.214
488.44	3.611
488.79	3.549
489.13	3.726
489.48	2.993
489.83	3.498
490.17	3.685
490.52	3.788
490.87	3.702
491.22	3.773
491.56	3.653
491.91	3.442
492.26	4.035
492.60	3.695
492.95	4.083
493.30	3.468
493.64	3.438
493.99	4.251
494.34	2.961
494.68	3.476
495.03	3.406
495.37	3.631
495.72	3.433
496.07	3.512
496.41	3.962
496.76	3.961
497.11	2.934
497.45	3.866
497.80	4.087
498.14	3.726
498.49	3.860
498.84	3.693
499.18	3.916
499.53	3.919
499.87	3.356
500.22	3.709
500.56	3.681
500.91	3.614
501.26	3.460
501.60	3.788
501.95	3.542
502.29	4.165
502.64	3.861
502.98	3.305
503.33	3.939
503.67	3.518
504.02	4.594
504.36	4.255
504.71	2.879
505.06	3.624
505.40	3.553
505.75	3.608
506.09	3.953
506.44	3.953
506.78	4.082
507.13	3.878
507.47	3.029
507.82	3.312
508.16	3.751
508.51	3.673
508.85	3.820
509.19	3.619
509.54	3.861
509.88	3.614
510.23	3.228
510.57	4.329
510.92	3.305
511.26	4.037
511.61	3.630
511.95	4.055
512.30	3.271
512.64	4.174
512.98	3.706
513.33	4.085
513.67	3.240
514.02	4.176
514.36	4.000
514.70	4.779
515.05	4.054
515.39	3.778
515.74	4.551
516.08	3.825
516.42	4.417
516.77	4.330
517.11	4.926
517.46	4.488
517.80	4.827
518.14	3.980
518.49	4.748
518.83	4.496
519.17	3.517
519.52	3.967
519.86	3.541
520.20	4.070
520.55	4.315
520.89	4.454
521.23	3.863
521.58	5.174
521.92	3.974
522.26	3.774
522.61	4.026
522.95	4.371
523.29	4.574
523.64	4.574
523.98	4.342
524.32	2.771
524.66	4.353
525.01	4.221
525.35	4.731
525.69	3.165
526.04	4.431
526.38	5.123
526.72	3.793
527.06	4.604
527.41	4.420
527.75	3.686
528.09	3.721
528.43	4.862
528.78	3.894
529.12	4.839
529.46	3.769
529.80	4.750
530.15	4.224
530.49	3.502
530.83	4.446
531.17	4.164
531.51	4.651
531.86	4.691
532.20	3.897
532.54	3.880
532.88	4.586
533.22	4.906
533.57	4.128
533.91	3.329
534.25	5.078
534.59	3.656
534.93	3.776
535.27	3.553
535.62	3.564
535.96	4.827
536.30	4.881
536.64	4.411
536.98	4.251
537.32	4.908
537.66	4.698
538.01	5.455
538.35	4.230
538.69	5.126
539.03	4.033
539.37	3.903
539.71	4.499
540.05	3.938
540.39	4.432
540.73	4.672
541.07	5.110
541.42	5.914
541.76	5.024
542.10	4.474
542.44	3.892
542.78	3.716
543.12	3.984
543.46	5.633
543.80	4.511
544.14	4.005
544.48	4.464
544.82	4.921
545.16	5.943
545.50	6.409
545.84	5.028
546.18	4.894
546.52	4.542
546.86	4.529
547.20	4.793
547.54	4.028
547.88	5.503
548.22	4.076
548.56	3.958
548.90	5.323
549.24	4.408
549.58	4.795
549.92	3.860
550.26	5.495
550.60	4.833
550.94	5.228
551.28	4.869
551.62	5.385
551.96	4.511
552.30	4.386
552.64	5.219
552.98	3.727
553.32	4.565
553.66	4.209
554.00	4.818
554.34	4.579
554.68	5.457
555.02	5.283
555.36	5.236
555.69	4.615
556.03	4.211
556.37	4.769
556.71	5.271
557.05	4.027
557.39	3.717
557.73	5.322
558.07	4.299
558.41	4.058
558.75	4.287
559.08	4.492
559.42	4.206
559.76	3.603
560.10	5.122
560.44	4.542
560.78	5.105
561.12	5.148
561.45	4.427
561.79	4.902
562.13	5.394
562.47	3.669
562.81	5.403
563.15	5.360
563.48	4.031
563.82	5.285
564.16	4.666
564.50	4.392
564.84	5.756
565.17	4.829
565.51	4.440
565.85	5.487
566.19	4.973
566.52	5.161
566.86	5.206
567.20	4.732
567.54	4.075
567.88	4.687
568.21	6.052
568.55	4.565
568.89	4.774
569.23	4.815
569.56	4.772
569.90	5.278
570.24	4.689
570.57	5.127
570.91	4.880
571.25	4.735
571.59	5.170
571.92	5.156
572.26	4.831
572.60	5.054
572.93	5.115
573.27	4.796
573.61	5.101
573.95	5.025
574.28	4.820
574.62	5.085
574.96	5.236
575.29	4.972
575.63	5.286
575.97	5.096
576.30	5.089
576.64	4.768
576.98	5.689
577.31	4.768
577.65	5.252
577.98	5.452
578.32	4.943
578.66	4.986
578.99	5.241
579.33	4.971
579.67	5.122
580.00	5.165
580.34	5.025
580.67	4.970
581.01	4.995
581.35	5.362
581.68	4.940
582.02	5.120
582.35	5.088
582.69	4.947
583.02	5.106
583.36	5.276
583.70	5.504
584.03	5.171
584.37	5.336
584.70	5.027
585.04	4.896
585.37	5.405
585.71	5.184
586.04	5.396
586.38	5.175
586.72	5.509
587.05	5.546
587.39	5.563
587.72	5.604
588.06	5.480
588.39	5.696
588.73	5.403
589.06	5.284
589.40	5.289
589.73	5.732
590.07	5.287
590.40	5.418
590.73	5.519
591.07	5.301
591.40	5.165
591.74	5.430
592.07	6.169
592.41	6.228
592.74	5.257
593.08	5.414
593.41	5.667
593.75	5.692
594.08	5.458
594.41	6.077
594.75	5.076
595.08	5.221
595.42	5.484
595.75	5.595
596.09	5.825
596.42	5.663
596.75	5.595
597.09	5.604
597.42	5.736
597.75	5.543
598.09	4.980
598.42	4.964
598.76	5.706
599.09	5.329
599.42	5.495
599.76	5.681
600.09	5.656
600.42	5.951
600.76	5.423
601.09	5.382
601.42	5.405
601.76	5.478
602.09	5.322
602.42	6.150
602.76	5.518
603.09	5.897
603.42	5.895
603.76	4.960
604.09	5.670
604.42	5.711
604.76	5.785
605.09	6.353
605.42	5.914
605.75	5.429
606.09	5.648
606.42	5.963
606.75	5.714
607.09	6.593
607.42	5.405
607.75	5.506
608.08	5.840
608.42	5.893
608.75	5.301
609.08	5.730
609.41	6.091
609.75	6.401
610.08	5.891
610.41	5.362
610.74	5.705
611.07	5.995
611.41	6.539
611.74	6.557
612.07	5.514
612.40	5.908
612.73	4.915
613.07	5.624
613.40	6.619
613.73	5.876
614.06	5.008
614.39	5.809
614.72	5.322
615.06	6.089
615.39	5.404
615.72	5.597
616.05	6.369
616.38	5.470
616.71	6.361
617.05	5.930
617.38	5.971
617.71	5.660
618.04	5.905
618.37	6.747
618.70	6.007
619.03	6.319
619.36	5.861
619.69	6.444
620.03	6.501
620.36	5.508
620.69	5.996
621.02	6.346
621.35	5.809
621.68	5.442
622.01	6.833
622.34	6.145
622.67	6.546
623.00	6.662
623.33	5.640
623.66	6.058
623.99	6.278
624.32	6.312
624.65	6.015
624.99	5.643
625.32	5.610
625.65	6.441
625.98	6.446
626.31	5.320
626.64	6.326
626.97	6.894
627.30	6.830
627.63	6.499
627.96	6.199
628.29	6.475
628.62	5.998
628.95	6.112
629.28	6.351
629.61	6.580
629.94	7.038
630.26	6.423
630.59	7.388
630.92	5.949
631.25	6.256
631.58	5.396
631.91	5.263
632.24	4.358
632.57	7.386
632.90	5.338
633.23	5.412
633.56	5.919
633.89	5.302
634.22	5.679
634.55	5.464
634.88	5.492
635.20	4.872
635.53	6.533
635.86	5.202
636.19	6.727
636.52	4.464
636.85	4.839
637.18	5.157
637.51	5.786
637.83	3.285
638.16	5.457
638.49	5.995
638.82	7.895
639.15	5.020
639.48	5.089
639.81	8.508
640.13	5.916
640.46	6.706
640.79	6.333
641.12	5.613
641.45	6.006
641.77	6.667
642.10	8.057
642.43	6.431
642.76	6.601
643.09	6.300
643.41	5.825
643.74	4.119
644.07	8.210
644.40	6.926
644.73	5.604
645.05	6.040
645.38	5.820
645.71	6.206
646.04	6.643
646.36	4.433
646.69	6.295
647.02	6.427
647.35	7.463
647.67	8.227
648.00	6.530
648.33	8.191
648.66	5.424
648.98	3.853
649.31	4.793
649.64	4.867
649.96	3.890
650.29	6.644
650.62	5.812
650.94	5.926
651.27	4.283
651.60	7.748
651.92	8.042
652.25	2.664
652.58	6.500
652.90	6.518
653.23	5.714
653.56	3.723
653.88	6.014
654.21	2.627
654.54	5.093
654.86	5.433
655.19	5.263
655.52	7.043
655.84	6.174
656.17	7.111
