SpectraSuite Data File
++++++++++++++++++++++++++++++++++++
Date: Fri May 15 21:09:41 PDT 2015
User: schluterlab
Dark Spectrum Present: Yes
Reference Spectrum Present: Yes
Number of Sampled Component Spectra: 1
Spectrometers: USB2E3373
Integration Time (usec): 3000 (USB2E3373)
Spectra Averaged: 3 (USB2E3373)
Boxcar Smoothing: 0 (USB2E3373)
Correct for Electrical Dark: No (USB2E3373)
Strobe/Lamp Enabled: No (USB2E3373)
Correct for Detector Non-linearity: No (USB2E3373)
Correct for Stray Light: No (USB2E3373)
Number of Pixels in Processed Spectrum: 2048
>>>>>Begin Processed Spectral Data<<<<<
178.53	0.000
178.91	0.000
179.29	150.000
179.67	-850.000
180.04	42.857
180.42	100.000
180.80	-1800.000
181.18	100.000
181.56	300.000
181.94	150.000
182.31	1000.000
182.69	0.000
183.07	-266.667
183.45	100.000
183.83	100.000
184.20	-18.182
184.58	166.667
184.96	-100.000
185.34	-133.333
185.72	0.000
186.09	84.615
186.47	-600.000
186.85	66.667
187.23	177.778
187.61	400.000
187.98	-533.333
188.36	-33.333
188.74	-366.667
189.12	-17.647
189.49	27.778
189.87	0.000
190.25	0.000
190.63	700.000
191.00	-166.667
191.38	-26.316
191.76	-200.000
192.14	100.000
192.51	-200.000
192.89	-100.000
193.27	-42.857
193.65	133.333
194.02	72.727
194.40	80.000
194.78	-137.500
195.15	-50.000
195.53	-87.500
195.91	225.000
196.29	-150.000
196.66	76.923
197.04	128.571
197.42	-33.333
197.79	-233.333
198.17	-61.538
198.55	1200.000
198.92	200.000
199.30	-700.000
199.68	-340.000
200.05	-366.667
200.43	0.000
200.81	0.000
201.18	200.000
201.56	1900.000
201.94	-100.000
202.31	233.333
202.69	-180.000
203.07	75.000
203.44	400.000
203.82	0.000
204.19	21.429
204.57	-266.667
204.95	162.500
205.32	10.000
205.70	-28.571
206.08	-175.000
206.45	255.556
206.83	71.429
207.20	0.000
207.58	1200.000
207.96	-133.333
208.33	-150.000
208.71	-75.000
209.08	-100.000
209.46	-1100.000
209.84	-240.000
210.21	-700.000
210.59	42.857
210.96	-33.333
211.34	-350.000
211.71	53.333
212.09	-128.571
212.46	-1000.000
212.84	0.000
213.22	-30.000
213.59	750.000
213.97	0.000
214.34	36.364
214.72	-33.333
215.09	375.000
215.47	-38.462
215.84	9.091
216.22	-433.333
216.59	-112.500
216.97	-200.000
217.34	-300.000
217.72	-460.000
218.09	100.000
218.47	125.000
218.84	200.000
219.22	-77.778
219.59	-140.000
219.97	-0.000
220.34	150.000
220.72	-14.286
221.09	-150.000
221.47	0.000
221.84	-700.000
222.22	-900.000
222.59	-9.091
222.97	8.333
223.34	-433.333
223.72	-35.714
224.09	23.810
224.46	3.571
224.84	33.333
225.21	60.000
225.59	40.000
225.96	-450.000
226.34	50.000
226.71	14.286
227.08	-116.667
227.46	-25.000
227.83	-300.000
228.21	88.889
228.58	-63.636
228.95	-237.500
229.33	140.000
229.70	31.250
230.08	12.500
230.45	-42.857
230.82	57.143
231.20	33.333
231.57	28.571
231.95	0.000
232.32	-50.000
232.69	7.143
233.07	200.000
233.44	-40.000
233.81	-30.000
234.19	-44.444
234.56	-41.176
234.93	200.000
235.31	-50.000
235.68	-60.000
236.05	-7.692
236.43	-65.000
236.80	-41.176
237.17	21.875
237.55	-10.000
237.92	-48.148
238.29	16.667
238.67	-26.667
239.04	-2.941
239.41	-31.707
239.79	20.000
240.16	41.463
240.53	-18.421
240.91	-10.870
241.28	9.524
241.65	19.643
242.02	19.178
242.40	21.667
242.77	8.475
243.14	13.636
243.51	21.250
243.89	19.540
244.26	8.046
244.63	9.524
245.00	6.186
245.38	6.186
245.75	6.742
246.12	10.345
246.49	17.355
246.87	15.385
247.24	10.924
247.61	7.018
247.98	20.325
248.36	18.125
248.73	15.789
249.10	14.935
249.47	17.722
249.84	12.418
250.22	11.765
250.59	16.340
250.96	15.493
251.33	9.302
251.70	13.529
252.08	14.213
252.45	19.307
252.82	18.090
253.19	13.364
253.56	14.019
253.94	16.216
254.31	17.391
254.68	17.105
255.05	11.811
255.42	12.227
255.79	21.236
256.16	15.564
256.54	18.284
256.91	17.110
257.28	14.498
257.65	13.858
258.02	18.085
258.39	18.855
258.76	17.582
259.14	22.924
259.51	18.770
259.88	16.495
260.25	15.686
260.62	18.403
260.99	16.949
261.36	16.438
261.73	13.608
262.10	16.109
262.47	16.258
262.85	17.555
263.22	19.077
263.59	15.888
263.96	18.012
264.33	17.879
264.70	17.262
265.07	20.238
265.44	18.414
265.81	16.667
266.18	18.579
266.55	18.766
266.92	18.135
267.29	14.360
267.66	19.437
268.03	16.492
268.40	17.755
268.77	18.182
269.14	16.787
269.51	22.365
269.88	16.708
270.25	14.541
270.62	18.293
270.99	14.578
271.36	18.337
271.73	18.779
272.10	19.221
272.47	17.494
272.84	16.337
273.21	18.561
273.58	16.867
273.95	16.934
274.32	14.781
274.69	14.480
275.06	18.750
275.43	15.873
275.80	19.205
276.17	16.552
276.54	14.133
276.91	18.860
277.28	15.721
277.65	17.149
278.02	15.106
278.39	14.004
278.76	14.885
279.13	14.730
279.50	14.496
279.87	18.143
280.23	14.839
280.60	17.154
280.97	17.172
281.34	16.154
281.71	18.480
282.08	15.542
282.45	15.068
282.82	14.865
283.19	17.795
283.56	19.075
283.92	15.939
284.29	14.615
284.66	16.860
285.03	15.128
285.40	14.934
285.77	15.466
286.14	17.329
286.51	16.605
286.87	13.894
287.24	14.365
287.61	13.933
287.98	14.737
288.35	14.558
288.72	17.513
289.08	13.368
289.45	15.466
289.82	14.685
290.19	13.652
290.56	15.266
290.93	13.973
291.29	12.327
291.66	15.276
292.03	14.514
292.40	14.194
292.77	14.195
293.13	8.929
293.50	13.809
293.87	12.672
294.24	14.065
294.60	15.201
294.97	14.583
295.34	12.117
295.71	14.009
296.08	13.453
296.44	11.522
296.81	13.194
297.18	12.319
297.55	12.873
297.91	12.877
298.28	13.588
298.65	12.619
299.02	13.073
299.38	10.944
299.75	12.828
300.12	12.304
300.48	12.516
300.85	13.054
301.22	12.338
301.59	11.711
301.95	12.911
302.32	12.062
302.69	11.318
303.05	11.634
303.42	12.702
303.79	13.668
304.15	13.381
304.52	11.296
304.89	10.877
305.25	11.259
305.62	11.552
305.99	12.515
306.35	11.445
306.72	10.574
307.09	13.113
307.45	12.744
307.82	10.648
308.19	11.034
308.55	12.323
308.92	12.527
309.29	12.737
309.65	12.809
310.02	12.101
310.38	13.392
310.75	11.803
311.12	12.056
311.48	12.619
311.85	13.194
312.22	13.502
312.58	12.951
312.95	12.914
313.31	12.422
313.68	11.832
314.05	13.878
314.41	14.639
314.78	14.742
315.14	15.622
315.51	16.874
315.87	16.291
316.24	17.391
316.61	16.831
316.97	17.262
317.34	18.555
317.70	18.451
318.07	19.615
318.43	19.706
318.80	20.360
319.16	21.094
319.53	22.127
319.89	22.047
320.26	25.000
320.62	23.170
320.99	23.800
321.35	25.283
321.72	27.414
322.08	27.492
322.45	29.543
322.81	28.782
323.18	29.146
323.54	31.081
323.91	32.132
324.27	33.203
324.64	35.206
325.00	34.672
325.37	36.455
325.73	37.443
326.10	39.146
326.46	39.552
326.83	41.120
327.19	41.064
327.56	42.224
327.92	42.870
328.29	43.036
328.65	44.906
329.01	45.129
329.38	45.991
329.74	45.703
330.11	46.895
330.47	47.495
330.84	47.885
331.20	49.144
331.56	48.519
331.93	49.041
332.29	49.588
332.66	48.597
333.02	50.558
333.38	49.221
333.75	52.015
334.11	49.776
334.48	50.680
334.84	50.183
335.20	51.967
335.57	51.133
335.93	53.568
336.29	52.486
336.66	52.589
337.02	53.160
337.38	51.204
337.75	51.818
338.11	52.390
338.47	53.741
338.84	54.991
339.20	53.291
339.56	55.505
339.93	54.790
340.29	55.229
340.65	54.480
341.02	53.546
341.38	53.628
341.74	54.594
342.11	52.513
342.47	54.982
342.83	54.325
343.20	53.310
343.56	55.565
343.92	55.093
344.28	54.398
344.65	53.627
345.01	54.797
345.37	53.574
345.73	55.732
346.10	56.859
346.46	55.088
346.82	55.483
347.19	54.530
347.55	56.976
347.91	54.207
348.27	54.810
348.63	56.133
349.00	54.799
349.36	56.110
349.72	57.463
350.08	55.738
350.45	54.908
350.81	56.478
351.17	55.049
351.53	54.531
351.89	56.235
352.26	55.040
352.62	55.726
352.98	55.261
353.34	53.704
353.70	56.311
354.07	54.758
354.43	56.285
354.79	57.391
355.15	56.905
355.51	55.380
355.87	56.877
356.24	56.036
356.60	55.538
356.96	56.667
357.32	57.588
357.68	54.652
358.04	56.381
358.40	56.431
358.77	56.140
359.13	57.166
359.49	55.162
359.85	57.488
360.21	56.619
360.57	54.399
360.93	56.430
361.29	55.287
361.66	55.564
362.02	56.212
362.38	57.502
362.74	57.305
363.10	58.841
363.46	57.228
363.82	57.325
364.18	55.572
364.54	55.735
364.90	57.204
365.26	56.696
365.62	57.299
365.98	57.478
366.35	57.538
366.71	58.093
367.07	56.894
367.43	57.728
367.79	58.092
368.15	57.215
368.51	57.174
368.87	57.071
369.23	56.534
369.59	57.872
369.95	57.185
370.31	56.214
370.67	58.657
371.03	56.983
371.39	57.257
371.75	57.802
372.11	57.133
372.47	58.506
372.83	57.842
373.19	57.204
373.55	57.545
373.91	57.451
374.27	58.611
374.63	57.071
374.99	57.589
375.35	57.591
375.71	57.972
376.07	57.935
376.42	58.095
376.78	58.255
377.14	56.669
377.50	58.234
377.86	57.831
378.22	58.009
378.58	57.244
378.94	57.719
379.30	58.890
379.66	57.743
380.02	57.756
380.38	55.813
380.74	57.630
381.09	57.730
381.45	57.859
381.81	57.125
382.17	57.424
382.53	56.402
382.89	57.627
383.25	58.183
383.61	57.805
383.97	57.460
384.32	56.285
384.68	57.152
385.04	57.292
385.40	57.312
385.76	58.994
386.12	57.439
386.48	60.281
386.83	59.163
387.19	59.280
387.55	58.971
387.91	57.824
388.27	56.166
388.62	58.842
388.98	57.090
389.34	58.089
389.70	57.800
390.06	56.702
390.42	58.549
390.77	59.581
391.13	58.071
391.49	58.603
391.85	57.635
392.20	58.318
392.56	57.724
392.92	58.426
393.28	58.137
393.64	57.838
393.99	58.621
394.35	59.203
394.71	58.557
395.07	56.442
395.42	58.470
395.78	57.655
396.14	57.440
396.50	57.197
396.85	58.403
397.21	57.143
397.57	57.179
397.92	57.100
398.28	57.586
398.64	56.867
399.00	58.014
399.35	56.264
399.71	57.381
400.07	57.134
400.42	57.589
400.78	58.298
401.14	56.624
401.49	57.296
401.85	56.734
402.21	56.145
402.57	58.500
402.92	57.465
403.28	57.268
403.63	58.764
403.99	57.972
404.35	57.589
404.70	55.655
405.06	56.228
405.42	56.992
405.77	56.421
406.13	58.673
406.49	56.424
406.84	58.191
407.20	57.495
407.55	56.214
407.91	57.487
408.27	56.597
408.62	57.477
408.98	57.671
409.34	56.568
409.69	56.589
410.05	57.820
410.40	57.469
410.76	56.212
411.11	57.250
411.47	57.462
411.83	57.250
412.18	57.400
412.54	55.556
412.89	56.034
413.25	56.498
413.60	56.832
413.96	55.644
414.31	55.915
414.67	55.356
415.03	55.792
415.38	54.765
415.74	55.700
416.09	57.283
416.45	55.908
416.80	55.915
417.16	56.561
417.51	57.229
417.87	55.476
418.22	56.477
418.58	57.057
418.93	56.176
419.29	54.481
419.64	56.448
420.00	57.620
420.35	54.806
420.71	56.622
421.06	56.231
421.42	56.010
421.77	53.988
422.12	56.129
422.48	56.037
422.83	54.582
423.19	55.361
423.54	54.145
423.90	54.770
424.25	56.372
424.61	55.692
424.96	55.633
425.31	56.210
425.67	56.103
426.02	55.065
426.38	57.170
426.73	56.053
427.09	56.392
427.44	56.176
427.79	54.744
428.15	54.672
428.50	56.632
428.85	55.344
429.21	54.839
429.56	55.687
429.92	54.802
430.27	53.734
430.62	54.679
430.98	54.459
431.33	54.206
431.68	54.003
432.04	55.729
432.39	54.706
432.74	53.818
433.10	55.402
433.45	54.958
433.80	55.369
434.16	53.518
434.51	55.108
434.86	53.833
435.22	54.851
435.57	54.460
435.92	55.329
436.28	54.621
436.63	54.364
436.98	54.461
437.34	54.265
437.69	54.800
438.04	54.131
438.39	55.773
438.75	55.495
439.10	53.763
439.45	54.291
439.81	54.801
440.16	56.295
440.51	55.463
440.86	54.804
441.22	54.242
441.57	54.581
441.92	55.719
442.27	53.825
442.63	55.300
442.98	54.451
443.33	52.755
443.68	53.899
444.03	55.241
444.39	53.369
444.74	55.518
445.09	54.343
445.44	54.644
445.79	54.719
446.15	54.075
446.50	54.243
446.85	53.560
447.20	54.223
447.55	52.902
447.91	54.597
448.26	54.639
448.61	54.059
448.96	55.364
449.31	54.740
449.66	54.762
450.02	53.508
450.37	54.179
450.72	53.895
451.07	55.063
451.42	53.059
451.77	54.852
452.12	53.648
452.47	53.059
452.83	53.534
453.18	54.080
453.53	54.298
453.88	54.220
454.23	54.395
454.58	54.849
454.93	54.768
455.28	53.206
455.63	54.495
455.98	53.638
456.34	54.151
456.69	53.939
457.04	54.820
457.39	54.435
457.74	54.051
458.09	51.736
458.44	53.657
458.79	53.109
459.14	54.405
459.49	53.731
459.84	53.638
460.19	52.549
460.54	53.362
460.89	54.261
461.24	52.919
461.59	53.979
461.94	52.767
462.29	54.343
462.64	53.821
462.99	54.299
463.34	52.156
463.69	53.732
464.04	52.482
464.39	53.426
464.74	52.454
465.09	53.026
465.44	53.318
465.79	50.794
466.14	51.596
466.49	51.466
466.84	52.885
467.19	52.315
467.54	52.618
467.89	53.064
468.24	51.946
468.59	53.270
468.94	53.143
469.29	53.705
469.64	52.085
469.99	52.978
470.34	51.672
470.68	54.437
471.03	53.291
471.38	53.495
471.73	52.661
472.08	52.782
472.43	53.557
472.78	52.502
473.13	53.061
473.48	52.117
473.83	51.993
474.17	52.591
474.52	52.329
474.87	52.364
475.22	52.044
475.57	51.158
475.92	52.825
476.27	51.863
476.61	52.894
476.96	50.307
477.31	52.190
477.66	50.843
478.01	51.376
478.36	51.797
478.70	51.822
479.05	52.418
479.40	50.450
479.75	50.365
480.10	50.435
480.45	51.550
480.79	51.511
481.14	51.793
481.49	50.985
481.84	51.207
482.19	50.935
482.53	51.127
482.88	50.597
483.23	50.048
483.58	51.226
483.92	50.000
484.27	49.818
484.62	50.560
484.97	48.922
485.31	48.772
485.66	47.340
486.01	46.415
486.36	46.470
486.70	46.865
487.05	47.599
487.40	47.079
487.75	47.268
488.09	46.910
488.44	46.905
488.79	48.450
489.13	49.199
489.48	49.124
489.83	48.206
490.17	48.719
490.52	48.776
490.87	48.913
491.22	50.573
491.56	49.431
491.91	48.231
492.26	49.344
492.60	49.808
492.95	49.926
493.30	49.243
493.64	50.147
493.99	49.372
494.34	49.320
494.68	49.524
495.03	48.029
495.37	49.117
495.72	49.571
496.07	49.854
496.41	48.538
496.76	48.595
497.11	47.508
497.45	48.687
497.80	49.092
498.14	49.478
498.49	49.213
498.84	48.653
499.18	49.849
499.53	48.264
499.87	47.617
500.22	48.269
500.56	48.411
500.91	48.695
501.26	47.751
501.60	48.205
501.95	49.005
502.29	48.136
502.64	47.828
502.98	48.446
503.33	47.166
503.67	47.325
504.02	47.752
504.36	48.194
504.71	46.970
505.06	48.012
505.40	47.716
505.75	47.784
506.09	47.491
506.44	48.357
506.78	47.908
507.13	48.811
507.47	48.355
507.82	47.329
508.16	48.442
508.51	47.796
508.85	48.299
509.19	48.217
509.54	48.525
509.88	47.465
510.23	48.359
510.57	48.423
510.92	46.269
511.26	47.190
511.61	47.745
511.95	48.055
512.30	47.007
512.64	48.414
512.98	47.165
513.33	49.021
513.67	47.527
514.02	49.428
514.36	49.829
514.70	47.960
515.05	49.412
515.39	49.115
515.74	48.503
516.08	47.998
516.42	47.998
516.77	49.093
517.11	49.555
517.46	49.611
517.80	47.437
518.14	47.642
518.49	47.837
518.83	48.299
519.17	47.119
519.52	47.425
519.86	46.939
520.20	47.327
520.55	47.655
520.89	47.742
521.23	46.738
521.58	47.950
521.92	48.910
522.26	48.992
522.61	48.701
522.95	49.139
523.29	48.920
523.64	46.950
523.98	47.829
524.32	48.067
524.66	48.207
525.01	48.052
525.35	49.060
525.69	47.744
526.04	46.958
526.38	48.444
526.72	46.043
527.06	47.211
527.41	47.823
527.75	46.046
528.09	47.110
528.43	48.886
528.78	46.931
529.12	46.903
529.46	48.083
529.80	46.358
530.15	49.043
530.49	46.195
530.83	47.196
531.17	46.407
531.51	47.743
531.86	46.363
532.20	46.973
532.54	46.154
532.88	47.912
533.22	45.968
533.57	46.592
533.91	46.410
534.25	45.638
534.59	44.580
534.93	44.871
535.27	44.353
535.62	45.237
535.96	45.466
536.30	45.053
536.64	45.830
536.98	44.739
537.32	47.368
537.66	46.283
538.01	46.154
538.35	44.591
538.69	44.874
539.03	46.206
539.37	46.164
539.71	43.899
540.05	43.924
540.39	45.291
540.73	44.700
541.07	45.580
541.42	45.363
541.76	45.217
542.10	44.873
542.44	44.475
542.78	43.152
543.12	44.505
543.46	44.089
543.80	43.858
544.14	43.057
544.48	43.504
544.82	43.746
545.16	44.126
545.50	44.526
545.84	44.688
546.18	44.894
546.52	44.989
546.86	44.141
547.20	44.993
547.54	44.099
547.88	42.459
548.22	42.669
548.56	42.810
548.90	42.183
549.24	42.837
549.58	43.159
549.92	41.959
550.26	43.004
550.60	44.387
550.94	43.615
551.28	43.045
551.62	44.615
551.96	43.008
552.30	43.567
552.64	41.749
552.98	43.108
553.32	41.512
553.66	42.380
554.00	43.358
554.34	43.648
554.68	43.289
555.02	43.899
555.36	43.979
555.69	42.271
556.03	42.541
556.37	41.851
556.71	42.238
557.05	43.102
557.39	41.190
557.73	42.579
558.07	42.836
558.41	42.496
558.75	43.726
559.08	43.341
559.42	43.413
559.76	43.635
560.10	41.514
560.44	41.400
560.78	41.608
561.12	42.595
561.45	42.797
561.79	40.616
562.13	42.441
562.47	41.583
562.81	42.147
563.15	40.409
563.48	41.301
563.82	40.906
564.16	41.435
564.50	39.730
564.84	40.830
565.17	39.973
565.51	42.008
565.85	41.427
566.19	41.114
566.52	40.550
566.86	41.067
567.20	40.660
567.54	39.842
567.88	39.660
568.21	39.423
568.55	38.261
568.89	39.374
569.23	38.613
569.56	38.266
569.90	37.799
570.24	36.100
570.57	36.036
570.91	36.494
571.25	35.876
571.59	35.098
571.92	33.926
572.26	34.511
572.60	33.829
572.93	33.699
573.27	34.326
573.61	33.771
573.95	34.134
574.28	33.792
574.62	32.672
574.96	32.760
575.29	32.408
575.63	32.055
575.97	32.339
576.30	32.246
576.64	32.795
576.98	33.050
577.31	33.030
577.65	33.234
577.98	32.566
578.32	31.658
578.66	31.292
578.99	31.680
579.33	31.801
579.67	31.340
580.00	32.152
580.34	31.692
580.67	32.122
581.01	32.301
581.35	31.331
581.68	31.588
582.02	31.088
582.35	31.161
582.69	31.145
583.02	31.318
583.36	31.157
583.70	31.854
584.03	32.360
584.37	32.947
584.70	31.813
585.04	31.813
585.37	31.622
585.71	31.893
586.04	31.241
586.38	31.475
586.72	32.080
587.05	32.496
587.39	32.346
587.72	33.297
588.06	32.245
588.39	31.615
588.73	31.838
589.06	33.105
589.40	32.008
589.73	32.457
590.07	32.931
590.40	33.746
590.73	33.320
591.07	34.054
591.40	33.393
591.74	34.299
592.07	34.045
592.41	34.143
592.74	32.855
593.08	31.994
593.41	31.664
593.75	31.469
594.08	31.754
594.41	32.606
594.75	32.519
595.08	31.933
595.42	31.837
595.75	32.445
596.09	32.330
596.42	32.162
596.75	33.171
597.09	33.895
597.42	33.153
597.75	33.394
598.09	32.866
598.42	33.529
598.76	32.347
599.09	32.252
599.42	31.338
599.76	31.189
600.09	31.561
600.42	32.032
600.76	31.426
601.09	31.107
601.42	31.688
601.76	32.037
602.09	31.312
602.42	32.266
602.76	31.664
603.09	32.018
603.42	32.400
603.76	31.855
604.09	31.794
604.42	32.657
604.76	32.488
605.09	32.678
605.42	32.777
605.75	32.005
606.09	31.592
606.42	31.693
606.75	31.126
607.09	32.440
607.42	31.192
607.75	31.261
608.08	30.323
608.42	31.247
608.75	33.398
609.08	32.436
609.41	32.386
609.75	32.107
610.08	31.453
610.41	31.546
610.74	31.692
611.07	33.540
611.41	32.849
611.74	32.996
612.07	32.066
612.40	32.713
612.73	32.881
613.07	32.171
613.40	32.495
613.73	33.016
614.06	32.832
614.39	32.431
614.72	32.437
615.06	32.682
615.39	31.605
615.72	31.862
616.05	33.017
616.38	31.510
616.71	32.783
617.05	32.427
617.38	33.564
617.71	33.270
618.04	32.952
618.37	33.670
618.70	34.191
619.03	34.236
619.36	32.634
619.69	34.951
620.03	34.624
620.36	34.621
620.69	34.333
621.02	33.792
621.35	35.934
621.68	36.990
622.01	35.083
622.34	33.759
622.67	35.016
623.00	33.844
623.33	35.213
623.66	34.854
623.99	34.418
624.32	34.449
624.65	32.857
624.99	35.139
625.32	32.373
625.65	35.114
625.98	35.214
626.31	33.915
626.64	35.442
626.97	35.428
627.30	35.814
627.63	36.135
627.96	36.478
628.29	34.875
628.62	36.676
628.95	36.273
629.28	37.097
629.61	35.992
629.94	36.266
630.26	37.154
630.59	38.398
630.92	37.026
631.25	35.385
631.58	37.885
631.91	36.513
632.24	36.697
632.57	38.409
632.90	38.553
633.23	38.706
633.56	39.673
