SpectraSuite Data File
++++++++++++++++++++++++++++++++++++
Date: Fri May 15 20:48:14 PDT 2015
User: schluterlab
Dark Spectrum Present: Yes
Reference Spectrum Present: Yes
Number of Sampled Component Spectra: 1
Spectrometers: USB2E3373
Integration Time (usec): 3000 (USB2E3373)
Spectra Averaged: 3 (USB2E3373)
Boxcar Smoothing: 0 (USB2E3373)
Correct for Electrical Dark: No (USB2E3373)
Strobe/Lamp Enabled: No (USB2E3373)
Correct for Detector Non-linearity: No (USB2E3373)
Correct for Stray Light: No (USB2E3373)
Number of Pixels in Processed Spectrum: 2048
>>>>>Begin Processed Spectral Data<<<<<
178.53	0.000
178.91	0.000
179.29	50.000
179.67	-200.000
180.04	28.571
180.42	125.000
180.80	-100.000
181.18	466.667
181.56	150.000
181.94	-50.000
182.31	100.000
182.69	-40.000
183.07	-366.667
183.45	-200.000
183.83	150.000
184.20	-72.727
184.58	211.111
184.96	75.000
185.34	366.667
185.72	-450.000
186.09	153.846
186.47	-100.000
186.85	133.333
187.23	166.667
187.61	100.000
187.98	-500.000
188.36	-77.778
188.74	-400.000
189.12	29.412
189.49	50.000
189.87	0.000
190.25	42.857
190.63	-350.000
191.00	33.333
191.38	10.526
191.76	200.000
192.14	25.000
192.51	-100.000
192.89	-100.000
193.27	-171.429
193.65	266.667
194.02	136.364
194.40	-100.000
194.78	-250.000
195.15	16.667
195.53	-62.500
195.91	250.000
196.29	-175.000
196.66	130.769
197.04	100.000
197.42	-44.444
197.79	-600.000
198.17	-76.923
198.55	2300.000
198.92	-533.333
199.30	-400.000
199.68	-20.000
200.05	-133.333
200.43	0.000
200.81	166.667
201.18	-266.667
201.56	1500.000
201.94	-100.000
202.31	33.333
202.69	-200.000
203.07	175.000
203.44	-400.000
203.82	0.000
204.19	78.571
204.57	-600.000
204.95	100.000
205.32	-50.000
205.70	-57.143
206.08	-325.000
206.45	44.444
206.83	35.714
207.20	-271.429
207.58	600.000
207.96	166.667
208.33	-90.000
208.71	-75.000
209.08	-233.333
209.46	-1300.000
209.84	-180.000
210.21	-500.000
210.59	-114.286
210.96	-233.333
211.34	-500.000
211.71	66.667
212.09	-142.857
212.46	-2100.000
212.84	0.000
213.22	120.000
213.59	200.000
213.97	-7.692
214.34	90.909
214.72	66.667
215.09	475.000
215.47	23.077
215.84	-109.091
216.22	-533.333
216.59	-112.500
216.97	-100.000
217.34	150.000
217.72	-140.000
218.09	-50.000
218.47	87.500
218.84	-500.000
219.22	-55.556
219.59	20.000
219.97	466.667
220.34	400.000
220.72	0.000
221.09	100.000
221.47	-150.000
221.84	-300.000
222.22	-800.000
222.59	-109.091
222.97	0.000
223.34	-300.000
223.72	-35.714
224.09	14.286
224.46	7.143
224.84	633.333
225.21	-110.000
225.59	-33.333
225.96	-450.000
226.34	575.000
226.71	0.000
227.08	-150.000
227.46	-62.500
227.83	-450.000
228.21	-77.778
228.58	-36.364
228.95	0.000
229.33	40.000
229.70	-6.250
230.08	-112.500
230.45	-157.143
230.82	71.429
231.20	-13.333
231.57	-42.857
231.95	71.429
232.32	-100.000
232.69	-14.286
233.07	-66.667
233.44	-140.000
233.81	-150.000
234.19	33.333
234.56	29.412
234.93	50.000
235.31	-25.000
235.68	-200.000
236.05	-107.692
236.43	0.000
236.80	-5.882
237.17	15.625
237.55	-15.000
237.92	-3.704
238.29	16.667
238.67	3.333
239.04	-5.882
239.41	-14.634
239.79	20.000
240.16	48.780
240.53	23.684
240.91	17.391
241.28	25.397
241.65	30.357
242.02	30.137
242.40	31.667
242.77	18.644
243.14	21.212
243.51	26.250
243.89	40.230
244.26	17.241
244.63	17.857
245.00	25.773
245.38	36.082
245.75	25.843
246.12	27.586
246.49	32.231
246.87	37.500
247.24	22.689
247.61	23.684
247.98	34.146
248.36	20.625
248.73	32.237
249.10	24.675
249.47	30.380
249.84	24.183
250.22	30.588
250.59	28.758
250.96	37.089
251.33	26.163
251.70	34.706
252.08	37.563
252.45	32.673
252.82	33.166
253.19	38.249
253.56	28.505
253.94	33.784
254.31	36.957
254.68	36.404
255.05	31.890
255.42	33.624
255.79	31.274
256.16	33.074
256.54	35.821
256.91	32.319
257.28	34.572
257.65	28.839
258.02	31.560
258.39	35.690
258.76	35.165
259.14	37.209
259.51	32.039
259.88	33.333
260.25	33.333
260.62	35.764
260.99	32.203
261.36	29.452
261.73	33.861
262.10	34.347
262.47	34.356
262.85	35.423
263.22	32.923
263.59	35.514
263.96	37.578
264.33	37.273
264.70	30.655
265.07	33.929
265.44	34.278
265.81	32.768
266.18	33.607
266.55	34.704
266.92	36.269
267.29	36.554
267.66	34.527
268.03	33.246
268.40	34.726
268.77	36.898
269.14	35.252
269.51	35.476
269.88	31.671
270.25	34.439
270.62	33.659
270.99	36.061
271.36	31.785
271.73	37.559
272.10	34.307
272.47	37.825
272.84	35.891
273.21	31.787
273.58	34.699
273.95	32.723
274.32	30.254
274.69	33.710
275.06	37.500
275.43	35.147
275.80	33.775
276.17	30.345
276.54	33.833
276.91	35.307
277.28	32.969
277.65	32.231
278.02	31.915
278.39	34.573
278.76	35.639
279.13	29.461
279.50	32.773
279.87	33.261
280.23	35.269
280.60	33.528
280.97	34.747
281.34	32.692
281.71	34.497
282.08	31.902
282.45	30.333
282.82	31.660
283.19	32.882
283.56	36.609
283.92	31.120
284.29	30.192
284.66	30.814
285.03	32.220
285.40	32.703
285.77	28.647
286.14	32.310
286.51	32.103
286.87	29.982
287.24	30.203
287.61	31.746
287.98	31.754
288.35	30.849
288.72	28.371
289.08	32.465
289.45	30.053
289.82	30.420
290.19	29.863
290.56	29.503
290.93	30.303
291.29	27.427
291.66	30.394
292.03	29.027
292.40	28.387
292.77	26.794
293.13	25.974
293.50	25.797
293.87	28.550
294.24	26.739
294.60	27.124
294.97	27.827
295.34	25.767
295.71	27.422
296.08	25.710
296.44	23.613
296.81	25.556
297.18	24.348
297.55	27.507
297.91	25.479
298.28	26.121
298.65	24.966
299.02	22.642
299.38	23.256
299.75	23.310
300.12	24.084
300.48	23.320
300.85	24.208
301.22	24.026
301.59	23.158
301.95	25.570
302.32	26.329
302.69	23.507
303.05	23.391
303.42	24.284
303.79	23.481
304.15	24.492
304.52	22.473
304.89	22.339
305.25	21.429
305.62	22.054
305.99	22.339
306.35	22.543
306.72	21.147
307.09	22.007
307.45	22.962
307.82	23.958
308.19	24.390
308.55	22.465
308.92	23.312
309.29	21.899
309.65	23.358
310.02	22.002
310.38	23.491
310.75	24.590
311.12	23.897
311.48	22.906
311.85	22.827
312.22	23.207
312.58	23.036
312.95	21.985
313.31	22.981
313.68	23.141
314.05	22.245
314.41	24.433
314.78	22.990
315.14	22.919
315.51	23.188
315.87	23.975
316.24	24.671
316.61	23.425
316.97	23.810
317.34	24.316
317.70	24.187
318.07	24.231
318.43	24.412
318.80	24.242
319.16	26.465
319.53	26.306
319.89	25.098
320.26	26.113
320.62	26.680
320.99	25.574
321.35	25.591
321.72	26.791
322.08	28.499
322.45	27.310
322.81	27.407
323.18	27.969
323.54	29.633
323.91	28.238
324.27	29.590
324.64	29.494
325.00	29.927
325.37	31.864
325.73	29.374
326.10	30.881
326.46	31.300
326.83	31.234
327.19	30.689
327.56	32.493
327.92	33.187
328.29	33.393
328.65	32.453
329.01	32.445
329.38	33.272
329.74	32.672
330.11	32.530
330.47	32.653
330.84	33.846
331.20	34.791
331.56	32.685
331.93	34.338
332.29	34.464
332.66	34.389
333.02	33.922
333.38	33.364
333.75	33.791
334.11	33.483
334.48	34.542
334.84	34.799
335.20	34.950
335.57	32.820
335.93	34.688
336.29	33.702
336.66	34.696
337.02	33.271
337.38	33.056
337.75	33.273
338.11	33.995
338.47	35.128
338.84	33.826
339.20	32.724
339.56	34.220
339.93	34.288
340.29	34.220
340.65	35.215
341.02	33.156
341.38	33.894
341.74	33.392
342.11	32.322
342.47	33.541
342.83	33.910
343.20	33.972
343.56	33.565
343.92	35.607
344.28	34.159
344.65	33.592
345.01	35.091
345.37	33.389
345.73	34.644
346.10	35.375
346.46	32.632
346.82	34.043
347.19	32.835
347.55	34.419
347.91	33.252
348.27	32.983
348.63	34.242
349.00	32.650
349.36	34.248
349.72	34.328
350.08	32.951
350.45	33.360
350.81	33.887
351.17	33.469
351.53	34.612
351.89	33.939
352.26	33.920
352.62	34.435
352.98	33.494
353.34	33.333
353.70	33.576
354.07	33.871
354.43	34.187
354.79	34.269
355.15	34.365
355.51	34.335
355.87	34.466
356.24	33.931
356.60	34.196
356.96	33.175
357.32	33.466
357.68	34.558
358.04	33.845
358.40	34.727
358.77	33.971
359.13	34.027
359.49	33.282
359.85	34.087
360.21	34.131
360.57	34.353
360.93	34.493
361.29	33.988
361.66	34.483
362.02	34.697
362.38	35.110
362.74	34.292
363.10	35.290
363.46	34.618
363.82	35.312
364.18	34.391
364.54	33.382
364.90	34.480
365.26	34.716
365.62	35.985
365.98	34.824
366.35	35.178
366.71	36.216
367.07	35.631
367.43	35.514
367.79	34.982
368.15	36.324
368.51	35.397
368.87	34.817
369.23	34.657
369.59	36.152
369.95	35.924
370.31	36.705
370.67	36.716
371.03	34.802
371.39	35.594
371.75	36.337
372.11	35.806
372.47	37.574
372.83	36.338
373.19	35.949
373.55	35.957
373.91	35.781
374.27	37.208
374.63	36.324
374.99	36.596
375.35	36.630
375.71	36.993
376.07	37.219
376.42	36.531
376.78	37.383
377.14	36.357
377.50	37.716
377.86	37.149
378.22	36.503
378.58	38.077
378.94	36.358
379.30	37.305
379.66	37.179
380.02	37.094
380.38	36.579
380.74	37.522
381.09	38.528
381.45	38.777
381.81	38.248
382.17	37.563
382.53	37.851
382.89	39.674
383.25	39.328
383.61	38.537
383.97	38.540
384.32	38.837
384.68	39.009
385.04	39.032
385.40	38.643
385.76	39.748
386.12	39.651
386.48	40.485
386.83	38.618
387.19	39.011
387.55	39.649
387.91	39.487
388.27	39.194
388.62	40.780
388.98	38.858
389.34	40.162
389.70	41.019
390.06	39.459
390.42	40.220
390.77	41.007
391.13	39.975
391.49	41.138
391.85	40.481
392.20	39.046
392.56	40.687
392.92	40.282
393.28	40.389
393.64	40.180
393.99	41.881
394.35	41.493
394.71	39.719
395.07	40.289
395.42	40.801
395.78	41.694
396.14	41.677
396.50	41.091
396.85	41.017
397.21	41.479
397.57	41.191
397.92	40.443
398.28	42.299
398.64	39.759
399.00	40.688
399.35	40.350
399.71	40.379
400.07	42.080
400.42	41.126
400.78	42.315
401.14	41.742
401.49	41.691
401.85	40.707
402.21	41.145
402.57	42.812
402.92	41.217
403.28	41.667
403.63	42.560
403.99	42.985
404.35	42.349
404.70	41.548
405.06	40.893
405.42	41.765
405.77	41.197
406.13	41.385
406.49	41.445
406.84	41.748
407.20	43.046
407.55	41.726
407.91	42.380
408.27	41.619
408.62	41.108
408.98	41.282
409.34	42.937
409.69	41.796
410.05	41.441
410.40	42.346
410.76	42.039
411.11	42.250
411.47	43.195
411.83	41.682
412.18	42.857
412.54	41.760
412.89	41.071
413.25	42.178
413.60	42.422
413.96	41.718
414.31	42.805
414.67	42.720
415.03	42.277
415.38	41.906
415.74	42.020
416.09	43.697
416.45	42.471
416.80	41.904
417.16	43.232
417.51	42.305
417.87	42.373
418.22	43.329
418.58	42.274
418.93	43.323
419.29	42.254
419.64	42.839
420.00	44.207
420.35	42.090
420.71	42.649
421.06	43.094
421.42	44.291
421.77	43.584
422.12	42.338
422.48	42.501
422.83	42.285
423.19	43.454
423.54	42.857
423.90	42.580
424.25	43.972
424.61	44.064
424.96	44.483
425.31	44.714
425.67	43.721
426.02	43.640
426.38	44.020
426.73	43.826
427.09	45.253
427.44	44.588
427.79	43.606
428.15	43.993
428.50	43.731
428.85	42.506
429.21	43.520
429.56	44.205
429.92	44.787
430.27	43.158
430.62	43.649
430.98	43.471
431.33	43.796
431.68	43.014
432.04	45.333
432.39	43.868
432.74	43.776
433.10	44.368
433.45	43.250
433.80	44.922
434.16	43.767
434.51	44.355
434.86	44.135
435.22	44.868
435.57	45.477
435.92	43.713
436.28	43.590
436.63	44.894
436.98	43.105
437.34	44.525
437.69	44.663
438.04	44.217
438.39	44.044
438.75	44.080
439.10	44.029
439.45	44.735
439.81	43.731
440.16	45.190
440.51	45.493
440.86	45.559
441.22	43.552
441.57	44.150
441.92	44.858
442.27	45.787
442.63	45.396
442.98	44.744
443.33	44.240
443.68	44.881
444.03	45.007
444.39	43.728
444.74	45.931
445.09	45.601
445.44	45.926
445.79	45.797
446.15	44.989
446.50	45.258
446.85	44.846
447.20	44.473
447.55	45.926
447.91	44.896
448.26	45.817
448.61	46.632
448.96	45.611
449.31	45.607
449.66	45.993
450.02	45.237
450.37	45.525
450.72	44.273
451.07	45.253
451.42	46.005
451.77	45.027
452.12	44.318
452.47	45.074
452.83	44.523
453.18	44.972
453.53	46.081
453.88	45.234
454.23	45.360
454.58	44.836
454.93	45.683
455.28	43.619
455.63	45.195
455.98	45.340
456.34	44.891
456.69	45.044
457.04	45.873
457.39	45.687
457.74	45.586
458.09	44.320
458.44	45.524
458.79	44.202
459.14	45.137
459.49	45.313
459.84	44.614
460.19	45.146
460.54	44.927
460.89	45.568
461.24	44.224
461.59	45.249
461.94	43.585
462.29	45.356
462.64	45.581
462.99	45.091
463.34	44.784
463.69	43.822
464.04	44.128
464.39	44.815
464.74	43.988
465.09	44.417
465.44	45.355
465.79	43.764
466.14	44.299
466.49	44.566
466.84	45.390
467.19	44.994
467.54	43.614
467.89	45.420
468.24	44.951
468.59	45.905
468.94	43.810
469.29	45.311
469.64	44.019
469.99	45.340
470.34	44.573
470.68	44.743
471.03	45.931
471.38	44.223
471.73	44.958
472.08	46.336
472.43	44.832
472.78	44.414
473.13	44.422
473.48	44.169
473.83	44.458
474.17	45.142
474.52	44.225
474.87	44.182
475.22	43.929
475.57	43.139
475.92	44.432
476.27	44.121
476.61	44.329
476.96	43.781
477.31	44.943
477.66	44.326
478.01	43.459
478.36	43.519
478.70	43.883
479.05	44.121
479.40	44.727
479.75	43.535
480.10	44.342
480.45	44.150
480.79	44.109
481.14	44.518
481.49	43.990
481.84	44.402
482.19	44.107
482.53	45.276
482.88	44.200
483.23	43.282
483.58	42.736
483.92	43.708
484.27	43.026
484.62	43.658
484.97	42.745
485.31	42.738
485.66	42.020
486.01	42.467
486.36	42.881
486.70	42.703
487.05	43.243
487.40	42.528
487.75	41.887
488.09	42.645
488.44	43.088
488.79	43.631
489.13	43.630
489.48	42.668
489.83	42.870
490.17	42.562
490.52	42.540
490.87	42.665
491.22	42.407
491.56	42.647
491.91	42.639
492.26	42.538
492.60	42.802
492.95	43.827
493.30	42.452
493.64	43.762
493.99	40.870
494.34	42.524
494.68	42.238
495.03	41.509
495.37	42.591
495.72	42.807
496.07	42.488
496.41	42.170
496.76	42.423
497.11	42.664
497.45	41.766
497.80	42.987
498.14	42.474
498.49	42.306
498.84	42.216
499.18	42.671
499.53	42.361
499.87	41.245
500.22	42.384
500.56	42.562
500.91	43.624
501.26	41.226
501.60	41.712
501.95	42.746
502.29	41.646
502.64	43.147
502.98	42.181
503.33	40.778
503.67	41.880
504.02	42.424
504.36	43.196
504.71	41.414
505.06	41.621
505.40	42.030
505.75	42.423
506.09	41.004
506.44	43.121
506.78	41.684
507.13	41.520
507.47	41.619
507.82	42.575
508.16	42.314
508.51	43.127
508.85	41.497
509.19	42.576
509.54	42.520
509.88	42.071
510.23	42.066
510.57	42.758
510.92	41.098
511.26	42.280
511.61	42.354
511.95	42.521
512.30	41.297
512.64	41.959
512.98	40.764
513.33	42.194
513.67	41.899
514.02	43.650
514.36	43.314
514.70	42.599
515.05	42.949
515.39	40.968
515.74	43.533
516.08	42.558
516.42	43.110
516.77	43.359
517.11	42.908
517.46	42.549
517.80	42.372
518.14	42.009
518.49	41.346
518.83	42.467
519.17	40.995
519.52	41.800
519.86	41.837
520.20	42.588
520.55	41.964
520.89	42.597
521.23	42.179
521.58	42.776
521.92	42.436
522.26	42.160
522.61	41.623
522.95	42.848
523.29	42.567
523.64	42.630
523.98	42.255
524.32	42.075
524.66	42.190
525.01	43.636
525.35	42.255
525.69	41.616
526.04	41.997
526.38	42.412
526.72	40.157
527.06	41.699
527.41	41.953
527.75	41.354
528.09	41.728
528.43	43.147
528.78	42.640
529.12	41.806
529.46	41.975
529.80	42.559
530.15	41.584
530.49	41.347
530.83	42.271
531.17	40.766
531.51	42.544
531.86	40.449
532.20	42.102
532.54	42.750
532.88	41.410
533.22	41.801
533.57	40.826
533.91	40.731
534.25	41.732
534.59	41.180
534.93	40.403
535.27	40.926
535.62	38.950
535.96	40.705
536.30	40.897
536.64	43.280
536.98	39.791
537.32	41.750
537.66	40.743
538.01	41.119
538.35	40.638
538.69	40.080
539.03	39.029
539.37	40.781
539.71	41.650
540.05	39.986
540.39	41.066
540.73	40.377
541.07	41.367
541.42	40.255
541.76	39.780
542.10	39.986
542.44	40.723
542.78	38.197
543.12	39.560
543.46	41.029
543.80	40.458
544.14	38.652
544.48	39.440
544.82	39.986
545.16	40.096
545.50	40.053
545.84	40.297
546.18	40.071
546.52	37.779
546.86	39.396
547.20	39.700
547.54	38.233
547.88	39.742
548.22	38.330
548.56	37.995
548.90	38.881
549.24	38.430
549.58	39.492
549.92	38.670
550.26	38.388
550.60	38.662
550.94	38.163
551.28	38.099
551.62	39.385
551.96	38.647
552.30	38.377
552.64	38.434
552.98	38.959
553.32	38.445
553.66	37.518
554.00	38.394
554.34	38.109
554.68	38.717
555.02	39.807
555.36	37.921
555.69	37.729
556.03	36.831
556.37	38.790
556.71	39.134
557.05	38.031
557.39	37.100
557.73	38.531
558.07	38.009
558.41	38.974
558.75	37.334
559.08	38.140
559.42	37.857
559.76	38.431
560.10	38.379
560.44	36.783
560.78	37.552
561.12	38.717
561.45	38.440
561.79	38.445
562.13	36.977
562.47	37.698
562.81	36.095
563.15	35.755
563.48	36.846
563.82	37.474
564.16	37.535
564.50	37.230
564.84	36.412
565.17	37.022
565.51	38.115
565.85	39.026
566.19	37.533
566.52	36.126
566.86	37.082
567.20	36.364
567.54	36.618
567.88	37.317
568.21	37.783
568.55	37.717
568.89	36.858
569.23	36.688
569.56	36.953
569.90	37.881
570.24	36.658
570.57	36.545
570.91	37.156
571.25	35.909
571.59	35.628
571.92	34.904
572.26	35.658
572.60	35.411
572.93	35.457
573.27	35.298
573.61	35.710
573.95	35.636
574.28	34.640
574.62	34.961
574.96	35.128
575.29	34.957
575.63	34.387
575.97	34.454
576.30	34.720
576.64	33.801
576.98	34.775
577.31	35.390
577.65	35.115
577.98	35.270
578.32	34.390
578.66	33.978
578.99	34.230
579.33	33.900
579.67	33.636
580.00	34.304
580.34	34.527
580.67	33.902
581.01	34.078
581.35	34.281
581.68	33.871
582.02	34.795
582.35	34.373
582.69	34.612
583.02	34.181
583.36	34.280
583.70	34.657
584.03	34.696
584.37	34.529
584.70	34.396
585.04	34.041
585.37	33.710
585.71	33.572
586.04	34.569
586.38	33.396
586.72	33.945
587.05	34.575
587.39	33.352
587.72	34.855
588.06	34.154
588.39	33.438
588.73	34.554
589.06	33.986
589.40	33.806
589.73	33.297
590.07	34.743
590.40	34.249
590.73	34.473
591.07	34.054
591.40	34.016
591.74	33.529
592.07	34.323
592.41	33.260
592.74	33.333
593.08	31.855
593.41	33.509
593.75	32.614
594.08	32.956
594.41	33.734
594.75	33.588
595.08	33.939
595.42	32.941
595.75	33.609
596.09	33.151
596.42	32.906
596.75	33.304
597.09	33.576
597.42	33.017
597.75	33.669
598.09	32.911
598.42	32.401
598.76	32.861
599.09	32.532
599.42	32.171
599.76	32.430
600.09	32.579
600.42	32.183
600.76	31.612
601.09	32.214
601.42	31.962
601.76	32.473
602.09	32.302
602.42	32.350
602.76	33.149
603.09	33.430
603.42	32.776
603.76	32.419
604.09	32.361
604.42	33.080
604.76	32.354
605.09	32.678
605.42	31.783
605.75	32.531
606.09	32.994
606.42	31.776
606.75	31.515
607.09	32.308
607.42	31.945
607.75	31.838
608.08	31.357
608.42	31.932
608.75	32.723
609.08	31.789
609.41	31.117
609.75	31.653
610.08	31.902
610.41	31.836
610.74	31.838
611.07	32.765
611.41	32.538
611.74	32.356
612.07	31.585
612.40	31.346
612.73	32.429
613.07	30.990
613.40	31.400
613.73	30.946
614.06	31.219
614.39	31.359
614.72	31.317
615.06	31.061
615.39	31.496
615.72	29.817
616.05	31.397
616.38	30.427
616.71	31.498
617.05	31.686
617.38	32.118
617.71	32.138
618.04	31.683
618.37	31.778
618.70	31.683
619.03	33.125
619.36	30.970
619.69	31.766
620.03	31.045
620.36	31.330
620.69	30.692
621.02	31.346
621.35	30.954
621.68	31.463
622.01	31.000
622.34	30.407
622.67	31.309
623.00	30.704
623.33	31.479
623.66	31.264
623.99	30.408
624.32	31.407
624.65	29.850
624.99	30.850
625.32	29.795
625.65	30.951
625.98	31.910
626.31	30.756
626.64	30.936
626.97	31.588
627.30	31.086
627.63	30.676
627.96	30.907
628.29	29.417
628.62	30.285
628.95	31.062
629.28	31.552
629.61	30.508
629.94	31.769
630.26	29.644
630.59	32.674
630.92	31.897
631.25	28.718
631.58	30.947
631.91	29.496
632.24	31.651
632.57	29.886
632.90	28.944
