SpectraSuite Data File
++++++++++++++++++++++++++++++++++++
Date: Fri May 15 21:12:17 PDT 2015
User: schluterlab
Dark Spectrum Present: Yes
Reference Spectrum Present: Yes
Number of Sampled Component Spectra: 1
Spectrometers: USB2E3373
Integration Time (usec): 3000 (USB2E3373)
Spectra Averaged: 3 (USB2E3373)
Boxcar Smoothing: 0 (USB2E3373)
Correct for Electrical Dark: No (USB2E3373)
Strobe/Lamp Enabled: No (USB2E3373)
Correct for Detector Non-linearity: No (USB2E3373)
Correct for Stray Light: No (USB2E3373)
Number of Pixels in Processed Spectrum: 2048
>>>>>Begin Processed Spectral Data<<<<<
178.53	0.000
178.91	0.000
179.29	-112.500
179.67	-500.000
180.04	-42.857
180.42	-125.000
180.80	-700.000
181.18	200.000
181.56	500.000
181.94	-200.000
182.31	900.000
182.69	-240.000
183.07	-166.667
183.45	-180.000
183.83	83.333
184.20	36.364
184.58	122.222
184.96	150.000
185.34	233.333
185.72	-450.000
186.09	169.231
186.47	-1000.000
186.85	283.333
187.23	122.222
187.61	400.000
187.98	-266.667
188.36	-22.222
188.74	-200.000
189.12	0.000
189.49	22.222
189.87	0.000
190.25	50.000
190.63	-100.000
191.00	-500.000
191.38	57.895
191.76	150.000
192.14	175.000
192.51	50.000
192.89	11.111
193.27	-271.429
193.65	183.333
194.02	154.545
194.40	40.000
194.78	-75.000
195.15	-16.667
195.53	-212.500
195.91	425.000
196.29	-350.000
196.66	100.000
197.04	128.571
197.42	-44.444
197.79	-333.333
198.17	-115.385
198.55	500.000
198.92	-200.000
199.30	-300.000
199.68	-200.000
200.05	-333.333
200.43	0.000
200.81	-100.000
201.18	-533.333
201.56	900.000
201.94	-500.000
202.31	-0.000
202.69	-340.000
203.07	275.000
203.44	0.000
203.82	0.000
204.19	21.429
204.57	-300.000
204.95	125.000
205.32	70.000
205.70	-71.429
206.08	-175.000
206.45	66.667
206.83	35.714
207.20	-200.000
207.58	700.000
207.96	-566.667
208.33	-180.000
208.71	-125.000
209.08	-200.000
209.46	-2200.000
209.84	-80.000
210.21	-600.000
210.59	85.714
210.96	-100.000
211.34	125.000
211.71	20.000
212.09	-185.714
212.46	-2300.000
212.84	0.000
213.22	130.000
213.59	-100.000
213.97	23.077
214.34	-90.909
214.72	16.667
215.09	625.000
215.47	-30.769
215.84	-36.364
216.22	-133.333
216.59	-50.000
216.97	200.000
217.34	-75.000
217.72	-320.000
218.09	0.000
218.47	262.500
218.84	-1600.000
219.22	-122.222
219.59	-40.000
219.97	300.000
220.34	200.000
220.72	-128.571
221.09	-225.000
221.47	0.000
221.84	-850.000
222.22	-500.000
222.59	18.182
222.97	58.333
223.34	-366.667
223.72	-21.429
224.09	-33.333
224.46	14.286
224.84	500.000
225.21	-80.000
225.59	-53.333
225.96	-350.000
226.34	550.000
226.71	-142.857
227.08	-133.333
227.46	-225.000
227.83	-800.000
228.21	22.222
228.58	18.182
228.95	-25.000
229.33	130.000
229.70	0.000
230.08	-137.500
230.45	28.571
230.82	-57.143
231.20	-13.333
231.57	35.714
231.95	-85.714
232.32	-130.000
232.69	28.571
233.07	166.667
233.44	-240.000
233.81	-90.000
234.19	33.333
234.56	-41.176
234.93	150.000
235.31	-175.000
235.68	-180.000
236.05	-92.308
236.43	-80.000
236.80	17.647
237.17	-3.125
237.55	-15.000
237.92	-11.111
238.29	11.111
238.67	3.333
239.04	20.588
239.41	-21.951
239.79	-6.667
240.16	34.146
240.53	-7.895
240.91	10.870
241.28	25.397
241.65	17.857
242.02	24.658
242.40	25.000
242.77	27.119
243.14	13.636
243.51	26.250
243.89	28.736
244.26	14.943
244.63	25.000
245.00	24.742
245.38	23.711
245.75	6.742
246.12	22.414
246.49	19.008
246.87	37.500
247.24	21.008
247.61	23.684
247.98	21.138
248.36	23.125
248.73	30.921
249.10	20.779
249.47	27.215
249.84	19.608
250.22	23.529
250.59	20.915
250.96	27.700
251.33	31.395
251.70	27.647
252.08	24.873
252.45	24.752
252.82	29.146
253.19	29.032
253.56	26.168
253.94	23.423
254.31	28.696
254.68	34.211
255.05	22.835
255.42	27.948
255.79	25.869
256.16	26.848
256.54	29.478
256.91	21.673
257.28	27.138
257.65	26.217
258.02	27.305
258.39	25.926
258.76	31.502
259.14	32.226
259.51	27.184
259.88	26.804
260.25	26.144
260.62	31.944
260.99	28.814
261.36	23.630
261.73	29.114
262.10	28.267
262.47	26.687
262.85	25.392
263.22	26.462
263.59	27.726
263.96	26.398
264.33	27.273
264.70	24.107
265.07	27.679
265.44	29.745
265.81	24.576
266.18	29.235
266.55	28.535
266.92	29.016
267.29	28.982
267.66	29.156
268.03	30.105
268.40	28.198
268.77	28.342
269.14	27.578
269.51	26.735
269.88	24.190
270.25	22.959
270.62	28.780
270.99	29.156
271.36	25.183
271.73	28.169
272.10	29.440
272.47	28.132
272.84	29.950
273.21	27.146
273.58	29.639
273.95	29.977
274.32	28.176
274.69	24.208
275.06	29.688
275.43	24.717
275.80	28.035
276.17	28.046
276.54	26.767
276.91	28.289
277.28	26.419
277.65	27.479
278.02	25.745
278.39	27.352
278.76	28.092
279.13	25.311
279.50	27.521
279.87	26.566
280.23	26.452
280.60	26.901
280.97	26.263
281.34	24.423
281.71	25.257
282.08	24.335
282.45	21.918
282.82	25.676
283.19	23.985
283.56	24.085
283.92	24.288
284.29	24.038
284.66	24.612
285.03	26.326
285.40	24.386
285.77	23.726
286.14	26.534
286.51	26.937
286.87	24.314
287.24	23.757
287.61	25.750
287.98	25.263
288.35	25.650
288.72	25.394
289.08	21.875
289.45	24.077
289.82	23.427
290.19	23.549
290.56	23.156
290.93	22.054
291.29	23.575
291.66	22.835
292.03	22.169
292.40	23.226
292.77	21.691
293.13	18.506
293.50	20.941
293.87	20.305
294.24	22.102
294.60	21.162
294.97	19.792
295.34	20.859
295.71	21.013
296.08	20.777
296.44	18.208
296.81	20.833
297.18	18.116
297.55	20.325
297.91	20.411
298.28	19.393
298.65	19.403
299.02	20.081
299.38	17.237
299.75	19.862
300.12	16.885
300.48	19.368
300.85	19.011
301.22	17.662
301.59	18.421
301.95	19.367
302.32	18.029
302.69	18.035
303.05	18.441
303.42	17.684
303.79	17.640
304.15	18.280
304.52	16.290
304.89	17.193
305.25	15.860
305.62	15.286
305.99	17.895
306.35	17.457
306.72	17.323
307.09	17.218
307.45	18.599
307.82	15.856
308.19	19.280
308.55	17.448
308.92	18.083
309.29	17.654
309.65	16.039
310.02	17.822
310.38	16.905
310.75	17.814
311.12	17.438
311.48	16.755
311.85	15.497
312.22	15.928
312.58	16.454
312.95	16.435
313.31	16.460
313.68	17.173
314.05	17.245
314.41	17.113
314.78	16.082
315.14	16.855
315.51	17.702
315.87	16.496
316.24	17.189
316.61	17.028
316.97	16.567
317.34	16.016
317.70	17.495
318.07	16.923
318.43	17.451
318.80	16.098
319.16	17.090
319.53	17.759
319.89	16.732
320.26	16.498
320.62	18.054
320.99	17.954
321.35	16.547
321.72	17.757
322.08	16.616
322.45	18.883
322.81	16.798
323.18	16.290
323.54	16.988
323.91	17.332
324.27	17.773
324.64	17.978
325.00	18.339
325.37	19.008
325.73	17.860
326.10	17.802
326.46	18.565
326.83	17.585
327.19	16.652
327.56	17.202
327.92	18.574
328.29	18.304
328.65	18.113
329.01	17.371
329.38	17.696
329.74	18.319
330.11	17.794
330.47	17.254
330.84	17.692
331.20	19.962
331.56	17.500
331.93	17.078
332.29	18.240
332.66	17.919
333.02	17.379
333.38	17.049
333.75	18.223
334.11	18.621
334.48	18.404
334.84	17.308
335.20	17.749
335.57	16.954
335.93	17.706
336.29	17.127
336.66	17.711
337.02	17.379
337.38	15.833
337.75	17.909
338.11	16.772
338.47	17.883
338.84	17.190
339.20	17.002
339.56	17.339
339.93	18.174
340.29	17.890
340.65	17.832
341.02	17.819
341.38	16.549
341.74	16.431
342.11	15.771
342.47	17.883
342.83	16.955
343.20	16.986
343.56	17.478
343.92	17.272
344.28	17.763
344.65	16.062
345.01	16.249
345.37	16.821
345.73	17.992
346.10	17.256
346.46	16.232
346.82	16.530
347.19	15.628
347.55	16.792
347.91	17.799
348.27	15.926
348.63	17.547
349.00	16.161
349.36	16.126
349.72	17.081
350.08	16.393
350.45	18.037
350.81	16.694
351.17	16.287
351.53	16.980
351.89	16.268
352.26	16.960
352.62	17.177
352.98	15.743
353.34	16.023
353.70	16.343
354.07	16.129
354.43	14.732
354.79	15.690
355.15	16.905
355.51	16.139
355.87	16.262
356.24	15.171
356.60	16.087
356.96	15.873
357.32	14.696
357.68	16.497
358.04	15.267
358.40	15.836
358.77	15.869
359.13	15.612
359.49	15.716
359.85	15.913
360.21	14.912
360.57	14.920
360.93	15.204
361.29	14.728
361.66	15.282
362.02	16.515
362.38	15.842
362.74	14.762
363.10	16.102
363.46	15.864
363.82	16.604
364.18	15.498
364.54	15.294
364.90	15.054
365.26	14.556
365.62	16.131
365.98	15.249
366.35	16.533
366.71	14.634
367.07	15.312
367.43	14.738
367.79	15.901
368.15	15.219
368.51	15.076
368.87	14.286
369.23	14.946
369.59	15.233
369.95	16.056
370.31	15.968
370.67	14.627
371.03	15.086
371.39	14.734
371.75	14.872
372.11	15.050
372.47	15.163
372.83	15.117
373.19	15.549
373.55	14.368
373.91	14.975
374.27	14.529
374.63	15.721
374.99	15.390
375.35	14.345
375.71	14.755
376.07	15.379
376.42	15.442
376.78	15.570
377.14	15.098
377.50	15.803
377.86	14.391
378.22	14.997
378.58	14.872
378.94	15.564
379.30	15.533
379.66	14.545
380.02	14.899
380.38	14.729
380.74	15.200
381.09	15.583
381.45	14.495
381.81	15.238
382.17	15.102
382.53	14.678
382.89	15.505
383.25	15.370
383.61	15.488
383.97	13.905
384.32	14.134
384.68	15.170
385.04	13.971
385.40	14.499
385.76	15.660
386.12	14.877
386.48	15.326
386.83	14.141
387.19	14.103
387.55	14.743
387.91	15.281
388.27	14.286
388.62	14.349
388.98	14.979
389.34	14.054
389.70	14.978
390.06	13.531
390.42	14.378
390.77	14.127
391.13	14.124
391.49	14.230
391.85	14.620
392.20	14.501
392.56	14.940
392.92	14.563
393.28	13.974
393.64	14.054
393.99	15.925
394.35	14.042
394.71	15.198
395.07	14.645
395.42	14.693
395.78	14.528
396.14	15.448
396.50	14.204
396.85	15.003
397.21	15.414
397.57	14.796
397.92	14.679
398.28	14.770
398.64	14.759
399.00	14.842
399.35	13.883
399.71	14.991
400.07	14.933
400.42	14.504
400.78	15.677
401.14	14.822
401.49	15.426
401.85	13.894
402.21	14.699
402.57	16.188
402.92	14.429
403.28	14.536
403.63	14.124
403.99	13.839
404.35	14.491
404.70	14.107
405.06	14.689
405.42	15.040
405.77	14.410
406.13	14.726
406.49	14.210
406.84	14.731
407.20	15.232
407.55	13.844
407.91	13.837
408.27	15.169
408.62	14.954
408.98	15.280
409.34	15.489
409.69	14.922
410.05	14.901
410.40	14.383
410.76	14.777
411.11	15.125
411.47	14.398
411.83	13.999
412.18	14.028
412.54	15.231
412.89	14.717
413.25	14.982
413.60	14.534
413.96	14.049
414.31	14.756
414.67	14.625
415.03	14.647
415.38	15.209
415.74	14.202
416.09	14.892
416.45	15.327
416.80	14.276
417.16	14.986
417.51	14.990
417.87	13.950
418.22	14.702
418.58	15.318
418.93	15.172
419.29	14.597
419.64	14.971
420.00	15.050
420.35	14.448
420.71	15.492
421.06	15.040
421.42	15.144
421.77	15.145
422.12	15.210
422.48	14.618
422.83	14.965
423.19	14.616
423.54	14.109
423.90	14.370
424.25	14.868
424.61	15.545
424.96	15.563
425.31	15.598
425.67	15.200
426.02	14.664
426.38	15.905
426.73	15.557
427.09	16.139
427.44	15.765
427.79	15.734
428.15	16.080
428.50	14.718
428.85	14.742
429.21	15.110
429.56	15.687
429.92	15.973
430.27	14.937
430.62	14.480
430.98	14.597
431.33	15.300
431.68	15.018
432.04	15.539
432.39	15.174
432.74	15.033
433.10	15.690
433.45	15.054
433.80	15.728
434.16	14.294
434.51	15.323
434.86	15.273
435.22	15.648
435.57	16.594
435.92	15.150
436.28	15.325
436.63	15.060
436.98	14.948
437.34	15.910
437.69	15.564
438.04	15.100
438.39	15.394
438.75	14.997
439.10	15.110
439.45	15.764
439.81	15.535
440.16	15.796
440.51	16.597
440.86	15.952
441.22	15.498
441.57	15.397
441.92	16.107
442.27	15.022
442.63	16.328
442.98	15.279
443.33	16.027
443.68	16.340
444.03	15.797
444.39	15.593
444.74	16.667
445.09	16.147
445.44	15.385
445.79	16.452
446.15	16.134
446.50	15.862
446.85	16.100
447.20	16.058
447.55	15.067
447.91	15.228
448.26	15.936
448.61	16.868
448.96	15.720
449.31	15.434
449.66	15.738
450.02	16.600
450.37	15.590
450.72	15.750
451.07	16.772
451.42	15.793
451.77	15.973
452.12	15.311
452.47	15.583
452.83	15.371
453.18	15.117
453.53	16.372
453.88	15.665
454.23	15.796
454.58	15.743
454.93	16.044
455.28	15.111
455.63	15.871
455.98	16.597
456.34	15.390
456.69	16.201
457.04	16.761
457.39	16.525
457.74	15.719
458.09	15.362
458.44	16.150
458.79	15.910
459.14	17.449
459.49	17.373
459.84	17.090
460.19	16.019
460.54	16.687
460.89	16.989
461.24	16.460
461.59	16.152
461.94	16.415
462.29	16.285
462.64	17.143
462.99	17.197
463.34	15.647
463.69	16.924
464.04	16.344
464.39	16.313
464.74	16.319
465.09	16.095
465.44	16.676
465.79	16.497
466.14	16.990
466.49	16.446
466.84	17.014
467.19	17.334
467.54	15.709
467.89	15.603
468.24	16.484
468.59	16.635
468.94	16.571
469.29	16.328
469.64	16.951
469.99	15.978
470.34	15.904
470.68	18.046
471.03	16.419
471.38	16.904
471.73	15.756
472.08	17.368
472.43	16.242
472.78	15.970
473.13	17.211
473.48	17.459
473.83	17.061
474.17	16.710
474.52	16.784
474.87	16.485
475.22	17.389
475.57	17.222
475.92	17.718
476.27	17.695
476.61	16.493
476.96	16.843
477.31	17.847
477.66	16.517
478.01	16.283
478.36	17.157
478.70	16.476
479.05	16.758
479.40	17.064
479.75	16.788
480.10	17.358
480.45	17.050
480.79	17.221
481.14	17.111
481.49	16.158
481.84	17.133
482.19	16.651
482.53	16.643
482.88	16.468
483.23	16.843
483.58	16.557
483.92	16.457
484.27	17.046
484.62	16.674
484.97	16.211
485.31	16.221
485.66	16.067
486.01	16.519
486.36	16.391
486.70	16.360
487.05	16.395
487.40	16.753
487.75	16.169
488.09	15.946
488.44	16.094
488.79	16.586
489.13	16.146
489.48	16.204
489.83	16.996
490.17	16.180
490.52	17.460
490.87	16.428
491.22	17.335
491.56	17.173
491.91	16.061
492.26	16.772
492.60	17.131
492.95	17.855
493.30	16.610
493.64	17.485
493.99	17.585
494.34	16.456
494.68	16.571
495.03	16.399
495.37	16.879
495.72	17.214
496.07	16.585
496.41	17.075
496.76	16.859
497.11	17.094
497.45	17.184
497.80	17.255
498.14	16.841
498.49	17.522
498.84	16.667
499.18	17.570
499.53	17.411
499.87	16.683
500.22	17.310
500.56	17.347
500.91	17.118
501.26	16.164
501.60	17.511
501.95	16.448
502.29	17.337
502.64	17.085
502.98	17.267
503.33	15.946
503.67	17.349
504.02	17.302
504.36	16.774
504.71	16.515
505.06	17.262
505.40	17.513
505.75	17.165
506.09	16.776
506.44	17.813
506.78	17.245
507.13	17.270
507.47	16.554
507.82	16.880
508.16	16.746
508.51	17.629
508.85	18.053
509.19	16.764
509.54	17.373
509.88	17.638
510.23	17.321
510.57	17.477
510.92	15.565
511.26	17.021
511.61	17.877
511.95	18.027
512.30	17.406
512.64	17.418
512.98	16.957
513.33	17.963
513.67	17.112
514.02	17.792
514.36	17.543
514.70	18.357
515.05	18.038
515.39	17.828
515.74	18.383
516.08	18.111
516.42	18.787
516.77	18.724
517.11	17.329
517.46	18.073
517.80	17.759
518.14	17.697
518.49	17.127
518.83	17.679
519.17	17.404
519.52	18.117
519.86	17.407
520.20	17.801
520.55	16.948
520.89	18.068
521.23	17.099
521.58	19.685
521.92	17.949
522.26	19.323
522.61	19.351
522.95	18.013
523.29	18.551
523.64	18.551
523.98	18.859
524.32	17.268
524.66	18.502
525.01	19.286
525.35	18.406
525.69	18.249
526.04	18.783
526.38	19.390
526.72	18.182
527.06	18.482
527.41	18.931
527.75	18.700
528.09	18.605
528.43	19.041
528.78	18.152
529.12	18.452
529.46	17.934
529.80	19.316
530.15	19.472
530.49	18.721
530.83	18.126
531.17	17.797
531.51	19.083
531.86	17.607
532.20	19.137
532.54	18.516
532.88	18.823
533.22	18.817
533.57	17.955
533.91	19.191
534.25	18.880
534.59	18.089
534.93	18.628
535.27	17.830
535.62	18.276
535.96	18.982
536.30	19.129
536.64	18.746
536.98	18.258
537.32	18.990
537.66	19.635
538.01	18.951
538.35	19.001
538.69	19.441
539.03	18.660
539.37	18.641
539.71	18.473
540.05	18.126
540.39	19.114
540.73	19.386
541.07	18.646
541.42	18.952
541.76	18.238
542.10	18.445
542.44	18.346
542.78	17.206
543.12	18.132
543.46	19.332
543.80	18.251
544.14	18.291
544.48	18.121
544.82	18.387
545.16	18.716
545.50	20.093
545.84	19.122
546.18	19.149
546.52	19.539
546.86	19.123
547.20	19.671
547.54	18.163
547.88	19.361
548.22	18.606
548.56	18.470
548.90	19.407
549.24	17.975
549.58	19.252
549.92	17.584
550.26	18.755
550.60	18.587
550.94	18.447
551.28	18.934
551.62	19.462
551.96	18.722
552.30	18.787
552.64	18.406
552.98	19.409
553.32	19.615
553.66	18.723
554.00	18.832
554.34	19.941
554.68	18.363
555.02	18.378
555.36	19.147
555.69	19.560
556.03	18.201
556.37	18.149
556.71	19.206
557.05	19.463
557.39	18.587
557.73	18.966
558.07	18.778
558.41	19.296
558.75	20.031
559.08	18.519
559.42	20.397
559.76	19.295
560.10	18.960
560.44	17.870
560.78	19.371
561.12	18.477
561.45	19.255
561.79	18.978
562.13	18.240
562.47	18.345
562.81	18.804
563.15	19.252
563.48	18.458
563.82	19.835
564.16	19.708
564.50	18.784
564.84	19.277
565.17	18.645
565.51	19.740
565.85	19.410
566.19	18.435
566.52	18.164
566.86	19.409
567.20	19.676
567.54	18.431
567.88	19.156
568.21	19.400
568.55	19.130
568.89	19.045
569.23	18.296
569.56	18.345
569.90	17.946
570.24	17.492
570.57	18.073
570.91	17.985
571.25	17.494
571.59	17.658
571.92	17.304
572.26	17.421
572.60	17.395
572.93	17.195
573.27	17.304
573.61	17.154
573.95	17.122
574.28	17.267
574.62	17.239
574.96	17.128
575.29	17.113
575.63	16.429
575.97	17.268
576.30	17.121
576.64	16.821
576.98	17.272
577.31	17.670
577.65	16.881
577.98	17.265
578.32	16.872
578.66	16.742
578.99	16.799
579.33	16.787
579.67	16.780
580.00	17.089
580.34	16.915
580.67	16.864
581.01	16.931
581.35	16.990
581.68	17.201
582.02	16.921
582.35	16.936
582.69	17.004
583.02	16.898
583.36	17.270
583.70	17.056
584.03	17.320
584.37	17.702
584.70	17.390
585.04	16.606
585.37	16.732
585.71	17.107
586.04	17.020
586.38	16.698
586.72	16.872
587.05	17.418
587.39	17.417
587.72	17.906
588.06	16.994
588.39	17.516
588.73	17.155
589.06	17.743
589.40	17.214
589.73	17.598
590.07	17.863
590.40	17.724
590.73	17.957
591.07	17.897
591.40	17.943
591.74	17.466
592.07	18.553
592.41	17.668
592.74	17.881
593.08	17.464
593.41	17.463
593.75	17.403
594.08	17.096
594.41	17.831
594.75	17.176
595.08	17.518
595.42	17.814
595.75	17.386
596.09	17.475
596.42	17.073
596.75	18.073
597.09	17.312
597.42	17.977
597.75	18.781
598.09	17.700
598.42	17.193
598.76	18.147
599.09	17.788
599.42	17.166
599.76	16.817
600.09	17.534
600.42	17.286
600.76	17.348
601.09	17.939
601.42	17.195
601.76	17.864
602.09	16.832
602.42	17.987
602.76	17.615
603.09	17.650
603.42	18.269
603.76	17.540
604.09	17.092
604.42	17.343
604.76	17.980
605.09	17.916
605.42	17.743
605.75	17.032
606.09	17.495
606.42	17.807
606.75	17.316
607.09	17.758
607.42	17.545
607.75	17.540
608.08	17.071
608.42	17.588
608.75	17.446
609.08	17.987
609.41	17.157
609.75	17.893
610.08	18.023
610.41	17.633
610.74	17.650
611.07	17.571
611.41	18.059
611.74	18.657
612.07	17.345
612.40	18.381
612.73	17.966
613.07	17.492
613.40	18.053
613.73	18.187
614.06	18.308
614.39	17.654
614.72	17.647
615.06	17.598
615.39	18.341
615.72	17.869
616.05	17.933
616.38	17.208
616.71	18.654
617.05	17.480
617.38	18.919
617.71	18.176
618.04	18.413
618.37	19.168
618.70	18.746
619.03	20.000
619.36	18.090
619.69	19.484
620.03	19.065
620.36	17.811
620.69	18.772
621.02	19.190
621.35	19.336
621.68	18.197
622.01	19.583
622.34	19.234
622.67	19.479
623.00	19.602
623.33	17.835
623.66	19.297
623.99	19.365
624.32	19.696
624.65	18.421
624.99	19.488
625.32	17.134
625.65	19.482
625.98	19.500
626.31	18.537
626.64	19.237
626.97	19.372
627.30	20.228
627.63	18.631
627.96	20.216
628.29	20.444
628.62	19.567
628.95	20.040
629.28	19.758
629.61	19.342
629.94	20.235
630.26	19.269
630.59	21.852
630.92	19.795
631.25	18.359
631.58	20.485
631.91	19.298
632.24	17.775
632.57	20.909
