SpectraSuite Data File
++++++++++++++++++++++++++++++++++++
Date: Fri May 15 20:59:30 PDT 2015
User: schluterlab
Dark Spectrum Present: Yes
Reference Spectrum Present: Yes
Number of Sampled Component Spectra: 1
Spectrometers: USB2E3373
Integration Time (usec): 3000 (USB2E3373)
Spectra Averaged: 3 (USB2E3373)
Boxcar Smoothing: 0 (USB2E3373)
Correct for Electrical Dark: No (USB2E3373)
Strobe/Lamp Enabled: No (USB2E3373)
Correct for Detector Non-linearity: No (USB2E3373)
Correct for Stray Light: No (USB2E3373)
Number of Pixels in Processed Spectrum: 2048
>>>>>Begin Processed Spectral Data<<<<<
178.53	0.000
178.91	0.000
179.29	0.000
179.67	-650.000
180.04	142.857
180.42	-75.000
180.80	-800.000
181.18	100.000
181.56	700.000
181.94	100.000
182.31	1500.000
182.69	-140.000
183.07	-433.333
183.45	-20.000
183.83	200.000
184.20	-63.636
184.58	200.000
184.96	400.000
185.34	166.667
185.72	-700.000
186.09	69.231
186.47	-1100.000
186.85	166.667
187.23	122.222
187.61	900.000
187.98	-166.667
188.36	11.111
188.74	-500.000
189.12	17.647
189.49	27.778
189.87	0.000
190.25	64.286
190.63	-350.000
191.00	-66.667
191.38	-21.053
191.76	200.000
192.14	400.000
192.51	-200.000
192.89	-133.333
193.27	-157.143
193.65	150.000
194.02	136.364
194.40	10.000
194.78	-175.000
195.15	8.333
195.53	-37.500
195.91	200.000
196.29	75.000
196.66	100.000
197.04	14.286
197.42	-11.111
197.79	-333.333
198.17	-53.846
198.55	900.000
198.92	-466.667
199.30	-1300.000
199.68	-100.000
200.05	-500.000
200.43	0.000
200.81	-33.333
201.18	-266.667
201.56	700.000
201.94	50.000
202.31	200.000
202.69	-120.000
203.07	125.000
203.44	-400.000
203.82	0.000
204.19	21.429
204.57	-766.667
204.95	-25.000
205.32	10.000
205.70	-71.429
206.08	-275.000
206.45	111.111
206.83	71.429
207.20	-157.143
207.58	200.000
207.96	-333.333
208.33	-160.000
208.71	-200.000
209.08	-233.333
209.46	-800.000
209.84	-180.000
210.21	-1900.000
210.59	100.000
210.96	-83.333
211.34	75.000
211.71	60.000
212.09	-114.286
212.46	-1500.000
212.84	0.000
213.22	30.000
213.59	200.000
213.97	0.000
214.34	-63.636
214.72	-116.667
215.09	300.000
215.47	7.692
215.84	-90.909
216.22	-300.000
216.59	0.000
216.97	-300.000
217.34	-175.000
217.72	-300.000
218.09	25.000
218.47	87.500
218.84	-800.000
219.22	-111.111
219.59	-200.000
219.97	300.000
220.34	275.000
220.72	0.000
221.09	25.000
221.47	350.000
221.84	-500.000
222.22	-1050.000
222.59	-36.364
222.97	41.667
223.34	-533.333
223.72	-100.000
224.09	-28.571
224.46	-10.714
224.84	466.667
225.21	-60.000
225.59	26.667
225.96	50.000
226.34	500.000
226.71	-57.143
227.08	-16.667
227.46	0.000
227.83	-300.000
228.21	-44.444
228.58	90.909
228.95	-100.000
229.33	100.000
229.70	12.500
230.08	-125.000
230.45	-85.714
230.82	0.000
231.20	20.000
231.57	0.000
231.95	-71.429
232.32	-80.000
232.69	0.000
233.07	100.000
233.44	20.000
233.81	-110.000
234.19	-66.667
234.56	0.000
234.93	150.000
235.31	0.000
235.68	-140.000
236.05	-61.538
236.43	-10.000
236.80	5.882
237.17	15.625
237.55	-45.000
237.92	-37.037
238.29	-19.444
238.67	-10.000
239.04	-2.941
239.41	-4.878
239.79	-30.000
240.16	14.634
240.53	21.053
240.91	6.522
241.28	34.921
241.65	19.643
242.02	31.507
242.40	20.000
242.77	30.508
243.14	22.727
243.51	25.000
243.89	37.931
244.26	29.885
244.63	33.333
245.00	26.804
245.38	24.742
245.75	17.978
246.12	26.724
246.49	34.711
246.87	34.615
247.24	26.891
247.61	35.088
247.98	35.772
248.36	26.875
248.73	32.237
249.10	27.922
249.47	29.747
249.84	33.333
250.22	32.941
250.59	28.105
250.96	33.803
251.33	29.070
251.70	37.059
252.08	34.518
252.45	33.168
252.82	33.166
253.19	29.493
253.56	28.505
253.94	35.135
254.31	35.217
254.68	33.333
255.05	35.039
255.42	33.188
255.79	28.958
256.16	37.354
256.54	32.090
256.91	31.939
257.28	35.316
257.65	36.330
258.02	37.589
258.39	34.007
258.76	32.601
259.14	39.535
259.51	33.981
259.88	34.364
260.25	31.699
260.62	35.764
260.99	30.847
261.36	31.164
261.73	34.177
262.10	36.474
262.47	31.288
262.85	35.423
263.22	33.538
263.59	34.579
263.96	35.404
264.33	33.333
264.70	30.357
265.07	31.845
265.44	33.994
265.81	34.181
266.18	35.792
266.55	37.018
266.92	33.679
267.29	34.204
267.66	35.038
268.03	34.031
268.40	38.903
268.77	36.364
269.14	37.410
269.51	34.961
269.88	30.424
270.25	34.694
270.62	32.683
270.99	33.760
271.36	33.741
271.73	34.742
272.10	36.253
272.47	35.225
272.84	35.396
273.21	34.803
273.58	33.735
273.95	33.410
274.32	33.487
274.69	30.543
275.06	35.491
275.43	31.519
275.80	34.437
276.17	33.793
276.54	31.478
276.91	32.895
277.28	30.786
277.65	33.884
278.02	32.553
278.39	32.166
278.76	33.753
279.13	29.461
279.50	34.034
279.87	34.125
280.23	32.258
280.60	31.969
280.97	34.141
281.34	29.808
281.71	34.702
282.08	33.333
282.45	33.072
282.82	31.081
283.19	34.816
283.56	31.021
283.92	30.930
284.29	29.808
284.66	30.620
285.03	31.827
285.40	31.569
285.77	31.459
286.14	30.325
286.51	32.288
286.87	28.519
287.24	30.939
287.61	32.628
287.98	32.105
288.35	31.542
288.72	32.049
289.08	30.035
289.45	30.756
289.82	28.846
290.19	26.792
290.56	28.302
290.93	28.620
291.29	25.578
291.66	27.244
292.03	26.475
292.40	28.710
292.77	27.911
293.13	25.000
293.50	23.824
293.87	25.649
294.24	26.121
294.60	26.528
294.97	26.339
295.34	24.847
295.71	26.677
296.08	24.514
296.44	25.320
296.81	24.722
297.18	24.348
297.55	26.152
297.91	25.479
298.28	25.066
298.65	24.830
299.02	23.046
299.38	22.298
299.75	24.552
300.12	22.644
300.48	23.715
300.85	23.954
301.22	23.766
301.59	24.079
301.95	23.924
302.32	24.773
302.69	22.761
303.05	21.535
303.42	22.914
303.79	22.430
304.15	23.059
304.52	23.068
304.89	22.924
305.25	21.792
305.62	19.137
305.99	22.105
306.35	22.543
306.72	22.722
307.09	21.665
307.45	23.077
307.82	21.991
308.19	22.416
308.55	21.483
308.92	22.331
309.29	20.447
309.65	22.605
310.02	22.662
310.38	22.173
310.75	23.497
311.12	21.959
311.48	21.951
311.85	22.513
312.22	22.363
312.58	22.718
312.95	22.092
313.31	21.014
313.68	21.780
314.05	21.224
314.41	20.928
314.78	22.990
315.14	21.891
315.51	22.360
315.87	22.234
316.24	25.278
316.61	23.130
316.97	22.619
317.34	23.633
317.70	24.761
318.07	23.462
318.43	23.333
318.80	24.621
319.16	23.730
319.53	25.166
319.89	24.508
320.26	24.798
320.62	24.975
320.99	23.591
321.35	24.974
321.72	26.480
322.08	26.183
322.45	27.513
322.81	27.210
323.18	28.361
323.54	28.282
323.91	26.388
324.27	26.855
324.64	28.371
325.00	29.106
325.37	30.303
325.73	28.830
326.10	30.881
326.46	31.121
326.83	29.571
327.19	30.340
327.56	32.667
327.92	33.627
328.29	31.875
328.65	33.868
329.01	32.904
329.38	31.889
329.74	33.522
330.11	32.345
330.47	32.096
330.84	33.750
331.20	34.981
331.56	34.630
331.93	34.977
332.29	35.014
332.66	33.665
333.02	33.922
333.38	35.105
333.75	33.974
334.11	33.035
334.48	35.086
334.84	34.707
335.20	34.035
335.57	34.633
335.93	34.779
336.29	35.359
336.66	34.242
337.02	34.851
337.38	34.167
337.75	35.273
338.11	35.798
338.47	36.861
338.84	36.229
339.20	34.004
339.56	36.422
339.93	34.736
340.29	33.945
340.65	35.125
341.02	35.372
341.38	36.903
341.74	35.601
342.11	34.835
342.47	35.142
342.83	36.851
343.20	34.233
343.56	36.261
343.92	36.227
344.28	36.208
344.65	36.615
345.01	35.350
345.37	35.492
345.73	34.895
346.10	36.411
346.46	35.408
346.82	34.861
347.19	34.996
347.55	36.257
347.91	36.408
348.27	34.681
348.63	35.179
349.00	35.931
349.36	35.578
349.72	37.148
350.08	35.984
350.45	37.111
350.81	35.797
351.17	34.609
351.53	36.816
351.89	35.425
352.26	35.680
352.62	36.371
352.98	36.305
353.34	35.910
353.70	37.460
354.07	35.645
354.43	35.388
354.79	35.838
355.15	36.667
355.51	36.946
355.87	36.650
356.24	35.400
356.60	35.732
356.96	36.587
357.32	35.383
357.68	36.122
358.04	35.784
358.40	36.576
358.77	36.842
359.13	35.949
359.49	35.824
359.85	36.505
360.21	35.407
360.57	36.343
360.93	35.703
361.29	34.743
361.66	36.285
362.02	37.879
362.38	38.005
362.74	36.866
363.10	36.795
363.46	36.027
363.82	37.190
364.18	35.424
364.54	36.397
364.90	36.918
365.26	36.608
365.62	37.883
365.98	37.610
366.35	38.747
366.71	38.655
367.07	38.026
367.43	36.880
367.79	37.597
368.15	37.832
368.51	37.728
368.87	38.119
369.23	37.040
369.59	37.245
369.95	37.830
370.31	37.789
370.67	37.985
371.03	38.013
371.39	38.001
371.75	37.143
372.11	38.374
372.47	38.166
372.83	38.609
373.19	37.019
373.55	38.628
373.91	37.725
374.27	38.979
374.63	39.124
374.99	39.007
375.35	38.510
375.71	38.322
376.07	38.272
376.42	39.184
376.78	38.859
377.14	38.456
377.50	39.243
377.86	38.353
378.22	38.545
378.58	39.295
378.94	38.815
379.30	38.366
379.66	39.687
380.02	38.994
380.38	38.771
380.74	38.839
381.09	39.080
381.45	38.960
381.81	39.729
382.17	39.023
382.53	39.413
382.89	39.925
383.25	40.448
383.61	40.976
383.97	39.937
384.32	39.712
384.68	40.000
385.04	39.767
385.40	40.386
385.76	41.635
386.12	40.039
386.48	41.060
386.83	41.915
387.19	40.965
387.55	41.280
387.91	40.709
388.27	39.927
388.62	40.717
388.98	41.007
389.34	42.099
389.70	41.765
390.06	40.529
390.42	41.386
390.77	42.838
391.13	41.488
391.49	42.303
391.85	42.365
392.20	41.243
392.56	41.259
392.92	41.574
393.28	40.920
393.64	42.402
393.99	43.135
394.35	42.315
394.71	42.401
395.07	42.929
395.42	42.198
395.78	42.932
396.14	41.803
396.50	43.056
396.85	42.176
397.21	41.917
397.57	42.571
397.92	42.361
398.28	42.644
398.64	41.325
399.00	42.551
399.35	41.761
399.71	43.136
400.07	44.015
400.42	42.962
400.78	44.213
401.14	42.710
401.49	44.550
401.85	43.388
402.21	43.614
402.57	44.375
402.92	42.033
403.28	44.110
403.63	45.082
403.99	44.452
404.35	44.847
404.70	42.202
405.06	42.773
405.42	44.065
405.77	43.463
406.13	44.121
406.49	42.866
406.84	43.704
407.20	44.852
407.55	44.108
407.91	44.385
408.27	43.595
408.62	43.938
408.98	45.348
409.34	44.610
409.69	43.928
410.05	44.089
410.40	45.000
410.76	43.969
411.11	44.438
411.47	46.417
411.83	44.570
412.18	45.431
412.54	44.757
412.89	44.520
413.25	45.066
413.60	44.969
413.96	44.540
414.31	45.244
414.67	45.414
415.03	45.206
415.38	44.713
415.74	45.798
416.09	46.179
416.45	46.793
416.80	44.812
417.16	46.754
417.51	45.769
417.87	45.567
418.22	46.244
418.58	46.221
418.93	46.897
419.29	45.070
419.64	45.690
420.00	46.662
420.35	45.970
420.71	47.145
421.06	45.856
421.42	46.695
421.77	46.069
422.12	46.595
422.48	46.616
422.83	45.650
423.19	46.953
423.54	45.855
423.90	46.466
424.25	47.245
424.61	47.613
424.96	46.806
425.31	48.989
425.67	49.237
426.02	47.350
426.38	48.842
426.73	48.850
427.09	48.861
427.44	48.706
427.79	47.967
428.15	48.665
428.50	48.395
428.85	47.850
429.21	48.557
429.56	50.027
429.92	47.612
430.27	48.221
430.62	48.249
430.98	48.036
431.33	47.897
431.68	47.619
432.04	49.078
432.39	48.089
432.74	47.444
433.10	49.080
433.45	47.969
433.80	48.694
434.16	47.424
434.51	48.925
434.86	49.187
435.22	48.962
435.57	49.844
435.92	49.760
436.28	49.434
436.63	49.116
436.98	48.552
437.34	47.852
437.69	49.791
438.04	49.630
438.39	48.931
438.75	49.362
439.10	49.406
439.45	50.517
439.81	48.746
440.16	50.831
440.51	50.209
440.86	51.299
441.22	50.000
441.57	50.110
441.92	50.630
442.27	51.220
442.63	50.214
442.98	50.201
443.33	49.638
443.68	50.239
444.03	50.671
444.39	49.779
444.74	51.784
445.09	50.780
445.44	50.256
445.79	51.882
446.15	49.394
446.50	49.695
446.85	50.903
447.20	49.114
447.55	50.725
447.91	50.874
448.26	50.256
448.61	51.468
448.96	50.832
449.31	50.694
449.66	51.336
450.02	50.371
450.37	51.571
450.72	51.375
451.07	51.962
451.42	49.813
451.77	50.995
452.12	50.000
452.47	51.706
452.83	50.530
453.18	50.664
453.53	50.316
453.88	50.577
454.23	50.891
454.58	51.952
454.93	50.387
455.28	49.143
455.63	51.767
455.98	50.992
456.34	51.596
456.69	51.271
457.04	51.229
457.39	51.094
457.74	51.330
458.09	50.265
458.44	50.556
458.79	50.588
459.14	52.517
459.49	51.045
459.84	49.972
460.19	51.760
460.54	51.345
460.89	51.080
461.24	51.615
461.59	51.781
461.94	50.818
462.29	51.387
462.64	52.093
462.99	51.862
463.34	50.904
463.69	51.673
464.04	50.847
464.39	50.212
464.74	51.288
465.09	52.090
465.44	50.433
465.79	50.737
466.14	50.969
466.49	49.971
466.84	50.625
467.19	50.876
467.54	51.277
467.89	51.169
468.24	51.277
468.59	51.429
468.94	50.794
469.29	51.016
469.64	51.333
469.99	52.768
470.34	51.604
470.68	52.722
471.03	52.442
471.38	52.568
471.73	52.031
472.08	51.764
472.43	52.013
472.78	50.446
473.13	51.905
473.48	50.554
473.83	50.996
474.17	51.490
474.52	51.372
474.87	52.242
475.22	51.739
475.57	51.270
475.92	52.057
476.27	51.106
476.61	51.562
476.96	50.307
477.31	51.271
477.66	52.303
478.01	51.600
478.36	51.035
478.70	52.583
479.05	51.813
479.40	51.298
479.75	50.156
480.10	51.203
480.45	51.900
480.79	51.913
481.14	51.486
481.49	50.591
481.84	51.448
482.19	49.813
482.53	50.983
482.88	50.883
483.23	50.576
483.58	51.415
483.92	50.823
484.27	50.410
484.62	50.515
484.97	50.332
485.31	50.145
485.66	47.770
486.01	48.144
486.36	47.738
486.70	50.360
487.05	50.614
487.40	49.948
487.75	50.986
488.09	51.051
488.44	51.651
488.79	51.700
489.13	51.643
489.48	50.834
489.83	50.538
490.17	50.697
490.52	50.346
490.87	48.913
491.22	51.146
491.56	51.755
491.91	50.335
492.26	51.434
492.60	50.288
492.95	51.254
493.30	50.220
493.64	51.817
493.99	51.594
494.34	50.728
494.68	51.619
495.03	50.219
495.37	50.736
495.72	50.379
496.07	50.585
496.41	50.047
496.76	50.392
497.11	50.722
497.45	51.217
497.80	52.220
498.14	50.671
498.49	50.990
498.84	50.250
499.18	51.305
499.53	50.645
499.87	50.000
500.22	50.297
500.56	51.387
500.91	50.552
501.26	50.667
501.60	50.615
501.95	49.927
502.29	50.363
502.64	51.014
502.98	51.801
503.33	49.856
503.67	49.976
504.02	50.293
504.36	50.470
504.71	49.747
505.06	49.170
505.40	50.711
505.75	50.155
506.09	50.329
506.44	51.540
506.78	50.459
507.13	50.103
507.47	50.235
507.82	50.855
508.16	50.924
508.51	51.049
508.85	50.497
509.19	49.282
509.54	50.617
509.88	50.593
510.23	50.457
510.57	50.401
510.92	50.053
511.26	49.809
511.61	51.430
511.95	50.192
512.30	49.612
512.64	51.029
512.98	50.983
513.33	50.979
513.67	50.938
514.02	52.403
514.36	51.657
514.70	51.748
515.05	51.586
515.39	51.240
515.74	51.317
516.08	51.763
516.42	52.415
516.77	51.258
517.11	50.682
517.46	51.466
517.80	50.954
518.14	52.174
518.49	49.880
518.83	51.944
519.17	49.727
519.52	50.740
519.86	50.480
520.20	50.790
520.55	50.657
520.89	50.878
521.23	50.538
521.58	51.420
521.92	50.897
522.26	51.269
522.61	50.974
522.95	53.245
523.29	50.064
523.64	50.254
523.98	51.134
524.32	52.513
524.66	51.985
525.01	52.468
525.35	51.329
525.69	51.313
526.04	50.066
526.38	51.751
526.72	50.229
527.06	50.130
527.41	50.660
527.75	50.737
528.09	50.698
528.43	51.654
528.78	50.561
529.12	50.903
529.46	50.292
529.80	50.095
530.15	52.343
530.49	52.795
530.83	51.710
531.17	51.175
531.51	50.889
531.86	50.782
532.20	52.401
532.54	50.442
532.88	51.335
533.22	51.008
533.57	49.672
533.91	52.023
534.25	51.497
534.59	50.802
534.93	49.654
535.27	48.794
535.62	50.162
535.96	50.554
536.30	49.934
536.64	50.793
536.98	51.986
537.32	52.987
537.66	52.104
538.01	51.259
538.35	50.347
538.69	50.533
539.03	49.761
539.37	50.808
539.71	49.421
540.05	50.102
540.39	50.693
540.73	50.628
541.07	51.450
541.42	50.672
541.76	50.723
542.10	49.759
542.44	49.201
542.78	48.864
543.12	50.069
543.46	49.444
543.80	50.035
544.14	50.067
544.48	49.833
544.82	50.923
545.16	49.317
545.50	49.866
545.84	50.850
546.18	50.213
546.52	48.450
546.86	50.324
547.20	50.858
547.54	49.258
547.88	49.728
548.22	49.967
548.56	49.208
548.90	50.135
549.24	49.793
549.58	49.154
549.92	49.964
550.26	49.304
550.60	50.260
550.94	49.664
551.28	49.304
551.62	50.769
551.96	48.120
552.30	48.465
552.64	49.154
552.98	47.750
553.32	49.786
553.66	49.057
554.00	49.051
554.34	49.114
554.68	47.050
555.02	49.702
555.36	51.085
555.69	48.059
556.03	47.609
556.37	47.544
556.71	49.603
557.05	49.664
557.39	47.807
557.73	48.651
558.07	50.226
558.41	48.315
558.75	49.026
559.08	49.803
559.42	49.444
559.76	48.519
560.10	48.853
560.44	48.101
560.78	47.622
561.12	49.365
561.45	49.122
561.79	49.440
562.13	47.622
562.47	49.353
562.81	47.911
563.15	48.237
563.48	47.878
563.82	48.524
564.16	48.538
564.50	46.892
564.84	47.590
565.17	47.552
565.51	49.044
565.85	47.942
566.19	47.745
566.52	47.922
566.86	47.622
567.20	47.447
567.54	46.715
567.88	48.389
568.21	47.172
568.55	46.304
568.89	47.125
569.23	46.317
569.56	45.622
569.90	45.595
570.24	44.511
570.57	45.164
570.91	46.148
571.25	43.933
571.59	44.472
571.92	43.407
572.26	43.720
572.60	44.279
572.93	43.866
573.27	44.232
573.61	43.914
573.95	43.501
574.28	43.671
574.62	43.199
574.96	43.032
575.29	43.387
575.63	42.602
575.97	43.155
576.30	43.098
576.64	42.649
576.98	43.449
577.31	43.672
577.65	42.890
577.98	43.555
578.32	42.544
578.66	42.532
578.99	43.168
579.33	42.118
579.67	42.316
580.00	43.089
580.34	42.861
580.67	43.027
581.01	43.132
581.35	41.968
581.68	41.882
582.02	41.787
582.35	41.838
582.69	42.598
583.02	42.448
583.36	43.340
583.70	43.769
584.03	44.120
584.37	44.297
584.70	42.885
585.04	42.435
585.37	42.113
585.71	41.792
586.04	42.537
586.38	42.198
586.72	42.640
587.05	42.721
587.39	42.242
587.72	42.674
588.06	42.901
588.39	42.580
588.73	42.582
589.06	43.412
589.40	42.966
589.73	43.885
590.07	43.467
590.40	42.570
590.73	44.110
591.07	42.918
591.40	42.832
591.74	42.851
592.07	44.527
592.41	43.595
592.74	42.095
593.08	40.482
593.41	41.614
593.75	40.988
594.08	41.023
594.41	41.667
594.75	42.176
595.08	42.149
595.42	42.068
595.75	42.246
596.09	42.924
596.42	42.662
596.75	42.318
597.09	42.870
597.42	42.412
597.75	41.869
598.09	41.421
598.42	41.381
598.76	41.484
599.09	41.587
599.42	40.205
599.76	40.745
600.09	40.950
600.42	40.940
600.76	40.490
601.09	40.725
601.42	41.050
601.76	41.802
602.09	40.759
602.42	41.618
602.76	41.978
603.09	41.154
603.42	42.057
603.76	40.645
604.09	40.583
604.42	42.005
604.76	42.546
605.09	41.682
605.42	41.445
605.75	41.025
606.09	41.571
606.42	40.617
606.75	41.429
607.09	40.747
607.42	39.787
607.75	40.009
608.08	39.892
608.42	39.744
608.75	41.253
609.08	41.704
609.41	40.914
609.75	41.280
610.08	40.789
610.41	39.855
610.74	40.419
611.07	40.879
611.41	41.048
611.74	41.151
612.07	39.989
612.40	41.083
612.73	40.565
613.07	41.564
613.40	40.919
613.73	40.123
614.06	40.790
614.39	40.891
614.72	40.280
615.06	40.726
615.39	40.011
615.72	39.128
616.05	39.944
616.38	39.145
616.71	40.367
617.05	39.778
617.38	41.043
617.71	40.566
618.04	42.349
618.37	40.984
618.70	41.782
619.03	41.944
619.36	40.449
619.69	41.926
620.03	42.001
620.36	40.629
620.69	40.257
621.02	41.208
621.35	42.407
621.68	42.092
622.01	41.333
622.34	42.378
622.67	40.694
623.00	40.046
623.33	40.320
623.66	40.015
623.99	39.637
624.32	41.445
624.65	38.496
624.99	39.579
625.32	39.955
625.65	41.477
625.98	41.579
626.31	40.898
626.64	40.988
626.97	42.147
627.30	41.944
627.63	42.288
627.96	41.240
628.29	41.628
628.62	41.003
628.95	42.285
629.28	41.331
629.61	39.681
629.94	41.544
630.26	39.625
630.59	41.519
630.92	41.641
631.25	40.103
631.58	40.969
631.91	41.667
632.24	42.546
632.57	41.818
632.90	42.823
633.23	41.412
