SpectraSuite Data File
++++++++++++++++++++++++++++++++++++
Date: Fri May 15 20:27:20 PDT 2015
User: schluterlab
Dark Spectrum Present: Yes
Reference Spectrum Present: Yes
Number of Sampled Component Spectra: 1
Spectrometers: USB2E3373
Integration Time (usec): 3000 (USB2E3373)
Spectra Averaged: 3 (USB2E3373)
Boxcar Smoothing: 0 (USB2E3373)
Correct for Electrical Dark: No (USB2E3373)
Strobe/Lamp Enabled: No (USB2E3373)
Correct for Detector Non-linearity: No (USB2E3373)
Correct for Stray Light: No (USB2E3373)
Number of Pixels in Processed Spectrum: 2048
>>>>>Begin Processed Spectral Data<<<<<
178.53	0.000
178.91	0.000
179.29	87.500
179.67	-600.000
180.04	57.143
180.42	-50.000
180.80	100.000
181.18	-100.000
181.56	350.000
181.94	-300.000
182.31	-900.000
182.69	140.000
183.07	-66.667
183.45	-80.000
183.83	33.333
184.20	27.273
184.58	122.222
184.96	-75.000
185.34	-0.000
185.72	150.000
186.09	69.231
186.47	-900.000
186.85	250.000
187.23	122.222
187.61	-100.000
187.98	-66.667
188.36	22.222
188.74	-233.333
189.12	29.412
189.49	55.556
189.87	0.000
190.25	64.286
190.63	450.000
191.00	0.000
191.38	-5.263
191.76	700.000
192.14	225.000
192.51	150.000
192.89	33.333
193.27	14.286
193.65	183.333
194.02	127.273
194.40	140.000
194.78	-75.000
195.15	25.000
195.53	-62.500
195.91	225.000
196.29	-50.000
196.66	69.231
197.04	100.000
197.42	0.000
197.79	-433.333
198.17	-69.231
198.55	700.000
198.92	33.333
199.30	300.000
199.68	-100.000
200.05	-366.667
200.43	0.000
200.81	0.000
201.18	-100.000
201.56	400.000
201.94	150.000
202.31	-100.000
202.69	-100.000
203.07	-50.000
203.44	-100.000
203.82	0.000
204.19	50.000
204.57	-300.000
204.95	125.000
205.32	110.000
205.70	57.143
206.08	-50.000
206.45	211.111
206.83	121.429
207.20	0.000
207.58	900.000
207.96	-66.667
208.33	-160.000
208.71	50.000
209.08	-233.333
209.46	-1100.000
209.84	-60.000
210.21	-300.000
210.59	14.286
210.96	16.667
211.34	-225.000
211.71	66.667
212.09	-157.143
212.46	-700.000
212.84	0.000
213.22	80.000
213.59	-150.000
213.97	100.000
214.34	36.364
214.72	-66.667
215.09	175.000
215.47	30.769
215.84	-36.364
216.22	233.333
216.59	37.500
216.97	500.000
217.34	150.000
217.72	80.000
218.09	125.000
218.47	100.000
218.84	100.000
219.22	33.333
219.59	-120.000
219.97	-66.667
220.34	-0.000
220.72	71.429
221.09	-100.000
221.47	500.000
221.84	-200.000
222.22	-700.000
222.59	54.545
222.97	66.667
223.34	-200.000
223.72	21.429
224.09	38.095
224.46	-14.286
224.84	566.667
225.21	-40.000
225.59	93.333
225.96	-300.000
226.34	-25.000
226.71	114.286
227.08	116.667
227.46	150.000
227.83	200.000
228.21	122.222
228.58	90.909
228.95	87.500
229.33	30.000
229.70	68.750
230.08	0.000
230.45	-71.429
230.82	57.143
231.20	-20.000
231.57	92.857
231.95	185.714
232.32	-50.000
232.69	-7.143
233.07	233.333
233.44	0.000
233.81	30.000
234.19	111.111
234.56	70.588
234.93	250.000
235.31	75.000
235.68	-60.000
236.05	92.308
236.43	5.000
236.80	47.059
237.17	68.750
237.55	15.000
237.92	40.741
238.29	52.778
238.67	76.667
239.04	76.471
239.41	26.829
239.79	70.000
240.16	78.049
240.53	60.526
240.91	58.696
241.28	57.143
241.65	62.500
242.02	76.712
242.40	65.000
242.77	76.271
243.14	56.061
243.51	77.500
243.89	81.609
244.26	71.264
244.63	77.381
245.00	69.072
245.38	80.412
245.75	89.888
246.12	68.966
246.49	76.860
246.87	85.577
247.24	78.151
247.61	72.807
247.98	78.049
248.36	76.875
248.73	77.632
249.10	85.714
249.47	86.076
249.84	92.157
250.22	94.118
250.59	92.157
250.96	76.526
251.33	86.628
251.70	92.941
252.08	78.680
252.45	81.683
252.82	86.935
253.19	79.724
253.56	80.841
253.94	89.189
254.31	78.696
254.68	93.421
255.05	78.346
255.42	89.520
255.79	88.417
256.16	89.494
256.54	85.448
256.91	81.749
257.28	78.067
257.65	85.768
258.02	85.816
258.39	83.165
258.76	82.784
259.14	86.379
259.51	81.877
259.88	88.316
260.25	80.392
260.62	96.875
260.99	84.407
261.36	85.616
261.73	87.025
262.10	87.234
262.47	83.742
262.85	84.326
263.22	87.385
263.59	86.916
263.96	87.578
264.33	90.303
264.70	85.417
265.07	87.500
265.44	88.952
265.81	86.723
266.18	86.885
266.55	88.689
266.92	84.715
267.29	88.251
267.66	81.586
268.03	87.435
268.40	86.684
268.77	91.979
269.14	85.132
269.51	87.661
269.88	88.279
270.25	84.949
270.62	81.707
270.99	89.514
271.36	83.130
271.73	83.568
272.10	87.591
272.47	91.017
272.84	86.634
273.21	83.759
273.58	85.542
273.95	81.465
274.32	85.219
274.69	78.959
275.06	86.161
275.43	80.952
275.80	86.534
276.17	84.138
276.54	76.874
276.91	85.088
277.28	82.751
277.65	80.785
278.02	79.787
278.39	84.245
278.76	87.212
279.13	79.668
279.50	82.773
279.87	80.346
280.23	83.226
280.60	79.922
280.97	81.010
281.34	77.308
281.71	82.546
282.08	80.368
282.45	78.278
282.82	78.764
283.19	82.205
283.56	79.383
283.92	81.214
284.29	78.269
284.66	81.202
285.03	81.925
285.40	77.505
285.77	76.098
286.14	78.700
286.51	81.734
286.87	76.234
287.24	81.584
287.61	79.012
287.98	77.193
288.35	77.123
288.72	78.109
289.08	76.042
289.45	76.450
289.82	74.301
290.19	76.109
290.56	76.844
290.93	75.253
291.29	70.108
291.66	72.913
292.03	72.887
292.40	74.516
292.77	70.335
293.13	68.994
293.50	70.106
293.87	71.603
294.24	69.397
294.60	69.896
294.97	67.857
295.34	70.245
295.71	67.958
296.08	67.713
296.44	66.999
296.81	65.694
297.18	66.957
297.55	68.293
297.91	65.753
298.28	64.116
298.65	63.229
299.02	63.612
299.38	63.201
299.75	65.517
300.12	63.089
300.48	64.559
300.85	63.118
301.22	62.208
301.59	60.132
301.95	64.177
302.32	64.851
302.69	62.562
303.05	60.272
303.42	62.267
303.79	63.902
304.15	62.843
304.52	61.831
304.89	59.883
305.25	62.470
305.62	60.327
305.99	60.819
306.35	62.312
306.72	60.292
307.09	59.863
307.45	63.261
307.82	62.500
308.19	64.808
308.55	62.159
308.92	64.270
309.29	62.235
309.65	61.572
310.02	63.036
310.38	60.044
310.75	66.448
311.12	62.971
311.48	62.036
311.85	63.455
312.22	62.658
312.58	62.951
312.95	61.580
313.31	63.251
313.68	64.188
314.05	63.571
314.41	63.711
314.78	63.505
315.14	65.262
315.51	64.389
315.87	63.525
316.24	65.015
316.61	64.567
316.97	62.897
317.34	62.402
317.70	64.436
318.07	63.558
318.43	67.157
318.80	65.341
319.16	66.406
319.53	66.002
319.89	65.354
320.26	66.093
320.62	68.606
320.99	66.388
321.35	65.982
321.72	66.563
322.08	66.264
322.45	68.325
322.81	67.583
323.18	66.830
323.54	67.375
323.91	68.452
324.27	68.457
324.64	68.539
325.00	67.245
325.37	69.605
325.73	67.815
326.10	71.299
326.46	68.700
326.83	70.691
327.19	70.793
327.56	70.808
327.92	69.982
328.29	69.464
328.65	71.321
329.01	70.037
329.38	69.032
329.74	71.388
330.11	70.065
330.47	68.367
330.84	68.750
331.20	71.198
331.56	67.222
331.93	68.767
332.29	69.844
332.66	67.964
333.02	67.658
333.38	70.577
333.75	70.238
334.11	67.234
334.48	67.906
334.84	68.315
335.20	67.429
335.57	66.818
335.93	68.293
336.29	68.324
336.66	67.666
337.02	66.636
337.38	66.667
337.75	68.545
338.11	67.628
338.47	67.245
338.84	67.375
339.20	66.179
339.56	67.431
339.93	66.607
340.29	68.440
340.65	64.606
341.02	65.248
341.38	66.460
341.74	65.106
342.11	63.605
342.47	66.014
342.83	66.609
343.20	65.244
343.56	64.957
343.92	64.659
344.28	63.450
344.65	63.644
345.01	63.959
345.37	62.658
345.73	63.682
346.10	64.107
346.46	62.237
346.82	61.866
347.19	62.095
347.55	62.991
347.91	61.489
348.27	61.924
348.63	62.692
349.00	61.772
349.36	62.427
349.72	62.355
350.08	60.984
350.45	60.654
350.81	61.960
351.17	59.528
351.53	60.816
351.89	60.446
352.26	60.800
352.62	60.806
352.98	59.357
353.34	59.179
353.70	59.709
354.07	59.516
354.43	59.167
354.79	59.538
355.15	60.635
355.51	59.415
355.87	58.333
356.24	58.972
356.60	59.499
356.96	58.968
357.32	57.188
357.68	56.294
358.04	59.693
358.40	58.280
358.77	59.091
359.13	58.127
359.49	56.009
359.85	57.332
360.21	57.815
360.57	57.230
360.93	57.489
361.29	56.798
361.66	57.759
362.02	57.727
362.38	57.959
362.74	57.381
363.10	59.443
363.46	59.303
363.82	58.452
364.18	55.129
364.54	56.029
364.90	56.989
365.26	56.186
365.62	57.883
365.98	58.284
366.35	58.631
366.71	58.241
367.07	58.128
367.43	57.009
367.79	57.032
368.15	55.276
368.51	57.465
368.87	55.061
369.23	56.173
369.59	57.799
369.95	56.745
370.31	58.237
370.67	57.463
371.03	56.161
371.39	56.455
371.75	56.703
372.11	56.348
372.47	56.065
372.83	56.494
373.19	55.136
373.55	55.740
373.91	56.156
374.27	57.406
374.63	57.574
374.99	56.525
375.35	55.989
375.71	56.503
376.07	57.303
376.42	55.714
376.78	57.114
377.14	55.450
377.50	55.976
377.86	57.162
378.22	57.626
378.58	57.244
378.94	56.837
379.30	55.770
379.66	57.304
380.02	56.898
380.38	55.447
380.74	56.852
381.09	57.117
381.45	56.575
381.81	57.064
382.17	57.170
382.53	57.152
382.89	58.255
383.25	57.250
383.61	57.622
383.97	57.524
384.32	55.972
384.68	56.471
385.04	57.414
385.40	56.938
385.76	59.623
386.12	58.473
386.48	58.301
386.83	57.578
387.19	57.326
387.55	58.532
387.91	57.702
388.27	55.861
388.62	58.339
388.98	57.029
389.34	58.276
389.70	59.354
390.06	56.765
390.42	56.865
390.77	58.273
391.13	57.188
391.49	58.279
391.85	58.804
392.20	58.569
392.56	57.915
392.92	58.250
393.28	58.432
393.64	57.538
393.99	58.746
394.35	59.013
394.71	59.579
395.07	57.448
395.42	57.620
395.78	58.632
396.14	58.197
396.50	60.241
396.85	59.176
397.21	59.712
397.57	58.997
397.92	58.538
398.28	59.828
398.64	59.157
399.00	59.368
399.35	58.296
399.71	58.530
400.07	60.157
400.42	58.813
400.78	59.829
401.14	59.649
401.49	58.904
401.85	57.952
402.21	58.614
402.57	59.000
402.92	58.908
403.28	59.837
403.63	60.151
403.99	58.673
404.35	60.212
404.70	58.512
405.06	59.107
405.42	58.546
405.77	58.164
406.13	59.255
406.49	59.207
406.84	59.597
407.20	60.144
407.55	59.498
407.91	59.759
408.27	59.401
408.62	59.631
408.98	59.088
409.34	60.471
409.69	60.401
410.05	59.113
410.40	60.802
410.76	59.952
411.11	59.812
411.47	61.275
411.83	60.201
412.18	62.355
412.54	59.363
412.89	58.621
413.25	60.409
413.60	60.062
413.96	59.571
414.31	60.000
414.67	59.589
415.03	60.985
415.38	57.702
415.74	60.456
416.09	61.267
416.45	61.175
416.80	61.071
417.16	62.224
417.51	62.692
417.87	60.756
418.22	61.140
418.58	62.007
418.93	60.940
419.29	60.179
419.64	60.402
420.00	62.028
420.35	59.582
420.71	62.576
421.06	61.633
421.42	61.659
421.77	61.329
422.12	60.556
422.48	60.422
422.83	61.021
423.19	61.343
423.54	61.905
423.90	61.661
424.25	63.720
424.61	62.791
424.96	62.950
425.31	63.720
425.67	63.732
426.02	64.311
426.38	65.122
426.73	64.165
427.09	64.937
427.44	63.882
427.79	62.699
428.15	64.078
428.50	63.537
428.85	62.776
429.21	63.045
429.56	63.720
429.92	62.763
430.27	62.105
430.62	63.095
430.98	63.694
431.33	63.828
431.68	64.364
432.04	64.058
432.39	63.320
432.74	63.500
433.10	65.402
433.45	64.277
433.80	65.177
434.16	64.654
434.51	65.645
434.86	65.041
435.22	64.330
435.57	65.066
435.92	64.910
436.28	64.818
436.63	65.088
436.98	64.368
437.34	64.852
437.69	66.369
438.04	66.439
438.39	65.608
438.75	67.335
439.10	65.139
439.45	67.559
439.81	65.994
440.16	67.043
440.51	66.687
440.86	67.069
441.22	66.176
441.57	66.998
441.92	65.897
442.27	66.907
442.63	67.238
442.98	67.662
443.33	66.166
443.68	67.109
444.03	67.760
444.39	66.995
444.74	67.893
445.09	68.040
445.44	68.490
445.79	68.953
446.15	67.786
446.50	67.332
446.85	68.969
447.20	67.205
447.55	67.467
447.91	67.795
448.26	69.152
448.61	67.761
448.96	69.248
449.31	69.191
449.66	68.583
450.02	69.082
450.37	69.235
450.72	68.614
451.07	70.633
451.42	68.102
451.77	67.571
452.12	69.438
452.47	69.543
452.83	69.258
453.18	70.525
453.53	70.228
453.88	70.370
454.23	70.805
454.58	71.411
454.93	71.456
455.28	68.508
455.63	71.234
455.98	70.174
456.34	71.328
456.69	70.902
457.04	71.014
457.39	70.656
457.74	71.221
458.09	68.864
458.44	71.036
458.79	71.317
459.14	70.824
459.49	72.239
459.84	69.600
460.19	71.845
460.54	71.271
460.89	72.841
461.24	72.795
461.59	74.050
461.94	71.006
462.29	73.341
462.64	72.757
462.99	72.309
463.34	73.018
463.69	72.329
464.04	72.518
464.39	73.620
464.74	71.840
465.09	73.862
465.44	72.302
465.79	71.599
466.14	72.007
466.49	73.145
466.84	72.397
467.19	72.028
467.54	72.286
467.89	73.721
468.24	73.662
468.59	74.921
468.94	73.905
469.29	73.770
469.64	74.299
469.99	76.454
470.34	73.242
470.68	76.286
471.03	75.584
471.38	75.392
471.73	74.020
472.08	74.559
472.43	76.443
472.78	74.983
473.13	76.667
473.48	74.593
473.83	74.097
474.17	76.231
474.52	74.282
474.87	74.667
475.22	76.388
475.57	73.800
475.92	74.547
476.27	75.378
476.61	77.488
476.96	75.460
477.31	76.528
477.66	73.933
478.01	75.126
478.36	75.763
478.70	76.455
479.05	76.374
479.40	75.570
479.75	74.922
480.10	74.245
480.45	75.950
480.79	76.687
481.14	77.818
481.49	75.123
481.84	77.558
482.19	75.912
482.53	77.506
482.88	76.659
483.23	76.200
483.58	76.462
483.92	77.057
484.27	75.798
484.62	76.244
484.97	76.161
485.31	74.566
485.66	73.240
486.01	73.365
486.36	72.809
486.70	73.550
487.05	74.693
487.40	74.690
487.75	74.423
488.09	75.865
488.44	75.378
488.79	75.943
489.13	77.123
489.48	76.999
489.83	77.175
490.17	77.978
490.52	78.522
490.87	77.464
491.22	78.701
491.56	77.182
491.91	77.151
492.26	78.512
492.60	77.495
492.95	77.865
493.30	78.505
493.64	79.175
493.99	79.034
494.34	78.932
494.68	79.095
495.03	79.027
495.37	78.999
495.72	79.303
496.07	78.878
496.41	79.057
496.76	78.766
497.11	77.876
497.45	79.141
497.80	80.272
498.14	77.745
498.49	79.431
498.84	79.591
499.18	80.321
499.53	79.018
499.87	78.745
500.22	78.833
500.56	80.837
500.91	80.371
501.26	78.596
501.60	79.734
501.95	80.107
502.29	78.838
502.64	80.936
502.98	79.280
503.33	77.137
503.67	78.843
504.02	80.401
504.36	79.416
504.71	80.202
505.06	79.014
505.40	80.660
505.75	81.907
506.09	79.169
506.44	82.495
506.78	80.204
507.13	80.662
507.47	78.799
507.82	81.357
508.16	80.930
508.51	81.270
508.85	80.638
509.19	81.107
509.54	81.823
509.88	81.446
510.23	80.742
510.57	80.385
510.92	79.104
511.26	82.106
511.61	82.563
511.95	81.753
512.30	81.818
512.64	81.803
512.98	81.583
513.33	82.149
513.67	81.353
514.02	82.666
514.36	82.857
514.70	82.867
515.05	83.549
515.39	82.881
515.74	84.731
516.08	82.726
516.42	84.688
516.77	81.978
517.11	83.620
517.46	83.603
517.80	83.194
518.14	84.446
518.49	82.993
518.83	84.083
519.17	83.323
519.52	83.600
519.86	83.433
520.20	84.872
520.55	85.241
520.89	83.563
521.23	83.851
521.58	83.849
521.92	84.167
522.26	83.735
522.61	85.260
522.95	86.623
523.29	84.562
523.64	84.625
523.98	85.483
524.32	84.278
524.66	84.635
525.01	85.130
525.35	84.057
525.69	86.801
526.04	85.251
526.38	85.733
526.72	84.500
527.06	84.630
527.41	83.113
527.75	84.584
528.09	83.787
528.43	86.631
528.78	86.601
529.12	85.161
529.46	85.315
529.80	83.534
530.15	86.403
530.49	85.253
530.83	85.910
531.17	83.479
531.51	87.141
531.86	86.336
532.20	85.804
532.54	85.500
532.88	85.079
533.22	84.341
533.57	84.076
533.91	84.073
534.25	86.458
534.59	83.387
534.93	83.071
535.27	83.566
535.62	83.863
535.96	83.301
536.30	83.707
536.64	85.458
536.98	84.808
537.32	86.060
537.66	85.273
538.01	86.993
538.35	83.911
538.69	84.154
539.03	83.049
539.37	82.773
539.71	83.367
540.05	82.349
540.39	83.934
540.73	84.031
541.07	84.876
541.42	85.215
541.76	83.895
542.10	84.102
542.44	84.781
542.78	83.345
543.12	84.684
543.46	83.380
543.80	84.525
544.14	82.777
544.48	83.544
544.82	83.595
545.16	84.221
545.50	81.642
545.84	84.773
546.18	83.972
546.52	84.787
546.86	83.968
547.20	83.834
547.54	80.141
547.88	81.929
548.22	80.408
548.56	81.266
548.90	82.884
549.24	80.579
549.58	83.498
549.92	82.345
550.26	83.004
550.60	85.056
550.94	82.823
551.28	83.539
551.62	84.923
551.96	84.060
552.30	83.845
552.64	81.735
552.98	82.278
553.32	82.810
553.66	82.729
554.00	85.036
554.34	83.678
554.68	83.260
555.02	83.557
555.36	83.695
555.69	83.004
556.03	81.370
556.37	82.989
556.71	82.599
557.05	83.371
557.39	82.974
557.73	83.508
558.07	84.465
558.41	84.074
558.75	83.320
559.08	84.791
559.42	85.079
559.76	84.708
560.10	83.486
560.44	81.981
560.78	80.629
561.12	82.087
561.45	81.307
561.79	83.964
562.13	81.405
562.47	80.647
562.81	81.988
563.15	82.370
563.48	81.047
563.82	81.949
564.16	81.267
564.50	79.932
564.84	81.191
565.17	81.087
565.51	82.650
565.85	82.030
566.19	82.029
566.52	81.903
566.86	80.656
567.20	78.829
567.54	80.839
567.88	81.664
568.21	79.581
568.55	78.533
568.89	77.567
569.23	77.805
569.56	76.576
569.90	76.492
570.24	74.284
570.57	76.109
570.91	74.381
571.25	73.528
571.59	71.971
571.92	71.496
572.26	72.766
572.60	72.000
572.93	71.698
573.27	71.630
573.61	72.315
573.95	72.010
574.28	71.451
574.62	71.320
574.96	69.983
575.29	70.697
575.63	68.878
575.97	71.022
576.30	70.565
576.64	69.510
576.98	71.042
577.31	71.541
577.65	69.794
577.98	69.780
578.32	68.634
578.66	67.655
578.99	69.209
579.33	68.673
579.67	68.812
580.00	69.367
580.34	69.627
580.67	69.065
581.01	68.324
581.35	68.174
581.68	67.841
582.02	67.921
582.35	67.354
582.69	68.329
583.02	68.596
583.36	68.370
583.70	70.353
584.03	69.725
584.37	71.062
584.70	69.863
585.04	67.798
585.37	67.715
585.71	68.823
586.04	68.180
586.38	68.232
586.72	69.182
587.05	69.151
587.39	68.549
587.72	69.929
588.06	69.001
588.39	68.100
588.73	68.559
589.06	69.896
589.40	69.098
589.73	70.135
590.07	70.582
590.40	70.511
590.73	71.952
591.07	70.102
591.40	70.793
591.74	71.041
592.07	71.660
592.41	70.671
592.74	69.096
593.08	67.028
593.41	67.611
593.75	67.484
594.08	66.186
594.41	67.358
594.75	68.664
595.08	68.521
595.42	68.863
595.75	69.057
596.09	69.468
596.42	68.871
596.75	68.739
597.09	69.112
597.42	68.970
597.75	69.400
598.09	68.221
598.42	69.404
598.76	66.795
599.09	66.987
599.42	65.252
599.76	66.065
600.09	66.478
600.42	65.618
600.76	65.305
601.09	65.840
601.42	66.392
601.76	67.209
602.09	66.460
602.42	68.366
602.76	67.742
603.09	67.359
603.42	68.687
603.76	67.218
604.09	66.788
604.42	66.540
604.76	67.735
605.09	67.413
605.42	67.404
605.75	66.462
606.09	66.837
606.42	65.763
606.75	65.714
607.09	66.242
607.42	66.194
607.75	65.986
608.08	64.780
608.42	65.327
608.75	68.145
609.08	67.414
609.41	67.208
609.75	66.734
610.08	67.000
610.41	65.749
610.74	65.578
611.07	67.494
611.41	67.514
611.74	67.804
612.07	67.184
612.40	66.849
612.73	68.136
613.07	66.760
613.40	66.521
613.73	66.256
614.06	65.832
614.39	66.949
614.72	66.106
615.06	66.201
615.39	64.574
615.72	65.985
616.05	66.145
616.38	64.330
616.71	66.177
617.05	66.337
617.38	66.876
617.71	68.365
618.04	68.762
618.37	66.835
618.70	67.789
619.03	68.472
619.36	68.596
619.69	68.840
620.03	70.562
620.36	67.525
620.69	66.881
621.02	69.266
621.35	68.963
621.68	71.259
622.01	69.250
622.34	70.391
622.67	68.218
623.00	68.989
623.33	67.912
623.66	67.539
623.99	67.549
624.32	67.529
624.65	67.218
624.99	68.096
625.32	66.945
625.65	69.285
625.98	68.815
626.31	68.994
626.64	68.804
626.97	70.419
627.30	70.490
627.63	67.591
627.96	69.811
628.29	70.028
628.62	70.010
628.95	71.643
629.28	71.472
629.61	71.486
629.94	70.186
630.26	68.577
630.59	72.425
630.92	71.385
631.25	69.026
631.58	72.357
631.91	71.162
632.24	70.757
632.57	71.136
632.90	72.716
633.23	72.588
633.56	74.181
633.89	72.873
