SpectraSuite Data File
++++++++++++++++++++++++++++++++++++
Date: Fri May 15 20:45:23 PDT 2015
User: schluterlab
Dark Spectrum Present: Yes
Reference Spectrum Present: Yes
Number of Sampled Component Spectra: 1
Spectrometers: USB2E3373
Integration Time (usec): 3000 (USB2E3373)
Spectra Averaged: 3 (USB2E3373)
Boxcar Smoothing: 0 (USB2E3373)
Correct for Electrical Dark: No (USB2E3373)
Strobe/Lamp Enabled: No (USB2E3373)
Correct for Detector Non-linearity: No (USB2E3373)
Correct for Stray Light: No (USB2E3373)
Number of Pixels in Processed Spectrum: 2048
>>>>>Begin Processed Spectral Data<<<<<
178.53	0.000
178.91	0.000
179.29	-25.000
179.67	-750.000
180.04	85.714
180.42	-25.000
180.80	-600.000
181.18	300.000
181.56	800.000
181.94	-300.000
182.31	500.000
182.69	20.000
183.07	-133.333
183.45	0.000
183.83	183.333
184.20	-18.182
184.58	122.222
184.96	25.000
185.34	-0.000
185.72	-350.000
186.09	38.462
186.47	-700.000
186.85	283.333
187.23	122.222
187.61	-0.000
187.98	-300.000
188.36	-33.333
188.74	-400.000
189.12	-23.529
189.49	27.778
189.87	0.000
190.25	78.571
190.63	-100.000
191.00	-366.667
191.38	-15.789
191.76	-50.000
192.14	200.000
192.51	-50.000
192.89	0.000
193.27	-157.143
193.65	233.333
194.02	163.636
194.40	20.000
194.78	-112.500
195.15	-41.667
195.53	-150.000
195.91	425.000
196.29	-200.000
196.66	53.846
197.04	85.714
197.42	-66.667
197.79	-533.333
198.17	-53.846
198.55	1400.000
198.92	-466.667
199.30	-700.000
199.68	-260.000
200.05	-233.333
200.43	0.000
200.81	0.000
201.18	-233.333
201.56	1300.000
201.94	200.000
202.31	66.667
202.69	-120.000
203.07	175.000
203.44	-400.000
203.82	0.000
204.19	57.143
204.57	-233.333
204.95	200.000
205.32	80.000
205.70	0.000
206.08	-325.000
206.45	155.556
206.83	78.571
207.20	-171.429
207.58	400.000
207.96	-400.000
208.33	-110.000
208.71	-250.000
209.08	-216.667
209.46	-1400.000
209.84	-200.000
210.21	-1500.000
210.59	85.714
210.96	-50.000
211.34	-300.000
211.71	73.333
212.09	-114.286
212.46	-2200.000
212.84	0.000
213.22	10.000
213.59	350.000
213.97	23.077
214.34	-45.455
214.72	-116.667
215.09	275.000
215.47	-100.000
215.84	-54.545
216.22	-133.333
216.59	37.500
216.97	-100.000
217.34	125.000
217.72	-80.000
218.09	87.500
218.47	112.500
218.84	-700.000
219.22	-66.667
219.59	-140.000
219.97	300.000
220.34	225.000
220.72	100.000
221.09	-375.000
221.47	150.000
221.84	-900.000
222.22	-450.000
222.59	-36.364
222.97	-33.333
223.34	-133.333
223.72	-35.714
224.09	-19.048
224.46	21.429
224.84	100.000
225.21	30.000
225.59	-6.667
225.96	-150.000
226.34	325.000
226.71	-42.857
227.08	-183.333
227.46	25.000
227.83	-750.000
228.21	44.444
228.58	0.000
228.95	-12.500
229.33	160.000
229.70	-50.000
230.08	-75.000
230.45	-128.571
230.82	0.000
231.20	-66.667
231.57	42.857
231.95	28.571
232.32	-70.000
232.69	42.857
233.07	133.333
233.44	-80.000
233.81	-30.000
234.19	-66.667
234.56	-29.412
234.93	100.000
235.31	150.000
235.68	-360.000
236.05	-92.308
236.43	-25.000
236.80	-5.882
237.17	-18.750
237.55	-15.000
237.92	-7.407
238.29	2.778
238.67	20.000
239.04	29.412
239.41	26.829
239.79	-26.667
240.16	19.512
240.53	23.684
240.91	4.348
241.28	25.397
241.65	23.214
242.02	23.288
242.40	13.333
242.77	20.339
243.14	30.303
243.51	20.000
243.89	29.885
244.26	17.241
244.63	27.381
245.00	23.711
245.38	29.897
245.75	19.101
246.12	23.276
246.49	27.273
246.87	23.077
247.24	22.689
247.61	25.439
247.98	15.447
248.36	18.750
248.73	16.447
249.10	21.429
249.47	24.051
249.84	26.797
250.22	24.706
250.59	22.222
250.96	26.761
251.33	23.837
251.70	29.412
252.08	24.365
252.45	24.257
252.82	29.648
253.19	24.885
253.56	21.495
253.94	24.775
254.31	25.652
254.68	26.754
255.05	23.622
255.42	18.777
255.79	24.710
256.16	27.237
256.54	26.119
256.91	24.335
257.28	23.420
257.65	21.723
258.02	21.986
258.39	24.242
258.76	27.106
259.14	25.581
259.51	29.126
259.88	26.804
260.25	24.837
260.62	29.514
260.99	21.356
261.36	25.000
261.73	24.367
262.10	23.708
262.47	26.687
262.85	23.511
263.22	26.462
263.59	27.414
263.96	25.776
264.33	23.030
264.70	26.488
265.07	23.810
265.44	24.929
265.81	27.966
266.18	28.142
266.55	25.450
266.92	29.534
267.29	27.154
267.66	26.343
268.03	28.534
268.40	22.193
268.77	25.668
269.14	25.659
269.51	25.193
269.88	25.436
270.25	22.959
270.62	24.634
270.99	24.808
271.36	23.472
271.73	24.648
272.10	27.494
272.47	24.586
272.84	25.495
273.21	25.754
273.58	25.783
273.95	25.858
274.32	23.557
274.69	23.303
275.06	26.786
275.43	27.438
275.80	25.607
276.17	25.287
276.54	25.268
276.91	24.123
277.28	24.454
277.65	23.967
278.02	22.766
278.39	26.258
278.76	24.738
279.13	22.822
279.50	24.160
279.87	25.702
280.23	22.581
280.60	23.197
280.97	24.646
281.34	25.000
281.71	24.025
282.08	23.313
282.45	23.875
282.82	22.973
283.19	25.532
283.56	24.855
283.92	23.340
284.29	20.000
284.66	24.806
285.03	22.986
285.40	23.251
285.77	22.847
286.14	24.729
286.51	23.247
286.87	21.389
287.24	24.125
287.61	22.222
287.98	24.912
288.35	21.144
288.72	24.694
289.08	20.660
289.45	23.726
289.82	23.951
290.19	19.966
290.56	22.813
290.93	22.727
291.29	18.952
291.66	21.417
292.03	20.893
292.40	20.484
292.77	22.488
293.13	19.805
293.50	19.879
293.87	21.221
294.24	18.238
294.60	20.864
294.97	20.238
295.34	19.785
295.71	18.629
296.08	18.685
296.44	17.781
296.81	17.917
297.18	21.159
297.55	18.699
297.91	18.219
298.28	20.976
298.65	19.674
299.02	18.733
299.38	15.321
299.75	17.931
300.12	16.623
300.48	19.499
300.85	17.617
301.22	16.234
301.59	17.368
301.95	19.747
302.32	18.418
302.69	18.408
303.05	16.460
303.42	17.933
303.79	18.458
304.15	17.443
304.52	17.598
304.89	17.310
305.25	16.586
305.62	17.503
305.99	14.854
306.35	16.994
306.72	17.998
307.09	16.078
307.45	17.222
307.82	16.435
308.19	17.654
308.55	19.193
308.92	18.410
309.29	17.095
309.65	16.469
310.02	16.942
310.38	16.795
310.75	18.470
311.12	17.653
311.48	16.331
311.85	16.649
312.22	17.405
312.58	16.136
312.95	16.115
313.31	17.288
313.68	17.277
314.05	17.245
314.41	17.526
314.78	18.866
315.14	18.705
315.51	16.874
315.87	17.828
316.24	18.605
316.61	18.110
316.97	18.452
317.34	19.238
317.70	20.554
318.07	17.404
318.43	20.000
318.80	18.655
319.16	20.117
319.53	19.848
319.89	20.571
320.26	19.737
320.62	21.364
320.99	19.937
321.35	19.322
321.72	20.249
322.08	21.450
322.45	20.406
322.81	21.218
323.18	21.394
323.54	20.656
323.91	20.351
324.27	21.094
324.64	22.472
325.00	21.533
325.37	22.681
325.73	21.124
326.10	21.708
326.46	22.780
326.83	22.747
327.19	23.540
327.56	22.589
327.92	24.560
328.29	22.054
328.65	23.679
329.01	23.713
329.38	23.687
329.74	25.496
330.11	24.560
330.47	24.212
330.84	24.712
331.20	25.760
331.56	22.685
331.93	25.479
332.29	25.848
332.66	25.701
333.02	25.465
333.38	24.840
333.75	26.557
334.11	25.425
334.48	26.383
334.84	26.190
335.20	24.428
335.57	23.391
335.93	26.197
336.29	27.072
336.66	26.158
337.02	25.836
337.38	24.815
337.75	25.818
338.11	26.420
338.47	27.007
338.84	25.508
339.20	26.325
339.56	25.138
339.93	26.231
340.29	27.064
340.65	26.434
341.02	25.355
341.38	26.814
341.74	25.442
342.11	24.523
342.47	26.068
342.83	27.336
343.20	25.610
343.56	25.913
343.92	26.484
344.28	26.900
344.65	25.820
345.01	24.373
345.37	25.652
345.73	26.611
346.10	25.971
346.46	25.315
346.82	26.105
347.19	24.106
347.55	26.065
347.91	26.133
348.27	26.031
348.63	26.661
349.00	26.661
349.36	27.016
349.72	25.539
350.08	25.902
350.45	25.698
350.81	25.249
351.17	25.489
351.53	26.041
351.89	25.351
352.26	26.000
352.62	25.726
352.98	24.578
353.34	24.718
353.70	25.890
354.07	25.968
354.43	26.501
354.79	26.672
355.15	27.937
355.51	26.820
355.87	25.000
356.24	24.878
356.60	24.656
356.96	25.635
357.32	26.358
357.68	25.958
358.04	24.233
358.40	26.527
358.77	26.475
359.13	25.140
359.49	25.578
359.85	26.365
360.21	25.518
360.57	26.014
360.93	26.248
361.29	25.680
361.66	25.784
362.02	26.818
362.38	26.047
362.74	27.025
363.10	26.862
363.46	26.835
363.82	27.573
364.18	25.756
364.54	26.029
364.90	26.953
365.26	25.983
365.62	27.372
365.98	27.273
366.35	27.604
366.71	26.534
367.07	26.851
367.43	25.737
367.79	26.572
368.15	26.777
368.51	26.366
368.87	25.700
369.23	26.498
369.59	27.551
369.95	27.273
370.31	27.168
370.67	26.716
371.03	27.259
371.39	27.206
371.75	26.740
372.11	27.461
372.47	27.071
372.83	26.686
373.19	26.961
373.55	27.365
373.91	26.782
374.27	27.498
374.63	28.141
374.99	26.099
375.35	26.671
375.71	27.692
376.07	26.826
376.42	28.844
376.78	27.651
377.14	27.759
377.50	28.552
377.86	28.514
378.22	27.760
378.58	28.013
378.94	27.599
379.30	27.386
379.66	28.464
380.02	27.468
380.38	27.389
380.74	27.708
381.09	27.975
381.45	27.645
381.81	28.809
382.17	28.299
382.53	28.732
382.89	28.123
383.25	28.438
383.61	29.268
383.97	28.317
384.32	28.643
384.68	28.793
385.04	28.431
385.40	28.251
385.76	30.126
386.12	28.913
386.48	29.566
386.83	28.789
387.19	29.304
387.55	29.799
387.91	29.890
388.27	28.144
388.62	29.515
388.98	29.220
389.34	28.607
389.70	30.205
390.06	28.697
390.42	29.404
390.77	30.085
391.13	28.878
391.49	28.913
391.85	30.149
392.20	28.751
392.56	30.070
392.92	30.182
393.28	29.953
393.64	30.030
393.99	30.533
394.35	29.285
394.71	29.438
395.07	29.038
395.42	29.690
395.78	29.316
396.14	29.382
396.50	30.184
396.85	30.071
397.21	29.511
397.57	29.467
397.92	28.999
398.28	29.368
398.64	29.639
399.00	30.361
399.35	28.781
399.71	29.408
400.07	30.169
400.42	29.743
400.78	30.312
401.14	29.522
401.49	30.554
401.85	29.311
402.21	29.819
402.57	29.750
402.92	29.987
403.28	30.138
403.63	31.021
403.99	30.102
404.35	30.169
404.70	29.107
405.06	30.024
405.42	30.267
405.77	29.053
406.13	29.511
406.49	29.959
406.84	29.584
407.20	30.163
407.55	29.813
407.91	29.479
408.27	30.083
408.62	30.277
408.98	29.452
409.34	30.173
409.69	29.974
410.05	29.495
410.40	28.704
410.76	30.458
411.11	31.000
411.47	29.717
411.83	29.504
412.18	30.180
412.54	29.838
412.89	28.695
413.25	30.445
413.60	30.683
413.96	30.368
414.31	30.061
414.67	29.442
415.03	28.961
415.38	30.352
415.74	30.293
416.09	30.764
416.45	29.507
416.80	30.932
417.16	30.594
417.51	31.845
417.87	29.791
418.22	30.440
418.58	31.304
418.93	30.909
419.29	29.513
419.64	29.877
420.00	30.353
420.35	29.731
420.71	30.437
421.06	30.510
421.42	31.010
421.77	30.405
422.12	30.988
422.48	29.399
422.83	30.162
423.19	30.982
423.54	29.688
423.90	29.800
424.25	30.482
424.61	30.477
424.96	29.733
425.31	31.774
425.67	30.575
426.02	30.271
426.38	31.246
426.73	32.143
427.09	32.215
427.44	30.882
427.79	32.115
428.15	31.857
428.50	30.951
428.85	31.511
429.21	31.013
429.56	31.752
429.92	32.563
430.27	31.429
430.62	31.260
430.98	31.794
431.33	31.493
431.68	31.397
432.04	32.700
432.39	30.462
432.74	31.389
433.10	32.471
433.45	30.944
433.80	31.979
434.16	32.188
434.51	32.634
434.86	32.346
435.22	32.642
435.57	32.002
435.92	32.814
436.28	32.439
436.63	33.257
436.98	32.735
437.34	32.728
437.69	33.393
438.04	32.593
438.39	32.987
438.75	33.090
439.10	31.805
439.45	33.841
439.81	33.761
440.16	35.036
440.51	34.806
440.86	35.770
441.22	33.880
441.57	34.161
441.92	34.785
442.27	34.756
442.63	35.225
442.98	36.071
443.33	35.225
443.68	34.324
444.03	34.923
444.39	34.678
444.74	36.566
445.09	36.470
445.44	35.726
445.79	36.565
446.15	35.463
446.50	35.885
446.85	35.707
447.20	35.193
447.55	35.938
447.91	36.153
448.26	36.710
448.61	37.191
448.96	37.636
449.31	36.416
449.66	36.411
450.02	36.908
450.37	38.293
450.72	36.312
451.07	37.532
451.42	37.578
451.77	37.071
452.12	36.603
452.47	37.218
452.83	37.161
453.18	37.255
453.53	38.369
453.88	37.158
454.23	37.062
454.58	38.728
454.93	38.402
455.28	37.206
455.63	37.384
455.98	37.883
456.34	38.250
456.69	38.437
457.04	39.382
457.39	37.728
457.74	37.062
458.09	37.081
458.44	37.507
458.79	37.479
459.14	37.815
459.49	38.269
459.84	37.958
460.19	37.561
460.54	39.181
460.89	38.352
461.24	38.944
461.59	37.292
461.94	37.862
462.29	39.928
462.64	39.668
462.99	38.118
463.34	38.665
463.69	37.387
464.04	38.499
464.39	38.933
464.74	38.344
465.09	37.867
465.44	39.296
465.79	37.755
466.14	38.712
466.49	38.815
466.84	39.143
467.19	40.050
467.54	38.697
467.89	39.356
468.24	39.659
468.59	39.873
468.94	38.730
469.29	40.197
469.64	39.781
469.99	40.505
470.34	38.703
470.68	40.865
471.03	39.703
471.38	40.157
471.73	40.686
472.08	40.570
472.43	40.470
472.78	39.411
473.13	41.224
473.48	40.521
473.83	39.788
474.17	40.933
474.52	40.077
474.87	39.818
475.22	39.170
475.57	39.921
475.92	40.044
476.27	41.385
476.61	40.856
476.96	39.487
477.31	41.482
477.66	39.719
478.01	39.697
478.36	39.924
478.70	41.055
479.05	41.374
479.40	40.911
479.75	40.042
480.10	40.758
480.45	40.200
480.79	41.591
481.14	41.445
481.49	39.803
481.84	41.651
482.19	39.336
482.53	40.384
482.88	40.955
483.23	40.787
483.58	40.472
483.92	39.642
484.27	40.383
484.62	39.310
484.97	39.552
485.31	37.897
485.66	37.534
486.01	36.378
486.36	36.572
486.70	37.333
487.05	38.017
487.40	38.082
487.75	38.704
488.09	38.813
488.44	38.755
488.79	40.269
489.13	40.705
489.48	39.761
489.83	40.628
490.17	39.101
490.52	40.462
490.87	39.611
491.22	41.213
491.56	41.082
491.91	40.440
492.26	41.079
492.60	41.123
492.95	41.663
493.30	40.352
493.64	40.668
493.99	41.498
494.34	40.922
494.68	40.619
495.03	39.951
495.37	40.775
495.72	41.393
496.07	41.171
496.41	40.991
496.76	40.396
497.11	40.615
497.45	41.814
497.80	42.281
498.14	41.530
498.49	40.884
498.84	41.866
499.18	42.520
499.53	42.212
499.87	40.953
500.22	42.483
500.56	42.108
500.91	42.219
501.26	40.979
501.60	41.564
501.95	41.533
502.29	42.082
502.64	41.071
502.98	42.181
503.33	41.306
503.67	41.301
504.02	42.033
504.36	42.801
504.71	42.626
505.06	41.922
505.40	42.487
505.75	43.247
506.09	41.967
506.44	43.172
506.78	43.214
507.13	44.157
507.47	42.663
507.82	44.071
508.16	43.106
508.51	44.019
508.85	44.270
509.19	43.853
509.54	44.182
509.88	43.366
510.23	44.217
510.57	45.056
510.92	42.537
511.26	45.608
511.61	46.095
511.95	44.767
512.30	46.009
512.64	45.632
512.98	45.649
513.33	45.775
513.67	45.708
514.02	48.799
514.36	47.314
514.70	45.979
515.05	47.591
515.39	47.462
515.74	47.665
516.08	48.117
516.42	47.821
516.77	47.455
517.11	49.139
517.46	47.576
517.80	48.451
518.14	47.949
518.49	47.476
518.83	48.785
519.17	48.150
519.52	47.543
519.86	46.939
520.20	49.028
520.55	49.531
520.89	50.063
521.23	49.462
521.58	49.464
521.92	51.538
522.26	49.057
522.61	49.935
522.95	50.795
523.29	50.127
523.64	49.492
523.98	49.773
524.32	48.776
524.66	49.552
525.01	49.416
525.35	50.421
525.69	50.909
526.04	50.265
526.38	52.594
526.72	49.313
527.06	50.259
527.41	51.121
527.75	51.139
528.09	50.897
528.43	53.207
528.78	50.165
529.12	51.806
529.46	51.527
529.80	49.715
530.15	52.805
530.49	50.909
530.83	51.642
531.17	50.705
531.51	51.847
531.86	50.170
532.20	51.079
532.54	51.396
532.88	52.019
533.22	49.933
533.57	50.852
533.91	50.522
534.25	50.130
534.59	50.096
534.93	50.031
535.27	49.683
535.62	49.644
535.96	49.706
536.30	50.330
536.64	51.275
536.98	49.756
537.32	52.418
537.66	52.034
538.01	52.098
538.35	50.347
538.69	49.800
539.03	50.513
539.37	51.144
539.71	50.170
540.05	50.781
540.39	51.247
540.73	50.767
541.07	52.003
541.42	49.798
541.76	51.273
542.10	52.306
542.44	51.008
542.78	48.245
543.12	50.481
543.46	51.739
543.80	51.076
544.14	48.598
544.48	49.034
544.82	51.265
545.16	51.298
545.50	49.800
545.84	50.992
546.18	50.709
546.52	51.406
546.86	50.899
547.20	51.431
547.54	50.106
547.88	49.796
548.22	47.732
548.56	48.417
548.90	51.078
549.24	48.898
549.58	48.872
549.92	49.750
550.26	51.575
550.60	52.193
550.94	52.577
551.28	51.932
551.62	51.462
551.96	50.451
552.30	51.023
552.64	50.212
552.98	50.914
553.32	50.428
553.66	49.710
554.00	50.730
554.34	52.290
554.68	50.737
555.02	50.818
555.36	50.486
555.69	50.476
556.03	49.822
556.37	50.890
556.71	50.903
557.05	52.498
557.39	50.260
557.73	52.324
558.07	51.810
558.41	50.842
558.75	50.818
559.08	50.670
559.42	52.143
559.76	50.921
560.10	50.153
560.44	50.335
560.78	49.790
561.12	50.423
561.45	51.581
561.79	50.420
562.13	51.029
562.47	50.360
562.81	51.153
563.15	50.282
563.48	50.636
563.82	50.721
564.16	50.209
564.50	48.851
564.84	48.996
565.17	50.101
565.51	51.639
565.85	49.726
566.19	49.536
566.52	49.933
566.86	50.514
567.20	48.630
567.54	48.236
567.88	49.561
568.21	48.360
568.55	46.902
568.89	46.920
569.23	47.039
569.56	45.841
569.90	45.189
570.24	43.990
570.57	43.527
570.91	43.709
571.25	42.683
571.59	42.510
571.92	41.304
572.26	42.089
572.60	42.326
572.93	42.924
573.27	42.194
573.61	41.348
573.95	41.671
574.28	40.731
574.62	41.546
574.96	40.339
575.29	40.737
575.63	40.062
575.97	40.553
576.30	41.355
576.64	40.026
576.98	41.313
577.31	41.239
577.65	40.734
577.98	40.723
578.32	38.811
578.66	39.201
578.99	40.009
579.33	40.470
579.67	40.298
580.00	40.709
580.34	41.095
580.67	40.504
581.01	41.162
581.35	39.987
581.68	39.559
582.02	39.567
582.35	39.369
582.69	39.949
583.02	39.863
583.36	40.856
583.70	41.485
584.03	42.118
584.37	41.615
584.70	41.236
585.04	40.751
585.37	40.762
585.71	39.694
586.04	40.267
586.38	40.437
586.72	41.263
587.05	41.912
587.39	41.403
587.72	41.498
588.06	41.185
588.39	41.612
588.73	41.361
589.06	42.759
589.40	42.689
589.73	43.081
590.07	43.127
590.40	43.305
590.73	44.193
591.07	44.529
591.40	44.256
591.74	42.986
592.07	44.666
592.41	44.346
592.74	43.290
593.08	41.076
593.41	41.911
593.75	41.053
594.08	40.817
594.41	41.812
594.75	42.519
595.08	43.208
595.42	42.032
595.75	42.884
596.09	42.768
596.42	43.448
596.75	44.139
597.09	43.872
597.42	43.812
597.75	44.114
598.09	43.775
598.42	43.231
598.76	42.814
599.09	41.907
599.42	41.910
599.76	41.309
600.09	41.516
600.42	41.850
600.76	41.716
601.09	42.519
601.42	42.029
601.76	42.596
602.09	42.120
602.42	44.103
602.76	42.487
603.09	43.605
603.42	43.938
603.76	41.653
604.09	42.527
604.42	43.528
604.76	44.815
605.09	43.053
605.42	43.205
605.75	43.520
606.09	42.378
606.42	42.410
606.75	43.030
607.09	43.209
607.42	43.731
607.75	42.052
608.08	42.543
608.42	42.531
608.75	43.759
609.08	43.548
609.41	43.706
609.75	44.405
610.08	44.483
610.41	43.382
610.74	43.540
611.07	44.651
611.41	44.577
611.74	44.883
612.07	43.897
612.40	44.748
612.73	45.763
613.07	44.601
613.40	44.311
613.73	44.152
614.06	44.185
614.39	45.516
614.72	44.314
615.06	43.911
615.39	44.214
615.72	42.842
616.05	44.469
616.38	44.274
616.71	44.832
617.05	45.151
617.38	45.443
617.71	47.296
618.04	47.492
618.37	47.037
618.70	46.469
619.03	47.222
619.36	47.250
619.69	49.583
620.03	48.064
620.36	47.282
620.69	48.037
621.02	48.012
621.35	50.539
621.68	50.255
622.01	49.917
622.34	49.162
622.67	48.502
623.00	48.545
623.33	49.162
623.66	46.298
623.99	48.865
624.32	47.224
624.65	46.391
624.99	47.329
625.32	48.143
625.65	49.097
625.98	49.637
626.31	49.543
626.64	50.693
626.97	51.920
627.30	49.475
627.63	48.787
627.96	50.674
628.29	50.786
628.62	52.704
628.95	53.407
629.28	53.024
629.61	51.047
629.94	52.199
630.26	51.186
630.59	54.214
630.92	53.231
631.25	50.769
631.58	53.084
631.91	53.070
632.24	54.128
632.57	53.295
632.90	56.702
