SpectraSuite Data File
++++++++++++++++++++++++++++++++++++
Date: Fri May 15 20:49:51 PDT 2015
User: schluterlab
Dark Spectrum Present: Yes
Reference Spectrum Present: Yes
Number of Sampled Component Spectra: 1
Spectrometers: USB2E3373
Integration Time (usec): 3000 (USB2E3373)
Spectra Averaged: 3 (USB2E3373)
Boxcar Smoothing: 0 (USB2E3373)
Correct for Electrical Dark: No (USB2E3373)
Strobe/Lamp Enabled: No (USB2E3373)
Correct for Detector Non-linearity: No (USB2E3373)
Correct for Stray Light: No (USB2E3373)
Number of Pixels in Processed Spectrum: 2048
>>>>>Begin Processed Spectral Data<<<<<
178.53	0.000
178.91	0.000
179.29	-37.500
179.67	-550.000
180.04	100.000
180.42	-75.000
180.80	-300.000
181.18	266.667
181.56	250.000
181.94	-350.000
182.31	600.000
182.69	-220.000
183.07	-133.333
183.45	40.000
183.83	216.667
184.20	-45.455
184.58	144.444
184.96	75.000
185.34	-100.000
185.72	-150.000
186.09	100.000
186.47	100.000
186.85	300.000
187.23	277.778
187.61	-0.000
187.98	-333.333
188.36	55.556
188.74	-100.000
189.12	-29.412
189.49	27.778
189.87	0.000
190.25	7.143
190.63	-50.000
191.00	-533.333
191.38	-36.842
191.76	-100.000
192.14	75.000
192.51	-200.000
192.89	-111.111
193.27	-200.000
193.65	183.333
194.02	163.636
194.40	0.000
194.78	-112.500
195.15	16.667
195.53	-50.000
195.91	150.000
196.29	-200.000
196.66	69.231
197.04	214.286
197.42	-22.222
197.79	-666.667
198.17	-130.769
198.55	500.000
198.92	-233.333
199.30	-300.000
199.68	-120.000
200.05	-366.667
200.43	0.000
200.81	-233.333
201.18	-100.000
201.56	800.000
201.94	-750.000
202.31	133.333
202.69	-220.000
203.07	400.000
203.44	-1000.000
203.82	0.000
204.19	-14.286
204.57	-666.667
204.95	112.500
205.32	-70.000
205.70	14.286
206.08	175.000
206.45	144.444
206.83	-7.143
207.20	-100.000
207.58	800.000
207.96	-100.000
208.33	50.000
208.71	-25.000
209.08	-233.333
209.46	-1300.000
209.84	-200.000
210.21	-600.000
210.59	28.571
210.96	-66.667
211.34	-175.000
211.71	33.333
212.09	-28.571
212.46	-400.000
212.84	0.000
213.22	100.000
213.59	350.000
213.97	7.692
214.34	0.000
214.72	-83.333
215.09	350.000
215.47	7.692
215.84	-72.727
216.22	-366.667
216.59	87.500
216.97	50.000
217.34	0.000
217.72	-60.000
218.09	-100.000
218.47	187.500
218.84	-200.000
219.22	-66.667
219.59	-300.000
219.97	533.333
220.34	225.000
220.72	-114.286
221.09	-100.000
221.47	-250.000
221.84	-850.000
222.22	-650.000
222.59	-54.545
222.97	33.333
223.34	-366.667
223.72	-21.429
224.09	-23.810
224.46	28.571
224.84	800.000
225.21	0.000
225.59	-13.333
225.96	-350.000
226.34	450.000
226.71	-128.571
227.08	-50.000
227.46	-62.500
227.83	-300.000
228.21	-55.556
228.58	-63.636
228.95	-62.500
229.33	130.000
229.70	62.500
230.08	-162.500
230.45	-85.714
230.82	42.857
231.20	-13.333
231.57	21.429
231.95	0.000
232.32	-70.000
232.69	14.286
233.07	66.667
233.44	-240.000
233.81	-20.000
234.19	11.111
234.56	-17.647
234.93	800.000
235.31	50.000
235.68	-500.000
236.05	-53.846
236.43	20.000
236.80	-47.059
237.17	3.125
237.55	10.000
237.92	-29.630
238.29	-13.889
238.67	10.000
239.04	-11.765
239.41	-17.073
239.79	-6.667
240.16	19.512
240.53	-5.263
240.91	-6.522
241.28	-1.587
241.65	32.143
242.02	20.548
242.40	5.000
242.77	-5.085
243.14	13.636
243.51	11.250
243.89	18.391
244.26	4.598
244.63	10.714
245.00	24.742
245.38	23.711
245.75	2.247
246.12	7.759
246.49	13.223
246.87	17.308
247.24	17.647
247.61	10.526
247.98	13.821
248.36	12.500
248.73	17.105
249.10	13.636
249.47	13.924
249.84	18.954
250.22	14.706
250.59	25.490
250.96	18.779
251.33	13.372
251.70	21.176
252.08	20.305
252.45	18.812
252.82	18.090
253.19	21.659
253.56	16.822
253.94	18.018
254.31	18.261
254.68	17.982
255.05	16.535
255.42	19.214
255.79	21.622
256.16	22.957
256.54	24.254
256.91	16.730
257.28	19.331
257.65	19.476
258.02	17.730
258.39	20.539
258.76	18.681
259.14	20.266
259.51	17.476
259.88	18.557
260.25	16.340
260.62	21.528
260.99	15.593
261.36	16.096
261.73	19.937
262.10	19.757
262.47	19.632
262.85	17.241
263.22	21.538
263.59	19.315
263.96	21.118
264.33	21.212
264.70	19.048
265.07	14.286
265.44	21.246
265.81	19.209
266.18	20.492
266.55	20.823
266.92	17.617
267.29	18.277
267.66	15.345
268.03	18.848
268.40	20.888
268.77	21.925
269.14	18.705
269.51	17.995
269.88	19.451
270.25	16.327
270.62	16.585
270.99	17.136
271.36	18.093
271.73	18.310
272.10	18.491
272.47	18.440
272.84	19.554
273.21	20.186
273.58	21.446
273.95	19.908
274.32	16.397
274.69	18.326
275.06	18.527
275.43	19.955
275.80	17.881
276.17	17.241
276.54	17.345
276.91	17.544
277.28	21.616
277.65	17.975
278.02	18.511
278.39	17.505
278.76	18.868
279.13	13.693
279.50	18.487
279.87	19.654
280.23	17.204
280.60	19.298
280.97	19.394
281.34	16.923
281.71	22.177
282.08	18.405
282.45	16.830
282.82	17.181
283.19	18.375
283.56	15.992
283.92	19.165
284.29	19.231
284.66	17.248
285.03	17.092
285.40	17.958
285.77	17.750
286.14	17.148
286.51	19.742
286.87	17.367
287.24	18.232
287.61	14.991
287.98	18.596
288.35	16.638
288.72	19.440
289.08	17.535
289.45	20.562
289.82	15.909
290.19	17.235
290.56	17.153
290.93	15.657
291.29	14.330
291.66	16.063
292.03	16.906
292.40	15.645
292.77	14.833
293.13	14.286
293.50	14.416
293.87	16.641
294.24	16.074
294.60	15.350
294.97	16.071
295.34	15.031
295.71	15.052
296.08	13.453
296.44	13.514
296.81	15.972
297.18	14.058
297.55	15.854
297.91	14.384
298.28	15.303
298.65	15.197
299.02	14.151
299.38	13.543
299.75	14.345
300.12	13.743
300.48	11.989
300.85	13.435
301.22	11.688
301.59	13.158
301.95	14.684
302.32	14.267
302.69	13.557
303.05	13.985
303.42	12.827
303.79	14.720
304.15	14.934
304.52	11.891
304.89	12.281
305.25	15.133
305.62	11.669
305.99	12.632
306.35	11.792
306.72	12.373
307.09	12.885
307.45	11.596
307.82	11.806
308.19	14.053
308.55	14.068
308.92	13.834
309.29	12.402
309.65	13.025
310.02	12.761
310.38	14.160
310.75	13.333
311.12	13.994
311.48	13.998
311.85	11.728
312.22	13.080
312.58	13.376
312.95	12.166
313.31	12.733
313.68	13.403
314.05	12.551
314.41	12.784
314.78	13.505
315.14	13.669
315.51	14.907
315.87	13.730
316.24	14.156
316.61	12.500
316.97	14.881
317.34	14.160
317.70	14.054
318.07	14.808
318.43	15.196
318.80	13.636
319.16	15.039
319.53	15.954
319.89	15.059
320.26	14.069
320.62	15.547
320.99	13.987
321.35	15.416
321.72	16.926
322.08	15.206
322.45	16.142
322.81	16.306
323.18	16.290
323.54	15.251
323.91	16.261
324.27	17.480
324.64	17.416
325.00	16.332
325.37	18.090
325.73	16.682
326.10	17.257
326.46	16.951
326.83	18.285
327.19	16.914
327.56	18.245
327.92	19.894
328.29	18.750
328.65	19.057
329.01	19.669
329.38	19.078
329.74	18.319
330.11	18.350
330.47	18.646
330.84	18.846
331.20	21.958
331.56	18.981
331.93	20.365
332.29	20.898
332.66	19.819
333.02	21.190
333.38	19.890
333.75	20.421
334.11	19.069
334.48	20.762
334.84	20.055
335.20	20.677
335.57	19.402
335.93	19.783
336.29	20.902
336.66	20.981
337.02	19.331
337.38	19.537
337.75	21.455
338.11	21.821
338.47	21.442
338.84	20.148
339.20	19.287
339.56	21.009
339.93	20.680
340.29	21.927
340.65	21.864
341.02	21.543
341.38	21.327
341.74	21.201
342.11	19.757
342.47	21.619
342.83	20.848
343.20	21.864
343.56	21.913
343.92	22.232
344.28	21.776
344.65	21.071
345.01	21.262
345.37	20.606
345.73	21.506
346.10	21.657
346.46	22.960
346.82	22.013
347.19	20.865
347.55	21.721
347.91	21.926
348.27	20.776
348.63	22.232
349.00	20.591
349.36	21.613
349.72	21.891
350.08	21.557
350.45	21.868
350.81	22.010
351.17	20.847
351.53	22.531
351.89	21.305
352.26	22.960
352.62	22.097
352.98	20.723
353.34	21.981
353.70	22.816
354.07	22.661
354.43	22.658
354.79	21.470
355.15	22.778
355.51	22.310
355.87	23.220
356.24	21.778
356.60	22.312
356.96	22.540
357.32	21.326
357.68	23.612
358.04	21.002
358.40	22.588
358.77	22.169
359.13	22.578
359.49	22.111
359.85	22.075
360.21	22.807
360.57	23.106
360.93	23.298
361.29	22.432
361.66	23.276
362.02	23.333
362.38	22.544
362.74	23.391
363.10	23.627
363.46	23.202
363.82	23.892
364.18	23.247
364.54	23.015
364.90	22.581
365.26	23.362
365.62	23.942
365.98	23.240
366.35	24.472
366.71	24.834
367.07	24.673
367.43	23.868
367.79	24.311
368.15	23.546
368.51	24.836
368.87	23.403
369.23	23.755
369.59	24.854
369.95	24.927
370.31	25.578
370.67	24.925
371.03	23.450
371.39	24.216
371.75	25.421
372.11	26.106
372.47	24.852
372.83	25.763
373.19	24.536
373.55	25.343
373.91	25.558
374.27	26.152
374.63	25.413
374.99	25.461
375.35	25.905
375.71	26.294
376.07	26.966
376.42	25.510
376.78	26.174
377.14	26.473
377.50	26.295
377.86	27.644
378.22	27.122
378.58	27.115
378.94	26.339
379.30	27.199
379.66	27.712
380.02	26.916
380.38	27.328
380.74	27.887
381.09	28.773
381.45	27.523
381.81	28.624
382.17	28.997
382.53	27.733
382.89	27.872
383.25	28.563
383.61	29.756
383.97	28.571
384.32	29.018
384.68	28.978
385.04	28.615
385.40	28.687
385.76	29.560
386.12	30.530
386.48	30.715
386.83	30.438
387.19	30.281
387.55	31.179
387.91	30.685
388.27	30.281
388.62	31.089
388.98	30.203
389.34	31.230
389.70	32.007
390.06	30.837
390.42	30.570
390.77	32.047
391.13	31.652
391.49	31.695
391.85	31.969
392.20	30.948
392.56	31.723
392.92	32.531
393.28	32.547
393.64	31.772
393.99	33.166
394.35	32.258
394.71	32.695
395.07	32.621
395.42	32.240
395.78	33.876
396.14	32.661
396.50	33.354
396.85	32.646
397.21	33.271
397.57	34.483
397.92	33.673
398.28	32.989
398.64	33.795
399.00	35.214
399.35	32.901
399.71	34.233
400.07	34.341
400.42	34.945
400.78	34.476
401.14	33.333
401.49	35.259
401.85	35.222
402.21	34.458
402.57	34.875
402.92	34.693
403.28	35.526
403.63	35.246
403.99	34.821
404.35	36.540
404.70	34.464
405.06	35.488
405.42	35.861
405.77	35.909
406.13	36.612
406.49	35.761
406.84	36.186
407.20	36.725
407.55	36.317
407.91	36.297
408.27	36.839
408.62	36.308
408.98	36.845
409.34	37.175
409.69	37.339
410.05	36.453
410.40	36.543
410.76	38.359
411.11	38.250
411.47	37.936
411.83	37.728
412.18	37.709
412.54	36.829
412.89	37.438
413.25	37.665
413.60	36.708
413.96	37.055
414.31	38.659
414.67	37.203
415.03	37.816
415.38	38.969
415.74	38.762
416.09	39.713
416.45	39.905
416.80	38.863
417.16	39.434
417.51	38.774
417.87	38.136
418.22	39.896
418.58	38.796
418.93	41.129
419.29	38.476
419.64	39.145
420.00	40.554
420.35	39.164
420.71	40.036
421.06	39.349
421.42	40.565
421.77	39.538
422.12	40.125
422.48	38.928
422.83	39.617
423.19	40.632
423.54	39.741
423.90	39.929
424.25	40.528
424.61	40.820
424.96	39.489
425.31	41.883
425.67	41.491
426.02	41.048
426.38	40.639
426.73	40.920
427.09	42.025
427.44	40.235
427.79	40.660
428.15	40.837
428.50	41.066
428.85	39.926
429.21	41.766
429.56	40.701
429.92	40.627
430.27	39.950
430.62	40.565
430.98	41.136
431.33	42.061
431.68	41.287
432.04	41.643
432.39	41.871
432.74	41.371
433.10	41.839
433.45	41.159
433.80	42.078
434.16	40.886
434.51	41.452
434.86	42.218
435.22	41.671
435.57	41.921
435.92	41.677
436.28	41.622
436.63	41.529
436.98	41.715
437.34	42.226
437.69	42.815
438.04	42.507
438.39	41.845
438.75	41.530
439.10	41.992
439.45	44.187
439.81	42.324
440.16	43.468
440.51	42.925
440.86	43.867
441.22	42.647
441.57	42.991
441.92	43.547
442.27	43.016
442.63	42.666
442.98	43.079
443.33	42.905
443.68	43.714
444.03	43.219
444.39	43.335
444.74	44.482
445.09	42.929
445.44	44.046
445.79	44.611
446.15	43.282
446.50	42.707
446.85	43.783
447.20	43.274
447.55	44.699
447.91	43.768
448.26	44.508
448.61	44.675
448.96	44.234
449.31	44.104
449.66	43.844
450.02	43.582
450.37	44.339
450.72	43.127
451.07	44.873
451.42	44.132
451.77	44.002
452.12	44.019
452.47	43.529
452.83	44.464
453.18	43.643
453.53	44.690
453.88	43.777
454.23	43.884
454.58	44.836
454.93	44.974
455.28	43.048
455.63	44.203
455.98	44.979
456.34	43.806
456.69	44.536
457.04	44.991
457.39	44.957
457.74	44.740
458.09	42.966
458.44	44.470
458.79	44.090
459.14	44.222
459.49	44.119
459.84	44.162
460.19	43.932
460.54	44.804
460.89	45.057
461.24	43.913
461.59	43.824
461.94	43.962
462.29	45.959
462.64	45.515
462.99	45.227
463.34	43.950
463.69	43.951
464.04	43.947
464.39	42.996
464.74	44.049
465.09	43.793
465.44	44.432
465.79	43.084
466.14	44.527
466.49	43.646
466.84	44.319
467.19	44.368
467.54	44.061
467.89	44.599
468.24	44.221
468.59	44.635
468.94	43.873
469.29	44.984
469.64	43.472
469.99	45.690
470.34	44.232
470.68	46.234
471.03	46.497
471.38	45.720
471.73	44.468
472.08	43.962
472.43	45.772
472.78	45.853
473.13	45.306
473.48	44.625
473.83	43.773
474.17	44.819
474.52	45.246
474.87	44.545
475.22	44.661
475.57	44.777
475.92	44.103
476.27	44.703
476.61	45.718
476.96	44.283
477.31	44.619
477.66	43.989
478.01	44.526
478.36	43.573
478.70	44.263
479.05	44.890
479.40	44.091
479.75	43.848
480.10	44.700
480.45	43.450
480.79	44.512
481.14	44.057
481.49	43.103
481.84	43.533
482.19	43.686
482.53	44.700
482.88	43.103
483.23	44.146
483.58	42.406
483.92	44.143
484.27	42.525
484.62	42.806
484.97	41.833
485.31	41.402
485.66	39.253
486.01	38.656
486.36	38.758
486.70	40.000
487.05	40.786
487.40	41.081
487.75	41.634
488.09	41.502
488.44	43.226
488.79	43.706
489.13	43.830
489.48	43.010
489.83	42.780
490.17	43.955
490.52	43.741
490.87	42.851
491.22	44.174
491.56	43.596
491.91	43.260
492.26	44.191
492.60	43.138
492.95	43.925
493.30	43.625
493.64	44.253
493.99	43.720
494.34	43.592
494.68	43.810
495.03	43.455
495.37	43.768
495.72	43.463
496.07	43.561
496.41	44.245
496.76	42.561
497.11	42.524
497.45	44.105
497.80	44.501
498.14	43.766
498.49	44.083
498.84	44.511
499.18	43.524
499.53	43.700
499.87	42.802
500.22	42.829
500.56	43.318
500.91	43.775
501.26	43.994
501.60	42.400
501.95	43.814
502.29	43.051
502.64	43.292
502.98	43.463
503.33	42.459
503.67	43.663
504.02	43.891
504.36	43.394
504.71	43.687
505.06	43.332
505.40	43.553
505.75	45.000
506.09	43.082
506.44	43.891
506.78	44.490
507.13	44.261
507.47	43.551
507.82	44.071
508.16	43.740
508.51	44.071
508.85	45.369
509.19	44.119
509.54	43.485
509.88	43.258
510.23	44.432
510.57	44.789
510.92	43.230
511.26	44.081
511.61	44.664
511.95	43.945
512.30	44.623
512.64	45.242
512.98	45.592
513.33	45.495
513.67	45.424
514.02	45.195
514.36	45.371
514.70	46.096
515.05	47.415
515.39	46.340
515.74	46.347
516.08	45.965
516.42	45.878
516.77	46.460
517.11	46.766
517.46	45.841
517.80	46.663
518.14	46.846
518.49	46.454
518.83	46.112
519.17	46.574
519.52	46.655
519.86	45.918
520.20	46.598
520.55	46.592
520.89	46.863
521.23	46.548
521.58	47.003
521.92	47.564
522.26	46.779
522.61	46.818
522.95	49.007
523.29	46.442
523.64	47.586
523.98	47.764
524.32	47.680
524.66	46.543
525.01	46.883
525.35	46.727
525.69	47.744
526.04	46.561
526.38	48.703
526.72	47.090
527.06	47.082
527.41	47.823
527.75	47.319
528.09	47.774
528.43	47.873
528.78	46.799
529.12	47.355
529.46	47.368
529.80	46.168
530.15	48.119
530.49	48.418
530.83	48.222
531.17	46.877
531.51	46.922
531.86	47.247
532.20	47.808
532.54	48.128
532.88	48.528
533.22	47.446
533.57	46.986
533.91	46.084
534.25	47.982
534.59	47.274
534.93	46.822
535.27	46.129
535.62	46.468
535.96	46.314
536.30	47.230
536.64	47.002
536.98	47.108
537.32	49.075
537.66	48.527
538.01	48.322
538.35	47.989
538.69	45.406
539.03	46.275
539.37	47.443
539.71	46.149
540.05	45.689
540.39	46.953
540.73	45.746
541.07	47.307
541.42	46.505
541.76	48.314
542.10	46.180
542.44	46.630
542.78	45.148
543.12	45.604
543.46	46.801
543.80	47.189
544.14	44.726
544.48	45.836
544.82	47.095
545.16	47.336
545.50	46.595
545.84	46.955
546.18	46.383
546.52	45.999
546.86	47.520
547.20	48.283
547.54	46.078
547.88	46.671
548.22	45.694
548.56	45.646
548.90	46.765
549.24	45.386
549.58	46.827
549.92	44.818
550.26	46.886
550.60	47.658
550.94	47.274
551.28	48.918
551.62	48.154
551.96	45.865
552.30	46.345
552.64	46.121
552.98	46.976
553.32	44.722
553.66	46.517
554.00	46.788
554.34	47.120
554.68	46.903
555.02	46.429
555.36	46.223
555.69	45.934
556.03	45.539
556.37	45.409
556.71	45.921
557.05	46.010
557.39	45.353
557.73	47.601
558.07	46.833
558.41	47.320
558.75	47.311
559.08	47.203
559.42	46.746
559.76	47.718
560.10	46.483
560.44	46.835
560.78	46.224
561.12	45.910
561.45	46.803
561.79	45.798
562.13	46.274
562.47	46.691
562.81	46.254
563.15	44.288
563.48	45.757
563.82	46.534
564.16	45.543
564.50	45.676
564.84	44.980
565.17	45.540
565.51	46.516
565.85	46.296
566.19	45.225
566.52	45.174
566.86	46.594
567.20	43.960
567.54	45.316
567.88	44.464
568.21	43.948
568.55	43.913
568.89	43.634
569.23	41.695
569.56	41.856
569.90	42.022
570.24	40.231
570.57	40.655
570.91	40.328
571.25	39.198
571.59	38.680
571.92	38.252
572.26	39.100
572.60	38.574
572.93	38.594
573.27	38.871
573.61	38.395
573.95	38.230
574.28	38.533
574.62	37.376
574.96	37.223
575.29	37.532
575.63	36.797
575.97	38.086
576.30	38.150
576.64	37.272
576.98	37.761
577.31	37.429
577.65	37.179
577.98	36.581
578.32	36.872
578.66	35.848
578.99	36.593
579.33	37.122
579.67	36.563
580.00	37.722
580.34	37.935
580.67	37.562
581.01	37.608
581.35	36.434
581.68	36.450
582.02	35.970
582.35	36.286
582.69	36.599
583.02	36.723
583.36	37.166
583.70	38.629
584.03	38.365
584.37	38.594
584.70	37.857
585.04	36.762
585.37	36.953
585.71	36.559
586.04	37.191
586.38	36.810
586.72	37.877
587.05	37.551
587.39	37.741
587.72	37.917
588.06	37.836
588.39	37.824
588.73	38.156
589.06	39.237
589.40	38.368
589.73	39.248
590.07	38.595
590.40	39.319
590.73	40.692
591.07	39.483
591.40	39.671
591.74	39.457
592.07	39.981
592.41	39.708
592.74	38.072
593.08	36.954
593.41	37.035
593.75	37.717
594.08	37.144
594.41	37.773
594.75	38.092
595.08	38.290
595.42	38.351
595.75	38.603
596.09	39.249
596.42	39.438
596.75	39.387
597.09	39.408
597.42	39.657
597.75	40.266
598.09	39.611
598.42	38.177
598.76	38.653
599.09	37.901
599.42	37.628
599.76	37.735
600.09	36.802
600.42	37.339
600.76	37.221
601.09	37.748
601.42	37.485
601.76	37.991
602.09	38.861
602.42	39.090
602.76	38.115
603.09	38.040
603.42	39.381
603.76	38.065
604.09	37.789
604.42	37.860
604.76	38.852
605.09	39.260
605.42	39.187
605.75	38.135
606.09	36.433
606.42	37.114
606.75	38.225
607.09	38.154
607.42	38.857
607.75	37.922
608.08	37.332
608.42	37.186
608.75	39.470
609.08	40.159
609.41	39.645
609.75	39.214
610.08	39.041
610.41	37.681
610.74	39.054
611.07	39.483
611.41	39.388
611.74	39.872
612.07	38.865
612.40	39.059
612.73	39.831
613.07	39.483
613.40	39.606
613.73	40.459
614.06	39.065
614.39	39.594
614.72	39.384
615.06	39.385
615.39	37.500
615.72	38.375
616.05	38.994
616.38	39.088
616.71	39.205
617.05	39.839
617.38	40.666
617.71	39.497
618.04	40.825
618.37	40.605
618.70	40.132
619.03	42.847
619.36	41.606
619.69	40.713
620.03	43.243
620.36	39.628
620.69	40.400
621.02	41.437
621.35	43.402
621.68	43.707
622.01	42.500
622.34	42.458
622.67	42.429
623.00	41.041
623.33	40.396
623.66	39.865
623.99	40.847
624.32	41.977
624.65	40.752
624.99	41.836
625.32	39.803
625.65	42.262
625.98	43.755
626.31	41.812
626.64	42.894
626.97	42.757
627.30	42.732
627.63	43.068
627.96	42.498
628.29	43.201
628.62	44.444
628.95	44.289
629.28	43.952
629.61	43.669
629.94	44.966
630.26	44.170
630.59	46.306
630.92	44.103
631.25	43.487
631.58	44.604
631.91	43.092
632.24	45.528
632.57	45.227
632.90	45.077
