SpectraSuite Data File
++++++++++++++++++++++++++++++++++++
Date: Fri May 15 20:52:49 PDT 2015
User: schluterlab
Dark Spectrum Present: Yes
Reference Spectrum Present: Yes
Number of Sampled Component Spectra: 1
Spectrometers: USB2E3373
Integration Time (usec): 3000 (USB2E3373)
Spectra Averaged: 3 (USB2E3373)
Boxcar Smoothing: 0 (USB2E3373)
Correct for Electrical Dark: No (USB2E3373)
Strobe/Lamp Enabled: No (USB2E3373)
Correct for Detector Non-linearity: No (USB2E3373)
Correct for Stray Light: No (USB2E3373)
Number of Pixels in Processed Spectrum: 2048
>>>>>Begin Processed Spectral Data<<<<<
178.53	0.000
178.91	0.000
179.29	-12.500
179.67	-300.000
180.04	-0.000
180.42	100.000
180.80	-300.000
181.18	133.333
181.56	250.000
181.94	-350.000
182.31	900.000
182.69	-80.000
183.07	-333.333
183.45	80.000
183.83	116.667
184.20	-45.455
184.58	88.889
184.96	-100.000
185.34	133.333
185.72	-100.000
186.09	100.000
186.47	-300.000
186.85	150.000
187.23	111.111
187.61	-200.000
187.98	-366.667
188.36	11.111
188.74	133.333
189.12	5.882
189.49	11.111
189.87	0.000
190.25	42.857
190.63	-100.000
191.00	-366.667
191.38	0.000
191.76	200.000
192.14	75.000
192.51	200.000
192.89	-77.778
193.27	-114.286
193.65	116.667
194.02	100.000
194.40	-60.000
194.78	-112.500
195.15	-58.333
195.53	12.500
195.91	225.000
196.29	-100.000
196.66	53.846
197.04	200.000
197.42	-66.667
197.79	-500.000
198.17	-23.077
198.55	1600.000
198.92	100.000
199.30	-1000.000
199.68	-160.000
200.05	-400.000
200.43	0.000
200.81	-166.667
201.18	-100.000
201.56	1300.000
201.94	-300.000
202.31	266.667
202.69	-180.000
203.07	150.000
203.44	-200.000
203.82	0.000
204.19	114.286
204.57	-400.000
204.95	100.000
205.32	-50.000
205.70	-228.571
206.08	-75.000
206.45	211.111
206.83	21.429
207.20	-128.571
207.58	200.000
207.96	-533.333
208.33	-60.000
208.71	-125.000
209.08	-216.667
209.46	-700.000
209.84	-260.000
210.21	-900.000
210.59	14.286
210.96	-33.333
211.34	-150.000
211.71	20.000
212.09	-28.571
212.46	-800.000
212.84	0.000
213.22	30.000
213.59	600.000
213.97	76.923
214.34	27.273
214.72	33.333
215.09	450.000
215.47	-30.769
215.84	-36.364
216.22	-233.333
216.59	-25.000
216.97	-200.000
217.34	-150.000
217.72	-240.000
218.09	75.000
218.47	75.000
218.84	-800.000
219.22	-133.333
219.59	100.000
219.97	233.333
220.34	200.000
220.72	0.000
221.09	-250.000
221.47	-500.000
221.84	-200.000
222.22	0.000
222.59	-18.182
222.97	0.000
223.34	-66.667
223.72	-7.143
224.09	-9.524
224.46	28.571
224.84	500.000
225.21	-60.000
225.59	33.333
225.96	-200.000
226.34	275.000
226.71	-28.571
227.08	-116.667
227.46	-75.000
227.83	-300.000
228.21	55.556
228.58	-63.636
228.95	-50.000
229.33	130.000
229.70	-18.750
230.08	-12.500
230.45	-71.429
230.82	28.571
231.20	20.000
231.57	78.571
231.95	-57.143
232.32	-100.000
232.69	14.286
233.07	-233.333
233.44	-120.000
233.81	-140.000
234.19	-66.667
234.56	-23.529
234.93	450.000
235.31	25.000
235.68	-240.000
236.05	-15.385
236.43	-5.000
236.80	29.412
237.17	-15.625
237.55	65.000
237.92	-37.037
238.29	2.778
238.67	-3.333
239.04	8.824
239.41	-17.073
239.79	-40.000
240.16	34.146
240.53	2.632
240.91	4.348
241.28	23.810
241.65	14.286
242.02	-1.370
242.40	6.667
242.77	11.864
243.14	1.515
243.51	18.750
243.89	19.540
244.26	1.149
244.63	14.286
245.00	8.247
245.38	27.835
245.75	21.348
246.12	16.379
246.49	22.314
246.87	19.231
247.24	10.084
247.61	7.018
247.98	17.073
248.36	15.625
248.73	21.711
249.10	16.234
249.47	15.190
249.84	13.072
250.22	17.059
250.59	23.529
250.96	24.883
251.33	20.349
251.70	22.353
252.08	15.228
252.45	13.861
252.82	18.090
253.19	17.051
253.56	14.019
253.94	18.919
254.31	24.783
254.68	21.930
255.05	22.441
255.42	17.467
255.79	22.780
256.16	19.066
256.54	18.284
256.91	20.532
257.28	18.587
257.65	14.607
258.02	16.667
258.39	23.906
258.76	19.048
259.14	20.598
259.51	21.359
259.88	19.588
260.25	18.627
260.62	23.611
260.99	13.220
261.36	16.781
261.73	21.203
262.10	19.453
262.47	20.245
262.85	17.555
263.22	17.538
263.59	18.692
263.96	23.913
264.33	17.576
264.70	17.262
265.07	15.476
265.44	18.980
265.81	20.339
266.18	18.579
266.55	20.308
266.92	19.689
267.29	20.888
267.66	19.693
268.03	18.063
268.40	16.971
268.77	21.390
269.14	16.547
269.51	17.738
269.88	18.204
270.25	15.306
270.62	16.585
270.99	19.693
271.36	17.848
271.73	19.484
272.10	17.275
272.47	17.730
272.84	15.594
273.21	16.937
273.58	18.313
273.95	16.476
274.32	16.628
274.69	14.932
275.06	16.295
275.43	16.100
275.80	19.868
276.17	16.552
276.54	15.846
276.91	18.202
277.28	15.502
277.65	16.736
278.02	17.234
278.39	15.974
278.76	15.723
279.13	15.353
279.50	17.857
279.87	17.063
280.23	15.484
280.60	19.493
280.97	18.586
281.34	17.885
281.71	17.864
282.08	17.587
282.45	17.417
282.82	13.900
283.19	14.507
283.56	16.570
283.92	16.698
284.29	17.692
284.66	17.248
285.03	16.306
285.40	16.257
285.77	14.587
286.14	15.704
286.51	19.188
286.87	15.356
287.24	15.838
287.61	15.168
287.98	18.772
288.35	16.464
288.72	16.112
289.08	15.799
289.45	17.047
289.82	17.133
290.19	16.382
290.56	15.780
290.93	16.330
291.29	13.097
291.66	16.693
292.03	16.268
292.40	15.806
292.77	16.427
293.13	14.286
293.50	15.175
293.87	15.267
294.24	16.383
294.60	15.201
294.97	15.327
295.34	16.871
295.71	15.201
296.08	13.752
296.44	14.651
296.81	15.000
297.18	16.812
297.55	16.531
297.91	15.205
298.28	15.172
298.65	15.604
299.02	14.151
299.38	12.312
299.75	14.069
300.12	14.921
300.48	14.493
300.85	16.857
301.22	15.844
301.59	14.079
301.95	15.696
302.32	17.769
302.69	16.791
303.05	13.614
303.42	16.563
303.79	15.187
304.15	15.771
304.52	14.269
304.89	14.152
305.25	14.165
305.62	14.352
305.99	13.567
306.35	13.642
306.72	14.398
307.09	13.911
307.45	15.385
307.82	14.120
308.19	14.983
308.55	14.940
308.92	15.795
309.29	13.408
309.65	14.962
310.02	14.521
310.38	16.246
310.75	15.738
311.12	16.146
311.48	15.058
311.85	16.021
312.22	15.190
312.58	14.862
312.95	15.261
313.31	15.010
313.68	15.288
314.05	15.000
314.41	15.670
314.78	15.258
315.14	16.238
315.51	16.977
315.87	15.881
316.24	17.391
316.61	15.256
316.97	15.774
317.34	16.406
317.70	15.583
318.07	15.769
318.43	16.471
318.80	15.814
319.16	16.895
319.53	16.904
319.89	15.256
320.26	15.587
320.62	18.355
320.99	16.388
321.35	16.958
321.72	17.653
322.08	18.328
322.45	18.477
322.81	17.780
323.18	17.468
323.54	16.988
323.91	17.332
324.27	19.141
324.64	19.007
325.00	18.704
325.37	19.376
325.73	17.407
326.10	18.619
326.46	18.206
326.83	18.810
327.19	18.657
327.56	18.940
327.92	19.630
328.29	18.929
328.65	19.057
329.01	19.301
329.38	19.447
329.74	18.036
330.11	19.833
330.47	19.295
330.84	17.885
331.20	20.057
331.56	18.704
331.93	20.365
332.29	19.707
332.66	18.190
333.02	18.959
333.38	18.148
333.75	19.597
334.11	19.517
334.48	19.855
334.84	19.322
335.20	18.298
335.57	18.948
335.93	19.603
336.29	19.245
336.66	18.619
337.02	17.937
337.38	17.037
337.75	19.545
338.11	19.297
338.47	20.073
338.84	17.745
339.20	18.282
339.56	18.440
339.93	19.248
340.29	19.358
340.65	18.996
341.02	17.730
341.38	19.027
341.74	17.491
342.11	17.678
342.47	18.683
342.83	18.858
343.20	18.118
343.56	19.826
343.92	19.309
344.28	19.044
344.65	18.135
345.01	19.188
345.37	18.839
345.73	19.665
346.10	18.982
346.46	19.260
346.82	18.822
347.19	18.121
347.55	18.463
347.91	19.984
348.27	19.078
348.63	18.739
349.00	18.622
349.36	17.623
349.72	19.983
350.08	18.770
350.45	18.755
350.81	17.442
351.17	18.160
351.53	19.020
351.89	18.002
352.26	18.400
352.62	18.468
352.98	17.108
353.34	18.277
353.70	19.660
354.07	18.306
354.43	17.534
354.79	17.506
355.15	19.127
355.51	19.066
355.87	18.123
356.24	16.721
356.60	17.866
356.96	18.651
357.32	19.249
357.68	18.217
358.04	18.901
358.40	18.569
358.77	18.581
359.13	18.655
359.49	19.337
359.85	18.253
360.21	18.501
360.57	18.133
360.93	18.835
361.29	17.900
361.66	19.436
362.02	18.939
362.38	19.193
362.74	18.547
363.10	19.037
363.46	18.829
363.82	20.210
364.18	18.967
364.54	19.265
364.90	19.427
365.26	18.195
365.62	19.270
365.98	19.135
366.35	20.539
366.71	20.177
367.07	19.086
367.43	18.907
367.79	19.647
368.15	19.670
368.51	20.029
368.87	18.737
369.23	18.484
369.59	19.461
369.95	19.648
370.31	18.425
370.67	19.403
371.03	18.745
371.39	18.162
371.75	19.634
372.11	19.757
372.47	19.231
372.83	18.808
373.19	20.328
373.55	18.845
373.91	19.222
374.27	20.269
374.63	19.957
374.99	18.369
375.35	19.638
375.71	21.049
376.07	19.522
376.42	19.864
376.78	20.403
377.14	19.838
377.50	19.124
377.86	19.545
378.22	19.847
378.58	19.744
378.94	19.219
379.30	20.150
379.66	20.752
380.02	20.417
380.38	19.233
380.74	20.527
381.09	20.491
381.45	19.633
381.81	20.851
382.17	19.860
382.53	20.112
382.89	20.151
383.25	20.722
383.61	20.183
383.97	18.921
384.32	20.450
384.68	19.505
385.04	19.669
385.40	20.286
385.76	20.377
386.12	19.987
386.48	20.817
386.83	19.784
387.19	19.841
387.55	20.891
387.91	20.844
388.27	20.757
388.62	21.145
388.98	20.381
389.34	21.424
389.70	21.877
390.06	19.824
390.42	20.337
390.77	19.751
391.13	20.240
391.49	21.087
391.85	20.338
392.20	20.151
392.56	20.153
392.92	20.963
393.28	20.755
393.64	20.360
393.99	21.881
394.35	20.304
394.71	20.690
395.07	19.485
395.42	20.644
395.78	20.391
396.14	20.744
396.50	20.165
396.85	20.541
397.21	20.551
397.57	19.875
397.92	20.671
398.28	20.230
398.64	19.518
399.00	20.090
399.35	19.808
399.71	18.955
400.07	20.012
400.42	20.135
400.78	20.269
401.14	20.145
401.49	19.952
401.85	19.622
402.21	19.337
402.57	19.250
402.92	18.883
403.28	19.486
403.63	19.861
403.99	19.324
404.35	20.237
404.70	18.571
405.06	18.978
405.42	19.018
405.77	18.071
406.13	18.801
406.49	18.591
406.84	18.704
407.20	18.964
407.55	17.321
407.91	18.449
408.27	17.973
408.62	18.646
408.98	17.991
409.34	18.092
409.69	18.152
410.05	18.165
410.40	18.210
410.76	18.878
411.11	17.750
411.47	18.606
411.83	18.079
412.18	17.568
412.54	18.165
412.89	18.904
413.25	18.592
413.60	17.950
413.96	18.098
414.31	18.598
414.67	17.383
415.03	18.775
415.38	17.885
415.74	18.436
416.09	18.877
416.45	18.433
416.80	17.515
417.16	18.577
417.51	18.654
417.87	19.035
418.22	19.495
418.58	18.194
418.93	18.558
419.29	17.798
419.64	18.535
420.00	19.584
420.35	18.448
420.71	18.408
421.06	18.907
421.42	18.810
421.77	19.480
422.12	18.388
422.48	18.679
422.83	18.561
423.19	18.623
423.54	18.519
423.90	18.139
424.25	19.862
424.61	19.645
424.96	18.873
425.31	19.757
425.67	19.777
426.02	19.847
426.38	19.787
426.73	19.976
427.09	20.633
427.44	20.059
427.79	19.800
428.15	19.600
428.50	19.685
428.85	18.612
429.21	21.053
429.56	20.323
429.92	20.750
430.27	19.850
430.62	20.335
430.98	20.064
431.33	21.504
431.68	20.094
432.04	20.402
432.39	20.650
432.74	20.565
433.10	21.494
433.45	21.207
433.80	20.836
434.16	20.166
434.51	20.645
434.86	21.487
435.22	21.593
435.57	21.460
435.92	21.677
436.28	22.004
436.63	20.993
436.98	20.742
437.34	20.871
437.69	20.990
438.04	21.538
438.39	21.258
438.75	22.708
439.10	22.411
439.45	22.581
439.81	23.058
440.16	21.556
440.51	22.806
440.86	22.719
441.22	21.719
441.57	22.903
441.92	23.347
442.27	23.115
442.63	23.608
442.98	22.631
443.33	22.760
443.68	23.130
444.03	23.696
444.39	23.069
444.74	23.913
445.09	23.552
445.44	23.476
445.79	24.600
446.15	23.733
446.50	22.962
446.85	23.964
447.20	24.296
447.55	23.940
447.91	23.519
448.26	24.132
448.61	23.604
448.96	23.637
449.31	24.335
449.66	23.577
450.02	24.130
450.37	25.015
450.72	23.597
451.07	24.177
451.42	24.407
451.77	23.930
452.12	23.146
452.47	23.889
452.83	22.792
453.18	24.478
453.53	24.905
453.88	24.712
454.23	24.155
454.58	25.567
454.93	25.129
455.28	23.810
455.63	24.613
455.98	24.534
456.34	24.968
456.69	24.269
457.04	25.142
457.39	24.423
457.74	24.365
458.09	23.484
458.44	24.108
458.79	24.986
459.14	24.371
459.49	24.537
459.84	24.873
460.19	25.607
460.54	24.878
460.89	24.773
461.24	24.658
461.59	25.594
461.94	24.277
462.29	25.151
462.64	24.186
462.99	24.983
463.34	24.270
463.69	23.488
464.04	24.516
464.39	24.682
464.74	24.049
465.09	24.517
465.44	25.851
465.79	22.732
466.14	24.344
466.49	23.117
466.84	24.926
467.19	24.844
467.54	24.585
467.89	24.763
468.24	24.270
468.59	25.079
468.94	24.762
469.29	24.984
469.64	25.632
469.99	25.368
470.34	24.164
470.68	25.727
471.03	26.256
471.38	24.964
471.73	24.650
472.08	24.084
472.43	24.295
472.78	23.646
473.13	24.422
473.48	25.016
473.83	24.969
474.17	25.583
474.52	24.761
474.87	24.303
475.22	24.222
475.57	24.449
475.92	24.520
476.27	25.087
476.61	24.248
476.96	24.205
477.31	24.932
477.66	23.708
478.01	23.638
478.36	24.837
478.70	24.307
479.05	24.560
479.40	23.688
479.75	24.088
480.10	24.322
480.45	23.550
480.79	24.220
481.14	24.078
481.49	23.793
481.84	23.552
482.19	24.275
482.53	23.789
482.88	23.962
483.23	23.512
483.58	23.585
483.92	22.749
484.27	23.701
484.62	23.935
484.97	23.673
485.31	23.844
485.66	21.870
486.01	22.314
486.36	22.634
486.70	22.631
487.05	23.118
487.40	22.906
487.75	23.521
488.09	23.331
488.44	23.315
488.79	24.244
489.13	23.678
489.48	23.343
489.83	23.677
490.17	22.742
490.52	23.788
490.87	23.970
491.22	23.448
491.56	23.529
491.91	23.662
492.26	24.259
492.60	23.177
492.95	23.315
493.30	23.058
493.64	24.607
493.99	23.430
494.34	22.816
494.68	23.238
495.03	22.920
495.37	23.209
495.72	23.019
496.07	22.927
496.41	22.972
496.76	23.215
497.11	22.450
497.45	23.294
497.80	23.613
498.14	23.448
498.49	21.991
498.84	22.904
499.18	23.193
499.53	23.611
499.87	22.374
500.22	22.898
500.56	22.592
500.91	22.992
501.26	21.898
501.60	22.430
501.95	23.096
502.29	21.985
502.64	22.828
502.98	22.200
503.33	22.046
503.67	22.506
504.02	22.581
504.36	22.415
504.71	22.677
505.06	22.245
505.40	22.538
505.75	22.423
506.09	22.859
506.44	22.793
506.78	22.857
507.13	22.647
507.47	21.984
507.82	21.741
508.16	22.134
508.51	22.141
508.85	22.449
509.19	21.128
509.54	22.359
509.88	22.546
510.23	22.593
510.57	22.448
510.92	20.629
511.26	22.149
511.61	21.892
511.95	22.356
512.30	22.007
512.64	22.371
512.98	21.617
513.33	22.160
513.67	22.342
514.02	22.483
514.36	23.371
514.70	23.427
515.05	23.149
515.39	22.491
515.74	22.994
516.08	21.996
516.42	22.556
516.77	22.118
517.11	22.789
517.46	22.382
517.80	22.169
518.14	21.678
518.49	21.995
518.83	22.175
519.17	22.256
519.52	21.966
519.86	20.948
520.20	22.236
520.55	20.763
520.89	21.706
521.23	21.913
521.58	22.397
521.92	22.372
522.26	21.080
522.61	21.169
522.95	22.583
523.29	21.029
523.64	21.855
523.98	22.553
524.32	21.134
524.66	21.383
525.01	21.688
525.35	21.452
525.69	20.875
526.04	20.635
526.38	22.309
526.72	20.929
527.06	21.530
527.41	20.580
527.75	20.375
528.09	20.864
528.43	21.404
528.78	19.934
529.12	20.581
529.46	21.053
529.80	21.659
530.15	20.462
530.49	20.673
530.83	21.067
531.17	20.752
531.51	21.204
531.86	20.802
532.20	20.529
532.54	20.354
532.88	21.218
533.22	20.027
533.57	19.987
533.91	19.582
534.25	20.703
534.59	20.398
534.93	19.761
535.27	19.607
535.62	20.026
535.96	20.157
536.30	19.195
536.64	20.469
536.98	19.721
537.32	20.199
537.66	20.196
538.01	19.441
538.35	19.834
538.69	19.507
539.03	19.207
539.37	19.179
539.71	19.973
540.05	19.416
540.39	19.252
540.73	19.038
541.07	19.613
541.42	20.766
541.76	18.651
542.10	19.133
542.44	19.041
542.78	18.307
543.12	18.338
543.46	20.167
543.80	19.570
544.14	18.625
544.48	19.654
544.82	17.635
545.16	18.716
545.50	19.092
545.84	19.263
546.18	18.794
546.52	19.322
546.86	18.116
547.20	19.742
547.54	18.021
547.88	19.497
548.22	18.803
548.56	18.734
548.90	18.935
549.24	18.733
549.58	19.182
549.92	17.798
550.26	18.755
550.60	19.108
550.94	18.895
551.28	19.011
551.62	18.231
551.96	20.000
552.30	18.129
552.64	17.842
552.98	19.058
553.32	18.830
553.66	17.417
554.00	19.197
554.34	18.316
554.68	17.183
555.02	18.229
555.36	18.699
555.69	18.315
556.03	17.987
556.37	17.722
556.71	18.339
557.05	18.046
557.39	18.513
557.73	18.141
558.07	18.778
558.41	17.611
558.75	18.316
559.08	18.203
559.42	17.540
559.76	17.854
560.10	17.049
560.44	16.754
560.78	17.832
561.12	17.207
561.45	18.342
561.79	17.577
562.13	17.104
562.47	17.770
562.81	17.867
563.15	17.489
563.48	18.105
563.82	17.159
564.16	17.758
564.50	17.365
564.84	18.139
565.17	17.371
565.51	17.964
565.85	17.490
566.19	17.175
566.52	17.359
566.86	16.774
567.20	17.497
567.54	16.606
567.88	17.575
568.21	17.251
568.55	17.011
568.89	17.505
569.23	16.418
569.56	16.200
569.90	16.768
570.24	16.040
570.57	15.636
570.91	16.138
571.25	16.080
571.59	15.945
571.92	15.378
572.26	15.429
572.60	15.473
572.93	15.532
573.27	15.737
573.61	15.364
573.95	15.647
574.28	15.201
574.62	14.798
574.96	15.034
575.29	14.841
575.63	14.771
575.97	14.747
576.30	15.097
576.64	14.464
576.98	15.264
577.31	15.458
577.65	15.138
577.98	14.983
578.32	14.307
578.66	14.743
578.99	14.717
579.33	14.589
579.67	14.736
580.00	14.810
580.34	14.876
580.67	14.491
581.01	14.866
581.35	14.341
581.68	14.033
582.02	14.571
582.35	14.466
582.69	14.492
583.02	14.740
583.36	15.046
583.70	15.472
584.03	15.207
584.37	15.330
584.70	15.000
585.04	14.585
585.37	14.619
585.71	14.910
586.04	14.750
586.38	14.030
586.72	14.778
587.05	15.136
587.39	15.236
587.72	15.282
588.06	15.306
588.39	15.038
588.73	14.774
589.06	14.644
589.40	14.933
589.73	15.772
590.07	15.597
590.40	15.441
590.73	15.610
591.07	16.243
591.40	15.628
591.74	15.113
592.07	15.353
592.41	15.548
592.74	14.775
593.08	14.565
593.41	14.432
593.75	14.720
594.08	14.624
594.41	15.029
594.75	14.885
595.08	15.059
595.42	14.943
595.75	14.495
596.09	14.308
596.42	14.924
596.75	15.053
597.09	15.308
597.42	15.041
597.75	14.842
598.09	14.758
598.42	14.531
598.76	14.286
599.09	14.944
599.42	13.907
599.76	14.710
600.09	14.706
600.42	13.912
600.76	14.004
601.09	14.008
601.42	14.493
601.76	14.093
602.09	14.769
602.42	15.164
602.76	14.686
603.09	15.033
603.42	14.967
603.76	14.395
604.09	14.257
604.42	14.129
604.76	14.998
605.09	15.219
605.42	14.357
605.75	13.792
606.09	14.565
606.42	13.970
606.75	14.199
607.09	14.374
607.42	14.001
607.75	14.432
608.08	14.420
608.42	14.299
608.75	14.169
609.08	14.200
609.41	14.670
609.75	14.062
610.08	14.029
610.41	14.396
610.74	14.139
611.07	14.109
611.41	14.634
611.74	15.032
612.07	14.400
612.40	14.989
612.73	14.011
613.07	14.117
613.40	14.059
613.73	13.486
614.06	15.025
614.39	14.439
614.72	14.566
615.06	14.525
615.39	13.865
615.72	14.370
616.05	14.581
616.38	13.618
616.71	13.823
617.05	14.021
617.38	14.205
617.71	13.711
618.04	14.730
618.37	15.069
618.70	14.653
619.03	15.139
619.36	13.603
619.69	16.149
620.03	15.047
620.36	14.449
620.69	15.061
621.02	14.373
621.35	14.191
621.68	15.136
622.01	13.917
622.34	15.164
622.67	15.379
623.00	15.237
623.33	14.939
623.66	14.286
623.99	13.540
624.32	14.905
624.65	13.835
624.99	14.146
625.32	14.177
625.65	14.061
625.98	14.424
626.31	14.048
626.64	14.991
626.97	15.532
627.30	13.835
627.63	15.685
627.96	14.376
628.29	14.616
628.62	14.356
628.95	14.629
629.28	14.718
629.61	14.556
629.94	14.663
630.26	14.723
630.59	15.088
630.92	15.795
631.25	14.564
631.58	15.639
631.91	14.474
632.24	14.564
632.57	14.091
632.90	15.540
633.23	14.000
