SpectraSuite Data File
++++++++++++++++++++++++++++++++++++
Date: Fri May 15 20:44:19 PDT 2015
User: schluterlab
Dark Spectrum Present: Yes
Reference Spectrum Present: Yes
Number of Sampled Component Spectra: 1
Spectrometers: USB2E3373
Integration Time (usec): 3000 (USB2E3373)
Spectra Averaged: 3 (USB2E3373)
Boxcar Smoothing: 0 (USB2E3373)
Correct for Electrical Dark: No (USB2E3373)
Strobe/Lamp Enabled: No (USB2E3373)
Correct for Detector Non-linearity: No (USB2E3373)
Correct for Stray Light: No (USB2E3373)
Number of Pixels in Processed Spectrum: 2048
>>>>>Begin Processed Spectral Data<<<<<
178.53	0.000
178.91	0.000
179.29	0.000
179.67	-700.000
180.04	42.857
180.42	325.000
180.80	-600.000
181.18	200.000
181.56	350.000
181.94	100.000
182.31	400.000
182.69	-40.000
183.07	-233.333
183.45	20.000
183.83	83.333
184.20	-127.273
184.58	177.778
184.96	100.000
185.34	133.333
185.72	-300.000
186.09	84.615
186.47	-700.000
186.85	116.667
187.23	200.000
187.61	200.000
187.98	-200.000
188.36	33.333
188.74	-400.000
189.12	52.941
189.49	38.889
189.87	0.000
190.25	64.286
190.63	-350.000
191.00	100.000
191.38	5.263
191.76	400.000
192.14	150.000
192.51	250.000
192.89	-44.444
193.27	-57.143
193.65	100.000
194.02	63.636
194.40	60.000
194.78	-75.000
195.15	-58.333
195.53	-75.000
195.91	125.000
196.29	-50.000
196.66	46.154
197.04	42.857
197.42	44.444
197.79	-333.333
198.17	-130.769
198.55	1300.000
198.92	-466.667
199.30	500.000
199.68	-80.000
200.05	-233.333
200.43	0.000
200.81	-300.000
201.18	0.000
201.56	1100.000
201.94	-50.000
202.31	166.667
202.69	-120.000
203.07	150.000
203.44	900.000
203.82	0.000
204.19	7.143
204.57	-266.667
204.95	12.500
205.32	0.000
205.70	-28.571
206.08	-125.000
206.45	44.444
206.83	57.143
207.20	-171.429
207.58	-600.000
207.96	-233.333
208.33	-90.000
208.71	-50.000
209.08	-33.333
209.46	-100.000
209.84	-120.000
210.21	-500.000
210.59	-85.714
210.96	16.667
211.34	-50.000
211.71	20.000
212.09	-85.714
212.46	-1500.000
212.84	0.000
213.22	90.000
213.59	50.000
213.97	30.769
214.34	45.455
214.72	83.333
215.09	200.000
215.47	-38.462
215.84	-100.000
216.22	-166.667
216.59	-75.000
216.97	100.000
217.34	-75.000
217.72	-80.000
218.09	-150.000
218.47	112.500
218.84	-1000.000
219.22	-66.667
219.59	20.000
219.97	-166.667
220.34	150.000
220.72	-114.286
221.09	-325.000
221.47	350.000
221.84	-400.000
222.22	-450.000
222.59	72.727
222.97	100.000
223.34	-300.000
223.72	28.571
224.09	19.048
224.46	46.429
224.84	300.000
225.21	0.000
225.59	0.000
225.96	-250.000
226.34	400.000
226.71	14.286
227.08	-166.667
227.46	87.500
227.83	-150.000
228.21	-11.111
228.58	-18.182
228.95	-112.500
229.33	130.000
229.70	25.000
230.08	-112.500
230.45	-100.000
230.82	42.857
231.20	-40.000
231.57	78.571
231.95	-14.286
232.32	20.000
232.69	92.857
233.07	-200.000
233.44	-120.000
233.81	-30.000
234.19	-11.111
234.56	-5.882
234.93	-100.000
235.31	-150.000
235.68	-40.000
236.05	-7.692
236.43	15.000
236.80	76.471
237.17	15.625
237.55	-30.000
237.92	25.926
238.29	41.667
238.67	53.333
239.04	50.000
239.41	7.317
239.79	16.667
240.16	14.634
240.53	31.579
240.91	28.261
241.28	33.333
241.65	33.929
242.02	41.096
242.40	23.333
242.77	42.373
243.14	16.667
243.51	36.250
243.89	35.632
244.26	24.138
244.63	20.238
245.00	39.175
245.38	36.082
245.75	40.449
246.12	39.655
246.49	37.190
246.87	42.308
247.24	35.294
247.61	32.456
247.98	42.276
248.36	34.375
248.73	35.526
249.10	33.117
249.47	36.076
249.84	41.176
250.22	33.529
250.59	45.752
250.96	37.559
251.33	36.047
251.70	39.412
252.08	37.563
252.45	35.644
252.82	40.201
253.19	39.631
253.56	39.720
253.94	39.189
254.31	37.826
254.68	39.474
255.05	37.008
255.42	38.865
255.79	35.907
256.16	39.689
256.54	41.791
256.91	33.460
257.28	37.175
257.65	39.326
258.02	38.298
258.39	38.721
258.76	37.363
259.14	37.874
259.51	35.922
259.88	37.457
260.25	37.255
260.62	39.931
260.99	37.966
261.36	39.041
261.73	38.291
262.10	40.729
262.47	38.037
262.85	39.498
263.22	39.385
263.59	38.941
263.96	43.168
264.33	38.485
264.70	40.179
265.07	43.155
265.44	39.943
265.81	40.395
266.18	41.257
266.55	37.789
266.92	39.378
267.29	38.120
267.66	38.875
268.03	38.220
268.40	39.164
268.77	41.176
269.14	38.369
269.51	38.046
269.88	39.152
270.25	38.010
270.62	37.317
270.99	38.363
271.36	36.430
271.73	35.915
272.10	40.633
272.47	39.007
272.84	37.871
273.21	39.443
273.58	39.277
273.95	37.300
274.32	37.875
274.69	33.937
275.06	40.848
275.43	36.281
275.80	37.969
276.17	40.230
276.54	35.332
276.91	41.667
277.28	38.646
277.65	37.810
278.02	36.383
278.39	39.825
278.76	36.268
279.13	33.817
279.50	40.756
279.87	41.037
280.23	36.559
280.60	37.037
280.97	40.202
281.34	39.423
281.71	39.630
282.08	35.992
282.45	36.791
282.82	35.521
283.19	37.331
283.56	37.958
283.92	37.002
284.29	34.808
284.66	35.659
285.03	34.774
285.40	37.618
285.77	37.434
286.14	37.004
286.51	39.483
286.87	35.832
287.24	36.464
287.61	36.332
287.98	37.018
288.35	33.102
288.72	36.427
289.08	34.375
289.45	36.204
289.82	36.364
290.19	34.642
290.56	33.791
290.93	34.848
291.29	29.738
291.66	33.228
292.03	32.057
292.40	32.258
292.77	32.376
293.13	30.519
293.50	32.777
293.87	31.908
294.24	31.685
294.60	30.402
294.97	31.696
295.34	31.135
295.71	31.297
296.08	30.045
296.44	27.312
296.81	30.972
297.18	29.565
297.55	30.894
297.91	29.726
298.28	30.475
298.65	29.579
299.02	28.841
299.38	26.265
299.75	28.828
300.12	28.403
300.48	28.458
300.85	29.404
301.22	28.571
301.59	28.947
301.95	27.595
302.32	31.128
302.69	27.612
303.05	27.723
303.42	27.522
303.79	28.505
304.15	28.076
304.52	26.159
304.89	27.719
305.25	27.603
305.62	26.138
305.99	26.667
306.35	26.936
306.72	25.984
307.09	26.910
307.45	28.473
307.82	27.431
308.19	27.991
308.55	28.135
308.92	28.758
309.29	27.151
309.65	27.449
310.02	28.163
310.38	28.430
310.75	28.743
311.12	27.879
311.48	27.678
311.85	27.644
312.22	27.848
312.58	27.919
312.95	29.242
313.31	28.571
313.68	27.853
314.05	29.796
314.41	29.897
314.78	30.309
315.14	29.702
315.51	31.988
315.87	28.586
316.24	30.233
316.61	31.890
316.97	31.349
317.34	32.324
317.70	31.740
318.07	33.365
318.43	32.059
318.80	31.913
319.16	34.277
319.53	34.188
319.89	34.547
320.26	35.628
320.62	36.810
320.99	34.864
321.35	35.149
321.72	36.656
322.08	38.066
322.45	37.970
322.81	38.507
323.18	39.549
323.54	40.734
323.91	39.533
324.27	42.090
324.64	41.948
325.00	42.518
325.37	43.710
325.73	42.792
326.10	45.322
326.46	46.368
326.83	45.757
327.19	45.597
327.56	45.352
327.92	47.447
328.29	46.875
328.65	48.396
329.01	47.794
329.38	48.203
329.74	48.820
330.11	48.193
330.47	47.959
330.84	50.769
331.20	52.186
331.56	49.722
331.93	51.050
332.29	51.146
332.66	52.127
333.02	50.836
333.38	51.237
333.75	53.205
334.11	49.597
334.48	51.949
334.84	51.099
335.20	52.699
335.57	52.040
335.93	52.394
336.29	54.328
336.66	54.223
337.02	51.952
337.38	51.019
337.75	52.364
338.11	52.480
338.47	52.737
338.84	55.730
339.20	54.113
339.56	55.413
339.93	54.073
340.29	55.046
340.65	53.136
341.02	53.546
341.38	54.248
341.74	52.473
342.11	53.293
342.47	55.605
342.83	54.844
343.20	54.007
343.56	56.783
343.92	54.207
344.28	55.423
344.65	56.477
345.01	56.180
345.37	54.752
345.73	57.238
346.10	58.067
346.46	54.247
346.82	53.519
347.19	55.278
347.55	55.639
347.91	55.906
348.27	55.376
348.63	56.388
349.00	56.768
349.36	56.941
349.72	58.789
350.08	55.738
350.45	55.706
350.81	57.309
351.17	56.922
351.53	58.367
351.89	55.656
352.26	56.240
352.62	57.339
352.98	56.466
353.34	56.683
353.70	57.282
354.07	57.661
354.43	57.966
354.79	59.042
355.15	59.524
355.51	59.177
355.87	59.223
356.24	58.809
356.60	58.367
356.96	59.921
357.32	57.987
357.68	59.187
358.04	60.097
358.40	59.807
358.77	59.968
359.13	61.649
359.49	58.937
359.85	59.828
360.21	61.483
360.57	60.138
360.93	59.455
361.29	58.686
361.66	61.677
362.02	62.121
362.38	61.538
362.74	63.058
363.10	62.603
363.46	61.156
363.82	63.186
364.18	60.148
364.54	60.221
364.90	60.789
365.26	60.553
365.62	62.701
365.98	62.390
366.35	63.292
366.71	63.119
367.07	63.135
367.43	63.911
367.79	61.272
368.15	62.383
368.51	62.782
368.87	62.814
369.23	63.394
369.59	64.140
369.95	64.736
370.31	64.451
370.67	64.478
371.03	64.078
371.39	63.968
371.75	64.469
372.11	63.267
372.47	63.757
372.83	64.301
373.19	64.051
373.55	63.394
373.91	65.227
374.27	64.918
374.63	64.968
374.99	63.475
375.35	65.042
375.71	65.524
376.07	67.275
376.42	66.259
376.78	64.094
377.14	66.215
377.50	66.534
377.86	65.462
378.22	64.901
378.58	66.090
378.94	65.406
379.30	66.376
379.66	65.831
380.02	65.113
380.38	65.916
380.74	66.308
381.09	66.442
381.45	66.911
381.81	66.194
382.17	66.180
382.53	65.959
382.89	67.608
383.25	68.388
383.61	67.134
383.97	66.667
384.32	65.729
384.68	68.235
385.04	66.176
385.40	67.206
385.76	68.365
386.12	67.853
386.48	69.093
386.83	67.343
387.19	68.071
387.55	67.566
387.91	67.421
388.27	65.934
388.62	68.408
388.98	67.833
389.34	68.020
389.70	68.117
390.06	67.086
390.42	66.710
390.77	68.476
391.13	68.600
391.49	68.241
391.85	69.396
392.20	66.792
392.56	67.896
392.92	67.763
393.28	67.925
393.64	67.748
393.99	68.777
394.35	67.868
394.71	66.411
395.07	68.133
395.42	66.120
395.78	68.795
396.14	66.583
396.50	68.611
396.85	69.543
397.21	67.419
397.57	67.837
397.92	66.687
398.28	67.356
398.64	65.120
399.00	68.341
399.35	65.971
399.71	65.882
400.07	66.505
400.42	65.728
400.78	66.748
401.14	67.574
401.49	66.111
401.85	66.423
402.21	65.422
402.57	66.125
402.92	65.621
403.28	66.541
403.63	66.141
403.99	65.816
404.35	67.270
404.70	64.702
405.06	65.922
405.42	65.009
405.77	65.718
406.13	64.843
406.49	64.121
406.84	66.809
407.20	65.924
407.55	65.035
407.91	64.773
408.27	64.627
408.62	64.615
408.98	65.250
409.34	64.560
409.69	63.566
410.05	64.901
410.40	63.148
410.76	65.139
411.11	63.937
411.47	64.826
411.83	64.093
412.18	65.122
412.54	62.797
412.89	63.177
413.25	63.779
413.60	62.112
413.96	61.902
414.31	63.232
414.67	62.091
415.03	63.782
415.38	62.402
415.74	63.974
416.09	64.533
416.45	62.795
416.80	62.789
417.16	65.193
417.51	63.158
417.87	62.842
418.22	63.990
418.58	62.676
418.93	64.326
419.29	61.204
419.64	63.577
420.00	63.917
420.35	61.851
420.71	63.123
421.06	62.370
421.42	63.341
421.77	62.543
422.12	61.407
422.48	62.805
422.83	63.573
423.19	63.431
423.54	62.669
423.90	62.721
424.25	63.433
424.61	62.852
424.96	62.311
425.31	64.587
425.67	62.676
426.02	63.958
426.38	64.746
426.73	63.862
427.09	64.810
427.44	62.471
427.79	63.170
428.15	63.774
428.50	64.082
428.85	62.776
429.21	63.328
429.56	63.396
429.92	61.428
430.27	61.905
430.62	62.729
430.98	62.739
431.33	61.882
431.68	61.852
432.04	63.164
432.39	61.552
432.74	61.756
433.10	64.195
433.45	61.947
433.80	62.797
434.16	62.604
434.51	62.742
434.86	62.834
435.22	61.526
435.57	62.196
435.92	62.754
436.28	62.910
436.63	63.548
436.98	61.877
437.34	62.916
437.69	62.970
438.04	61.311
438.39	61.148
438.75	63.388
439.10	61.517
439.45	64.212
439.81	61.101
440.16	64.252
440.51	62.687
440.86	63.867
441.22	61.821
441.57	62.086
441.92	63.064
442.27	63.359
442.63	63.651
442.98	62.837
443.33	60.545
443.68	62.228
444.03	62.643
444.39	61.879
444.74	63.601
445.09	63.641
445.44	63.191
445.79	62.816
446.15	62.225
446.50	60.399
446.85	63.124
447.20	61.262
447.55	62.667
447.91	62.042
448.26	61.070
448.61	62.522
448.96	62.880
449.31	62.543
449.66	62.253
450.02	62.008
450.37	61.766
450.72	62.715
451.07	63.228
451.42	62.297
451.77	62.266
452.12	59.749
452.47	59.884
452.83	61.307
453.18	61.733
453.53	62.516
453.88	61.749
454.23	61.340
454.58	61.587
454.93	60.374
455.28	59.302
455.63	60.260
455.98	61.094
456.34	60.536
456.69	61.753
457.04	62.256
457.39	60.875
457.74	60.701
458.09	58.858
458.44	60.269
458.79	59.888
459.14	61.384
459.49	59.642
459.84	60.293
460.19	60.437
460.54	61.553
460.89	60.795
461.24	59.565
461.59	58.610
461.94	59.748
462.29	60.676
462.64	60.864
462.99	59.174
463.34	57.858
463.69	59.395
464.04	59.806
464.39	59.551
464.74	58.344
465.09	59.014
465.44	59.261
465.79	57.596
466.14	59.008
466.49	57.619
466.84	59.012
467.19	57.885
467.54	58.876
467.89	59.697
468.24	58.212
468.59	59.683
468.94	58.349
469.29	58.557
469.64	58.442
469.99	59.005
470.34	57.679
470.68	59.881
471.03	59.023
471.38	58.131
471.73	59.804
472.08	58.073
472.43	58.792
472.78	57.162
473.13	57.755
473.48	57.134
473.83	56.849
474.17	56.995
474.52	56.286
474.87	57.333
475.22	56.742
475.57	56.635
475.92	56.336
476.27	57.101
476.61	57.465
476.96	55.549
477.31	56.409
477.66	57.416
478.01	55.755
478.36	55.283
478.70	57.368
479.05	55.604
479.40	56.386
479.75	55.214
480.10	54.736
480.45	55.000
480.79	56.042
481.14	55.891
481.49	53.941
481.84	56.274
482.19	53.789
482.53	54.868
482.88	54.463
483.23	54.702
483.58	54.057
483.92	53.679
484.27	54.786
484.62	54.012
484.97	52.529
485.31	52.926
485.66	51.370
486.01	52.347
486.36	52.929
486.70	52.973
487.05	53.697
487.40	53.464
487.75	52.563
488.09	53.183
488.44	53.026
488.79	52.634
489.13	51.883
489.48	52.715
489.83	53.274
490.17	52.764
490.52	52.794
490.87	52.800
491.22	52.627
491.56	52.230
491.91	52.677
492.26	52.504
492.60	52.015
492.95	53.074
493.30	50.904
493.64	51.817
493.99	52.560
494.34	51.019
494.68	52.238
495.03	51.290
495.37	52.061
495.72	51.893
496.07	51.854
496.41	51.132
496.76	51.773
497.11	51.281
497.45	50.453
497.80	51.968
498.14	50.373
498.49	51.905
498.84	50.100
499.18	51.556
499.53	51.637
499.87	50.389
500.22	50.940
500.56	51.185
500.91	50.351
501.26	49.629
501.60	50.762
501.95	50.801
502.29	49.734
502.64	50.965
502.98	50.419
503.33	48.751
503.67	49.687
504.02	48.534
504.36	50.520
504.71	48.838
505.06	49.673
505.40	49.036
505.75	49.124
506.09	48.708
506.44	50.257
506.78	49.949
507.13	49.328
507.47	47.520
507.82	48.932
508.16	48.442
508.51	48.531
508.85	49.294
509.19	48.590
509.54	49.115
509.88	48.598
510.23	49.597
510.57	48.958
510.92	47.175
511.26	48.336
511.61	48.735
511.95	48.767
512.30	48.614
512.64	48.414
512.98	48.231
513.33	48.685
513.67	48.778
514.02	49.085
514.36	49.086
514.70	49.126
515.05	48.649
515.39	48.347
515.74	48.503
516.08	49.014
516.42	47.644
516.77	49.035
517.11	48.724
517.46	48.474
517.80	48.212
518.14	47.397
518.49	47.596
518.83	47.448
519.17	46.513
519.52	46.596
519.86	46.519
520.20	47.388
520.55	48.030
520.89	48.306
521.23	46.738
521.58	47.319
521.92	47.244
522.26	47.951
522.61	46.494
522.95	49.007
523.29	47.522
523.64	46.569
523.98	47.051
524.32	46.327
524.66	48.271
525.01	46.623
525.35	46.662
525.69	46.061
526.04	47.354
526.38	47.147
526.72	45.782
527.06	46.304
527.41	47.493
527.75	45.845
528.09	46.777
528.43	47.400
528.78	46.337
529.12	46.387
529.46	46.004
529.80	45.218
530.15	46.865
530.49	45.993
530.83	46.854
531.17	44.594
531.51	45.554
531.86	45.071
532.20	45.303
532.54	45.269
532.88	44.764
533.22	43.414
533.57	45.085
533.91	44.909
534.25	46.159
534.59	45.350
534.93	43.738
535.27	43.401
535.62	45.237
535.96	45.271
536.30	44.195
536.64	46.795
536.98	45.087
537.32	44.381
537.66	45.372
538.01	44.196
538.35	44.244
538.69	44.607
539.03	43.404
539.37	44.549
539.71	44.172
540.05	43.381
540.39	45.291
540.73	44.351
541.07	44.682
541.42	45.161
541.76	44.322
542.10	44.529
542.44	44.475
542.78	43.290
543.12	41.758
543.46	43.394
543.80	43.997
544.14	42.991
544.48	43.038
544.82	41.900
545.16	43.852
545.50	42.924
545.84	43.555
546.18	43.759
546.52	42.970
546.86	42.919
547.20	42.275
547.54	42.332
547.88	42.799
548.22	41.552
548.56	41.359
548.90	43.396
549.24	41.391
549.58	43.300
549.92	41.530
550.26	42.784
550.60	42.974
550.94	42.420
551.28	40.804
551.62	42.077
551.96	41.278
552.30	41.374
552.64	40.973
552.98	42.053
553.32	42.796
553.66	40.784
554.00	42.044
554.34	42.836
554.68	42.404
555.02	41.146
555.36	42.708
555.69	41.538
556.03	41.470
556.37	40.427
556.71	40.939
557.05	41.163
557.39	39.628
557.73	40.405
558.07	41.554
558.41	41.501
558.75	40.530
559.08	40.662
559.42	42.063
559.76	41.713
560.10	40.826
560.44	41.698
560.78	40.699
561.12	40.973
561.45	40.759
561.79	40.616
562.13	41.448
562.47	40.288
562.81	41.066
563.15	40.409
563.48	41.089
563.82	41.386
564.16	41.713
564.50	38.784
564.84	39.692
565.17	40.241
565.51	41.735
565.85	40.878
566.19	40.252
566.52	40.147
566.86	40.231
567.20	39.726
567.54	39.720
567.88	41.301
568.21	40.611
568.55	39.022
568.89	40.144
569.23	40.250
569.56	39.536
569.90	39.911
570.24	39.077
570.57	39.673
570.91	39.700
571.25	38.902
571.59	38.804
571.92	38.222
572.26	38.949
572.60	38.264
572.93	38.218
573.27	38.025
573.61	38.335
573.95	38.585
574.28	37.606
574.62	38.419
574.96	37.497
575.29	36.825
575.63	36.901
575.97	36.758
576.30	37.728
576.64	36.742
576.98	37.812
577.31	38.068
577.65	38.119
577.98	37.891
578.32	37.247
578.66	37.073
578.99	36.617
579.33	37.072
579.67	37.068
580.00	37.038
580.34	37.114
580.67	36.721
581.01	37.320
581.35	36.822
581.68	37.138
582.02	36.851
582.35	36.620
582.69	36.930
583.02	37.471
583.36	36.953
583.70	37.669
584.03	37.976
584.37	37.945
584.70	36.896
585.04	36.321
585.37	36.511
585.71	36.855
586.04	36.460
586.38	36.943
586.72	36.442
587.05	36.944
587.39	37.909
587.72	37.780
588.06	36.839
588.39	36.799
588.73	36.447
589.06	38.063
589.40	36.951
589.73	37.934
590.07	37.085
590.40	37.810
590.73	39.044
591.07	37.150
591.40	37.622
591.74	37.828
592.07	37.430
592.41	36.617
592.74	36.997
593.08	35.941
593.41	36.409
593.75	36.016
594.08	36.011
594.41	36.281
594.75	36.260
595.08	36.928
595.42	35.848
595.75	36.500
596.09	36.630
596.42	36.709
596.75	37.345
597.09	35.809
597.42	36.360
597.75	36.738
598.09	36.125
598.42	35.469
598.76	35.693
599.09	35.657
599.42	35.354
599.76	35.252
600.09	35.370
600.42	36.012
600.76	34.918
601.09	35.649
601.42	35.018
601.76	35.728
602.09	35.437
602.42	36.226
602.76	35.696
603.09	36.005
603.42	35.995
603.76	35.565
604.09	35.237
604.42	36.041
604.76	36.315
605.09	35.192
605.42	34.989
605.75	35.377
606.09	35.117
606.42	34.696
606.75	34.719
607.09	35.253
607.42	35.357
607.75	34.725
608.08	34.501
608.42	34.445
608.75	35.422
609.08	35.127
609.41	34.924
609.75	34.929
610.08	35.896
610.41	34.106
610.74	34.861
611.07	35.452
611.41	36.326
611.74	36.514
612.07	34.636
612.40	35.394
612.73	35.819
613.07	34.814
613.40	34.902
613.73	34.975
614.06	35.893
614.39	34.687
614.72	34.230
615.06	34.749
615.39	34.007
615.72	34.177
616.05	33.966
616.38	33.504
616.71	33.272
617.05	35.392
617.38	34.632
617.71	35.409
618.04	35.238
618.37	34.741
618.70	35.116
619.03	35.347
619.36	34.298
619.69	35.027
620.03	35.573
620.36	34.764
620.69	34.690
621.02	34.480
621.35	36.515
621.68	35.714
622.01	34.500
622.34	34.477
622.67	33.912
623.00	34.456
623.33	35.137
623.66	33.882
623.99	33.283
624.32	34.297
624.65	33.910
624.99	34.688
625.32	32.828
625.65	34.407
625.98	34.972
626.31	33.001
626.64	35.789
626.97	34.729
627.30	34.588
627.63	35.095
627.96	34.142
628.29	35.060
628.62	33.923
628.95	33.467
629.28	33.871
629.61	32.802
629.94	34.897
630.26	34.387
630.59	35.692
630.92	34.256
631.25	32.513
631.58	34.581
631.91	33.772
632.24	32.913
632.57	34.545
632.90	32.622
633.23	32.941
633.56	32.872
