SpectraSuite Data File
++++++++++++++++++++++++++++++++++++
Date: Fri May 15 20:48:12 PDT 2015
User: schluterlab
Dark Spectrum Present: Yes
Reference Spectrum Present: Yes
Number of Sampled Component Spectra: 1
Spectrometers: USB2E3373
Integration Time (usec): 3000 (USB2E3373)
Spectra Averaged: 3 (USB2E3373)
Boxcar Smoothing: 0 (USB2E3373)
Correct for Electrical Dark: No (USB2E3373)
Strobe/Lamp Enabled: No (USB2E3373)
Correct for Detector Non-linearity: No (USB2E3373)
Correct for Stray Light: No (USB2E3373)
Number of Pixels in Processed Spectrum: 2048
>>>>>Begin Processed Spectral Data<<<<<
178.53	0.000
178.91	0.000
179.29	12.500
179.67	-600.000
180.04	-14.286
180.42	-25.000
180.80	-1100.000
181.18	100.000
181.56	650.000
181.94	-500.000
182.31	400.000
182.69	-280.000
183.07	-266.667
183.45	-280.000
183.83	383.333
184.20	-27.273
184.58	144.444
184.96	-100.000
185.34	-66.667
185.72	-850.000
186.09	84.615
186.47	-1500.000
186.85	33.333
187.23	200.000
187.61	-300.000
187.98	100.000
188.36	-11.111
188.74	-400.000
189.12	29.412
189.49	38.889
189.87	0.000
190.25	7.143
190.63	-50.000
191.00	-433.333
191.38	-47.368
191.76	250.000
192.14	225.000
192.51	-100.000
192.89	-33.333
193.27	-114.286
193.65	116.667
194.02	254.545
194.40	-30.000
194.78	-250.000
195.15	-91.667
195.53	-62.500
195.91	150.000
196.29	-400.000
196.66	146.154
197.04	300.000
197.42	22.222
197.79	-566.667
198.17	-138.462
198.55	2100.000
198.92	-466.667
199.30	-600.000
199.68	-80.000
200.05	-400.000
200.43	0.000
200.81	233.333
201.18	-100.000
201.56	1100.000
201.94	-350.000
202.31	-66.667
202.69	-300.000
203.07	175.000
203.44	-300.000
203.82	0.000
204.19	50.000
204.57	-200.000
204.95	112.500
205.32	10.000
205.70	42.857
206.08	-325.000
206.45	155.556
206.83	64.286
207.20	-128.571
207.58	800.000
207.96	-500.000
208.33	-20.000
208.71	-275.000
209.08	-183.333
209.46	-1200.000
209.84	-140.000
210.21	-1300.000
210.59	-57.143
210.96	-100.000
211.34	-150.000
211.71	0.000
212.09	-114.286
212.46	-2400.000
212.84	0.000
213.22	90.000
213.59	450.000
213.97	7.692
214.34	-27.273
214.72	-83.333
215.09	525.000
215.47	7.692
215.84	-109.091
216.22	-166.667
216.59	-200.000
216.97	100.000
217.34	-25.000
217.72	-340.000
218.09	87.500
218.47	137.500
218.84	-900.000
219.22	-44.444
219.59	40.000
219.97	566.667
220.34	300.000
220.72	-71.429
221.09	-175.000
221.47	-400.000
221.84	-850.000
222.22	-1150.000
222.59	-54.545
222.97	-25.000
223.34	-533.333
223.72	-28.571
224.09	-19.048
224.46	10.714
224.84	633.333
225.21	-30.000
225.59	0.000
225.96	-100.000
226.34	175.000
226.71	-71.429
227.08	-33.333
227.46	-62.500
227.83	-950.000
228.21	-11.111
228.58	-18.182
228.95	-125.000
229.33	100.000
229.70	-31.250
230.08	-287.500
230.45	-157.143
230.82	-71.429
231.20	-53.333
231.57	21.429
231.95	-28.571
232.32	-100.000
232.69	7.143
233.07	-233.333
233.44	-220.000
233.81	-120.000
234.19	-11.111
234.56	-64.706
234.93	300.000
235.31	50.000
235.68	-240.000
236.05	-92.308
236.43	-45.000
236.80	-47.059
237.17	-6.250
237.55	-50.000
237.92	-29.630
238.29	0.000
238.67	-13.333
239.04	-17.647
239.41	-7.317
239.79	-6.667
240.16	-26.829
240.53	-36.842
240.91	-15.217
241.28	4.762
241.65	12.500
242.02	-5.479
242.40	5.000
242.77	8.475
243.14	-6.061
243.51	7.500
243.89	8.046
244.26	4.598
244.63	-2.381
245.00	0.000
245.38	10.309
245.75	-19.101
246.12	7.759
246.49	17.355
246.87	0.962
247.24	10.084
247.61	-4.386
247.98	6.504
248.36	3.125
248.73	7.237
249.10	2.597
249.47	6.329
249.84	1.307
250.22	2.353
250.59	4.575
250.96	11.737
251.33	-1.163
251.70	9.412
252.08	5.584
252.45	7.921
252.82	7.538
253.19	7.373
253.56	5.140
253.94	11.261
254.31	7.391
254.68	7.018
255.05	7.874
255.42	9.607
255.79	5.792
256.16	4.280
256.54	10.448
256.91	9.125
257.28	5.576
257.65	6.742
258.02	3.546
258.39	5.387
258.76	11.355
259.14	9.967
259.51	7.443
259.88	8.247
260.25	8.170
260.62	8.681
260.99	7.119
261.36	2.740
261.73	5.380
262.10	9.422
262.47	7.669
262.85	7.837
263.22	4.923
263.59	7.477
263.96	9.627
264.33	8.182
264.70	7.440
265.07	5.357
265.44	7.932
265.81	6.497
266.18	5.191
266.55	8.740
266.92	8.808
267.29	8.355
267.66	6.905
268.03	8.901
268.40	6.266
268.77	11.765
269.14	8.633
269.51	8.997
269.88	7.232
270.25	7.908
270.62	6.098
270.99	7.417
271.36	6.601
271.73	8.451
272.10	7.543
272.47	7.329
272.84	5.446
273.21	7.889
273.58	9.157
273.95	8.238
274.32	6.928
274.69	4.525
275.06	5.580
275.43	8.390
275.80	7.064
276.17	8.276
276.54	8.779
276.91	11.404
277.28	8.297
277.65	9.504
278.02	9.149
278.39	6.565
278.76	6.499
279.13	7.054
279.50	8.824
279.87	7.991
280.23	4.946
280.60	9.357
280.97	7.273
281.34	8.077
281.71	10.883
282.08	7.771
282.45	8.219
282.82	7.722
283.19	6.963
283.56	6.358
283.92	4.554
284.29	7.308
284.66	7.752
285.03	7.662
285.40	6.805
285.77	6.678
286.14	6.679
286.51	9.963
286.87	8.044
287.24	6.814
287.61	7.055
287.98	9.123
288.35	6.586
288.72	8.757
289.08	8.681
289.45	7.733
289.82	7.692
290.19	5.802
290.56	5.317
290.93	6.902
291.29	5.393
291.66	6.614
292.03	6.220
292.40	5.000
292.77	6.380
293.13	4.221
293.50	5.463
293.87	6.107
294.24	6.028
294.60	6.408
294.97	8.036
295.34	5.675
295.71	7.154
296.08	5.680
296.44	3.698
296.81	5.972
297.18	5.362
297.55	8.808
297.91	5.890
298.28	7.520
298.65	6.513
299.02	6.334
299.38	2.736
299.75	6.069
300.12	5.366
300.48	4.743
300.85	6.717
301.22	4.675
301.59	5.000
301.95	6.962
302.32	6.355
302.69	6.716
303.05	5.198
303.42	5.604
303.79	6.192
304.15	6.691
304.52	3.448
304.89	4.094
305.25	5.085
305.62	4.084
305.99	4.444
306.35	5.434
306.72	5.512
307.09	6.499
307.45	5.511
307.82	6.019
308.19	5.923
308.55	4.798
308.92	6.100
309.29	4.693
309.65	5.382
310.02	4.950
310.38	5.488
310.75	6.230
311.12	5.167
311.48	5.832
311.85	5.654
312.22	4.958
312.58	4.565
312.95	5.016
313.31	5.797
313.68	5.654
314.05	5.918
314.41	7.010
314.78	4.845
315.14	6.886
315.51	6.832
315.87	5.430
316.24	6.977
316.61	6.988
316.97	8.135
317.34	7.031
317.70	6.501
318.07	7.885
318.43	7.353
318.80	7.765
319.16	7.617
319.53	8.167
319.89	8.268
320.26	7.996
320.62	10.030
320.99	7.829
321.35	9.250
321.72	9.553
322.08	9.164
322.45	10.457
322.81	9.627
323.18	10.010
323.54	9.266
323.91	9.348
324.27	9.766
324.64	11.330
325.00	12.409
325.37	13.682
325.73	10.245
326.10	12.443
326.46	11.211
326.83	11.374
327.19	12.816
327.56	12.250
327.92	11.708
328.29	12.054
328.65	12.642
329.01	12.960
329.38	13.548
329.74	11.992
330.11	13.160
330.47	13.451
330.84	12.115
331.20	13.878
331.56	13.704
331.93	12.603
332.29	14.299
332.66	13.665
333.02	12.175
333.38	12.466
333.75	14.194
334.11	12.444
334.48	13.962
334.84	13.095
335.20	13.083
335.57	12.239
335.93	14.815
336.29	12.431
336.66	13.533
337.02	12.918
337.38	11.759
337.75	12.818
338.11	13.796
338.47	13.412
338.84	14.325
339.20	14.351
339.56	12.936
339.93	14.772
340.29	13.945
340.65	12.814
341.02	13.564
341.38	12.389
341.74	13.074
342.11	12.218
342.47	12.989
342.83	13.841
343.20	13.328
343.56	14.087
343.92	13.198
344.28	14.347
344.65	12.781
345.01	13.051
345.37	14.382
345.73	12.887
346.10	13.201
346.46	13.625
346.82	13.093
347.19	12.219
347.55	13.367
347.91	13.430
348.27	13.581
348.63	13.543
349.00	12.059
349.36	13.633
349.72	13.433
350.08	13.033
350.45	13.408
350.81	13.289
351.17	13.355
351.53	13.143
351.89	12.634
352.26	14.240
352.62	13.468
352.98	12.450
353.34	12.077
353.70	13.188
354.07	12.500
354.43	13.451
354.79	12.964
355.15	14.444
355.51	12.500
355.87	12.864
356.24	13.132
356.60	12.935
356.96	14.048
357.32	13.099
357.68	12.275
358.04	12.682
358.40	12.781
358.77	14.115
359.13	12.090
359.49	12.943
359.85	14.197
360.21	12.839
360.57	12.930
360.93	13.464
361.29	12.840
361.66	13.558
362.02	14.091
362.38	13.481
362.74	13.248
363.10	14.296
363.46	14.529
363.82	14.801
364.18	12.694
364.54	13.235
364.90	13.047
365.26	13.028
365.62	14.672
365.98	14.296
366.35	14.057
366.71	13.673
367.07	14.006
367.43	13.515
367.79	14.134
368.15	13.640
368.51	13.474
368.87	13.424
369.23	12.996
369.59	13.411
369.95	13.636
370.31	13.656
370.67	13.731
371.03	13.592
371.39	14.734
371.75	14.579
372.11	13.909
372.47	13.979
372.83	14.833
373.19	14.622
373.55	13.574
373.91	14.327
374.27	14.600
374.63	15.434
374.99	14.255
375.35	14.694
375.71	14.196
376.07	14.256
376.42	14.354
376.78	14.966
377.14	14.218
377.50	15.471
377.86	14.926
378.22	15.507
378.58	15.128
378.94	14.493
379.30	14.972
379.66	15.361
380.02	14.408
380.38	14.547
380.74	15.500
381.09	15.644
381.45	15.902
381.81	15.484
382.17	15.355
382.53	15.803
382.89	15.945
383.25	15.806
383.61	16.341
383.97	15.365
384.32	15.510
384.68	15.604
385.04	15.748
385.40	15.184
385.76	16.604
386.12	16.300
386.48	17.305
386.83	16.424
387.19	16.484
387.55	17.315
387.91	16.443
388.27	16.300
388.62	16.866
388.98	16.452
389.34	16.802
389.70	17.216
390.06	16.111
390.42	16.580
390.77	16.220
391.13	16.141
391.49	16.753
391.85	16.244
392.20	17.263
392.56	17.101
392.92	17.322
393.28	16.922
393.64	17.417
393.99	18.683
394.35	16.319
394.71	17.305
395.07	17.348
395.42	17.486
395.78	17.980
396.14	17.087
396.50	17.882
396.85	17.901
397.21	18.296
397.57	16.803
397.92	17.675
398.28	17.414
398.64	17.470
399.00	18.792
399.35	17.156
399.71	18.208
400.07	18.259
400.42	18.299
400.78	19.351
401.14	18.814
401.49	19.178
401.85	18.282
402.21	19.398
402.57	18.125
402.92	18.381
403.28	18.734
403.63	17.970
403.99	17.857
404.35	18.926
404.70	18.333
405.06	18.801
405.42	18.583
405.77	18.303
406.13	18.335
406.49	19.420
406.84	19.315
407.20	18.543
407.55	18.416
407.91	18.382
408.27	19.120
408.62	19.323
408.98	19.039
409.34	20.198
409.69	18.798
410.05	18.966
410.40	19.938
410.76	19.542
411.11	18.688
411.47	19.527
411.83	18.770
412.18	20.399
412.54	19.913
412.89	19.458
413.25	19.795
413.60	19.627
413.96	18.896
414.31	19.268
414.67	19.436
415.03	19.840
415.38	20.039
415.74	21.173
416.09	20.575
416.45	20.527
416.80	19.894
417.16	21.409
417.51	20.253
417.87	20.860
418.22	20.337
418.58	20.468
418.93	21.317
419.29	19.078
419.64	19.572
420.00	21.348
420.35	20.358
420.71	20.778
421.06	20.872
421.42	20.733
421.77	20.462
422.12	20.034
422.48	20.357
422.83	21.056
423.19	20.824
423.54	19.988
423.90	20.730
424.25	20.551
424.61	21.236
424.96	21.080
425.31	21.722
425.67	21.244
426.02	21.673
426.38	20.977
426.73	21.792
427.09	21.392
427.44	21.118
427.79	21.450
428.15	21.784
428.50	21.563
428.85	20.209
429.21	21.336
429.56	20.809
429.92	21.726
430.27	21.153
430.62	20.753
430.98	21.656
431.33	21.767
431.68	21.350
432.04	20.906
432.39	21.221
432.74	20.325
433.10	21.954
433.45	21.386
433.80	21.938
434.16	20.942
434.51	21.344
434.86	21.835
435.22	21.481
435.57	21.335
435.92	22.874
436.28	22.063
436.63	21.962
436.98	21.263
437.34	21.355
437.69	22.361
438.04	21.652
438.39	22.114
438.75	22.040
439.10	22.071
439.45	22.702
439.81	20.979
440.16	22.743
440.51	23.343
440.86	23.021
441.22	21.946
441.57	22.075
441.92	22.770
442.27	22.506
442.63	23.126
442.98	22.114
443.33	22.148
443.68	22.440
444.03	22.553
444.39	23.414
444.74	23.300
445.09	22.940
445.44	22.222
445.79	23.414
446.15	23.073
446.50	22.573
446.85	23.486
447.20	22.367
447.55	23.326
447.91	22.843
448.26	22.994
448.61	22.453
448.96	23.236
449.31	22.717
449.66	22.590
450.02	23.388
450.37	23.711
450.72	23.425
451.07	24.051
451.42	23.159
451.77	22.242
452.12	22.309
452.47	23.310
452.83	22.674
453.18	23.340
453.53	22.314
453.88	22.890
454.23	23.356
454.58	23.489
454.93	23.260
455.28	22.349
455.63	23.745
455.98	23.151
456.34	22.733
456.69	23.253
457.04	24.260
457.39	23.269
457.74	23.579
458.09	22.131
458.44	23.406
458.79	24.090
459.14	23.684
459.49	23.881
459.84	23.858
460.19	23.483
460.54	24.205
460.89	23.807
461.24	23.416
461.59	23.872
461.94	22.642
462.29	23.703
462.64	24.053
462.99	23.358
463.34	22.670
463.69	23.616
464.04	23.668
464.39	22.923
464.74	22.638
465.09	23.331
465.44	23.832
465.79	22.676
466.14	24.344
466.49	23.289
466.84	23.795
467.19	23.967
467.54	23.627
467.89	23.184
468.24	22.567
468.59	23.810
468.94	22.857
469.29	23.738
469.64	24.129
469.99	25.368
470.34	22.457
470.68	24.087
471.03	24.558
471.38	24.536
471.73	23.669
472.08	23.406
472.43	23.154
472.78	23.441
473.13	23.265
473.48	23.713
473.83	24.284
474.17	23.316
474.52	23.740
474.87	23.576
475.22	23.917
475.57	23.546
475.92	23.587
476.27	23.166
476.61	24.074
476.96	23.090
477.31	23.959
477.66	23.708
478.01	23.695
478.36	22.930
478.70	24.307
479.05	23.681
479.40	23.476
479.75	22.993
480.10	22.888
480.45	24.200
480.79	24.169
481.14	23.770
481.49	23.153
481.84	23.793
482.19	23.527
482.53	24.269
482.88	23.962
483.23	24.088
483.58	23.821
483.92	22.943
484.27	23.336
484.62	23.487
484.97	22.347
485.31	22.652
485.66	22.058
486.01	22.766
486.36	22.384
486.70	22.901
487.05	23.185
487.40	22.958
487.75	22.676
488.09	22.559
488.44	23.177
488.79	22.787
489.13	23.117
489.48	23.215
489.83	23.094
490.17	23.101
490.52	22.818
490.87	22.999
491.22	23.018
491.56	22.723
491.91	22.467
492.26	22.849
492.60	22.745
492.95	23.709
493.30	23.009
493.64	23.330
493.99	22.754
494.34	22.961
494.68	23.143
495.03	22.433
495.37	23.503
495.72	23.776
496.07	22.634
496.41	22.028
496.76	22.801
497.11	22.403
497.45	23.246
497.80	23.512
498.14	23.000
498.49	23.108
498.84	23.204
499.18	23.343
499.53	22.768
499.87	22.228
500.22	22.651
500.56	22.693
500.91	22.691
501.26	22.739
501.60	22.381
501.95	23.241
502.29	22.228
502.64	23.069
502.98	23.039
503.33	22.574
503.67	21.880
504.02	22.630
504.36	22.761
504.71	22.980
505.06	22.748
505.40	22.792
505.75	22.887
506.09	22.149
506.44	22.279
506.78	23.316
507.13	23.423
507.47	22.350
507.82	22.062
508.16	22.240
508.51	21.511
508.85	22.606
509.19	21.820
509.54	22.359
509.88	22.006
510.23	21.678
510.57	23.036
510.92	21.375
511.26	21.277
511.61	22.772
511.95	22.356
512.30	22.949
512.64	22.371
512.98	21.168
513.33	22.608
513.67	22.626
514.02	22.712
514.36	23.200
514.70	23.193
515.05	23.149
515.39	22.904
515.74	23.054
516.08	23.192
516.42	23.557
516.77	22.996
517.11	22.967
517.46	22.741
517.80	22.944
518.14	21.555
518.49	21.875
518.83	23.208
519.17	20.982
519.52	22.143
519.86	22.509
520.20	21.750
520.55	22.702
520.89	22.710
521.23	21.723
521.58	22.902
521.92	22.692
522.26	22.056
522.61	22.468
522.95	23.179
523.29	22.618
523.64	22.046
523.98	23.526
524.32	22.487
524.66	23.431
525.01	22.143
525.35	23.072
525.69	22.222
526.04	22.024
526.38	24.060
526.72	22.302
527.06	21.401
527.41	22.098
527.75	21.649
528.09	21.462
528.43	22.552
528.78	20.594
529.12	22.903
529.46	21.378
529.80	22.483
530.15	22.178
530.49	21.481
530.83	21.546
531.17	21.625
531.51	22.845
531.86	21.210
532.20	20.738
532.54	22.328
532.88	22.108
533.22	21.841
533.57	21.101
533.91	21.932
534.25	21.940
534.59	21.167
534.93	20.327
535.27	20.685
535.62	20.998
535.96	21.135
536.30	20.515
536.64	21.778
536.98	21.254
537.32	21.906
537.66	21.248
538.01	20.909
538.35	20.804
538.69	21.305
539.03	20.301
539.37	21.400
539.71	20.995
540.05	20.163
540.39	20.429
540.73	21.548
541.07	20.580
541.42	21.841
541.76	20.647
542.10	20.165
542.44	21.751
542.78	19.339
543.12	19.712
543.46	19.958
543.80	21.305
544.14	19.359
544.48	20.120
544.82	20.232
545.16	21.516
545.50	20.427
545.84	20.822
546.18	19.858
546.52	20.404
546.86	19.626
547.20	19.599
547.54	18.799
547.88	20.245
548.22	19.461
548.56	19.459
548.90	20.350
549.24	19.697
549.58	19.605
549.92	18.227
550.26	19.780
550.60	20.372
550.94	19.268
551.28	20.247
551.62	19.538
551.96	20.376
552.30	20.614
552.64	18.759
552.98	19.198
553.32	19.757
553.66	19.158
554.00	18.905
554.34	19.941
554.68	19.248
555.02	20.089
555.36	18.549
555.69	18.022
556.03	18.772
556.37	19.288
556.71	18.556
557.05	19.761
557.39	17.472
557.73	19.115
558.07	19.382
558.41	18.836
558.75	19.174
559.08	18.519
559.42	19.127
559.76	18.575
560.10	18.043
560.44	18.466
560.78	18.811
561.12	19.605
561.45	19.115
561.79	18.697
562.13	18.595
562.47	17.842
562.81	18.012
563.15	18.406
563.48	18.388
563.82	18.600
564.16	19.568
564.50	17.297
564.84	18.742
565.17	17.103
565.51	19.262
565.85	18.244
566.19	18.568
566.52	18.365
566.86	18.959
567.20	16.750
567.54	17.701
567.88	17.223
568.21	18.100
568.55	17.500
568.89	17.813
569.23	17.959
569.56	17.163
569.90	17.661
570.24	17.194
570.57	17.309
570.91	17.288
571.25	16.705
571.59	16.381
571.92	16.385
572.26	16.365
572.60	16.527
572.93	16.724
573.27	16.928
573.61	16.498
573.95	16.303
574.28	16.340
574.62	16.196
574.96	16.255
575.29	16.280
575.63	15.755
575.97	16.536
576.30	15.912
576.64	15.682
576.98	16.371
577.31	16.171
577.65	16.376
577.98	16.272
578.32	15.787
578.66	15.452
578.99	15.629
579.33	15.813
579.67	15.796
580.00	15.772
580.34	15.920
580.67	14.787
581.01	15.418
581.35	16.021
581.68	15.745
582.02	15.562
582.35	15.413
582.69	15.952
583.02	15.616
583.36	15.756
583.70	15.498
584.03	16.152
584.37	16.093
584.70	15.687
585.04	15.052
585.37	15.356
585.71	15.527
586.04	15.129
586.38	14.991
586.72	15.581
587.05	15.945
587.39	15.851
587.72	15.637
588.06	14.835
588.39	15.181
588.73	15.140
589.06	15.982
589.40	15.762
589.73	16.028
590.07	15.748
590.40	14.706
590.73	15.692
591.07	15.225
591.40	14.960
591.74	15.339
592.07	15.863
592.41	16.078
592.74	15.333
593.08	15.543
593.41	15.618
593.75	14.917
594.08	15.139
594.41	15.757
594.75	15.229
595.08	14.907
595.42	14.869
595.75	15.509
596.09	15.324
596.42	14.882
596.75	15.187
597.09	15.171
597.42	15.176
597.75	15.117
598.09	15.211
598.42	14.756
598.76	14.929
599.09	14.623
599.42	14.665
599.76	14.635
600.09	14.027
600.42	15.049
600.76	13.856
601.09	14.122
601.42	14.140
601.76	14.490
602.09	14.109
602.42	14.954
602.76	14.559
603.09	14.120
603.42	15.092
603.76	14.395
604.09	14.621
604.42	14.975
604.76	15.131
605.09	14.351
605.42	14.582
605.75	14.317
606.09	14.565
606.42	14.053
606.75	14.589
607.09	14.505
607.42	13.912
607.75	14.032
608.08	14.106
608.42	14.070
608.75	14.892
609.08	14.499
609.41	14.619
609.75	14.516
610.08	14.828
610.41	14.155
610.74	14.334
611.07	14.470
611.41	14.271
611.74	14.659
612.07	14.507
612.40	14.004
612.73	13.559
613.07	14.567
613.40	14.770
613.73	14.158
614.06	14.969
614.39	14.157
614.72	13.389
615.06	13.743
615.39	13.592
615.72	13.455
616.05	15.084
616.38	12.821
616.71	13.639
617.05	13.589
617.38	13.953
617.71	14.025
618.04	13.714
618.37	15.637
618.70	14.653
619.03	14.514
619.36	13.531
619.69	14.708
620.03	14.901
620.36	13.877
620.69	13.776
621.02	13.761
621.35	14.274
621.68	14.286
622.01	14.167
622.34	14.126
622.67	14.038
623.00	15.926
623.33	13.720
623.66	13.613
623.99	14.599
624.32	14.601
624.65	13.233
624.99	14.372
625.32	13.192
625.65	14.297
625.98	14.263
626.31	13.217
626.64	14.298
626.97	14.485
627.30	13.135
627.63	14.471
627.96	14.196
628.29	13.228
628.62	14.159
628.95	14.028
629.28	14.819
629.61	12.762
629.94	14.761
630.26	13.043
630.59	13.424
630.92	13.949
631.25	15.077
631.58	13.656
631.91	13.596
632.24	13.188
632.57	13.977
632.90	13.642
633.23	14.824
633.56	13.224
633.89	13.810
634.22	13.704
634.55	13.977
634.88	13.921
635.20	12.179
635.53	13.733
635.86	12.614
636.19	14.360
636.52	13.138
636.85	13.275
