SpectraSuite Data File
++++++++++++++++++++++++++++++++++++
Date: Fri May 15 20:35:09 PDT 2015
User: schluterlab
Dark Spectrum Present: Yes
Reference Spectrum Present: Yes
Number of Sampled Component Spectra: 1
Spectrometers: USB2E3373
Integration Time (usec): 3000 (USB2E3373)
Spectra Averaged: 3 (USB2E3373)
Boxcar Smoothing: 0 (USB2E3373)
Correct for Electrical Dark: No (USB2E3373)
Strobe/Lamp Enabled: No (USB2E3373)
Correct for Detector Non-linearity: No (USB2E3373)
Correct for Stray Light: No (USB2E3373)
Number of Pixels in Processed Spectrum: 2048
>>>>>Begin Processed Spectral Data<<<<<
178.53	0.000
178.91	0.000
179.29	12.500
179.67	-300.000
180.04	57.143
180.42	0.000
180.80	-100.000
181.18	133.333
181.56	100.000
181.94	-350.000
182.31	1600.000
182.69	-180.000
183.07	-366.667
183.45	-260.000
183.83	150.000
184.20	-54.545
184.58	111.111
184.96	175.000
185.34	266.667
185.72	-50.000
186.09	76.923
186.47	-1200.000
186.85	233.333
187.23	177.778
187.61	1200.000
187.98	-433.333
188.36	-55.556
188.74	33.333
189.12	-11.765
189.49	-5.556
189.87	0.000
190.25	50.000
190.63	-150.000
191.00	-466.667
191.38	21.053
191.76	-150.000
192.14	275.000
192.51	-50.000
192.89	-33.333
193.27	-200.000
193.65	133.333
194.02	172.727
194.40	110.000
194.78	-200.000
195.15	-66.667
195.53	-12.500
195.91	75.000
196.29	-75.000
196.66	84.615
197.04	100.000
197.42	-11.111
197.79	-433.333
198.17	-30.769
198.55	900.000
198.92	-333.333
199.30	-500.000
199.68	-160.000
200.05	-33.333
200.43	0.000
200.81	0.000
201.18	-366.667
201.56	600.000
201.94	-500.000
202.31	100.000
202.69	-200.000
203.07	50.000
203.44	-100.000
203.82	0.000
204.19	7.143
204.57	-633.333
204.95	87.500
205.32	70.000
205.70	-128.571
206.08	-250.000
206.45	144.444
206.83	85.714
207.20	-171.429
207.58	600.000
207.96	-166.667
208.33	-110.000
208.71	-175.000
209.08	-133.333
209.46	-300.000
209.84	-220.000
210.21	-700.000
210.59	-100.000
210.96	-133.333
211.34	-175.000
211.71	26.667
212.09	-142.857
212.46	-2500.000
212.84	0.000
213.22	100.000
213.59	-0.000
213.97	-46.154
214.34	18.182
214.72	-133.333
215.09	550.000
215.47	-7.692
215.84	-18.182
216.22	-166.667
216.59	-150.000
216.97	50.000
217.34	-100.000
217.72	-300.000
218.09	-37.500
218.47	175.000
218.84	-1000.000
219.22	-44.444
219.59	-20.000
219.97	333.333
220.34	25.000
220.72	-85.714
221.09	-475.000
221.47	-800.000
221.84	-550.000
222.22	-900.000
222.59	45.455
222.97	-16.667
223.34	-266.667
223.72	14.286
224.09	9.524
224.46	10.714
224.84	466.667
225.21	-70.000
225.59	6.667
225.96	-350.000
226.34	325.000
226.71	-128.571
227.08	-83.333
227.46	25.000
227.83	-700.000
228.21	-144.444
228.58	-9.091
228.95	-50.000
229.33	140.000
229.70	31.250
230.08	-25.000
230.45	-85.714
230.82	0.000
231.20	-66.667
231.57	35.714
231.95	-57.143
232.32	-130.000
232.69	71.429
233.07	33.333
233.44	-320.000
233.81	-40.000
234.19	-44.444
234.56	-41.176
234.93	450.000
235.31	175.000
235.68	-140.000
236.05	53.846
236.43	0.000
236.80	11.765
237.17	21.875
237.55	10.000
237.92	14.815
238.29	30.556
238.67	40.000
239.04	23.529
239.41	24.390
239.79	16.667
240.16	36.585
240.53	31.579
240.91	45.652
241.28	26.984
241.65	41.071
242.02	52.055
242.40	55.000
242.77	47.458
243.14	40.909
243.51	45.000
243.89	59.770
244.26	40.230
244.63	46.429
245.00	44.330
245.38	52.577
245.75	51.685
246.12	37.931
246.49	48.760
246.87	56.731
247.24	47.059
247.61	46.491
247.98	56.098
248.36	46.875
248.73	48.026
249.10	44.805
249.47	54.430
249.84	56.209
250.22	52.353
250.59	60.784
250.96	49.765
251.33	55.814
251.70	57.059
252.08	49.746
252.45	51.980
252.82	53.769
253.19	54.378
253.56	48.598
253.94	54.054
254.31	51.739
254.68	58.333
255.05	49.213
255.42	57.205
255.79	55.212
256.16	54.475
256.54	53.358
256.91	49.810
257.28	51.673
257.65	53.933
258.02	54.610
258.39	54.545
258.76	58.242
259.14	57.807
259.51	48.544
259.88	51.890
260.25	54.248
260.62	60.417
260.99	51.864
261.36	48.630
261.73	51.899
262.10	51.672
262.47	53.988
262.85	54.545
263.22	56.615
263.59	54.829
263.96	60.870
264.33	56.667
264.70	52.976
265.07	55.060
265.44	54.958
265.81	56.780
266.18	56.557
266.55	50.900
266.92	52.332
267.29	54.047
267.66	53.708
268.03	56.283
268.40	51.436
268.77	54.813
269.14	52.278
269.51	59.383
269.88	53.616
270.25	52.296
270.62	50.976
270.99	53.708
271.36	49.144
271.73	53.756
272.10	52.068
272.47	54.137
272.84	52.475
273.21	51.740
273.58	53.494
273.95	51.030
274.32	50.115
274.69	48.869
275.06	56.920
275.43	50.794
275.80	50.110
276.17	49.885
276.54	48.394
276.91	53.728
277.28	50.437
277.65	51.860
278.02	51.064
278.39	53.829
278.76	50.314
279.13	48.963
279.50	53.782
279.87	49.892
280.23	49.032
280.60	52.242
280.97	53.535
281.34	48.077
281.71	53.593
282.08	47.853
282.45	49.706
282.82	51.544
283.19	51.644
283.56	50.096
283.92	51.233
284.29	50.192
284.66	48.837
285.03	49.902
285.40	46.881
285.77	46.749
286.14	47.653
286.51	51.107
286.87	46.252
287.24	48.987
287.61	44.621
287.98	49.123
288.35	45.234
288.72	48.336
289.08	45.312
289.45	46.924
289.82	44.930
290.19	45.222
290.56	44.597
290.93	43.266
291.29	39.599
291.66	43.307
292.03	44.019
292.40	43.548
292.77	43.381
293.13	39.123
293.50	40.061
293.87	42.137
294.24	39.722
294.60	40.686
294.97	38.244
295.34	40.184
295.71	38.897
296.08	38.864
296.44	35.846
296.81	40.139
297.18	38.696
297.55	39.702
297.91	37.260
298.28	37.731
298.65	37.720
299.02	36.388
299.38	35.841
299.75	36.276
300.12	34.817
300.48	37.418
300.85	35.234
301.22	35.455
301.59	34.474
301.95	34.684
302.32	36.446
302.69	34.701
303.05	34.653
303.42	34.745
303.79	33.061
304.15	36.081
304.52	32.580
304.89	33.216
305.25	35.472
305.62	33.022
305.99	33.216
306.35	33.410
306.72	34.196
307.09	33.523
307.45	34.328
307.82	32.755
308.19	34.030
308.55	32.497
308.92	34.096
309.29	33.073
309.65	31.862
310.02	33.003
310.38	33.370
310.75	34.098
311.12	31.647
311.48	32.874
311.85	31.623
312.22	31.013
312.58	32.272
312.95	32.017
313.31	32.195
313.68	31.099
314.05	31.735
314.41	32.990
314.78	31.856
315.14	31.346
315.51	31.781
315.87	31.352
316.24	33.468
316.61	31.791
316.97	31.151
317.34	31.836
317.70	31.453
318.07	31.250
318.43	31.961
318.80	30.114
319.16	32.324
319.53	31.624
319.89	31.102
320.26	31.883
320.62	31.695
320.99	31.837
321.35	30.627
321.72	31.256
322.08	30.514
322.45	31.371
322.81	31.729
323.18	31.109
323.54	30.502
323.91	30.672
324.27	31.641
324.64	31.648
325.00	31.478
325.37	31.589
325.73	29.737
326.10	30.609
326.46	30.852
326.83	31.584
327.19	30.340
327.56	31.277
327.92	31.778
328.29	30.536
328.65	31.981
329.01	31.526
329.38	31.429
329.74	30.595
330.11	31.511
330.47	31.169
330.84	29.904
331.20	31.939
331.56	30.556
331.93	30.228
332.29	30.064
332.66	30.226
333.02	30.576
333.38	29.239
333.75	30.952
334.11	28.917
334.48	30.734
334.84	31.319
335.20	29.369
335.57	30.100
335.93	29.991
336.29	29.834
336.66	28.610
337.02	28.625
337.38	29.259
337.75	30.000
338.11	29.937
338.47	30.018
338.84	30.869
339.20	29.616
339.56	29.633
339.93	31.423
340.29	29.817
340.65	30.287
341.02	28.901
341.38	29.823
341.74	28.357
342.11	28.076
342.47	28.826
342.83	30.363
343.20	29.617
343.56	28.783
343.92	29.495
344.28	30.401
344.65	28.670
345.01	28.522
345.37	28.091
345.73	28.619
346.10	27.955
346.46	29.605
346.82	28.723
347.19	27.016
347.55	27.987
347.91	28.398
348.27	28.375
348.63	28.620
349.00	27.892
349.36	27.515
349.72	28.773
350.08	28.607
350.45	27.694
350.81	27.990
351.17	27.687
351.53	28.408
351.89	26.507
352.26	27.200
352.62	28.226
352.98	27.631
353.34	26.490
353.70	28.236
354.07	27.661
354.43	28.263
354.79	27.415
355.15	27.698
355.51	28.006
355.87	27.346
356.24	27.080
356.60	27.648
356.96	26.984
357.32	26.837
357.68	27.209
358.04	27.464
358.40	26.608
358.77	27.352
359.13	26.501
359.49	26.656
359.85	26.677
360.21	26.396
360.57	25.478
360.93	26.551
361.29	26.435
361.66	27.429
362.02	27.348
362.38	26.504
362.74	26.419
363.10	26.787
363.46	26.538
363.82	27.122
364.18	27.306
364.54	26.397
364.90	26.882
365.26	25.691
365.62	26.058
365.98	27.419
366.35	27.531
366.71	27.125
367.07	25.907
367.43	27.103
367.79	26.290
368.15	25.341
368.51	26.948
368.87	24.910
369.23	24.910
369.59	26.603
369.95	26.833
370.31	26.301
370.67	26.343
371.03	25.990
371.39	26.331
371.75	25.495
372.11	25.464
372.47	25.666
372.83	25.905
373.19	25.464
373.55	24.549
373.91	27.214
374.27	26.010
374.63	24.982
374.99	25.745
375.35	25.836
375.71	26.224
376.07	25.702
376.42	25.782
376.78	25.436
377.14	24.577
377.50	25.697
377.86	25.569
378.22	25.016
378.58	25.192
378.94	25.457
379.30	25.016
379.66	25.455
380.02	24.586
380.38	24.650
380.74	24.596
381.09	25.951
381.45	25.138
381.81	25.725
382.17	25.127
382.53	24.797
382.89	25.800
383.25	25.700
383.61	24.695
383.97	25.206
384.32	24.765
384.68	25.077
385.04	24.142
385.40	24.269
385.76	25.849
386.12	25.226
386.48	25.223
386.83	24.477
387.19	24.847
387.55	25.471
387.91	24.511
388.27	24.359
388.62	25.299
388.98	23.818
389.34	25.547
389.70	24.860
390.06	23.726
390.42	25.130
390.77	24.722
391.13	24.338
391.49	24.903
391.85	24.366
392.20	25.424
392.56	24.857
392.92	25.308
393.28	24.882
393.64	24.685
393.99	26.019
394.35	24.605
394.71	24.585
395.07	23.884
395.42	24.165
395.78	24.821
396.14	23.581
396.50	24.477
396.85	24.598
397.21	24.749
397.57	24.577
397.92	24.805
398.28	25.115
398.64	23.976
399.00	25.226
399.35	24.549
399.71	25.445
400.07	24.305
400.42	24.357
400.78	24.985
401.14	24.138
401.49	24.896
401.85	24.619
402.21	25.120
402.57	25.062
402.92	23.275
403.28	24.624
403.63	24.653
403.99	24.043
404.35	24.547
404.70	23.512
405.06	24.501
405.42	24.736
405.77	23.649
406.13	25.146
406.49	24.571
406.84	24.572
407.20	24.925
407.55	23.567
407.91	24.198
408.27	23.709
408.62	24.062
408.98	24.769
409.34	24.907
409.69	24.871
410.05	24.261
410.40	24.074
410.76	24.729
411.11	24.688
411.47	25.115
411.83	24.670
412.18	25.032
412.54	23.845
412.89	23.461
413.25	24.248
413.60	23.789
413.96	24.294
414.31	25.305
414.67	23.861
415.03	24.234
415.38	23.695
415.74	23.453
416.09	25.278
416.45	23.700
416.80	24.455
417.16	24.517
417.51	24.717
417.87	24.250
418.22	24.870
418.58	23.946
418.93	24.577
419.29	24.776
419.64	23.979
420.00	25.000
420.35	23.940
420.71	24.970
421.06	24.862
421.42	24.579
421.77	23.873
422.12	23.042
422.48	23.714
422.83	23.144
423.19	24.605
423.54	23.927
423.90	22.850
424.25	24.282
424.61	24.602
424.96	24.971
425.31	25.650
425.67	25.000
426.02	24.853
426.38	24.671
426.73	24.576
427.09	24.937
427.44	24.471
427.79	24.278
428.15	25.121
428.50	24.409
428.85	24.017
429.21	23.995
429.56	24.367
429.92	25.167
430.27	24.862
430.62	23.994
430.98	24.257
431.33	25.394
431.68	24.071
432.04	24.371
432.39	24.529
432.74	22.790
433.10	24.828
433.45	23.477
433.80	24.724
434.16	24.321
434.51	23.602
434.86	24.274
435.22	25.294
435.57	24.641
435.92	23.593
436.28	23.733
436.63	24.872
436.98	23.696
437.34	23.472
437.69	24.747
438.04	24.501
438.39	23.763
438.75	24.287
439.10	24.788
439.45	24.650
439.81	24.893
440.16	24.941
440.51	25.552
440.86	25.438
441.22	24.038
441.57	23.234
441.92	24.764
442.27	25.000
442.63	25.268
442.98	25.445
443.33	24.040
443.68	24.085
444.03	24.342
444.39	24.299
444.74	24.749
445.09	24.889
445.44	24.558
445.79	24.858
446.15	24.615
446.50	24.626
446.85	24.017
447.20	24.140
447.55	25.056
447.91	24.873
448.26	24.587
448.61	23.777
448.96	25.186
449.31	24.104
449.66	24.971
450.02	23.959
450.37	24.718
450.72	24.685
451.07	25.506
451.42	24.719
451.77	23.749
452.12	23.565
452.47	24.726
452.83	24.558
453.18	24.352
453.53	25.601
453.88	25.015
454.23	24.524
454.58	25.252
454.93	25.064
455.28	24.571
455.63	25.356
455.98	24.714
456.34	25.415
456.69	24.651
457.04	25.457
457.39	24.241
457.74	25.030
458.09	23.720
458.44	24.576
458.79	24.482
459.14	25.343
459.49	25.373
459.84	24.478
460.19	25.303
460.54	24.878
460.89	25.000
461.24	25.280
461.59	23.931
461.94	24.780
462.29	25.935
462.64	24.983
462.99	25.457
463.34	24.757
463.69	25.290
464.04	24.516
464.39	25.167
464.74	24.724
465.09	25.078
465.44	25.736
465.79	24.263
466.14	24.629
466.49	24.842
466.84	24.390
467.19	24.781
467.54	24.904
467.89	24.258
468.24	24.878
468.59	24.889
468.94	25.587
469.29	25.705
469.64	25.017
469.99	26.139
470.34	23.481
470.68	25.876
471.03	25.619
471.38	25.749
471.73	24.440
472.08	24.966
472.43	24.228
472.78	24.606
473.13	25.442
473.48	25.147
473.83	24.408
474.17	25.324
474.52	25.718
474.87	24.424
475.22	24.893
475.57	25.353
475.92	25.453
476.27	25.262
476.61	25.926
476.96	24.819
477.31	25.203
477.66	25.169
478.01	24.593
478.36	24.837
478.70	26.264
479.05	25.659
479.40	25.384
479.75	24.713
480.10	25.090
480.45	25.000
480.79	25.982
481.14	25.973
481.49	24.483
481.84	24.903
482.19	25.070
482.53	25.372
482.88	25.251
483.23	25.384
483.58	25.283
483.92	24.831
484.27	24.430
484.62	25.056
484.97	24.959
485.31	24.458
485.66	23.831
486.01	24.042
486.36	24.120
486.70	24.613
487.05	24.548
487.40	25.103
487.75	24.648
488.09	24.753
488.44	24.794
488.79	25.327
489.13	25.481
489.48	25.267
489.83	25.112
490.17	25.213
490.52	25.219
490.87	25.035
491.22	25.883
491.56	25.427
491.91	25.287
492.26	25.377
492.60	24.712
492.95	26.365
493.30	25.208
493.64	25.442
493.99	25.169
494.34	25.631
494.68	25.667
495.03	25.012
495.37	25.417
495.72	25.088
496.07	25.561
496.41	25.519
496.76	25.288
497.11	24.173
497.45	25.107
497.80	26.236
498.14	24.988
498.49	24.784
498.84	23.952
499.18	25.351
499.53	25.893
499.87	25.146
500.22	25.569
500.56	25.315
500.91	25.301
501.26	25.062
501.60	25.234
501.95	25.619
502.29	25.375
502.64	25.097
502.98	25.259
503.33	25.168
503.67	25.012
504.02	25.660
504.36	26.027
504.71	25.556
505.06	25.466
505.40	25.127
505.75	26.340
506.09	25.748
506.44	26.591
506.78	25.663
507.13	26.267
507.47	25.274
507.82	24.733
508.16	26.096
508.51	25.708
508.85	25.641
509.19	26.557
509.54	25.469
509.88	24.380
510.23	26.251
510.57	25.387
510.92	24.574
511.26	26.132
511.61	26.348
511.95	25.863
512.30	24.945
512.64	26.489
512.98	25.772
513.33	26.413
513.67	26.094
514.02	27.346
514.36	26.629
514.70	26.865
515.05	27.321
515.39	26.151
515.74	26.287
516.08	26.479
516.42	27.091
516.77	27.501
517.11	26.528
517.46	27.289
517.80	26.996
518.14	26.699
518.49	26.502
518.83	26.306
519.17	26.137
519.52	26.643
519.86	25.750
520.20	27.278
520.55	25.266
520.89	26.349
521.23	26.726
521.58	26.814
521.92	26.795
522.26	26.350
522.61	26.623
522.95	27.682
523.29	26.874
523.64	26.874
523.98	27.025
524.32	26.740
524.66	26.569
525.01	27.597
525.35	27.090
525.69	26.936
526.04	25.926
526.38	27.367
526.72	25.376
527.06	26.265
527.41	27.111
527.75	26.273
528.09	26.645
528.43	28.022
528.78	26.733
529.12	27.032
529.46	26.966
529.80	27.296
530.15	27.525
530.49	27.138
530.83	26.607
531.17	26.729
531.51	26.881
531.86	26.445
532.20	27.070
532.54	27.366
532.88	27.036
533.22	26.882
533.57	27.720
533.91	26.371
534.25	26.823
534.59	26.620
534.93	26.746
535.27	25.698
535.62	26.701
535.96	26.745
536.30	26.649
536.64	26.809
536.98	27.108
537.32	27.312
537.66	27.209
538.01	27.483
538.35	26.144
538.69	26.165
539.03	26.452
539.37	27.456
539.71	27.812
540.05	26.680
540.39	26.731
540.73	27.545
541.07	27.348
541.42	26.949
541.76	26.566
542.10	27.529
542.44	26.894
542.78	26.635
543.12	26.168
543.46	25.313
543.80	27.273
544.14	26.569
544.48	27.115
544.82	27.136
545.16	27.049
545.50	27.236
545.84	27.337
546.18	27.872
546.52	28.262
546.86	27.103
547.20	27.754
547.54	27.774
547.88	27.582
548.22	26.101
548.56	25.792
548.90	27.156
549.24	25.826
549.58	27.504
549.92	26.376
550.26	26.667
550.60	26.914
550.94	27.633
551.28	27.202
551.62	27.769
551.96	27.143
552.30	27.266
552.64	26.798
552.98	27.145
553.32	26.248
553.66	25.762
554.00	27.445
554.34	26.809
554.68	27.802
555.02	27.455
555.36	26.328
555.69	26.374
556.03	25.981
556.37	26.477
556.71	27.365
557.05	26.995
557.39	26.840
557.73	28.036
558.07	26.923
558.41	26.646
558.75	27.358
559.08	25.926
559.42	26.905
559.76	28.183
560.10	26.529
560.44	27.103
560.78	26.713
561.12	27.786
561.45	27.618
561.79	27.031
562.13	27.182
562.47	26.763
562.81	27.089
563.15	27.010
563.48	26.662
563.82	27.316
564.16	26.393
564.50	26.689
564.84	27.242
565.17	26.559
565.51	27.937
565.85	27.023
566.19	26.857
566.52	27.614
566.86	27.378
567.20	26.650
567.54	26.886
567.88	27.592
568.21	27.319
568.55	27.174
568.89	26.591
569.23	25.999
569.56	26.445
569.90	26.269
570.24	25.344
570.57	26.509
570.91	26.211
571.25	25.025
571.59	24.727
571.92	25.037
572.26	25.242
572.60	25.333
572.93	25.698
573.27	25.329
573.61	25.298
573.95	25.287
574.28	25.318
574.62	24.587
574.96	24.882
575.29	24.331
575.63	24.670
575.97	25.102
576.30	24.881
576.64	24.980
576.98	25.251
577.31	24.871
577.65	25.046
577.98	24.937
578.32	25.068
578.66	24.393
578.99	24.544
579.33	24.282
579.67	24.426
580.00	25.038
580.34	24.776
580.67	24.580
581.01	25.168
581.35	24.569
581.68	24.562
582.02	24.995
582.35	24.420
582.69	24.815
583.02	24.952
583.36	24.627
583.70	25.260
584.03	24.687
584.37	25.551
584.70	24.973
585.04	24.508
585.37	24.496
585.71	24.216
586.04	24.685
586.38	24.727
586.72	24.706
587.05	25.477
587.39	25.133
587.72	26.025
588.06	25.048
588.39	25.206
588.73	24.725
589.06	25.179
589.40	25.406
589.73	25.046
590.07	26.095
590.40	25.271
590.73	25.906
591.07	25.869
591.40	25.557
591.74	25.792
592.07	26.299
592.41	25.928
592.74	24.930
593.08	24.729
593.41	25.700
593.75	24.730
594.08	24.717
594.41	25.473
594.75	24.885
595.08	25.161
595.42	25.580
595.75	25.235
596.09	25.371
596.42	26.002
596.75	25.400
597.09	24.920
597.42	25.429
597.75	25.836
598.09	25.260
598.42	24.865
598.76	24.796
599.09	24.599
599.42	24.934
599.76	25.245
600.09	24.585
600.42	25.246
600.76	24.034
601.09	24.542
601.42	25.108
601.76	24.732
602.09	24.587
602.42	25.653
602.76	24.958
603.09	24.751
603.42	26.129
603.76	25.645
604.09	25.111
604.42	24.831
604.76	25.189
605.09	25.000
605.42	25.147
605.75	24.694
606.09	24.586
606.42	25.730
606.75	25.541
607.09	25.846
607.42	24.457
607.75	25.755
608.08	24.438
608.42	25.171
608.75	25.639
609.08	25.411
609.41	25.736
609.75	24.244
610.08	25.412
610.41	24.976
610.74	25.890
611.07	26.047
611.41	25.532
611.74	26.706
612.07	25.268
612.40	25.438
612.73	25.424
613.07	25.478
613.40	25.656
613.73	26.357
614.06	25.153
614.39	26.114
614.72	25.938
615.06	25.698
615.39	25.382
615.72	24.758
616.05	26.034
616.38	25.185
616.71	26.483
617.05	25.942
617.38	25.833
617.71	25.597
618.04	26.540
618.37	25.914
618.70	26.205
619.03	27.917
619.36	26.122
619.69	27.066
620.03	27.392
620.36	26.252
620.69	26.838
621.02	26.682
621.35	27.137
621.68	26.531
622.01	26.833
622.34	26.496
622.67	27.208
623.00	25.727
623.33	26.067
623.66	25.505
623.99	25.946
624.32	26.312
624.65	27.068
624.99	25.056
625.32	25.398
625.65	26.237
625.98	26.672
626.31	27.099
626.64	28.076
626.97	27.487
627.30	27.671
627.63	27.383
627.96	26.954
628.29	27.012
628.62	27.335
628.95	27.455
629.28	27.823
629.61	26.919
629.94	26.784
630.26	27.964
630.59	27.055
630.92	28.000
631.25	27.692
631.58	27.423
631.91	26.206
632.24	27.523
632.57	27.500
632.90	26.216
