SpectraSuite Data File
++++++++++++++++++++++++++++++++++++
Date: Fri May 15 20:59:35 PDT 2015
User: schluterlab
Dark Spectrum Present: Yes
Reference Spectrum Present: Yes
Number of Sampled Component Spectra: 1
Spectrometers: USB2E3373
Integration Time (usec): 3000 (USB2E3373)
Spectra Averaged: 3 (USB2E3373)
Boxcar Smoothing: 0 (USB2E3373)
Correct for Electrical Dark: No (USB2E3373)
Strobe/Lamp Enabled: No (USB2E3373)
Correct for Detector Non-linearity: No (USB2E3373)
Correct for Stray Light: No (USB2E3373)
Number of Pixels in Processed Spectrum: 2048
>>>>>Begin Processed Spectral Data<<<<<
178.53	0.000
178.91	0.000
179.29	62.500
179.67	-250.000
180.04	-0.000
180.42	25.000
180.80	-1100.000
181.18	266.667
181.56	350.000
181.94	-300.000
182.31	800.000
182.69	-160.000
183.07	-133.333
183.45	-40.000
183.83	83.333
184.20	-18.182
184.58	144.444
184.96	50.000
185.34	33.333
185.72	0.000
186.09	115.385
186.47	-700.000
186.85	183.333
187.23	122.222
187.61	600.000
187.98	-133.333
188.36	22.222
188.74	-133.333
189.12	41.176
189.49	-22.222
189.87	0.000
190.25	14.286
190.63	0.000
191.00	-233.333
191.38	42.105
191.76	-550.000
192.14	175.000
192.51	450.000
192.89	-88.889
193.27	-185.714
193.65	66.667
194.02	81.818
194.40	-20.000
194.78	-137.500
195.15	-25.000
195.53	-137.500
195.91	575.000
196.29	-200.000
196.66	69.231
197.04	200.000
197.42	-88.889
197.79	-466.667
198.17	-107.692
198.55	1700.000
198.92	-433.333
199.30	300.000
199.68	-120.000
200.05	-300.000
200.43	0.000
200.81	-200.000
201.18	-300.000
201.56	1000.000
201.94	-400.000
202.31	200.000
202.69	0.000
203.07	350.000
203.44	0.000
203.82	0.000
204.19	-21.429
204.57	-566.667
204.95	75.000
205.32	-30.000
205.70	28.571
206.08	-125.000
206.45	100.000
206.83	21.429
207.20	-185.714
207.58	400.000
207.96	-466.667
208.33	-140.000
208.71	-150.000
209.08	-200.000
209.46	-1700.000
209.84	-40.000
210.21	-300.000
210.59	-100.000
210.96	-66.667
211.34	50.000
211.71	33.333
212.09	-42.857
212.46	-1900.000
212.84	0.000
213.22	110.000
213.59	450.000
213.97	23.077
214.34	36.364
214.72	-150.000
215.09	375.000
215.47	23.077
215.84	-90.909
216.22	0.000
216.59	-62.500
216.97	-300.000
217.34	-375.000
217.72	-280.000
218.09	87.500
218.47	225.000
218.84	-400.000
219.22	-22.222
219.59	-220.000
219.97	433.333
220.34	200.000
220.72	-28.571
221.09	25.000
221.47	-100.000
221.84	-200.000
222.22	-350.000
222.59	63.636
222.97	33.333
223.34	-200.000
223.72	-7.143
224.09	9.524
224.46	17.857
224.84	700.000
225.21	-80.000
225.59	13.333
225.96	-450.000
226.34	400.000
226.71	-142.857
227.08	-133.333
227.46	-25.000
227.83	-1050.000
228.21	0.000
228.58	-54.545
228.95	-50.000
229.33	70.000
229.70	62.500
230.08	-50.000
230.45	-100.000
230.82	-57.143
231.20	-66.667
231.57	21.429
231.95	14.286
232.32	-110.000
232.69	-14.286
233.07	200.000
233.44	-120.000
233.81	-110.000
234.19	22.222
234.56	-11.765
234.93	600.000
235.31	100.000
235.68	-260.000
236.05	-100.000
236.43	20.000
236.80	47.059
237.17	31.250
237.55	-10.000
237.92	3.704
238.29	11.111
238.67	40.000
239.04	2.941
239.41	-2.439
239.79	-33.333
240.16	21.951
240.53	-13.158
240.91	0.000
241.28	33.333
241.65	32.143
242.02	16.438
242.40	13.333
242.77	20.339
243.14	3.030
243.51	20.000
243.89	33.333
244.26	19.540
244.63	15.476
245.00	18.557
245.38	29.897
245.75	12.360
246.12	10.345
246.49	23.140
246.87	26.923
247.24	19.328
247.61	4.386
247.98	24.390
248.36	15.000
248.73	23.026
249.10	19.481
249.47	20.886
249.84	15.686
250.22	16.471
250.59	24.183
250.96	24.883
251.33	18.605
251.70	21.765
252.08	19.289
252.45	17.822
252.82	23.116
253.19	21.659
253.56	17.757
253.94	18.919
254.31	20.435
254.68	28.509
255.05	21.260
255.42	21.397
255.79	18.533
256.16	25.681
256.54	22.015
256.91	22.814
257.28	20.074
257.65	22.097
258.02	23.404
258.39	20.875
258.76	22.711
259.14	22.924
259.51	21.359
259.88	23.711
260.25	17.974
260.62	20.486
260.99	17.966
261.36	21.575
261.73	19.620
262.10	17.325
262.47	24.540
262.85	23.824
263.22	18.769
263.59	23.988
263.96	26.398
264.33	23.636
264.70	20.536
265.07	23.214
265.44	23.513
265.81	22.316
266.18	22.131
266.55	23.393
266.92	22.280
267.29	23.238
267.66	24.041
268.03	20.157
268.40	20.104
268.77	25.668
269.14	23.022
269.51	25.964
269.88	21.945
270.25	18.622
270.62	20.244
270.99	20.205
271.36	19.560
271.73	23.709
272.10	21.411
272.47	20.567
272.84	23.267
273.21	22.274
273.58	22.169
273.95	22.197
274.32	17.321
274.69	18.100
275.06	23.438
275.43	21.542
275.80	22.737
276.17	18.851
276.54	22.270
276.91	22.588
277.28	19.651
277.65	22.314
278.02	21.489
278.39	22.101
278.76	19.916
279.13	20.124
279.50	22.479
279.87	21.382
280.23	19.140
280.60	23.977
280.97	22.222
281.34	22.115
281.71	21.766
282.08	19.018
282.45	19.569
282.82	18.726
283.19	20.503
283.56	21.195
283.92	20.683
284.29	20.000
284.66	18.798
285.03	20.432
285.40	20.038
285.77	18.453
286.14	17.870
286.51	22.140
286.87	19.744
287.24	21.915
287.61	16.402
287.98	20.526
288.35	21.317
288.72	20.490
289.08	18.924
289.45	20.914
289.82	18.881
290.19	18.430
290.56	15.952
290.93	19.360
291.29	17.411
291.66	18.268
292.03	18.820
292.40	17.581
292.77	16.746
293.13	15.097
293.50	16.388
293.87	18.321
294.24	18.856
294.60	16.841
294.97	16.667
295.34	17.025
295.71	18.033
296.08	15.396
296.44	15.647
296.81	16.944
297.18	17.101
297.55	19.106
297.91	16.712
298.28	18.074
298.65	16.418
299.02	16.307
299.38	13.269
299.75	18.207
300.12	13.613
300.48	14.625
300.85	15.463
301.22	16.753
301.59	13.816
301.95	15.443
302.32	15.045
302.69	14.925
303.05	14.356
303.42	14.446
303.79	14.369
304.15	15.173
304.52	13.436
304.89	13.918
305.25	13.559
305.62	14.236
305.99	15.088
306.35	15.145
306.72	14.286
307.09	15.849
307.45	16.303
307.82	15.625
308.19	15.331
308.55	14.940
308.92	15.577
309.29	13.184
309.65	14.316
310.02	15.402
310.38	15.258
310.75	17.923
311.12	15.931
311.48	15.695
311.85	14.974
312.22	15.506
312.58	16.030
312.95	15.688
313.31	14.803
313.68	15.916
314.05	15.306
314.41	15.773
314.78	15.258
315.14	17.677
315.51	16.770
315.87	16.189
316.24	16.987
316.61	17.028
316.97	17.063
317.34	16.699
317.70	17.878
318.07	17.981
318.43	17.549
318.80	18.182
319.16	19.043
319.53	19.943
319.89	19.193
320.26	20.445
320.62	21.163
320.99	19.833
321.35	20.555
321.72	20.353
322.08	22.659
322.45	22.234
322.81	23.084
323.18	23.062
323.54	23.745
323.91	23.466
324.27	24.805
324.64	25.468
325.00	25.547
325.37	26.630
325.73	25.023
326.10	26.431
326.46	27.265
326.83	27.384
327.19	27.637
327.56	28.931
327.92	29.842
328.29	28.125
328.65	29.811
329.01	31.250
329.38	29.677
329.74	29.462
330.11	30.677
330.47	30.705
330.84	31.923
331.20	34.030
331.56	30.926
331.93	31.963
332.29	32.447
332.66	32.489
333.02	32.621
333.38	32.081
333.75	32.692
334.11	32.945
334.48	33.636
334.84	32.784
335.20	32.296
335.57	32.185
335.93	32.611
336.29	33.241
336.66	33.697
337.02	32.807
337.38	33.611
337.75	34.000
338.11	34.085
338.47	34.672
338.84	34.196
339.20	34.735
339.56	34.679
339.93	35.363
340.29	33.486
340.65	33.513
341.02	35.018
341.38	35.044
341.74	33.127
342.11	33.709
342.47	34.609
342.83	34.170
343.20	34.059
343.56	34.087
343.92	34.544
344.28	34.757
344.65	33.851
345.01	33.794
345.37	33.726
345.73	35.565
346.10	35.893
346.46	35.071
346.82	33.879
347.19	33.001
347.55	33.584
347.91	35.599
348.27	34.923
348.63	35.690
349.00	35.193
349.36	35.411
349.72	36.153
350.08	35.082
350.45	35.116
350.81	33.721
351.17	34.609
351.53	35.265
351.89	34.600
352.26	35.360
352.62	35.484
352.98	35.100
353.34	35.668
353.70	35.599
354.07	34.516
354.43	34.988
354.79	35.838
355.15	36.429
355.51	35.601
355.87	36.408
356.24	35.563
356.60	35.893
356.96	36.746
357.32	36.102
357.68	35.418
358.04	35.622
358.40	34.887
358.77	36.443
359.13	36.829
359.49	36.210
359.85	36.349
360.21	36.683
360.57	35.501
360.93	36.536
361.29	35.725
361.66	37.147
362.02	36.894
362.38	36.329
362.74	37.396
363.10	36.870
363.46	37.509
363.82	38.092
364.18	36.974
364.54	36.103
364.90	37.133
365.26	37.409
365.62	39.489
365.98	38.783
366.35	38.529
366.71	38.729
367.07	37.155
367.43	36.664
367.79	38.375
368.15	38.693
368.51	37.436
368.87	38.981
369.23	37.329
369.59	37.755
369.95	39.589
370.31	38.584
370.67	39.851
371.03	38.013
371.39	38.950
371.75	38.608
372.11	38.445
372.47	40.237
372.83	39.957
373.19	39.372
373.55	38.773
373.91	38.517
374.27	40.609
374.63	39.914
374.99	39.362
375.35	39.624
375.71	40.559
376.07	39.958
376.42	40.136
376.78	39.799
377.14	40.081
377.50	40.571
377.86	41.432
378.22	40.587
378.58	40.321
378.94	40.265
379.30	40.299
379.66	40.627
380.02	39.975
380.38	40.840
380.74	40.814
381.09	42.393
381.45	41.468
381.81	41.641
382.17	40.673
382.53	41.224
382.89	41.871
383.25	42.377
383.61	43.049
383.97	42.794
384.32	41.839
384.68	40.743
385.04	42.525
385.40	41.319
385.76	44.277
386.12	42.044
386.48	43.742
386.83	43.564
387.19	42.796
387.55	44.605
387.91	43.215
388.27	41.514
388.62	43.675
388.98	42.971
389.34	43.161
389.70	45.805
390.06	43.298
390.42	44.560
390.77	44.277
391.13	43.001
391.49	44.631
391.85	44.769
392.20	43.754
392.56	44.628
392.92	44.157
393.28	43.750
393.64	43.483
393.99	45.141
394.35	44.655
394.71	45.977
395.07	42.992
395.42	44.019
395.78	45.277
396.14	44.515
396.50	45.593
396.85	45.718
397.21	45.175
397.57	45.893
397.92	45.536
398.28	45.460
398.64	45.422
399.00	45.598
399.35	44.244
399.71	45.434
400.07	46.735
400.42	45.532
400.78	46.663
401.14	45.917
401.49	44.729
401.85	45.399
402.21	46.265
402.57	47.312
402.92	45.609
403.28	47.180
403.63	47.289
403.99	47.768
404.35	46.533
404.70	45.774
405.06	46.357
405.42	46.489
405.77	45.904
406.13	45.634
406.49	46.832
406.84	47.127
407.20	48.525
407.55	46.362
407.91	46.524
408.27	46.654
408.62	47.138
408.98	47.628
409.34	46.902
409.69	46.641
410.05	46.983
410.40	47.099
410.76	47.768
411.11	47.875
411.47	48.323
411.83	46.453
412.18	48.069
412.54	47.378
412.89	46.552
413.25	48.977
413.60	47.888
413.96	47.178
414.31	48.415
414.67	47.338
415.03	48.136
415.38	47.193
415.74	48.143
416.09	50.033
416.45	48.886
416.80	48.116
417.16	48.481
417.51	49.234
417.87	49.218
418.22	48.640
418.58	49.164
418.93	49.781
419.29	47.567
419.64	50.227
420.00	50.504
420.35	48.478
420.71	49.271
421.06	49.662
421.42	49.519
421.77	49.249
422.12	48.695
422.48	49.377
422.83	49.884
423.19	50.000
423.54	50.558
423.90	50.000
424.25	50.344
424.61	50.428
424.96	49.303
425.31	51.069
425.67	50.998
426.02	51.826
426.38	52.724
426.73	50.424
427.09	52.278
427.44	52.118
427.79	51.974
428.15	51.456
428.50	51.181
428.85	51.290
429.21	51.047
429.56	52.183
429.92	50.539
430.27	50.927
430.62	50.078
430.98	50.743
431.33	50.315
431.68	51.910
432.04	52.935
432.39	51.226
432.74	50.992
433.10	53.908
433.45	51.792
433.80	52.293
434.16	51.856
434.51	52.312
434.86	52.439
435.22	52.776
435.57	52.339
435.92	52.994
436.28	51.878
436.63	52.995
436.98	52.607
437.34	52.571
437.69	53.369
438.04	52.877
438.39	52.352
438.75	54.281
439.10	53.254
439.45	52.708
439.81	52.355
440.16	54.513
440.51	54.507
440.86	56.193
441.22	53.450
441.57	53.808
441.92	54.722
442.27	54.989
442.63	54.818
442.98	53.475
443.33	53.589
443.68	53.103
444.03	53.403
444.39	54.501
444.74	55.463
445.09	54.232
445.44	55.783
445.79	56.215
446.15	55.066
446.50	53.910
446.85	55.526
447.20	54.588
447.55	56.473
447.91	55.104
448.26	56.517
448.61	55.383
448.96	55.995
449.31	53.873
449.66	54.820
450.02	54.421
450.37	56.491
450.72	54.181
451.07	55.759
451.42	55.993
451.77	54.551
452.12	55.084
452.47	55.827
452.83	55.006
453.18	56.040
453.53	57.016
453.88	57.256
454.23	57.837
454.58	57.242
454.93	55.606
455.28	54.286
455.63	56.789
455.98	55.983
456.34	56.705
456.69	55.909
457.04	56.144
457.39	56.075
457.74	56.046
458.09	56.386
458.44	55.120
458.79	56.471
459.14	56.751
459.49	56.179
459.84	54.653
460.19	56.371
460.54	56.907
460.89	56.420
461.24	57.329
461.59	56.710
461.94	57.170
462.29	57.841
462.64	57.741
462.99	56.330
463.34	55.841
463.69	56.885
464.04	56.719
464.39	56.580
464.74	55.583
465.09	56.581
465.44	56.780
465.79	54.705
466.14	56.385
466.49	55.089
466.84	56.217
467.19	57.009
467.54	54.917
467.89	56.096
468.24	56.934
468.59	56.571
468.94	55.746
469.29	56.000
469.64	57.280
469.99	58.584
470.34	56.928
470.68	58.986
471.03	56.829
471.38	58.845
471.73	56.723
472.08	57.056
472.43	56.913
472.78	56.614
473.13	57.483
473.48	56.743
473.83	56.663
474.17	57.578
474.52	56.222
474.87	58.121
475.22	56.498
475.57	56.522
475.92	57.268
476.27	57.043
476.61	58.102
476.96	56.553
477.31	57.869
477.66	57.697
478.01	57.440
478.36	56.699
478.70	58.021
479.05	57.912
479.40	56.121
479.75	56.465
480.10	56.631
480.45	56.150
480.79	58.056
481.14	57.992
481.49	56.453
481.84	57.481
482.19	56.548
482.53	56.595
482.88	57.184
483.23	56.814
483.58	56.604
483.92	56.825
484.27	56.062
484.62	56.880
484.97	56.260
485.31	54.444
485.66	52.364
486.01	52.308
486.36	53.013
486.70	54.360
487.05	55.595
487.40	55.636
487.75	56.169
488.09	56.428
488.44	56.637
488.79	57.714
489.13	56.971
489.48	56.947
489.83	56.502
490.17	55.955
490.52	57.644
490.87	56.733
491.22	56.304
491.56	56.546
491.91	56.262
492.26	57.511
492.60	57.150
492.95	56.862
493.30	56.619
493.64	57.613
493.99	57.005
494.34	57.621
494.68	57.095
495.03	57.421
495.37	57.311
495.72	57.294
496.07	57.415
496.41	57.123
496.76	57.117
497.11	55.706
497.45	57.661
497.80	57.972
498.14	56.930
498.49	57.339
498.84	57.285
499.18	57.831
499.53	56.994
499.87	56.663
500.22	56.182
500.56	57.136
500.91	56.777
501.26	55.858
501.60	55.927
501.95	56.817
502.29	56.852
502.64	57.143
502.98	58.017
503.33	57.157
503.67	56.723
504.02	56.403
504.36	57.447
504.71	56.818
505.06	56.819
505.40	56.447
505.75	57.732
506.09	57.020
506.44	57.238
506.78	57.245
507.13	57.756
507.47	55.614
507.82	56.197
508.16	58.003
508.51	56.506
508.85	57.980
509.19	57.371
509.54	57.105
509.88	56.311
510.23	57.665
510.57	56.921
510.92	55.384
511.26	57.065
511.61	58.306
511.95	57.589
512.30	57.206
512.64	58.208
512.98	57.552
513.33	58.030
513.67	56.396
514.02	58.696
514.36	57.886
514.70	57.925
515.05	59.577
515.39	57.910
515.74	59.401
516.08	57.262
516.42	57.951
516.77	57.929
517.11	57.982
517.46	58.887
517.80	58.820
518.14	58.236
518.49	57.212
518.83	57.837
519.17	57.065
519.52	57.490
519.86	58.223
520.20	57.959
520.55	58.537
520.89	58.783
521.23	58.518
521.58	59.937
521.92	59.679
522.26	59.466
522.61	58.247
522.95	60.530
523.29	59.022
523.64	58.831
523.98	58.134
524.32	58.892
524.66	58.259
525.01	59.481
525.35	58.393
525.69	59.529
526.04	59.524
526.38	58.690
526.72	57.031
527.06	57.912
527.41	59.499
527.75	59.316
528.09	58.405
528.43	60.365
528.78	58.152
529.12	58.065
529.46	57.830
529.80	57.441
530.15	58.944
530.49	58.316
530.83	58.687
531.17	58.026
531.51	58.482
531.86	58.600
532.20	58.316
532.54	58.339
532.88	57.426
533.22	59.005
533.57	57.536
533.91	57.572
534.25	57.357
534.59	57.280
534.93	56.388
535.27	57.107
535.62	57.745
535.96	57.795
536.30	57.124
536.64	57.271
536.98	57.213
537.32	59.744
537.66	58.275
538.01	58.322
538.35	56.519
538.69	56.325
539.03	57.211
539.37	57.873
539.71	57.532
540.05	55.940
540.39	58.033
540.73	58.787
541.07	57.873
541.42	57.460
541.76	58.844
542.10	58.156
542.44	56.567
542.78	56.366
543.12	55.769
543.46	57.232
543.80	56.974
544.14	54.206
544.48	57.295
544.82	57.690
545.16	57.240
545.50	55.741
545.84	58.144
546.18	56.170
546.52	58.039
546.86	57.081
547.20	57.868
547.54	56.184
547.88	55.095
548.22	55.950
548.56	55.541
548.90	57.278
549.24	54.614
549.58	56.065
549.92	56.540
550.26	56.777
550.60	58.513
550.94	57.431
551.28	57.110
551.62	57.538
551.96	56.241
552.30	55.702
552.64	55.501
552.98	56.259
553.32	55.849
553.66	55.443
554.00	57.153
554.34	55.465
554.68	56.342
555.02	56.622
555.36	56.395
555.69	56.044
556.03	54.747
556.37	55.587
556.71	56.101
557.05	56.450
557.39	54.944
557.73	55.397
558.07	57.692
558.41	57.504
558.75	55.339
559.08	55.477
559.42	56.587
559.76	56.205
560.10	55.275
560.44	54.803
560.78	54.825
561.12	54.231
561.45	55.727
561.79	55.462
562.13	55.075
562.47	56.259
562.81	55.043
563.15	54.372
563.48	54.880
563.82	54.564
564.16	55.501
564.50	53.851
564.84	53.548
565.17	54.460
565.51	55.601
565.85	54.870
566.19	54.841
566.52	53.686
566.86	55.141
567.20	53.487
567.54	54.866
567.88	54.013
568.21	54.638
568.55	52.663
568.89	52.977
569.23	52.865
569.56	51.138
569.90	51.360
570.24	50.167
570.57	51.200
570.91	50.052
571.25	48.931
571.59	48.988
571.92	48.119
572.26	48.551
572.60	48.124
572.93	49.012
573.27	48.621
573.61	48.717
573.95	48.908
574.28	48.226
574.62	47.496
574.96	47.345
575.29	47.198
575.63	47.188
575.97	47.818
576.30	48.383
576.64	47.444
576.98	48.031
577.31	47.776
577.65	47.362
577.98	46.703
578.32	46.507
578.66	46.851
578.99	46.701
579.33	47.315
579.67	47.388
580.00	47.342
580.34	47.836
580.67	47.107
581.01	47.382
581.35	46.727
581.68	45.503
582.02	45.605
582.35	46.667
582.69	46.163
583.02	46.529
583.36	47.741
583.70	48.313
584.03	49.013
584.37	49.012
584.70	47.637
585.04	46.736
585.37	46.683
585.71	46.927
586.04	46.420
586.38	46.732
586.72	46.944
587.05	47.083
587.39	47.666
587.72	47.376
588.06	47.634
588.39	46.426
588.73	46.947
589.06	47.815
589.40	47.805
589.73	47.499
590.07	48.867
590.40	48.529
590.73	48.929
591.07	48.516
591.40	48.397
591.74	49.186
592.07	49.629
592.41	47.924
592.74	46.635
593.08	45.093
593.41	46.359
593.75	45.535
594.08	45.280
594.41	46.434
594.75	46.641
595.08	47.333
595.42	46.448
595.75	47.390
596.09	47.381
596.42	47.375
596.75	47.869
597.09	47.380
597.42	47.561
597.75	46.633
598.09	46.492
598.42	46.390
598.76	45.903
599.09	45.433
599.42	44.562
599.76	44.582
600.09	44.759
600.42	45.527
600.76	45.059
601.09	45.191
601.42	46.181
601.76	46.209
602.09	46.782
602.42	46.925
602.76	46.350
603.09	46.387
603.42	46.614
603.76	44.960
604.09	45.565
604.42	45.685
604.76	47.219
605.09	45.795
605.42	45.734
605.75	45.665
606.09	45.563
606.42	44.537
606.75	44.935
607.09	45.143
607.42	45.016
607.75	45.027
608.08	44.250
608.42	45.500
608.75	46.602
609.08	45.590
609.41	46.904
609.75	46.573
610.08	45.432
610.41	44.686
610.74	44.807
611.07	46.615
611.41	46.238
611.74	46.855
612.07	45.878
612.40	47.046
612.73	46.610
613.07	45.332
613.40	46.389
613.73	45.663
614.06	46.466
614.39	45.685
614.72	44.482
615.06	44.190
615.39	44.924
615.72	44.833
616.05	44.525
616.38	43.875
616.71	45.260
617.05	45.522
617.38	46.826
617.71	45.849
618.04	46.540
618.37	47.415
618.70	46.139
619.03	46.042
619.36	46.382
619.69	48.218
620.03	47.699
620.36	47.139
620.69	45.896
621.02	45.719
621.35	48.050
621.68	48.129
622.01	47.750
622.34	45.890
622.67	47.003
623.00	46.095
623.33	44.893
623.66	44.428
623.99	45.688
624.32	45.247
624.65	45.940
624.99	46.275
625.32	44.428
625.65	46.740
625.98	46.737
626.31	44.971
626.64	46.360
626.97	48.080
627.30	46.235
627.63	46.187
627.96	47.260
628.29	46.809
628.62	47.001
628.95	46.593
629.28	47.077
629.61	46.062
629.94	46.530
630.26	47.036
630.59	50.052
630.92	46.872
631.25	45.026
631.58	49.229
631.91	47.588
632.24	46.445
632.57	48.636
632.90	48.399
633.23	48.353
