SpectraSuite Data File
++++++++++++++++++++++++++++++++++++
Date: Fri May 15 20:57:03 PDT 2015
User: schluterlab
Dark Spectrum Present: Yes
Reference Spectrum Present: Yes
Number of Sampled Component Spectra: 1
Spectrometers: USB2E3373
Integration Time (usec): 3000 (USB2E3373)
Spectra Averaged: 3 (USB2E3373)
Boxcar Smoothing: 0 (USB2E3373)
Correct for Electrical Dark: No (USB2E3373)
Strobe/Lamp Enabled: No (USB2E3373)
Correct for Detector Non-linearity: No (USB2E3373)
Correct for Stray Light: No (USB2E3373)
Number of Pixels in Processed Spectrum: 2048
>>>>>Begin Processed Spectral Data<<<<<
178.53	0.000
178.91	0.000
179.29	112.500
179.67	-600.000
180.04	42.857
180.42	0.000
180.80	-100.000
181.18	-66.667
181.56	500.000
181.94	-150.000
182.31	200.000
182.69	60.000
183.07	-533.333
183.45	-80.000
183.83	133.333
184.20	-45.455
184.58	155.556
184.96	-25.000
185.34	266.667
185.72	-600.000
186.09	107.692
186.47	-1100.000
186.85	100.000
187.23	122.222
187.61	-200.000
187.98	-66.667
188.36	-22.222
188.74	33.333
189.12	23.529
189.49	16.667
189.87	0.000
190.25	85.714
190.63	-100.000
191.00	-400.000
191.38	-47.368
191.76	750.000
192.14	100.000
192.51	-200.000
192.89	-55.556
193.27	-71.429
193.65	50.000
194.02	227.273
194.40	40.000
194.78	-75.000
195.15	33.333
195.53	-12.500
195.91	125.000
196.29	-225.000
196.66	92.308
197.04	185.714
197.42	-88.889
197.79	-433.333
198.17	-107.692
198.55	1000.000
198.92	-133.333
199.30	500.000
199.68	-240.000
200.05	-133.333
200.43	0.000
200.81	-33.333
201.18	0.000
201.56	1300.000
201.94	-300.000
202.31	-0.000
202.69	-40.000
203.07	200.000
203.44	300.000
203.82	0.000
204.19	71.429
204.57	-433.333
204.95	175.000
205.32	-10.000
205.70	-114.286
206.08	-350.000
206.45	133.333
206.83	71.429
207.20	-42.857
207.58	-400.000
207.96	-433.333
208.33	-150.000
208.71	-50.000
209.08	-116.667
209.46	-400.000
209.84	0.000
210.21	-900.000
210.59	42.857
210.96	-33.333
211.34	-75.000
211.71	0.000
212.09	-171.429
212.46	-1100.000
212.84	0.000
213.22	-50.000
213.59	100.000
213.97	92.308
214.34	-109.091
214.72	133.333
215.09	450.000
215.47	15.385
215.84	-63.636
216.22	-233.333
216.59	-125.000
216.97	-100.000
217.34	100.000
217.72	-180.000
218.09	37.500
218.47	62.500
218.84	200.000
219.22	-111.111
219.59	0.000
219.97	300.000
220.34	100.000
220.72	-85.714
221.09	-50.000
221.47	-400.000
221.84	-750.000
222.22	-550.000
222.59	45.455
222.97	-83.333
223.34	-66.667
223.72	-21.429
224.09	14.286
224.46	14.286
224.84	200.000
225.21	-30.000
225.59	-6.667
225.96	-50.000
226.34	350.000
226.71	-71.429
227.08	-200.000
227.46	-87.500
227.83	-300.000
228.21	77.778
228.58	100.000
228.95	12.500
229.33	100.000
229.70	-43.750
230.08	0.000
230.45	114.286
230.82	-57.143
231.20	-26.667
231.57	42.857
231.95	-14.286
232.32	20.000
232.69	-35.714
233.07	200.000
233.44	80.000
233.81	-70.000
234.19	77.778
234.56	5.882
234.93	600.000
235.31	-75.000
235.68	-300.000
236.05	-107.692
236.43	-50.000
236.80	11.765
237.17	12.500
237.55	-30.000
237.92	-44.444
238.29	-5.556
238.67	13.333
239.04	-38.235
239.41	-51.220
239.79	-40.000
240.16	-17.073
240.53	-15.789
240.91	-28.261
241.28	6.349
241.65	-1.786
242.02	6.849
242.40	13.333
242.77	-8.475
243.14	-12.121
243.51	0.000
243.89	11.494
244.26	-14.943
244.63	2.381
245.00	-2.062
245.38	-8.247
245.75	-13.483
246.12	0.862
246.49	-4.132
246.87	8.654
247.24	-5.042
247.61	-8.772
247.98	-7.317
248.36	0.000
248.73	-3.947
249.10	-5.844
249.47	0.633
249.84	-7.190
250.22	3.529
250.59	4.575
250.96	6.103
251.33	0.581
251.70	2.941
252.08	3.046
252.45	-0.495
252.82	-3.015
253.19	-2.304
253.56	-1.869
253.94	-2.703
254.31	2.174
254.68	3.070
255.05	-1.575
255.42	4.803
255.79	0.386
256.16	-1.556
256.54	4.104
256.91	-3.042
257.28	0.000
257.65	-3.371
258.02	-2.837
258.39	2.357
258.76	0.733
259.14	2.658
259.51	0.971
259.88	-3.093
260.25	-0.980
260.62	-1.042
260.99	-3.390
261.36	0.685
261.73	0.000
262.10	0.912
262.47	-1.227
262.85	-1.881
263.22	-0.923
263.59	-1.558
263.96	-1.863
264.33	-1.212
264.70	-0.595
265.07	-2.083
265.44	0.850
265.81	1.412
266.18	-0.820
266.55	3.856
266.92	0.777
267.29	-0.261
267.66	-1.790
268.03	-2.356
268.40	-3.133
268.77	2.139
269.14	0.480
269.51	1.799
269.88	0.748
270.25	-3.571
270.62	-1.463
270.99	-2.046
271.36	0.244
271.73	1.408
272.10	0.243
272.47	-0.473
272.84	-4.703
273.21	1.160
273.58	2.169
273.95	1.831
274.32	-1.155
274.69	-0.679
275.06	2.232
275.43	-0.907
275.80	-1.987
276.17	-1.839
276.54	-0.428
276.91	0.658
277.28	0.000
277.65	0.620
278.02	0.000
278.39	-0.656
278.76	2.096
279.13	-2.697
279.50	-1.050
279.87	-0.216
280.23	0.645
280.60	1.170
280.97	-0.202
281.34	0.000
281.71	1.848
282.08	-2.045
282.45	0.978
282.82	-0.772
283.19	1.741
283.56	-0.385
283.92	-1.139
284.29	-0.962
284.66	-1.163
285.03	0.786
285.40	-0.378
285.77	0.703
286.14	-0.181
286.51	1.292
286.87	-1.280
287.24	0.368
287.61	-0.705
287.98	0.702
288.35	-0.520
288.72	2.452
289.08	-0.694
289.45	-0.351
289.82	1.748
290.19	-1.536
290.56	-0.515
290.93	-1.852
291.29	-1.849
291.66	1.102
292.03	0.319
292.40	0.484
292.77	0.000
293.13	-2.110
293.50	-1.366
293.87	0.153
294.24	1.082
294.60	1.192
294.97	1.339
295.34	-1.840
295.71	0.894
296.08	0.149
296.44	-0.711
296.81	-0.139
297.18	-1.014
297.55	2.846
297.91	1.233
298.28	1.055
298.65	0.271
299.02	1.213
299.38	-0.137
299.75	0.414
300.12	0.131
300.48	-0.791
300.85	1.141
301.22	-0.390
301.59	-0.658
301.95	1.139
302.32	1.427
302.69	-0.249
303.05	0.743
303.42	0.747
303.79	1.636
304.15	1.075
304.52	0.238
304.89	-0.468
305.25	0.605
305.62	-1.634
305.99	0.468
306.35	0.000
306.72	0.675
307.09	0.114
307.45	1.378
307.82	0.926
308.19	0.813
308.55	0.327
308.92	1.416
309.29	0.670
309.65	1.399
310.02	1.100
310.38	1.427
310.75	2.404
311.12	0.969
311.48	1.591
311.85	0.314
312.22	0.844
312.58	0.212
312.95	1.387
313.31	0.414
313.68	1.257
314.05	1.327
314.41	1.856
314.78	2.268
315.14	3.289
315.51	3.313
315.87	2.152
316.24	4.449
316.61	5.118
316.97	5.060
317.34	4.492
317.70	6.023
318.07	6.250
318.43	6.176
318.80	6.345
319.16	6.934
319.53	7.977
319.89	7.972
320.26	8.502
320.62	9.629
320.99	8.873
321.35	9.044
321.72	10.592
322.08	11.782
322.45	12.487
322.81	13.556
323.18	13.150
323.54	13.417
323.91	14.119
324.27	16.699
324.64	17.041
325.00	19.069
325.37	18.916
325.73	18.586
326.10	20.345
326.46	21.973
326.83	22.397
327.19	22.668
327.56	23.458
327.92	23.856
328.29	25.000
328.65	25.377
329.01	26.930
329.38	26.820
329.74	27.195
330.11	28.267
330.47	28.757
330.84	28.462
331.20	30.989
331.56	30.000
331.93	31.689
332.29	31.347
332.66	31.674
333.02	31.970
333.38	32.356
333.75	33.425
334.11	31.871
334.48	32.729
334.84	33.974
335.20	34.492
335.57	31.913
335.93	34.959
336.29	35.359
336.66	34.514
337.02	34.665
337.38	34.907
337.75	34.818
338.11	35.528
338.47	36.405
338.84	35.582
339.20	35.558
339.56	36.330
339.93	36.258
340.29	36.697
340.65	37.007
341.02	37.234
341.38	36.283
341.74	34.894
342.11	35.875
342.47	37.811
342.83	37.630
343.20	36.063
343.56	37.304
343.92	36.847
344.28	38.514
344.65	37.824
345.01	37.079
345.37	36.838
345.73	38.243
346.10	39.776
346.46	37.931
346.82	36.661
347.19	37.240
347.55	37.594
347.91	38.673
348.27	37.672
348.63	38.842
349.00	38.228
349.36	37.822
349.72	39.967
350.08	38.443
350.45	39.266
350.81	38.953
351.17	36.482
351.53	38.122
351.89	37.655
352.26	38.000
352.62	38.952
352.98	37.992
353.34	38.164
353.70	40.372
354.07	39.435
354.43	39.151
354.79	39.389
355.15	39.444
355.51	39.794
355.87	39.320
356.24	38.499
356.60	38.642
356.96	38.651
357.32	38.898
357.68	37.451
358.04	38.288
358.40	38.907
358.77	39.075
359.13	38.591
359.49	38.059
359.85	37.988
360.21	39.075
360.57	37.414
360.93	39.334
361.29	37.689
361.66	38.871
362.02	38.485
362.38	38.690
362.74	37.774
363.10	39.202
363.46	38.844
363.82	38.993
364.18	38.081
364.54	38.162
364.90	37.849
365.26	38.937
365.62	39.489
365.98	38.783
366.35	38.893
366.71	38.655
367.07	39.115
367.43	38.462
367.79	39.152
368.15	37.688
368.51	40.131
368.87	39.268
369.23	36.606
369.59	39.723
369.95	38.416
370.31	38.295
370.67	38.060
371.03	38.163
371.39	39.023
371.75	38.168
372.11	37.589
372.47	37.352
372.83	39.319
373.19	38.659
373.55	37.401
373.91	38.445
374.27	37.491
374.63	37.617
374.99	37.163
375.35	37.117
375.71	38.881
376.07	38.272
376.42	39.048
376.78	38.255
377.14	37.982
377.50	36.388
377.86	37.684
378.22	37.588
378.58	37.500
378.94	35.728
379.30	37.243
379.66	38.119
380.02	37.155
380.38	37.310
380.74	37.104
381.09	36.748
381.45	37.064
381.81	35.842
382.17	36.358
382.53	37.039
382.89	36.786
383.25	36.714
383.61	37.378
383.97	35.175
384.32	36.210
384.68	36.718
385.04	36.091
385.40	35.968
385.76	37.547
386.12	36.999
386.48	37.292
386.83	35.067
387.19	36.325
387.55	35.445
387.91	36.125
388.27	36.386
388.62	35.935
388.98	35.421
389.34	36.040
389.70	36.917
390.06	34.865
390.42	35.492
390.77	34.532
391.13	34.111
391.49	35.188
391.85	36.192
392.20	34.024
392.56	34.202
392.92	34.410
393.28	34.552
393.64	34.414
393.99	35.486
394.35	34.662
394.71	34.930
395.07	33.375
395.42	34.426
395.78	34.853
396.14	33.670
396.50	33.989
396.85	34.514
397.21	34.837
397.57	33.918
397.92	33.134
398.28	33.506
398.64	33.012
399.00	33.070
399.35	31.433
399.71	31.936
400.07	32.709
400.42	32.313
400.78	32.333
401.14	32.849
401.49	32.400
401.85	31.993
402.21	32.470
402.57	32.188
402.92	32.434
403.28	32.456
403.63	32.219
403.99	31.824
404.35	31.543
404.70	31.012
405.06	31.434
405.42	31.075
405.77	30.506
406.13	30.617
406.49	30.965
406.84	30.990
407.20	32.450
407.55	29.684
407.91	30.348
408.27	30.402
408.62	30.092
408.98	29.698
409.34	31.103
409.69	29.393
410.05	30.234
410.40	28.642
410.76	29.373
411.11	30.375
411.47	29.652
411.83	29.002
412.18	29.730
412.54	28.714
412.89	28.264
413.25	28.700
413.60	29.130
413.96	27.853
414.31	28.902
414.67	28.031
415.03	27.896
415.38	28.068
415.74	27.883
416.09	29.327
416.45	27.954
416.80	27.297
417.16	28.867
417.51	28.648
417.87	27.705
418.22	27.526
418.58	27.425
418.93	28.903
419.29	27.017
419.64	26.896
420.00	27.078
420.35	26.567
420.71	28.129
421.06	26.519
421.42	27.464
421.77	26.185
422.12	26.844
422.48	26.205
422.83	26.334
423.19	27.032
423.54	26.220
423.90	26.502
424.25	25.603
424.61	26.805
424.96	25.377
425.31	26.690
425.67	26.115
426.02	26.207
426.38	26.174
426.73	26.755
427.09	26.962
427.44	25.588
427.79	25.221
428.15	25.607
428.50	24.894
428.85	24.509
429.21	25.297
429.56	25.768
429.92	25.321
430.27	24.712
430.62	24.203
430.98	24.204
431.33	24.816
431.68	24.123
432.04	25.154
432.39	23.788
432.74	22.850
433.10	24.425
433.45	24.014
433.80	24.782
434.16	23.546
434.51	24.462
434.86	23.984
435.22	23.836
435.57	24.329
435.92	23.892
436.28	23.494
436.63	22.761
436.98	22.769
437.34	22.989
437.69	23.852
438.04	23.362
438.39	22.724
438.75	23.437
439.10	23.090
439.45	23.433
439.81	22.691
440.16	22.090
440.51	23.343
440.86	23.625
441.22	22.229
441.57	21.909
441.92	22.770
442.27	22.783
442.63	23.233
442.98	22.918
443.33	21.870
443.68	22.653
444.03	22.802
444.39	22.233
444.74	23.300
445.09	23.274
445.44	22.279
445.79	22.641
446.15	22.026
446.50	21.187
446.85	22.529
447.20	22.211
447.55	22.712
447.91	22.166
448.26	22.538
448.61	23.086
448.96	21.744
449.31	21.561
449.66	20.557
450.02	21.734
450.37	21.577
450.72	21.592
451.07	21.329
451.42	21.099
451.77	22.061
452.12	21.471
452.47	20.992
452.83	20.966
453.18	21.442
453.53	21.239
453.88	21.676
454.23	20.713
454.58	21.788
454.93	22.423
455.28	20.254
455.63	21.327
455.98	20.505
456.34	20.562
456.69	21.537
457.04	20.920
457.39	20.656
457.74	21.040
458.09	20.129
458.44	20.948
458.79	19.664
459.14	21.053
459.49	20.537
459.84	20.079
460.19	19.721
460.54	20.293
460.89	20.284
461.24	20.745
461.59	19.656
461.94	19.434
462.29	20.929
462.64	20.332
462.99	20.108
463.34	19.471
463.69	18.983
464.04	19.431
464.39	19.284
464.74	19.387
465.09	19.276
465.44	19.158
465.79	19.161
466.14	19.612
466.49	19.034
466.84	19.810
467.19	19.712
467.54	19.285
467.89	18.130
468.24	19.586
468.59	19.429
468.94	18.222
469.29	18.951
469.64	19.344
469.99	18.360
470.34	18.089
470.68	18.568
471.03	19.038
471.38	19.044
471.73	18.347
472.08	18.657
472.43	17.987
472.78	17.341
473.13	17.075
473.48	18.111
473.83	18.120
474.17	17.746
474.52	17.358
474.87	18.788
475.22	17.938
475.57	18.069
475.92	17.992
476.27	18.393
476.61	17.535
476.96	17.011
477.31	17.577
477.66	17.360
478.01	17.069
478.36	16.449
478.70	17.292
479.05	18.022
479.40	16.958
479.75	16.267
480.10	16.846
480.45	17.600
480.79	17.472
481.14	17.572
481.49	16.552
481.84	16.940
482.19	16.604
482.53	17.842
482.88	16.468
483.23	16.363
483.58	16.840
483.92	15.779
484.27	15.770
484.62	17.033
484.97	16.003
485.31	15.535
485.66	15.395
486.01	15.812
486.36	14.772
486.70	15.459
487.05	15.658
487.40	15.357
487.75	15.211
488.09	15.575
488.44	15.853
488.79	15.465
489.13	15.385
489.48	15.819
489.83	15.695
490.17	15.146
490.52	15.704
490.87	15.456
491.22	15.568
491.56	15.417
491.91	15.631
492.26	15.897
492.60	15.595
492.95	15.691
493.30	14.949
493.64	15.570
493.99	15.845
494.34	15.243
494.68	15.095
495.03	15.182
495.37	14.966
495.72	15.649
496.07	14.829
496.41	14.858
496.76	14.924
497.11	14.578
497.45	15.084
497.80	15.338
498.14	15.201
498.49	14.424
498.84	14.671
499.18	15.211
499.53	15.427
499.87	15.078
500.22	14.194
500.56	14.776
500.91	15.060
501.26	14.286
501.60	14.314
501.95	14.508
502.29	14.334
502.64	14.624
502.98	14.110
503.33	14.265
503.67	14.506
504.02	14.809
504.36	14.547
504.71	13.838
505.06	14.293
505.40	13.858
505.75	14.639
506.09	14.090
506.44	14.887
506.78	14.490
507.13	14.529
507.47	13.055
507.82	13.729
508.16	13.259
508.51	13.641
508.85	13.867
509.19	13.092
509.54	14.638
509.88	13.592
510.23	14.363
510.57	14.110
510.92	13.113
511.26	12.821
511.61	13.971
511.95	13.808
512.30	14.024
512.64	13.745
512.98	13.700
513.33	13.598
513.67	13.758
514.02	13.959
514.36	14.114
514.70	14.394
515.05	14.336
515.39	13.518
515.74	14.371
516.08	13.329
516.42	13.958
516.77	13.400
517.11	13.650
517.46	13.704
517.80	14.660
518.14	13.656
518.49	14.603
518.83	13.426
519.17	12.068
519.52	12.611
519.86	12.725
520.20	14.095
520.55	11.945
520.89	13.802
521.23	12.856
521.58	13.628
521.92	13.269
522.26	13.598
522.61	13.831
522.95	13.709
523.29	13.215
523.64	14.104
523.98	13.610
524.32	12.693
524.66	13.060
525.01	13.896
525.35	13.869
525.69	12.189
526.04	12.235
526.38	14.073
526.72	12.819
527.06	12.776
527.41	13.588
527.75	13.137
528.09	11.628
528.43	13.167
528.78	12.475
529.12	12.581
529.46	12.736
529.80	12.413
530.15	13.069
530.49	12.391
530.83	11.628
531.17	12.089
531.51	13.064
531.86	12.916
532.20	12.109
532.54	12.457
532.88	13.073
533.22	12.500
533.57	12.320
533.91	11.880
534.25	12.565
534.59	12.316
534.93	11.831
535.27	11.421
535.62	11.666
535.96	12.264
536.30	12.599
536.64	12.198
536.98	12.125
537.32	12.802
537.66	11.992
538.01	12.238
538.35	11.442
538.69	12.783
539.03	11.962
539.37	12.248
539.71	11.384
540.05	12.695
540.39	12.119
540.73	13.040
541.07	12.017
541.42	12.433
541.76	12.595
542.10	11.218
542.44	12.648
542.78	10.323
543.12	10.714
543.46	11.892
543.80	11.312
544.14	11.015
544.48	11.659
544.82	11.483
545.16	11.749
545.50	11.949
545.84	11.544
546.18	10.993
546.52	11.680
546.86	11.646
547.20	10.873
547.54	11.095
547.88	11.073
548.22	11.374
548.56	11.741
548.90	11.658
549.24	11.157
549.58	11.566
549.92	11.151
550.26	12.088
550.60	11.301
550.94	12.099
551.28	10.896
551.62	12.000
551.96	11.128
552.30	11.111
552.64	10.860
552.98	11.533
553.32	11.983
553.66	10.813
554.00	10.730
554.34	10.931
554.68	11.136
555.02	12.351
555.36	10.471
555.69	9.744
556.03	11.135
556.37	9.680
556.71	11.552
557.05	9.769
557.39	10.112
557.73	11.394
558.07	10.860
558.41	10.184
558.75	10.366
559.08	10.402
559.42	10.397
559.76	10.488
560.10	10.015
560.44	10.276
560.78	10.490
561.12	10.931
561.45	10.260
561.79	10.364
562.13	11.001
562.47	10.647
562.81	11.527
563.15	10.155
563.48	10.891
563.82	10.707
564.16	10.237
564.50	10.473
564.84	10.710
565.17	10.060
565.51	10.929
565.85	9.534
566.19	11.008
566.52	10.054
566.86	10.797
567.20	10.523
567.54	10.401
567.88	9.900
568.21	9.842
568.55	9.348
568.89	9.805
569.23	9.292
569.56	9.982
569.90	9.825
570.24	9.602
570.57	9.455
570.91	10.143
571.25	9.931
571.59	8.907
571.92	9.215
572.26	9.692
572.60	9.271
572.93	9.256
573.27	9.310
573.61	8.890
573.95	9.339
574.28	8.872
574.62	8.975
574.96	9.175
575.29	8.960
575.63	8.759
575.97	8.946
576.30	9.193
576.64	9.007
576.98	9.266
577.31	8.921
577.65	8.761
577.98	8.939
578.32	8.926
578.66	8.919
578.99	9.031
579.33	8.619
579.67	8.882
580.00	8.734
580.34	9.030
580.67	8.803
581.01	9.006
581.35	8.829
581.68	8.640
582.02	8.717
582.35	8.654
582.69	9.018
583.02	8.545
583.36	8.564
583.70	9.138
584.03	8.451
584.37	9.317
584.70	8.846
585.04	8.731
585.37	9.189
585.71	8.492
586.04	8.749
586.38	8.829
586.72	8.666
587.05	8.579
587.39	8.750
587.72	8.939
588.06	8.220
588.39	8.317
588.73	9.066
589.06	9.132
589.40	9.125
589.73	9.018
590.07	9.139
590.40	9.598
590.73	9.308
591.07	9.542
591.40	8.994
591.74	9.774
592.07	9.647
592.41	9.231
592.74	8.722
593.08	8.383
593.41	9.061
593.75	8.898
594.08	8.685
594.41	8.952
594.75	8.511
595.08	9.232
595.42	8.907
595.75	8.261
596.09	8.600
596.42	9.136
596.75	8.792
597.09	9.157
597.42	9.350
597.75	8.795
598.09	9.461
598.42	8.845
598.76	8.666
599.09	8.974
599.42	8.867
599.76	8.879
600.09	8.673
600.42	9.098
600.76	8.581
601.09	8.130
601.42	8.304
601.76	8.734
602.09	8.828
602.42	8.467
602.76	9.253
603.09	9.178
603.42	8.946
603.76	8.427
604.09	8.222
604.42	8.926
604.76	9.212
605.09	8.821
605.42	9.255
605.75	7.925
606.09	8.195
606.42	8.966
606.75	8.658
607.09	9.319
607.42	7.975
607.75	8.393
608.08	8.625
608.42	9.000
608.75	9.060
609.08	9.567
609.41	8.985
609.75	9.073
610.08	8.787
610.41	8.309
610.74	7.899
611.07	8.682
611.41	8.978
611.74	9.062
612.07	8.672
612.40	8.807
612.73	8.588
613.07	8.493
613.40	9.081
613.73	8.338
614.06	9.405
614.39	8.686
614.72	8.291
615.06	9.106
615.39	8.734
615.72	8.504
616.05	8.994
616.38	8.148
616.71	8.869
617.05	9.265
617.38	8.674
617.71	9.119
618.04	8.635
618.37	9.521
618.70	9.571
619.03	10.556
619.36	7.742
619.69	9.174
620.03	9.423
620.36	9.013
620.69	9.065
621.02	9.251
621.35	9.544
621.68	8.418
622.01	8.750
622.34	9.338
622.67	9.621
623.00	8.959
623.33	8.994
623.66	8.676
623.99	9.228
624.32	9.202
624.65	7.970
624.99	9.029
625.32	8.719
625.65	9.898
625.98	9.589
626.31	8.396
626.64	9.099
626.97	9.075
627.30	9.282
627.63	10.745
627.96	9.434
628.29	8.696
628.62	10.521
628.95	10.621
629.28	8.367
629.61	8.774
629.94	10.655
630.26	9.783
630.59	10.406
630.92	8.923
631.25	9.641
631.58	8.370
631.91	8.443
632.24	8.601
632.57	9.545
632.90	9.015
633.23	9.647
633.56	8.942
633.89	9.988
634.22	9.877
634.55	8.132
634.88	8.557
635.20	8.077
635.53	9.333
635.86	8.973
636.19	9.961
636.52	9.821
636.85	9.057
637.18	10.692
637.51	10.440
637.83	8.936
638.16	9.686
638.49	9.401
638.82	10.921
639.15	10.448
639.48	9.216
639.81	8.787
640.13	9.812
640.46	10.496
