SpectraSuite Data File
++++++++++++++++++++++++++++++++++++
Date: Fri May 15 20:49:54 PDT 2015
User: schluterlab
Dark Spectrum Present: Yes
Reference Spectrum Present: Yes
Number of Sampled Component Spectra: 1
Spectrometers: USB2E3373
Integration Time (usec): 3000 (USB2E3373)
Spectra Averaged: 3 (USB2E3373)
Boxcar Smoothing: 0 (USB2E3373)
Correct for Electrical Dark: No (USB2E3373)
Strobe/Lamp Enabled: No (USB2E3373)
Correct for Detector Non-linearity: No (USB2E3373)
Correct for Stray Light: No (USB2E3373)
Number of Pixels in Processed Spectrum: 2048
>>>>>Begin Processed Spectral Data<<<<<
178.53	0.000
178.91	0.000
179.29	112.500
179.67	-600.000
180.04	71.429
180.42	75.000
180.80	-100.000
181.18	266.667
181.56	600.000
181.94	-100.000
182.31	300.000
182.69	-220.000
183.07	-400.000
183.45	-40.000
183.83	166.667
184.20	27.273
184.58	55.556
184.96	-0.000
185.34	166.667
185.72	-600.000
186.09	138.462
186.47	-700.000
186.85	300.000
187.23	211.111
187.61	1000.000
187.98	-433.333
188.36	-33.333
188.74	-66.667
189.12	-11.765
189.49	22.222
189.87	0.000
190.25	64.286
190.63	-150.000
191.00	-100.000
191.38	-42.105
191.76	150.000
192.14	-25.000
192.51	50.000
192.89	-166.667
193.27	-28.571
193.65	233.333
194.02	127.273
194.40	20.000
194.78	-12.500
195.15	-66.667
195.53	-100.000
195.91	200.000
196.29	25.000
196.66	207.692
197.04	114.286
197.42	-66.667
197.79	-666.667
198.17	-146.154
198.55	1500.000
198.92	-500.000
199.30	-600.000
199.68	-160.000
200.05	-333.333
200.43	0.000
200.81	-200.000
201.18	-133.333
201.56	2600.000
201.94	-50.000
202.31	100.000
202.69	-180.000
203.07	425.000
203.44	300.000
203.82	0.000
204.19	-42.857
204.57	-500.000
204.95	112.500
205.32	-80.000
205.70	28.571
206.08	-100.000
206.45	122.222
206.83	71.429
207.20	-114.286
207.58	400.000
207.96	-400.000
208.33	-70.000
208.71	-450.000
209.08	-66.667
209.46	-1400.000
209.84	-140.000
210.21	-1400.000
210.59	-128.571
210.96	0.000
211.34	-50.000
211.71	6.667
212.09	-128.571
212.46	-1100.000
212.84	0.000
213.22	-30.000
213.59	550.000
213.97	15.385
214.34	-63.636
214.72	-33.333
215.09	400.000
215.47	-30.769
215.84	-9.091
216.22	-166.667
216.59	-12.500
216.97	100.000
217.34	-225.000
217.72	-360.000
218.09	-62.500
218.47	162.500
218.84	-1300.000
219.22	-100.000
219.59	-60.000
219.97	400.000
220.34	250.000
220.72	-157.143
221.09	-225.000
221.47	-500.000
221.84	-250.000
222.22	-650.000
222.59	-72.727
222.97	-25.000
223.34	-300.000
223.72	-7.143
224.09	0.000
224.46	-7.143
224.84	233.333
225.21	-20.000
225.59	33.333
225.96	-550.000
226.34	425.000
226.71	-71.429
227.08	-66.667
227.46	37.500
227.83	-600.000
228.21	22.222
228.58	-45.455
228.95	25.000
229.33	120.000
229.70	0.000
230.08	-75.000
230.45	-114.286
230.82	-71.429
231.20	-40.000
231.57	50.000
231.95	-142.857
232.32	-100.000
232.69	14.286
233.07	-266.667
233.44	-220.000
233.81	-50.000
234.19	-188.889
234.56	-52.941
234.93	950.000
235.31	-125.000
235.68	-580.000
236.05	-84.615
236.43	-60.000
236.80	-64.706
237.17	0.000
237.55	-35.000
237.92	0.000
238.29	-8.333
238.67	-10.000
239.04	-11.765
239.41	-46.341
239.79	-73.333
240.16	9.756
240.53	-10.526
240.91	-21.739
241.28	-1.587
241.65	-7.143
242.02	10.959
242.40	-5.000
242.77	-25.424
243.14	-1.515
243.51	-2.500
243.89	6.897
244.26	-8.046
244.63	3.571
245.00	-4.124
245.38	-5.155
245.75	-15.730
246.12	-5.172
246.49	-7.438
246.87	-0.962
247.24	-5.042
247.61	-12.281
247.98	1.626
248.36	-1.875
248.73	-1.974
249.10	-3.896
249.47	-6.962
249.84	-3.922
250.22	-4.706
250.59	-6.536
250.96	2.347
251.33	-4.070
251.70	-2.353
252.08	-2.030
252.45	-3.465
252.82	-1.005
253.19	-1.382
253.56	-4.206
253.94	-2.252
254.31	3.043
254.68	1.316
255.05	-2.362
255.42	-3.493
255.79	1.931
256.16	-1.946
256.54	2.612
256.91	1.901
257.28	0.743
257.65	-3.745
258.02	-2.837
258.39	4.040
258.76	-1.832
259.14	0.332
259.51	-0.324
259.88	0.000
260.25	-2.614
260.62	5.556
260.99	-3.051
261.36	-0.342
261.73	-1.266
262.10	0.608
262.47	3.988
262.85	-1.567
263.22	-1.231
263.59	3.115
263.96	3.106
264.33	0.606
264.70	-2.381
265.07	-2.679
265.44	2.550
265.81	1.695
266.18	-0.546
266.55	1.542
266.92	2.073
267.29	0.783
267.66	2.558
268.03	2.618
268.40	1.044
268.77	1.070
269.14	1.199
269.51	2.571
269.88	-0.249
270.25	-0.765
270.62	0.488
270.99	-1.023
271.36	-4.401
271.73	0.939
272.10	-0.973
272.47	0.236
272.84	0.990
273.21	1.624
273.58	0.241
273.95	1.144
274.32	-0.924
274.69	-1.584
275.06	2.679
275.43	0.000
275.80	0.442
276.17	-2.069
276.54	3.212
276.91	0.439
277.28	0.655
277.65	1.860
278.02	2.979
278.39	0.000
278.76	2.096
279.13	-0.622
279.50	2.941
279.87	2.376
280.23	-1.075
280.60	3.509
280.97	1.414
281.34	1.154
281.71	3.285
282.08	1.022
282.45	-0.587
282.82	1.544
283.19	0.000
283.56	0.000
283.92	-1.328
284.29	0.577
284.66	0.000
285.03	-0.982
285.40	0.000
285.77	1.054
286.14	-0.181
286.51	2.768
286.87	0.183
287.24	0.921
287.61	0.529
287.98	3.860
288.35	1.040
288.72	0.525
289.08	0.521
289.45	1.230
289.82	0.175
290.19	-0.341
290.56	1.201
290.93	0.505
291.29	-0.616
291.66	0.945
292.03	2.711
292.40	-0.484
292.77	0.319
293.13	-1.461
293.50	-0.303
293.87	1.679
294.24	0.309
294.60	1.043
294.97	1.190
295.34	0.767
295.71	1.192
296.08	0.149
296.44	0.427
296.81	0.833
297.18	0.725
297.55	1.897
297.91	0.274
298.28	3.958
298.65	1.221
299.02	2.426
299.38	-0.684
299.75	-0.276
300.12	0.131
300.48	0.527
300.85	1.267
301.22	1.169
301.59	1.053
301.95	1.772
302.32	1.816
302.69	1.119
303.05	0.000
303.42	1.743
303.79	2.220
304.15	2.389
304.52	0.595
304.89	0.468
305.25	0.726
305.62	-0.233
305.99	0.468
306.35	1.156
306.72	0.337
307.09	1.596
307.45	2.181
307.82	1.389
308.19	1.742
308.55	0.981
308.92	1.852
309.29	1.564
309.65	0.753
310.02	1.760
310.38	1.537
310.75	2.077
311.12	1.076
311.48	0.636
311.85	1.361
312.22	1.266
312.58	2.972
312.95	1.494
313.31	0.621
313.68	2.199
314.05	1.939
314.41	2.474
314.78	3.402
315.14	2.878
315.51	2.795
315.87	1.844
316.24	4.752
316.61	4.921
316.97	4.067
317.34	3.906
317.70	4.111
318.07	5.000
318.43	4.216
318.80	4.735
319.16	4.980
319.53	6.648
319.89	4.232
320.26	5.364
320.62	6.018
320.99	6.054
321.35	6.886
321.72	7.892
322.08	7.251
322.45	7.107
322.81	7.859
323.18	7.949
323.54	7.722
323.91	7.303
324.27	9.277
324.64	10.581
325.00	11.131
325.37	10.652
325.73	9.066
326.10	11.717
326.46	11.031
326.83	11.636
327.19	12.903
327.56	13.727
327.92	12.500
328.29	12.500
328.65	14.057
329.01	13.511
329.38	13.548
329.74	12.276
330.11	14.180
330.47	13.358
330.84	13.462
331.20	16.730
331.56	14.444
331.93	14.977
332.29	16.865
332.66	13.575
333.02	15.056
333.38	14.115
333.75	16.850
334.11	14.682
334.48	16.047
334.84	16.850
335.20	17.475
335.57	15.050
335.93	15.989
336.29	15.838
336.66	15.895
337.02	15.799
337.38	14.815
337.75	16.636
338.11	15.960
338.47	17.153
338.84	16.543
339.20	15.814
339.56	16.606
339.93	17.547
340.29	17.248
340.65	16.577
341.02	16.578
341.38	17.788
341.74	16.784
342.11	16.464
342.47	17.082
342.83	17.647
343.20	16.202
343.56	17.652
343.92	17.183
344.28	17.592
344.65	16.235
345.01	17.027
345.37	16.821
345.73	16.151
346.10	17.429
346.46	17.241
346.82	16.612
347.19	14.713
347.55	17.544
347.91	16.990
348.27	17.785
348.63	17.547
349.00	16.161
349.36	17.456
349.72	18.242
350.08	16.639
350.45	17.638
350.81	16.030
351.17	16.857
351.53	17.551
351.89	16.763
352.26	17.280
352.62	16.774
352.98	16.627
353.34	15.862
353.70	17.799
354.07	17.097
354.43	16.974
354.79	16.350
355.15	16.905
355.51	17.484
355.87	17.233
356.24	17.537
356.60	16.896
356.96	17.698
357.32	17.252
357.68	17.905
358.04	15.913
358.40	17.444
358.77	17.464
359.13	16.894
359.49	15.408
359.85	17.395
360.21	17.464
360.57	16.526
360.93	17.322
361.29	16.616
361.66	16.614
362.02	16.970
362.38	17.060
362.74	16.730
363.10	17.005
363.46	17.346
363.82	18.257
364.18	17.638
364.54	16.985
364.90	17.061
365.26	16.448
365.62	18.248
365.98	17.449
366.35	17.043
366.71	17.812
367.07	17.199
367.43	16.391
367.79	17.739
368.15	17.875
368.51	17.990
368.87	16.511
369.23	16.318
369.59	17.930
369.95	17.815
370.31	17.341
370.67	17.239
371.03	17.924
371.39	17.360
371.75	18.168
372.11	16.833
372.47	18.047
372.83	17.956
373.19	17.689
373.55	17.184
373.91	17.207
374.27	18.356
374.63	18.234
374.99	17.589
375.35	18.524
375.71	17.972
376.07	16.994
376.42	17.959
376.78	18.456
377.14	17.739
377.50	17.995
377.86	17.805
378.22	17.677
378.58	17.436
378.94	17.265
379.30	17.467
379.66	19.248
380.02	18.210
380.38	17.833
380.74	18.253
381.09	18.160
381.45	17.615
381.81	17.150
382.17	18.464
382.53	17.801
382.89	17.765
383.25	18.419
383.61	17.988
383.97	17.397
384.32	17.198
384.68	18.142
385.04	17.218
385.40	17.362
385.76	18.428
386.12	18.370
386.48	18.135
386.83	17.692
387.19	17.277
387.55	18.068
387.91	18.582
388.27	17.705
388.62	18.125
388.98	17.864
389.34	17.302
389.70	18.583
390.06	17.118
390.42	17.487
390.77	17.724
391.13	17.718
391.49	17.723
391.85	17.739
392.20	17.200
392.56	17.546
392.92	17.146
393.28	17.807
393.64	17.718
393.99	18.495
394.35	17.774
394.71	18.008
395.07	18.102
395.42	17.911
395.78	18.111
396.14	17.781
396.50	18.072
396.85	18.030
397.21	18.045
397.57	17.304
397.92	17.496
398.28	18.161
398.64	17.590
399.00	17.551
399.35	17.325
399.71	18.265
400.07	17.956
400.42	17.931
400.78	17.208
401.14	18.028
401.49	17.987
401.85	17.672
402.21	17.289
402.57	18.062
402.92	16.813
403.28	16.792
403.63	17.718
403.99	16.582
404.35	17.052
404.70	16.964
405.06	16.040
405.42	17.029
405.77	17.199
406.13	16.123
406.49	17.229
406.84	16.870
407.20	17.399
407.55	15.969
407.91	16.578
408.27	16.061
408.62	17.231
408.98	16.205
409.34	16.481
409.69	16.085
410.05	17.057
410.40	16.728
410.76	16.647
411.11	16.875
411.47	16.700
411.83	15.568
412.18	15.830
412.54	15.918
412.89	15.825
413.25	15.223
413.60	15.963
413.96	15.644
414.31	17.012
414.67	15.651
415.03	15.313
415.38	15.796
415.74	16.482
416.09	16.003
416.45	15.868
416.80	15.995
417.16	15.884
417.51	16.189
417.87	15.319
418.22	15.415
418.58	16.120
418.93	16.677
419.29	14.981
419.64	15.684
420.00	15.932
420.35	15.284
420.71	15.917
421.06	15.408
421.42	15.565
421.77	16.185
422.12	15.551
422.48	15.593
422.83	15.719
423.19	15.632
423.54	15.344
423.90	14.841
424.25	15.729
424.61	15.667
424.96	15.331
425.31	16.696
425.67	14.847
426.02	14.664
426.38	15.967
426.73	15.678
427.09	14.937
427.44	15.765
427.79	14.909
428.15	16.019
428.50	15.082
428.85	14.189
429.21	14.431
429.56	15.633
429.92	14.792
430.27	15.539
430.62	14.428
430.98	14.809
431.33	15.247
431.68	15.803
432.04	14.366
432.39	15.288
432.74	14.732
433.10	15.920
433.45	14.755
433.80	14.335
434.16	14.183
434.51	14.301
434.86	14.576
435.22	14.919
435.57	14.722
435.92	14.192
436.28	13.894
436.63	14.546
436.98	14.542
437.34	14.701
437.69	14.371
438.04	14.587
438.39	13.989
438.75	14.572
439.10	14.658
439.45	15.033
439.81	14.985
440.16	13.895
440.51	14.866
440.86	14.924
441.22	14.932
441.57	14.514
441.92	15.163
442.27	14.412
442.63	15.310
442.98	14.474
443.33	14.580
443.68	14.854
444.03	14.257
444.39	15.347
444.74	15.440
445.09	15.089
445.44	14.245
445.79	14.905
446.15	15.033
446.50	14.920
446.85	14.346
447.20	14.442
447.55	15.067
447.91	15.285
448.26	14.969
448.61	14.796
448.96	15.605
449.31	15.029
449.66	14.634
450.02	14.375
450.37	14.878
450.72	14.261
451.07	15.190
451.42	14.732
451.77	15.552
452.12	13.995
452.47	13.007
452.83	15.077
453.18	13.978
453.53	14.728
453.88	14.451
454.23	15.243
454.58	14.987
454.93	14.820
455.28	13.079
455.63	15.127
455.98	14.612
456.34	13.921
456.69	14.168
457.04	15.753
457.39	14.338
457.74	14.389
458.09	13.832
458.44	14.511
458.79	14.174
459.14	14.703
459.49	14.806
459.84	14.326
460.19	14.381
460.54	14.120
460.89	14.545
461.24	14.037
461.59	13.895
461.94	13.711
462.29	14.596
462.64	14.684
462.99	14.218
463.34	13.769
463.69	13.385
464.04	13.438
464.39	14.069
464.74	14.356
465.09	14.161
465.44	13.964
465.79	13.152
466.14	14.880
466.49	13.859
466.84	13.980
467.19	14.706
467.54	13.474
467.89	14.024
468.24	13.382
468.59	13.714
468.94	13.778
469.29	13.902
469.64	14.764
469.99	13.875
470.34	12.628
470.68	14.169
471.03	13.093
471.38	14.194
471.73	12.815
472.08	13.094
472.43	13.356
472.78	12.748
473.13	13.741
473.48	13.290
473.83	13.200
474.17	13.277
474.52	13.082
474.87	13.576
475.22	12.752
475.57	12.027
475.92	14.152
476.27	13.737
476.61	13.194
476.96	12.437
477.31	14.224
477.66	12.303
478.01	13.307
478.36	13.181
478.70	12.289
479.05	13.407
479.40	12.719
479.75	13.087
480.10	13.313
480.45	12.400
480.79	13.142
481.14	13.012
481.49	12.463
481.84	13.079
482.19	13.096
482.53	12.614
482.88	12.792
483.23	12.668
483.58	12.453
483.92	11.762
484.27	12.352
484.62	12.461
484.97	11.940
485.31	11.850
485.66	11.392
486.01	11.668
486.36	11.534
486.70	11.856
487.05	12.151
487.40	12.151
487.75	11.887
488.09	11.990
488.44	12.173
488.79	11.655
489.13	12.179
489.48	12.270
489.83	12.422
490.17	12.360
490.52	11.871
490.87	12.124
491.22	12.130
491.56	11.575
491.91	11.663
492.26	12.688
492.60	12.140
492.95	12.543
493.30	12.311
493.64	12.328
493.99	11.787
494.34	12.136
494.68	12.143
495.03	11.290
495.37	12.365
495.72	12.115
496.07	11.805
496.41	11.557
496.76	11.608
497.11	11.178
497.45	12.506
497.80	12.008
498.14	11.177
498.49	11.427
498.84	11.876
499.18	11.998
499.53	12.252
499.87	11.868
500.22	10.336
500.56	12.103
500.91	11.797
501.26	11.518
501.60	11.510
501.95	11.936
502.29	12.591
502.64	11.486
502.98	11.593
503.33	11.143
503.67	11.422
504.02	11.535
504.36	11.677
504.71	11.768
505.06	11.324
505.40	11.015
505.75	11.546
506.09	11.303
506.44	11.294
506.78	11.378
507.13	11.634
507.47	11.123
507.82	11.111
508.16	11.886
508.51	11.542
508.85	11.722
509.19	11.123
509.54	11.367
509.88	11.057
510.23	11.350
510.57	11.224
510.92	10.181
511.26	11.457
511.61	11.111
511.95	11.068
512.30	11.641
512.64	11.797
512.98	11.454
513.33	11.360
513.67	10.688
514.02	12.014
514.36	12.114
514.70	12.063
515.05	11.633
515.39	11.157
515.74	11.617
516.08	12.014
516.42	11.720
516.77	11.469
517.11	10.742
517.46	11.251
517.80	11.681
518.14	10.104
518.49	11.538
518.83	11.057
519.17	10.794
519.52	11.190
519.86	10.984
520.20	10.693
520.55	10.069
520.89	11.543
521.23	10.133
521.58	11.483
521.92	11.218
522.26	10.410
522.61	10.974
522.95	11.921
523.29	11.881
523.64	11.245
523.98	11.666
524.32	10.760
524.66	11.780
525.01	11.818
525.35	11.730
525.69	10.707
526.04	10.516
526.38	11.349
526.72	10.530
527.06	10.052
527.41	12.137
527.75	10.322
528.09	10.631
528.43	11.614
528.78	10.759
529.12	10.710
529.46	10.201
529.80	11.970
530.15	11.485
530.49	10.909
530.83	11.628
531.17	10.678
531.51	11.218
531.86	10.605
532.20	10.717
532.54	10.551
532.88	11.020
533.22	10.417
533.57	10.682
533.91	9.661
534.25	11.003
534.59	10.648
534.93	10.573
535.27	9.898
535.62	10.369
535.96	10.698
536.30	10.752
536.64	10.751
536.98	10.105
537.32	10.953
537.66	11.290
538.01	11.049
538.35	10.055
538.69	10.985
539.03	10.185
539.37	10.431
539.71	10.770
540.05	10.115
540.39	10.596
540.73	10.181
541.07	10.704
541.42	10.820
541.76	9.704
542.10	10.323
542.44	10.076
542.78	9.085
543.12	9.272
543.46	10.779
543.80	10.687
544.14	9.613
544.48	9.594
544.82	10.663
545.16	11.066
545.50	10.748
545.84	10.907
546.18	10.426
546.52	10.166
546.86	9.993
547.20	10.443
547.54	9.329
547.88	9.851
548.22	9.533
548.56	10.356
548.90	10.714
549.24	9.917
549.58	10.367
549.92	9.078
550.26	10.110
550.60	10.186
550.94	9.037
551.28	10.046
551.62	10.231
551.96	9.398
552.30	8.845
552.64	10.508
552.98	9.212
553.32	9.700
553.66	9.507
554.00	9.051
554.34	9.527
554.68	10.398
555.02	10.863
555.36	9.200
555.69	8.425
556.03	8.565
556.37	9.324
556.71	9.170
557.05	8.650
557.39	8.550
557.73	9.820
558.07	10.935
558.41	8.576
558.75	10.055
559.08	9.456
559.42	9.921
559.76	8.887
560.10	9.939
560.44	8.861
560.78	9.720
561.12	8.815
561.45	8.644
561.79	9.804
562.13	9.084
562.47	8.489
562.81	9.438
563.15	9.309
563.48	9.194
563.82	10.021
564.16	8.635
564.50	9.122
564.84	10.107
565.17	8.786
565.51	9.563
565.85	9.396
566.19	9.284
566.52	9.651
566.86	9.897
567.20	8.032
567.54	8.698
567.88	9.783
568.21	7.975
568.55	8.859
568.89	9.189
569.23	8.859
569.56	8.406
569.90	8.810
570.24	8.671
570.57	8.691
570.91	8.714
571.25	7.991
571.59	8.066
571.92	8.148
572.26	8.122
572.60	7.876
572.93	8.597
573.27	8.213
573.61	7.548
573.95	8.138
574.28	7.998
574.62	7.882
574.96	8.452
575.29	7.850
575.63	7.955
575.97	7.671
576.30	7.872
576.64	7.629
576.98	8.134
577.31	8.012
577.65	8.188
577.98	7.925
578.32	8.050
578.66	7.823
578.99	7.932
579.33	8.069
579.67	7.494
580.00	7.975
580.34	7.960
580.67	7.468
581.01	7.805
581.35	7.580
581.68	7.912
582.02	7.414
582.35	7.874
582.69	7.557
583.02	7.862
583.36	7.902
583.70	8.100
584.03	7.840
584.37	8.357
584.70	7.555
585.04	7.383
585.37	7.862
585.71	7.924
586.04	7.867
586.38	7.202
586.72	7.747
587.05	7.828
587.39	8.247
587.72	8.010
588.06	7.999
588.39	7.833
588.73	8.364
589.06	8.350
589.40	8.123
589.73	8.288
590.07	7.817
590.40	8.127
590.73	8.155
591.07	7.294
591.40	7.391
591.74	8.416
592.07	8.442
592.41	8.525
592.74	7.965
593.08	7.440
593.41	8.369
593.75	7.687
594.08	7.827
594.41	8.188
594.75	7.519
595.08	8.362
595.42	8.024
595.75	7.548
596.09	8.092
596.42	7.648
596.75	8.304
597.09	8.383
597.42	7.995
597.75	7.467
598.09	8.058
598.42	7.762
598.76	8.108
599.09	7.893
599.42	8.071
599.76	7.825
600.09	7.730
600.42	8.529
600.76	7.949
601.09	7.366
601.42	7.834
601.76	8.257
602.09	7.384
602.42	7.624
602.76	8.107
603.09	7.766
603.42	7.901
603.76	7.419
604.09	7.452
604.42	7.657
604.76	8.100
605.09	7.541
605.42	7.449
605.75	7.443
606.09	7.643
606.42	7.048
606.75	7.749
607.09	8.000
607.42	7.444
607.75	7.549
608.08	7.412
608.42	7.583
608.75	8.145
609.08	7.922
609.41	8.173
609.75	8.921
610.08	7.888
610.41	7.343
610.74	7.704
611.07	7.545
611.41	8.147
611.74	8.849
612.07	8.030
612.40	8.370
612.73	7.627
613.07	7.930
613.40	8.589
613.73	7.722
614.06	8.904
614.39	8.178
614.72	7.563
615.06	7.821
615.39	7.806
615.72	7.266
616.05	7.821
616.38	7.350
616.71	8.135
617.05	8.215
617.38	7.982
617.71	7.673
618.04	7.810
618.37	8.764
618.70	7.987
619.03	8.333
619.36	6.874
619.69	9.401
620.03	8.035
620.36	7.654
620.69	8.565
621.02	8.028
621.35	8.963
621.68	7.823
622.01	8.333
622.34	9.018
622.67	8.123
623.00	7.887
623.33	8.003
623.66	7.405
623.99	7.489
624.32	9.125
624.65	7.594
624.99	7.901
625.32	6.899
625.65	8.641
625.98	9.750
626.31	7.648
626.64	8.319
626.97	9.686
627.30	8.494
627.63	10.225
627.96	7.547
628.29	8.511
628.62	8.653
628.95	8.016
629.28	8.871
629.61	8.574
629.94	8.016
630.26	7.016
630.59	8.221
630.92	7.487
631.25	9.026
631.58	9.141
631.91	7.566
632.24	8.142
632.57	8.523
632.90	7.236
633.23	6.941
633.56	8.438
633.89	7.891
634.22	9.630
634.55	7.878
634.88	8.685
635.20	6.667
635.53	7.733
635.86	6.892
636.19	8.538
636.52	7.781
636.85	7.072
637.18	7.170
637.51	7.673
637.83	7.884
638.16	8.595
638.49	6.676
638.82	9.079
639.15	7.598
639.48	7.153
639.81	7.810
640.13	8.947
640.46	8.455
640.79	7.658
641.12	7.681
641.45	8.408
641.77	6.963
642.10	9.163
