SpectraSuite Data File
++++++++++++++++++++++++++++++++++++
Date: Fri May 15 21:11:07 PDT 2015
User: schluterlab
Dark Spectrum Present: Yes
Reference Spectrum Present: Yes
Number of Sampled Component Spectra: 1
Spectrometers: USB2E3373
Integration Time (usec): 3000 (USB2E3373)
Spectra Averaged: 3 (USB2E3373)
Boxcar Smoothing: 0 (USB2E3373)
Correct for Electrical Dark: No (USB2E3373)
Strobe/Lamp Enabled: No (USB2E3373)
Correct for Detector Non-linearity: No (USB2E3373)
Correct for Stray Light: No (USB2E3373)
Number of Pixels in Processed Spectrum: 2048
>>>>>Begin Processed Spectral Data<<<<<
178.53	0.000
178.91	0.000
179.29	25.000
179.67	-450.000
180.04	-100.000
180.42	-100.000
180.80	-800.000
181.18	200.000
181.56	450.000
181.94	0.000
182.31	600.000
182.69	-40.000
183.07	-333.333
183.45	-200.000
183.83	183.333
184.20	36.364
184.58	122.222
184.96	-100.000
185.34	400.000
185.72	-850.000
186.09	46.154
186.47	-200.000
186.85	100.000
187.23	188.889
187.61	600.000
187.98	-100.000
188.36	66.667
188.74	-333.333
189.12	-11.765
189.49	11.111
189.87	0.000
190.25	35.714
190.63	50.000
191.00	-233.333
191.38	-21.053
191.76	300.000
192.14	75.000
192.51	-200.000
192.89	-100.000
193.27	-100.000
193.65	200.000
194.02	109.091
194.40	-50.000
194.78	-12.500
195.15	16.667
195.53	-125.000
195.91	100.000
196.29	-300.000
196.66	92.308
197.04	157.143
197.42	-88.889
197.79	-366.667
198.17	-53.846
198.55	1500.000
198.92	-100.000
199.30	0.000
199.68	-80.000
200.05	-100.000
200.43	0.000
200.81	100.000
201.18	-300.000
201.56	1600.000
201.94	-500.000
202.31	100.000
202.69	-300.000
203.07	75.000
203.44	0.000
203.82	0.000
204.19	-7.143
204.57	-400.000
204.95	200.000
205.32	80.000
205.70	-28.571
206.08	125.000
206.45	111.111
206.83	78.571
207.20	-85.714
207.58	800.000
207.96	0.000
208.33	-100.000
208.71	-25.000
209.08	0.000
209.46	-600.000
209.84	-60.000
210.21	-1600.000
210.59	-85.714
210.96	16.667
211.34	-100.000
211.71	13.333
212.09	42.857
212.46	-1700.000
212.84	0.000
213.22	100.000
213.59	350.000
213.97	30.769
214.34	63.636
214.72	-16.667
215.09	425.000
215.47	-38.462
215.84	18.182
216.22	300.000
216.59	-25.000
216.97	250.000
217.34	-250.000
217.72	-20.000
218.09	-75.000
218.47	187.500
218.84	-1300.000
219.22	-122.222
219.59	-160.000
219.97	266.667
220.34	225.000
220.72	42.857
221.09	0.000
221.47	-250.000
221.84	-900.000
222.22	-800.000
222.59	-18.182
222.97	16.667
223.34	-633.333
223.72	-57.143
224.09	19.048
224.46	-42.857
224.84	300.000
225.21	-50.000
225.59	13.333
225.96	-250.000
226.34	525.000
226.71	-42.857
227.08	-16.667
227.46	-75.000
227.83	-600.000
228.21	55.556
228.58	-9.091
228.95	-75.000
229.33	80.000
229.70	43.750
230.08	-100.000
230.45	57.143
230.82	28.571
231.20	33.333
231.57	-28.571
231.95	-28.571
232.32	0.000
232.69	35.714
233.07	-33.333
233.44	-20.000
233.81	-40.000
234.19	11.111
234.56	11.765
234.93	200.000
235.31	50.000
235.68	-280.000
236.05	-7.692
236.43	-45.000
236.80	11.765
237.17	-3.125
237.55	-10.000
237.92	18.519
238.29	16.667
238.67	33.333
239.04	11.765
239.41	14.634
239.79	6.667
240.16	39.024
240.53	15.789
240.91	6.522
241.28	22.222
241.65	39.286
242.02	42.466
242.40	35.000
242.77	33.898
243.14	22.727
243.51	35.000
243.89	39.080
244.26	28.736
244.63	29.762
245.00	31.959
245.38	27.835
245.75	17.978
246.12	31.897
246.49	33.058
246.87	38.462
247.24	29.412
247.61	28.947
247.98	30.894
248.36	32.500
248.73	25.000
249.10	27.273
249.47	37.342
249.84	37.908
250.22	31.176
250.59	32.680
250.96	32.394
251.33	33.140
251.70	37.059
252.08	34.010
252.45	29.208
252.82	32.663
253.19	36.866
253.56	33.178
253.94	36.937
254.31	33.478
254.68	34.649
255.05	33.071
255.42	32.314
255.79	35.907
256.16	28.794
256.54	35.821
256.91	30.038
257.28	28.996
257.65	35.955
258.02	31.206
258.39	34.343
258.76	35.531
259.14	35.216
259.51	31.392
259.88	32.302
260.25	37.255
260.62	35.417
260.99	35.593
261.36	28.767
261.73	33.544
262.10	33.739
262.47	32.515
262.85	34.169
263.22	33.231
263.59	34.579
263.96	37.578
264.33	36.364
264.70	34.821
265.07	33.631
265.44	33.994
265.81	32.486
266.18	35.519
266.55	36.247
266.92	33.679
267.29	33.159
267.66	32.992
268.03	34.817
268.40	34.204
268.77	37.968
269.14	31.175
269.51	35.733
269.88	33.167
270.25	33.418
270.62	30.000
270.99	31.714
271.36	32.274
271.73	34.272
272.10	34.550
272.47	30.733
272.84	33.416
273.21	33.875
273.58	32.289
273.95	34.096
274.32	31.640
274.69	30.317
275.06	33.929
275.43	31.973
275.80	33.113
276.17	33.333
276.54	32.334
276.91	34.430
277.28	29.694
277.65	30.785
278.02	33.617
278.39	31.510
278.76	35.220
279.13	30.290
279.50	34.664
279.87	30.670
280.23	29.677
280.60	32.554
280.97	33.131
281.34	29.808
281.71	32.649
282.08	32.515
282.45	32.485
282.82	31.660
283.19	31.721
283.56	31.985
283.92	28.653
284.29	31.731
284.66	28.488
285.03	34.185
285.40	31.380
285.77	31.283
286.14	32.671
286.51	34.502
286.87	29.799
287.24	29.834
287.61	30.335
287.98	29.649
288.35	30.849
288.72	31.173
289.08	29.861
289.45	31.634
289.82	30.594
290.19	30.717
290.56	29.160
290.93	31.818
291.29	25.578
291.66	27.559
292.03	29.506
292.40	29.032
292.77	29.027
293.13	24.675
293.50	28.073
293.87	28.397
294.24	28.284
294.60	25.782
294.97	27.381
295.34	26.994
295.71	25.037
296.08	26.158
296.44	23.471
296.81	26.667
297.18	28.261
297.55	27.236
297.91	26.301
298.28	25.066
298.65	25.373
299.02	26.954
299.38	24.487
299.75	24.690
300.12	25.393
300.48	25.692
300.85	24.715
301.22	25.195
301.59	24.605
301.95	26.456
302.32	25.940
302.69	26.244
303.05	23.762
303.42	26.027
303.79	25.935
304.15	25.090
304.52	24.732
304.89	24.795
305.25	23.729
305.62	23.454
305.99	24.912
306.35	25.549
306.72	23.510
307.09	25.656
307.45	25.832
307.82	24.884
308.19	26.365
308.55	26.499
308.92	26.580
309.29	25.587
309.65	26.157
310.02	25.743
310.38	28.101
310.75	27.213
311.12	26.480
311.48	26.829
311.85	27.749
312.22	26.582
312.58	27.282
312.95	27.321
313.31	25.983
313.68	27.330
314.05	29.796
314.41	29.381
314.78	30.103
315.14	29.908
315.51	31.573
315.87	30.943
316.24	32.861
316.61	33.071
316.97	31.548
317.34	32.422
317.70	30.688
318.07	33.077
318.43	33.431
318.80	32.765
319.16	33.789
319.53	35.423
319.89	34.449
320.26	35.628
320.62	36.309
320.99	34.029
321.35	37.513
321.72	39.460
322.08	38.872
322.45	42.132
322.81	38.802
323.18	40.824
323.54	40.251
323.91	41.870
324.27	42.969
324.64	42.978
325.00	43.704
325.37	45.179
325.73	44.696
326.10	46.140
326.46	46.547
326.83	48.469
327.19	49.085
327.56	49.696
327.92	51.056
328.29	51.875
328.65	52.358
329.01	53.952
329.38	52.811
329.74	52.880
330.11	55.514
330.47	55.288
330.84	57.308
331.20	58.840
331.56	55.833
331.93	56.895
332.29	60.312
332.66	57.647
333.02	58.736
333.38	59.028
333.75	60.073
334.11	57.923
334.48	60.925
334.84	61.538
335.20	60.018
335.57	60.290
335.93	61.247
336.29	61.510
336.66	59.673
337.02	61.617
337.38	62.685
337.75	62.909
338.11	62.128
338.47	63.686
338.84	62.939
339.20	60.786
339.56	62.477
339.93	63.653
340.29	63.670
340.65	66.219
341.02	63.652
341.38	62.832
341.74	62.986
342.11	62.478
342.47	65.036
342.83	65.138
343.20	62.892
343.56	65.739
343.92	63.508
344.28	65.670
344.65	65.199
345.01	65.341
345.37	64.592
345.73	63.096
346.10	66.437
346.46	63.499
346.82	63.011
347.19	63.259
347.55	65.497
347.91	64.725
348.27	64.753
348.63	65.162
349.00	64.151
349.36	63.508
349.72	66.003
350.08	64.672
350.45	64.645
350.81	65.947
351.17	64.577
351.53	64.898
351.89	65.070
352.26	64.560
352.62	65.403
352.98	64.016
353.34	63.768
353.70	65.372
354.07	64.677
354.43	66.053
354.79	66.144
355.15	65.556
355.51	65.190
355.87	66.424
356.24	64.763
356.60	64.996
356.96	67.698
357.32	65.974
357.68	65.207
358.04	66.397
358.40	64.871
358.77	66.108
359.13	66.133
359.49	64.561
359.85	65.289
360.21	66.906
360.57	64.728
360.93	66.188
361.29	66.390
361.66	68.025
362.02	67.879
362.38	67.174
362.74	65.935
363.10	66.516
363.46	67.606
363.82	67.693
364.18	64.797
364.54	66.029
364.90	67.384
365.26	66.885
365.62	67.445
365.98	68.695
366.35	68.682
366.71	68.514
367.07	66.691
367.43	66.139
367.79	66.784
368.15	67.193
368.51	67.371
368.87	65.757
369.23	66.570
369.59	67.128
369.95	67.375
370.31	67.413
370.67	66.940
371.03	66.542
371.39	68.490
371.75	67.106
372.11	67.118
372.47	67.825
372.83	67.850
373.19	66.619
373.55	66.570
373.91	67.963
374.27	68.391
374.63	67.552
374.99	66.879
375.35	67.061
375.71	68.951
376.07	67.767
376.42	68.503
376.78	68.121
377.14	67.840
377.50	67.131
377.86	67.403
378.22	67.709
378.58	68.718
378.94	66.919
379.30	66.999
379.66	67.398
380.02	66.278
380.38	66.525
380.74	66.966
381.09	68.221
381.45	68.196
381.81	68.044
382.17	67.449
382.53	67.833
382.89	69.115
383.25	69.011
383.61	69.207
383.97	69.651
384.32	66.041
384.68	67.307
385.04	67.586
385.40	67.082
385.76	69.811
386.12	67.982
386.48	69.923
386.83	68.041
387.19	67.949
387.55	69.448
387.91	67.726
388.27	67.643
388.62	68.911
388.98	67.710
389.34	67.895
389.70	69.360
390.06	68.093
390.42	68.264
390.77	68.476
391.13	67.276
391.49	68.952
391.85	69.591
392.20	68.110
392.56	67.769
392.92	67.587
393.28	67.748
393.64	67.027
393.99	69.781
394.35	69.260
394.71	67.433
395.07	67.693
395.42	66.727
395.78	68.339
396.14	67.402
396.50	67.850
396.85	68.384
397.21	67.419
397.57	67.147
397.92	66.986
398.28	67.414
398.64	66.807
399.00	65.971
399.35	67.381
399.71	66.628
400.07	68.380
400.42	66.646
400.78	67.912
401.14	66.909
401.49	68.017
401.85	66.789
402.21	66.988
402.57	67.750
402.92	66.248
403.28	67.481
403.63	66.898
403.99	66.454
404.35	66.458
404.70	65.298
405.06	65.394
405.42	66.501
405.77	65.718
406.13	66.298
406.49	66.667
406.84	68.032
407.20	66.707
407.55	66.710
407.91	67.513
408.27	65.902
408.62	66.400
408.98	65.558
409.34	65.366
409.69	66.860
410.05	65.025
410.40	65.370
410.76	66.224
411.11	66.312
411.47	67.324
411.83	65.662
412.18	65.508
412.54	65.730
412.89	64.286
413.25	66.366
413.60	66.646
413.96	65.521
414.31	64.756
414.67	65.298
415.03	65.113
415.38	64.687
415.74	65.081
416.09	64.729
416.45	65.766
416.80	64.574
417.16	68.025
417.51	64.757
417.87	63.690
418.22	65.091
418.58	66.288
418.93	67.335
419.29	63.764
419.64	64.226
420.00	65.995
420.35	64.239
420.71	65.674
421.06	65.009
421.42	65.084
421.77	65.723
422.12	63.791
422.48	64.970
422.83	64.385
423.19	65.858
423.54	64.256
423.90	63.781
424.25	64.753
424.61	65.116
424.96	63.008
425.31	64.471
425.67	65.434
426.02	66.078
426.38	65.435
426.73	65.436
427.09	67.405
427.44	65.235
427.79	65.410
428.15	64.320
428.50	65.354
428.85	64.435
429.21	65.365
429.56	65.175
429.92	64.201
430.27	62.757
430.62	63.931
430.98	64.119
431.33	64.984
431.68	64.469
432.04	65.064
432.39	64.461
432.74	62.718
433.10	65.287
433.45	65.114
433.80	64.829
434.16	65.319
434.51	64.140
434.86	65.738
435.22	65.339
435.57	64.442
435.92	65.808
436.28	63.208
436.63	64.005
436.98	61.993
437.34	65.759
437.69	65.653
438.04	64.957
438.39	63.348
438.75	65.392
439.10	64.743
439.45	64.334
439.81	63.914
440.16	65.499
440.51	66.030
440.86	65.740
441.22	63.009
441.57	64.073
441.92	65.005
442.27	65.355
442.63	64.186
442.98	64.159
443.33	63.105
443.68	63.342
444.03	64.183
444.39	63.355
444.74	65.608
445.09	64.532
445.44	64.444
445.79	66.993
446.15	63.546
446.50	63.616
446.85	64.665
447.20	63.712
447.55	64.286
447.91	64.298
448.26	65.054
448.61	64.652
448.96	64.544
449.31	63.121
449.66	64.692
450.02	63.890
450.37	65.264
450.72	63.803
451.07	63.481
451.42	62.484
451.77	64.617
452.12	63.457
452.47	63.232
452.83	65.548
453.18	64.453
453.53	65.171
453.88	64.481
454.23	64.720
454.58	66.184
454.93	64.111
455.28	62.032
455.63	64.042
455.98	64.342
456.34	65.262
456.69	63.977
457.04	64.209
457.39	65.006
457.74	64.208
458.09	61.801
458.44	63.546
458.79	63.529
459.14	64.931
459.49	63.522
459.84	64.918
460.19	63.653
460.54	64.242
460.89	64.318
461.24	63.789
461.59	65.558
461.94	63.082
462.29	63.752
462.64	65.116
462.99	64.794
463.34	63.908
463.69	64.672
464.04	64.588
464.39	63.857
464.74	64.785
465.09	64.130
465.44	63.647
465.79	62.132
466.14	62.942
466.49	63.255
466.84	63.891
467.19	64.018
467.54	63.410
467.89	64.308
468.24	64.173
468.59	64.825
468.94	64.762
469.29	64.459
469.64	64.046
469.99	65.032
470.34	64.915
470.68	66.741
471.03	65.817
471.38	66.334
471.73	65.756
472.08	64.179
472.43	64.698
472.78	64.428
473.13	64.354
473.48	65.342
473.83	63.512
474.17	64.702
474.52	64.837
474.87	64.000
475.22	63.819
475.57	63.354
475.92	64.015
476.27	64.494
476.61	65.046
476.96	63.804
477.31	64.305
477.66	64.270
478.01	65.300
478.36	63.453
478.70	65.253
479.05	65.165
479.40	63.487
479.75	63.399
480.10	63.902
480.45	65.000
480.79	65.206
481.14	65.369
481.49	64.335
481.84	65.010
482.19	63.424
482.53	64.125
482.88	64.248
483.23	63.820
483.58	63.962
483.92	63.988
484.27	63.172
484.62	64.590
484.97	63.847
485.31	61.163
485.66	59.269
486.01	58.142
486.36	58.037
486.70	60.162
487.05	61.425
487.40	61.427
487.75	61.577
488.09	62.917
488.44	63.274
488.79	64.625
489.13	63.582
489.48	64.814
489.83	63.677
490.17	64.449
490.52	65.404
490.87	64.507
491.22	64.900
491.56	64.706
491.91	64.484
492.26	67.088
492.60	64.587
492.95	65.568
493.30	63.459
493.64	65.324
493.99	64.783
494.34	66.019
494.68	65.048
495.03	63.990
495.37	65.898
495.72	66.784
496.07	65.805
496.41	65.189
496.76	64.901
497.11	64.229
497.45	65.585
497.80	67.053
498.14	64.133
498.49	66.328
498.84	64.970
499.18	66.014
499.53	65.476
499.87	64.202
500.22	65.183
500.56	65.759
500.91	66.064
501.26	63.816
501.60	64.781
501.95	65.551
502.29	65.278
502.64	66.071
502.98	64.825
503.33	63.737
503.67	66.024
504.02	65.249
504.36	66.353
504.71	66.313
505.06	64.117
505.40	63.959
505.75	66.186
506.09	64.268
506.44	66.838
506.78	66.480
507.13	65.460
507.47	65.535
507.82	66.026
508.16	65.769
508.51	65.897
508.85	66.667
509.19	66.152
509.54	66.595
509.88	66.127
510.23	66.756
510.57	67.237
510.92	64.872
511.26	67.103
511.61	68.207
511.95	65.973
512.30	67.461
512.64	66.444
512.98	67.209
513.33	67.543
513.67	67.197
514.02	69.851
514.36	68.686
514.70	69.464
515.05	69.389
515.39	68.241
515.74	70.419
516.08	68.978
516.42	69.435
516.77	69.163
517.11	69.318
517.46	69.479
517.80	69.309
518.14	69.320
518.49	69.471
518.83	69.502
519.17	67.071
519.52	68.384
519.86	68.848
520.20	69.866
520.55	71.545
520.89	69.887
521.23	70.298
521.58	69.968
521.92	70.769
522.26	70.722
522.61	70.065
522.95	72.980
523.29	71.220
523.64	70.648
523.98	72.067
524.32	71.585
524.66	71.575
525.01	71.688
525.35	71.355
525.69	71.650
526.04	71.693
526.38	72.827
526.72	71.158
527.06	71.077
527.41	71.504
527.75	70.643
528.09	71.163
528.43	72.113
528.78	71.221
529.12	71.677
529.46	69.916
529.80	70.044
530.15	71.947
530.49	71.785
530.83	72.982
531.17	71.256
531.51	73.187
531.86	71.448
532.20	71.747
532.54	71.069
532.88	73.717
533.22	72.379
533.57	71.035
533.91	71.475
534.25	71.940
534.59	71.584
534.93	69.352
535.27	69.226
535.62	70.253
535.96	71.363
536.30	71.636
536.64	72.502
536.98	73.031
537.32	73.755
537.66	72.020
538.01	73.007
538.35	71.151
538.69	71.039
539.03	70.540
539.37	71.131
539.71	70.279
540.05	71.419
540.39	71.676
540.73	72.873
541.07	71.340
541.42	71.707
541.76	71.783
542.10	71.507
542.44	70.605
542.78	70.750
543.12	70.467
543.46	71.905
543.80	70.854
544.14	68.825
544.48	69.887
544.82	70.813
545.16	72.404
545.50	70.227
545.84	70.326
546.18	72.979
546.52	72.170
546.86	72.250
547.20	71.316
547.54	69.187
547.88	70.312
548.22	68.771
548.56	69.459
548.90	71.361
549.24	69.353
549.58	71.157
549.92	70.193
550.26	71.429
550.60	72.937
550.94	71.770
551.28	73.493
551.62	74.000
551.96	71.880
552.30	70.541
552.64	70.099
552.98	69.480
553.32	70.471
553.66	69.739
554.00	71.825
554.34	72.378
554.68	69.838
555.02	72.991
555.36	71.578
555.69	70.183
556.03	68.879
556.37	68.897
556.71	71.913
557.05	71.738
557.39	69.814
557.73	72.339
558.07	71.267
558.41	72.282
558.75	71.785
559.08	71.946
559.42	71.746
559.76	72.538
560.10	70.489
560.44	70.290
560.78	69.301
561.12	70.099
561.45	70.344
561.79	69.118
562.13	71.043
562.47	69.640
562.81	69.020
563.15	68.970
563.48	69.236
563.82	70.830
564.16	70.961
564.50	68.581
564.84	69.277
565.17	69.618
565.51	70.765
565.85	70.439
566.19	69.098
566.52	71.381
566.86	71.080
567.20	67.621
567.54	68.127
567.88	66.550
568.21	67.308
568.55	66.250
568.89	67.864
569.23	65.094
569.56	64.054
569.90	63.865
570.24	62.002
570.57	63.309
570.91	62.426
571.25	61.263
571.59	59.670
571.92	59.259
572.26	60.205
572.60	61.209
572.93	59.900
573.27	59.498
573.61	59.964
573.95	59.721
574.28	58.024
574.62	57.513
574.96	58.165
575.29	57.471
575.63	57.321
575.97	58.254
576.30	58.701
576.64	57.960
576.98	58.867
577.31	57.926
577.65	58.647
577.98	57.185
578.32	56.997
578.66	56.136
578.99	57.347
579.33	57.057
579.67	57.532
580.00	57.646
580.34	58.209
580.67	57.740
581.01	57.829
581.35	56.374
581.68	56.760
582.02	56.506
582.35	56.137
582.69	56.584
583.02	56.804
583.36	57.582
583.70	58.437
584.03	59.633
584.37	60.079
584.70	58.516
585.04	56.244
585.37	57.174
585.71	56.258
586.04	57.262
586.38	57.269
586.72	57.848
587.05	58.174
587.39	58.065
587.72	58.420
588.06	58.068
588.39	58.673
588.73	58.608
589.06	59.948
589.40	59.661
589.73	60.387
590.07	61.178
590.40	60.604
590.73	62.150
591.07	61.917
591.40	61.309
591.74	63.303
592.07	62.291
592.41	60.645
592.74	59.578
593.08	57.876
593.41	58.649
593.75	58.325
594.08	56.917
594.41	58.224
594.75	60.153
595.08	58.494
595.42	58.962
595.75	59.782
596.09	60.047
596.42	61.058
596.75	60.968
597.09	60.592
597.42	60.163
597.75	60.376
598.09	59.303
598.42	60.108
598.76	59.116
599.09	58.974
599.42	57.332
599.76	58.691
600.09	57.843
600.42	57.468
600.76	58.135
601.09	59.084
601.42	58.519
601.76	58.952
602.09	59.695
602.42	59.773
602.76	60.187
603.09	60.257
603.42	61.079
603.76	58.669
604.09	59.457
604.42	60.364
604.76	60.970
605.09	60.512
605.42	60.677
605.75	59.632
606.09	59.066
606.42	58.674
606.75	58.398
607.09	59.033
607.42	59.327
607.75	58.348
608.08	58.311
608.42	58.931
608.75	60.867
609.08	60.787
609.41	60.558
609.75	59.728
610.08	60.559
610.41	58.599
610.74	60.263
611.07	60.827
611.41	60.716
611.74	61.461
612.07	58.994
612.40	62.691
612.73	61.977
613.07	61.136
613.40	60.175
613.73	61.388
614.06	61.157
614.39	60.519
614.72	60.784
615.06	61.341
615.39	58.570
615.72	59.795
616.05	59.553
616.38	59.715
616.71	61.407
617.05	62.261
617.38	61.471
617.71	63.019
618.04	62.603
618.37	62.610
618.70	63.168
619.03	63.681
619.36	64.110
619.69	65.959
620.03	66.910
620.36	63.805
620.69	63.883
621.02	64.832
621.35	67.303
621.68	69.643
622.01	68.167
622.34	66.321
622.67	64.984
623.00	65.084
623.33	64.863
623.66	63.949
623.99	63.389
624.32	64.259
624.65	64.211
624.99	65.764
625.32	65.201
625.65	65.829
625.98	65.995
626.31	66.085
626.64	67.071
626.97	67.627
627.30	66.550
627.63	67.764
627.96	67.206
628.29	68.825
628.62	70.108
628.95	68.637
629.28	69.758
629.61	68.495
629.94	68.817
630.26	68.676
630.59	71.384
630.92	70.462
631.25	68.821
631.58	72.247
631.91	71.053
632.24	71.560
632.57	72.500
632.90	72.123
633.23	72.235
633.56	75.693
