SpectraSuite Data File
++++++++++++++++++++++++++++++++++++
Date: Fri May 15 21:00:34 PDT 2015
User: schluterlab
Dark Spectrum Present: Yes
Reference Spectrum Present: Yes
Number of Sampled Component Spectra: 1
Spectrometers: USB2E3373
Integration Time (usec): 3000 (USB2E3373)
Spectra Averaged: 3 (USB2E3373)
Boxcar Smoothing: 0 (USB2E3373)
Correct for Electrical Dark: No (USB2E3373)
Strobe/Lamp Enabled: No (USB2E3373)
Correct for Detector Non-linearity: No (USB2E3373)
Correct for Stray Light: No (USB2E3373)
Number of Pixels in Processed Spectrum: 2048
>>>>>Begin Processed Spectral Data<<<<<
178.53	0.000
178.91	0.000
179.29	25.000
179.67	-300.000
180.04	57.143
180.42	25.000
180.80	400.000
181.18	233.333
181.56	950.000
181.94	-200.000
182.31	200.000
182.69	-100.000
183.07	0.000
183.45	-100.000
183.83	183.333
184.20	-145.455
184.58	188.889
184.96	175.000
185.34	166.667
185.72	-550.000
186.09	115.385
186.47	-700.000
186.85	200.000
187.23	200.000
187.61	700.000
187.98	-433.333
188.36	-77.778
188.74	-200.000
189.12	5.882
189.49	16.667
189.87	0.000
190.25	64.286
190.63	-450.000
191.00	-333.333
191.38	0.000
191.76	50.000
192.14	175.000
192.51	200.000
192.89	-11.111
193.27	-100.000
193.65	150.000
194.02	154.545
194.40	20.000
194.78	-225.000
195.15	-66.667
195.53	-75.000
195.91	150.000
196.29	-200.000
196.66	138.462
197.04	257.143
197.42	-66.667
197.79	-400.000
198.17	-146.154
198.55	1600.000
198.92	-600.000
199.30	-600.000
199.68	-80.000
200.05	-466.667
200.43	0.000
200.81	-100.000
201.18	-33.333
201.56	1600.000
201.94	-500.000
202.31	-33.333
202.69	-380.000
203.07	200.000
203.44	1000.000
203.82	0.000
204.19	-7.143
204.57	-733.333
204.95	187.500
205.32	-90.000
205.70	171.429
206.08	-325.000
206.45	55.556
206.83	35.714
207.20	-28.571
207.58	600.000
207.96	-366.667
208.33	-100.000
208.71	-200.000
209.08	-200.000
209.46	-800.000
209.84	-200.000
210.21	-1300.000
210.59	-28.571
210.96	-16.667
211.34	-100.000
211.71	-6.667
212.09	-200.000
212.46	-1100.000
212.84	0.000
213.22	30.000
213.59	500.000
213.97	15.385
214.34	54.545
214.72	-83.333
215.09	500.000
215.47	-23.077
215.84	-54.545
216.22	-266.667
216.59	25.000
216.97	250.000
217.34	-50.000
217.72	-340.000
218.09	0.000
218.47	112.500
218.84	-1000.000
219.22	-88.889
219.59	-160.000
219.97	633.333
220.34	275.000
220.72	-214.286
221.09	-300.000
221.47	-450.000
221.84	-800.000
222.22	-800.000
222.59	36.364
222.97	8.333
223.34	-500.000
223.72	-28.571
224.09	33.333
224.46	14.286
224.84	333.333
225.21	-30.000
225.59	-13.333
225.96	300.000
226.34	325.000
226.71	42.857
227.08	0.000
227.46	-50.000
227.83	-450.000
228.21	44.444
228.58	9.091
228.95	-37.500
229.33	180.000
229.70	0.000
230.08	-87.500
230.45	-142.857
230.82	-85.714
231.20	-26.667
231.57	-35.714
231.95	-57.143
232.32	-70.000
232.69	28.571
233.07	66.667
233.44	40.000
233.81	-80.000
234.19	33.333
234.56	23.529
234.93	450.000
235.31	225.000
235.68	-60.000
236.05	-23.077
236.43	-10.000
236.80	35.294
237.17	34.375
237.55	35.000
237.92	7.407
238.29	11.111
238.67	43.333
239.04	26.471
239.41	14.634
239.79	33.333
240.16	53.659
240.53	18.421
240.91	21.739
241.28	36.508
241.65	55.357
242.02	42.466
242.40	50.000
242.77	37.288
243.14	34.848
243.51	51.250
243.89	58.621
244.26	28.736
244.63	50.000
245.00	42.268
245.38	57.732
245.75	43.820
246.12	37.069
246.49	49.587
246.87	53.846
247.24	49.580
247.61	41.228
247.98	47.154
248.36	46.875
248.73	50.658
249.10	43.506
249.47	52.532
249.84	52.941
250.22	50.000
250.59	60.131
250.96	50.704
251.33	55.814
251.70	54.706
252.08	53.299
252.45	52.475
252.82	51.759
253.19	50.691
253.56	53.738
253.94	55.405
254.31	61.304
254.68	52.632
255.05	49.213
255.42	56.332
255.79	53.668
256.16	50.973
256.54	56.343
256.91	53.992
257.28	49.442
257.65	49.438
258.02	52.482
258.39	56.902
258.76	57.143
259.14	57.143
259.51	53.398
259.88	48.797
260.25	53.268
260.62	60.417
260.99	56.949
261.36	55.822
261.73	56.962
262.10	53.191
262.47	54.601
262.85	55.486
263.22	58.462
263.59	56.075
263.96	56.832
264.33	56.667
264.70	51.190
265.07	53.571
265.44	60.907
265.81	56.497
266.18	57.923
266.55	57.841
266.92	58.808
267.29	57.702
267.66	54.220
268.03	55.759
268.40	54.308
268.77	56.684
269.14	53.477
269.51	54.242
269.88	55.362
270.25	57.398
270.62	52.683
270.99	53.964
271.36	51.589
271.73	54.225
272.10	54.745
272.47	56.738
272.84	56.188
273.21	51.508
273.58	54.699
273.95	52.860
274.32	55.196
274.69	51.584
275.06	54.911
275.43	52.834
275.80	54.525
276.17	57.931
276.54	52.891
276.91	53.728
277.28	50.655
277.65	52.479
278.02	54.894
278.39	53.173
278.76	53.040
279.13	51.452
279.50	53.151
279.87	53.780
280.23	51.828
280.60	47.758
280.97	52.121
281.34	51.923
281.71	55.647
282.08	50.511
282.45	48.924
282.82	52.896
283.19	51.838
283.56	50.482
283.92	51.613
284.29	46.731
284.66	51.550
285.03	51.473
285.40	53.497
285.77	49.385
286.14	50.361
286.51	53.875
286.87	47.532
287.24	51.197
287.61	47.795
287.98	50.000
288.35	49.047
288.72	48.862
289.08	49.132
289.45	49.033
289.82	46.853
290.19	49.317
290.56	47.170
290.93	47.138
291.29	44.376
291.66	46.614
292.03	45.455
292.40	44.355
292.77	45.455
293.13	43.669
293.50	42.640
293.87	42.595
294.24	43.277
294.60	41.729
294.97	43.452
295.34	43.405
295.71	41.282
296.08	40.209
296.44	38.265
296.81	40.556
297.18	40.290
297.55	40.379
297.91	38.493
298.28	37.863
298.65	37.856
299.02	38.679
299.38	37.073
299.75	39.724
300.12	36.257
300.48	37.549
300.85	38.276
301.22	35.714
301.59	37.105
301.95	38.101
302.32	36.835
302.69	37.065
303.05	38.119
303.42	35.243
303.79	36.098
304.15	36.440
304.52	35.196
304.89	36.023
305.25	34.262
305.62	34.889
305.99	34.737
306.35	33.757
306.72	32.508
307.09	33.409
307.45	36.165
307.82	33.565
308.19	36.702
308.55	32.279
308.92	36.057
309.29	34.525
309.65	34.015
310.02	35.314
310.38	34.358
310.75	35.956
311.12	33.477
311.48	33.722
311.85	33.508
312.22	32.911
312.58	31.847
312.95	33.298
313.31	32.712
313.68	34.346
314.05	33.367
314.41	31.546
314.78	33.608
315.14	33.607
315.51	32.298
315.87	32.275
316.24	33.771
316.61	32.382
316.97	33.135
317.34	32.422
317.70	33.748
318.07	31.346
318.43	32.647
318.80	32.197
319.16	32.520
319.53	32.953
319.89	32.579
320.26	32.287
320.62	32.999
320.99	32.046
321.35	33.094
321.72	32.503
322.08	31.621
322.45	33.401
322.81	31.336
323.18	32.581
323.54	31.853
323.91	32.230
324.27	32.324
324.64	32.303
325.00	32.755
325.37	33.517
325.73	31.278
326.10	31.335
326.46	32.377
326.83	32.633
327.19	32.171
327.56	33.015
327.92	33.627
328.29	30.714
328.65	32.264
329.01	31.618
329.38	31.705
329.74	31.445
330.11	31.140
330.47	32.004
330.84	30.288
331.20	32.985
331.56	31.019
331.93	32.877
332.29	32.356
332.66	30.769
333.02	31.506
333.38	30.889
333.75	32.326
334.11	29.902
334.48	31.822
334.84	31.227
335.20	30.192
335.57	30.825
335.93	30.533
336.29	31.400
336.66	31.063
337.02	30.576
337.38	30.741
337.75	31.000
338.11	30.658
338.47	29.927
338.84	29.205
339.20	30.987
339.56	31.468
339.93	30.976
340.29	31.009
340.65	31.720
341.02	31.206
341.38	30.354
341.74	30.300
342.11	29.376
342.47	30.249
342.83	30.536
343.20	28.833
343.56	30.696
343.92	30.647
344.28	29.633
344.65	30.138
345.01	29.127
345.37	29.689
345.73	29.791
346.10	30.285
346.46	29.268
346.82	29.051
347.19	29.177
347.55	29.908
347.91	29.045
348.27	29.184
348.63	30.494
349.00	29.122
349.36	28.595
349.72	30.017
350.08	29.426
350.45	28.811
350.81	28.821
351.17	28.176
351.53	29.796
351.89	27.993
352.26	28.240
352.62	30.081
352.98	26.747
353.34	27.939
353.70	28.317
354.07	27.742
354.43	28.183
354.79	28.324
355.15	29.127
355.51	28.165
355.87	28.317
356.24	27.814
356.60	28.698
356.96	29.365
357.32	28.674
357.68	27.522
358.04	27.625
358.40	27.653
358.77	28.708
359.13	26.741
359.49	27.196
359.85	27.613
360.21	27.512
360.57	27.008
360.93	27.761
361.29	26.208
361.66	27.900
362.02	27.879
362.38	28.789
362.74	27.933
363.10	27.840
363.46	28.021
363.82	27.648
364.18	27.085
364.54	26.544
364.90	27.527
365.26	26.565
365.62	27.956
365.98	27.126
366.35	27.240
366.71	26.681
367.07	27.649
367.43	26.240
367.79	26.926
368.15	27.351
368.51	27.968
368.87	26.131
369.23	27.004
369.59	27.478
369.95	26.686
370.31	27.312
370.67	27.463
371.03	26.662
371.39	26.623
371.75	26.960
372.11	26.391
372.47	26.109
372.83	26.118
373.19	26.676
373.55	26.209
373.91	26.206
374.27	26.719
374.63	26.992
374.99	26.099
375.35	27.159
375.71	27.203
376.07	25.772
376.42	25.918
376.78	27.517
377.14	25.592
377.50	26.096
377.86	26.238
378.22	25.399
378.58	24.679
378.94	25.646
379.30	25.702
379.66	27.147
380.02	26.180
380.38	25.989
380.74	26.092
381.09	26.503
381.45	26.177
381.81	25.910
382.17	25.317
382.53	25.796
382.89	25.989
383.25	25.264
383.61	25.610
383.97	24.317
384.32	25.704
384.68	24.644
385.04	24.816
385.40	25.700
385.76	26.289
386.12	25.291
386.48	25.990
386.83	25.682
387.19	25.580
387.55	26.286
387.91	25.672
388.27	26.374
388.62	25.425
388.98	24.555
389.34	24.797
389.70	24.984
390.06	24.607
390.42	25.130
390.77	25.376
391.13	25.032
391.49	25.291
391.85	25.276
392.20	25.173
392.56	25.048
392.92	25.073
393.28	26.120
393.64	24.805
393.99	25.329
394.35	24.288
394.71	25.287
395.07	24.136
395.42	24.104
395.78	24.951
396.14	25.410
396.50	25.491
396.85	25.113
397.21	24.937
397.57	24.890
397.92	24.985
398.28	24.828
398.64	24.699
399.00	25.734
399.35	24.266
399.71	24.584
400.07	24.909
400.42	24.357
400.78	25.168
401.14	24.803
401.49	25.313
401.85	24.558
402.21	25.542
402.57	25.812
402.92	24.467
403.28	25.439
403.63	24.212
403.99	24.809
404.35	24.922
404.70	24.226
405.06	24.266
405.42	24.674
405.77	23.184
406.13	24.389
406.49	24.216
406.84	24.022
407.20	24.985
407.55	23.760
407.91	23.797
408.27	23.709
408.62	24.985
408.98	24.030
409.34	24.349
409.69	24.031
410.05	23.892
410.40	23.765
410.76	23.824
411.11	24.812
411.47	24.392
411.83	23.415
412.18	24.453
412.54	24.157
412.89	23.953
413.25	24.729
413.60	24.720
413.96	24.356
414.31	24.573
414.67	24.054
415.03	23.369
415.38	23.433
415.74	24.625
416.09	24.298
416.45	24.713
416.80	23.992
417.16	23.826
417.51	23.917
417.87	23.533
418.22	24.417
418.58	23.946
418.93	24.451
419.29	23.047
419.64	23.785
420.00	24.307
420.35	23.403
420.71	24.180
421.06	23.573
421.42	24.219
421.77	23.584
422.12	23.666
422.48	24.905
422.83	22.912
423.19	23.702
423.54	23.751
423.90	24.441
424.25	24.512
424.61	24.235
424.96	23.810
425.31	24.552
425.67	23.592
426.02	24.441
426.38	24.045
426.73	24.031
427.09	24.557
427.44	24.294
427.79	24.278
428.15	23.544
428.50	24.712
428.85	23.956
429.21	23.995
429.56	24.205
429.92	23.780
430.27	24.160
430.62	24.098
430.98	23.673
431.33	23.922
431.68	24.647
432.04	23.980
432.39	23.446
432.74	23.391
433.10	23.908
433.45	23.417
433.80	22.983
434.16	23.047
434.51	24.409
434.86	24.216
435.22	23.331
435.57	23.518
435.92	24.012
436.28	23.435
436.63	23.788
436.98	22.885
437.34	23.472
437.69	23.792
438.04	23.704
438.39	23.274
438.75	24.408
439.10	24.278
439.45	23.433
439.81	23.792
440.16	24.466
440.51	24.597
440.86	24.773
441.22	24.321
441.57	23.289
441.92	24.134
442.27	24.224
442.63	24.304
442.98	23.377
443.33	24.040
443.68	23.767
444.03	23.994
444.39	24.397
444.74	25.418
445.09	24.443
445.44	23.590
445.79	25.271
446.15	24.504
446.50	23.738
446.85	24.761
447.20	24.296
447.55	24.107
447.91	23.689
448.26	24.189
448.61	24.525
448.96	24.383
449.31	24.277
449.66	24.216
450.02	24.643
450.37	24.956
450.72	24.685
451.07	24.304
451.42	24.157
451.77	24.292
452.12	24.581
452.47	24.340
452.83	23.439
453.18	25.300
453.53	23.641
453.88	25.319
454.23	24.770
454.58	24.181
454.93	24.871
455.28	23.873
455.63	24.923
455.98	24.895
456.34	24.393
456.69	24.333
457.04	25.016
457.39	24.119
457.74	25.030
458.09	24.308
458.44	23.757
458.79	24.482
459.14	25.400
459.49	24.657
459.84	25.212
460.19	25.061
460.54	25.306
460.89	25.341
461.24	24.348
461.59	25.000
461.94	23.270
462.29	24.729
462.64	25.183
462.99	24.171
463.34	24.826
463.69	24.646
464.04	25.061
464.39	24.924
464.74	24.785
465.09	24.953
465.44	24.409
465.79	23.866
466.14	24.743
466.49	24.497
466.84	24.093
467.19	24.844
467.54	24.713
467.89	24.258
468.24	25.182
468.59	25.016
468.94	24.317
469.29	25.246
469.64	24.607
469.99	24.036
470.34	23.618
470.68	25.280
471.03	24.416
471.38	25.036
471.73	24.230
472.08	23.881
472.43	24.899
472.78	23.441
473.13	24.762
473.48	24.625
473.83	24.097
474.17	25.194
474.52	25.207
474.87	25.394
475.22	23.673
475.57	24.224
475.92	24.520
476.27	24.214
476.61	25.347
476.96	24.205
477.31	25.257
477.66	24.270
478.01	24.481
478.36	24.237
478.70	24.742
479.05	24.560
479.40	24.377
479.75	23.931
480.10	24.885
480.45	24.200
480.79	25.025
481.14	24.436
481.49	23.695
481.84	25.338
482.19	25.117
482.53	23.933
482.88	24.057
483.23	24.232
483.58	24.623
483.92	24.105
484.27	23.974
484.62	24.249
484.97	24.378
485.31	23.988
485.66	24.503
486.01	24.828
486.36	24.904
486.70	25.297
487.05	25.195
487.40	24.612
487.75	24.254
488.09	24.166
488.44	23.728
488.79	23.945
489.13	24.439
489.48	23.600
489.83	24.215
490.17	23.820
490.52	24.988
490.87	24.017
491.22	24.642
491.56	24.620
491.91	23.948
492.26	24.210
492.60	24.808
492.95	24.250
493.30	24.279
493.64	24.509
493.99	24.155
494.34	23.738
494.68	24.476
495.03	23.455
495.37	24.681
495.72	24.785
496.07	24.341
496.41	24.387
496.76	24.182
497.11	23.987
497.45	23.819
497.80	24.168
498.14	23.746
498.49	24.225
498.84	23.902
499.18	25.000
499.53	24.752
499.87	23.784
500.22	23.838
500.56	24.559
500.91	25.753
501.26	23.085
501.60	23.561
501.95	24.309
502.29	24.262
502.64	24.517
502.98	24.568
503.33	24.400
503.67	24.675
504.02	24.585
504.36	25.186
504.71	23.889
505.06	24.660
505.40	24.518
505.75	23.247
506.09	23.670
506.44	25.103
506.78	24.643
507.13	24.250
507.47	23.708
507.82	23.771
508.16	23.719
508.51	24.607
508.85	24.437
509.19	23.683
509.54	24.397
509.88	24.110
510.23	25.121
510.57	24.105
510.92	23.881
511.26	24.277
511.61	24.642
511.95	23.836
512.30	23.670
512.64	24.652
512.98	23.302
513.33	24.231
513.67	23.309
514.02	25.000
514.36	24.686
514.70	24.825
515.05	24.912
515.39	24.498
515.74	25.269
516.08	24.387
516.42	24.028
516.77	24.283
517.11	24.036
517.46	25.075
517.80	24.434
518.14	23.882
518.49	23.558
518.83	23.694
519.17	22.741
519.52	23.623
519.86	22.809
520.20	24.241
520.55	23.827
520.89	24.153
521.23	23.939
521.58	24.101
521.92	23.974
522.26	23.422
522.61	23.442
522.95	25.232
523.29	24.651
523.64	23.825
523.98	24.109
524.32	23.905
524.66	24.584
525.01	24.675
525.35	24.951
525.69	24.444
526.04	23.148
526.38	25.422
526.72	23.283
527.06	24.060
527.41	23.351
527.75	23.391
528.09	24.252
528.43	24.375
528.78	23.168
529.12	23.484
529.46	22.872
529.80	24.383
530.15	24.290
530.49	24.444
530.83	24.487
531.17	23.909
531.51	24.008
531.86	23.114
532.20	23.591
532.54	23.962
532.88	23.888
533.22	23.589
533.57	23.657
533.91	23.825
534.25	23.633
534.59	22.643
534.93	23.348
535.27	23.477
535.62	23.914
535.96	24.136
536.30	23.945
536.64	24.466
536.98	23.833
537.32	23.115
537.66	24.895
538.01	24.965
538.35	24.411
538.69	23.435
539.03	23.513
539.37	24.024
539.71	24.131
540.05	24.033
540.39	24.030
540.73	24.128
541.07	24.517
541.42	24.664
541.76	25.052
542.10	24.226
542.44	24.809
542.78	22.918
543.12	22.871
543.46	24.896
543.80	22.970
544.14	22.897
544.48	23.384
544.82	24.129
545.16	24.727
545.50	24.032
545.84	24.079
546.18	23.262
546.52	24.081
546.86	23.149
547.20	23.534
547.54	24.099
547.88	23.098
548.22	22.945
548.56	23.153
548.90	23.854
549.24	22.658
549.58	23.272
549.92	22.659
550.26	23.370
550.60	23.643
550.94	22.853
551.28	23.802
551.62	23.077
551.96	22.406
552.30	24.123
552.64	23.484
552.98	23.418
553.32	23.110
553.66	22.859
554.00	25.328
554.34	22.526
554.68	23.009
555.02	23.289
555.36	23.411
555.69	23.077
556.03	23.555
556.37	23.274
556.71	23.755
557.05	23.863
557.39	22.305
557.73	22.339
558.07	23.529
558.41	22.741
558.75	22.993
559.08	23.956
559.42	23.254
559.76	24.580
560.10	22.936
560.44	23.678
560.78	23.566
561.12	23.766
561.45	24.385
561.79	23.669
562.13	23.492
562.47	23.237
562.81	22.839
563.15	23.695
563.48	23.126
563.82	23.747
564.16	23.189
564.50	23.041
564.84	24.699
565.17	23.072
565.51	25.205
565.85	23.731
566.19	24.138
566.52	23.660
566.86	23.972
567.20	24.097
567.54	25.182
567.88	24.312
568.21	23.643
568.55	23.207
568.89	24.333
569.23	23.736
569.56	23.599
569.90	24.564
570.24	24.600
570.57	25.091
570.91	23.911
571.25	24.301
571.59	24.011
571.92	23.319
572.26	23.309
572.60	23.039
572.93	23.816
573.27	23.981
573.61	24.016
573.95	24.495
574.28	23.808
574.62	24.053
574.96	23.959
575.29	23.776
575.63	23.348
575.97	24.017
576.30	23.362
576.64	23.152
576.98	23.887
577.31	24.109
577.65	24.174
577.98	24.451
578.32	23.942
578.66	23.318
578.99	24.029
579.33	23.782
579.67	23.089
580.00	23.620
580.34	23.507
580.67	23.393
581.01	23.511
581.35	23.794
581.68	24.011
582.02	23.913
582.35	24.345
582.69	23.841
583.02	24.354
583.36	23.374
583.70	23.858
584.03	24.131
584.37	24.026
584.70	23.901
585.04	23.005
585.37	24.103
585.71	23.871
586.04	23.802
586.38	23.953
586.72	24.046
587.05	23.917
587.39	24.741
587.72	24.030
588.06	23.858
588.39	23.668
588.73	23.657
589.06	24.103
589.40	23.367
589.73	23.731
590.07	24.282
590.40	24.071
590.73	24.423
591.07	23.707
591.40	23.909
591.74	24.027
592.07	25.046
592.41	24.735
592.74	24.253
593.08	24.136
593.41	24.086
593.75	24.665
594.08	23.962
594.41	24.054
594.75	24.389
595.08	24.026
595.42	24.071
595.75	23.845
596.09	23.847
596.42	23.233
596.75	24.290
597.09	23.827
597.42	24.119
597.75	23.912
598.09	23.676
598.42	23.691
598.76	23.509
599.09	24.639
599.42	23.570
599.76	24.116
600.09	24.962
600.42	24.185
600.76	23.291
601.09	23.817
601.42	23.619
601.76	23.541
602.09	23.597
602.42	24.136
602.76	23.896
603.09	24.626
603.42	24.498
603.76	23.911
604.09	23.329
604.42	23.096
604.76	24.388
605.09	24.360
605.42	24.108
605.75	23.862
606.09	23.779
606.42	23.561
606.75	24.589
607.09	24.484
607.42	24.280
607.75	23.712
608.08	23.360
608.42	23.390
608.75	23.855
609.08	23.418
609.41	23.909
609.75	24.194
610.08	24.314
610.41	24.155
610.74	24.232
611.07	23.979
611.41	23.560
611.74	23.934
612.07	23.876
612.40	23.632
612.73	23.616
613.07	23.003
613.40	24.234
613.73	23.167
614.06	24.263
614.39	24.253
614.72	23.081
615.06	23.520
615.39	23.472
615.72	23.143
616.05	23.575
616.38	23.647
616.71	23.853
617.05	23.471
617.38	23.821
617.71	24.277
618.04	24.254
618.37	23.581
618.70	25.017
619.03	24.097
619.36	23.227
619.69	24.337
620.03	24.251
620.36	23.963
620.69	24.126
621.02	23.012
621.35	24.481
621.68	23.724
622.01	24.750
622.34	25.060
622.67	23.659
623.00	24.426
623.33	24.543
623.66	24.009
623.99	24.206
624.32	24.563
624.65	23.083
624.99	24.680
625.32	23.048
625.65	24.509
625.98	24.577
626.31	22.693
626.64	25.303
626.97	25.044
627.30	23.818
627.63	23.310
627.96	23.450
628.29	23.867
628.62	24.680
628.95	23.447
629.28	23.387
629.61	23.928
629.94	26.100
630.26	22.826
630.59	24.558
630.92	23.897
631.25	22.769
631.58	24.009
631.91	22.478
632.24	24.312
632.57	23.636
632.90	23.013
633.23	22.941
