SpectraSuite Data File
++++++++++++++++++++++++++++++++++++
Date: Fri May 15 20:31:23 PDT 2015
User: schluterlab
Dark Spectrum Present: Yes
Reference Spectrum Present: Yes
Number of Sampled Component Spectra: 1
Spectrometers: USB2E3373
Integration Time (usec): 3000 (USB2E3373)
Spectra Averaged: 3 (USB2E3373)
Boxcar Smoothing: 0 (USB2E3373)
Correct for Electrical Dark: No (USB2E3373)
Strobe/Lamp Enabled: No (USB2E3373)
Correct for Detector Non-linearity: No (USB2E3373)
Correct for Stray Light: No (USB2E3373)
Number of Pixels in Processed Spectrum: 2048
>>>>>Begin Processed Spectral Data<<<<<
178.53	0.000
178.91	0.000
179.29	187.500
179.67	-350.000
180.04	-71.429
180.42	25.000
180.80	0.000
181.18	166.667
181.56	650.000
181.94	100.000
182.31	-700.000
182.69	-60.000
183.07	-233.333
183.45	-180.000
183.83	133.333
184.20	-45.455
184.58	133.333
184.96	-75.000
185.34	166.667
185.72	-300.000
186.09	53.846
186.47	-1300.000
186.85	166.667
187.23	66.667
187.61	1000.000
187.98	-200.000
188.36	22.222
188.74	-300.000
189.12	-17.647
189.49	-38.889
189.87	0.000
190.25	28.571
190.63	100.000
191.00	-366.667
191.38	-31.579
191.76	-100.000
192.14	-250.000
192.51	150.000
192.89	33.333
193.27	-214.286
193.65	266.667
194.02	81.818
194.40	-40.000
194.78	-87.500
195.15	8.333
195.53	-25.000
195.91	100.000
196.29	-75.000
196.66	84.615
197.04	71.429
197.42	-44.444
197.79	-266.667
198.17	-100.000
198.55	1500.000
198.92	-366.667
199.30	600.000
199.68	-20.000
200.05	-300.000
200.43	0.000
200.81	-200.000
201.18	-100.000
201.56	600.000
201.94	-400.000
202.31	233.333
202.69	-320.000
203.07	350.000
203.44	-400.000
203.82	0.000
204.19	0.000
204.57	-500.000
204.95	162.500
205.32	10.000
205.70	-128.571
206.08	0.000
206.45	177.778
206.83	42.857
207.20	-114.286
207.58	1300.000
207.96	-66.667
208.33	-170.000
208.71	-50.000
209.08	-133.333
209.46	-1400.000
209.84	-140.000
210.21	-1800.000
210.59	28.571
210.96	66.667
211.34	-175.000
211.71	26.667
212.09	-71.429
212.46	-2300.000
212.84	0.000
213.22	40.000
213.59	900.000
213.97	69.231
214.34	45.455
214.72	-83.333
215.09	275.000
215.47	-46.154
215.84	-63.636
216.22	-100.000
216.59	-12.500
216.97	-150.000
217.34	50.000
217.72	-80.000
218.09	-75.000
218.47	237.500
218.84	-800.000
219.22	-66.667
219.59	80.000
219.97	33.333
220.34	300.000
220.72	-71.429
221.09	-375.000
221.47	-300.000
221.84	100.000
222.22	-950.000
222.59	-18.182
222.97	-8.333
223.34	-233.333
223.72	-14.286
224.09	0.000
224.46	7.143
224.84	600.000
225.21	30.000
225.59	-13.333
225.96	-400.000
226.34	450.000
226.71	-71.429
227.08	-50.000
227.46	25.000
227.83	-250.000
228.21	88.889
228.58	-63.636
228.95	-150.000
229.33	150.000
229.70	68.750
230.08	-12.500
230.45	-171.429
230.82	42.857
231.20	-86.667
231.57	71.429
231.95	-28.571
232.32	-10.000
232.69	14.286
233.07	33.333
233.44	-140.000
233.81	-130.000
234.19	22.222
234.56	5.882
234.93	500.000
235.31	-50.000
235.68	-560.000
236.05	-100.000
236.43	-70.000
236.80	17.647
237.17	-9.375
237.55	-25.000
237.92	-29.630
238.29	5.556
238.67	-40.000
239.04	0.000
239.41	-12.195
239.79	-30.000
240.16	19.512
240.53	-28.947
240.91	6.522
241.28	0.000
241.65	3.571
242.02	13.699
242.40	3.333
242.77	0.000
243.14	0.000
243.51	0.000
243.89	8.046
244.26	6.897
244.63	-3.571
245.00	7.216
245.38	5.155
245.75	-2.247
246.12	3.448
246.49	-3.306
246.87	3.846
247.24	-2.521
247.61	3.509
247.98	-0.813
248.36	-4.375
248.73	0.658
249.10	5.844
249.47	-1.899
249.84	1.307
250.22	5.882
250.59	1.961
250.96	11.737
251.33	4.070
251.70	1.176
252.08	4.569
252.45	6.436
252.82	5.025
253.19	4.608
253.56	-2.336
253.94	3.153
254.31	4.783
254.68	6.140
255.05	2.362
255.42	5.240
255.79	6.950
256.16	7.782
256.54	7.090
256.91	2.281
257.28	5.576
257.65	8.989
258.02	6.383
258.39	8.418
258.76	4.762
259.14	3.322
259.51	7.767
259.88	3.436
260.25	5.882
260.62	9.028
260.99	2.712
261.36	2.740
261.73	8.228
262.10	4.863
262.47	5.215
262.85	5.643
263.22	6.154
263.59	7.477
263.96	8.696
264.33	3.939
264.70	3.869
265.07	3.274
265.44	9.632
265.81	6.215
266.18	5.464
266.55	8.226
266.92	5.440
267.29	6.266
267.66	5.627
268.03	8.639
268.40	4.961
268.77	9.893
269.14	7.674
269.51	7.455
269.88	5.486
270.25	1.020
270.62	3.659
270.99	4.604
271.36	7.335
271.73	7.042
272.10	5.109
272.47	6.856
272.84	5.941
273.21	8.121
273.58	7.711
273.95	7.780
274.32	3.464
274.69	4.525
275.06	8.705
275.43	4.082
275.80	6.623
276.17	3.448
276.54	4.497
276.91	7.018
277.28	4.585
277.65	7.231
278.02	5.957
278.39	4.814
278.76	7.547
279.13	4.357
279.50	7.143
279.87	4.752
280.23	5.161
280.60	6.628
280.97	7.879
281.34	6.154
281.71	9.035
282.08	3.067
282.45	4.892
282.82	5.405
283.19	5.803
283.56	5.588
283.92	4.744
284.29	4.615
284.66	4.651
285.03	5.894
285.40	5.860
285.77	4.745
286.14	3.971
286.51	7.196
286.87	5.119
287.24	4.236
287.61	3.175
287.98	7.193
288.35	6.932
288.72	7.005
289.08	5.035
289.45	5.800
289.82	5.420
290.19	2.218
290.56	3.945
290.93	3.030
291.29	4.622
291.66	6.457
292.03	3.987
292.40	3.548
292.77	5.423
293.13	2.435
293.50	3.035
293.87	6.412
294.24	5.255
294.60	4.322
294.97	6.250
295.34	3.067
295.71	5.067
296.08	3.737
296.44	4.267
296.81	3.750
297.18	3.623
297.55	6.233
297.91	6.986
298.28	5.277
298.65	4.885
299.02	4.582
299.38	4.514
299.75	5.517
300.12	3.534
300.48	3.689
300.85	4.309
301.22	4.286
301.59	3.158
301.95	4.304
302.32	5.707
302.69	3.980
303.05	5.569
303.42	4.234
303.79	5.140
304.15	4.540
304.52	4.281
304.89	4.211
305.25	3.511
305.62	3.034
305.99	3.275
306.35	3.237
306.72	1.912
307.09	3.877
307.45	4.478
307.82	3.472
308.19	4.646
308.55	3.817
308.92	5.120
309.29	1.788
309.65	3.767
310.02	4.510
310.38	4.391
310.75	4.262
311.12	4.090
311.48	3.287
311.85	4.084
312.22	2.532
312.58	2.866
312.95	3.842
313.31	3.520
313.68	3.979
314.05	3.776
314.41	3.196
314.78	3.711
315.14	4.214
315.51	4.762
315.87	2.869
316.24	4.954
316.61	3.543
316.97	4.067
317.34	3.613
317.70	4.207
318.07	3.942
318.43	3.627
318.80	4.451
319.16	4.004
319.53	5.128
319.89	4.626
320.26	3.644
320.62	4.413
320.99	2.923
321.35	3.494
321.72	5.400
322.08	4.330
322.45	3.452
322.81	3.831
323.18	2.552
323.54	3.764
323.91	3.992
324.27	4.102
324.64	5.056
325.00	4.745
325.37	4.867
325.73	4.352
326.10	4.632
326.46	5.471
326.83	4.199
327.19	4.359
327.56	4.257
327.92	5.282
328.29	5.446
328.65	4.151
329.01	4.136
329.38	4.700
329.74	4.721
330.11	5.005
330.47	3.803
330.84	3.269
331.20	4.848
331.56	4.259
331.93	5.571
332.29	4.950
332.66	4.796
333.02	4.740
333.38	4.216
333.75	5.220
334.11	4.118
334.48	4.986
334.84	3.663
335.20	4.209
335.57	4.805
335.93	5.781
336.29	4.880
336.66	4.450
337.02	3.810
337.38	5.093
337.75	4.000
338.11	4.689
338.47	4.836
338.84	4.529
339.20	4.479
339.56	4.495
339.93	4.297
340.29	4.312
340.65	5.914
341.02	5.053
341.38	4.159
341.74	4.505
342.11	4.073
342.47	4.181
342.83	5.709
343.20	4.617
343.56	4.696
343.92	3.986
344.28	5.038
344.65	5.613
345.01	3.284
345.37	5.046
345.73	5.858
346.10	4.745
346.46	4.458
346.82	5.237
347.19	3.076
347.55	5.013
347.91	5.502
348.27	4.608
348.63	5.196
349.00	4.102
349.36	4.406
349.72	3.814
350.08	5.246
350.45	5.906
350.81	3.322
351.17	4.805
351.53	5.633
351.89	5.120
352.26	4.480
352.62	4.194
352.98	4.980
353.34	4.509
353.70	5.583
354.07	4.677
354.43	5.124
354.79	3.716
355.15	5.635
355.51	4.905
355.87	4.126
356.24	3.263
356.60	4.931
356.96	4.286
357.32	4.712
357.68	4.613
358.04	3.958
358.40	4.823
358.77	3.987
359.13	5.044
359.49	4.391
359.85	4.212
360.21	3.748
360.57	3.979
360.93	4.766
361.29	3.097
361.66	3.370
362.02	4.470
362.38	3.656
362.74	3.709
363.10	4.364
363.46	4.225
363.82	5.409
364.18	4.428
364.54	4.338
364.90	4.516
365.26	3.930
365.62	4.599
365.98	4.106
366.35	4.880
366.71	4.361
367.07	4.935
367.43	4.313
367.79	4.382
368.15	4.235
368.51	4.370
368.87	4.092
369.23	3.105
369.59	4.155
369.95	4.692
370.31	5.058
370.67	3.209
371.03	4.033
371.39	4.230
371.75	4.469
372.11	4.636
372.47	4.512
372.83	4.258
373.19	4.922
373.55	4.621
373.91	3.960
374.27	3.898
374.63	4.020
374.99	4.184
375.35	4.318
375.71	4.406
376.07	4.284
376.42	4.286
376.78	4.564
377.14	4.401
377.50	4.050
377.86	4.819
378.22	3.893
378.58	3.846
378.94	3.718
379.30	3.743
379.66	4.514
380.02	3.679
380.38	3.834
380.74	3.950
381.09	4.356
381.45	4.159
381.81	4.195
382.17	3.934
382.53	3.560
382.89	3.704
383.25	4.418
383.61	4.024
383.97	2.857
384.32	3.690
384.68	3.467
385.04	3.860
385.40	3.423
385.76	5.094
386.12	5.045
386.48	4.278
386.83	3.995
387.19	4.335
387.55	4.893
387.91	3.790
388.27	3.724
388.62	4.531
388.98	4.297
389.34	4.372
389.70	4.599
390.06	3.776
390.42	3.886
390.77	3.924
391.13	3.216
391.49	3.816
391.85	3.639
392.20	3.766
392.56	3.497
392.92	3.993
393.28	3.950
393.64	3.664
393.99	4.326
394.35	3.795
394.71	4.278
395.07	3.708
395.42	3.947
395.78	3.322
396.14	3.405
396.50	3.741
396.85	3.284
397.21	4.386
397.57	3.887
397.92	3.535
398.28	3.908
398.64	3.133
399.00	4.966
399.35	3.837
399.71	4.710
400.07	4.414
400.42	3.856
400.78	4.348
401.14	4.295
401.49	4.765
401.85	3.230
402.21	4.277
402.57	3.313
402.92	3.890
403.28	4.699
403.63	3.594
403.99	3.125
404.35	3.685
404.70	3.512
405.06	4.113
405.42	4.040
405.77	3.486
406.13	3.027
406.49	3.612
406.84	3.240
407.20	3.733
407.55	3.026
407.91	3.543
408.27	3.952
408.62	3.692
408.98	3.943
409.34	4.585
409.69	4.005
410.05	4.187
410.40	3.951
410.76	4.282
411.11	3.500
411.47	3.748
411.83	2.888
412.18	3.990
412.54	4.370
412.89	3.879
413.25	4.152
413.60	3.478
413.96	3.742
414.31	5.000
414.67	3.400
415.03	3.329
415.38	3.851
415.74	4.691
416.09	4.572
416.45	3.781
416.80	3.635
417.16	4.075
417.51	4.197
417.87	4.042
418.22	4.534
418.58	3.612
418.93	4.890
419.29	3.905
419.64	3.435
420.00	5.038
420.35	3.761
420.71	4.557
421.06	3.990
421.42	4.267
421.77	3.468
422.12	3.689
422.48	4.331
422.83	4.002
423.19	4.007
423.54	3.998
423.90	3.416
424.25	4.305
424.61	4.345
424.96	4.588
425.31	4.275
425.67	4.225
426.02	5.183
426.38	3.694
426.73	4.237
427.09	4.684
427.44	4.353
427.79	4.007
428.15	3.944
428.50	3.816
428.85	3.256
429.21	4.867
429.56	5.067
429.92	4.777
430.27	4.411
430.62	3.868
430.98	3.875
431.33	4.522
431.68	3.349
432.04	4.416
432.39	4.735
432.74	4.570
433.10	4.943
433.45	4.241
433.80	3.889
434.16	3.546
434.51	4.677
434.86	4.588
435.22	4.487
435.57	3.868
435.92	3.593
436.28	4.293
436.63	5.134
436.98	3.592
437.34	2.964
437.69	3.816
438.04	4.160
438.39	4.276
438.75	4.189
439.10	4.584
439.45	4.078
439.81	4.098
440.16	4.157
440.51	5.075
440.86	4.048
441.22	4.412
441.57	3.587
441.92	4.460
442.27	3.659
442.63	5.567
442.98	4.365
443.33	4.841
443.68	4.244
444.03	4.968
444.39	4.378
444.74	4.181
445.09	4.120
445.44	4.786
445.79	4.487
446.15	3.579
446.50	3.938
446.85	3.826
447.20	3.858
447.55	4.967
447.91	4.625
448.26	4.496
448.61	4.951
448.96	4.819
449.31	3.873
449.66	4.413
450.02	4.221
450.37	3.734
450.72	4.868
451.07	4.494
451.42	4.869
451.77	4.641
452.12	3.828
452.47	4.379
452.83	4.535
453.18	4.048
453.53	4.235
453.88	4.372
454.23	4.794
454.58	5.038
454.93	5.348
455.28	3.746
455.63	4.712
455.98	4.750
456.34	4.151
456.69	4.828
457.04	5.041
457.39	4.253
457.74	3.930
458.09	4.532
458.44	4.330
458.79	3.754
459.14	4.863
459.49	4.776
459.84	4.625
460.19	4.794
460.54	5.012
460.89	5.568
461.24	4.161
461.59	4.335
461.94	4.654
462.29	5.308
462.64	4.850
462.99	3.995
463.34	4.103
463.69	3.282
464.04	5.569
464.39	4.063
464.74	4.785
465.09	4.242
465.44	4.962
465.79	4.819
466.14	5.473
466.49	4.025
466.84	4.938
467.19	4.881
467.54	4.917
467.89	4.738
468.24	4.075
468.59	4.762
468.94	4.508
469.29	5.836
469.64	5.332
469.99	4.555
470.34	3.823
470.68	4.996
471.03	5.237
471.38	4.779
471.73	4.412
472.08	4.953
472.43	4.564
472.78	3.564
473.13	4.286
473.48	5.733
473.83	4.670
474.17	5.376
474.52	4.978
474.87	4.606
475.22	4.698
475.57	4.517
475.92	5.540
476.27	5.530
476.61	5.093
476.96	4.852
477.31	5.625
477.66	4.551
478.01	4.267
478.36	4.956
478.70	5.057
479.05	4.835
479.40	5.034
479.75	5.005
480.10	5.325
480.45	4.650
480.79	5.690
481.14	4.969
481.49	4.483
481.84	4.247
482.19	5.051
482.53	5.276
482.88	4.678
483.23	4.846
483.58	4.292
483.92	4.405
484.27	4.831
484.62	4.751
484.97	4.395
485.31	4.516
485.66	4.836
486.01	4.773
486.36	4.557
486.70	4.685
487.05	4.825
487.40	4.964
487.75	4.592
488.09	4.234
488.44	4.849
488.79	4.707
489.13	4.848
489.48	4.703
489.83	4.574
490.17	4.944
490.52	4.111
490.87	4.535
491.22	4.776
491.56	4.981
491.91	4.876
492.26	5.007
492.60	5.326
492.95	5.558
493.30	4.690
493.64	4.666
493.99	5.121
494.34	4.466
494.68	4.143
495.03	4.769
495.37	4.711
495.72	4.594
496.07	5.220
496.41	4.528
496.76	4.790
497.11	4.099
497.45	5.060
497.80	5.449
498.14	5.315
498.49	4.977
498.84	5.090
499.18	5.020
499.53	4.960
499.87	4.280
500.22	4.946
500.56	5.093
500.91	4.769
501.26	4.795
501.60	4.476
501.95	4.124
502.29	5.036
502.64	4.585
502.98	4.539
503.33	4.563
503.67	4.867
504.02	5.621
504.36	5.542
504.71	4.192
505.06	4.731
505.40	5.381
505.75	5.206
506.09	5.068
506.44	5.595
506.78	5.153
507.13	5.016
507.47	5.222
507.82	4.220
508.16	4.807
508.51	5.037
508.85	4.919
509.19	4.364
509.54	4.987
509.88	4.477
510.23	5.325
510.57	5.238
510.92	3.838
511.26	4.637
511.61	5.446
511.95	4.712
512.30	4.823
512.64	5.787
512.98	4.548
513.33	5.260
513.67	5.173
514.02	5.378
514.36	5.771
514.70	5.944
515.05	5.405
515.39	4.604
515.74	5.928
516.08	5.260
516.42	5.477
516.77	6.319
517.11	4.926
517.46	5.566
517.80	5.840
518.14	4.715
518.49	5.409
518.83	4.374
519.17	5.337
519.52	5.802
519.86	4.862
520.20	5.164
520.55	4.816
520.89	5.834
521.23	5.320
521.58	6.057
521.92	5.897
522.26	5.075
522.61	5.779
522.95	6.093
523.29	5.845
523.64	5.781
523.98	5.379
524.32	4.832
524.66	6.402
525.01	5.844
525.35	5.574
525.69	4.848
526.04	5.159
526.38	6.744
526.72	4.840
527.06	5.383
527.41	5.211
527.75	5.563
528.09	5.714
528.43	5.874
528.78	5.809
529.12	5.419
529.46	5.328
529.80	6.016
530.15	5.941
530.49	5.387
530.83	4.788
531.17	5.238
531.51	6.361
531.86	5.642
532.20	4.941
532.54	6.263
532.88	5.407
533.22	5.578
533.57	5.046
533.91	5.157
534.25	5.924
534.59	5.067
534.93	5.223
535.27	4.759
535.62	4.731
535.96	6.197
536.30	6.069
536.64	5.651
536.98	5.436
537.32	5.548
537.66	5.540
538.01	5.594
538.35	5.270
538.69	6.391
539.03	5.332
539.37	6.057
539.71	5.453
540.05	5.295
540.39	5.956
540.73	5.858
541.07	6.008
541.42	6.989
541.76	6.056
542.10	5.093
542.44	5.142
542.78	4.542
543.12	5.151
543.46	6.467
543.80	5.899
544.14	5.140
544.48	5.996
544.82	5.400
545.16	6.489
545.50	6.142
545.84	6.091
546.18	6.525
546.52	5.840
546.86	5.823
547.20	5.937
547.54	5.088
547.88	6.114
548.22	5.194
548.56	5.211
548.90	6.267
549.24	5.234
549.58	5.853
549.92	5.361
550.26	6.960
550.60	5.725
550.94	5.900
551.28	5.796
551.62	5.769
551.96	5.338
552.30	6.067
552.64	5.571
552.98	5.345
553.32	5.635
553.66	5.733
554.00	5.693
554.34	6.056
554.68	5.383
555.02	5.655
555.36	6.283
555.69	5.055
556.03	4.568
556.37	5.907
556.71	6.137
557.05	5.817
557.39	4.833
557.73	6.147
558.07	5.958
558.41	5.207
558.75	5.378
559.08	5.989
559.42	4.683
559.76	5.524
560.10	5.963
560.44	4.914
560.78	6.014
561.12	5.360
561.45	5.692
561.79	5.392
562.13	5.962
562.47	5.396
562.81	6.268
563.15	6.065
563.48	6.648
563.82	6.108
564.16	5.571
564.50	5.338
564.84	6.158
565.17	4.963
565.51	5.738
565.85	5.487
566.19	6.432
566.52	6.501
566.86	6.491
567.20	5.542
567.54	5.414
567.88	5.741
568.21	6.052
568.55	5.163
568.89	5.698
569.23	5.248
569.56	5.560
569.90	5.603
570.24	5.322
570.57	5.455
570.91	5.577
571.25	5.229
571.59	5.076
571.92	5.630
572.26	5.103
572.60	5.147
572.93	5.868
573.27	5.517
573.61	5.400
573.95	5.598
574.28	5.005
574.62	5.289
574.96	5.161
575.29	5.124
575.63	4.924
575.97	5.313
576.30	5.117
576.64	5.192
576.98	5.380
577.31	4.989
577.65	5.505
577.98	5.452
578.32	5.381
578.66	4.922
578.99	5.241
579.33	5.246
579.67	5.198
580.00	5.570
580.34	4.975
580.67	5.143
581.01	5.427
581.35	5.125
581.68	5.334
582.02	5.267
582.35	5.144
582.69	5.415
583.02	5.213
583.36	5.418
583.70	5.426
584.03	5.254
584.37	5.138
584.70	5.330
585.04	5.389
585.37	5.627
585.71	5.258
586.04	5.144
586.38	5.148
586.72	5.710
587.05	5.459
587.39	5.368
587.72	5.686
588.06	5.425
588.39	5.326
588.73	5.311
589.06	5.610
589.40	5.773
589.73	5.403
590.07	5.400
590.40	5.650
590.73	5.437
591.07	5.259
591.40	5.476
591.74	5.837
592.07	5.983
592.41	6.007
592.74	5.496
593.08	5.169
593.41	5.008
593.75	5.463
594.08	5.115
594.41	5.822
594.75	5.267
595.08	6.016
595.42	5.705
595.75	5.445
596.09	5.551
596.42	5.209
596.75	5.728
597.09	5.877
597.42	5.601
597.75	5.818
598.09	5.523
598.42	5.776
598.76	5.363
599.09	5.689
599.42	5.305
599.76	5.568
600.09	5.543
600.42	5.762
600.76	5.275
601.09	5.725
601.42	5.680
601.76	5.478
602.09	5.157
602.42	5.644
602.76	6.197
603.09	5.939
603.42	5.853
603.76	4.516
604.09	4.860
604.42	5.584
604.76	5.785
605.09	5.713
605.42	6.140
605.75	4.904
606.09	5.265
606.42	5.338
606.75	5.628
607.09	6.549
607.42	5.361
607.75	4.885
608.08	4.807
608.42	6.396
608.75	5.590
609.08	5.431
609.41	6.091
609.75	5.494
610.08	5.941
610.41	5.362
610.74	5.851
611.07	5.581
611.41	5.501
611.74	5.864
612.07	5.407
612.40	5.853
612.73	5.763
613.07	5.343
613.40	6.565
613.73	4.980
614.06	5.732
614.39	5.697
614.72	5.322
615.06	6.089
615.39	6.223
615.72	5.221
616.05	5.698
616.38	5.584
616.71	5.443
617.05	5.559
617.38	6.662
617.71	5.283
618.04	6.032
618.37	6.305
618.70	5.941
619.03	7.153
619.36	5.137
619.69	5.383
620.03	6.647
620.36	5.579
620.69	6.567
621.02	6.498
621.35	5.892
621.68	6.122
622.01	6.000
622.34	7.023
622.67	6.940
623.00	6.815
623.33	6.707
623.66	5.236
623.99	5.673
624.32	6.084
624.65	4.662
624.99	6.170
625.32	5.838
625.65	7.070
625.98	5.721
626.31	4.904
626.64	6.932
626.97	7.330
627.30	5.867
627.63	6.499
627.96	5.750
628.29	5.828
628.62	6.096
628.95	6.012
629.28	5.746
629.61	5.484
629.94	7.820
630.26	5.336
630.59	7.700
630.92	7.077
631.25	7.179
631.58	6.718
631.91	4.605
632.24	5.619
632.57	5.682
632.90	5.931
633.23	6.941
633.56	6.297
633.89	6.042
634.22	5.679
634.55	5.845
634.88	5.747
635.20	5.256
635.53	6.933
635.86	5.332
636.19	6.210
636.52	5.740
636.85	4.839
637.18	4.906
637.51	6.792
637.83	7.359
638.16	8.458
638.49	5.177
638.82	7.763
639.15	5.970
639.48	7.428
639.81	6.695
640.13	6.349
640.46	7.872
640.79	6.333
641.12	5.761
641.45	8.559
641.77	6.519
642.10	7.899
642.43	8.039
642.76	7.261
643.09	8.885
643.41	5.825
643.74	6.919
644.07	7.553
644.40	7.095
644.73	5.779
645.05	5.872
645.38	7.231
645.71	6.738
646.04	6.643
646.36	7.270
646.69	9.173
647.02	6.616
647.35	6.530
647.67	6.947
648.00	6.157
648.33	6.826
648.66	5.763
648.98	3.015
649.31	8.099
649.64	4.867
649.96	5.348
650.29	6.133
650.62	6.496
650.94	5.556
651.27	3.911
651.60	8.108
651.92	6.993
652.25	6.750
652.58	7.500
652.90	6.690
653.23	6.387
653.56	5.245
653.88	4.983
654.21	4.028
654.54	5.772
654.86	7.980
655.19	6.579
655.52	5.882
655.84	5.312
656.17	5.680
656.49	7.486
656.82	7.828
657.15	5.887
657.47	4.472
657.80	3.425
658.13	3.221
658.45	5.053
658.78	4.993
