SpectraSuite Data File
++++++++++++++++++++++++++++++++++++
Date: Fri May 15 21:05:54 PDT 2015
User: schluterlab
Dark Spectrum Present: Yes
Reference Spectrum Present: Yes
Number of Sampled Component Spectra: 1
Spectrometers: USB2E3373
Integration Time (usec): 3000 (USB2E3373)
Spectra Averaged: 3 (USB2E3373)
Boxcar Smoothing: 0 (USB2E3373)
Correct for Electrical Dark: No (USB2E3373)
Strobe/Lamp Enabled: No (USB2E3373)
Correct for Detector Non-linearity: No (USB2E3373)
Correct for Stray Light: No (USB2E3373)
Number of Pixels in Processed Spectrum: 2048
>>>>>Begin Processed Spectral Data<<<<<
178.53	0.000
178.91	0.000
179.29	25.000
179.67	-600.000
180.04	42.857
180.42	-75.000
180.80	-300.000
181.18	266.667
181.56	600.000
181.94	-500.000
182.31	800.000
182.69	-220.000
183.07	-266.667
183.45	-160.000
183.83	116.667
184.20	27.273
184.58	88.889
184.96	125.000
185.34	233.333
185.72	-350.000
186.09	61.538
186.47	-200.000
186.85	300.000
187.23	200.000
187.61	200.000
187.98	-400.000
188.36	0.000
188.74	-233.333
189.12	29.412
189.49	16.667
189.87	0.000
190.25	78.571
190.63	-250.000
191.00	-266.667
191.38	-5.263
191.76	400.000
192.14	50.000
192.51	-50.000
192.89	-55.556
193.27	-85.714
193.65	66.667
194.02	181.818
194.40	-70.000
194.78	-150.000
195.15	-25.000
195.53	-175.000
195.91	250.000
196.29	-100.000
196.66	130.769
197.04	114.286
197.42	-88.889
197.79	-700.000
198.17	-146.154
198.55	2200.000
198.92	-233.333
199.30	-500.000
199.68	-200.000
200.05	-566.667
200.43	0.000
200.81	-266.667
201.18	-200.000
201.56	2200.000
201.94	-500.000
202.31	-166.667
202.69	-260.000
203.07	-150.000
203.44	-200.000
203.82	0.000
204.19	-7.143
204.57	-366.667
204.95	25.000
205.32	-20.000
205.70	42.857
206.08	-100.000
206.45	88.889
206.83	35.714
207.20	-157.143
207.58	600.000
207.96	-166.667
208.33	-110.000
208.71	-75.000
209.08	-200.000
209.46	300.000
209.84	-220.000
210.21	-500.000
210.59	57.143
210.96	50.000
211.34	-25.000
211.71	-26.667
212.09	-214.286
212.46	-1400.000
212.84	0.000
213.22	50.000
213.59	350.000
213.97	-15.385
214.34	-18.182
214.72	-116.667
215.09	675.000
215.47	7.692
215.84	-163.636
216.22	-366.667
216.59	-150.000
216.97	-200.000
217.34	-125.000
217.72	-220.000
218.09	-12.500
218.47	125.000
218.84	-1100.000
219.22	-22.222
219.59	20.000
219.97	433.333
220.34	225.000
220.72	-14.286
221.09	-125.000
221.47	-300.000
221.84	-400.000
222.22	-350.000
222.59	-63.636
222.97	-25.000
223.34	-266.667
223.72	-28.571
224.09	-19.048
224.46	35.714
224.84	433.333
225.21	-70.000
225.59	20.000
225.96	-800.000
226.34	500.000
226.71	-114.286
227.08	0.000
227.46	12.500
227.83	-150.000
228.21	44.444
228.58	63.636
228.95	-50.000
229.33	70.000
229.70	-25.000
230.08	-187.500
230.45	-142.857
230.82	-14.286
231.20	-6.667
231.57	35.714
231.95	14.286
232.32	-70.000
232.69	-7.143
233.07	-200.000
233.44	-240.000
233.81	-80.000
234.19	-144.444
234.56	-47.059
234.93	350.000
235.31	-25.000
235.68	-300.000
236.05	-30.769
236.43	-40.000
236.80	5.882
237.17	21.875
237.55	55.000
237.92	22.222
238.29	5.556
238.67	-3.333
239.04	20.588
239.41	-26.829
239.79	16.667
240.16	24.390
240.53	13.158
240.91	15.217
241.28	19.048
241.65	42.857
242.02	30.137
242.40	15.000
242.77	5.085
243.14	4.545
243.51	25.000
243.89	26.437
244.26	21.839
244.63	21.429
245.00	26.804
245.38	22.680
245.75	14.607
246.12	18.966
246.49	28.926
246.87	31.731
247.24	21.849
247.61	17.544
247.98	28.455
248.36	27.500
248.73	30.263
249.10	17.532
249.47	26.582
249.84	26.144
250.22	20.588
250.59	25.490
250.96	27.230
251.33	20.349
251.70	26.471
252.08	24.365
252.45	24.257
252.82	23.116
253.19	25.806
253.56	21.028
253.94	25.225
254.31	26.957
254.68	28.509
255.05	21.260
255.42	24.891
255.79	30.116
256.16	31.128
256.54	27.239
256.91	24.335
257.28	26.766
257.65	28.839
258.02	24.468
258.39	28.620
258.76	26.740
259.14	25.249
259.51	29.773
259.88	24.399
260.25	28.105
260.62	30.903
260.99	25.085
261.36	22.945
261.73	30.696
262.10	23.708
262.47	25.460
262.85	26.019
263.22	28.308
263.59	29.907
263.96	32.609
264.33	25.758
264.70	24.107
265.07	28.274
265.44	29.745
265.81	24.576
266.18	30.328
266.55	27.249
266.92	25.648
267.29	27.676
267.66	25.831
268.03	26.702
268.40	26.371
268.77	32.353
269.14	29.496
269.51	25.450
269.88	25.436
270.25	25.510
270.62	24.878
270.99	25.064
271.36	27.139
271.73	25.822
272.10	25.791
272.47	29.787
272.84	25.990
273.21	26.218
273.58	26.265
273.95	24.485
274.32	25.404
274.69	23.756
275.06	28.795
275.43	27.438
275.80	26.269
276.17	25.977
276.54	25.696
276.91	28.509
277.28	26.638
277.65	27.479
278.02	27.021
278.39	27.133
278.76	25.577
279.13	24.274
279.50	27.521
279.87	23.758
280.23	26.667
280.60	25.926
280.97	28.687
281.34	24.615
281.71	28.953
282.08	22.699
282.45	22.896
282.82	27.606
283.19	25.532
283.56	26.975
283.92	24.858
284.29	25.192
284.66	26.550
285.03	26.916
285.40	25.142
285.77	22.847
286.14	24.729
286.51	26.937
286.87	22.486
287.24	25.230
287.61	21.340
287.98	24.912
288.35	24.263
288.72	25.219
289.08	23.611
289.45	24.605
289.82	24.301
290.19	22.526
290.56	22.813
290.93	23.737
291.29	21.418
291.66	25.984
292.03	23.285
292.40	22.903
292.77	20.574
293.13	18.182
293.50	20.182
293.87	21.221
294.24	21.175
294.60	21.013
294.97	20.685
295.34	20.245
295.71	20.715
296.08	21.375
296.44	19.915
296.81	19.861
297.18	21.014
297.55	21.274
297.91	21.233
298.28	21.108
298.65	18.860
299.02	18.733
299.38	19.699
299.75	19.034
300.12	19.634
300.48	17.128
300.85	20.532
301.22	17.792
301.59	19.211
301.95	19.494
302.32	18.936
302.69	18.284
303.05	17.327
303.42	19.925
303.79	18.808
304.15	18.638
304.52	17.122
304.89	17.544
305.25	17.797
305.62	16.453
305.99	17.193
306.35	18.035
306.72	17.660
307.09	19.270
307.45	18.714
307.82	17.824
308.19	19.396
308.55	17.557
308.92	17.102
309.29	16.536
309.65	17.008
310.02	16.282
310.38	17.673
310.75	17.923
311.12	17.653
311.48	17.922
311.85	16.963
312.22	16.561
312.58	15.711
312.95	16.009
313.31	16.977
313.68	17.173
314.05	16.020
314.41	17.010
314.78	16.289
315.14	17.677
315.51	17.184
315.87	16.086
316.24	17.897
316.61	18.110
316.97	16.964
317.34	17.480
317.70	17.591
318.07	17.019
318.43	17.549
318.80	16.572
319.16	17.383
319.53	18.329
319.89	17.421
320.26	17.409
320.62	17.553
320.99	16.910
321.35	16.855
321.72	17.030
322.08	18.832
322.45	17.563
322.81	18.664
323.18	18.940
323.54	17.085
323.91	18.403
324.27	18.457
324.64	19.663
325.00	20.438
325.37	20.937
325.73	19.946
326.10	20.890
326.46	20.897
326.83	21.085
327.19	21.883
327.56	22.937
327.92	22.447
328.29	23.393
328.65	22.642
329.01	23.162
329.38	24.885
329.74	23.890
330.11	26.043
330.47	24.583
330.84	23.750
331.20	27.281
331.56	25.556
331.93	28.311
332.29	27.406
332.66	27.330
333.02	26.580
333.38	27.589
333.75	28.022
334.11	27.574
334.48	27.743
334.84	27.839
335.20	28.911
335.57	28.196
335.93	28.907
336.29	28.361
336.66	28.610
337.02	29.089
337.38	28.241
337.75	28.091
338.11	28.494
338.47	30.109
338.84	31.054
339.20	28.793
339.56	30.000
339.93	30.976
340.29	30.459
340.65	30.376
341.02	30.851
341.38	30.796
341.74	29.329
342.11	29.463
342.47	31.406
342.83	30.363
343.20	30.836
343.56	30.348
343.92	29.761
344.28	31.512
344.65	31.002
345.01	31.029
345.37	30.446
345.73	30.879
346.10	30.889
346.46	31.623
346.82	30.606
347.19	30.258
347.55	31.412
347.91	30.583
348.27	29.426
348.63	31.005
349.00	29.614
349.36	30.590
349.72	32.007
350.08	31.557
350.45	30.646
350.81	31.229
351.17	30.945
351.53	30.694
351.89	30.553
352.26	30.640
352.62	31.935
352.98	30.763
353.34	31.240
353.70	32.039
354.07	30.726
354.43	31.785
354.79	31.131
355.15	31.032
355.51	31.487
355.87	32.282
356.24	31.240
356.60	31.770
356.96	32.063
357.32	31.070
357.68	31.978
358.04	30.614
358.40	31.592
358.77	33.333
359.13	31.545
359.49	30.894
359.85	31.981
360.21	32.616
360.57	30.757
360.93	31.241
361.29	31.647
361.66	31.740
362.02	32.273
362.38	31.607
362.74	32.248
363.10	32.957
363.46	32.024
363.82	32.983
364.18	31.587
364.54	31.471
364.90	33.620
365.26	31.951
365.62	33.358
365.98	32.771
366.35	32.629
366.71	32.594
367.07	33.019
367.43	32.710
367.79	32.509
368.15	32.950
368.51	32.338
368.87	32.161
369.23	32.202
369.59	32.289
369.95	33.358
370.31	32.876
370.67	32.910
371.03	32.562
371.39	33.625
371.75	33.333
372.11	33.738
372.47	34.172
372.83	33.712
373.19	33.024
373.55	31.841
373.91	33.045
374.27	32.743
374.63	33.238
374.99	33.475
375.35	33.774
375.71	34.825
376.07	33.919
376.42	34.014
376.78	34.832
377.14	34.123
377.50	35.790
377.86	34.404
378.22	32.929
378.58	33.974
378.94	32.892
379.30	34.186
379.66	33.918
380.02	33.722
380.38	34.510
380.74	33.692
381.09	34.969
381.45	34.495
381.81	33.621
382.17	34.772
382.53	34.478
382.89	35.907
383.25	35.345
383.61	35.854
383.97	34.413
384.32	34.396
384.68	34.799
385.04	35.539
385.40	34.785
385.76	36.415
386.12	35.511
386.48	35.824
386.83	35.257
387.19	35.165
387.55	36.261
387.91	35.941
388.27	35.226
388.62	35.872
388.98	34.991
389.34	35.603
389.70	36.669
390.06	35.494
390.42	36.723
390.77	36.691
391.13	35.498
391.49	36.287
391.85	34.763
392.20	36.221
392.56	37.127
392.92	36.700
393.28	35.908
393.64	35.676
393.99	37.367
394.35	36.306
394.71	36.590
395.07	36.204
395.42	37.280
395.78	35.896
396.14	36.381
396.50	37.286
396.85	37.283
397.21	35.777
397.57	37.367
397.92	36.189
398.28	38.103
398.64	36.807
399.00	37.472
399.35	37.133
399.71	36.875
400.07	38.210
400.42	36.597
400.78	37.844
401.14	37.568
401.49	37.939
401.85	37.538
402.21	37.831
402.57	36.625
402.92	36.888
403.28	37.657
403.63	37.642
403.99	37.500
404.35	38.164
404.70	37.679
405.06	37.779
405.42	37.477
405.77	37.885
406.13	37.951
406.49	37.123
406.84	38.936
407.20	38.049
407.55	37.862
407.91	38.168
408.27	37.667
408.62	37.662
408.98	37.277
409.34	37.237
409.69	37.209
410.05	37.685
410.40	37.840
410.76	38.299
411.11	37.750
411.47	38.462
411.83	37.225
412.18	37.580
412.54	38.764
412.89	38.054
413.25	37.726
413.60	39.130
413.96	36.933
414.31	38.171
414.67	37.203
415.03	38.016
415.38	37.598
415.74	38.893
416.09	38.341
416.45	37.340
416.80	37.079
417.16	39.019
417.51	38.774
417.87	38.070
418.22	38.860
418.58	39.799
418.93	39.937
419.29	37.708
419.64	38.367
420.00	39.861
420.35	39.582
420.71	38.821
421.06	39.349
421.42	39.603
421.77	38.150
422.12	40.522
422.48	39.036
422.83	39.443
423.19	39.673
423.54	39.330
423.90	39.046
424.25	40.299
424.61	40.820
424.96	39.605
425.31	41.421
425.67	40.493
426.02	41.048
426.38	40.013
426.73	40.799
427.09	41.709
427.44	41.235
427.79	41.308
428.15	41.444
428.50	40.945
428.85	40.602
429.21	41.426
429.56	42.156
429.92	40.370
430.27	40.401
430.62	40.408
430.98	40.711
431.33	42.008
431.68	41.183
432.04	42.091
432.39	40.901
432.74	39.687
433.10	42.356
433.45	42.174
433.80	41.904
434.16	41.496
434.51	42.366
434.86	41.928
435.22	42.176
435.57	43.419
435.92	42.934
436.28	42.338
436.63	42.841
436.98	42.294
437.34	41.924
437.69	43.292
438.04	42.165
438.39	43.128
438.75	42.502
439.10	41.822
439.45	43.883
439.81	42.324
440.16	44.121
440.51	43.701
440.86	44.350
441.22	42.760
441.57	43.709
441.92	44.544
442.27	44.401
442.63	44.004
442.98	44.572
443.33	44.240
443.68	44.403
444.03	44.213
444.39	43.138
444.74	45.151
445.09	43.820
445.44	44.900
445.79	45.075
446.15	44.218
446.50	43.594
446.85	44.899
447.20	44.526
447.55	45.424
447.91	43.542
448.26	45.134
448.61	44.905
448.96	45.037
449.31	44.566
449.66	45.238
450.02	44.894
450.37	45.584
450.72	44.158
451.07	44.810
451.42	43.820
451.77	45.329
452.12	44.498
452.47	44.945
452.83	44.994
453.18	45.035
453.53	45.196
453.88	45.355
454.23	45.728
454.58	46.662
454.93	46.070
455.28	43.683
455.63	46.063
455.98	45.159
456.34	45.402
456.69	45.426
457.04	47.448
457.39	45.930
457.74	45.828
458.09	45.380
458.44	45.056
458.79	45.210
459.14	46.625
459.49	46.209
459.84	45.516
460.19	45.570
460.54	46.822
460.89	45.625
461.24	46.460
461.59	46.675
461.94	45.535
462.29	46.140
462.64	46.445
462.99	46.513
463.34	45.410
463.69	45.302
464.04	47.155
464.39	46.756
464.74	45.828
465.09	45.976
465.44	46.163
465.79	45.692
466.14	45.667
466.49	45.428
466.84	46.936
467.19	46.183
467.54	46.296
467.89	46.999
468.24	46.107
468.59	46.794
468.94	46.476
469.29	46.164
469.64	46.890
469.99	47.582
470.34	47.577
470.68	47.651
471.03	48.054
471.38	47.290
471.73	47.339
472.08	47.083
472.43	47.315
472.78	46.196
473.13	47.687
473.48	46.971
473.83	46.077
474.17	45.596
474.52	46.139
474.87	46.667
475.22	46.370
475.57	46.302
475.92	47.614
476.27	47.672
476.61	46.991
476.96	46.458
477.31	46.728
477.66	46.854
478.01	48.231
478.36	47.930
478.70	48.178
479.05	47.637
479.40	46.847
479.75	46.142
480.10	46.697
480.45	48.450
480.79	47.885
481.14	47.848
481.49	47.783
481.84	47.490
482.19	47.381
482.53	47.578
482.88	46.874
483.23	47.409
483.58	46.226
483.92	46.370
484.27	47.083
484.62	47.378
484.97	45.730
485.31	45.556
485.66	44.197
486.01	44.412
486.36	44.467
486.70	45.532
487.05	46.303
487.40	45.346
487.75	46.620
488.09	46.477
488.44	47.524
488.79	47.329
489.13	47.155
489.48	46.858
489.83	47.040
490.17	46.247
490.52	48.037
490.87	46.090
491.22	47.469
491.56	47.011
491.91	45.698
492.26	47.837
492.60	46.401
492.95	48.598
493.30	46.702
493.64	48.625
493.99	47.923
494.34	46.990
494.68	47.857
495.03	46.472
495.37	47.203
495.72	47.855
496.07	47.512
496.41	48.255
496.76	46.799
497.11	46.996
497.45	48.210
497.80	48.133
498.14	46.746
498.49	47.283
498.84	47.255
499.18	47.339
499.53	47.073
499.87	47.228
500.22	46.241
500.56	47.504
500.91	47.139
501.26	47.257
501.60	47.713
501.95	47.550
502.29	46.828
502.64	47.828
502.98	48.051
503.33	46.446
503.67	47.518
504.02	47.507
504.36	47.600
504.71	45.909
505.06	48.062
505.40	48.325
505.75	47.938
506.09	47.035
506.44	48.049
506.78	47.194
507.13	48.087
507.47	46.841
507.82	48.077
508.16	48.706
508.51	48.059
508.85	47.933
509.19	48.164
509.54	46.917
509.88	46.926
510.23	47.606
510.57	48.637
510.92	46.429
511.26	48.063
511.61	48.460
511.95	47.671
512.30	48.780
512.64	47.969
512.98	48.231
513.33	47.957
513.67	48.437
514.02	49.771
514.36	48.229
514.70	47.844
515.05	48.414
515.39	48.583
515.74	49.581
516.08	50.090
516.42	49.529
516.77	48.800
517.11	47.834
517.46	49.970
517.80	48.689
518.14	48.500
518.49	48.137
518.83	49.392
519.17	47.059
519.52	48.905
519.86	48.319
520.20	49.028
520.55	47.717
520.89	49.435
521.23	49.018
521.58	49.716
521.92	49.167
522.26	49.122
522.61	48.961
522.95	49.603
523.29	48.793
523.64	50.445
523.98	49.579
524.32	48.647
524.66	49.744
525.01	48.571
525.35	49.579
525.69	49.428
526.04	49.471
526.38	50.195
526.72	48.463
527.06	49.805
527.41	49.208
527.75	48.391
528.09	49.236
528.43	49.764
528.78	49.175
529.12	49.161
529.46	49.123
529.80	49.208
530.15	49.043
530.49	48.754
530.83	50.274
531.17	47.616
531.51	50.684
531.86	48.742
532.20	48.573
532.54	49.489
532.88	48.802
533.22	49.261
533.57	47.903
533.91	48.695
534.25	48.893
534.59	49.006
534.93	47.640
535.27	47.525
535.62	48.283
535.96	48.402
536.30	49.934
536.64	50.172
536.98	47.247
537.32	50.213
537.66	50.491
538.01	48.252
538.35	47.573
538.69	47.004
539.03	47.984
539.37	48.183
539.71	49.012
540.05	48.608
540.39	48.130
540.73	49.372
541.07	47.652
541.42	49.933
541.76	49.140
542.10	48.245
542.44	48.158
542.78	46.180
543.12	46.772
543.46	47.914
543.80	47.536
544.14	47.196
544.48	47.302
544.82	48.530
545.16	47.746
545.50	47.130
545.84	48.229
546.18	47.730
546.52	48.378
546.86	46.945
547.20	49.285
547.54	46.926
547.88	47.554
548.22	45.957
548.56	46.240
548.90	47.574
549.24	46.901
549.58	47.109
549.92	47.820
550.26	48.132
550.60	48.699
550.94	49.888
551.28	49.150
551.62	48.154
551.96	48.120
552.30	48.246
552.64	46.192
552.98	46.484
553.32	47.646
553.66	47.242
554.00	47.810
554.34	48.523
554.68	47.861
555.02	47.842
555.36	46.821
555.69	47.326
556.03	47.894
556.37	47.900
556.71	47.726
557.05	48.695
557.39	46.766
557.73	47.226
558.07	47.511
558.41	47.243
558.75	46.921
559.08	47.518
559.42	46.746
559.76	47.958
560.10	46.330
560.44	47.282
560.78	47.552
561.12	46.827
561.45	46.732
561.79	47.129
562.13	47.480
562.47	46.978
562.81	47.334
563.15	46.262
563.48	46.605
563.82	47.838
564.16	47.075
564.50	45.878
564.84	45.917
565.17	45.674
565.51	46.653
565.85	46.982
566.19	46.883
566.52	46.314
566.86	46.658
567.20	44.956
567.54	45.742
567.88	45.577
568.21	46.493
568.55	44.946
568.89	46.253
569.23	44.824
569.56	43.783
569.90	44.336
570.24	43.059
570.57	44.036
570.91	43.674
571.25	42.881
571.59	42.417
571.92	41.452
572.26	42.421
572.60	42.047
572.93	42.548
573.27	42.476
573.61	41.557
573.95	42.135
574.28	41.367
574.62	41.190
574.96	40.838
575.29	40.914
575.63	40.114
575.97	40.065
576.30	40.933
576.64	41.245
576.98	41.210
577.31	41.632
577.65	41.376
577.98	40.850
578.32	41.001
578.66	40.039
578.99	40.454
579.33	40.744
579.67	40.575
580.00	41.519
580.34	41.194
580.67	41.048
581.01	41.427
581.35	40.289
581.68	39.913
582.02	39.714
582.35	40.836
582.69	40.631
583.02	40.226
583.36	40.667
583.70	41.822
584.03	41.201
584.37	41.558
584.70	41.016
585.04	40.207
585.37	40.319
585.71	40.015
586.04	40.368
586.38	40.624
586.72	40.344
587.05	41.103
587.39	40.788
587.72	41.553
588.06	40.354
588.39	40.815
588.73	40.934
589.06	41.357
589.40	41.514
589.73	41.402
590.07	41.201
590.40	41.641
590.73	43.287
591.07	41.858
591.40	42.164
591.74	42.081
592.07	41.790
592.41	41.696
592.74	41.219
593.08	39.749
593.41	40.395
593.75	40.039
594.08	39.066
594.41	40.211
594.75	40.000
595.08	40.863
595.42	40.743
595.75	41.232
596.09	41.869
596.42	41.381
596.75	40.542
597.09	40.729
597.42	40.379
597.75	40.815
598.09	40.335
598.42	40.117
598.76	40.412
599.09	39.824
599.42	39.447
599.76	40.030
600.09	39.480
600.42	39.196
600.76	39.376
601.09	39.885
601.42	39.875
601.76	40.929
602.09	40.099
602.42	40.438
602.76	40.620
603.09	39.701
603.42	41.513
603.76	40.403
604.09	40.381
604.42	40.313
604.76	41.077
605.09	40.768
605.42	39.910
605.75	39.623
606.09	39.108
606.42	39.575
606.75	39.091
607.09	39.341
607.42	39.566
607.75	38.366
608.08	38.679
608.42	39.287
608.75	40.337
609.08	39.811
609.41	40.508
609.75	39.869
610.08	39.491
610.41	38.696
610.74	39.152
611.07	40.310
611.41	40.374
611.74	40.725
612.07	38.972
612.40	39.661
612.73	39.887
613.07	39.483
613.40	40.536
613.73	39.731
614.06	39.455
614.39	39.876
614.72	38.039
615.06	39.441
615.39	38.919
615.72	39.828
616.05	38.380
616.38	38.519
616.71	40.428
617.05	40.519
617.38	39.723
617.71	40.000
618.04	40.190
618.37	41.047
618.70	40.660
619.03	41.319
619.36	40.014
619.69	41.395
620.03	40.614
620.36	40.629
620.69	40.186
621.02	40.902
621.35	40.996
621.68	41.582
622.01	41.333
622.34	40.702
622.67	40.773
623.00	40.046
623.33	40.015
623.66	40.464
623.99	39.032
624.32	40.152
624.65	39.398
624.99	41.084
625.32	38.817
625.65	40.534
625.98	40.532
626.31	39.152
626.64	41.248
626.97	41.449
627.30	41.156
627.63	40.728
627.96	41.240
628.29	41.166
628.62	40.610
628.95	41.483
629.28	42.440
629.61	39.980
629.94	41.642
630.26	41.601
630.59	43.392
630.92	41.026
631.25	40.103
631.58	41.740
631.91	40.461
632.24	41.858
632.57	41.932
632.90	41.993
