SpectraSuite Data File
++++++++++++++++++++++++++++++++++++
Date: Fri May 15 21:12:12 PDT 2015
User: schluterlab
Dark Spectrum Present: Yes
Reference Spectrum Present: Yes
Number of Sampled Component Spectra: 1
Spectrometers: USB2E3373
Integration Time (usec): 3000 (USB2E3373)
Spectra Averaged: 3 (USB2E3373)
Boxcar Smoothing: 0 (USB2E3373)
Correct for Electrical Dark: No (USB2E3373)
Strobe/Lamp Enabled: No (USB2E3373)
Correct for Detector Non-linearity: No (USB2E3373)
Correct for Stray Light: No (USB2E3373)
Number of Pixels in Processed Spectrum: 2048
>>>>>Begin Processed Spectral Data<<<<<
178.53	0.000
178.91	0.000
179.29	62.500
179.67	-300.000
180.04	100.000
180.42	250.000
180.80	-100.000
181.18	400.000
181.56	250.000
181.94	0.000
182.31	-0.000
182.69	120.000
183.07	-400.000
183.45	-80.000
183.83	150.000
184.20	-72.727
184.58	166.667
184.96	75.000
185.34	400.000
185.72	-150.000
186.09	84.615
186.47	-800.000
186.85	100.000
187.23	211.111
187.61	-300.000
187.98	-233.333
188.36	-88.889
188.74	-233.333
189.12	-23.529
189.49	27.778
189.87	0.000
190.25	50.000
190.63	-200.000
191.00	-66.667
191.38	0.000
191.76	200.000
192.14	-125.000
192.51	150.000
192.89	-155.556
193.27	-114.286
193.65	300.000
194.02	190.909
194.40	-70.000
194.78	-100.000
195.15	-58.333
195.53	-62.500
195.91	400.000
196.29	50.000
196.66	169.231
197.04	57.143
197.42	-88.889
197.79	-400.000
198.17	-130.769
198.55	1700.000
198.92	-200.000
199.30	-500.000
199.68	-200.000
200.05	-533.333
200.43	0.000
200.81	-266.667
201.18	-566.667
201.56	600.000
201.94	-500.000
202.31	33.333
202.69	-80.000
203.07	200.000
203.44	-100.000
203.82	0.000
204.19	7.143
204.57	-233.333
204.95	12.500
205.32	-60.000
205.70	-85.714
206.08	-225.000
206.45	66.667
206.83	35.714
207.20	-328.571
207.58	1300.000
207.96	-300.000
208.33	-100.000
208.71	0.000
209.08	-233.333
209.46	-100.000
209.84	-80.000
210.21	-1300.000
210.59	14.286
210.96	-216.667
211.34	-150.000
211.71	40.000
212.09	-71.429
212.46	-500.000
212.84	0.000
213.22	20.000
213.59	600.000
213.97	23.077
214.34	18.182
214.72	-150.000
215.09	375.000
215.47	-30.769
215.84	-45.455
216.22	-333.333
216.59	-137.500
216.97	-50.000
217.34	25.000
217.72	-220.000
218.09	87.500
218.47	100.000
218.84	-400.000
219.22	-22.222
219.59	-60.000
219.97	400.000
220.34	100.000
220.72	-85.714
221.09	-50.000
221.47	-500.000
221.84	-900.000
222.22	-750.000
222.59	-9.091
222.97	-50.000
223.34	-166.667
223.72	-14.286
224.09	-42.857
224.46	35.714
224.84	666.667
225.21	-20.000
225.59	40.000
225.96	-100.000
226.34	175.000
226.71	-100.000
227.08	-233.333
227.46	-137.500
227.83	-450.000
228.21	33.333
228.58	0.000
228.95	-62.500
229.33	110.000
229.70	-75.000
230.08	-75.000
230.45	-57.143
230.82	-42.857
231.20	-86.667
231.57	-35.714
231.95	-114.286
232.32	-90.000
232.69	-14.286
233.07	-133.333
233.44	-160.000
233.81	-90.000
234.19	-77.778
234.56	11.765
234.93	50.000
235.31	0.000
235.68	-200.000
236.05	-53.846
236.43	10.000
236.80	-64.706
237.17	0.000
237.55	25.000
237.92	-25.926
238.29	0.000
238.67	-20.000
239.04	14.706
239.41	-31.707
239.79	-16.667
240.16	17.073
240.53	-10.526
240.91	2.174
241.28	25.397
241.65	26.786
242.02	16.438
242.40	13.333
242.77	16.949
243.14	4.545
243.51	5.000
243.89	18.391
244.26	6.897
244.63	11.905
245.00	15.464
245.38	23.711
245.75	14.607
246.12	6.897
246.49	10.744
246.87	20.192
247.24	5.882
247.61	10.526
247.98	11.382
248.36	13.125
248.73	17.763
249.10	18.831
249.47	17.722
249.84	20.261
250.22	24.706
250.59	12.418
250.96	15.962
251.33	13.953
251.70	21.765
252.08	15.736
252.45	16.832
252.82	14.070
253.19	17.512
253.56	16.822
253.94	18.018
254.31	20.435
254.68	23.246
255.05	16.535
255.42	18.777
255.79	18.147
256.16	19.844
256.54	21.642
256.91	20.152
257.28	18.587
257.65	18.727
258.02	18.794
258.39	19.865
258.76	20.879
259.14	19.934
259.51	19.741
259.88	20.962
260.25	16.993
260.62	20.833
260.99	18.305
261.36	17.466
261.73	18.987
262.10	18.237
262.47	17.485
262.85	20.690
263.22	23.385
263.59	17.757
263.96	18.634
264.33	20.303
264.70	17.262
265.07	21.726
265.44	20.113
265.81	20.621
266.18	20.219
266.55	19.537
266.92	17.617
267.29	18.538
267.66	20.205
268.03	19.110
268.40	15.927
268.77	20.856
269.14	18.225
269.51	20.308
269.88	17.955
270.25	16.071
270.62	16.585
270.99	19.949
271.36	15.892
271.73	16.432
272.10	18.005
272.47	18.676
272.84	18.812
273.21	18.794
273.58	18.554
273.95	18.307
274.32	20.323
274.69	18.100
275.06	20.313
275.43	20.181
275.80	18.764
276.17	20.000
276.54	16.274
276.91	18.202
277.28	16.812
277.65	19.628
278.02	16.809
278.39	18.818
278.76	17.400
279.13	15.768
279.50	18.697
279.87	18.790
280.23	15.054
280.60	18.129
280.97	18.384
281.34	16.346
281.71	21.355
282.08	17.791
282.45	18.004
282.82	17.568
283.19	19.923
283.56	18.690
283.92	18.027
284.29	16.538
284.66	18.411
285.03	17.682
285.40	15.879
285.77	17.047
286.14	16.606
286.51	17.897
286.87	16.636
287.24	17.864
287.61	15.873
287.98	18.596
288.35	15.771
288.72	17.163
289.08	17.014
289.45	17.047
289.82	16.434
290.19	15.188
290.56	14.580
290.93	13.468
291.29	13.713
291.66	15.276
292.03	14.514
292.40	15.161
292.77	14.354
293.13	10.714
293.50	14.719
293.87	16.489
294.24	15.456
294.60	13.711
294.97	15.625
295.34	12.270
295.71	13.711
296.08	11.360
296.44	10.811
296.81	14.861
297.18	13.043
297.55	14.228
297.91	12.877
298.28	14.908
298.65	13.569
299.02	13.342
299.38	10.944
299.75	12.276
300.12	13.089
300.48	13.570
300.85	11.660
301.22	13.636
301.59	12.368
301.95	12.911
302.32	13.359
302.69	10.448
303.05	10.767
303.42	12.702
303.79	13.668
304.15	12.784
304.52	10.820
304.89	11.930
305.25	10.291
305.62	12.602
305.99	11.228
306.35	10.173
306.72	11.024
307.09	11.745
307.45	11.825
307.82	11.458
308.19	11.382
308.55	11.123
308.92	11.874
309.29	11.732
309.65	10.657
310.02	10.121
310.38	10.867
310.75	12.678
311.12	10.549
311.48	11.029
311.85	11.518
312.22	12.131
312.58	11.783
312.95	11.419
313.31	12.422
313.68	11.309
314.05	11.224
314.41	12.062
314.78	11.340
315.14	12.230
315.51	11.801
315.87	11.578
316.24	11.931
316.61	12.205
316.97	10.020
317.34	11.230
317.70	10.994
318.07	12.212
318.43	11.667
318.80	11.174
319.16	11.914
319.53	11.681
319.89	10.335
320.26	12.348
320.62	11.735
320.99	11.900
321.35	12.539
321.72	11.526
322.08	11.380
322.45	11.371
322.81	11.395
323.18	11.580
323.54	12.259
323.91	11.587
324.27	12.207
324.64	12.734
325.00	12.774
325.37	13.774
325.73	11.151
326.10	11.626
326.46	12.466
326.83	12.686
327.19	13.078
327.56	12.163
327.92	13.028
328.29	11.607
328.65	11.887
329.01	11.765
329.38	11.889
329.74	12.653
330.11	12.141
330.47	11.132
330.84	11.250
331.20	13.308
331.56	11.944
331.93	13.425
332.29	12.741
332.66	12.941
333.02	12.732
333.38	12.741
333.75	12.363
334.11	11.907
334.48	13.055
334.84	13.828
335.20	12.443
335.57	12.239
335.93	13.189
336.29	12.523
336.66	12.443
337.02	11.524
337.38	12.222
337.75	11.909
338.11	12.714
338.47	12.500
338.84	12.200
339.20	11.243
339.56	12.202
339.93	11.996
340.29	12.202
340.65	12.724
341.02	12.145
341.38	12.566
341.74	11.219
342.11	11.438
342.47	10.053
342.83	11.332
343.20	11.585
343.56	12.174
343.92	11.249
344.28	12.041
344.65	11.831
345.01	11.150
345.37	11.186
345.73	12.887
346.10	13.287
346.46	12.784
346.82	11.375
347.19	10.973
347.55	11.947
347.91	11.893
348.27	11.722
348.63	11.414
349.00	11.075
349.36	11.970
349.72	12.355
350.08	10.984
350.45	11.572
350.81	10.797
351.17	10.261
351.53	11.347
351.89	10.074
352.26	11.040
352.62	11.532
352.98	11.084
353.34	11.192
353.70	11.731
354.07	11.774
354.43	11.049
354.79	10.074
355.15	11.667
355.51	11.867
355.87	10.680
356.24	10.277
356.60	11.075
356.96	10.635
357.32	10.623
357.68	10.399
358.04	10.420
358.40	10.932
358.77	10.367
359.13	11.129
359.49	11.094
359.85	10.218
360.21	11.085
360.57	10.406
360.93	11.044
361.29	10.952
361.66	11.129
362.02	11.061
362.38	11.957
362.74	10.447
363.10	11.889
363.46	10.971
363.82	11.345
364.18	10.775
364.54	10.147
364.90	10.323
365.26	10.699
365.62	11.752
365.98	10.557
366.35	10.488
366.71	10.643
367.07	10.740
367.43	9.849
367.79	11.519
368.15	10.625
368.51	10.998
368.87	9.476
369.23	9.747
369.59	10.131
369.95	11.070
370.31	10.694
370.67	10.075
371.03	10.306
371.39	9.701
371.75	10.842
372.11	9.914
372.47	10.651
372.83	11.001
373.19	11.198
373.55	9.892
373.91	10.367
374.27	10.702
374.63	10.337
374.99	9.929
375.35	11.072
375.71	10.210
376.07	9.480
376.42	9.932
376.78	10.134
377.14	10.359
377.50	10.027
377.86	10.576
378.22	9.509
378.58	10.000
378.94	9.893
379.30	10.480
379.66	10.470
380.02	10.300
380.38	9.921
380.74	9.934
381.09	10.123
381.45	9.969
381.81	10.364
382.17	9.645
382.53	10.181
382.89	9.667
383.25	10.205
383.61	10.427
383.97	10.159
384.32	9.256
384.68	9.721
385.04	9.681
385.40	10.268
385.76	10.503
386.12	10.479
386.48	10.089
386.83	10.273
387.19	10.440
387.55	10.665
387.91	9.780
388.27	9.219
388.62	10.321
388.98	10.129
389.34	10.618
389.70	10.566
390.06	9.125
390.42	10.168
390.77	9.680
391.13	9.142
391.49	9.379
391.85	10.071
392.20	10.107
392.56	9.917
392.92	10.100
393.28	9.493
393.64	10.450
393.99	10.784
394.35	9.677
394.71	9.579
395.07	9.491
395.42	9.593
395.78	9.707
396.14	10.593
396.50	9.956
396.85	9.530
397.21	9.962
397.57	9.969
397.92	9.706
398.28	9.770
398.64	9.880
399.00	10.271
399.35	8.634
399.71	10.052
400.07	9.613
400.42	10.037
400.78	9.737
401.14	9.800
401.49	10.304
401.85	9.506
402.21	10.663
402.57	10.188
402.92	9.724
403.28	9.962
403.63	10.277
403.99	9.758
404.35	9.681
404.70	10.179
405.06	9.283
405.42	10.441
405.77	9.529
406.13	8.847
406.49	10.006
406.84	9.474
407.20	10.777
407.55	9.208
407.91	9.024
408.27	9.751
408.62	10.338
408.98	9.612
409.34	10.719
409.69	9.238
410.05	10.530
410.40	9.506
410.76	10.012
411.11	9.812
411.47	10.125
411.83	8.977
412.18	10.553
412.54	9.488
412.89	9.667
413.25	9.988
413.60	9.193
413.96	9.877
414.31	10.549
414.67	9.365
415.03	9.854
415.38	10.052
415.74	9.902
416.09	10.581
416.45	10.736
416.80	9.253
417.16	11.188
417.51	9.660
417.87	9.909
418.22	10.363
418.58	9.164
418.93	10.470
419.29	8.451
419.64	10.110
420.00	9.950
420.35	10.328
420.71	10.267
421.06	9.822
421.42	9.796
421.77	10.000
422.12	10.386
422.48	10.179
422.83	10.035
423.19	10.666
423.54	8.995
423.90	9.658
424.25	10.161
424.61	10.159
424.96	10.453
425.31	10.514
425.67	10.153
426.02	10.601
426.38	10.019
426.73	9.625
427.09	10.759
427.44	10.647
427.79	10.371
428.15	10.316
428.50	9.691
428.85	9.275
429.21	10.922
429.56	9.919
429.92	10.324
430.27	10.727
430.62	9.827
430.98	10.297
431.33	10.095
431.68	9.942
432.04	10.173
432.39	10.896
432.74	9.862
433.10	10.747
433.45	9.558
433.80	9.808
434.16	9.252
434.51	10.806
434.86	10.163
435.22	10.095
435.57	10.231
435.92	10.419
436.28	9.541
436.63	10.496
436.98	10.603
437.34	9.800
437.69	9.600
438.04	10.256
438.39	9.896
438.75	9.107
439.10	9.904
439.45	10.712
439.81	9.786
440.16	10.095
440.51	10.925
440.86	10.937
441.22	9.729
441.57	10.596
441.92	11.490
442.27	10.532
442.63	11.349
442.98	10.339
443.33	10.629
443.68	10.345
444.03	10.979
444.39	10.871
444.74	10.479
445.09	9.967
445.44	10.256
445.79	10.779
446.15	10.463
446.50	9.983
446.85	10.361
447.20	9.906
447.55	10.603
447.91	11.111
448.26	10.359
448.61	11.284
448.96	9.409
449.31	10.173
449.66	10.337
450.02	10.268
450.37	10.848
450.72	10.023
451.07	10.570
451.42	11.049
451.77	10.790
452.12	10.347
452.47	9.916
452.83	9.776
453.18	10.689
453.53	10.367
453.88	10.383
454.23	11.248
454.58	10.264
454.93	10.567
455.28	9.333
455.63	10.725
455.98	10.343
456.34	11.622
456.69	10.546
457.04	11.972
457.39	10.146
457.74	10.580
458.09	10.124
458.44	10.298
458.79	10.364
459.14	11.270
459.49	10.806
459.84	10.491
460.19	10.133
460.54	11.430
460.89	10.966
461.24	11.429
461.59	10.808
461.94	10.566
462.29	11.821
462.64	10.831
462.99	10.765
463.34	9.736
463.69	11.454
464.04	10.956
464.39	11.037
464.74	10.307
465.09	11.104
465.44	11.368
465.79	10.317
466.14	10.604
466.49	10.638
466.84	11.005
467.19	10.826
467.54	10.345
467.89	10.865
468.24	10.219
468.59	10.603
468.94	9.968
469.29	10.820
469.64	11.688
469.99	11.212
470.34	10.444
470.68	11.037
471.03	10.899
471.38	9.986
471.73	10.854
472.08	10.312
472.43	10.604
472.78	10.144
473.13	11.769
473.48	10.749
473.83	10.834
474.17	11.269
474.52	10.530
474.87	11.333
475.22	10.494
475.57	10.277
475.92	11.135
476.27	11.059
476.61	10.706
476.96	9.816
477.31	11.141
477.66	10.337
478.01	10.331
478.36	10.893
478.70	11.637
479.05	10.934
479.40	10.758
479.75	11.053
480.10	11.521
480.45	10.100
480.79	11.128
481.14	11.117
481.49	10.640
481.84	10.280
482.19	10.758
482.53	11.079
482.88	11.074
483.23	10.365
483.58	11.038
483.92	10.649
484.27	10.802
484.62	11.116
484.97	10.531
485.31	10.477
485.66	10.693
486.01	11.491
486.36	11.317
486.70	11.604
487.05	11.392
487.40	11.246
487.75	10.958
488.09	10.970
488.44	10.660
488.79	10.459
489.13	10.857
489.48	10.389
489.83	11.121
490.17	10.427
490.52	10.624
490.87	10.319
491.22	10.363
491.56	9.867
491.91	10.277
492.26	10.501
492.60	10.221
492.95	10.674
493.30	10.699
493.64	10.314
493.99	10.580
494.34	10.243
494.68	10.524
495.03	9.878
495.37	10.206
495.72	10.399
496.07	10.976
496.41	10.566
496.76	10.226
497.11	10.107
497.45	11.265
497.80	11.150
498.14	10.681
498.49	10.615
498.84	10.928
499.18	10.894
499.53	10.962
499.87	10.214
500.22	10.138
500.56	10.237
500.91	10.191
501.26	10.430
501.60	11.018
501.95	10.529
502.29	10.460
502.64	10.907
502.98	10.557
503.33	10.519
503.67	10.795
504.02	10.215
504.36	11.430
504.71	9.899
505.06	10.569
505.40	10.508
505.75	10.206
506.09	10.542
506.44	10.678
506.78	11.224
507.13	10.496
507.47	10.392
507.82	9.669
508.16	10.354
508.51	10.756
508.85	10.413
509.19	10.271
509.54	10.402
509.88	10.140
510.23	10.328
510.57	10.636
510.92	9.542
511.26	11.020
511.61	10.121
511.95	10.411
512.30	10.310
512.64	10.907
512.98	10.444
513.33	11.080
513.67	10.347
514.02	11.327
514.36	10.914
514.70	11.305
515.05	11.751
515.39	10.685
515.74	11.317
516.08	10.102
516.42	11.249
516.77	10.532
517.11	10.564
517.46	10.952
517.80	10.489
518.14	9.247
518.49	10.397
518.83	10.510
519.17	9.945
519.52	10.657
519.86	10.384
520.20	10.085
520.55	9.006
520.89	10.979
521.23	10.513
521.58	11.609
521.92	10.705
522.26	10.605
522.61	10.844
522.95	10.993
523.29	11.690
523.64	11.690
523.98	10.175
524.32	10.245
524.66	10.627
525.01	11.494
525.35	10.693
525.69	9.966
526.04	9.854
526.38	11.089
526.72	9.941
527.06	10.571
527.41	11.016
527.75	10.724
528.09	10.233
528.43	11.546
528.78	10.099
529.12	10.774
529.46	10.396
529.80	11.146
530.15	11.881
530.49	10.572
530.83	10.602
531.17	10.343
531.51	10.397
531.86	10.673
532.20	10.786
532.54	10.619
532.88	11.910
533.22	11.089
533.57	11.533
533.91	10.966
534.25	10.677
534.59	10.840
534.93	10.950
535.27	10.723
535.62	10.953
535.96	11.285
536.30	11.016
536.64	10.407
536.98	10.453
537.32	11.309
537.66	11.290
538.01	11.538
538.35	11.442
538.69	11.784
539.03	10.390
539.37	11.575
539.71	10.566
540.05	10.930
540.39	11.288
540.73	10.669
541.07	10.843
541.42	11.828
541.76	10.943
542.10	11.425
542.44	10.841
542.78	9.704
543.12	10.989
543.46	11.961
543.80	11.242
544.14	10.547
544.48	11.459
544.82	9.911
545.16	11.066
545.50	11.348
545.84	11.048
546.18	11.702
546.52	11.175
546.86	9.849
547.20	10.229
547.54	9.894
547.88	11.141
548.22	10.454
548.56	11.346
548.90	11.658
549.24	11.364
549.58	10.719
549.92	10.365
550.26	11.136
550.60	10.855
550.94	10.978
551.28	11.128
551.62	10.692
551.96	10.902
552.30	10.673
552.64	10.296
552.98	11.955
553.32	11.127
553.66	9.942
554.00	10.876
554.34	11.152
554.68	10.988
555.02	10.417
555.36	10.995
555.69	10.989
556.03	10.635
556.37	10.747
556.71	11.336
557.05	10.365
557.39	9.814
557.73	11.544
558.07	11.312
558.41	10.720
558.75	10.055
559.08	10.796
559.42	10.714
559.76	10.568
560.10	11.391
560.44	11.020
560.78	11.119
561.12	11.354
561.45	10.963
561.79	10.854
562.13	11.072
562.47	10.504
562.81	11.239
563.15	11.142
563.48	11.245
563.82	10.089
564.16	10.655
564.50	10.473
564.84	10.843
565.17	11.133
565.51	11.202
565.85	10.974
566.19	11.273
566.52	11.461
566.86	12.211
567.20	11.083
567.54	10.219
567.88	11.424
568.21	12.161
568.55	10.815
568.89	11.242
569.23	11.507
569.56	11.340
569.90	11.937
570.24	11.202
570.57	11.927
570.91	11.677
571.25	11.411
571.59	11.616
571.92	11.378
572.26	11.473
572.60	11.287
572.93	11.829
573.27	11.567
573.61	11.695
573.95	11.333
574.28	11.600
574.62	11.620
574.96	11.967
575.29	11.812
575.63	11.246
575.97	11.385
576.30	11.330
576.64	11.391
576.98	11.532
577.31	11.133
577.65	11.766
577.98	11.792
578.32	11.992
578.66	11.348
578.99	11.628
579.33	11.142
579.67	11.481
580.00	11.772
580.34	11.592
580.67	11.474
581.01	11.623
581.35	11.843
581.68	11.750
582.02	11.910
582.35	11.606
582.69	11.784
583.02	11.408
583.36	11.971
583.70	11.916
584.03	11.788
584.37	11.773
584.70	11.786
585.04	11.321
585.37	11.548
585.71	11.429
586.04	11.372
586.38	11.096
586.72	11.478
587.05	12.016
587.39	11.798
587.72	12.083
588.06	11.957
588.39	12.019
588.73	11.538
589.06	11.676
589.40	11.441
589.73	11.610
590.07	11.178
590.40	12.113
590.73	11.862
591.07	11.917
591.40	11.443
591.74	11.855
592.07	11.688
592.41	11.705
592.74	11.430
593.08	11.317
593.41	11.532
593.75	11.613
594.08	11.432
594.41	11.645
594.75	11.336
595.08	11.351
595.42	11.446
595.75	11.904
596.09	11.923
596.42	11.534
596.75	11.945
597.09	11.754
597.42	11.201
597.75	11.086
598.09	11.272
598.42	11.462
598.76	11.454
599.09	11.899
599.42	11.330
599.76	10.948
600.09	11.953
600.42	11.410
600.76	11.441
601.09	11.107
601.42	10.850
601.76	11.513
602.09	11.427
602.42	11.373
602.76	11.205
603.09	11.545
603.42	11.580
603.76	10.968
604.09	11.098
604.42	11.675
604.76	11.927
605.09	11.609
605.42	11.512
605.75	11.340
606.09	11.295
606.42	10.926
606.75	11.861
607.09	11.912
607.42	11.077
607.75	10.346
608.08	10.737
608.42	10.735
608.75	11.759
609.08	10.862
609.41	10.660
609.75	11.643
610.08	11.732
610.41	10.676
610.74	11.945
611.07	10.749
611.41	11.624
611.74	11.994
612.07	10.814
612.40	11.160
612.73	10.621
613.07	11.361
613.40	11.597
613.73	10.688
614.06	11.519
614.39	11.280
614.72	10.644
615.06	11.732
615.39	9.880
615.72	10.603
616.05	11.508
616.38	10.313
616.71	11.254
617.05	11.303
617.38	11.565
617.71	11.069
618.04	11.556
618.37	11.917
618.70	11.683
619.03	12.014
619.36	10.854
619.69	11.221
620.03	10.957
620.36	11.087
620.69	10.849
621.02	11.086
621.35	11.784
621.68	10.544
622.01	10.500
622.34	11.173
622.67	11.199
623.00	11.256
623.33	11.662
623.66	10.696
623.99	10.439
624.32	11.331
624.65	9.925
624.99	11.362
625.32	8.946
625.65	11.862
625.98	11.281
626.31	10.141
626.64	11.785
626.97	11.344
627.30	10.858
627.63	10.572
627.96	10.872
628.29	10.731
628.62	10.914
628.95	11.723
629.28	10.484
629.61	10.269
629.94	11.046
630.26	11.067
630.59	11.238
630.92	10.462
631.25	10.974
631.58	11.123
631.91	9.759
632.24	10.780
632.57	9.318
632.90	9.253
633.23	10.941
633.56	10.327
633.89	8.508
634.22	11.235
634.55	9.911
634.88	10.600
635.20	10.128
635.53	9.867
635.86	9.493
