SpectraSuite Data File
++++++++++++++++++++++++++++++++++++
Date: Fri May 15 20:55:03 PDT 2015
User: schluterlab
Dark Spectrum Present: Yes
Reference Spectrum Present: Yes
Number of Sampled Component Spectra: 1
Spectrometers: USB2E3373
Integration Time (usec): 3000 (USB2E3373)
Spectra Averaged: 3 (USB2E3373)
Boxcar Smoothing: 0 (USB2E3373)
Correct for Electrical Dark: No (USB2E3373)
Strobe/Lamp Enabled: No (USB2E3373)
Correct for Detector Non-linearity: No (USB2E3373)
Correct for Stray Light: No (USB2E3373)
Number of Pixels in Processed Spectrum: 2048
>>>>>Begin Processed Spectral Data<<<<<
178.53	0.000
178.91	0.000
179.29	87.500
179.67	-300.000
180.04	-42.857
180.42	-25.000
180.80	200.000
181.18	333.333
181.56	-0.000
181.94	800.000
182.31	800.000
182.69	-100.000
183.07	-66.667
183.45	40.000
183.83	50.000
184.20	18.182
184.58	100.000
184.96	25.000
185.34	-100.000
185.72	-700.000
186.09	130.769
186.47	-1200.000
186.85	133.333
187.23	155.556
187.61	-600.000
187.98	-200.000
188.36	166.667
188.74	100.000
189.12	11.765
189.49	38.889
189.87	0.000
190.25	64.286
190.63	200.000
191.00	-100.000
191.38	-42.105
191.76	450.000
192.14	100.000
192.51	-450.000
192.89	-22.222
193.27	-128.571
193.65	200.000
194.02	136.364
194.40	90.000
194.78	-37.500
195.15	-16.667
195.53	-50.000
195.91	375.000
196.29	-25.000
196.66	84.615
197.04	71.429
197.42	22.222
197.79	-533.333
198.17	-69.231
198.55	1600.000
198.92	-100.000
199.30	400.000
199.68	-180.000
200.05	-466.667
200.43	0.000
200.81	133.333
201.18	-66.667
201.56	900.000
201.94	-300.000
202.31	33.333
202.69	-160.000
203.07	-25.000
203.44	-500.000
203.82	0.000
204.19	28.571
204.57	-200.000
204.95	37.500
205.32	-20.000
205.70	71.429
206.08	-250.000
206.45	77.778
206.83	14.286
207.20	-57.143
207.58	600.000
207.96	-200.000
208.33	-60.000
208.71	50.000
209.08	-250.000
209.46	-2200.000
209.84	-180.000
210.21	-1000.000
210.59	71.429
210.96	-16.667
211.34	-50.000
211.71	46.667
212.09	-128.571
212.46	-1600.000
212.84	0.000
213.22	-20.000
213.59	400.000
213.97	7.692
214.34	36.364
214.72	16.667
215.09	175.000
215.47	46.154
215.84	-45.455
216.22	-333.333
216.59	-37.500
216.97	-50.000
217.34	-100.000
217.72	-60.000
218.09	50.000
218.47	100.000
218.84	-900.000
219.22	-100.000
219.59	-160.000
219.97	233.333
220.34	500.000
220.72	-85.714
221.09	-475.000
221.47	300.000
221.84	-750.000
222.22	-600.000
222.59	81.818
222.97	75.000
223.34	-233.333
223.72	-64.286
224.09	-4.762
224.46	10.714
224.84	200.000
225.21	-50.000
225.59	6.667
225.96	-300.000
226.34	300.000
226.71	100.000
227.08	100.000
227.46	-62.500
227.83	-450.000
228.21	66.667
228.58	9.091
228.95	0.000
229.33	80.000
229.70	25.000
230.08	100.000
230.45	-42.857
230.82	-28.571
231.20	-13.333
231.57	64.286
231.95	-28.571
232.32	-130.000
232.69	28.571
233.07	-266.667
233.44	-100.000
233.81	-80.000
234.19	-122.222
234.56	-11.765
234.93	350.000
235.31	25.000
235.68	-60.000
236.05	-23.077
236.43	15.000
236.80	5.882
237.17	34.375
237.55	65.000
237.92	-7.407
238.29	33.333
238.67	-6.667
239.04	29.412
239.41	12.195
239.79	40.000
240.16	31.707
240.53	10.526
240.91	19.565
241.28	30.159
241.65	28.571
242.02	39.726
242.40	26.667
242.77	44.068
243.14	13.636
243.51	33.750
243.89	41.379
244.26	21.839
244.63	32.143
245.00	26.804
245.38	28.866
245.75	28.090
246.12	31.034
246.49	20.661
246.87	32.692
247.24	36.975
247.61	28.070
247.98	21.138
248.36	21.875
248.73	32.895
249.10	24.026
249.47	33.544
249.84	24.837
250.22	27.647
250.59	33.333
250.96	31.455
251.33	27.907
251.70	32.353
252.08	30.964
252.45	33.168
252.82	29.648
253.19	32.258
253.56	25.701
253.94	29.279
254.31	30.000
254.68	31.579
255.05	28.740
255.42	27.074
255.79	33.205
256.16	31.128
256.54	32.090
256.91	33.460
257.28	31.227
257.65	30.712
258.02	30.142
258.39	28.283
258.76	34.799
259.14	32.890
259.51	33.010
259.88	29.210
260.25	30.719
260.62	33.333
260.99	32.203
261.36	31.849
261.73	29.114
262.10	30.395
262.47	30.368
262.85	27.900
263.22	34.769
263.59	32.710
263.96	31.677
264.33	30.606
264.70	32.143
265.07	31.250
265.44	31.445
265.81	31.356
266.18	30.328
266.55	28.278
266.92	31.865
267.29	31.593
267.66	28.645
268.03	34.555
268.40	30.287
268.77	33.155
269.14	31.894
269.51	30.848
269.88	31.671
270.25	29.592
270.62	28.293
270.99	30.946
271.36	29.829
271.73	28.404
272.10	29.927
272.47	30.260
272.84	30.693
273.21	29.002
273.58	31.084
273.95	30.206
274.32	27.714
274.69	28.054
275.06	35.268
275.43	29.705
275.80	30.684
276.17	31.264
276.54	30.407
276.91	30.482
277.28	29.913
277.65	29.545
278.02	30.851
278.39	30.635
278.76	27.673
279.13	28.631
279.50	32.353
279.87	29.590
280.23	28.817
280.60	29.435
280.97	31.919
281.34	28.077
281.71	31.417
282.08	29.448
282.45	29.550
282.82	28.571
283.19	29.787
283.56	29.287
283.92	29.412
284.29	26.731
284.66	29.264
285.03	27.505
285.40	30.246
285.77	28.120
286.14	26.534
286.51	29.336
286.87	26.874
287.24	29.650
287.61	28.924
287.98	28.246
288.35	27.383
288.72	27.846
289.08	26.389
289.45	27.417
289.82	26.573
290.19	24.232
290.56	26.244
290.93	26.263
291.29	23.575
291.66	26.772
292.03	26.954
292.40	27.258
292.77	26.156
293.13	22.890
293.50	22.458
293.87	24.885
294.24	24.420
294.60	22.355
294.97	24.554
295.34	24.540
295.71	23.696
296.08	22.870
296.44	24.040
296.81	22.500
297.18	22.754
297.55	24.932
297.91	22.603
298.28	22.427
298.65	20.760
299.02	22.507
299.38	20.657
299.75	23.724
300.12	20.942
300.48	22.266
300.85	20.913
301.22	21.688
301.59	20.526
301.95	22.405
302.32	24.125
302.69	21.891
303.05	20.545
303.42	21.793
303.79	21.379
304.15	21.744
304.52	19.620
304.89	21.287
305.25	20.218
305.62	19.253
305.99	18.246
306.35	20.809
306.72	19.573
307.09	19.954
307.45	20.896
307.82	20.023
308.19	21.370
308.55	19.629
308.92	21.895
309.29	21.006
309.65	19.699
310.02	20.242
310.38	20.527
310.75	20.984
311.12	21.744
311.48	21.315
311.85	20.000
312.22	20.464
312.58	21.338
312.95	21.238
313.31	20.290
313.68	21.257
314.05	21.327
314.41	21.134
314.78	21.031
315.14	21.994
315.51	21.532
315.87	20.389
316.24	22.952
316.61	21.949
316.97	22.123
317.34	21.484
317.70	22.658
318.07	20.962
318.43	22.157
318.80	21.591
319.16	23.535
319.53	23.077
319.89	23.720
320.26	22.368
320.62	23.270
320.99	22.651
321.35	24.358
321.72	25.026
322.08	25.680
322.45	26.396
322.81	24.067
323.18	25.319
323.54	25.772
323.91	26.485
324.27	27.344
324.64	26.592
325.00	27.281
325.37	27.548
325.73	26.836
326.10	28.338
326.46	27.444
326.83	27.997
327.19	29.991
327.56	29.192
327.92	30.194
328.29	29.196
328.65	28.679
329.01	29.688
329.38	29.677
329.74	28.895
330.11	31.233
330.47	29.406
330.84	28.750
331.20	31.084
331.56	28.611
331.93	31.598
332.29	31.072
332.66	30.588
333.02	30.019
333.38	29.973
333.75	31.319
334.11	29.185
334.48	31.188
334.84	31.593
335.20	31.107
335.57	29.918
335.93	30.985
336.29	31.123
336.66	30.972
337.02	30.390
337.38	29.722
337.75	32.000
338.11	30.568
338.47	32.847
338.84	30.961
339.20	30.256
339.56	30.000
339.93	30.349
340.29	30.917
340.65	31.631
341.02	30.762
341.38	30.796
341.74	31.007
342.11	30.416
342.47	30.961
342.83	31.488
343.20	30.314
343.56	30.870
343.92	31.887
344.28	32.024
344.65	31.261
345.01	32.066
345.37	29.941
345.73	30.377
346.10	32.701
346.46	30.782
346.82	30.851
347.19	31.089
347.55	31.830
347.91	32.039
348.27	30.234
348.63	31.516
349.00	29.779
349.36	31.421
349.72	32.836
350.08	32.541
350.45	31.125
350.81	30.897
351.17	31.433
351.53	32.000
351.89	31.214
352.26	31.680
352.62	31.129
352.98	31.004
353.34	31.159
353.70	33.172
354.07	31.371
354.43	30.745
354.79	30.636
355.15	31.905
355.51	32.516
355.87	32.443
356.24	31.974
356.60	31.932
356.96	32.857
357.32	32.588
357.68	31.040
358.04	32.795
358.40	32.154
358.77	32.855
359.13	32.106
359.49	31.895
359.85	32.215
360.21	32.456
360.57	31.982
360.93	31.921
361.29	31.420
361.66	32.915
362.02	32.045
362.38	33.663
362.74	32.627
363.10	33.559
363.46	31.727
363.82	33.584
364.18	32.030
364.54	32.279
364.90	34.050
365.26	32.897
365.62	34.015
365.98	34.238
366.35	34.013
366.71	33.925
367.07	33.962
367.43	33.501
367.79	34.417
368.15	33.597
368.51	33.940
368.87	33.094
369.23	32.852
369.59	33.455
369.95	34.311
370.31	34.899
370.67	34.627
371.03	33.607
371.39	33.333
371.75	33.626
372.11	34.237
372.47	34.024
372.83	33.783
373.19	35.164
373.55	34.801
373.91	34.413
374.27	34.869
374.63	34.817
374.99	33.972
375.35	34.819
375.71	34.965
376.07	34.129
376.42	35.170
376.78	35.973
377.14	34.868
377.50	34.064
377.86	35.408
378.22	35.801
378.58	35.641
378.94	35.539
379.30	35.184
379.66	36.364
380.02	34.825
380.38	36.458
380.74	35.607
381.09	36.442
381.45	36.636
381.81	35.780
382.17	36.485
382.53	36.727
382.89	38.293
383.25	37.399
383.61	38.171
383.97	37.460
384.32	37.211
384.68	36.966
385.04	36.826
385.40	36.777
385.76	36.541
386.12	39.133
386.48	39.336
386.83	36.906
387.19	37.424
387.55	39.147
387.91	38.142
388.27	37.790
388.62	39.018
388.98	38.735
389.34	39.225
389.70	39.030
390.06	39.018
390.42	37.953
390.77	38.457
391.13	38.335
391.49	38.745
391.85	39.571
392.20	39.360
392.56	39.161
392.92	39.871
393.28	39.741
393.64	38.859
393.99	39.937
394.35	40.038
394.71	41.124
395.07	39.095
395.42	39.648
395.78	41.238
396.14	40.605
396.50	40.900
396.85	41.017
397.21	41.479
397.57	40.752
397.92	40.024
398.28	42.184
398.64	39.819
399.00	40.914
399.35	40.463
399.71	40.092
400.07	41.112
400.42	41.065
400.78	42.070
401.14	41.258
401.49	41.632
401.85	41.926
402.21	41.627
402.57	41.688
402.92	41.844
403.28	43.108
403.63	42.119
403.99	42.538
404.35	42.349
404.70	41.607
405.06	41.657
405.42	41.579
405.77	41.429
406.13	42.724
406.49	42.451
406.84	43.521
407.20	42.806
407.55	42.498
407.91	42.647
408.27	43.021
408.62	43.138
408.98	43.746
409.34	43.556
409.69	43.540
410.05	42.734
410.40	42.840
410.76	43.969
411.11	43.750
411.47	42.932
411.83	43.440
412.18	44.723
412.54	42.946
412.89	43.781
413.25	44.404
413.60	44.099
413.96	43.436
414.31	44.268
414.67	43.874
415.03	45.340
415.38	43.538
415.74	45.407
416.09	44.677
416.45	45.105
416.80	44.679
417.16	47.030
417.51	45.103
417.87	44.068
418.22	45.142
418.58	45.284
418.93	44.263
419.29	45.455
419.64	45.107
420.00	47.355
420.35	45.672
420.71	45.504
421.06	46.225
421.42	46.454
421.77	45.838
422.12	45.743
422.48	46.562
422.83	45.418
423.19	46.332
423.54	44.915
423.90	46.054
424.25	47.130
424.61	47.491
424.96	45.993
425.31	47.371
425.67	47.477
426.02	47.998
426.38	49.029
426.73	48.729
427.09	49.620
427.44	47.353
427.79	46.494
428.15	47.087
428.50	48.274
428.85	47.543
429.21	48.161
429.56	48.571
429.92	46.995
430.27	46.165
430.62	46.681
430.98	48.195
431.33	47.687
431.68	46.991
432.04	49.804
432.39	47.519
432.74	49.008
433.10	49.540
433.45	49.283
433.80	49.158
434.16	48.809
434.51	48.871
434.86	49.710
435.22	49.635
435.57	50.094
435.92	50.000
436.28	50.388
436.63	50.143
436.98	49.305
437.34	50.091
437.69	50.507
438.04	50.199
438.39	50.825
438.75	51.002
439.10	51.669
439.45	51.552
439.81	51.009
440.16	52.078
440.51	50.925
440.86	52.628
441.22	50.566
441.57	51.987
441.92	51.574
442.27	51.663
442.63	52.784
442.98	52.441
443.33	51.753
443.68	51.883
444.03	51.664
444.39	52.189
444.74	52.620
445.09	52.561
445.44	52.479
445.79	53.481
446.15	52.258
446.50	52.413
446.85	52.976
447.20	51.460
447.55	53.683
447.91	53.976
448.26	52.305
448.61	53.138
448.96	53.069
449.31	53.642
449.66	52.787
450.02	53.679
450.37	55.009
450.72	52.635
451.07	55.190
451.42	53.933
451.77	54.129
452.12	53.050
452.47	54.604
452.83	55.830
453.18	54.586
453.53	54.109
453.88	54.584
454.23	54.149
454.58	54.534
454.93	56.443
455.28	54.286
455.63	55.115
455.98	54.360
456.34	55.747
456.69	54.701
457.04	54.442
457.39	54.617
457.74	56.106
458.09	54.444
458.44	54.535
458.79	54.398
459.14	54.348
459.49	54.925
459.84	54.597
460.19	54.794
460.54	56.112
460.89	55.057
461.24	55.466
461.59	55.701
461.94	54.403
462.29	56.514
462.64	56.744
462.99	56.872
463.34	56.815
463.69	55.277
464.04	57.082
464.39	55.670
464.74	55.399
465.09	55.396
465.44	56.376
465.79	55.272
466.14	55.416
466.49	56.642
466.84	56.871
467.19	56.821
467.54	57.024
467.89	56.538
468.24	57.603
468.59	57.714
468.94	56.952
469.29	56.721
469.64	57.211
469.99	58.655
470.34	56.587
470.68	59.210
471.03	58.528
471.38	58.773
471.73	59.314
472.08	56.784
472.43	59.933
472.78	57.231
473.13	58.503
473.48	59.479
473.83	57.970
474.17	58.484
474.52	58.775
474.87	58.061
475.22	58.084
475.57	59.006
475.92	57.652
476.27	58.033
476.61	58.565
476.96	58.059
477.31	58.680
477.66	59.494
478.01	59.068
478.36	58.497
478.70	58.728
479.05	59.560
479.40	59.300
479.75	58.186
480.10	58.116
480.45	58.900
480.79	59.265
481.14	60.041
481.49	58.276
481.84	59.266
482.19	58.232
482.53	58.657
482.88	58.234
483.23	58.205
483.58	59.151
483.92	58.519
484.27	57.521
484.62	58.180
484.97	57.297
485.31	56.792
485.66	53.708
486.01	53.762
486.36	52.846
486.70	54.775
487.05	55.618
487.40	55.610
487.75	56.479
488.09	56.706
488.44	57.084
488.79	58.498
489.13	59.615
489.48	59.855
489.83	59.417
490.17	60.000
490.52	60.231
490.87	59.278
491.22	60.411
491.56	58.586
491.91	60.229
492.26	60.476
492.60	60.125
492.95	60.649
493.30	59.746
493.64	61.739
493.99	60.821
494.34	60.777
494.68	61.286
495.03	60.681
495.37	61.825
495.72	60.323
496.07	61.122
496.41	60.708
496.76	60.387
497.11	59.804
497.45	61.671
497.80	61.907
498.14	61.500
498.49	61.148
498.84	61.228
499.18	62.349
499.53	60.516
499.87	60.506
500.22	62.216
500.56	61.977
500.91	61.496
501.26	60.306
501.60	61.731
501.95	62.882
502.29	61.889
502.64	61.004
502.98	61.223
503.33	60.471
503.67	61.301
504.02	61.681
504.36	61.851
504.71	61.616
505.06	61.751
505.40	62.284
505.75	62.990
506.09	61.987
506.44	64.630
506.78	62.908
507.13	62.461
507.47	61.462
507.82	63.835
508.16	62.969
508.51	64.638
508.85	64.364
509.19	63.225
509.54	63.700
509.88	63.862
510.23	64.067
510.57	64.297
510.92	62.420
511.26	64.812
511.61	64.136
511.95	64.767
512.30	65.854
512.64	64.830
512.98	64.458
513.33	64.689
513.67	64.810
514.02	66.876
514.36	65.829
514.70	66.958
515.05	68.214
515.39	67.414
515.74	67.844
516.08	66.766
516.42	66.961
516.77	67.525
517.11	67.715
517.46	67.983
517.80	67.402
518.14	68.708
518.49	67.067
518.83	68.044
519.17	66.707
519.52	67.910
519.86	66.206
520.20	67.861
520.55	68.293
520.89	70.013
521.23	68.968
521.58	69.401
521.92	70.192
522.26	67.794
522.61	69.286
522.95	70.596
523.29	69.250
523.64	70.013
523.98	69.864
524.32	68.428
524.66	69.718
525.01	70.000
525.35	70.512
525.69	69.630
526.04	69.048
526.38	70.687
526.72	69.915
527.06	70.104
527.41	70.449
527.75	69.705
528.09	69.834
528.43	71.168
528.78	69.241
529.12	70.194
529.46	70.890
529.80	69.474
530.15	69.439
530.49	71.178
530.83	70.178
531.17	69.443
531.51	72.503
531.86	69.409
532.20	70.981
532.54	70.933
532.88	71.047
533.22	70.632
533.57	69.332
533.91	69.386
534.25	71.419
534.59	69.275
534.93	68.030
535.27	67.703
535.62	69.021
535.96	70.254
536.30	69.921
536.64	70.917
536.98	71.359
537.32	72.475
537.66	72.230
538.01	71.399
538.35	70.111
538.69	68.375
539.03	70.267
539.37	70.054
539.71	71.029
540.05	68.703
540.39	71.260
540.73	69.386
541.07	69.890
541.42	70.632
541.76	71.301
542.10	68.754
542.44	69.632
542.78	69.443
543.12	70.261
543.46	71.766
543.80	69.813
544.14	69.092
544.48	68.421
544.82	71.565
545.16	71.448
545.50	70.093
545.84	71.246
546.18	70.922
546.52	70.368
546.86	70.381
547.20	72.246
547.54	69.541
547.88	69.090
548.22	68.508
548.56	69.393
548.90	69.609
549.24	69.835
549.58	69.182
549.92	69.550
550.26	70.110
550.60	71.152
550.94	73.189
551.28	70.943
551.62	73.769
551.96	72.105
552.30	69.956
552.64	69.887
552.98	70.675
553.32	70.542
553.66	70.464
554.00	71.533
554.34	73.412
554.68	71.165
555.02	71.429
555.36	71.728
555.69	70.476
556.03	70.164
556.37	70.178
556.71	72.130
557.05	70.544
557.39	71.078
557.73	71.064
558.07	70.739
558.41	71.363
558.75	74.045
559.08	72.498
559.42	73.651
559.76	72.538
560.10	71.942
560.44	70.439
560.78	69.720
561.12	70.240
561.45	70.836
561.79	70.448
562.13	70.192
562.47	70.072
562.81	70.029
563.15	68.759
563.48	69.943
563.82	70.487
564.16	69.150
564.50	70.135
564.84	68.005
565.17	69.685
565.51	71.107
565.85	70.233
566.19	69.363
566.52	70.375
566.86	69.602
567.20	69.552
567.54	68.491
567.88	68.366
568.21	67.873
568.55	67.011
568.89	65.862
569.23	64.372
569.56	64.142
569.90	62.972
570.24	61.295
570.57	62.545
570.91	61.764
571.25	60.506
571.59	59.358
571.92	58.370
572.26	59.088
572.60	59.659
572.93	58.425
573.27	59.248
573.61	58.234
573.95	58.547
574.28	57.495
574.62	57.386
574.96	56.096
575.29	57.017
575.63	56.284
575.97	57.577
576.30	57.155
576.64	56.715
576.98	57.349
577.31	57.729
577.65	56.904
577.98	56.361
578.32	55.245
578.66	55.126
578.99	55.592
579.33	56.083
579.67	56.472
580.00	56.557
580.34	56.667
580.67	56.553
581.01	57.133
581.35	55.426
581.68	55.107
582.02	54.799
582.35	54.633
582.69	55.610
583.02	55.330
583.36	56.731
583.70	58.178
584.03	58.604
584.37	58.554
584.70	57.418
585.04	56.166
585.37	56.339
585.71	55.690
586.04	56.531
586.38	56.362
586.72	57.762
587.05	57.972
587.39	57.031
587.72	57.299
588.06	57.127
588.39	57.363
588.73	57.540
589.06	58.839
589.40	58.935
589.73	59.803
590.07	60.914
590.40	59.559
590.73	61.367
591.07	61.323
591.40	60.151
591.74	60.950
592.07	61.920
592.41	61.661
592.74	58.980
593.08	57.108
593.41	57.364
593.75	56.395
594.08	57.604
594.41	58.697
594.75	59.046
595.08	58.267
595.42	57.858
595.75	59.444
596.09	58.991
596.42	60.438
596.75	61.057
597.09	60.456
597.42	59.937
597.75	59.780
598.09	59.801
598.42	59.567
598.76	58.644
599.09	58.694
599.42	57.181
599.76	56.659
600.09	57.127
600.42	57.051
600.76	57.318
601.09	57.557
601.42	57.188
601.76	57.840
602.09	58.127
602.42	59.815
602.76	58.107
603.09	58.887
603.42	59.908
603.76	58.468
604.09	58.445
604.42	58.756
604.76	59.057
605.09	59.141
605.42	59.774
605.75	58.450
606.09	59.151
606.42	58.799
606.75	58.745
607.09	57.758
607.42	58.086
607.75	58.748
608.08	57.682
608.42	57.149
608.75	60.867
609.08	59.542
609.41	60.609
609.75	59.577
610.08	59.611
610.41	58.551
610.74	60.166
611.07	62.119
611.41	60.249
611.74	61.087
612.07	59.422
612.40	60.941
612.73	59.944
613.07	60.911
613.40	60.996
613.73	59.877
614.06	60.824
614.39	60.857
614.72	60.392
615.06	60.838
615.39	58.297
615.72	58.934
616.05	58.715
616.38	58.519
616.71	62.446
617.05	61.828
617.38	61.094
617.71	61.761
618.04	62.476
618.37	63.493
618.70	63.234
619.03	63.542
619.36	63.821
619.69	65.277
620.03	65.741
620.36	63.662
620.69	63.383
621.02	64.832
621.35	66.888
621.68	67.942
622.01	65.917
622.34	65.523
622.67	66.246
623.00	64.778
623.33	63.643
623.66	62.378
623.99	63.238
624.32	64.487
624.65	64.436
624.99	65.162
625.32	62.775
625.65	65.200
625.98	66.398
626.31	64.422
626.64	66.031
626.97	66.056
627.30	66.988
627.63	66.118
627.96	68.014
628.29	67.068
628.62	68.633
628.95	68.838
629.28	69.153
629.61	69.591
629.94	68.915
630.26	68.182
630.59	72.008
630.92	69.641
631.25	67.795
631.58	71.145
631.91	69.518
632.24	70.413
632.57	71.023
632.90	71.174
633.23	72.000
