SpectraSuite Data File
++++++++++++++++++++++++++++++++++++
Date: Fri May 15 20:46:46 PDT 2015
User: schluterlab
Dark Spectrum Present: Yes
Reference Spectrum Present: Yes
Number of Sampled Component Spectra: 1
Spectrometers: USB2E3373
Integration Time (usec): 3000 (USB2E3373)
Spectra Averaged: 3 (USB2E3373)
Boxcar Smoothing: 0 (USB2E3373)
Correct for Electrical Dark: No (USB2E3373)
Strobe/Lamp Enabled: No (USB2E3373)
Correct for Detector Non-linearity: No (USB2E3373)
Correct for Stray Light: No (USB2E3373)
Number of Pixels in Processed Spectrum: 2048
>>>>>Begin Processed Spectral Data<<<<<
178.53	0.000
178.91	0.000
179.29	50.000
179.67	-500.000
180.04	42.857
180.42	-150.000
180.80	-1100.000
181.18	333.333
181.56	450.000
181.94	-50.000
182.31	400.000
182.69	-200.000
183.07	-166.667
183.45	-140.000
183.83	116.667
184.20	-9.091
184.58	155.556
184.96	-100.000
185.34	533.333
185.72	-600.000
186.09	107.692
186.47	-1200.000
186.85	200.000
187.23	111.111
187.61	1200.000
187.98	-233.333
188.36	-33.333
188.74	-333.333
189.12	-11.765
189.49	-33.333
189.87	0.000
190.25	-28.571
190.63	150.000
191.00	-166.667
191.38	-26.316
191.76	200.000
192.14	100.000
192.51	150.000
192.89	-66.667
193.27	-185.714
193.65	216.667
194.02	127.273
194.40	10.000
194.78	-250.000
195.15	-116.667
195.53	-75.000
195.91	375.000
196.29	-250.000
196.66	192.308
197.04	142.857
197.42	-11.111
197.79	-66.667
198.17	-146.154
198.55	900.000
198.92	-433.333
199.30	-500.000
199.68	-140.000
200.05	-500.000
200.43	0.000
200.81	33.333
201.18	-300.000
201.56	1500.000
201.94	-250.000
202.31	200.000
202.69	-220.000
203.07	-0.000
203.44	-300.000
203.82	0.000
204.19	14.286
204.57	-533.333
204.95	137.500
205.32	-10.000
205.70	14.286
206.08	-225.000
206.45	133.333
206.83	-21.429
207.20	-128.571
207.58	1200.000
207.96	-100.000
208.33	-110.000
208.71	25.000
209.08	-233.333
209.46	-1400.000
209.84	0.000
210.21	-900.000
210.59	57.143
210.96	-116.667
211.34	-100.000
211.71	40.000
212.09	-200.000
212.46	-1700.000
212.84	0.000
213.22	-30.000
213.59	750.000
213.97	-23.077
214.34	18.182
214.72	-50.000
215.09	300.000
215.47	-30.769
215.84	9.091
216.22	-333.333
216.59	-62.500
216.97	-300.000
217.34	-175.000
217.72	-160.000
218.09	-100.000
218.47	137.500
218.84	-1900.000
219.22	-155.556
219.59	-100.000
219.97	466.667
220.34	175.000
220.72	-71.429
221.09	-175.000
221.47	0.000
221.84	-450.000
222.22	-850.000
222.59	36.364
222.97	-8.333
223.34	133.333
223.72	-42.857
224.09	0.000
224.46	-10.714
224.84	566.667
225.21	-20.000
225.59	46.667
225.96	-850.000
226.34	350.000
226.71	-100.000
227.08	-66.667
227.46	-50.000
227.83	-450.000
228.21	-11.111
228.58	18.182
228.95	0.000
229.33	180.000
229.70	-31.250
230.08	-125.000
230.45	-157.143
230.82	-114.286
231.20	-66.667
231.57	42.857
231.95	-42.857
232.32	-110.000
232.69	-50.000
233.07	-200.000
233.44	-80.000
233.81	30.000
234.19	0.000
234.56	-23.529
234.93	800.000
235.31	-50.000
235.68	-380.000
236.05	-138.462
236.43	-25.000
236.80	0.000
237.17	-6.250
237.55	-35.000
237.92	-3.704
238.29	-22.222
238.67	-30.000
239.04	-20.588
239.41	-39.024
239.79	-20.000
240.16	12.195
240.53	26.316
240.91	-19.565
241.28	6.349
241.65	17.857
242.02	9.589
242.40	-1.667
242.77	-1.695
243.14	3.030
243.51	8.750
243.89	24.138
244.26	-5.747
244.63	9.524
245.00	9.278
245.38	12.371
245.75	-7.865
246.12	6.034
246.49	7.438
246.87	11.538
247.24	0.840
247.61	0.000
247.98	4.878
248.36	9.375
248.73	17.763
249.10	12.987
249.47	5.696
249.84	7.190
250.22	8.824
250.59	6.536
250.96	17.840
251.33	11.628
251.70	10.588
252.08	8.122
252.45	8.416
252.82	13.065
253.19	14.747
253.56	7.944
253.94	11.712
254.31	10.870
254.68	10.526
255.05	9.449
255.42	6.114
255.79	11.197
256.16	8.171
256.54	14.552
256.91	11.787
257.28	12.268
257.65	8.614
258.02	11.348
258.39	13.805
258.76	15.018
259.14	9.302
259.51	12.945
259.88	9.622
260.25	11.765
260.62	11.806
260.99	7.458
261.36	8.562
261.73	5.380
262.10	13.374
262.47	11.350
262.85	9.404
263.22	10.462
263.59	11.526
263.96	14.596
264.33	11.818
264.70	13.988
265.07	10.417
265.44	9.065
265.81	11.017
266.18	10.383
266.55	11.311
266.92	12.435
267.29	11.749
267.66	12.788
268.03	8.639
268.40	12.533
268.77	13.369
269.14	10.072
269.51	11.568
269.88	11.222
270.25	10.204
270.62	13.171
270.99	13.299
271.36	10.024
271.73	13.615
272.10	12.895
272.47	11.348
272.84	10.891
273.21	11.601
273.58	11.566
273.95	12.128
274.32	10.393
274.69	9.502
275.06	12.946
275.43	10.884
275.80	11.921
276.17	10.575
276.54	10.493
276.91	11.842
277.28	11.135
277.65	12.190
278.02	12.340
278.39	10.066
278.76	11.321
279.13	9.336
279.50	12.185
279.87	12.743
280.23	9.462
280.60	11.501
280.97	11.717
281.34	8.654
281.71	12.731
282.08	9.202
282.45	9.980
282.82	9.846
283.19	10.832
283.56	11.753
283.92	8.159
284.29	10.192
284.66	8.915
285.03	8.644
285.40	9.830
285.77	9.666
286.14	10.108
286.51	12.915
286.87	9.872
287.24	9.945
287.61	10.582
287.98	11.053
288.35	10.399
288.72	11.559
289.08	9.896
289.45	9.842
289.82	8.042
290.19	8.703
290.56	8.748
290.93	10.943
291.29	8.475
291.66	10.236
292.03	9.729
292.40	10.968
292.77	10.048
293.13	7.143
293.50	7.891
293.87	8.092
294.24	8.964
294.60	9.687
294.97	9.970
295.34	6.748
295.71	7.452
296.08	10.015
296.44	6.259
296.81	8.889
297.18	10.725
297.55	10.705
297.91	9.178
298.28	9.103
298.65	9.227
299.02	8.760
299.38	6.566
299.75	6.759
300.12	6.806
300.48	7.378
300.85	8.872
301.22	7.662
301.59	7.763
301.95	9.114
302.32	11.673
302.69	8.955
303.05	7.921
303.42	9.465
303.79	7.827
304.15	10.633
304.52	6.302
304.89	6.901
305.25	8.111
305.62	6.884
305.99	8.304
306.35	7.283
306.72	7.424
307.09	8.324
307.45	9.414
307.82	6.944
308.19	8.014
308.55	8.942
308.92	8.824
309.29	8.268
309.65	8.827
310.02	9.241
310.38	9.111
310.75	9.727
311.12	8.611
311.48	8.484
311.85	7.539
312.22	9.388
312.58	9.023
312.95	8.645
313.31	7.867
313.68	8.901
314.05	8.878
314.41	9.072
314.78	10.206
315.14	10.894
315.51	10.041
315.87	9.939
316.24	10.617
316.61	11.417
316.97	12.202
317.34	10.742
317.70	11.281
318.07	12.596
318.43	12.549
318.80	11.553
319.16	13.379
319.53	12.631
319.89	12.402
320.26	12.652
320.62	13.039
320.99	12.735
321.35	12.436
321.72	13.396
322.08	13.696
322.45	15.127
322.81	14.538
323.18	14.328
323.54	13.900
323.91	15.190
324.27	15.820
324.64	15.356
325.00	15.328
325.37	17.172
325.73	15.956
326.10	16.621
326.46	17.220
326.83	17.060
327.19	16.652
327.56	18.245
327.92	18.046
328.29	18.125
328.65	17.925
329.01	17.096
329.38	17.696
329.74	17.941
330.11	18.906
330.47	17.718
330.84	17.885
331.20	20.247
331.56	17.778
331.93	19.361
332.29	19.340
332.66	19.457
333.02	19.610
333.38	18.973
333.75	18.956
334.11	18.442
334.48	19.946
334.84	20.147
335.20	18.298
335.57	19.855
335.93	19.783
336.29	20.074
336.66	18.619
337.02	19.145
337.38	19.074
337.75	20.455
338.11	19.206
338.47	20.255
338.84	20.148
339.20	18.830
339.56	19.817
339.93	21.218
340.29	21.468
340.65	21.147
341.02	20.035
341.38	18.761
341.74	19.435
342.11	17.504
342.47	20.285
342.83	20.069
343.20	19.861
343.56	20.348
343.92	19.841
344.28	21.349
344.65	18.826
345.01	20.052
345.37	20.437
345.73	20.921
346.10	20.535
346.46	19.849
346.82	19.885
347.19	19.368
347.55	20.384
347.91	20.955
348.27	20.291
348.63	19.932
349.00	20.919
349.36	20.366
349.72	20.647
350.08	19.918
350.45	21.069
350.81	19.435
351.17	19.137
351.53	21.796
351.89	21.222
352.26	19.840
352.62	21.210
352.98	20.080
353.34	19.807
353.70	21.521
354.07	19.274
354.43	20.416
354.79	19.736
355.15	21.746
355.51	21.044
355.87	21.197
356.24	20.555
356.60	21.746
356.96	21.349
357.32	19.968
357.68	20.719
358.04	20.355
358.40	20.981
358.77	20.415
359.13	20.496
359.49	20.724
359.85	21.061
360.21	21.451
360.57	21.270
360.93	20.197
361.29	20.619
361.66	20.768
362.02	21.364
362.38	21.706
362.74	21.347
363.10	21.445
363.46	20.979
363.82	21.788
364.18	20.590
364.54	20.588
364.90	20.932
365.26	21.907
365.62	22.263
365.98	21.701
366.35	22.141
366.71	21.729
367.07	22.134
367.43	21.280
367.79	21.413
368.15	21.464
368.51	22.360
368.87	20.459
369.23	21.733
369.59	22.668
369.95	21.701
370.31	22.038
370.67	22.090
371.03	21.658
371.39	22.028
371.75	22.271
372.11	22.397
372.47	23.669
372.83	23.279
373.19	22.896
373.55	21.444
373.91	22.102
374.27	22.750
374.63	22.900
374.99	21.348
375.35	23.329
375.71	23.357
376.07	22.612
376.42	23.265
376.78	23.221
377.14	22.884
377.50	23.041
377.86	23.159
378.22	22.846
378.58	22.949
378.94	22.999
379.30	23.955
379.66	23.448
380.02	22.747
380.38	23.372
380.74	22.980
381.09	24.172
381.45	22.752
381.81	23.134
382.17	24.365
382.53	23.673
382.89	23.854
383.25	24.518
383.61	24.939
383.97	24.190
384.32	23.265
384.68	23.777
385.04	24.203
385.40	24.642
385.76	24.717
386.12	24.127
386.48	24.202
386.83	24.477
387.19	24.237
387.55	23.777
387.91	25.061
388.27	24.908
388.62	25.488
388.98	24.125
389.34	24.984
389.70	24.487
390.06	25.047
390.42	24.741
390.77	24.133
391.13	23.834
391.49	24.127
391.85	25.341
392.20	24.733
392.56	23.713
392.92	24.545
393.28	24.646
393.64	25.105
393.99	25.768
394.35	24.605
394.71	25.096
395.07	25.141
395.42	23.679
395.78	25.603
396.14	25.284
396.50	23.843
396.85	25.370
397.21	25.439
397.57	25.329
397.92	24.626
398.28	25.057
398.64	24.337
399.00	25.169
399.35	23.589
399.71	24.871
400.07	25.212
400.42	24.663
400.78	25.903
401.14	25.771
401.49	25.610
401.85	25.289
402.21	24.819
402.57	25.000
402.92	24.090
403.28	25.125
403.63	26.230
403.99	24.681
404.35	26.109
404.70	24.345
405.06	24.677
405.42	25.544
405.77	24.869
406.13	24.098
406.49	25.459
406.84	25.061
407.20	25.828
407.55	23.889
407.91	25.201
408.27	25.112
408.62	25.292
408.98	24.769
409.34	25.589
409.69	24.742
410.05	25.062
410.40	24.568
410.76	25.633
411.11	25.687
411.47	24.721
411.83	23.980
412.18	24.710
412.54	24.657
412.89	24.692
413.25	24.910
413.60	25.155
413.96	25.644
414.31	24.878
414.67	24.567
415.03	24.567
415.38	25.065
415.74	25.798
416.09	25.800
416.45	25.523
416.80	24.785
417.16	24.862
417.51	25.383
417.87	24.902
418.22	24.870
418.58	24.816
418.93	25.016
419.29	23.880
419.64	24.174
420.00	25.630
420.35	23.881
420.71	24.909
421.06	25.660
421.42	26.623
421.77	24.855
422.12	24.688
422.48	25.609
422.83	25.638
423.19	24.153
423.54	24.162
423.90	25.088
424.25	25.029
424.61	25.887
424.96	24.739
425.31	25.477
425.67	25.059
426.02	25.854
426.38	24.796
426.73	25.303
427.09	25.253
427.44	25.882
427.79	25.457
428.15	24.515
428.50	24.470
428.85	24.017
429.21	25.014
429.56	25.175
429.92	24.705
430.27	24.561
430.62	24.203
430.98	25.106
431.33	25.868
431.68	24.699
432.04	25.266
432.39	24.130
432.74	24.835
433.10	25.115
433.45	24.970
433.80	25.305
434.16	24.488
434.51	25.323
434.86	25.319
435.22	25.799
435.57	24.579
435.92	24.850
436.28	25.224
436.63	24.701
436.98	24.623
437.34	25.650
437.69	25.045
438.04	25.299
438.39	24.252
438.75	25.683
439.10	24.844
439.45	24.954
439.81	25.260
440.16	25.000
440.51	26.388
440.86	25.861
441.22	25.000
441.57	25.110
441.92	26.548
442.27	25.721
442.63	26.017
442.98	25.617
443.33	25.376
443.68	24.138
444.03	25.584
444.39	24.939
444.74	25.530
445.09	25.780
445.44	25.641
445.79	26.302
446.15	24.780
446.50	25.180
446.85	26.036
447.20	25.443
447.55	26.283
447.91	25.212
448.26	25.441
448.61	25.446
448.96	25.244
449.31	25.491
449.66	25.436
450.02	25.043
450.37	24.600
450.72	24.742
451.07	26.013
451.42	24.906
451.77	25.558
452.12	25.897
452.47	25.563
452.83	25.206
453.18	25.933
453.53	25.537
453.88	25.622
454.23	25.077
454.58	26.448
454.93	26.289
455.28	23.873
455.63	25.356
455.98	26.158
456.34	26.054
456.69	25.604
457.04	24.764
457.39	25.456
457.74	24.788
458.09	24.779
458.44	25.336
458.79	25.434
459.14	26.201
459.49	25.134
459.84	25.663
460.19	25.121
460.54	25.917
460.89	24.659
461.24	24.472
461.59	25.119
461.94	24.654
462.29	26.055
462.64	25.116
462.99	25.186
463.34	25.243
463.69	25.032
464.04	26.513
464.39	25.045
464.74	24.540
465.09	25.515
465.44	25.101
465.79	24.150
466.14	25.941
466.49	25.244
466.84	25.580
467.19	24.969
467.54	25.543
467.89	23.879
468.24	23.723
468.59	23.746
468.94	24.952
469.29	24.656
469.64	25.701
469.99	25.508
470.34	23.481
470.68	26.100
471.03	26.327
471.38	25.107
471.73	25.420
472.08	25.102
472.43	24.362
472.78	23.646
473.13	24.286
473.48	24.365
473.83	24.346
474.17	25.712
474.52	24.123
474.87	24.364
475.22	25.076
475.57	24.167
475.92	25.014
476.27	25.262
476.61	25.347
476.96	24.373
477.31	24.932
477.66	24.944
478.01	24.649
478.36	24.237
478.70	24.687
479.05	25.330
479.40	24.960
479.75	24.557
480.10	24.117
480.45	24.550
480.79	24.622
481.14	24.641
481.49	24.483
481.84	24.035
482.19	23.994
482.53	23.837
482.88	24.200
483.23	23.273
483.58	23.915
483.92	23.379
484.27	23.838
484.62	23.935
484.97	22.305
485.31	23.194
485.66	22.112
486.01	22.785
486.36	22.684
486.70	22.739
487.05	23.364
487.40	23.216
487.75	23.183
488.09	23.115
488.44	23.212
488.79	23.048
489.13	23.838
489.48	23.643
489.83	23.453
490.17	22.607
490.52	22.725
490.87	23.230
491.22	23.734
491.56	22.913
491.91	22.706
492.26	22.849
492.60	24.376
492.95	24.397
493.30	22.863
493.64	23.134
493.99	23.720
494.34	23.107
494.68	23.333
495.03	22.190
495.37	23.749
495.72	23.322
496.07	23.805
496.41	22.877
496.76	23.031
497.11	22.497
497.45	23.341
497.80	23.814
498.14	22.255
498.49	23.057
498.84	22.804
499.18	22.641
499.53	23.165
499.87	22.617
500.22	23.145
500.56	22.491
500.91	22.189
501.26	22.294
501.60	22.430
501.95	22.659
502.29	22.567
502.64	22.539
502.98	22.694
503.33	21.950
503.67	22.217
504.02	22.336
504.36	22.909
504.71	22.121
505.06	22.899
505.40	22.030
505.75	22.680
506.09	22.098
506.44	22.587
506.78	22.653
507.13	23.113
507.47	21.201
507.82	21.955
508.16	22.345
508.51	22.665
508.85	22.868
509.19	21.820
509.54	22.306
509.88	21.845
510.23	23.077
510.57	22.662
510.92	21.322
511.26	21.822
511.61	21.507
511.95	22.137
512.30	22.561
512.64	22.315
512.98	22.066
513.33	22.048
513.67	22.172
514.02	22.197
514.36	22.686
514.70	23.193
515.05	22.973
515.39	21.429
515.74	23.533
516.08	22.056
516.42	22.379
516.77	22.703
517.11	21.899
517.46	23.220
517.80	22.646
518.14	22.352
518.49	21.935
518.83	21.750
519.17	22.195
519.52	21.610
519.86	21.849
520.20	22.296
520.55	21.326
520.89	21.957
521.23	21.723
521.58	23.596
521.92	21.282
522.26	21.861
522.61	20.844
522.95	21.457
523.29	21.919
523.64	22.745
523.98	22.100
524.32	20.683
524.66	22.855
525.01	22.597
525.35	21.841
525.69	21.549
526.04	20.833
526.38	22.438
526.72	21.779
527.06	21.595
527.41	21.966
527.75	21.314
528.09	21.794
528.43	21.877
528.78	21.320
529.12	21.226
529.46	20.923
529.80	20.709
530.15	21.980
530.49	21.616
530.83	20.930
531.17	20.484
531.51	21.614
531.86	20.938
532.20	20.598
532.54	21.035
532.88	21.492
533.22	21.102
533.57	21.035
533.91	20.431
534.25	21.484
534.59	20.590
534.93	20.642
535.27	21.129
535.62	21.063
535.96	21.331
536.30	20.910
536.64	21.296
536.98	20.697
537.32	21.124
537.66	21.669
538.01	20.909
538.35	19.764
538.69	20.573
539.03	19.891
539.37	21.265
539.71	20.518
540.05	19.891
540.39	19.460
540.73	19.386
541.07	20.373
541.42	20.833
541.76	20.853
542.10	20.578
542.44	20.361
542.78	19.477
543.12	18.407
543.46	20.376
543.80	19.778
544.14	18.692
544.48	19.853
544.82	19.959
545.16	20.014
545.50	19.826
545.84	20.184
546.18	20.071
546.52	19.755
546.86	19.410
547.20	19.814
547.54	18.728
547.88	20.584
548.22	19.066
548.56	19.723
548.90	20.418
549.24	18.939
549.58	20.240
549.92	19.657
550.26	19.487
550.60	19.257
550.94	20.463
551.28	19.088
551.62	19.538
551.96	19.699
552.30	19.152
552.64	19.394
552.98	19.620
553.32	18.046
553.66	18.940
554.00	19.708
554.34	19.129
554.68	18.142
555.02	18.676
555.36	18.100
555.69	18.242
556.03	18.059
556.37	19.217
556.71	18.989
557.05	19.016
557.39	19.331
557.73	19.565
558.07	18.024
558.41	18.606
558.75	18.316
559.08	19.622
559.42	19.206
559.76	17.934
560.10	18.654
560.44	18.615
560.78	18.811
561.12	17.701
561.45	18.201
561.79	17.507
562.13	19.163
562.47	17.842
562.81	18.012
563.15	17.630
563.48	17.539
563.82	18.737
564.16	17.409
564.50	17.635
564.84	18.541
565.17	17.639
565.51	17.964
565.85	17.970
566.19	18.634
566.52	18.164
566.86	18.445
567.20	18.244
567.54	17.214
567.88	18.161
568.21	17.817
568.55	16.902
568.89	17.659
569.23	17.573
569.56	17.163
569.90	17.621
570.24	16.636
570.57	16.691
570.91	17.114
571.25	16.376
571.59	16.070
571.92	16.207
572.26	15.368
572.60	16.062
572.93	16.285
573.27	15.455
573.61	15.543
573.95	16.002
574.28	16.102
574.62	15.739
574.96	15.308
575.29	15.674
575.63	15.626
575.97	15.478
576.30	15.800
576.64	15.073
576.98	15.521
577.31	15.507
577.65	15.436
577.98	15.448
578.32	15.412
578.66	15.066
578.99	15.185
579.33	15.239
579.67	14.913
580.00	15.139
580.34	14.950
580.67	15.035
581.01	15.178
581.35	15.418
581.68	15.351
582.02	14.810
582.35	15.005
582.69	14.901
583.02	14.719
583.36	15.164
583.70	15.031
584.03	15.374
584.37	15.048
584.70	15.549
585.04	14.689
585.37	15.160
585.71	14.688
586.04	14.776
586.38	14.724
586.72	15.065
587.05	15.425
587.39	15.292
587.72	15.391
588.06	14.503
588.39	15.209
588.73	14.591
589.06	15.232
589.40	15.486
589.73	15.115
590.07	15.559
590.40	15.325
590.73	15.486
591.07	14.673
591.40	15.450
591.74	14.887
592.07	15.816
592.41	15.415
592.74	14.735
593.08	14.286
593.41	15.025
593.75	14.328
594.08	14.143
594.41	14.629
594.75	14.542
595.08	14.567
595.42	14.354
595.75	14.795
596.09	15.246
596.42	15.130
596.75	14.565
597.09	14.396
597.42	14.679
597.75	14.521
598.09	14.803
598.42	14.260
598.76	13.943
599.09	14.944
599.42	14.058
599.76	14.259
600.09	14.140
600.42	14.405
600.76	14.116
601.09	14.198
601.42	13.905
601.76	14.331
602.09	14.068
602.42	14.785
602.76	14.516
603.09	14.369
603.42	14.883
603.76	13.952
604.09	13.811
604.42	14.129
604.76	14.820
605.09	14.351
605.42	13.950
605.75	14.536
606.09	13.970
606.42	13.511
606.75	14.675
607.09	14.462
607.42	14.178
607.75	13.632
608.08	13.477
608.42	13.659
608.75	14.699
609.08	13.652
609.41	14.213
609.75	14.365
610.08	13.829
610.41	13.768
610.74	13.603
611.07	14.212
611.41	13.752
611.74	14.392
612.07	13.490
612.40	14.661
612.73	14.520
613.07	13.442
613.40	14.661
613.73	14.102
614.06	13.968
614.39	13.988
614.72	13.333
615.06	13.408
615.39	13.428
615.72	13.079
616.05	13.687
616.38	12.365
616.71	13.456
617.05	14.700
617.38	14.708
617.71	12.893
618.04	14.222
618.37	14.061
618.70	13.399
619.03	14.375
619.36	13.676
619.69	14.556
620.03	14.974
620.36	13.519
620.69	14.490
621.02	13.532
621.35	14.523
621.68	15.051
622.01	14.667
622.34	14.685
622.67	13.959
623.00	13.936
623.33	13.186
623.66	13.613
623.99	14.523
624.32	13.992
624.65	13.534
624.99	13.394
625.32	13.343
625.65	14.690
625.98	14.182
626.31	13.217
626.64	13.692
626.97	14.834
627.30	13.310
627.63	16.031
627.96	14.106
628.29	14.431
628.62	14.848
628.95	14.529
629.28	13.710
629.61	13.559
629.94	14.858
630.26	14.921
630.59	14.984
630.92	14.154
631.25	13.846
631.58	15.198
631.91	13.158
632.24	12.959
632.57	14.886
632.90	12.693
633.23	13.765
633.56	13.854
633.89	13.933
634.22	15.185
634.55	13.469
634.88	13.410
