SpectraSuite Data File
++++++++++++++++++++++++++++++++++++
Date: Fri May 15 20:29:52 PDT 2015
User: schluterlab
Dark Spectrum Present: Yes
Reference Spectrum Present: Yes
Number of Sampled Component Spectra: 1
Spectrometers: USB2E3373
Integration Time (usec): 3000 (USB2E3373)
Spectra Averaged: 3 (USB2E3373)
Boxcar Smoothing: 0 (USB2E3373)
Correct for Electrical Dark: No (USB2E3373)
Strobe/Lamp Enabled: No (USB2E3373)
Correct for Detector Non-linearity: No (USB2E3373)
Correct for Stray Light: No (USB2E3373)
Number of Pixels in Processed Spectrum: 2048
>>>>>Begin Processed Spectral Data<<<<<
178.53	0.000
178.91	0.000
179.29	112.500
179.67	-500.000
180.04	28.571
180.42	-175.000
180.80	0.000
181.18	133.333
181.56	200.000
181.94	-100.000
182.31	300.000
182.69	-240.000
183.07	-400.000
183.45	-120.000
183.83	183.333
184.20	36.364
184.58	211.111
184.96	-0.000
185.34	566.667
185.72	-750.000
186.09	107.692
186.47	-500.000
186.85	233.333
187.23	200.000
187.61	100.000
187.98	-300.000
188.36	44.444
188.74	-266.667
189.12	11.765
189.49	0.000
189.87	0.000
190.25	0.000
190.63	300.000
191.00	-233.333
191.38	15.789
191.76	-450.000
192.14	-225.000
192.51	-50.000
192.89	-122.222
193.27	-42.857
193.65	166.667
194.02	136.364
194.40	170.000
194.78	-187.500
195.15	25.000
195.53	0.000
195.91	325.000
196.29	75.000
196.66	123.077
197.04	100.000
197.42	-66.667
197.79	-700.000
198.17	-53.846
198.55	400.000
198.92	-300.000
199.30	-100.000
199.68	-280.000
200.05	-133.333
200.43	0.000
200.81	-366.667
201.18	-133.333
201.56	800.000
201.94	-600.000
202.31	200.000
202.69	-280.000
203.07	225.000
203.44	500.000
203.82	0.000
204.19	50.000
204.57	-766.667
204.95	187.500
205.32	-50.000
205.70	-57.143
206.08	-100.000
206.45	111.111
206.83	71.429
207.20	-157.143
207.58	500.000
207.96	-400.000
208.33	-140.000
208.71	150.000
209.08	0.000
209.46	-200.000
209.84	60.000
210.21	-800.000
210.59	-14.286
210.96	66.667
211.34	-150.000
211.71	60.000
212.09	-85.714
212.46	-1700.000
212.84	0.000
213.22	100.000
213.59	200.000
213.97	30.769
214.34	-18.182
214.72	-50.000
215.09	350.000
215.47	-7.692
215.84	9.091
216.22	-266.667
216.59	0.000
216.97	50.000
217.34	0.000
217.72	40.000
218.09	-100.000
218.47	175.000
218.84	-1700.000
219.22	-55.556
219.59	-40.000
219.97	366.667
220.34	250.000
220.72	-14.286
221.09	-300.000
221.47	-350.000
221.84	-800.000
222.22	-250.000
222.59	27.273
222.97	16.667
223.34	-66.667
223.72	-121.429
224.09	23.810
224.46	0.000
224.84	500.000
225.21	-20.000
225.59	-13.333
225.96	-250.000
226.34	150.000
226.71	-28.571
227.08	16.667
227.46	-12.500
227.83	-200.000
228.21	-66.667
228.58	-54.545
228.95	12.500
229.33	130.000
229.70	-31.250
230.08	-125.000
230.45	-85.714
230.82	0.000
231.20	-60.000
231.57	7.143
231.95	-100.000
232.32	-100.000
232.69	14.286
233.07	100.000
233.44	-80.000
233.81	-120.000
234.19	-77.778
234.56	-29.412
234.93	500.000
235.31	75.000
235.68	-300.000
236.05	-30.769
236.43	-55.000
236.80	-76.471
237.17	25.000
237.55	-10.000
237.92	-51.852
238.29	-5.556
238.67	30.000
239.04	8.824
239.41	-17.073
239.79	-33.333
240.16	-12.195
240.53	-26.316
240.91	-30.435
241.28	6.349
241.65	8.929
242.02	8.219
242.40	-3.333
242.77	-8.475
243.14	-10.606
243.51	2.500
243.89	13.793
244.26	2.299
244.63	-16.667
245.00	2.062
245.38	-1.031
245.75	-6.742
246.12	-5.172
246.49	-1.653
246.87	-6.731
247.24	-5.042
247.61	-11.404
247.98	-4.065
248.36	6.250
248.73	-0.658
249.10	-3.247
249.47	-3.797
249.84	-3.268
250.22	0.588
250.59	-0.654
250.96	1.878
251.33	-5.814
251.70	0.000
252.08	4.061
252.45	-0.990
252.82	4.523
253.19	2.304
253.56	-5.140
253.94	3.153
254.31	1.739
254.68	3.070
255.05	-1.969
255.42	2.183
255.79	-0.386
256.16	-5.058
256.54	4.851
256.91	-2.662
257.28	0.000
257.65	-1.873
258.02	-3.191
258.39	4.040
258.76	0.366
259.14	0.332
259.51	0.971
259.88	0.000
260.25	2.941
260.62	1.042
260.99	-1.017
261.36	-2.055
261.73	-1.582
262.10	2.736
262.47	-2.454
262.85	1.881
263.22	-1.538
263.59	2.804
263.96	-3.106
264.33	4.242
264.70	0.595
265.07	-2.976
265.44	2.833
265.81	0.565
266.18	1.913
266.55	1.285
266.92	1.554
267.29	3.133
267.66	1.279
268.03	-0.524
268.40	0.261
268.77	4.278
269.14	0.719
269.51	1.285
269.88	0.748
270.25	-0.255
270.62	-0.244
270.99	-1.023
271.36	-1.222
271.73	1.643
272.10	-0.487
272.47	-0.709
272.84	-1.485
273.21	1.856
273.58	2.410
273.95	1.373
274.32	0.000
274.69	-0.226
275.06	2.679
275.43	0.454
275.80	0.221
276.17	-1.149
276.54	2.570
276.91	0.219
277.28	-0.218
277.65	3.099
278.02	-0.213
278.39	-0.875
278.76	2.096
279.13	-1.867
279.50	0.000
279.87	1.728
280.23	-3.226
280.60	0.780
280.97	-1.010
281.34	0.000
281.71	3.491
282.08	0.613
282.45	0.587
282.82	-0.579
283.19	0.387
283.56	2.119
283.92	0.190
284.29	0.385
284.66	0.969
285.03	2.161
285.40	0.567
285.77	0.351
286.14	1.625
286.51	2.768
286.87	0.366
287.24	0.184
287.61	2.293
287.98	3.333
288.35	0.173
288.72	1.751
289.08	-0.521
289.45	1.230
289.82	1.573
290.19	0.171
290.56	0.858
290.93	0.673
291.29	0.770
291.66	1.417
292.03	1.754
292.40	-0.161
292.77	1.276
293.13	-1.948
293.50	0.759
293.87	1.679
294.24	0.155
294.60	1.937
294.97	0.298
295.34	0.767
295.71	0.447
296.08	1.046
296.44	0.711
296.81	0.556
297.18	2.174
297.55	3.252
297.91	2.329
298.28	2.639
298.65	2.171
299.02	1.752
299.38	-0.684
299.75	0.414
300.12	0.000
300.48	-0.132
300.85	1.901
301.22	0.260
301.59	-0.132
301.95	2.785
302.32	1.686
302.69	1.617
303.05	0.495
303.42	1.370
303.79	1.869
304.15	1.075
304.52	1.070
304.89	-0.117
305.25	1.211
305.62	0.233
305.99	0.702
306.35	0.578
306.72	0.675
307.09	0.570
307.45	2.755
307.82	0.231
308.19	2.091
308.55	1.418
308.92	2.397
309.29	1.453
309.65	1.507
310.02	1.650
310.38	1.207
310.75	0.984
311.12	1.830
311.48	1.591
311.85	2.094
312.22	2.426
312.58	2.442
312.95	2.134
313.31	2.484
313.68	1.466
314.05	2.755
314.41	3.814
314.78	3.299
315.14	2.980
315.51	4.141
315.87	4.098
316.24	4.853
316.61	4.528
316.97	5.456
317.34	6.543
317.70	6.310
318.07	7.692
318.43	6.078
318.80	8.523
319.16	8.691
319.53	8.927
319.89	8.858
320.26	9.919
320.62	11.836
320.99	10.543
321.35	12.436
321.72	14.642
322.08	15.509
322.45	15.127
322.81	15.422
323.18	15.505
323.54	18.050
323.91	18.987
324.27	20.703
324.64	21.255
325.00	22.628
325.37	23.967
325.73	24.388
326.10	25.341
326.46	27.175
326.83	28.521
327.19	29.207
327.56	31.277
327.92	31.338
328.29	32.143
328.65	34.434
329.01	36.213
329.38	35.300
329.74	36.449
330.11	37.905
330.47	35.807
330.84	38.365
331.20	39.544
331.56	38.148
331.93	40.639
332.29	41.705
332.66	40.271
333.02	41.636
333.38	40.697
333.75	43.223
334.11	41.092
334.48	43.336
334.84	43.498
335.20	44.556
335.57	42.702
335.93	45.528
336.29	47.053
336.66	45.595
337.02	45.539
337.38	45.648
337.75	47.727
338.11	47.430
338.47	47.445
338.84	47.967
339.20	48.080
339.56	47.156
339.93	47.628
340.29	48.624
340.65	48.835
341.02	47.695
341.38	48.584
341.74	47.968
342.11	45.667
342.47	49.644
342.83	49.308
343.20	47.387
343.56	49.130
343.92	47.653
344.28	47.395
344.65	49.136
345.01	50.130
345.37	48.444
345.73	50.042
346.10	49.094
346.46	48.696
346.82	47.872
347.19	48.296
347.55	49.791
347.91	48.139
348.27	48.504
348.63	49.404
349.00	48.728
349.36	49.626
349.72	51.741
350.08	48.934
350.45	48.364
350.81	50.581
351.17	49.919
351.53	48.980
351.89	46.821
352.26	48.800
352.62	49.677
352.98	48.353
353.34	48.953
353.70	48.463
354.07	48.952
354.43	49.319
354.79	50.537
355.15	49.683
355.51	50.712
355.87	50.243
356.24	49.511
356.60	49.313
356.96	49.365
357.32	49.201
357.68	48.944
358.04	50.889
358.40	50.965
358.77	48.804
359.13	49.400
359.49	48.536
359.85	51.170
360.21	50.159
360.57	49.732
360.93	49.924
361.29	50.076
361.66	49.451
362.02	50.303
362.38	49.886
362.74	50.871
363.10	51.843
363.46	50.852
363.82	50.714
364.18	51.292
364.54	48.309
364.90	50.466
365.26	49.345
365.62	51.898
365.98	50.880
366.35	52.294
366.71	51.737
367.07	50.363
367.43	50.827
367.79	50.883
368.15	50.036
368.51	49.818
368.87	49.462
369.23	48.520
369.59	51.020
369.95	50.880
370.31	51.012
370.67	50.746
371.03	50.709
371.39	50.912
371.75	51.209
372.11	50.214
372.47	51.036
372.83	50.035
373.19	50.999
373.55	51.336
373.91	50.252
374.27	50.744
374.63	51.472
374.99	51.064
375.35	50.000
375.71	50.979
376.07	51.264
376.42	50.476
376.78	50.201
377.14	50.711
377.50	51.394
377.86	50.870
378.22	48.756
378.58	50.897
378.94	50.284
379.30	49.595
379.66	50.282
380.02	50.215
380.38	49.909
380.74	50.150
381.09	50.000
381.45	50.336
381.81	50.648
382.17	49.683
382.53	50.781
382.89	50.596
383.25	52.209
383.61	51.463
383.97	49.841
384.32	50.219
384.68	50.712
385.04	49.142
385.40	50.031
385.76	51.384
386.12	50.323
386.48	52.235
386.83	50.222
387.19	51.343
387.55	51.506
387.91	50.367
388.27	49.573
388.62	51.101
388.98	49.724
389.34	50.656
389.70	51.585
390.06	49.087
390.42	50.389
390.77	50.294
391.13	49.243
391.49	49.935
391.85	49.383
392.20	49.404
392.56	50.032
392.92	49.971
393.28	50.767
393.64	50.090
393.99	49.530
394.35	49.652
394.71	50.128
395.07	48.837
395.42	49.120
395.78	50.684
396.14	50.694
396.50	49.524
396.85	48.422
397.21	48.622
397.57	48.715
397.92	47.753
398.28	49.540
398.64	48.253
399.00	48.307
399.35	48.702
399.71	48.478
400.07	49.274
400.42	47.980
400.78	48.745
401.14	48.820
401.49	47.886
401.85	48.385
402.21	46.325
402.57	49.000
402.92	47.365
403.28	47.682
403.63	47.541
403.99	47.513
404.35	48.907
404.70	45.714
405.06	46.769
405.42	47.732
405.77	45.671
406.13	45.693
406.49	46.122
406.84	47.249
407.20	46.418
407.55	45.976
407.91	46.658
408.27	47.801
408.62	46.400
408.98	45.841
409.34	45.849
409.69	45.672
410.05	45.690
410.40	46.235
410.76	45.054
411.11	45.062
411.47	46.154
411.83	44.821
412.18	46.075
412.54	44.320
412.89	44.335
413.25	44.886
413.60	44.472
413.96	44.356
414.31	44.146
414.67	44.003
415.03	44.740
415.38	43.146
415.74	43.713
416.09	44.024
416.45	43.687
416.80	42.763
417.16	44.959
417.51	43.837
417.87	42.503
418.22	44.236
418.58	45.017
418.93	43.323
419.29	43.022
419.64	42.968
420.00	45.403
420.35	42.627
420.71	43.013
421.06	43.278
421.42	43.269
421.77	41.965
422.12	41.998
422.48	42.285
422.83	42.227
423.19	42.325
423.54	41.387
423.90	41.225
424.25	41.619
424.61	43.513
424.96	41.870
425.31	43.443
425.67	41.667
426.02	41.932
426.38	42.455
426.73	42.252
427.09	42.595
427.44	41.765
427.79	42.369
428.15	41.444
428.50	41.672
428.85	39.865
429.21	41.653
429.56	41.509
429.92	40.113
430.27	41.253
430.62	39.833
430.98	40.393
431.33	40.536
431.68	39.299
432.04	40.581
432.39	39.932
432.74	39.808
433.10	41.609
433.45	39.785
433.80	40.569
434.16	40.222
434.51	40.054
434.86	40.708
435.22	40.325
435.57	40.736
435.92	39.162
436.28	39.535
436.63	39.247
436.98	38.528
437.34	39.322
437.69	39.952
438.04	39.544
438.39	39.829
438.75	39.709
439.10	39.162
439.45	40.170
439.81	38.532
440.16	40.380
440.51	39.224
440.86	40.000
441.22	38.462
441.57	39.790
441.92	39.612
442.27	38.747
442.63	39.615
442.98	39.173
443.33	39.510
443.68	38.886
444.03	39.642
444.39	39.646
444.74	40.468
445.09	38.864
445.44	40.399
445.79	39.814
446.15	38.822
446.50	38.547
446.85	39.532
447.20	39.520
447.55	39.788
447.91	39.143
448.26	38.816
448.61	39.781
448.96	39.128
449.31	38.844
449.66	38.153
450.02	38.620
450.37	39.775
450.72	38.603
451.07	38.987
451.42	37.953
451.77	38.698
452.12	38.935
452.47	37.733
452.83	37.868
453.18	37.824
453.53	40.582
453.88	38.312
454.23	37.861
454.58	38.287
454.93	39.369
455.28	36.381
455.63	37.818
455.98	38.485
456.34	38.378
456.69	38.818
457.04	39.256
457.39	37.363
457.74	38.029
458.09	36.669
458.44	37.741
458.79	37.031
459.14	38.444
459.49	39.701
459.84	36.830
460.19	36.590
460.54	37.531
460.89	36.989
461.24	37.764
461.59	37.589
461.94	36.164
462.29	38.299
462.64	37.874
462.99	37.982
463.34	36.926
463.69	36.680
464.04	36.743
464.39	37.720
464.74	36.626
465.09	36.868
465.44	37.103
465.79	35.884
466.14	36.773
466.49	35.883
466.84	36.050
467.19	36.295
467.54	35.249
467.89	36.197
468.24	36.071
468.59	36.444
468.94	35.810
469.29	36.918
469.64	36.159
469.99	37.631
470.34	35.768
470.68	37.360
471.03	36.235
471.38	35.521
471.73	37.465
472.08	35.482
472.43	36.644
472.78	35.367
473.13	35.714
473.48	35.375
473.83	35.554
474.17	34.974
474.52	35.290
474.87	34.788
475.22	35.143
475.57	35.404
475.92	34.833
476.27	34.866
476.61	35.532
476.96	33.519
477.31	35.208
477.66	34.888
478.01	35.710
478.36	35.240
478.70	35.563
479.05	35.495
479.40	34.764
479.75	34.202
480.10	34.101
480.45	34.150
480.79	34.894
481.14	34.580
481.49	33.498
481.84	34.749
482.19	33.957
482.53	33.765
482.88	33.890
483.23	34.693
483.58	33.915
483.92	34.076
484.27	32.999
484.62	33.214
484.97	32.587
485.31	32.442
485.66	31.408
486.01	31.035
486.36	31.047
486.70	31.622
487.05	31.919
487.40	32.213
487.75	31.634
488.09	31.706
488.44	32.153
488.79	32.723
489.13	33.454
489.48	31.894
489.83	32.646
490.17	33.034
490.52	33.626
490.87	33.318
491.22	33.859
491.56	32.400
491.91	32.887
492.26	33.933
492.60	32.438
492.95	33.891
493.30	32.975
493.64	33.497
493.99	33.188
494.34	33.010
494.68	33.190
495.03	32.409
495.37	32.875
495.72	33.165
496.07	33.024
496.41	32.594
496.76	32.474
497.11	31.952
497.45	33.222
497.80	32.896
498.14	32.340
498.49	31.945
498.84	32.236
499.18	32.580
499.53	31.994
499.87	31.907
500.22	32.493
500.56	32.022
500.91	31.827
501.26	31.686
501.60	31.923
501.95	32.217
502.29	31.768
502.64	32.577
502.98	31.623
503.33	30.211
503.67	31.711
504.02	32.014
504.36	30.975
504.71	31.919
505.06	31.605
505.40	31.015
505.75	31.392
506.09	30.816
506.44	31.263
506.78	31.633
507.13	31.696
507.47	30.705
507.82	30.556
508.16	30.798
508.51	31.165
508.85	31.554
509.19	30.655
509.54	31.099
509.88	31.230
510.23	32.114
510.57	31.641
510.92	30.330
511.26	31.315
511.61	30.858
511.95	31.014
512.30	30.654
512.64	32.109
512.98	30.320
513.33	31.281
513.67	30.927
514.02	31.293
514.36	31.086
514.70	31.177
515.05	31.727
515.39	30.638
515.74	31.437
516.08	31.859
516.42	31.331
516.77	31.773
517.11	31.039
517.46	31.179
517.80	31.228
518.14	31.415
518.49	31.671
518.83	31.166
519.17	30.018
519.52	29.899
519.86	30.252
520.20	31.166
520.55	32.145
520.89	31.305
521.23	31.349
521.58	32.050
521.92	31.218
522.26	30.969
522.61	31.883
522.95	31.854
523.29	31.385
523.64	31.830
523.98	31.627
524.32	30.219
524.66	31.306
525.01	30.714
525.35	30.590
525.69	30.034
526.04	29.630
526.38	31.647
526.72	30.281
527.06	30.545
527.41	31.596
527.75	30.094
528.09	30.565
528.43	31.938
528.78	31.155
529.12	31.290
529.46	29.500
529.80	30.146
530.15	30.759
530.49	30.774
530.83	30.438
531.17	30.557
531.51	29.754
531.86	29.232
532.20	30.550
532.54	29.884
532.88	30.459
533.22	28.763
533.57	29.489
533.91	28.851
534.25	30.013
534.59	29.185
534.93	27.502
535.27	27.728
535.62	29.099
535.96	29.680
536.30	29.485
536.64	29.014
536.98	29.547
537.32	29.516
537.66	29.032
538.01	29.161
538.35	28.363
538.69	28.429
539.03	29.118
539.37	29.004
539.71	27.948
540.05	27.699
540.39	29.294
540.73	28.312
541.07	29.213
541.42	28.831
541.76	29.456
542.10	28.837
542.44	27.728
542.78	28.149
543.12	28.365
543.46	28.234
543.80	28.799
544.14	27.303
544.48	27.249
544.82	27.341
545.16	28.552
545.50	27.370
545.84	28.258
546.18	29.007
546.52	27.902
546.86	27.894
547.20	27.539
547.54	27.491
547.88	27.242
548.22	26.298
548.56	26.715
548.90	27.426
549.24	27.548
549.58	27.574
549.92	27.162
550.26	27.033
550.60	27.732
550.94	27.782
551.28	26.893
551.62	28.077
551.96	27.669
552.30	26.827
552.64	27.221
552.98	26.301
553.32	26.890
553.66	26.560
554.00	27.372
554.34	27.770
554.68	26.032
555.02	27.158
555.36	27.001
555.69	26.593
556.03	26.196
556.37	26.690
556.71	27.509
557.05	26.771
557.39	26.022
557.73	26.462
558.07	26.395
558.41	26.876
558.75	26.968
559.08	27.502
559.42	26.667
559.76	27.142
560.10	25.917
560.44	25.540
560.78	25.804
561.12	26.093
561.45	25.791
561.79	26.541
562.13	26.544
562.47	25.324
562.81	25.865
563.15	25.811
563.48	26.450
563.82	24.983
564.16	25.070
564.50	25.676
564.84	25.636
565.17	24.748
565.51	26.913
565.85	24.966
566.19	25.265
566.52	25.268
566.86	26.350
567.20	24.658
567.54	24.331
567.88	24.136
568.21	24.774
568.55	24.293
568.89	24.127
569.23	23.977
569.56	23.730
569.90	23.346
570.24	22.962
570.57	22.655
570.91	22.412
571.25	22.032
571.59	21.925
571.92	21.274
572.26	21.830
572.60	21.581
572.93	22.278
573.27	21.223
573.61	21.331
573.95	21.354
574.28	21.160
574.62	21.154
574.96	21.142
575.29	21.050
575.63	20.912
575.97	20.520
576.30	21.141
576.64	20.662
576.98	21.544
577.31	21.111
577.65	21.284
577.98	20.689
578.32	20.355
578.66	19.772
578.99	20.824
579.33	20.385
579.67	20.439
580.00	20.911
580.34	21.045
580.67	20.277
581.01	20.365
581.35	20.392
581.68	20.823
582.02	20.022
582.35	19.684
582.69	19.751
583.02	20.295
583.36	20.440
583.70	20.768
584.03	21.240
584.37	21.090
584.70	20.577
585.04	19.585
585.37	20.049
585.71	19.970
586.04	19.970
586.38	20.059
586.72	20.918
587.05	20.711
587.39	20.520
587.72	20.148
588.06	20.039
588.39	20.422
588.73	20.513
589.06	20.450
589.40	20.636
589.73	20.920
590.07	20.695
590.40	20.782
590.73	21.540
591.07	21.289
591.40	20.882
591.74	21.765
592.07	21.197
592.41	20.892
592.74	20.271
593.08	19.839
593.41	20.066
593.75	19.693
594.08	19.705
594.41	19.796
594.75	19.809
595.08	20.356
595.42	20.022
595.75	20.428
596.09	20.446
596.42	20.752
596.75	21.048
597.09	20.410
597.42	20.416
597.75	20.568
598.09	21.277
598.42	20.668
598.76	20.077
599.09	20.152
599.42	19.477
599.76	19.752
600.09	19.646
600.42	19.636
600.76	19.168
601.09	19.122
601.42	18.958
601.76	19.015
602.09	19.431
602.42	20.345
602.76	19.610
603.09	19.934
603.42	20.652
603.76	19.395
604.09	19.239
604.42	20.262
604.76	20.783
605.09	19.927
605.42	19.729
605.75	19.440
606.09	18.896
606.42	19.349
606.75	19.697
607.09	20.088
607.42	18.919
607.75	19.227
608.08	19.407
608.42	19.552
608.75	20.241
609.08	19.382
609.41	19.391
609.75	19.355
610.08	19.571
610.41	19.614
610.74	19.015
611.07	19.535
611.41	19.824
611.74	20.682
612.07	19.968
612.40	19.584
612.73	19.718
613.07	19.966
613.40	20.514
613.73	19.642
614.06	19.922
614.39	20.248
614.72	19.272
615.06	18.994
615.39	19.432
615.72	18.784
616.05	19.385
616.38	18.405
616.71	19.694
617.05	20.692
617.38	19.799
617.71	20.000
618.04	19.873
618.37	20.492
618.70	20.132
619.03	20.556
619.36	20.260
619.69	21.001
620.03	20.891
620.36	20.315
620.69	20.200
621.02	19.954
621.35	21.743
621.68	20.663
622.01	20.750
622.34	20.670
622.67	20.820
623.00	20.597
623.33	20.274
623.66	18.773
623.99	19.970
624.32	19.696
624.65	17.970
624.99	20.241
625.32	19.257
625.65	20.660
625.98	20.226
626.31	18.786
626.64	21.490
626.97	21.728
627.30	21.716
627.63	20.277
627.96	21.204
628.29	20.167
628.62	21.141
628.95	21.643
629.28	20.665
629.61	20.738
629.94	21.505
630.26	21.146
630.59	21.124
630.92	21.744
631.25	21.128
631.58	20.815
631.91	19.627
632.24	21.560
632.57	21.818
632.90	19.573
633.23	22.706
633.56	19.899
633.89	22.318
634.22	20.494
634.55	21.601
634.88	21.711
635.20	21.410
635.53	22.000
635.86	20.676
636.19	22.768
636.52	21.811
