SpectraSuite Data File
++++++++++++++++++++++++++++++++++++
Date: Fri May 15 20:51:26 PDT 2015
User: schluterlab
Dark Spectrum Present: Yes
Reference Spectrum Present: Yes
Number of Sampled Component Spectra: 1
Spectrometers: USB2E3373
Integration Time (usec): 3000 (USB2E3373)
Spectra Averaged: 3 (USB2E3373)
Boxcar Smoothing: 0 (USB2E3373)
Correct for Electrical Dark: No (USB2E3373)
Strobe/Lamp Enabled: No (USB2E3373)
Correct for Detector Non-linearity: No (USB2E3373)
Correct for Stray Light: No (USB2E3373)
Number of Pixels in Processed Spectrum: 2048
>>>>>Begin Processed Spectral Data<<<<<
178.53	0.000
178.91	0.000
179.29	112.500
179.67	-600.000
180.04	100.000
180.42	100.000
180.80	-700.000
181.18	33.333
181.56	400.000
181.94	50.000
182.31	-100.000
182.69	-100.000
183.07	-166.667
183.45	-200.000
183.83	250.000
184.20	90.909
184.58	166.667
184.96	-25.000
185.34	166.667
185.72	-350.000
186.09	76.923
186.47	100.000
186.85	100.000
187.23	200.000
187.61	200.000
187.98	-133.333
188.36	-66.667
188.74	-33.333
189.12	-5.882
189.49	-22.222
189.87	0.000
190.25	42.857
190.63	-350.000
191.00	200.000
191.38	-15.789
191.76	100.000
192.14	-50.000
192.51	300.000
192.89	-55.556
193.27	-157.143
193.65	50.000
194.02	190.909
194.40	-90.000
194.78	-62.500
195.15	25.000
195.53	-137.500
195.91	275.000
196.29	-300.000
196.66	153.846
197.04	85.714
197.42	-22.222
197.79	-166.667
198.17	-123.077
198.55	1200.000
198.92	-233.333
199.30	-300.000
199.68	-200.000
200.05	-466.667
200.43	0.000
200.81	-366.667
201.18	-566.667
201.56	700.000
201.94	-150.000
202.31	-100.000
202.69	40.000
203.07	175.000
203.44	-400.000
203.82	0.000
204.19	78.571
204.57	-433.333
204.95	125.000
205.32	40.000
205.70	14.286
206.08	100.000
206.45	22.222
206.83	-42.857
207.20	-28.571
207.58	1100.000
207.96	-400.000
208.33	-140.000
208.71	-100.000
209.08	-316.667
209.46	-1300.000
209.84	-120.000
210.21	-1100.000
210.59	-128.571
210.96	-200.000
211.34	-25.000
211.71	-20.000
212.09	-200.000
212.46	-1500.000
212.84	0.000
213.22	90.000
213.59	350.000
213.97	61.538
214.34	81.818
214.72	66.667
215.09	200.000
215.47	61.538
215.84	-54.545
216.22	-133.333
216.59	-37.500
216.97	400.000
217.34	-50.000
217.72	-260.000
218.09	-75.000
218.47	262.500
218.84	800.000
219.22	-66.667
219.59	20.000
219.97	233.333
220.34	150.000
220.72	-14.286
221.09	-225.000
221.47	-150.000
221.84	-850.000
222.22	-850.000
222.59	63.636
222.97	91.667
223.34	-233.333
223.72	7.143
224.09	38.095
224.46	-14.286
224.84	133.333
225.21	-20.000
225.59	33.333
225.96	0.000
226.34	275.000
226.71	42.857
227.08	-16.667
227.46	-50.000
227.83	-550.000
228.21	100.000
228.58	-18.182
228.95	-25.000
229.33	100.000
229.70	18.750
230.08	-137.500
230.45	0.000
230.82	71.429
231.20	-20.000
231.57	85.714
231.95	-42.857
232.32	-160.000
232.69	28.571
233.07	-300.000
233.44	0.000
233.81	-40.000
234.19	11.111
234.56	58.824
234.93	750.000
235.31	-300.000
235.68	-480.000
236.05	-92.308
236.43	-25.000
236.80	11.765
237.17	21.875
237.55	5.000
237.92	11.111
238.29	13.889
238.67	13.333
239.04	5.882
239.41	-12.195
239.79	-13.333
240.16	17.073
240.53	2.632
240.91	-19.565
241.28	9.524
241.65	19.643
242.02	12.329
242.40	0.000
242.77	1.695
243.14	-13.636
243.51	5.000
243.89	18.391
244.26	13.793
244.63	7.143
245.00	12.371
245.38	18.557
245.75	-2.247
246.12	17.241
246.49	10.744
246.87	10.577
247.24	5.042
247.61	8.772
247.98	8.943
248.36	16.250
248.73	11.842
249.10	10.390
249.47	18.987
249.84	20.261
250.22	12.941
250.59	16.340
250.96	18.779
251.33	7.558
251.70	19.412
252.08	10.660
252.45	14.356
252.82	18.090
253.19	19.816
253.56	10.280
253.94	14.414
254.31	14.783
254.68	20.614
255.05	15.748
255.42	10.044
255.79	16.988
256.16	18.288
256.54	19.776
256.91	14.068
257.28	14.126
257.65	12.360
258.02	12.766
258.39	15.152
258.76	16.850
259.14	15.282
259.51	16.181
259.88	13.746
260.25	12.092
260.62	17.361
260.99	13.220
261.36	12.671
261.73	17.089
262.10	12.462
262.47	12.270
262.85	15.987
263.22	15.077
263.59	14.642
263.96	16.149
264.33	17.273
264.70	17.262
265.07	16.369
265.44	18.414
265.81	16.949
266.18	16.120
266.55	15.424
266.92	15.803
267.29	17.493
267.66	16.368
268.03	15.969
268.40	13.316
268.77	17.914
269.14	20.144
269.51	16.967
269.88	14.713
270.25	14.286
270.62	15.122
270.99	16.113
271.36	16.137
271.73	16.901
272.10	16.058
272.47	13.948
272.84	13.614
273.21	16.009
273.58	17.108
273.95	15.789
274.32	12.933
274.69	13.575
275.06	17.634
275.43	15.646
275.80	16.336
276.17	15.632
276.54	16.488
276.91	14.474
277.28	14.629
277.65	18.802
278.02	17.447
278.39	14.004
278.76	15.304
279.13	12.656
279.50	16.387
279.87	13.823
280.23	14.409
280.60	16.374
280.97	16.364
281.34	13.654
281.71	17.864
282.08	13.497
282.45	13.112
282.82	13.707
283.19	14.700
283.56	13.680
283.92	14.042
284.29	12.692
284.66	14.147
285.03	13.752
285.40	14.745
285.77	13.357
286.14	13.357
286.51	14.391
286.87	12.980
287.24	13.444
287.61	13.051
287.98	14.211
288.35	13.518
288.72	15.236
289.08	12.674
289.45	13.181
289.82	13.462
290.19	11.092
290.56	13.894
290.93	12.795
291.29	12.018
291.66	11.181
292.03	13.078
292.40	10.806
292.77	13.397
293.13	10.552
293.50	10.319
293.87	12.672
294.24	12.828
294.60	11.773
294.97	12.351
295.34	11.963
295.71	12.966
296.08	12.407
296.44	10.242
296.81	11.806
297.18	12.754
297.55	12.737
297.91	11.918
298.28	12.401
298.65	10.583
299.02	10.108
299.38	9.986
299.75	10.759
300.12	11.257
300.48	10.277
300.85	11.153
301.22	12.338
301.59	11.711
301.95	10.759
302.32	12.970
302.69	10.448
303.05	11.015
303.42	10.087
303.79	10.981
304.15	9.916
304.52	8.680
304.89	10.409
305.25	11.622
305.62	9.452
305.99	10.760
306.35	9.711
306.72	9.899
307.09	10.946
307.45	10.333
307.82	10.069
308.19	11.150
308.55	10.033
308.92	10.566
309.29	9.721
309.65	9.580
310.02	11.331
310.38	10.099
310.75	10.601
311.12	9.580
311.48	10.710
311.85	10.366
312.22	9.494
312.58	10.191
312.95	9.392
313.31	9.524
313.68	9.843
314.05	9.388
314.41	10.515
314.78	10.619
315.14	11.202
315.51	10.248
315.87	10.041
316.24	11.122
316.61	12.008
316.97	11.111
317.34	11.328
317.70	10.994
318.07	11.250
318.43	12.255
318.80	11.932
319.16	12.793
319.53	13.010
319.89	11.713
320.26	11.741
320.62	13.541
320.99	12.735
321.35	13.258
321.72	14.538
322.08	13.293
322.45	14.416
322.81	14.735
323.18	13.739
323.54	14.672
323.91	14.898
324.27	15.723
324.64	16.573
325.00	17.336
325.37	17.080
325.73	16.138
326.10	17.075
326.46	18.834
326.83	18.810
327.19	19.180
327.56	18.679
327.92	19.806
328.29	19.911
328.65	19.623
329.01	20.496
329.38	21.198
329.74	19.924
330.11	21.223
330.47	19.852
330.84	21.635
331.20	23.859
331.56	22.593
331.93	22.466
332.29	22.548
332.66	22.262
333.02	22.862
333.38	22.181
333.75	22.985
334.11	21.665
334.48	23.753
334.84	23.077
335.20	24.611
335.57	23.119
335.93	24.390
336.29	24.309
336.66	23.433
337.02	23.513
337.38	23.981
337.75	24.000
338.11	22.182
338.47	23.175
338.84	24.954
339.20	24.314
339.56	24.404
339.93	25.157
340.29	24.771
340.65	24.014
341.02	24.202
341.38	25.310
341.74	23.852
342.11	23.397
342.47	24.288
342.83	24.394
343.20	24.913
343.56	24.435
343.92	25.864
344.28	25.534
344.65	24.439
345.01	26.016
345.37	25.988
345.73	24.770
346.10	25.022
346.46	24.727
346.82	24.714
347.19	24.688
347.55	23.977
347.91	24.676
348.27	24.495
348.63	25.128
349.00	24.856
349.36	25.686
349.72	25.788
350.08	25.164
350.45	25.299
350.81	25.000
351.17	24.430
351.53	24.735
351.89	24.525
352.26	25.360
352.62	25.242
352.98	23.293
353.34	24.799
353.70	24.595
354.07	24.839
354.43	24.820
354.79	24.195
355.15	26.190
355.51	24.842
355.87	24.919
356.24	23.573
356.60	25.222
356.96	26.032
357.32	24.361
357.68	23.378
358.04	24.879
358.40	25.482
358.77	25.120
359.13	24.420
359.49	25.270
359.85	23.557
360.21	25.439
360.57	24.484
360.93	25.265
361.29	24.320
361.66	25.392
362.02	26.818
362.38	25.057
362.74	24.830
363.10	26.486
363.46	25.056
363.82	26.446
364.18	25.535
364.54	25.368
364.90	25.376
365.26	25.691
365.62	25.328
365.98	26.393
366.35	26.875
366.71	26.016
367.07	25.762
367.43	26.240
367.79	25.230
368.15	25.772
368.51	25.856
368.87	26.059
369.23	25.199
369.59	25.292
369.95	25.880
370.31	25.506
370.67	26.493
371.03	25.392
371.39	26.550
371.75	25.495
372.11	25.749
372.47	26.849
372.83	26.544
373.19	26.819
373.55	26.787
373.91	26.134
374.27	27.286
374.63	25.987
374.99	25.745
375.35	26.323
375.71	26.084
376.07	27.739
376.42	26.463
376.78	27.383
377.14	26.743
377.50	26.627
377.86	27.309
378.22	27.058
378.58	26.154
378.94	26.843
379.30	26.014
379.66	28.339
380.02	26.793
380.38	27.572
380.74	26.810
381.09	28.037
381.45	27.645
381.81	27.020
382.17	28.553
382.53	28.420
382.89	28.186
383.25	28.749
383.61	28.171
383.97	27.111
384.32	28.580
384.68	28.173
385.04	27.390
385.40	27.754
385.76	29.182
386.12	29.107
386.48	28.799
386.83	28.725
387.19	28.449
387.55	28.356
387.91	29.401
388.27	29.426
388.62	29.264
388.98	29.098
389.34	28.170
389.70	29.584
390.06	29.138
390.42	29.016
390.77	29.039
391.13	29.067
391.49	30.207
391.85	29.045
392.20	29.316
392.56	30.706
392.92	30.358
393.28	30.307
393.64	30.450
393.99	31.661
394.35	30.044
394.71	30.651
395.07	29.793
395.42	29.265
395.78	30.358
396.14	30.769
396.50	30.311
396.85	30.393
397.21	30.388
397.57	29.969
397.92	31.815
398.28	32.184
398.64	30.783
399.00	31.377
399.35	29.515
399.71	30.557
400.07	32.044
400.42	30.722
400.78	31.170
401.14	31.700
401.49	32.162
401.85	31.749
402.21	31.807
402.57	31.625
402.92	31.493
403.28	32.581
403.63	32.472
403.99	32.398
404.35	33.417
404.70	31.667
405.06	32.550
405.42	32.132
405.77	31.319
406.13	32.480
406.49	32.386
406.84	32.824
407.20	32.330
407.55	33.097
407.91	32.420
408.27	32.696
408.62	33.108
408.98	33.333
409.34	33.333
409.69	33.463
410.05	33.374
410.40	33.889
410.76	34.258
411.11	34.625
411.47	34.911
411.83	34.024
412.18	34.234
412.54	33.396
412.89	33.190
413.25	34.657
413.60	34.161
413.96	34.540
414.31	34.451
414.67	34.638
415.03	34.554
415.38	35.183
415.74	34.919
416.09	35.075
416.45	35.044
416.80	35.162
417.16	36.326
417.51	36.109
417.87	35.332
418.22	36.464
418.58	36.054
418.93	36.426
419.29	34.443
419.64	35.645
420.00	36.965
420.35	36.537
420.71	35.601
421.06	36.403
421.42	37.019
421.77	35.896
422.12	37.174
422.48	36.383
422.83	37.181
423.19	36.230
423.54	36.390
423.90	36.278
424.25	37.773
424.61	37.760
424.96	36.934
425.31	38.186
425.67	37.148
426.02	38.575
426.38	38.760
426.73	38.862
427.09	39.937
427.44	38.706
427.79	38.656
428.15	38.532
428.50	38.643
428.85	37.654
429.21	39.955
429.56	39.784
429.92	39.086
430.27	37.945
430.62	38.630
430.98	38.907
431.33	39.958
431.68	39.560
432.04	39.855
432.39	38.391
432.74	38.966
433.10	40.690
433.45	40.621
433.80	41.091
434.16	39.889
434.51	40.054
434.86	39.779
435.22	41.054
435.57	41.547
435.92	41.078
436.28	41.145
436.63	40.730
436.98	40.962
437.34	41.682
437.69	41.920
438.04	41.595
438.39	40.745
438.75	42.623
439.10	41.539
439.45	43.457
439.81	42.691
440.16	44.121
440.51	43.701
440.86	43.384
441.22	43.156
441.57	43.543
441.92	43.127
442.27	43.902
442.63	44.272
442.98	44.285
443.33	41.848
443.68	43.342
444.03	44.709
444.39	44.171
444.74	44.593
445.09	45.267
445.44	43.875
445.79	46.313
446.15	44.714
446.50	44.537
446.85	45.218
447.20	45.516
447.55	45.424
447.91	45.460
448.26	45.475
448.61	45.078
448.96	45.095
449.31	45.318
449.66	45.935
450.02	46.948
450.37	47.421
450.72	46.048
451.07	47.025
451.42	46.629
451.77	46.715
452.12	45.873
452.47	46.104
452.83	46.702
453.18	45.984
453.53	48.040
453.88	46.873
454.23	47.203
454.58	47.103
454.93	47.809
455.28	45.460
455.63	47.365
455.98	47.805
456.34	47.510
456.69	48.221
457.04	47.259
457.39	46.902
457.74	48.489
458.09	46.557
458.44	48.332
458.79	47.955
459.14	48.227
459.49	47.224
459.84	48.957
460.19	48.119
460.54	47.861
460.89	48.864
461.24	48.261
461.59	47.922
461.94	48.428
462.29	48.733
462.64	49.236
462.99	49.154
463.34	49.374
463.69	48.906
464.04	50.121
464.39	48.575
464.74	49.202
465.09	48.908
465.44	49.336
465.79	48.073
466.14	48.689
466.49	48.419
466.84	49.613
467.19	49.625
467.54	48.531
467.89	50.032
468.24	49.027
468.59	49.778
468.94	48.635
469.29	49.836
469.64	50.376
469.99	51.367
470.34	50.444
470.68	49.217
471.03	50.743
471.38	50.357
471.73	50.350
472.08	51.832
472.43	49.463
472.78	49.554
473.13	51.361
473.48	50.814
473.83	50.249
474.17	51.166
474.52	49.904
474.87	50.727
475.22	51.129
475.57	51.270
475.92	50.905
476.27	49.185
476.61	51.215
476.96	49.526
477.31	50.135
477.66	50.562
478.01	51.151
478.36	50.654
478.70	51.876
479.05	51.593
479.40	50.980
479.75	51.408
480.10	50.589
480.45	50.100
480.79	51.511
481.14	52.510
481.49	49.655
481.84	50.676
482.19	50.514
482.53	50.743
482.88	50.788
483.23	50.336
483.58	50.991
483.92	51.404
484.27	49.499
484.62	50.560
484.97	49.212
485.31	49.277
485.66	48.576
486.01	48.537
486.36	48.339
486.70	48.505
487.05	49.363
487.40	49.716
487.75	49.437
488.09	49.845
488.44	49.553
488.79	51.065
489.13	50.521
489.48	51.347
489.83	51.300
490.17	50.247
490.52	51.085
490.87	51.504
491.22	52.913
491.56	50.806
491.91	51.386
492.26	53.136
492.60	51.536
492.95	53.517
493.30	51.783
493.64	53.045
493.99	52.850
494.34	51.650
494.68	52.714
495.03	52.165
495.37	52.061
495.72	53.054
496.07	53.512
496.41	52.217
496.76	51.313
497.11	51.793
497.45	52.076
497.80	53.229
498.14	51.615
498.49	52.209
498.84	51.846
499.18	52.962
499.53	53.175
499.87	52.578
500.22	53.116
500.56	53.202
500.91	52.610
501.26	52.200
501.60	52.681
501.95	52.353
502.29	52.349
502.64	52.365
502.98	53.281
503.33	52.834
503.67	52.916
504.02	53.372
504.36	53.785
504.71	53.131
505.06	53.598
505.40	54.162
505.75	54.433
506.09	53.269
506.44	55.031
506.78	54.949
507.13	53.257
507.47	53.786
507.82	52.938
508.16	53.407
508.51	53.830
508.85	54.736
509.19	53.379
509.54	54.960
509.88	51.672
510.23	54.384
510.57	54.516
510.92	52.559
511.26	54.937
511.61	54.345
511.95	54.685
512.30	54.435
512.64	53.589
512.98	53.734
513.33	55.736
513.67	55.031
514.02	56.121
514.36	54.914
514.70	55.711
515.05	55.699
515.39	54.841
515.74	57.066
516.08	57.023
516.42	55.713
516.77	56.992
517.11	56.380
517.46	55.416
517.80	57.330
518.14	56.093
518.49	55.288
518.83	56.561
519.17	54.821
519.52	55.595
519.86	55.462
520.20	56.865
520.55	55.972
520.89	57.152
521.23	56.428
521.58	56.215
521.92	56.154
522.26	56.669
522.61	57.273
522.95	59.139
523.29	56.163
523.64	57.243
523.98	58.393
524.32	56.186
524.66	57.106
525.01	58.506
525.35	57.032
525.69	58.114
526.04	57.937
526.38	58.171
526.72	56.311
527.06	57.069
527.41	57.520
527.75	57.440
528.09	56.877
528.43	59.082
528.78	57.360
529.12	57.548
529.46	57.505
529.80	55.858
530.15	58.218
530.49	57.710
530.83	58.413
531.17	57.220
531.51	58.755
531.86	57.104
532.20	58.455
532.54	57.522
532.88	57.974
533.22	57.325
533.57	56.422
533.91	57.050
534.25	58.724
534.59	57.280
534.93	57.835
535.27	56.345
535.62	56.384
535.96	57.534
536.30	55.805
536.64	59.201
536.98	57.143
537.32	59.317
537.66	59.958
538.01	58.601
538.35	57.975
538.69	57.390
539.03	58.168
539.37	57.201
539.71	58.759
540.05	57.366
540.39	58.587
540.73	58.926
541.07	59.185
541.42	58.132
541.76	59.463
542.10	58.293
542.44	59.486
542.78	57.880
543.12	57.830
543.46	59.597
543.80	58.015
544.14	56.809
544.48	57.495
544.82	59.125
545.16	58.607
545.50	57.276
545.84	59.136
546.18	59.291
546.52	57.390
546.86	57.872
547.20	57.725
547.54	56.961
547.88	57.405
548.22	58.317
548.56	56.135
548.90	59.906
549.24	59.022
549.58	59.168
549.92	57.327
550.26	58.755
550.60	59.628
550.94	59.671
551.28	58.810
551.62	59.692
551.96	59.774
552.30	58.699
552.64	58.886
552.98	57.314
553.32	58.417
553.66	59.289
554.00	59.708
554.34	59.527
554.68	58.038
555.02	59.673
555.36	60.583
555.69	58.681
556.03	58.744
556.37	58.078
556.71	59.422
557.05	58.762
557.39	59.480
557.73	59.895
558.07	60.256
558.41	60.184
558.75	61.107
559.08	59.496
559.42	61.746
559.76	60.689
560.10	59.939
560.44	58.526
560.78	59.650
561.12	59.732
561.45	60.295
561.79	59.314
562.13	60.185
562.47	59.928
562.81	60.231
563.15	58.533
563.48	58.769
563.82	59.986
564.16	59.889
564.50	58.581
564.84	58.835
565.17	59.155
565.51	59.631
565.85	60.837
566.19	59.947
566.52	59.517
566.86	60.411
567.20	58.406
567.54	59.063
567.88	58.992
568.21	58.654
568.55	57.120
568.89	57.084
569.23	56.476
569.56	55.648
569.90	55.664
570.24	54.485
570.57	54.764
570.91	54.758
571.25	54.028
571.59	54.126
571.92	53.096
572.26	53.382
572.60	53.085
572.93	53.530
573.27	54.263
573.61	54.356
573.95	53.550
574.28	52.542
574.62	52.759
574.96	52.306
575.29	51.615
575.63	51.956
575.97	52.562
576.30	53.163
576.64	51.974
576.98	53.359
577.31	53.035
577.65	52.569
577.98	52.219
578.32	51.324
578.66	51.236
578.99	51.497
579.33	51.936
579.67	51.703
580.00	52.557
580.34	52.736
580.67	52.127
581.01	53.170
581.35	51.572
581.68	51.683
582.02	50.982
582.35	51.551
582.69	51.967
583.02	52.403
583.36	52.520
583.70	53.764
584.03	53.433
584.37	53.811
584.70	53.214
585.04	53.212
585.37	52.531
585.71	52.703
586.04	52.421
586.38	52.441
586.72	53.888
587.05	53.668
587.39	53.676
587.72	54.101
588.06	52.975
588.39	53.945
588.73	54.487
589.06	54.599
589.40	54.303
589.73	55.312
590.07	55.514
590.40	54.915
590.73	56.260
591.07	55.598
591.40	55.922
591.74	56.471
592.07	56.262
592.41	55.477
592.74	54.998
593.08	53.685
593.41	54.003
593.75	53.418
594.08	52.935
594.41	54.185
594.75	53.779
595.08	54.559
595.42	54.509
595.75	55.952
596.09	54.769
596.42	56.346
596.75	56.528
597.09	55.991
597.42	55.510
597.75	56.070
598.09	54.504
598.42	54.783
598.76	54.955
599.09	54.607
599.42	53.695
599.76	53.574
600.09	53.658
600.42	54.132
600.76	52.860
601.09	54.198
601.42	54.602
601.76	55.220
602.09	54.373
602.42	56.571
602.76	55.263
603.09	55.108
603.42	56.731
603.76	54.677
604.09	53.989
604.42	54.399
604.76	54.651
605.09	55.439
605.42	55.576
605.75	53.765
606.09	55.202
606.42	53.461
606.75	54.502
607.09	55.165
607.42	54.409
607.75	53.952
608.08	53.100
608.42	54.363
608.75	55.470
609.08	55.506
609.41	55.736
609.75	55.494
610.08	55.317
610.41	54.638
610.74	54.656
611.07	55.607
611.41	56.513
611.74	57.036
612.07	55.567
612.40	55.799
612.73	57.401
613.07	56.074
613.40	55.853
613.73	55.512
614.06	55.314
614.39	56.007
614.72	54.454
615.06	56.536
615.39	54.640
615.72	54.790
616.05	55.084
616.38	55.783
616.71	55.719
617.05	55.775
617.38	55.563
617.71	56.981
618.04	56.571
618.37	56.242
618.70	57.162
619.03	58.889
619.36	58.177
619.69	58.378
620.03	59.240
620.36	57.010
620.69	57.816
621.02	59.327
621.35	59.170
621.68	60.799
622.01	59.083
622.34	58.420
622.67	58.517
623.00	57.887
623.33	58.155
623.66	58.414
623.99	57.716
624.32	59.163
624.65	57.594
624.99	57.938
625.32	57.392
625.65	58.209
625.98	59.790
626.31	60.515
626.64	61.092
626.97	59.686
627.30	58.231
627.63	59.272
627.96	60.377
628.29	59.297
628.62	61.554
628.95	60.421
629.28	60.887
629.61	60.120
629.94	61.095
630.26	59.783
630.59	61.811
630.92	61.538
631.25	59.795
631.58	62.335
631.91	61.952
632.24	62.500
632.57	63.182
632.90	61.091
633.23	61.412
633.56	64.232
