SpectraSuite Data File
++++++++++++++++++++++++++++++++++++
Date: Fri May 15 20:46:22 PDT 2015
User: schluterlab
Dark Spectrum Present: Yes
Reference Spectrum Present: Yes
Number of Sampled Component Spectra: 1
Spectrometers: USB2E3373
Integration Time (usec): 3000 (USB2E3373)
Spectra Averaged: 3 (USB2E3373)
Boxcar Smoothing: 0 (USB2E3373)
Correct for Electrical Dark: No (USB2E3373)
Strobe/Lamp Enabled: No (USB2E3373)
Correct for Detector Non-linearity: No (USB2E3373)
Correct for Stray Light: No (USB2E3373)
Number of Pixels in Processed Spectrum: 2048
>>>>>Begin Processed Spectral Data<<<<<
178.53	0.000
178.91	0.000
179.29	25.000
179.67	-650.000
180.04	-14.286
180.42	-100.000
180.80	-1500.000
181.18	133.333
181.56	200.000
181.94	-350.000
182.31	1000.000
182.69	0.000
183.07	-166.667
183.45	-20.000
183.83	150.000
184.20	-27.273
184.58	166.667
184.96	-0.000
185.34	33.333
185.72	-300.000
186.09	153.846
186.47	-300.000
186.85	183.333
187.23	155.556
187.61	600.000
187.98	-433.333
188.36	-55.556
188.74	-133.333
189.12	-11.765
189.49	-44.444
189.87	0.000
190.25	-7.143
190.63	100.000
191.00	-400.000
191.38	-5.263
191.76	200.000
192.14	225.000
192.51	150.000
192.89	-111.111
193.27	14.286
193.65	216.667
194.02	190.909
194.40	-60.000
194.78	-150.000
195.15	25.000
195.53	-187.500
195.91	350.000
196.29	-125.000
196.66	123.077
197.04	128.571
197.42	-122.222
197.79	-366.667
198.17	-23.077
198.55	2400.000
198.92	-166.667
199.30	-700.000
199.68	-200.000
200.05	-33.333
200.43	0.000
200.81	-166.667
201.18	-200.000
201.56	800.000
201.94	-250.000
202.31	100.000
202.69	-240.000
203.07	150.000
203.44	-200.000
203.82	0.000
204.19	57.143
204.57	-233.333
204.95	87.500
205.32	-70.000
205.70	0.000
206.08	-225.000
206.45	144.444
206.83	50.000
207.20	-257.143
207.58	-0.000
207.96	-400.000
208.33	-30.000
208.71	-175.000
209.08	-133.333
209.46	-1000.000
209.84	-80.000
210.21	-1600.000
210.59	42.857
210.96	-16.667
211.34	-225.000
211.71	13.333
212.09	-214.286
212.46	-1600.000
212.84	0.000
213.22	-70.000
213.59	900.000
213.97	-69.231
214.34	-72.727
214.72	-100.000
215.09	425.000
215.47	53.846
215.84	-54.545
216.22	-233.333
216.59	-87.500
216.97	-650.000
217.34	-250.000
217.72	-240.000
218.09	37.500
218.47	250.000
218.84	-1100.000
219.22	-55.556
219.59	-200.000
219.97	366.667
220.34	225.000
220.72	14.286
221.09	-275.000
221.47	-350.000
221.84	-100.000
222.22	-1250.000
222.59	-27.273
222.97	50.000
223.34	-533.333
223.72	-21.429
224.09	-33.333
224.46	25.000
224.84	533.333
225.21	-20.000
225.59	-20.000
225.96	-650.000
226.34	375.000
226.71	-28.571
227.08	-50.000
227.46	-37.500
227.83	-450.000
228.21	122.222
228.58	63.636
228.95	0.000
229.33	130.000
229.70	-6.250
230.08	-175.000
230.45	-71.429
230.82	28.571
231.20	20.000
231.57	35.714
231.95	-157.143
232.32	-90.000
232.69	0.000
233.07	233.333
233.44	0.000
233.81	-120.000
234.19	22.222
234.56	-64.706
234.93	350.000
235.31	-50.000
235.68	-200.000
236.05	-92.308
236.43	-25.000
236.80	-23.529
237.17	0.000
237.55	-30.000
237.92	-33.333
238.29	-27.778
238.67	13.333
239.04	-35.294
239.41	-29.268
239.79	-43.333
240.16	-4.878
240.53	-7.895
240.91	-19.565
241.28	11.111
241.65	8.929
242.02	6.849
242.40	-8.333
242.77	0.000
243.14	-4.545
243.51	-7.500
243.89	13.793
244.26	0.000
244.63	8.333
245.00	6.186
245.38	7.216
245.75	-5.618
246.12	-5.172
246.49	0.826
246.87	10.577
247.24	0.000
247.61	-0.877
247.98	0.813
248.36	1.250
248.73	1.316
249.10	2.597
249.47	1.266
249.84	-7.190
250.22	4.706
250.59	7.843
250.96	12.207
251.33	1.744
251.70	3.529
252.08	5.584
252.45	8.416
252.82	4.523
253.19	9.677
253.56	1.402
253.94	6.306
254.31	8.261
254.68	7.456
255.05	3.937
255.42	3.930
255.79	7.336
256.16	2.724
256.54	10.448
256.91	8.745
257.28	6.320
257.65	3.745
258.02	2.482
258.39	8.418
258.76	7.692
259.14	6.645
259.51	11.003
259.88	4.124
260.25	7.190
260.62	6.944
260.99	3.051
261.36	5.137
261.73	6.013
262.10	7.903
262.47	7.362
262.85	7.210
263.22	4.923
263.59	7.477
263.96	8.075
264.33	9.394
264.70	5.655
265.07	2.381
265.44	10.765
265.81	7.910
266.18	7.377
266.55	7.455
266.92	9.585
267.29	6.266
267.66	7.161
268.03	5.497
268.40	7.050
268.77	9.091
269.14	8.153
269.51	4.370
269.88	4.988
270.25	6.122
270.62	5.366
270.99	5.882
271.36	3.178
271.73	6.338
272.10	6.569
272.47	6.856
272.84	7.673
273.21	5.800
273.58	7.711
273.95	5.721
274.32	5.312
274.69	2.941
275.06	8.036
275.43	7.029
275.80	6.623
276.17	3.678
276.54	7.923
276.91	10.526
277.28	5.022
277.65	6.198
278.02	4.894
278.39	6.346
278.76	3.564
279.13	3.527
279.50	6.303
279.87	7.343
280.23	6.452
280.60	8.187
280.97	7.273
281.34	6.154
281.71	8.830
282.08	4.703
282.45	6.262
282.82	4.054
283.19	6.576
283.56	5.588
283.92	5.882
284.29	6.346
284.66	6.589
285.03	4.519
285.40	6.994
285.77	5.097
286.14	7.040
286.51	8.303
286.87	4.205
287.24	4.420
287.61	5.644
287.98	7.895
288.35	5.199
288.72	6.830
289.08	5.556
289.45	4.921
289.82	6.119
290.19	4.266
290.56	5.489
290.93	4.714
291.29	3.236
291.66	5.669
292.03	7.177
292.40	5.000
292.77	3.987
293.13	3.409
293.50	4.249
293.87	5.649
294.24	5.100
294.60	6.855
294.97	6.101
295.34	5.061
295.71	3.726
296.08	5.232
296.44	3.841
296.81	4.167
297.18	5.072
297.55	6.911
297.91	6.575
298.28	5.937
298.65	4.749
299.02	4.987
299.38	3.694
299.75	4.000
300.12	3.796
300.48	3.426
300.85	5.070
301.22	3.766
301.59	2.237
301.95	4.177
302.32	4.929
302.69	4.975
303.05	5.198
303.42	3.985
303.79	5.841
304.15	5.496
304.52	3.805
304.89	3.743
305.25	3.874
305.62	3.851
305.99	5.146
306.35	4.393
306.72	4.274
307.09	4.447
307.45	4.822
307.82	5.556
308.19	3.717
308.55	4.689
308.92	5.882
309.29	2.793
309.65	3.875
310.02	4.510
310.38	4.281
310.75	4.918
311.12	3.983
311.48	4.242
311.85	4.084
312.22	3.376
312.58	3.822
312.95	3.308
313.31	2.174
313.68	4.188
314.05	3.878
314.41	4.433
314.78	3.711
315.14	5.858
315.51	4.762
315.87	3.689
316.24	5.460
316.61	5.906
316.97	4.365
317.34	3.809
317.70	4.876
318.07	4.327
318.43	4.608
318.80	3.788
319.16	5.078
319.53	5.603
319.89	4.823
320.26	5.263
320.62	4.413
320.99	3.549
321.35	5.961
321.72	5.607
322.08	5.337
322.45	2.944
322.81	4.813
323.18	4.318
323.54	4.151
323.91	4.674
324.27	5.273
324.64	5.056
325.00	5.931
325.37	6.152
325.73	4.170
326.10	3.270
326.46	6.368
326.83	5.599
327.19	4.534
327.56	6.255
327.92	6.690
328.29	4.286
328.65	4.717
329.01	4.963
329.38	5.714
329.74	4.249
330.11	5.005
330.47	4.731
330.84	3.654
331.20	5.703
331.56	5.000
331.93	4.840
332.29	5.500
332.66	4.615
333.02	5.112
333.38	5.225
333.75	6.136
334.11	3.850
334.48	5.349
334.84	5.311
335.20	5.489
335.57	4.805
335.93	4.968
336.29	5.525
336.66	3.542
337.02	4.368
337.38	5.093
337.75	4.091
338.11	4.869
338.47	4.562
338.84	5.638
339.20	4.205
339.56	5.596
339.93	5.103
340.29	5.138
340.65	5.556
341.02	4.965
341.38	3.894
341.74	4.240
342.11	3.813
342.47	4.804
342.83	5.536
343.20	3.833
343.56	5.043
343.92	4.872
344.28	6.490
344.65	4.577
345.01	4.322
345.37	5.299
345.73	4.770
346.10	4.573
346.46	5.130
346.82	5.483
347.19	4.073
347.55	4.595
347.91	5.663
348.27	4.527
348.63	4.344
349.00	4.348
349.36	4.073
349.72	4.892
350.08	4.836
350.45	5.108
350.81	5.066
351.17	4.886
351.53	5.388
351.89	4.129
352.26	4.080
352.62	4.113
352.98	4.659
353.34	4.026
353.70	4.854
354.07	4.677
354.43	4.964
354.79	3.220
355.15	5.952
355.51	4.351
355.87	4.854
356.24	4.405
356.60	4.285
356.96	5.556
357.32	4.393
357.68	3.675
358.04	4.039
358.40	5.145
358.77	4.545
359.13	4.003
359.49	4.545
359.85	4.134
360.21	4.306
360.57	4.132
360.93	4.917
361.29	3.550
361.66	4.467
362.02	5.227
362.38	4.570
362.74	4.315
363.10	5.267
363.46	4.893
363.82	5.785
364.18	4.945
364.54	4.338
364.90	4.301
365.26	4.585
365.62	5.036
365.98	4.912
366.35	5.390
366.71	4.878
367.07	4.717
367.43	4.026
367.79	5.088
368.15	4.810
368.51	5.025
368.87	3.661
369.23	3.538
369.59	3.863
369.95	5.718
370.31	4.769
370.67	3.955
371.03	4.033
371.39	4.230
371.75	4.469
372.11	4.565
372.47	4.438
372.83	4.116
373.19	5.492
373.55	4.621
373.91	4.608
374.27	4.890
374.63	4.235
374.99	3.404
375.35	4.596
375.71	5.175
376.07	4.565
376.42	4.558
376.78	5.436
377.14	4.739
377.50	3.984
377.86	4.618
378.22	4.276
378.58	4.231
378.94	4.411
379.30	4.554
379.66	5.204
380.02	3.740
380.38	3.226
380.74	4.010
381.09	5.460
381.45	4.771
381.81	4.503
382.17	4.251
382.53	4.310
382.89	3.766
383.25	4.792
383.61	4.573
383.97	4.063
384.32	4.253
384.68	4.706
385.04	3.922
385.40	4.356
385.76	4.843
386.12	4.851
386.48	4.406
386.83	3.551
387.19	4.151
387.55	4.391
387.91	4.829
388.27	4.151
388.62	4.342
388.98	4.052
389.34	4.622
389.70	5.034
390.06	4.028
390.42	3.497
390.77	4.578
391.13	3.909
391.49	4.334
391.85	3.769
392.20	4.269
392.56	3.751
392.92	4.463
393.28	3.302
393.64	4.024
393.99	5.141
394.35	3.479
394.71	4.598
395.07	4.525
395.42	4.129
395.78	3.713
396.14	4.351
396.50	5.073
396.85	3.863
397.21	3.947
397.57	4.765
397.92	4.074
398.28	4.540
398.64	3.614
399.00	4.628
399.35	3.555
399.71	4.193
400.07	4.655
400.42	4.957
400.78	4.960
401.14	3.811
401.49	4.765
401.85	3.839
402.21	4.578
402.57	5.062
402.92	4.517
403.28	4.323
403.63	3.909
403.99	3.508
404.35	4.622
404.70	4.702
405.06	3.937
405.42	4.848
405.77	4.067
406.13	3.783
406.49	4.618
406.84	4.707
407.20	4.756
407.55	3.542
407.91	4.011
408.27	4.079
408.62	4.800
408.98	4.683
409.34	4.151
409.69	4.587
410.05	5.172
410.40	4.630
410.76	4.162
411.11	3.625
411.47	4.734
411.83	3.202
412.18	3.990
412.54	4.619
412.89	4.064
413.25	4.031
413.60	3.975
413.96	4.540
414.31	4.756
414.67	4.041
415.03	3.928
415.38	4.504
415.74	4.495
416.09	3.854
416.45	4.389
416.80	4.230
417.16	4.420
417.51	5.063
417.87	4.563
418.22	4.339
418.58	3.946
418.93	4.828
419.29	3.905
419.64	3.694
420.00	4.723
420.35	3.940
420.71	3.949
421.06	4.297
421.42	5.108
421.77	4.162
422.12	3.916
422.48	4.981
422.83	4.582
423.19	4.684
423.54	3.469
423.90	4.358
424.25	4.592
424.61	5.018
424.96	5.691
425.31	5.315
425.67	3.932
426.02	5.124
426.38	3.820
426.73	4.600
427.09	4.557
427.44	5.235
427.79	4.714
428.15	5.279
428.50	4.422
428.85	3.870
429.21	5.207
429.56	4.744
429.92	5.290
430.27	5.063
430.62	4.496
430.98	4.618
431.33	4.890
431.68	4.448
432.04	4.136
432.39	4.621
432.74	4.450
433.10	5.230
433.45	4.540
433.80	4.179
434.16	3.490
434.51	4.946
434.86	4.239
435.22	4.262
435.57	4.242
435.92	4.611
436.28	3.757
436.63	4.564
436.98	4.171
437.34	3.448
437.69	5.069
438.04	4.330
438.39	3.604
438.75	4.432
439.10	4.584
439.45	4.443
439.81	4.587
440.16	4.097
440.51	5.015
440.86	5.015
441.22	4.921
441.57	4.691
441.92	4.407
442.27	3.769
442.63	5.246
442.98	4.882
443.33	4.341
443.68	4.934
444.03	5.315
444.39	4.476
444.74	4.738
445.09	4.733
445.44	4.103
445.79	4.796
446.15	4.681
446.50	4.326
446.85	3.879
447.20	4.692
447.55	4.967
447.91	5.189
448.26	5.065
448.61	4.951
448.96	5.106
449.31	3.353
449.66	5.168
450.02	4.107
450.37	4.446
450.72	4.983
451.07	4.810
451.42	5.056
451.77	4.641
452.12	4.366
452.47	4.314
452.83	4.888
453.18	4.681
453.53	5.247
453.88	5.282
454.23	5.224
454.58	4.093
454.93	5.090
455.28	4.762
455.63	4.836
455.98	5.773
456.34	4.789
456.69	5.210
457.04	5.293
457.39	4.496
457.74	4.958
458.09	4.297
458.44	4.096
458.79	4.370
459.14	5.721
459.49	5.433
459.84	5.640
460.19	4.854
460.54	4.890
460.89	5.398
461.24	4.658
461.59	5.463
461.94	4.465
462.29	5.549
462.64	5.382
462.99	4.807
463.34	3.686
463.69	4.505
464.04	4.722
464.39	4.912
464.74	5.215
465.09	5.427
465.44	5.309
465.79	4.252
466.14	5.986
466.49	4.370
466.84	4.938
467.19	5.257
467.54	5.236
467.89	5.117
468.24	4.745
468.59	5.651
468.94	5.206
469.29	5.246
469.64	5.537
469.99	4.415
470.34	3.959
470.68	5.742
471.03	6.016
471.38	4.779
471.73	4.972
472.08	4.749
472.43	4.228
472.78	4.592
473.13	5.782
473.48	4.430
473.83	5.106
474.17	5.311
474.52	4.659
474.87	5.333
475.22	5.186
475.57	5.025
475.92	4.937
476.27	5.763
476.61	5.208
476.96	4.573
477.31	5.300
477.66	4.551
478.01	5.222
478.36	5.447
478.70	4.676
479.05	5.000
479.40	5.299
479.75	5.109
480.10	5.274
480.45	5.200
480.79	5.539
481.14	5.891
481.49	5.320
481.84	4.778
482.19	4.677
482.53	4.892
482.88	5.632
483.23	5.038
483.58	5.094
483.92	4.840
484.27	5.242
484.62	5.110
484.97	4.892
485.31	4.697
485.66	4.970
486.01	5.087
486.36	4.891
486.70	5.081
487.05	4.936
487.40	5.093
487.75	5.465
488.09	4.728
488.44	5.158
488.79	5.304
489.13	5.569
489.48	5.045
489.83	5.381
490.17	5.258
490.52	4.850
490.87	5.322
491.22	5.683
491.56	4.412
491.91	4.876
492.26	5.202
492.60	5.278
492.95	5.312
493.30	4.690
493.64	5.157
493.99	6.039
494.34	4.369
494.68	5.619
495.03	4.915
495.37	5.103
495.72	5.401
496.07	5.366
496.41	4.717
496.76	4.698
497.11	5.123
497.45	5.585
497.80	5.499
498.14	5.614
498.49	5.028
498.84	5.289
499.18	5.572
499.53	5.407
499.87	4.572
500.22	5.292
500.56	5.245
500.91	5.271
501.26	4.647
501.60	4.968
501.95	5.095
502.29	5.230
502.64	5.405
502.98	5.328
503.33	4.899
503.67	5.398
504.02	5.718
504.36	5.789
504.71	5.303
505.06	5.536
505.40	4.772
505.75	5.773
506.09	5.170
506.44	5.801
506.78	5.816
507.13	5.791
507.47	4.961
507.82	4.808
508.16	5.335
508.51	5.666
508.85	5.338
509.19	4.258
509.54	5.523
509.88	5.502
510.23	5.325
510.57	6.200
510.92	4.691
511.26	5.292
511.61	5.501
511.95	5.589
512.30	5.765
512.64	5.899
512.98	4.829
513.33	6.100
513.67	5.287
514.02	6.407
514.36	6.686
514.70	6.410
515.05	6.228
515.39	5.667
515.74	5.928
516.08	5.918
516.42	5.713
516.77	6.027
517.11	5.935
517.46	6.044
517.80	5.662
518.14	5.818
518.49	6.430
518.83	5.529
519.17	5.518
519.52	5.210
519.86	5.342
520.20	6.136
520.55	5.754
520.89	6.399
521.23	5.636
521.58	6.435
521.92	5.769
522.26	4.945
522.61	5.714
522.95	6.291
523.29	6.353
523.64	5.972
523.98	6.222
524.32	4.639
524.66	5.570
525.01	6.299
525.35	6.286
525.69	5.657
526.04	5.886
526.38	6.809
526.72	5.952
527.06	5.966
527.41	6.135
527.75	5.161
528.09	6.312
528.43	7.427
528.78	5.611
529.12	5.871
529.46	5.003
529.80	6.206
530.15	6.271
530.49	5.859
530.83	6.088
531.17	6.313
531.51	5.951
531.86	5.438
532.20	5.567
532.54	5.922
532.88	6.229
533.22	6.452
533.57	6.488
533.91	5.548
534.25	6.966
534.59	6.543
534.93	5.916
535.27	6.345
535.62	6.027
535.96	6.719
536.30	6.860
536.64	5.858
536.98	6.063
537.32	6.615
537.66	6.662
538.01	6.573
538.35	6.241
538.69	6.658
539.03	5.673
539.37	6.393
539.71	5.726
540.05	5.974
540.39	6.025
540.73	6.276
541.07	6.077
541.42	6.519
541.76	6.194
542.10	6.263
542.44	6.046
542.78	5.506
543.12	6.456
543.46	7.302
543.80	6.454
544.14	5.474
544.48	6.262
544.82	6.015
545.16	6.967
545.50	7.343
545.84	7.082
546.18	6.312
546.52	6.345
546.86	5.320
547.20	6.581
547.54	6.431
547.88	6.929
548.22	5.523
548.56	6.464
548.90	6.739
549.24	5.992
549.58	6.700
549.92	6.004
550.26	6.667
550.60	5.799
550.94	6.124
551.28	6.569
551.62	5.846
551.96	6.692
552.30	5.994
552.64	6.276
552.98	6.118
553.32	5.991
553.66	6.096
554.00	5.839
554.34	6.942
554.68	6.121
555.02	6.920
555.36	5.834
555.69	5.275
556.03	6.281
556.37	5.907
556.71	6.787
557.05	6.786
557.39	6.245
557.73	6.297
558.07	7.240
558.41	5.896
558.75	6.080
559.08	5.674
559.42	6.111
559.76	6.405
560.10	5.963
560.44	6.031
560.78	6.364
561.12	6.488
561.45	6.044
561.79	6.863
562.13	6.955
562.47	5.252
562.81	4.899
563.15	7.052
563.48	6.931
563.82	7.344
564.16	6.685
564.50	6.284
564.84	6.827
565.17	5.835
565.51	6.626
565.85	6.722
566.19	7.162
566.52	6.233
566.86	7.391
567.20	5.542
567.54	6.448
567.88	6.093
568.21	6.505
568.55	5.598
568.89	6.211
569.23	6.644
569.56	6.918
569.90	6.131
570.24	6.252
570.57	6.000
570.91	6.797
571.25	6.084
571.59	6.073
571.92	6.341
572.26	5.948
572.60	6.357
572.93	6.244
573.27	6.270
573.61	6.384
573.95	6.335
574.28	6.303
574.62	6.051
574.96	6.058
575.29	6.083
575.63	6.064
575.97	6.099
576.30	6.073
576.64	6.199
576.98	6.306
577.31	6.046
577.65	6.583
577.98	6.171
578.32	6.006
578.66	6.383
578.99	6.224
579.33	5.521
579.67	5.955
580.00	6.557
580.34	5.821
580.67	6.108
581.01	6.364
581.35	6.223
581.68	6.022
582.02	5.744
582.35	5.980
582.69	6.136
583.02	5.789
583.36	6.151
583.70	6.205
584.03	6.144
584.37	6.324
584.70	6.209
585.04	5.855
585.37	6.388
585.71	5.999
586.04	6.203
586.38	5.628
586.72	6.399
587.05	5.893
587.39	6.402
587.72	6.479
588.06	6.089
588.39	6.209
588.73	6.197
589.06	6.686
589.40	6.498
589.73	6.572
590.07	6.344
590.40	7.005
590.73	6.260
591.07	6.022
591.40	5.966
591.74	6.742
592.07	7.096
592.41	6.979
592.74	6.213
593.08	5.798
593.41	6.096
593.75	6.052
594.08	6.214
594.41	6.914
594.75	5.916
595.08	6.281
595.42	6.036
595.75	6.759
596.09	6.216
596.42	6.366
596.75	6.261
597.09	6.560
597.42	6.233
597.75	6.047
598.09	6.790
598.42	6.408
598.76	6.049
599.09	6.050
599.42	6.404
599.76	6.847
600.09	6.109
600.42	6.027
600.76	6.092
601.09	5.802
601.42	5.836
601.76	6.114
602.09	6.229
602.42	6.866
602.76	5.857
603.09	6.188
603.42	6.689
603.76	6.048
604.09	5.751
604.42	6.091
604.76	6.320
605.09	6.170
605.42	6.321
605.75	6.086
606.09	6.157
606.42	6.214
606.75	6.753
607.09	6.549
607.42	6.070
607.75	6.083
608.08	6.110
608.42	6.944
608.75	6.169
609.08	6.278
609.41	7.157
609.75	6.804
610.08	6.291
610.41	6.087
610.74	5.851
611.07	5.840
611.41	6.124
611.74	6.930
612.07	6.370
612.40	6.072
612.73	5.876
613.07	6.580
613.40	7.057
613.73	5.428
614.06	6.233
614.39	6.486
614.72	6.218
615.06	6.816
615.39	6.550
615.72	6.943
616.05	6.816
616.38	5.641
616.71	5.627
617.05	6.362
617.38	6.725
617.71	5.912
618.04	7.048
618.37	6.999
618.70	6.733
619.03	7.361
619.36	5.499
619.69	6.444
620.03	7.451
620.36	6.295
620.69	6.995
621.02	6.193
621.35	6.805
621.68	6.378
622.01	7.083
622.34	6.305
622.67	7.492
623.00	6.585
623.33	6.555
623.66	6.657
623.99	6.430
624.32	6.464
624.65	6.090
624.99	6.170
625.32	6.217
625.65	7.541
625.98	6.849
626.31	5.819
626.64	6.326
626.97	6.545
627.30	6.655
627.63	6.932
627.96	7.098
628.29	6.753
628.62	6.785
628.95	6.513
629.28	6.552
629.61	5.384
629.94	6.940
630.26	7.016
630.59	6.452
630.92	6.769
631.25	7.385
631.58	7.819
631.91	5.154
632.24	6.078
632.57	6.705
632.90	6.050
633.23	7.294
633.56	6.171
633.89	7.398
634.22	6.667
634.55	5.718
634.88	6.386
635.20	5.897
635.53	6.133
635.86	5.202
636.19	7.374
636.52	6.760
636.85	5.459
637.18	6.541
637.51	5.912
637.83	6.965
638.16	8.186
638.49	4.768
638.82	8.684
639.15	5.834
639.48	6.052
639.81	7.252
640.13	6.494
640.46	6.706
640.79	5.744
641.12	6.056
641.45	5.856
641.77	6.963
642.10	8.689
642.43	6.431
642.76	6.106
643.09	7.754
643.41	5.016
643.74	8.237
644.07	9.360
644.40	7.095
644.73	6.130
645.05	5.872
645.38	6.702
645.71	6.560
646.04	7.181
646.36	6.028
646.69	7.914
647.02	8.129
647.35	8.582
647.67	7.495
648.00	8.582
648.33	8.532
648.66	6.271
648.98	4.355
649.31	5.289
649.64	7.221
649.96	4.862
650.29	7.325
650.62	7.692
650.94	3.889
651.27	6.331
651.60	6.486
651.92	6.818
652.25	5.329
652.58	7.667
652.90	7.547
653.23	5.210
653.56	5.922
653.88	6.701
654.21	4.904
654.54	4.924
654.86	7.131
655.19	5.409
655.52	6.192
655.84	5.974
656.17	6.131
656.49	8.441
656.82	8.782
657.15	6.884
657.47	5.366
657.80	3.894
658.13	3.929
658.45	6.187
