SpectraSuite Data File
++++++++++++++++++++++++++++++++++++
Date: Fri May 15 20:58:17 PDT 2015
User: schluterlab
Dark Spectrum Present: Yes
Reference Spectrum Present: Yes
Number of Sampled Component Spectra: 1
Spectrometers: USB2E3373
Integration Time (usec): 3000 (USB2E3373)
Spectra Averaged: 3 (USB2E3373)
Boxcar Smoothing: 0 (USB2E3373)
Correct for Electrical Dark: No (USB2E3373)
Strobe/Lamp Enabled: No (USB2E3373)
Correct for Detector Non-linearity: No (USB2E3373)
Correct for Stray Light: No (USB2E3373)
Number of Pixels in Processed Spectrum: 2048
>>>>>Begin Processed Spectral Data<<<<<
178.53	0.000
178.91	0.000
179.29	50.000
179.67	-500.000
180.04	-28.571
180.42	75.000
180.80	-700.000
181.18	-66.667
181.56	250.000
181.94	-200.000
182.31	400.000
182.69	-60.000
183.07	-333.333
183.45	-20.000
183.83	133.333
184.20	9.091
184.58	133.333
184.96	125.000
185.34	66.667
185.72	-500.000
186.09	115.385
186.47	-100.000
186.85	416.667
187.23	166.667
187.61	100.000
187.98	-166.667
188.36	77.778
188.74	-233.333
189.12	23.529
189.49	-11.111
189.87	0.000
190.25	14.286
190.63	-150.000
191.00	-200.000
191.38	47.368
191.76	150.000
192.14	175.000
192.51	100.000
192.89	-77.778
193.27	-85.714
193.65	216.667
194.02	145.455
194.40	-20.000
194.78	0.000
195.15	-8.333
195.53	-75.000
195.91	450.000
196.29	-400.000
196.66	92.308
197.04	85.714
197.42	-33.333
197.79	-366.667
198.17	-169.231
198.55	1200.000
198.92	-166.667
199.30	900.000
199.68	-160.000
200.05	-366.667
200.43	0.000
200.81	-566.667
201.18	-133.333
201.56	1000.000
201.94	-450.000
202.31	-66.667
202.69	-140.000
203.07	275.000
203.44	-200.000
203.82	0.000
204.19	71.429
204.57	-500.000
204.95	137.500
205.32	130.000
205.70	-85.714
206.08	0.000
206.45	88.889
206.83	114.286
207.20	-28.571
207.58	-700.000
207.96	-266.667
208.33	-50.000
208.71	25.000
209.08	66.667
209.46	-700.000
209.84	-220.000
210.21	-1500.000
210.59	28.571
210.96	-33.333
211.34	-300.000
211.71	20.000
212.09	28.571
212.46	-1700.000
212.84	0.000
213.22	30.000
213.59	300.000
213.97	7.692
214.34	-36.364
214.72	-116.667
215.09	225.000
215.47	0.000
215.84	-63.636
216.22	-33.333
216.59	-62.500
216.97	-150.000
217.34	50.000
217.72	-120.000
218.09	50.000
218.47	137.500
218.84	-400.000
219.22	-133.333
219.59	-100.000
219.97	466.667
220.34	150.000
220.72	14.286
221.09	-325.000
221.47	0.000
221.84	-750.000
222.22	-600.000
222.59	0.000
222.97	41.667
223.34	-100.000
223.72	-57.143
224.09	-14.286
224.46	14.286
224.84	333.333
225.21	70.000
225.59	6.667
225.96	-300.000
226.34	575.000
226.71	-242.857
227.08	-150.000
227.46	-62.500
227.83	-550.000
228.21	-111.111
228.58	-18.182
228.95	-100.000
229.33	200.000
229.70	43.750
230.08	-212.500
230.45	14.286
230.82	14.286
231.20	-140.000
231.57	7.143
231.95	-142.857
232.32	-70.000
232.69	14.286
233.07	266.667
233.44	-80.000
233.81	-90.000
234.19	-33.333
234.56	5.882
234.93	150.000
235.31	-150.000
235.68	-480.000
236.05	-76.923
236.43	-65.000
236.80	23.529
237.17	31.250
237.55	-10.000
237.92	-40.741
238.29	-13.889
238.67	6.667
239.04	11.765
239.41	-14.634
239.79	-43.333
240.16	14.634
240.53	-36.842
240.91	-10.870
241.28	-15.873
241.65	-8.929
242.02	5.479
242.40	1.667
242.77	6.780
243.14	-19.697
243.51	-1.250
243.89	16.092
244.26	-16.092
244.63	0.000
245.00	-12.371
245.38	2.062
245.75	-13.483
246.12	-6.034
246.49	0.000
246.87	3.846
247.24	-10.924
247.61	-8.772
247.98	-13.008
248.36	-1.250
248.73	-3.289
249.10	-2.597
249.47	-0.633
249.84	-5.882
250.22	-2.941
250.59	0.000
250.96	1.878
251.33	-4.651
251.70	-1.176
252.08	-4.061
252.45	-2.475
252.82	-3.015
253.19	-4.608
253.56	-7.477
253.94	-0.450
254.31	-0.870
254.68	-0.877
255.05	-0.787
255.42	-4.803
255.79	3.861
256.16	1.167
256.54	-1.119
256.91	0.000
257.28	-1.115
257.65	-3.371
258.02	-2.482
258.39	-0.673
258.76	0.366
259.14	2.658
259.51	1.942
259.88	-1.375
260.25	-1.307
260.62	-0.347
260.99	-4.068
261.36	-0.685
261.73	-3.165
262.10	-2.736
262.47	-1.840
262.85	-2.821
263.22	-0.923
263.59	0.312
263.96	0.000
264.33	-3.333
264.70	-1.190
265.07	-2.083
265.44	1.983
265.81	-1.977
266.18	-1.093
266.55	1.285
266.92	-1.554
267.29	-2.350
267.66	-0.512
268.03	-2.880
268.40	-1.044
268.77	2.406
269.14	2.878
269.51	1.028
269.88	-1.496
270.25	-2.041
270.62	-0.976
270.99	-1.279
271.36	-3.423
271.73	-0.235
272.10	0.000
272.47	-1.182
272.84	-0.990
273.21	-0.928
273.58	-0.964
273.95	2.059
274.32	-2.540
274.69	-0.905
275.06	1.563
275.43	-1.587
275.80	0.662
276.17	-2.989
276.54	0.428
276.91	-0.877
277.28	-1.528
277.65	1.033
278.02	-0.638
278.39	-1.532
278.76	-1.258
279.13	-3.942
279.50	0.630
279.87	-0.648
280.23	-3.226
280.60	1.754
280.97	0.606
281.34	-0.962
281.71	1.437
282.08	-3.067
282.45	-1.370
282.82	-0.772
283.19	-0.967
283.56	-0.193
283.92	-1.518
284.29	-0.577
284.66	-1.550
285.03	-0.393
285.40	-1.890
285.77	-2.109
286.14	0.361
286.51	1.476
286.87	-1.097
287.24	-2.026
287.61	-1.235
287.98	2.105
288.35	-0.867
288.72	-0.175
289.08	-1.389
289.45	1.582
289.82	-0.699
290.19	-2.218
290.56	-1.715
290.93	0.000
291.29	-0.154
291.66	0.472
292.03	-0.638
292.40	0.161
292.77	0.957
293.13	-2.597
293.50	-0.455
293.87	0.305
294.24	0.464
294.60	0.298
294.97	-0.298
295.34	-0.153
295.71	1.341
296.08	-0.747
296.44	-1.565
296.81	-0.139
297.18	0.145
297.55	0.949
297.91	-0.959
298.28	0.528
298.65	-0.543
299.02	1.213
299.38	-2.462
299.75	-1.241
300.12	-1.047
300.48	-1.449
300.85	0.507
301.22	-0.779
301.59	-0.132
301.95	1.139
302.32	0.649
302.69	0.000
303.05	-0.371
303.42	0.623
303.79	0.467
304.15	0.836
304.52	-0.119
304.89	-0.468
305.25	0.847
305.62	-0.467
305.99	-0.585
306.35	0.231
306.72	-1.012
307.09	0.000
307.45	0.918
307.82	-0.926
308.19	-0.116
308.55	0.000
308.92	0.763
309.29	-1.453
309.65	0.108
310.02	0.990
310.38	0.220
310.75	-0.109
311.12	0.108
311.48	0.636
311.85	0.628
312.22	0.949
312.58	0.318
312.95	0.320
313.31	0.207
313.68	0.209
314.05	-0.816
314.41	1.649
314.78	1.134
315.14	1.028
315.51	2.484
315.87	1.230
316.24	3.438
316.61	2.756
316.97	1.786
317.34	3.223
317.70	2.294
318.07	2.981
318.43	3.235
318.80	4.167
319.16	4.004
319.53	4.368
319.89	4.429
320.26	5.263
320.62	6.018
320.99	5.637
321.35	5.550
321.72	8.411
322.08	7.452
322.45	8.731
322.81	7.760
323.18	7.164
323.54	8.398
323.91	9.348
324.27	9.863
324.64	11.423
325.00	11.770
325.37	13.590
325.73	12.239
326.10	14.532
326.46	15.426
326.83	15.398
327.19	15.257
327.56	16.247
327.92	16.549
328.29	16.607
328.65	17.736
329.01	17.923
329.38	19.908
329.74	18.225
330.11	19.277
330.47	19.481
330.84	20.288
331.20	21.673
331.56	20.278
331.93	22.648
332.29	22.365
332.66	23.348
333.02	21.747
333.38	22.090
333.75	22.070
334.11	23.545
334.48	24.569
334.84	23.168
335.20	23.605
335.57	23.391
335.93	25.294
336.29	26.059
336.66	24.342
337.02	25.372
337.38	25.370
337.75	25.273
338.11	26.240
338.47	26.095
338.84	25.601
339.20	26.051
339.56	26.606
339.93	25.694
340.29	26.422
340.65	27.419
341.02	26.507
341.38	26.283
341.74	25.530
342.11	25.737
342.47	27.135
342.83	26.211
343.20	26.045
343.56	26.870
343.92	25.952
344.28	27.071
344.65	26.166
345.01	26.102
345.37	26.493
345.73	27.531
346.10	27.437
346.46	27.334
346.82	26.432
347.19	26.434
347.55	27.151
347.91	27.751
348.27	26.677
348.63	27.768
349.00	26.497
349.36	27.348
349.72	27.778
350.08	25.902
350.45	27.294
350.81	26.495
351.17	26.384
351.53	27.592
351.89	27.002
352.26	26.960
352.62	26.935
352.98	26.345
353.34	26.490
353.70	27.994
354.07	27.339
354.43	27.702
354.79	26.920
355.15	27.381
355.51	27.057
355.87	27.427
356.24	25.204
356.60	27.405
356.96	27.063
357.32	25.479
357.68	25.801
358.04	27.060
358.40	26.929
358.77	27.193
359.13	27.702
359.49	25.886
359.85	26.755
360.21	27.273
360.57	27.774
360.93	26.021
361.29	25.529
361.66	27.665
362.02	27.955
362.38	26.885
362.74	26.268
363.10	27.540
363.46	26.168
363.82	27.423
364.18	26.642
364.54	25.221
364.90	26.953
365.26	26.419
365.62	27.007
365.98	26.393
366.35	26.657
366.71	27.125
367.07	27.213
367.43	25.521
367.79	26.643
368.15	26.561
368.51	26.657
368.87	25.485
369.23	25.271
369.59	26.676
369.95	26.026
370.31	25.795
370.67	26.119
371.03	24.272
371.39	24.872
371.75	25.495
372.11	26.248
372.47	26.849
372.83	27.679
373.19	25.892
373.55	25.199
373.91	25.918
374.27	25.726
374.63	25.987
374.99	24.255
375.35	26.323
375.71	26.434
376.07	25.562
376.42	26.190
376.78	26.242
377.14	24.645
377.50	24.967
377.86	24.900
378.22	26.101
378.58	24.679
378.94	24.197
379.30	25.515
379.66	24.953
380.02	24.770
380.38	23.798
380.74	24.357
381.09	25.276
381.45	25.015
381.81	24.923
382.17	24.873
382.53	24.485
382.89	25.675
383.25	25.327
383.61	24.390
383.97	24.571
384.32	25.141
384.68	24.396
385.04	23.162
385.40	23.584
385.76	24.277
386.12	24.515
386.48	23.627
386.83	23.716
387.19	23.993
387.55	22.961
387.91	23.105
388.27	23.443
388.62	24.040
388.98	23.082
389.34	23.985
389.70	23.928
390.06	22.152
390.42	22.798
390.77	22.695
391.13	22.068
391.49	23.351
391.85	22.547
392.20	22.159
392.56	20.725
392.92	22.842
393.28	22.642
393.64	22.042
393.99	23.135
394.35	22.138
394.71	21.839
395.07	21.307
395.42	21.797
395.78	21.238
396.14	22.131
396.50	21.497
396.85	21.571
397.21	21.115
397.57	21.254
397.92	21.210
398.28	21.494
398.64	20.904
399.00	21.332
399.35	20.034
399.71	20.908
400.07	21.161
400.42	20.257
400.78	21.678
401.14	21.234
401.49	21.024
401.85	19.988
402.21	20.241
402.57	20.562
402.92	19.197
403.28	20.238
403.63	20.050
403.99	19.898
404.35	19.988
404.70	19.643
405.06	19.565
405.42	20.075
405.77	19.059
406.13	19.674
406.49	19.005
406.84	19.682
407.20	19.446
407.55	18.867
407.91	18.249
408.27	19.630
408.62	19.569
408.98	18.977
409.34	19.021
409.69	18.669
410.05	17.796
410.40	18.951
410.76	19.240
411.11	18.125
411.47	17.949
411.83	17.702
412.18	17.375
412.54	18.040
412.89	17.857
413.25	17.810
413.60	17.329
413.96	17.607
414.31	18.354
414.67	17.062
415.03	16.045
415.38	17.493
415.74	18.046
416.09	17.505
416.45	17.353
416.80	17.449
417.16	17.334
417.51	17.655
417.87	16.558
418.22	17.552
418.58	16.990
418.93	17.555
419.29	16.133
419.64	15.813
420.00	17.003
420.35	16.836
420.71	17.315
421.06	16.882
421.42	16.346
421.77	16.821
422.12	15.551
422.48	16.297
422.83	16.299
423.19	16.930
423.54	16.520
423.90	15.489
424.25	16.303
424.61	16.095
424.96	16.725
425.31	16.118
425.67	15.610
426.02	16.254
426.38	15.967
426.73	16.525
427.09	16.013
427.44	15.588
427.79	15.557
428.15	16.444
428.50	15.203
428.85	15.418
429.21	16.412
429.56	16.173
429.92	15.614
430.27	15.689
430.62	15.003
430.98	15.127
431.33	16.246
431.68	15.908
432.04	15.204
432.39	15.516
432.74	13.710
433.10	15.632
433.45	14.695
433.80	14.916
434.16	14.626
434.51	15.108
434.86	15.041
435.22	15.536
435.57	15.221
435.92	14.790
436.28	14.550
436.63	15.573
436.98	14.195
437.34	13.793
437.69	14.908
438.04	15.214
438.39	14.111
438.75	14.390
439.10	14.261
439.45	15.094
439.81	14.067
440.16	15.024
440.51	15.104
440.86	15.468
441.22	14.423
441.57	14.183
441.92	14.271
442.27	14.856
442.63	15.364
442.98	14.245
443.33	14.580
443.68	15.013
444.03	14.953
444.39	14.412
444.74	14.827
445.09	14.532
445.44	14.017
445.79	14.853
446.15	14.703
446.50	13.810
446.85	14.612
447.20	14.286
447.55	14.621
447.91	13.988
448.26	14.570
448.61	14.335
448.96	14.515
449.31	14.393
449.66	13.937
450.02	14.375
450.37	13.159
450.72	14.089
451.07	13.861
451.42	14.170
451.77	13.683
452.12	12.620
452.47	13.522
452.83	13.251
453.18	13.599
453.53	13.654
453.88	14.147
454.23	13.891
454.58	14.106
454.93	13.982
455.28	12.952
455.63	14.197
455.98	13.410
456.34	13.027
456.69	13.151
457.04	14.178
457.39	13.426
457.74	13.120
458.09	12.301
458.44	12.756
458.79	13.165
459.14	13.959
459.49	13.731
459.84	13.424
460.19	12.925
460.54	13.264
460.89	13.807
461.24	12.857
461.59	12.886
461.94	12.201
462.29	13.812
462.64	13.223
462.99	13.609
463.34	12.100
463.69	12.870
464.04	13.136
464.39	12.674
464.74	13.497
465.09	12.789
465.44	13.733
465.79	11.338
466.14	12.714
466.49	12.536
466.84	12.968
467.19	13.705
467.54	12.644
467.89	12.887
468.24	12.591
468.59	14.222
468.94	12.254
469.29	12.984
469.64	13.671
469.99	13.315
470.34	11.468
470.68	13.050
471.03	13.447
471.38	12.553
471.73	12.465
472.08	11.805
472.43	11.275
472.78	12.269
473.13	12.993
473.48	11.726
473.83	12.142
474.17	13.342
474.52	11.806
474.87	12.848
475.22	12.874
475.57	11.519
475.92	12.287
476.27	12.049
476.61	11.979
476.96	11.880
477.31	12.439
477.66	11.461
478.01	11.454
478.36	12.418
478.70	11.909
479.05	12.473
479.40	12.242
479.75	12.044
480.10	11.930
480.45	11.300
480.79	11.833
481.14	11.834
481.49	11.429
481.84	11.197
482.19	11.833
482.53	11.703
482.88	12.267
483.23	11.804
483.58	11.509
483.92	11.036
484.27	11.030
484.62	11.699
484.97	10.697
485.31	10.658
485.66	10.774
486.01	10.744
486.36	10.733
486.70	10.865
487.05	10.900
487.40	11.117
487.75	11.211
488.09	10.569
488.44	10.660
488.79	11.319
489.13	11.779
489.48	11.159
489.83	10.673
490.17	10.787
490.52	10.762
490.87	11.013
491.22	11.318
491.56	10.674
491.91	11.281
492.26	11.327
492.60	11.516
492.95	11.510
493.30	10.650
493.64	10.806
493.99	10.870
494.34	11.019
494.68	10.667
495.03	10.852
495.37	10.500
495.72	10.752
496.07	11.073
496.41	10.849
496.76	10.686
497.11	10.154
497.45	10.692
497.80	10.949
498.14	10.283
498.49	10.818
498.84	11.228
499.18	10.643
499.53	11.161
499.87	10.360
500.22	10.188
500.56	10.640
500.91	10.341
501.26	10.232
501.60	10.871
501.95	10.432
502.29	10.412
502.64	10.376
502.98	9.965
503.33	9.798
503.67	9.976
504.02	10.068
504.36	10.638
504.71	9.798
505.06	10.468
505.40	9.797
505.75	10.206
506.09	10.441
506.44	10.370
506.78	10.765
507.13	11.013
507.47	8.668
507.82	9.241
508.16	9.562
508.51	11.018
508.85	10.152
509.19	9.367
509.54	10.724
509.88	10.032
510.23	10.059
510.57	10.262
510.92	9.009
511.26	9.547
511.61	9.901
511.95	10.411
512.30	10.310
512.64	10.851
512.98	9.489
513.33	10.520
513.67	10.119
514.02	10.355
514.36	10.571
514.70	10.839
515.05	10.576
515.39	9.976
515.74	10.359
516.08	10.042
516.42	10.483
516.77	10.650
517.11	9.674
517.46	9.755
517.80	10.429
518.14	10.104
518.49	10.757
518.83	10.267
519.17	9.278
519.52	9.295
519.86	9.844
520.20	10.510
520.55	8.943
520.89	10.100
521.23	9.246
521.58	10.221
521.92	9.808
522.26	8.848
522.61	9.545
522.95	9.868
523.29	9.975
523.64	10.356
523.98	9.916
524.32	9.149
524.66	10.499
525.01	10.584
525.35	10.240
525.69	9.562
526.04	9.590
526.38	10.895
526.72	8.895
527.06	10.182
527.41	10.356
527.75	8.512
528.09	9.635
528.43	10.128
528.78	9.043
529.12	9.677
529.46	8.642
529.80	9.943
530.15	9.637
530.49	10.101
530.83	9.029
531.17	9.268
531.51	10.055
531.86	8.430
532.20	8.490
532.54	9.326
532.88	9.925
533.22	10.148
533.57	9.567
533.91	8.943
534.25	8.919
534.59	8.659
534.93	8.370
535.27	8.503
535.62	8.944
535.96	9.002
536.30	9.169
536.64	8.753
536.98	9.477
537.32	9.815
537.66	10.028
538.01	9.441
538.35	8.530
538.69	9.920
539.03	8.817
539.37	9.421
539.71	8.930
540.05	8.282
540.39	9.349
540.73	8.368
541.07	9.807
541.42	10.349
541.76	8.259
542.10	8.672
542.44	8.478
542.78	7.983
543.12	8.585
543.46	8.623
543.80	9.299
544.14	8.144
544.48	8.661
544.82	9.091
545.16	8.948
545.50	9.146
545.84	9.561
546.18	8.440
546.52	8.363
546.86	9.274
547.20	8.083
547.54	8.057
547.88	8.152
548.22	8.153
548.56	8.773
548.90	8.760
549.24	8.196
549.58	8.674
549.92	7.791
550.26	8.718
550.60	8.327
550.94	8.066
551.28	7.883
551.62	8.385
551.96	8.947
552.30	7.310
552.64	9.168
552.98	9.142
553.32	9.058
553.66	7.402
554.00	8.467
554.34	8.419
554.68	8.555
555.02	9.896
555.36	7.330
555.69	8.278
556.03	7.780
556.37	8.114
556.71	8.881
557.05	7.681
557.39	8.030
557.73	8.021
558.07	8.673
558.41	7.580
558.75	8.184
559.08	7.565
559.42	8.492
559.76	8.807
560.10	8.716
560.44	7.446
560.78	7.762
561.12	8.745
561.45	7.941
561.79	7.073
562.13	7.381
562.47	7.842
562.81	7.565
563.15	8.181
563.48	8.345
563.82	8.648
564.16	8.008
564.50	7.770
564.84	8.367
565.17	7.243
565.51	8.265
565.85	8.025
566.19	7.958
566.52	7.976
566.86	8.483
567.20	7.410
567.54	7.238
567.88	7.616
568.21	7.805
568.55	7.337
568.89	8.008
569.23	7.703
569.56	7.837
569.90	7.592
570.24	7.146
570.57	7.309
570.91	7.459
571.25	7.070
571.59	6.976
571.92	6.874
572.26	6.763
572.60	7.194
572.93	7.405
573.27	6.740
573.61	7.011
573.95	7.291
574.28	6.488
574.62	6.890
574.96	7.056
575.29	6.663
575.63	6.763
575.97	6.723
576.30	6.832
576.64	6.728
576.98	7.284
577.31	6.881
577.65	6.835
577.98	6.889
578.32	6.403
578.66	6.727
578.99	6.832
579.33	6.870
579.67	6.586
580.00	6.456
580.34	6.567
580.67	6.726
581.01	6.868
581.35	6.417
581.68	6.849
582.02	6.442
582.35	6.574
582.69	6.506
583.02	6.537
583.36	6.671
583.70	6.854
584.03	6.895
584.37	7.030
584.70	6.621
585.04	6.528
585.37	6.904
585.71	6.640
586.04	6.455
586.38	6.535
586.72	6.829
587.05	6.788
587.39	7.073
587.72	6.862
588.06	6.726
588.39	6.693
588.73	6.777
589.06	7.241
589.40	7.052
589.73	7.448
590.07	6.911
590.40	7.005
590.73	6.960
591.07	7.082
591.40	6.679
591.74	7.376
592.07	7.514
592.41	7.023
592.74	6.810
593.08	6.881
593.41	6.787
593.75	6.804
594.08	6.317
594.41	6.550
594.75	6.374
595.08	6.508
595.42	7.103
595.75	7.210
596.09	6.959
596.42	6.862
596.75	6.572
597.09	7.380
597.42	7.046
597.75	7.009
598.09	7.153
598.42	7.040
598.76	6.521
599.09	7.252
599.42	6.859
599.76	6.772
600.09	6.637
600.42	6.558
600.76	6.835
601.09	6.260
601.42	6.502
601.76	6.709
602.09	6.559
602.42	7.456
602.76	6.579
603.09	6.354
603.42	7.065
603.76	6.048
604.09	6.440
604.42	7.107
604.76	7.076
605.09	7.313
605.42	7.269
605.75	5.998
606.09	6.539
606.42	7.214
606.75	6.320
607.09	7.121
607.42	6.292
607.75	6.616
608.08	6.649
608.42	6.761
608.75	6.602
609.08	6.677
609.41	6.853
609.75	6.956
610.08	6.840
610.41	6.522
610.74	6.631
611.07	6.770
611.41	6.694
611.74	7.143
612.07	6.424
612.40	6.947
612.73	6.497
613.07	6.693
613.40	7.768
613.73	6.212
614.06	6.400
614.39	6.712
614.72	6.275
615.06	6.927
615.39	6.496
615.72	6.351
616.05	6.704
616.38	5.527
616.71	5.994
617.05	7.103
617.38	7.354
617.71	6.415
618.04	6.730
618.37	7.188
618.70	6.799
619.03	8.194
619.36	6.729
619.69	6.672
620.03	7.451
620.36	6.724
620.69	7.352
621.02	7.645
621.35	6.805
621.68	7.313
622.01	6.917
622.34	7.023
622.67	6.625
623.00	7.198
623.33	7.470
623.66	6.657
623.99	6.657
624.32	6.996
624.65	6.842
624.99	7.148
625.32	5.914
625.65	7.698
625.98	7.816
626.31	6.151
626.64	7.452
626.97	8.028
627.30	7.268
627.63	7.279
627.96	6.828
628.29	7.401
628.62	6.883
628.95	6.413
629.28	7.964
629.61	6.082
629.94	7.527
630.26	5.731
630.59	6.972
630.92	7.897
631.25	7.590
631.58	6.938
631.91	6.360
632.24	6.766
632.57	6.932
632.90	6.762
633.23	6.941
633.56	5.290
633.89	6.289
634.22	7.778
634.55	6.226
634.88	6.003
635.20	7.179
635.53	6.267
635.86	7.152
636.19	5.692
636.52	5.485
636.85	6.452
637.18	6.415
637.51	6.792
637.83	7.884
638.16	6.685
638.49	7.221
638.82	8.026
639.15	7.598
639.48	7.290
639.81	7.113
640.13	5.483
640.46	7.580
640.79	5.449
641.12	7.976
641.45	5.856
641.77	7.704
642.10	8.689
642.43	7.235
642.76	6.271
643.09	7.916
