SpectraSuite Data File
++++++++++++++++++++++++++++++++++++
Date: Fri May 15 20:47:45 PDT 2015
User: schluterlab
Dark Spectrum Present: Yes
Reference Spectrum Present: Yes
Number of Sampled Component Spectra: 1
Spectrometers: USB2E3373
Integration Time (usec): 3000 (USB2E3373)
Spectra Averaged: 3 (USB2E3373)
Boxcar Smoothing: 0 (USB2E3373)
Correct for Electrical Dark: No (USB2E3373)
Strobe/Lamp Enabled: No (USB2E3373)
Correct for Detector Non-linearity: No (USB2E3373)
Correct for Stray Light: No (USB2E3373)
Number of Pixels in Processed Spectrum: 2048
>>>>>Begin Processed Spectral Data<<<<<
178.53	0.000
178.91	0.000
179.29	50.000
179.67	-650.000
180.04	57.143
180.42	25.000
180.80	-1300.000
181.18	266.667
181.56	500.000
181.94	-450.000
182.31	1900.000
182.69	-140.000
183.07	-233.333
183.45	-20.000
183.83	-66.667
184.20	-100.000
184.58	133.333
184.96	250.000
185.34	166.667
185.72	-250.000
186.09	61.538
186.47	-100.000
186.85	116.667
187.23	166.667
187.61	400.000
187.98	-566.667
188.36	-144.444
188.74	-466.667
189.12	35.294
189.49	22.222
189.87	0.000
190.25	28.571
190.63	-250.000
191.00	-500.000
191.38	-31.579
191.76	-350.000
192.14	100.000
192.51	-350.000
192.89	-122.222
193.27	-71.429
193.65	200.000
194.02	227.273
194.40	-10.000
194.78	-37.500
195.15	-83.333
195.53	-150.000
195.91	400.000
196.29	-325.000
196.66	169.231
197.04	228.571
197.42	-66.667
197.79	-733.333
198.17	-138.462
198.55	1700.000
198.92	-633.333
199.30	-600.000
199.68	-160.000
200.05	-366.667
200.43	0.000
200.81	-400.000
201.18	-400.000
201.56	1100.000
201.94	-100.000
202.31	66.667
202.69	-120.000
203.07	275.000
203.44	-900.000
203.82	0.000
204.19	7.143
204.57	-733.333
204.95	125.000
205.32	-70.000
205.70	14.286
206.08	-150.000
206.45	133.333
206.83	14.286
207.20	-114.286
207.58	600.000
207.96	-533.333
208.33	-170.000
208.71	50.000
209.08	-183.333
209.46	-600.000
209.84	-160.000
210.21	-1600.000
210.59	185.714
210.96	50.000
211.34	-25.000
211.71	-6.667
212.09	-228.571
212.46	-900.000
212.84	0.000
213.22	10.000
213.59	500.000
213.97	69.231
214.34	-45.455
214.72	16.667
215.09	250.000
215.47	-53.846
215.84	-36.364
216.22	-133.333
216.59	-12.500
216.97	-450.000
217.34	-175.000
217.72	-420.000
218.09	-37.500
218.47	162.500
218.84	-400.000
219.22	-55.556
219.59	60.000
219.97	400.000
220.34	225.000
220.72	-100.000
221.09	-275.000
221.47	-650.000
221.84	-950.000
222.22	-700.000
222.59	9.091
222.97	-8.333
223.34	-433.333
223.72	28.571
224.09	-33.333
224.46	-64.286
224.84	466.667
225.21	-110.000
225.59	26.667
225.96	-200.000
226.34	300.000
226.71	-242.857
227.08	-33.333
227.46	-75.000
227.83	-750.000
228.21	-122.222
228.58	9.091
228.95	-75.000
229.33	110.000
229.70	-25.000
230.08	-125.000
230.45	-157.143
230.82	71.429
231.20	-66.667
231.57	-28.571
231.95	-14.286
232.32	-90.000
232.69	-14.286
233.07	-333.333
233.44	-160.000
233.81	-120.000
234.19	-33.333
234.56	-5.882
234.93	300.000
235.31	-25.000
235.68	-80.000
236.05	-76.923
236.43	0.000
236.80	-52.941
237.17	21.875
237.55	40.000
237.92	-48.148
238.29	-22.222
238.67	-30.000
239.04	-8.824
239.41	-31.707
239.79	-6.667
240.16	12.195
240.53	-26.316
240.91	-21.739
241.28	0.000
241.65	12.500
242.02	6.849
242.40	-8.333
242.77	-11.864
243.14	-10.606
243.51	-8.750
243.89	5.747
244.26	-9.195
244.63	-2.381
245.00	-4.124
245.38	6.186
245.75	-16.854
246.12	-11.207
246.49	-1.653
246.87	-7.692
247.24	-0.840
247.61	-8.772
247.98	-7.317
248.36	-5.000
248.73	-7.237
249.10	-0.649
249.47	1.266
249.84	-9.804
250.22	1.176
250.59	-7.190
250.96	7.042
251.33	-6.977
251.70	1.176
252.08	-4.061
252.45	-3.465
252.82	0.000
253.19	5.069
253.56	-4.206
253.94	-2.703
254.31	-0.435
254.68	0.877
255.05	0.787
255.42	3.493
255.79	-1.544
256.16	-1.946
256.54	3.731
256.91	0.000
257.28	0.000
257.65	-3.745
258.02	-2.837
258.39	1.347
258.76	0.000
259.14	1.329
259.51	1.294
259.88	0.344
260.25	1.634
260.62	-0.347
260.99	-4.407
261.36	-0.685
261.73	0.316
262.10	0.912
262.47	-1.534
262.85	0.940
263.22	-3.385
263.59	-0.312
263.96	0.932
264.33	1.515
264.70	1.190
265.07	-1.190
265.44	1.416
265.81	-0.565
266.18	-1.366
266.55	2.828
266.92	0.259
267.29	0.783
267.66	0.512
268.03	0.524
268.40	-1.044
268.77	0.267
269.14	1.918
269.51	3.085
269.88	1.746
270.25	-1.786
270.62	0.244
270.99	-2.813
271.36	0.489
271.73	-1.408
272.10	0.000
272.47	0.000
272.84	1.485
273.21	2.320
273.58	2.651
273.95	0.000
274.32	0.924
274.69	1.131
275.06	1.563
275.43	4.308
275.80	-0.221
276.17	0.460
276.54	0.857
276.91	1.096
277.28	0.437
277.65	1.860
278.02	1.277
278.39	0.438
278.76	2.516
279.13	-2.490
279.50	1.261
279.87	0.648
280.23	0.215
280.60	3.119
280.97	0.404
281.34	2.692
281.71	2.669
282.08	-1.431
282.45	-1.370
282.82	1.158
283.19	-1.934
283.56	1.156
283.92	1.328
284.29	0.962
284.66	0.388
285.03	0.393
285.40	-0.189
285.77	0.351
286.14	1.083
286.51	1.292
286.87	1.097
287.24	0.368
287.61	-1.411
287.98	2.456
288.35	0.347
288.72	1.401
289.08	-0.521
289.45	2.988
289.82	2.098
290.19	2.048
290.56	1.201
290.93	0.337
291.29	0.770
291.66	1.575
292.03	0.797
292.40	1.774
292.77	0.159
293.13	-1.461
293.50	1.517
293.87	1.679
294.24	1.391
294.60	2.832
294.97	1.637
295.34	-0.920
295.71	1.639
296.08	1.345
296.44	-0.569
296.81	1.806
297.18	0.870
297.55	3.117
297.91	0.959
298.28	2.507
298.65	0.271
299.02	1.482
299.38	-0.274
299.75	0.000
300.12	0.131
300.48	-0.791
300.85	0.887
301.22	0.779
301.59	0.526
301.95	1.519
302.32	1.556
302.69	1.244
303.05	-0.248
303.42	0.125
303.79	1.519
304.15	1.314
304.52	0.357
304.89	0.234
305.25	0.969
305.62	-0.467
305.99	0.234
306.35	0.231
306.72	0.337
307.09	1.368
307.45	0.459
307.82	1.389
308.19	1.510
308.55	0.654
308.92	2.505
309.29	0.000
309.65	1.184
310.02	0.550
310.38	0.878
310.75	0.656
311.12	1.292
311.48	0.318
311.85	0.000
312.22	0.422
312.58	-0.106
312.95	0.213
313.31	-0.311
313.68	-0.419
314.05	0.102
314.41	0.722
314.78	0.722
315.14	1.850
315.51	0.621
315.87	0.615
316.24	1.921
316.61	1.575
316.97	1.190
317.34	1.562
317.70	1.338
318.07	0.962
318.43	1.373
318.80	0.663
319.16	1.367
319.53	1.994
319.89	0.394
320.26	0.506
320.62	1.505
320.99	0.313
321.35	1.233
321.72	2.908
322.08	1.108
322.45	1.421
322.81	0.000
323.18	1.766
323.54	0.290
323.91	1.655
324.27	1.465
324.64	1.779
325.00	1.642
325.37	2.112
325.73	1.632
326.10	1.362
326.46	2.691
326.83	1.050
327.19	1.482
327.56	1.477
327.92	1.761
328.29	2.054
328.65	1.698
329.01	1.654
329.38	1.382
329.74	1.511
330.11	2.039
330.47	0.464
330.84	0.481
331.20	2.852
331.56	2.685
331.93	2.374
332.29	1.925
332.66	1.719
333.02	2.323
333.38	1.008
333.75	2.656
334.11	0.985
334.48	2.085
334.84	3.114
335.20	1.464
335.57	1.179
335.93	1.897
336.29	2.302
336.66	1.998
337.02	2.045
337.38	1.204
337.75	0.909
338.11	1.894
338.47	2.555
338.84	1.571
339.20	2.651
339.56	1.651
339.93	2.507
340.29	3.119
340.65	2.599
341.02	2.039
341.38	2.212
341.74	0.618
342.11	1.473
342.47	0.890
342.83	2.163
343.20	1.220
343.56	2.348
343.92	1.240
344.28	2.733
344.65	2.073
345.01	1.642
345.37	2.355
345.73	3.515
346.10	1.984
346.46	2.775
346.82	2.782
347.19	1.081
347.55	2.256
347.91	2.832
348.27	2.183
348.63	1.874
349.00	1.231
349.36	2.328
349.72	2.156
350.08	2.869
350.45	2.314
350.81	0.831
351.17	2.036
351.53	1.388
351.89	1.073
352.26	2.080
352.62	2.742
352.98	1.285
353.34	1.610
353.70	1.942
354.07	1.935
354.43	1.041
354.79	0.578
355.15	2.698
355.51	2.453
355.87	2.427
356.24	1.142
356.60	2.264
356.96	1.667
357.32	2.796
357.68	1.955
358.04	0.727
358.40	0.965
358.77	1.914
359.13	0.961
359.49	0.924
359.85	3.042
360.21	0.478
360.57	1.683
360.93	2.194
361.29	1.284
361.66	2.273
362.02	2.424
362.38	2.361
362.74	1.363
363.10	2.107
363.46	1.779
363.82	2.554
364.18	2.288
364.54	1.397
364.90	1.362
365.26	1.019
365.62	2.336
365.98	2.199
366.35	1.966
366.71	2.587
367.07	3.120
367.43	1.582
367.79	2.544
368.15	1.866
368.51	2.112
368.87	1.005
369.23	0.650
369.59	1.239
369.95	2.126
370.31	1.734
370.67	1.642
371.03	1.046
371.39	2.042
371.75	1.392
372.11	2.282
372.47	1.405
372.83	1.632
373.19	2.853
373.55	1.733
373.91	2.016
374.27	1.772
374.63	1.651
374.99	1.277
375.35	2.368
375.71	2.517
376.07	1.615
376.42	1.973
376.78	2.282
377.14	1.422
377.50	1.859
377.86	1.673
378.22	1.787
378.58	1.731
378.94	1.827
379.30	2.121
379.66	2.320
380.02	2.085
380.38	1.522
380.74	1.556
381.09	2.945
381.45	1.713
381.81	1.110
382.17	1.967
382.53	1.999
382.89	1.193
383.25	2.240
383.61	1.890
383.97	1.143
384.32	1.814
384.68	1.672
385.04	1.716
385.40	1.369
385.76	2.075
386.12	2.264
386.48	2.363
386.83	1.966
387.19	2.259
387.55	2.572
387.91	1.834
388.27	1.832
388.62	1.573
388.98	2.271
389.34	2.936
389.70	2.424
390.06	1.133
390.42	1.684
390.77	1.635
391.13	1.387
391.49	2.393
391.85	0.780
392.20	1.569
392.56	1.971
392.92	1.644
393.28	1.592
393.64	1.622
393.99	3.135
394.35	1.392
394.71	2.490
395.07	1.508
395.42	2.247
395.78	1.629
396.14	2.333
396.50	1.649
396.85	1.996
397.21	1.942
397.57	1.317
397.92	2.576
398.28	2.069
398.64	2.108
399.00	2.032
399.35	2.088
399.71	2.412
400.07	1.814
400.42	2.448
400.78	2.756
401.14	2.783
401.49	2.085
401.85	1.706
402.21	2.590
402.57	1.938
402.92	1.694
403.28	2.068
403.63	1.892
403.99	1.913
404.35	1.874
404.70	1.786
405.06	1.821
405.42	2.486
405.77	1.104
406.13	1.455
406.49	1.895
406.84	1.711
407.20	2.589
407.55	1.481
407.91	2.206
408.27	1.530
408.62	2.462
408.98	2.341
409.34	1.921
409.69	1.744
410.05	1.170
410.40	2.037
410.76	2.292
411.11	2.125
411.47	1.775
411.83	1.632
412.18	1.544
412.54	1.685
412.89	2.401
413.25	1.986
413.60	2.112
413.96	2.025
414.31	2.927
414.67	1.604
415.03	2.264
415.38	1.828
415.74	2.150
416.09	2.613
416.45	2.566
416.80	1.917
417.16	2.141
417.51	2.865
417.87	1.695
418.22	2.073
418.58	2.408
418.93	2.821
419.29	1.536
419.64	1.620
420.00	2.519
420.35	2.269
420.71	1.944
421.06	2.026
421.42	1.863
421.77	1.618
422.12	2.440
422.48	2.545
422.83	2.262
423.19	2.540
423.54	1.764
423.90	2.297
424.25	2.239
424.61	2.938
424.96	2.323
425.31	2.311
425.67	2.230
426.02	3.357
426.38	2.129
426.73	2.119
427.09	2.152
427.44	2.765
427.79	1.886
428.15	2.791
428.50	1.696
428.85	2.088
429.21	2.490
429.56	2.210
429.92	3.133
430.27	2.556
430.62	1.568
430.98	2.123
431.33	3.312
431.68	2.302
432.04	1.509
432.39	2.624
432.74	1.443
433.10	2.586
433.45	1.792
433.80	2.263
434.16	1.551
434.51	2.634
434.86	2.091
435.22	2.636
435.57	1.560
435.92	2.096
436.28	2.206
436.63	2.282
436.98	2.607
437.34	2.541
437.69	2.326
438.04	2.222
438.39	2.199
438.75	2.247
439.10	2.547
439.45	2.556
439.81	2.630
440.16	2.613
440.51	3.284
440.86	3.082
441.22	2.885
441.57	2.980
441.92	2.728
442.27	2.439
442.63	2.784
442.98	2.872
443.33	2.337
443.68	2.759
444.03	3.378
444.39	3.099
444.74	3.456
445.09	2.840
445.44	2.336
445.79	3.816
446.15	2.588
446.50	2.440
446.85	2.763
447.20	3.389
447.55	3.237
447.91	2.425
448.26	2.675
448.61	3.109
448.96	2.410
449.31	2.197
449.66	2.729
450.02	2.681
450.37	2.608
450.72	2.005
451.07	2.975
451.42	2.559
451.77	2.893
452.12	2.392
452.47	2.189
452.83	3.180
453.18	3.795
453.53	2.655
453.88	2.975
454.23	2.766
454.58	3.338
454.93	3.286
455.28	2.794
455.63	2.728
455.98	3.307
456.34	2.490
456.69	3.621
457.04	2.583
457.39	2.855
457.74	2.781
458.09	2.472
458.44	3.160
458.79	2.969
459.14	3.318
459.49	3.522
459.84	3.553
460.19	2.973
460.54	3.423
460.89	2.216
461.24	3.540
461.59	3.682
461.94	2.201
462.29	3.016
462.64	3.322
462.99	3.182
463.34	2.643
463.69	3.218
464.04	3.450
464.39	3.275
464.74	3.067
465.09	2.870
465.44	3.578
465.79	3.061
466.14	3.250
466.49	2.875
466.84	3.391
467.19	3.254
467.54	2.810
467.89	3.411
468.24	3.041
468.59	3.746
468.94	3.365
469.29	3.410
469.64	3.349
469.99	3.224
470.34	2.389
470.68	2.685
471.03	2.902
471.38	3.210
471.73	3.501
472.08	2.171
472.43	1.611
472.78	2.399
473.13	2.993
473.48	3.192
473.83	2.740
474.17	3.109
474.52	3.765
474.87	2.848
475.22	2.929
475.57	2.880
475.92	3.401
476.27	3.667
476.61	2.546
476.96	2.566
477.31	3.786
477.66	2.809
478.01	3.144
478.36	3.268
478.70	3.208
479.05	4.011
479.40	3.339
479.75	2.972
480.10	3.072
480.45	3.450
480.79	3.927
481.14	3.227
481.49	3.103
481.84	2.944
482.19	2.900
482.53	3.070
482.88	3.628
483.23	2.879
483.58	3.302
483.92	2.807
484.27	3.464
484.62	3.362
484.97	3.109
485.31	3.540
485.66	3.332
486.01	3.261
486.36	3.105
486.70	3.477
487.05	2.948
487.40	3.387
487.75	3.437
488.09	3.461
488.44	3.232
488.79	3.026
489.13	3.526
489.48	3.335
489.83	3.587
490.17	3.236
490.52	3.002
490.87	3.239
491.22	3.582
491.56	3.510
491.91	3.107
492.26	3.160
492.60	3.503
492.95	4.329
493.30	3.127
493.64	2.849
493.99	3.430
494.34	2.670
494.68	2.667
495.03	2.530
495.37	3.484
495.72	3.887
496.07	3.951
496.41	3.066
496.76	3.178
497.11	2.701
497.45	3.150
497.80	3.481
498.14	3.428
498.49	3.149
498.84	3.643
499.18	3.765
499.53	3.819
499.87	3.453
500.22	3.165
500.56	3.278
500.91	2.711
501.26	3.312
501.60	2.755
501.95	3.348
502.29	3.438
502.64	3.427
502.98	3.651
503.33	3.410
503.67	2.843
504.02	3.617
504.36	3.761
504.71	3.081
505.06	2.969
505.40	3.096
505.75	3.814
506.09	3.142
506.44	3.747
506.78	4.184
507.13	3.878
507.47	3.029
507.82	3.312
508.16	3.434
508.51	2.833
508.85	3.611
509.19	2.608
509.54	3.592
509.88	3.614
510.23	3.819
510.57	3.741
510.92	2.612
511.26	3.546
511.61	3.905
511.95	4.055
512.30	3.160
512.64	3.617
512.98	3.200
513.33	3.246
513.67	3.468
514.02	4.233
514.36	4.000
514.70	3.904
515.05	3.173
515.39	3.896
515.74	4.192
516.08	4.363
516.42	3.946
516.77	4.213
517.11	3.323
517.46	3.830
517.80	4.112
518.14	4.042
518.49	4.147
518.83	3.402
519.17	3.396
519.52	3.197
519.86	3.721
520.20	3.463
520.55	3.752
520.89	5.270
521.23	4.117
521.58	4.858
521.92	3.910
522.26	3.709
522.61	3.766
522.95	3.974
523.29	4.511
523.64	3.875
523.98	4.277
524.32	3.157
524.66	4.673
525.01	4.740
525.35	4.731
525.69	3.098
526.04	4.233
526.38	4.799
526.72	3.074
527.06	3.437
527.41	5.343
527.75	3.485
528.09	3.588
528.43	4.929
528.78	3.696
529.12	4.645
529.46	4.029
529.80	4.877
530.15	5.215
530.49	3.704
530.83	4.104
531.17	4.365
531.51	4.172
531.86	3.807
532.20	3.479
532.54	4.697
532.88	4.381
533.22	4.906
533.57	4.456
533.91	3.721
534.25	5.078
534.59	4.233
534.93	4.216
535.27	3.807
535.62	3.240
535.96	4.631
536.30	5.211
536.64	4.755
536.98	3.972
537.32	3.058
537.66	5.049
538.01	4.755
538.35	4.300
538.69	4.794
539.03	3.281
539.37	5.384
539.71	3.817
540.05	4.956
540.39	5.471
540.73	4.533
541.07	4.972
541.42	5.040
541.76	4.611
542.10	5.781
542.44	4.795
542.78	3.235
543.12	4.464
543.46	5.424
543.80	5.205
544.14	4.005
544.48	4.464
544.82	4.443
545.16	4.508
545.50	4.206
545.84	5.312
546.18	5.674
546.52	4.542
546.86	3.954
547.20	4.793
547.54	3.887
547.88	4.212
548.22	3.813
548.56	4.156
548.90	4.717
549.24	4.752
549.58	5.289
549.92	4.432
550.26	5.128
550.60	5.130
550.94	5.004
551.28	4.560
551.62	4.769
551.96	4.436
552.30	4.605
552.64	4.443
552.98	4.641
553.32	4.708
553.66	4.064
554.00	3.723
554.34	4.801
554.68	4.646
555.02	4.911
555.36	4.787
555.69	3.297
556.03	4.568
556.37	4.769
556.71	4.332
557.05	4.027
557.39	4.387
557.73	4.648
558.07	5.732
558.41	4.211
558.75	3.429
559.08	4.649
559.42	4.048
559.76	5.124
560.10	3.746
560.44	3.946
560.78	5.175
561.12	4.513
561.45	4.006
561.79	3.852
562.13	4.968
562.47	4.460
562.81	4.395
563.15	5.289
563.48	5.375
563.82	4.804
564.16	4.248
564.50	4.459
564.84	5.756
565.17	4.628
565.51	5.055
565.85	4.184
566.19	4.443
566.52	4.424
566.86	5.141
567.20	4.857
567.54	4.440
567.88	4.569
568.21	4.977
568.55	3.913
568.89	4.877
569.23	4.718
569.56	4.028
569.90	4.953
570.24	4.317
570.57	4.691
570.91	5.124
571.25	4.242
571.59	4.391
571.92	4.474
572.26	4.378
572.60	4.558
572.93	4.612
573.27	4.420
573.61	4.475
573.95	4.451
574.28	4.184
574.62	4.678
574.96	4.562
575.29	4.417
575.63	4.250
575.97	4.147
576.30	4.076
576.64	4.450
576.98	4.247
577.31	4.473
577.65	4.289
577.98	4.565
578.32	4.609
578.66	4.320
578.99	4.422
579.33	4.172
579.67	4.340
580.00	4.861
580.34	4.279
580.67	4.352
581.01	4.251
581.35	4.393
581.68	4.428
582.02	3.946
582.35	4.401
582.69	4.422
583.02	4.230
583.36	4.329
583.70	4.673
584.03	4.393
584.37	4.997
584.70	4.670
585.04	4.119
585.37	4.595
585.71	4.271
586.04	4.589
586.38	4.214
586.72	4.534
587.05	4.679
587.39	5.004
587.72	4.811
588.06	4.622
588.39	4.728
588.73	4.396
589.06	5.023
589.40	4.908
589.73	5.330
590.07	5.174
590.40	4.837
590.73	4.942
591.07	4.580
591.40	4.497
591.74	4.932
592.07	5.195
592.41	4.991
592.74	5.257
593.08	4.436
593.41	4.745
593.75	4.939
594.08	4.909
594.41	5.022
594.75	4.504
595.08	5.108
595.42	4.969
595.75	4.581
596.09	5.238
596.42	4.589
596.75	5.062
597.09	5.285
597.42	4.878
597.75	4.306
598.09	5.161
598.42	4.468
598.76	4.762
599.09	4.968
599.42	5.229
599.76	5.380
600.09	5.694
600.42	5.155
600.76	4.681
601.09	4.427
601.42	5.327
601.76	5.081
602.09	4.620
602.42	5.687
602.76	4.754
603.09	5.606
603.42	5.518
603.76	4.839
604.09	4.658
604.42	4.865
604.76	5.207
605.09	5.256
605.42	5.011
605.75	5.035
606.09	5.138
606.42	5.088
606.75	4.892
607.09	5.407
607.42	5.007
607.75	4.973
608.08	4.403
608.42	5.391
608.75	5.253
609.08	4.883
609.41	4.975
609.75	5.141
610.08	5.092
610.41	5.024
610.74	4.778
611.07	4.341
611.41	5.293
611.74	5.064
612.07	4.657
612.40	5.689
612.73	4.915
613.07	4.949
613.40	5.470
613.73	4.477
614.06	5.676
614.39	5.358
614.72	4.930
615.06	5.251
615.39	4.858
615.72	5.221
616.05	5.642
616.38	4.900
616.71	4.526
617.05	4.818
617.38	5.217
617.71	4.717
618.04	5.587
618.37	5.738
618.70	6.139
619.03	5.903
619.36	4.776
619.69	5.610
620.03	6.355
620.36	5.079
620.69	4.854
621.02	5.505
621.35	5.560
621.68	5.867
622.01	4.750
622.34	6.145
622.67	5.757
623.00	5.896
623.33	4.878
623.66	5.610
623.99	4.917
624.32	6.464
624.65	3.985
624.99	5.267
625.32	5.231
625.65	5.813
625.98	5.560
626.31	5.320
626.64	5.459
626.97	5.759
627.30	5.254
627.63	6.846
627.96	4.852
628.29	5.550
628.62	6.490
628.95	6.313
629.28	5.444
629.61	5.284
629.94	6.940
630.26	5.534
630.59	6.764
630.92	5.949
631.25	7.077
631.58	5.727
631.91	5.263
632.24	5.275
632.57	7.045
632.90	5.575
633.23	6.941
633.56	6.171
633.89	5.672
634.22	7.037
634.55	4.447
634.88	5.619
635.20	5.769
635.53	5.467
635.86	5.202
636.19	5.951
636.52	4.337
636.85	3.474
637.18	3.774
637.51	5.031
637.83	6.570
638.16	6.685
638.49	5.177
638.82	7.632
639.15	5.699
639.48	6.602
639.81	6.555
640.13	4.473
640.46	5.685
640.79	5.007
641.12	5.465
641.45	4.354
641.77	5.778
642.10	5.845
642.43	6.270
642.76	7.096
643.09	7.431
643.41	5.340
643.74	5.931
644.07	5.583
644.40	6.757
644.73	8.231
645.05	5.872
645.38	6.526
645.71	4.433
646.04	7.540
646.36	4.965
646.69	7.374
647.02	6.049
647.35	6.157
647.67	6.399
648.00	7.463
648.33	8.191
648.66	5.424
648.98	3.015
649.31	3.802
649.64	5.965
649.96	6.321
650.29	7.155
650.62	5.470
650.94	5.926
651.27	4.283
651.60	5.766
651.92	7.168
652.25	3.730
652.58	6.000
652.90	6.690
653.23	4.874
653.56	5.753
653.88	5.670
654.21	1.751
654.54	5.603
654.86	5.942
655.19	4.971
655.52	5.882
655.84	5.035
656.17	5.212
656.49	7.205
656.82	7.615
