SpectraSuite Data File
++++++++++++++++++++++++++++++++++++
Date: Fri May 15 20:59:17 PDT 2015
User: schluterlab
Dark Spectrum Present: Yes
Reference Spectrum Present: Yes
Number of Sampled Component Spectra: 1
Spectrometers: USB2E3373
Integration Time (usec): 3000 (USB2E3373)
Spectra Averaged: 3 (USB2E3373)
Boxcar Smoothing: 0 (USB2E3373)
Correct for Electrical Dark: No (USB2E3373)
Strobe/Lamp Enabled: No (USB2E3373)
Correct for Detector Non-linearity: No (USB2E3373)
Correct for Stray Light: No (USB2E3373)
Number of Pixels in Processed Spectrum: 2048
>>>>>Begin Processed Spectral Data<<<<<
178.53	0.000
178.91	0.000
179.29	0.000
179.67	-700.000
180.04	-28.571
180.42	-125.000
180.80	-400.000
181.18	400.000
181.56	550.000
181.94	-150.000
182.31	500.000
182.69	-160.000
183.07	-333.333
183.45	-80.000
183.83	83.333
184.20	-36.364
184.58	100.000
184.96	50.000
185.34	300.000
185.72	-400.000
186.09	69.231
186.47	-300.000
186.85	66.667
187.23	122.222
187.61	500.000
187.98	-200.000
188.36	55.556
188.74	-266.667
189.12	58.824
189.49	77.778
189.87	0.000
190.25	35.714
190.63	50.000
191.00	-100.000
191.38	-15.789
191.76	150.000
192.14	150.000
192.51	200.000
192.89	-66.667
193.27	-128.571
193.65	-50.000
194.02	145.455
194.40	20.000
194.78	0.000
195.15	-8.333
195.53	0.000
195.91	325.000
196.29	-25.000
196.66	115.385
197.04	85.714
197.42	-66.667
197.79	-233.333
198.17	-61.538
198.55	1700.000
198.92	-33.333
199.30	200.000
199.68	0.000
200.05	-300.000
200.43	0.000
200.81	-100.000
201.18	-266.667
201.56	1100.000
201.94	-850.000
202.31	100.000
202.69	-260.000
203.07	325.000
203.44	-700.000
203.82	0.000
204.19	-50.000
204.57	-133.333
204.95	212.500
205.32	-80.000
205.70	28.571
206.08	-150.000
206.45	122.222
206.83	85.714
207.20	-128.571
207.58	1000.000
207.96	-100.000
208.33	-50.000
208.71	-225.000
209.08	-66.667
209.46	-200.000
209.84	-280.000
210.21	-600.000
210.59	-42.857
210.96	-83.333
211.34	-275.000
211.71	33.333
212.09	-228.571
212.46	-1000.000
212.84	0.000
213.22	-20.000
213.59	950.000
213.97	-15.385
214.34	145.455
214.72	-83.333
215.09	300.000
215.47	-38.462
215.84	-154.545
216.22	-233.333
216.59	-237.500
216.97	250.000
217.34	-25.000
217.72	-160.000
218.09	-12.500
218.47	-0.000
218.84	-100.000
219.22	-77.778
219.59	-140.000
219.97	266.667
220.34	325.000
220.72	0.000
221.09	-75.000
221.47	-600.000
221.84	-50.000
222.22	-950.000
222.59	-54.545
222.97	50.000
223.34	-133.333
223.72	-21.429
224.09	-38.095
224.46	17.857
224.84	433.333
225.21	-30.000
225.59	13.333
225.96	-150.000
226.34	325.000
226.71	-57.143
227.08	16.667
227.46	-25.000
227.83	-350.000
228.21	-77.778
228.58	-18.182
228.95	12.500
229.33	60.000
229.70	43.750
230.08	-87.500
230.45	28.571
230.82	42.857
231.20	-33.333
231.57	64.286
231.95	14.286
232.32	-120.000
232.69	21.429
233.07	66.667
233.44	60.000
233.81	60.000
234.19	-33.333
234.56	11.765
234.93	-150.000
235.31	-75.000
235.68	-240.000
236.05	-76.923
236.43	-55.000
236.80	64.706
237.17	31.250
237.55	-35.000
237.92	22.222
238.29	13.889
238.67	20.000
239.04	23.529
239.41	-9.756
239.79	13.333
240.16	51.220
240.53	-7.895
240.91	0.000
241.28	4.762
241.65	23.214
242.02	26.027
242.40	33.333
242.77	27.119
243.14	13.636
243.51	30.000
243.89	33.333
244.26	26.437
244.63	26.190
245.00	26.804
245.38	39.175
245.75	21.348
246.12	26.724
246.49	26.446
246.87	38.462
247.24	33.613
247.61	16.667
247.98	39.024
248.36	29.375
248.73	30.263
249.10	28.571
249.47	33.544
249.84	27.451
250.22	28.824
250.59	33.333
250.96	31.925
251.33	26.163
251.70	33.529
252.08	25.888
252.45	32.178
252.82	30.151
253.19	32.258
253.56	24.766
253.94	34.234
254.31	30.870
254.68	34.211
255.05	26.772
255.42	31.004
255.79	27.799
256.16	29.572
256.54	30.224
256.91	26.996
257.28	31.599
257.65	31.086
258.02	31.206
258.39	28.620
258.76	30.769
259.14	34.884
259.51	28.155
259.88	29.897
260.25	28.105
260.62	35.417
260.99	32.881
261.36	25.685
261.73	27.532
262.10	30.699
262.47	31.595
262.85	29.154
263.22	24.923
263.59	31.153
263.96	30.435
264.33	31.818
264.70	30.655
265.07	28.274
265.44	31.161
265.81	31.638
266.18	33.060
266.55	30.848
266.92	28.497
267.29	32.115
267.66	33.248
268.03	30.890
268.40	29.765
268.77	32.888
269.14	26.379
269.51	30.077
269.88	27.431
270.25	27.296
270.62	27.805
270.99	28.389
271.36	32.274
271.73	30.986
272.10	30.900
272.47	30.260
272.84	28.713
273.21	30.162
273.58	30.843
273.95	28.146
274.32	30.716
274.69	27.828
275.06	27.232
275.43	29.025
275.80	31.126
276.17	28.276
276.54	26.552
276.91	30.044
277.28	27.729
277.65	30.165
278.02	28.085
278.39	28.446
278.76	29.140
279.13	28.838
279.50	27.311
279.87	29.374
280.23	29.247
280.60	27.290
280.97	30.909
281.34	26.923
281.71	29.363
282.08	25.971
282.45	29.550
282.82	29.151
283.19	29.400
283.56	30.058
283.92	26.565
284.29	25.962
284.66	25.969
285.03	26.719
285.40	26.654
285.77	24.253
286.14	27.798
286.51	29.336
286.87	24.680
287.24	28.177
287.61	26.808
287.98	28.421
288.35	26.690
288.72	28.722
289.08	25.521
289.45	28.647
289.82	25.000
290.19	26.621
290.56	25.729
290.93	22.222
291.29	26.040
291.66	24.724
292.03	25.678
292.40	25.161
292.77	24.721
293.13	22.240
293.50	21.093
293.87	22.595
294.24	23.648
294.60	22.355
294.97	22.470
295.34	21.626
295.71	23.398
296.08	23.767
296.44	19.772
296.81	20.417
297.18	21.014
297.55	23.035
297.91	22.466
298.28	21.240
298.65	20.081
299.02	20.889
299.38	19.699
299.75	20.414
300.12	20.550
300.48	21.080
300.85	20.279
301.22	21.039
301.59	19.605
301.95	22.911
302.32	21.660
302.69	19.776
303.05	19.926
303.42	19.925
303.79	20.093
304.15	22.342
304.52	19.976
304.89	18.830
305.25	18.886
305.62	17.270
305.99	19.766
306.35	20.000
306.72	18.335
307.09	19.042
307.45	19.288
307.82	18.981
308.19	19.048
308.55	18.648
308.92	19.063
309.29	19.553
309.65	17.546
310.02	18.042
310.38	18.332
310.75	19.454
311.12	18.622
311.48	18.558
311.85	18.429
312.22	17.932
312.58	18.047
312.95	19.104
313.31	18.219
313.68	18.010
314.05	17.449
314.41	20.619
314.78	17.216
315.14	19.116
315.51	19.979
315.87	17.828
316.24	19.818
316.61	19.291
316.97	18.750
317.34	17.969
317.70	17.878
318.07	17.788
318.43	18.137
318.80	18.182
319.16	18.359
319.53	19.753
319.89	18.406
320.26	19.028
320.62	19.860
320.99	17.537
321.35	18.705
321.72	18.899
322.08	18.429
322.45	18.477
322.81	19.057
323.18	17.959
323.54	17.857
323.91	17.429
324.27	19.531
324.64	19.382
325.00	20.073
325.37	20.018
325.73	19.402
326.10	20.254
326.46	20.987
326.83	18.985
327.19	19.093
327.56	19.027
327.92	19.542
328.29	18.393
328.65	19.528
329.01	18.382
329.38	20.184
329.74	18.130
330.11	18.906
330.47	18.182
330.84	18.269
331.20	20.627
331.56	19.167
331.93	18.904
332.29	19.890
332.66	20.181
333.02	19.052
333.38	18.698
333.75	18.590
334.11	18.174
334.48	20.036
334.84	19.963
335.20	18.115
335.57	18.948
335.93	19.693
336.29	17.680
336.66	18.256
337.02	18.773
337.38	17.778
337.75	18.909
338.11	18.756
338.47	18.978
338.84	19.686
339.20	19.013
339.56	18.807
339.93	19.696
340.29	19.358
340.65	18.190
341.02	18.883
341.38	18.761
341.74	17.933
342.11	18.458
342.47	18.861
342.83	18.339
343.20	17.334
343.56	18.174
343.92	17.981
344.28	18.360
344.65	16.839
345.01	18.496
345.37	18.419
345.73	19.163
346.10	18.378
346.46	17.998
346.82	18.249
347.19	17.373
347.55	17.794
347.91	17.233
348.27	17.785
348.63	19.080
349.00	17.884
349.36	17.041
349.72	18.325
350.08	17.869
350.45	18.516
350.81	16.777
351.17	17.508
351.53	18.367
351.89	17.011
352.26	16.000
352.62	17.419
352.98	17.671
353.34	18.438
353.70	17.718
354.07	18.468
354.43	17.214
354.79	17.589
355.15	17.937
355.51	17.880
355.87	19.175
356.24	17.374
356.60	16.977
356.96	18.333
357.32	17.971
357.68	17.435
358.04	17.124
358.40	17.283
358.77	18.022
359.13	16.813
359.49	17.874
359.85	16.771
360.21	17.703
360.57	16.985
360.93	16.868
361.29	16.390
361.66	17.555
362.02	17.803
362.38	16.984
362.74	17.790
363.10	17.457
363.46	17.791
363.82	17.881
364.18	16.605
364.54	16.985
364.90	16.631
365.26	16.958
365.62	17.883
365.98	18.035
366.35	17.407
366.71	16.482
367.07	17.925
367.43	16.679
367.79	16.254
368.15	17.085
368.51	16.679
368.87	15.865
369.23	16.390
369.59	17.784
369.95	17.229
370.31	17.052
370.67	16.567
371.03	16.580
371.39	16.557
371.75	16.630
372.11	17.118
372.47	16.568
372.83	17.885
373.19	17.118
373.55	16.390
373.91	15.983
374.27	16.442
374.63	17.373
374.99	15.745
375.35	16.922
375.71	17.063
376.07	15.730
376.42	16.667
376.78	16.644
377.14	16.520
377.50	16.534
377.86	16.867
378.22	16.911
378.58	16.282
378.94	15.501
379.30	16.781
379.66	16.301
380.02	15.880
380.38	15.581
380.74	16.457
381.09	17.423
381.45	16.514
381.81	16.101
382.17	16.815
382.53	15.303
382.89	16.196
383.25	16.615
383.61	16.890
383.97	16.000
384.32	16.135
384.68	15.604
385.04	16.728
385.40	15.993
385.76	16.792
386.12	16.559
386.48	16.986
386.83	16.297
387.19	16.178
387.55	16.562
387.91	15.770
388.27	15.446
388.62	16.614
388.98	16.513
389.34	15.365
389.70	16.718
390.06	16.677
390.42	15.803
390.77	15.762
391.13	16.141
391.49	16.041
391.85	16.244
392.20	15.254
392.56	16.084
392.92	16.442
393.28	15.743
393.64	15.796
393.99	17.618
394.35	15.623
394.71	17.050
395.07	16.468
395.42	15.968
395.78	16.091
396.14	15.574
396.50	16.677
396.85	16.549
397.21	16.604
397.57	16.552
397.92	16.117
398.28	16.034
398.64	15.602
399.00	16.817
399.35	15.293
399.71	16.255
400.07	16.203
400.42	17.013
400.78	16.473
401.14	15.789
401.49	16.736
401.85	16.514
402.21	16.205
402.57	16.125
402.92	15.496
403.28	16.855
403.63	16.772
403.99	15.306
404.35	16.177
404.70	15.357
405.06	15.629
405.42	16.408
405.77	16.212
406.13	16.356
406.49	15.394
406.84	16.870
407.20	16.436
407.55	16.420
407.91	15.508
408.27	16.890
408.62	16.554
408.98	17.375
409.34	15.428
409.69	16.408
410.05	17.057
410.40	15.556
410.76	16.043
411.11	16.688
411.47	17.357
411.83	15.756
412.18	15.701
412.54	15.605
412.89	15.702
413.25	17.629
413.60	16.273
413.96	15.706
414.31	16.220
414.67	16.100
415.03	14.581
415.38	16.449
415.74	16.482
416.09	16.656
416.45	16.205
416.80	15.929
417.16	15.193
417.51	16.389
417.87	16.688
418.22	16.516
418.58	16.187
418.93	17.367
419.29	16.325
419.64	16.397
420.00	17.065
420.35	16.597
420.71	16.464
421.06	16.697
421.42	17.608
421.77	16.763
422.12	15.778
422.48	16.459
422.83	16.415
423.19	16.253
423.54	16.049
423.90	17.314
424.25	16.073
424.61	17.013
424.96	16.492
425.31	17.389
425.67	17.488
426.02	16.549
426.38	17.157
426.73	16.949
427.09	17.215
427.44	17.765
427.79	16.205
428.15	17.840
428.50	16.717
428.85	16.093
429.21	16.978
429.56	17.089
429.92	17.411
430.27	16.842
430.62	17.094
430.98	16.083
431.33	16.719
431.68	17.530
432.04	16.378
432.39	16.771
432.74	17.318
433.10	18.161
433.45	17.324
433.80	17.353
434.16	16.731
434.51	16.559
434.86	17.654
435.22	17.667
435.57	17.342
435.92	16.527
436.28	17.054
436.63	17.285
436.98	17.034
437.34	16.939
437.69	17.710
438.04	17.094
438.39	16.921
438.75	16.272
439.10	16.808
439.45	18.138
439.81	17.248
440.16	17.577
440.51	17.373
440.86	19.215
441.22	17.251
441.57	17.494
441.92	17.576
442.27	17.849
442.63	17.880
442.98	17.289
443.33	17.474
443.68	17.241
444.03	17.437
444.39	17.167
444.74	17.726
445.09	18.374
445.44	17.778
445.79	18.824
446.15	17.291
446.50	17.526
446.85	18.172
447.20	17.623
447.55	18.080
447.91	17.879
448.26	18.441
448.61	17.444
448.96	18.703
449.31	16.879
449.66	17.131
450.02	18.369
450.37	17.902
450.72	17.583
451.07	17.722
451.42	17.228
451.77	18.143
452.12	17.943
452.47	17.321
452.83	18.728
453.18	17.963
453.53	18.710
453.88	18.215
454.23	18.439
454.58	18.892
454.93	18.428
455.28	17.206
455.63	19.033
455.98	18.400
456.34	18.391
456.69	19.060
457.04	19.093
457.39	18.894
457.74	18.077
458.09	18.128
458.44	18.081
458.79	17.871
459.14	19.050
459.49	19.701
459.84	18.669
460.19	18.871
460.54	19.010
460.89	18.523
461.24	18.012
461.59	19.359
461.94	17.925
462.29	19.300
462.64	20.133
462.99	19.228
463.34	18.359
463.69	18.726
464.04	19.552
464.39	18.921
464.74	17.975
465.09	18.964
465.44	18.292
465.79	18.707
466.14	19.726
466.49	19.379
466.84	18.739
467.19	19.837
467.54	18.966
467.89	18.446
468.24	18.978
468.59	19.365
468.94	18.730
469.29	19.475
469.64	19.754
469.99	20.042
470.34	19.044
470.68	20.209
471.03	20.807
471.38	20.328
471.73	20.028
472.08	19.742
472.43	19.463
472.78	19.054
473.13	20.408
473.48	20.000
473.83	19.676
474.17	20.661
474.52	20.421
474.87	20.606
475.22	18.670
475.57	19.650
475.92	20.516
476.27	20.373
476.61	20.602
476.96	19.799
477.31	20.065
477.66	20.112
478.01	20.270
478.36	20.425
478.70	20.827
479.05	20.714
479.40	20.456
479.75	19.082
480.10	20.072
480.45	20.400
480.79	20.342
481.14	20.287
481.49	19.360
481.84	20.029
482.19	20.019
482.53	19.568
482.88	20.334
483.23	20.202
483.58	20.613
483.92	19.748
484.27	19.964
484.62	20.484
484.97	19.569
485.31	19.725
485.66	18.028
486.01	17.776
486.36	17.526
486.70	18.505
487.05	18.338
487.40	18.382
487.75	19.070
488.09	18.881
488.44	19.017
488.79	19.425
489.13	20.393
489.48	20.393
489.83	20.448
490.17	20.180
490.52	20.554
490.87	21.333
491.22	21.585
491.56	21.632
491.91	20.985
492.26	21.488
492.60	21.305
492.95	21.594
493.30	21.593
493.64	20.825
493.99	21.401
494.34	21.019
494.68	21.286
495.03	20.827
495.37	21.639
495.72	21.605
496.07	21.659
496.41	21.179
496.76	21.557
497.11	20.727
497.45	22.053
497.80	21.847
498.14	22.106
498.49	21.838
498.84	22.305
499.18	21.888
499.53	21.429
499.87	21.352
500.22	21.167
500.56	21.936
500.91	21.536
501.26	21.206
501.60	21.151
501.95	21.058
502.29	22.276
502.64	21.959
502.98	22.348
503.33	20.941
503.67	21.349
504.02	22.190
504.36	21.870
504.71	21.162
505.06	21.490
505.40	21.015
505.75	22.113
506.09	21.642
506.44	23.152
506.78	22.806
507.13	21.975
507.47	21.149
507.82	21.902
508.16	22.821
508.51	22.193
508.85	22.344
509.19	21.980
509.54	22.520
509.88	22.977
510.23	22.862
510.57	22.501
510.92	21.482
511.26	23.513
511.61	23.267
511.95	23.616
512.30	23.448
512.64	23.484
512.98	23.358
513.33	23.615
513.67	22.911
514.02	23.169
514.36	24.000
514.70	25.058
515.05	24.148
515.39	23.318
515.74	24.611
516.08	23.610
516.42	23.734
516.77	24.225
517.11	23.917
517.46	24.596
517.80	25.268
518.14	24.372
518.49	24.159
518.83	23.937
519.17	22.802
519.52	23.860
519.86	23.589
520.20	24.058
520.55	24.765
520.89	25.157
521.23	24.889
521.58	26.183
521.92	24.744
522.26	25.049
522.61	25.714
522.95	25.497
523.29	24.905
523.64	26.366
523.98	25.535
524.32	24.936
524.66	26.184
525.01	25.325
525.35	25.275
525.69	25.387
526.04	24.537
526.38	26.329
526.72	25.180
527.06	25.357
527.41	26.187
527.75	25.000
528.09	24.917
528.43	25.186
528.78	25.017
529.12	26.323
529.46	26.316
529.80	24.509
530.15	26.733
530.49	26.532
530.83	26.197
531.17	25.655
531.51	25.718
531.86	25.561
532.20	25.191
532.54	25.255
532.88	26.352
533.22	25.874
533.57	26.081
533.91	23.238
534.25	26.042
534.59	24.631
534.93	24.481
535.27	24.302
535.62	24.174
535.96	25.245
536.30	25.594
536.64	25.775
536.98	25.296
537.32	26.102
537.66	26.017
538.01	26.014
538.35	25.381
538.69	24.900
539.03	24.675
539.37	25.707
539.71	25.562
540.05	26.069
540.39	25.693
540.73	25.593
541.07	27.003
541.42	25.470
541.76	26.772
542.10	24.983
542.44	26.129
542.78	24.501
543.12	24.931
543.46	25.939
543.80	25.954
544.14	24.900
544.48	24.250
544.82	25.154
545.16	25.615
545.50	26.235
545.84	26.062
546.18	25.532
546.52	25.883
546.86	25.593
547.20	25.966
547.54	25.018
547.88	25.951
548.22	25.049
548.56	25.066
548.90	25.472
549.24	24.793
549.58	26.798
549.92	25.661
550.26	27.326
550.60	26.394
550.94	26.438
551.28	27.666
551.62	26.462
551.96	26.015
552.30	25.073
552.64	24.612
552.98	24.895
553.32	25.464
553.66	25.689
554.00	27.664
554.34	26.736
554.68	25.664
555.02	27.009
555.36	26.926
555.69	25.128
556.03	25.339
556.37	25.338
556.71	26.715
557.05	26.920
557.39	26.543
557.73	26.087
558.07	27.376
558.41	27.182
558.75	27.670
559.08	26.241
559.42	27.143
559.76	28.102
560.10	26.070
560.44	25.763
560.78	26.224
561.12	26.798
561.45	26.564
561.79	26.541
562.13	26.969
562.47	25.396
562.81	26.585
563.15	26.869
563.48	25.318
563.82	26.424
564.16	26.462
564.50	26.014
564.84	25.770
565.17	24.681
565.51	26.776
565.85	25.514
566.19	25.597
566.52	26.743
566.86	26.414
567.20	25.156
567.54	24.270
567.88	25.366
568.21	25.339
568.55	24.293
568.89	24.384
569.23	23.158
569.56	22.242
569.90	22.940
570.24	21.585
570.57	21.564
570.91	22.551
571.25	21.638
571.59	21.208
571.92	20.533
572.26	20.622
572.60	20.682
572.93	20.835
573.27	20.690
573.61	21.002
573.95	20.781
574.28	20.207
574.62	20.163
574.96	19.621
575.29	19.637
575.63	20.057
575.97	19.572
576.30	20.410
576.64	19.841
576.98	20.129
577.31	20.005
577.65	19.839
577.98	19.696
578.32	19.416
578.66	19.364
578.99	19.467
579.33	19.685
579.67	19.733
580.00	19.772
580.34	19.776
580.67	19.931
581.01	19.549
581.35	19.444
581.68	19.130
582.02	18.976
582.35	18.923
582.69	19.166
583.02	19.120
583.36	19.281
583.70	20.613
584.03	20.601
584.37	20.920
584.70	20.440
585.04	19.793
585.37	19.582
585.71	19.822
586.04	19.970
586.38	19.685
586.72	20.832
587.05	20.797
587.39	20.129
587.72	20.776
588.06	20.288
588.39	20.649
588.73	21.429
589.06	21.135
589.40	20.878
589.73	21.395
590.07	21.450
590.40	22.214
590.73	21.787
591.07	21.628
591.40	22.618
591.74	22.715
592.07	22.774
592.41	22.527
592.74	21.904
593.08	20.678
593.41	21.219
593.75	20.968
594.08	20.941
594.41	21.616
594.75	20.878
595.08	21.453
595.42	20.869
595.75	20.691
596.09	20.876
596.42	21.455
596.75	22.336
597.09	21.503
597.42	22.674
597.75	23.087
598.09	22.635
598.42	21.931
598.76	21.665
599.09	21.554
599.42	21.031
599.76	21.445
600.09	21.908
600.42	21.228
600.76	20.840
601.09	20.916
601.42	21.073
601.76	21.040
602.09	21.535
602.42	21.567
602.76	21.647
603.09	22.093
603.42	21.739
603.76	20.927
604.09	20.778
604.42	21.827
604.76	22.252
605.09	21.755
605.42	22.935
605.75	21.235
606.09	21.019
606.42	21.268
606.75	21.169
607.09	21.934
607.42	22.020
607.75	20.782
608.08	21.788
608.42	21.974
608.75	23.229
609.08	22.870
609.41	23.147
609.75	23.135
610.08	23.015
610.41	22.560
610.74	22.087
611.07	23.411
611.41	22.833
611.74	23.454
612.07	22.591
612.40	22.867
612.73	23.051
613.07	23.116
613.40	23.742
613.73	23.447
614.06	23.372
614.39	23.181
614.72	22.801
615.06	23.408
615.39	23.035
615.72	23.143
616.05	23.911
616.38	22.792
616.71	24.343
617.05	24.212
617.38	24.073
617.71	24.151
618.04	24.698
618.37	25.284
618.70	25.083
619.03	25.417
619.36	25.109
619.69	27.293
620.03	25.639
620.36	25.536
620.69	25.696
621.02	25.612
621.35	27.469
621.68	27.466
622.01	27.167
622.34	25.698
622.67	27.839
623.00	26.034
623.33	24.619
623.66	25.580
623.99	26.399
624.32	26.768
624.65	24.586
624.99	26.110
625.32	25.474
625.65	27.101
625.98	26.511
626.31	25.436
626.64	27.990
626.97	27.051
627.30	28.109
627.63	27.556
627.96	27.403
628.29	27.475
628.62	29.990
628.95	28.557
629.28	29.234
629.61	28.714
629.94	30.108
630.26	29.051
630.59	31.426
630.92	29.538
631.25	28.308
631.58	30.727
631.91	29.496
632.24	30.619
632.57	29.773
632.90	29.063
633.23	30.118
