SpectraSuite Data File
++++++++++++++++++++++++++++++++++++
Date: Fri May 15 20:51:37 PDT 2015
User: schluterlab
Dark Spectrum Present: Yes
Reference Spectrum Present: Yes
Number of Sampled Component Spectra: 1
Spectrometers: USB2E3373
Integration Time (usec): 3000 (USB2E3373)
Spectra Averaged: 3 (USB2E3373)
Boxcar Smoothing: 0 (USB2E3373)
Correct for Electrical Dark: No (USB2E3373)
Strobe/Lamp Enabled: No (USB2E3373)
Correct for Detector Non-linearity: No (USB2E3373)
Correct for Stray Light: No (USB2E3373)
Number of Pixels in Processed Spectrum: 2048
>>>>>Begin Processed Spectral Data<<<<<
178.53	0.000
178.91	0.000
179.29	112.500
179.67	-100.000
180.04	14.286
180.42	50.000
180.80	-300.000
181.18	33.333
181.56	200.000
181.94	-150.000
182.31	600.000
182.69	-80.000
183.07	-266.667
183.45	-140.000
183.83	16.667
184.20	18.182
184.58	211.111
184.96	25.000
185.34	233.333
185.72	-600.000
186.09	92.308
186.47	-1100.000
186.85	116.667
187.23	255.556
187.61	300.000
187.98	-300.000
188.36	11.111
188.74	-66.667
189.12	-35.294
189.49	0.000
189.87	0.000
190.25	78.571
190.63	-300.000
191.00	-500.000
191.38	-10.526
191.76	0.000
192.14	125.000
192.51	-300.000
192.89	11.111
193.27	-200.000
193.65	150.000
194.02	136.364
194.40	-10.000
194.78	-112.500
195.15	8.333
195.53	-87.500
195.91	250.000
196.29	-150.000
196.66	107.692
197.04	-0.000
197.42	-55.556
197.79	-433.333
198.17	-107.692
198.55	1700.000
198.92	-366.667
199.30	-700.000
199.68	0.000
200.05	-200.000
200.43	0.000
200.81	-33.333
201.18	-200.000
201.56	1200.000
201.94	-50.000
202.31	66.667
202.69	100.000
203.07	225.000
203.44	800.000
203.82	0.000
204.19	57.143
204.57	-500.000
204.95	162.500
205.32	0.000
205.70	0.000
206.08	-125.000
206.45	11.111
206.83	50.000
207.20	-185.714
207.58	600.000
207.96	-233.333
208.33	-130.000
208.71	-150.000
209.08	-283.333
209.46	-300.000
209.84	-300.000
210.21	-500.000
210.59	57.143
210.96	16.667
211.34	-175.000
211.71	66.667
212.09	-142.857
212.46	-900.000
212.84	0.000
213.22	-30.000
213.59	650.000
213.97	-38.462
214.34	81.818
214.72	-100.000
215.09	375.000
215.47	76.923
215.84	-72.727
216.22	-233.333
216.59	-150.000
216.97	50.000
217.34	-125.000
217.72	-120.000
218.09	12.500
218.47	100.000
218.84	-200.000
219.22	-66.667
219.59	0.000
219.97	500.000
220.34	25.000
220.72	-200.000
221.09	-50.000
221.47	-350.000
221.84	-750.000
222.22	-700.000
222.59	45.455
222.97	25.000
223.34	-200.000
223.72	-64.286
224.09	9.524
224.46	-17.857
224.84	433.333
225.21	10.000
225.59	-13.333
225.96	-400.000
226.34	75.000
226.71	-85.714
227.08	-66.667
227.46	0.000
227.83	-450.000
228.21	-66.667
228.58	-9.091
228.95	-175.000
229.33	170.000
229.70	43.750
230.08	-212.500
230.45	-171.429
230.82	-85.714
231.20	-13.333
231.57	35.714
231.95	0.000
232.32	-80.000
232.69	28.571
233.07	-133.333
233.44	140.000
233.81	-140.000
234.19	-55.556
234.56	-88.235
234.93	300.000
235.31	-100.000
235.68	-300.000
236.05	-130.769
236.43	-20.000
236.80	-64.706
237.17	31.250
237.55	-40.000
237.92	-7.407
238.29	-27.778
238.67	-26.667
239.04	-11.765
239.41	-24.390
239.79	-40.000
240.16	-7.317
240.53	-23.684
240.91	-17.391
241.28	3.175
241.65	5.357
242.02	5.479
242.40	-8.333
242.77	-15.254
243.14	-1.515
243.51	0.000
243.89	-4.598
244.26	-8.046
244.63	-7.143
245.00	-5.155
245.38	3.093
245.75	-7.865
246.12	-5.172
246.49	0.826
246.87	2.885
247.24	-9.244
247.61	-8.772
247.98	-3.252
248.36	0.625
248.73	-3.947
249.10	-3.247
249.47	3.797
249.84	-0.654
250.22	-2.353
250.59	-2.614
250.96	7.042
251.33	0.581
251.70	4.118
252.08	5.076
252.45	0.000
252.82	-1.005
253.19	2.304
253.56	0.467
253.94	1.351
254.31	3.913
254.68	5.263
255.05	2.362
255.42	-1.747
255.79	-0.772
256.16	-1.556
256.54	-0.746
256.91	0.760
257.28	-5.204
257.65	1.124
258.02	1.064
258.39	3.030
258.76	4.396
259.14	4.651
259.51	1.294
259.88	-1.718
260.25	-0.654
260.62	2.083
260.99	0.000
261.36	-2.397
261.73	1.582
262.10	2.128
262.47	-2.147
262.85	-1.567
263.22	-1.538
263.59	0.623
263.96	1.553
264.33	-2.727
264.70	1.190
265.07	-2.679
265.44	1.983
265.81	0.282
266.18	0.000
266.55	2.057
266.92	0.000
267.29	-0.522
267.66	1.023
268.03	2.618
268.40	-0.783
268.77	4.545
269.14	3.357
269.51	2.828
269.88	-0.499
270.25	-1.786
270.62	0.244
270.99	-3.581
271.36	0.244
271.73	0.939
272.10	-0.243
272.47	0.946
272.84	0.990
273.21	2.088
273.58	-0.723
273.95	-0.686
274.32	1.848
274.69	0.905
275.06	0.893
275.43	-0.227
275.80	0.442
276.17	-1.839
276.54	0.642
276.91	2.193
277.28	-2.183
277.65	1.033
278.02	-1.277
278.39	0.438
278.76	-0.419
279.13	-1.867
279.50	1.261
279.87	1.080
280.23	-0.430
280.60	2.339
280.97	0.000
281.34	-0.769
281.71	1.437
282.08	0.204
282.45	-0.587
282.82	-0.193
283.19	1.161
283.56	0.385
283.92	-0.949
284.29	0.000
284.66	0.581
285.03	0.786
285.40	0.567
285.77	0.351
286.14	0.722
286.51	1.476
286.87	1.280
287.24	0.921
287.61	-1.940
287.98	2.281
288.35	-0.520
288.72	1.051
289.08	0.868
289.45	1.054
289.82	0.874
290.19	-0.171
290.56	-2.058
290.93	2.189
291.29	1.695
291.66	0.787
292.03	0.319
292.40	1.613
292.77	-0.957
293.13	-1.786
293.50	1.062
293.87	1.069
294.24	2.318
294.60	1.192
294.97	1.042
295.34	-0.460
295.71	1.937
296.08	-0.897
296.44	-0.996
296.81	-0.139
297.18	0.870
297.55	2.981
297.91	1.096
298.28	1.451
298.65	0.136
299.02	2.022
299.38	-2.326
299.75	0.138
300.12	-0.262
300.48	0.395
300.85	1.521
301.22	0.260
301.59	-2.237
301.95	1.772
302.32	1.556
302.69	0.622
303.05	0.495
303.42	1.245
303.79	-0.117
304.15	1.673
304.52	0.238
304.89	1.170
305.25	0.605
305.62	0.350
305.99	-0.234
306.35	0.694
306.72	0.900
307.09	1.368
307.45	1.837
307.82	-1.042
308.19	0.929
308.55	1.309
308.92	1.198
309.29	-0.447
309.65	0.646
310.02	0.440
310.38	1.647
310.75	1.421
311.12	0.431
311.48	1.273
311.85	2.304
312.22	1.371
312.58	1.486
312.95	0.320
313.31	1.449
313.68	2.723
314.05	2.245
314.41	2.887
314.78	2.680
315.14	3.597
315.51	4.141
315.87	3.381
316.24	5.157
316.61	5.020
316.97	4.563
317.34	4.297
317.70	5.545
318.07	4.038
318.43	6.275
318.80	5.019
319.16	5.371
319.53	8.072
319.89	6.791
320.26	6.579
320.62	8.024
320.99	7.411
321.35	8.016
321.72	8.307
322.08	8.661
322.45	9.949
322.81	8.644
323.18	9.715
323.54	9.942
323.91	9.737
324.27	10.254
324.64	12.172
325.00	11.953
325.37	12.672
325.73	12.058
326.10	11.535
326.46	13.274
326.83	13.473
327.19	13.252
327.56	14.335
327.92	13.908
328.29	13.571
328.65	14.717
329.01	13.419
329.38	15.115
329.74	13.787
330.11	14.365
330.47	14.471
330.84	13.269
331.20	16.255
331.56	15.185
331.93	15.068
332.29	16.682
332.66	15.385
333.02	15.799
333.38	13.749
333.75	16.575
334.11	15.398
334.48	16.319
334.84	15.385
335.20	17.017
335.57	14.597
335.93	15.989
336.29	16.298
336.66	14.896
337.02	16.357
337.38	15.093
337.75	16.727
338.11	15.329
338.47	16.880
338.84	15.896
339.20	15.631
339.56	15.780
339.93	15.398
340.29	16.881
340.65	15.591
341.02	15.514
341.38	15.929
341.74	15.283
342.11	13.778
342.47	15.036
342.83	16.090
343.20	15.244
343.56	16.696
343.92	16.563
344.28	16.482
344.65	16.494
345.01	15.557
345.37	15.139
345.73	15.900
346.10	16.307
346.46	16.569
346.82	15.139
347.19	14.381
347.55	16.207
347.91	15.453
348.27	15.036
348.63	14.566
349.00	15.094
349.36	14.963
349.72	16.003
350.08	16.066
350.45	16.441
350.81	14.784
351.17	14.332
351.53	15.347
351.89	14.864
352.26	15.040
352.62	15.565
352.98	14.378
353.34	15.620
353.70	16.100
354.07	14.839
354.43	14.251
354.79	15.442
355.15	16.111
355.51	16.060
355.87	15.291
356.24	15.090
356.60	14.875
356.96	15.476
357.32	15.655
357.68	14.308
358.04	14.620
358.40	14.550
358.77	14.912
359.13	15.132
359.49	14.561
359.85	13.963
360.21	15.152
360.57	15.532
360.93	15.658
361.29	14.502
361.66	15.517
362.02	15.152
362.38	15.232
362.74	16.351
363.10	15.425
363.46	14.752
363.82	17.581
364.18	14.317
364.54	14.853
364.90	15.986
365.26	15.211
365.62	15.839
365.98	16.202
366.35	15.004
366.71	15.299
367.07	16.038
367.43	15.528
367.79	15.124
368.15	15.147
368.51	16.315
368.87	15.075
369.23	15.596
369.59	15.671
369.95	15.909
370.31	16.185
370.67	15.746
371.03	15.459
371.39	15.828
371.75	15.531
372.11	16.191
372.47	16.790
372.83	16.395
373.19	16.833
373.55	15.523
373.91	15.623
374.27	16.300
374.63	16.870
374.99	15.603
375.35	17.061
375.71	17.273
376.07	15.730
376.42	16.463
376.78	16.644
377.14	17.129
377.50	16.268
377.86	17.671
378.22	16.465
378.58	17.244
378.94	17.013
379.30	17.405
379.66	16.552
380.02	16.064
380.38	15.642
380.74	16.338
381.09	17.853
381.45	17.064
381.81	16.595
382.17	18.147
382.53	16.615
382.89	16.949
383.25	16.864
383.61	16.951
383.97	17.143
384.32	16.760
384.68	17.399
385.04	16.115
385.40	16.988
385.76	18.239
386.12	17.076
386.48	17.241
386.83	16.741
387.19	18.071
387.55	17.566
387.91	17.115
388.27	18.193
388.62	16.803
388.98	18.293
389.34	18.114
389.70	17.651
390.06	17.558
390.42	16.969
390.77	17.528
391.13	16.961
391.49	17.529
391.85	17.674
392.20	17.451
392.56	18.118
392.92	18.144
393.28	18.691
393.64	16.997
393.99	17.743
394.35	17.837
394.71	18.391
395.07	17.662
395.42	18.154
395.78	17.915
396.14	17.528
396.50	17.945
396.85	18.158
397.21	18.484
397.57	17.367
397.92	18.155
398.28	18.046
398.64	16.687
399.00	18.228
399.35	17.833
399.71	17.978
400.07	18.501
400.42	17.748
400.78	17.942
401.14	18.149
401.49	18.404
401.85	18.099
402.21	18.373
402.57	17.875
402.92	17.503
403.28	18.546
403.63	18.285
403.99	18.367
404.35	18.176
404.70	17.560
405.06	17.626
405.42	18.086
405.77	17.316
406.13	17.229
406.49	17.644
406.84	18.643
407.20	18.543
407.55	17.514
407.91	17.513
408.27	18.674
408.62	17.846
408.98	17.807
409.34	17.100
409.69	17.377
410.05	16.441
410.40	17.963
410.76	18.758
411.11	17.312
411.47	17.554
411.83	16.698
412.18	16.667
412.54	17.853
412.89	17.057
413.25	17.088
413.60	17.391
413.96	17.055
414.31	17.744
414.67	17.768
415.03	17.377
415.38	17.167
415.74	18.176
416.09	17.701
416.45	18.163
416.80	17.581
417.16	18.025
417.51	18.055
417.87	17.145
418.22	17.098
418.58	16.990
418.93	18.621
419.29	16.133
419.64	17.110
420.00	17.947
420.35	17.731
420.71	17.922
421.06	17.434
421.42	16.947
421.77	17.514
422.12	17.480
422.48	17.867
422.83	16.821
423.19	17.381
423.54	16.520
423.90	15.842
424.25	17.164
424.61	17.931
424.96	17.654
425.31	17.793
425.67	17.430
426.02	17.550
426.38	16.907
426.73	17.191
427.09	17.278
427.44	17.529
427.79	17.678
428.15	17.172
428.50	16.172
428.85	16.585
429.21	17.714
429.56	17.035
429.92	17.617
430.27	16.942
430.62	16.153
430.98	16.667
431.33	17.245
431.68	17.425
432.04	17.105
432.39	16.657
432.74	16.717
433.10	17.356
433.45	16.846
433.80	16.367
434.16	16.288
434.51	17.258
434.86	17.538
435.22	17.274
435.57	17.405
435.92	17.305
436.28	15.623
436.63	16.714
436.98	16.049
437.34	16.334
437.69	16.160
438.04	17.037
438.39	16.249
438.75	17.243
439.10	16.752
439.45	17.285
439.81	16.391
440.16	16.805
440.51	17.313
440.86	16.737
441.22	17.081
441.57	16.280
441.92	16.999
442.27	16.353
442.63	17.291
442.98	16.657
443.33	16.806
443.68	16.817
444.03	16.990
444.39	16.429
444.74	17.001
445.09	16.592
445.44	16.638
445.79	16.916
446.15	17.291
446.50	16.972
446.85	17.109
447.20	16.580
447.55	17.243
447.91	16.244
448.26	16.278
448.61	17.214
448.96	17.499
449.31	16.301
449.66	17.247
450.02	16.486
450.37	16.894
450.72	16.838
451.07	17.405
451.42	16.792
451.77	15.973
452.12	16.089
452.47	16.549
452.83	16.726
453.18	15.623
453.53	16.688
453.88	16.515
454.23	16.964
454.58	16.625
454.93	16.881
455.28	15.429
455.63	16.429
455.98	17.438
456.34	16.539
456.69	16.391
457.04	18.021
457.39	16.282
457.74	16.324
458.09	16.009
458.44	16.442
458.79	16.359
459.14	16.876
459.49	16.597
459.84	17.090
460.19	16.019
460.54	16.748
460.89	16.136
461.24	16.708
461.59	15.558
461.94	16.038
462.29	16.526
462.64	16.545
462.99	16.181
463.34	16.273
463.69	15.701
464.04	15.617
464.39	16.859
464.74	15.767
465.09	15.783
465.44	16.099
465.79	16.440
466.14	16.249
466.49	15.641
466.84	15.824
467.19	16.771
467.54	16.028
467.89	15.161
468.24	15.511
468.59	16.317
468.94	16.317
469.29	15.803
469.64	15.995
469.99	16.538
470.34	14.676
470.68	15.585
471.03	15.074
471.38	15.692
471.73	15.966
472.08	15.875
472.43	16.040
472.78	15.284
473.13	15.782
473.48	14.593
473.83	15.380
474.17	15.415
474.52	14.869
474.87	15.576
475.22	14.399
475.57	14.681
475.92	15.304
476.27	15.541
476.61	14.988
476.96	14.110
477.31	14.711
477.66	14.944
478.01	15.441
478.36	14.706
478.70	14.899
479.05	15.385
479.40	14.573
479.75	15.589
480.10	14.747
480.45	15.250
480.79	14.904
481.14	15.215
481.49	14.433
481.84	14.720
482.19	14.780
482.53	14.724
482.88	14.129
483.23	14.491
483.58	14.953
483.92	13.940
484.27	13.810
484.62	14.388
484.97	14.096
485.31	13.764
485.66	13.649
486.01	14.221
486.36	14.038
486.70	14.342
487.05	14.050
487.40	14.271
487.75	13.577
488.09	13.473
488.44	13.446
488.79	14.120
489.13	13.221
489.48	13.211
489.83	13.363
490.17	13.393
490.52	13.580
490.87	13.466
491.22	13.945
491.56	13.046
491.91	12.954
492.26	13.807
492.60	13.292
492.95	13.478
493.30	13.092
493.64	12.819
493.99	13.671
494.34	13.107
494.68	13.714
495.03	12.749
495.37	12.758
495.72	13.478
496.07	12.976
496.41	13.113
496.76	13.542
497.11	12.483
497.45	13.508
497.80	12.916
498.14	12.767
498.49	13.002
498.84	12.525
499.18	13.052
499.53	12.798
499.87	12.549
500.22	12.413
500.56	12.758
500.91	12.450
501.26	11.765
501.60	12.051
501.95	12.712
502.29	12.542
502.64	12.403
502.98	11.741
503.33	11.960
503.67	12.145
504.02	12.854
504.36	12.914
504.71	12.020
505.06	11.726
505.40	12.132
505.75	12.526
506.09	11.708
506.44	12.782
506.78	11.990
507.13	11.944
507.47	11.593
507.82	10.684
508.16	11.041
508.51	11.700
508.85	12.193
509.19	11.016
509.54	11.475
509.88	11.597
510.23	11.619
510.57	12.079
510.92	11.034
511.26	11.948
511.61	11.276
511.95	11.178
512.30	11.253
512.64	11.408
512.98	11.398
513.33	11.752
513.67	10.574
514.02	12.586
514.36	12.457
514.70	11.946
515.05	11.986
515.39	11.688
515.74	11.976
516.08	10.759
516.42	12.485
516.77	11.937
517.11	10.682
517.46	12.029
517.80	11.561
518.14	11.145
518.49	10.938
518.83	11.300
519.17	10.855
519.52	10.657
519.86	11.224
520.20	11.422
520.55	10.819
520.89	11.543
521.23	10.513
521.58	10.726
521.92	11.538
522.26	10.605
522.61	10.974
522.95	10.927
523.29	11.182
523.64	10.801
523.98	10.888
524.32	10.438
524.66	11.204
525.01	10.649
525.35	11.147
525.69	9.630
526.04	9.722
526.38	11.089
526.72	9.483
527.06	10.376
527.41	10.356
527.75	10.054
528.09	10.299
528.43	11.479
528.78	9.439
529.12	10.774
529.46	9.227
529.80	9.816
530.15	10.495
530.49	9.428
530.83	9.850
531.17	9.872
531.51	10.260
531.86	10.469
532.20	9.673
532.54	10.483
532.88	10.335
533.22	9.946
533.57	9.961
533.91	9.530
534.25	10.807
534.59	9.750
534.93	8.874
535.27	9.391
535.62	9.916
535.96	9.393
536.30	10.356
536.64	9.442
536.98	9.826
537.32	10.313
537.66	10.870
538.01	10.280
538.35	9.778
538.69	9.720
539.03	9.159
539.37	10.296
539.71	8.862
540.05	10.319
540.39	9.626
540.73	9.414
541.07	9.254
541.42	10.820
541.76	10.668
542.10	8.741
542.44	9.937
542.78	8.465
543.12	8.379
543.46	9.736
543.80	8.952
544.14	8.344
544.48	9.660
544.82	9.023
545.16	9.563
545.50	9.880
545.84	10.198
546.18	9.645
546.52	9.301
546.86	9.346
547.20	9.442
547.54	8.339
547.88	10.122
548.22	9.336
548.56	8.179
548.90	9.569
549.24	9.091
549.58	8.674
549.92	8.649
550.26	8.791
550.60	8.104
550.94	8.215
551.28	8.733
551.62	9.385
551.96	8.195
552.30	8.480
552.64	7.123
552.98	7.525
553.32	9.272
553.66	8.200
554.00	8.102
554.34	8.715
554.68	8.407
555.02	8.036
555.36	8.527
555.69	7.985
556.03	7.994
556.37	8.612
556.71	8.303
557.05	7.606
557.39	7.732
557.73	8.096
558.07	7.617
558.41	8.652
558.75	8.028
559.08	7.801
559.42	7.302
559.76	8.006
560.10	7.416
560.44	8.191
560.78	7.692
561.12	7.687
561.45	8.292
561.79	8.333
562.13	7.665
562.47	8.058
562.81	8.213
563.15	8.039
563.48	8.274
563.82	7.962
564.16	7.103
564.50	8.311
564.84	8.233
565.17	8.115
565.51	8.265
565.85	8.093
566.19	8.024
566.52	8.110
566.86	8.997
567.20	6.974
567.54	8.029
567.88	8.202
568.21	7.692
568.55	6.848
568.89	7.854
569.23	8.040
569.56	7.706
569.90	7.998
570.24	7.704
570.57	8.109
570.91	8.226
571.25	7.300
571.59	7.568
571.92	7.378
572.26	7.156
572.60	7.690
572.93	7.750
573.27	7.179
573.61	7.637
573.95	7.646
574.28	7.654
574.62	7.628
574.96	7.305
575.29	7.168
575.63	7.359
575.97	6.912
576.30	7.169
576.64	7.205
576.98	7.619
577.31	7.275
577.65	7.362
577.98	6.932
578.32	7.132
578.66	7.092
578.99	7.183
579.33	7.095
579.67	7.368
580.00	6.785
580.34	7.289
580.67	6.973
581.01	7.325
581.35	7.106
581.68	7.282
582.02	6.992
582.35	7.094
582.69	6.876
583.02	7.071
583.36	7.286
583.70	7.399
584.03	7.034
584.37	7.566
584.70	6.841
585.04	6.865
585.37	7.002
585.71	6.739
586.04	7.186
586.38	6.668
586.72	7.202
587.05	7.423
587.39	7.101
587.72	7.026
588.06	6.864
588.39	7.234
588.73	6.624
589.06	7.371
589.40	7.570
589.73	7.119
590.07	7.062
590.40	6.811
590.73	6.878
591.07	6.955
591.40	6.990
591.74	6.697
592.07	7.421
592.41	7.023
592.74	6.412
593.08	6.636
593.41	6.919
593.75	6.739
594.08	6.522
594.41	7.023
594.75	6.603
595.08	6.697
595.42	6.735
595.75	6.910
596.09	6.841
596.42	6.408
596.75	6.483
597.09	6.651
597.42	7.046
597.75	6.367
598.09	6.474
598.42	6.724
598.76	6.306
599.09	6.811
599.42	7.313
599.76	6.433
600.09	6.523
600.42	6.748
600.76	6.166
601.09	6.336
601.42	6.424
601.76	6.391
602.09	6.271
602.42	6.613
602.76	6.112
603.09	7.060
603.42	6.689
603.76	6.048
604.09	5.873
604.42	6.768
604.76	6.720
605.09	6.856
605.42	6.862
605.75	6.349
606.09	6.369
606.42	6.672
606.75	6.407
607.09	6.681
607.42	6.469
607.75	5.817
608.08	6.514
608.42	6.624
608.75	6.699
609.08	6.378
609.41	6.244
609.75	6.149
610.08	6.191
610.41	5.942
610.74	6.436
611.07	5.633
611.41	6.902
611.74	6.610
612.07	5.942
612.40	6.072
612.73	5.989
613.07	6.580
613.40	7.002
613.73	5.372
614.06	7.067
614.39	6.599
614.72	5.210
615.06	6.201
615.39	6.332
615.72	6.243
616.05	6.034
616.38	6.325
616.71	6.177
617.05	6.300
617.38	6.348
617.71	6.792
618.04	6.413
618.37	6.683
618.70	6.667
619.03	7.153
619.36	5.210
619.69	5.989
620.03	6.720
620.36	5.937
620.69	6.067
621.02	6.193
621.35	6.141
621.68	5.612
622.01	6.500
622.34	6.704
622.67	6.782
623.00	6.126
623.33	5.412
623.66	6.358
623.99	6.278
624.32	6.008
624.65	5.865
624.99	7.223
625.32	5.155
625.65	5.892
625.98	6.124
626.31	5.736
626.64	7.019
626.97	6.108
627.30	6.305
627.63	5.459
627.96	6.199
628.29	7.031
628.62	6.195
628.95	6.814
629.28	5.746
629.61	4.985
629.94	5.963
630.26	5.929
630.59	6.035
630.92	5.436
631.25	6.256
631.58	5.176
631.91	4.715
632.24	5.963
632.57	6.477
632.90	4.982
633.23	5.529
633.56	5.919
633.89	5.302
634.22	5.309
634.55	4.320
634.88	4.981
635.20	4.103
635.53	5.467
635.86	5.852
636.19	6.986
636.52	5.740
636.85	5.955
637.18	6.164
637.51	4.906
637.83	6.702
638.16	6.412
638.49	4.768
638.82	5.658
639.15	5.699
639.48	4.402
639.81	5.997
640.13	4.329
640.46	6.560
640.79	5.744
641.12	4.579
641.45	5.856
641.77	6.370
642.10	8.215
642.43	4.984
642.76	5.281
643.09	5.008
643.41	6.958
643.74	4.283
