SpectraSuite Data File
++++++++++++++++++++++++++++++++++++
Date: Fri May 15 20:37:52 PDT 2015
User: schluterlab
Dark Spectrum Present: Yes
Reference Spectrum Present: Yes
Number of Sampled Component Spectra: 1
Spectrometers: USB2E3373
Integration Time (usec): 3000 (USB2E3373)
Spectra Averaged: 3 (USB2E3373)
Boxcar Smoothing: 0 (USB2E3373)
Correct for Electrical Dark: No (USB2E3373)
Strobe/Lamp Enabled: No (USB2E3373)
Correct for Detector Non-linearity: No (USB2E3373)
Correct for Stray Light: No (USB2E3373)
Number of Pixels in Processed Spectrum: 2048
>>>>>Begin Processed Spectral Data<<<<<
178.53	0.000
178.91	0.000
179.29	-50.000
179.67	250.000
180.04	28.571
180.42	0.000
180.80	-1000.000
181.18	-200.000
181.56	500.000
181.94	-200.000
182.31	300.000
182.69	-120.000
183.07	-400.000
183.45	20.000
183.83	100.000
184.20	-18.182
184.58	111.111
184.96	-200.000
185.34	-200.000
185.72	-450.000
186.09	7.692
186.47	-900.000
186.85	150.000
187.23	133.333
187.61	300.000
187.98	-266.667
188.36	122.222
188.74	-433.333
189.12	17.647
189.49	50.000
189.87	0.000
190.25	0.000
190.63	150.000
191.00	-233.333
191.38	15.789
191.76	300.000
192.14	25.000
192.51	-150.000
192.89	-122.222
193.27	-157.143
193.65	33.333
194.02	136.364
194.40	70.000
194.78	-112.500
195.15	-16.667
195.53	-87.500
195.91	350.000
196.29	-100.000
196.66	84.615
197.04	-14.286
197.42	-100.000
197.79	-633.333
198.17	-92.308
198.55	1800.000
198.92	-333.333
199.30	-500.000
199.68	-60.000
200.05	-166.667
200.43	0.000
200.81	0.000
201.18	0.000
201.56	800.000
201.94	-150.000
202.31	-66.667
202.69	-200.000
203.07	150.000
203.44	100.000
203.82	0.000
204.19	-21.429
204.57	-300.000
204.95	112.500
205.32	0.000
205.70	-100.000
206.08	-200.000
206.45	177.778
206.83	28.571
207.20	-285.714
207.58	500.000
207.96	-600.000
208.33	-30.000
208.71	-125.000
209.08	-166.667
209.46	-700.000
209.84	-100.000
210.21	300.000
210.59	14.286
210.96	-50.000
211.34	75.000
211.71	80.000
212.09	-71.429
212.46	-2200.000
212.84	0.000
213.22	30.000
213.59	450.000
213.97	46.154
214.34	-27.273
214.72	-100.000
215.09	250.000
215.47	0.000
215.84	-9.091
216.22	-233.333
216.59	-112.500
216.97	200.000
217.34	-150.000
217.72	-200.000
218.09	-12.500
218.47	87.500
218.84	-500.000
219.22	-77.778
219.59	-280.000
219.97	433.333
220.34	400.000
220.72	-28.571
221.09	-300.000
221.47	-50.000
221.84	-900.000
222.22	-700.000
222.59	72.727
222.97	33.333
223.34	-133.333
223.72	7.143
224.09	23.810
224.46	42.857
224.84	533.333
225.21	-50.000
225.59	-13.333
225.96	200.000
226.34	250.000
226.71	-128.571
227.08	-83.333
227.46	-25.000
227.83	-350.000
228.21	-22.222
228.58	36.364
228.95	-137.500
229.33	90.000
229.70	62.500
230.08	-87.500
230.45	-57.143
230.82	-142.857
231.20	6.667
231.57	14.286
231.95	14.286
232.32	-100.000
232.69	21.429
233.07	-166.667
233.44	-20.000
233.81	-70.000
234.19	55.556
234.56	-29.412
234.93	100.000
235.31	200.000
235.68	-180.000
236.05	-53.846
236.43	-30.000
236.80	58.824
237.17	46.875
237.55	20.000
237.92	14.815
238.29	0.000
238.67	43.333
239.04	32.353
239.41	12.195
239.79	26.667
240.16	46.341
240.53	0.000
240.91	39.130
241.28	15.873
241.65	21.429
242.02	36.986
242.40	36.667
242.77	15.254
243.14	28.788
243.51	28.750
243.89	48.276
244.26	32.184
244.63	39.286
245.00	41.237
245.38	39.175
245.75	31.461
246.12	33.621
246.49	41.322
246.87	38.462
247.24	28.571
247.61	35.088
247.98	29.268
248.36	31.250
248.73	41.447
249.10	34.416
249.47	36.076
249.84	37.255
250.22	35.882
250.59	39.216
250.96	39.906
251.33	40.698
251.70	39.412
252.08	39.086
252.45	40.594
252.82	39.196
253.19	41.475
253.56	35.047
253.94	41.441
254.31	43.913
254.68	46.053
255.05	35.433
255.42	38.865
255.79	38.996
256.16	39.689
256.54	42.910
256.91	37.262
257.28	36.803
257.65	34.457
258.02	35.461
258.39	38.721
258.76	41.758
259.14	40.199
259.51	35.275
259.88	37.801
260.25	34.314
260.62	42.014
260.99	39.661
261.36	39.384
261.73	36.392
262.10	38.602
262.47	34.356
262.85	39.498
263.22	39.692
263.59	36.760
263.96	45.963
264.33	34.545
264.70	38.690
265.07	40.179
265.44	44.476
265.81	37.288
266.18	38.525
266.55	38.817
266.92	39.637
267.29	39.426
267.66	34.527
268.03	38.220
268.40	36.815
268.77	40.107
269.14	35.012
269.51	39.589
269.88	37.406
270.25	38.265
270.62	34.878
270.99	37.340
271.36	36.919
271.73	36.854
272.10	37.713
272.47	37.116
272.84	37.624
273.21	41.763
273.58	42.169
273.95	37.071
274.32	34.642
274.69	35.294
275.06	40.625
275.43	36.735
275.80	38.190
276.17	37.471
276.54	36.403
276.91	35.746
277.28	37.336
277.65	38.430
278.02	33.617
278.39	39.825
278.76	39.203
279.13	35.062
279.50	36.765
279.87	36.069
280.23	36.344
280.60	37.622
280.97	38.384
281.34	35.577
281.71	34.908
282.08	37.219
282.45	36.595
282.82	35.135
283.19	37.718
283.56	37.187
283.92	35.674
284.29	34.231
284.66	32.364
285.03	34.774
285.40	35.539
285.77	31.634
286.14	33.755
286.51	35.978
286.87	32.907
287.24	34.622
287.61	33.862
287.98	33.684
288.35	33.102
288.72	34.326
289.08	31.076
289.45	32.689
289.82	33.217
290.19	31.741
290.56	31.389
290.93	31.481
291.29	30.200
291.66	30.866
292.03	30.941
292.40	30.968
292.77	29.825
293.13	29.058
293.50	28.832
293.87	30.534
294.24	28.284
294.60	29.061
294.97	29.613
295.34	27.761
295.71	27.124
296.08	27.205
296.44	27.027
296.81	27.222
297.18	28.406
297.55	27.913
297.91	26.164
298.28	26.253
298.65	26.323
299.02	25.472
299.38	26.129
299.75	27.724
300.12	27.356
300.48	25.823
300.85	26.743
301.22	26.364
301.59	24.342
301.95	25.823
302.32	26.329
302.69	24.876
303.05	24.257
303.42	25.405
303.79	24.883
304.15	25.090
304.52	24.851
304.89	23.509
305.25	23.971
305.62	22.170
305.99	24.327
306.35	23.584
306.72	24.072
307.09	24.059
307.45	23.766
307.82	21.875
308.19	24.274
308.55	23.555
308.92	23.856
309.29	24.134
309.65	22.174
310.02	23.102
310.38	22.613
310.75	24.153
311.12	23.251
311.48	22.057
311.85	22.304
312.22	22.363
312.58	23.355
312.95	22.412
313.31	22.878
313.68	22.827
314.05	21.735
314.41	23.918
314.78	22.680
315.14	23.330
315.51	24.017
315.87	24.898
316.24	23.660
316.61	22.441
316.97	23.611
317.34	23.535
317.70	23.136
318.07	22.596
318.43	23.627
318.80	22.443
319.16	23.730
319.53	23.932
319.89	22.343
320.26	23.178
320.62	23.972
320.99	22.860
321.35	22.713
321.72	23.676
322.08	22.659
322.45	23.249
322.81	23.379
323.18	21.884
323.54	23.166
323.91	22.687
324.27	23.047
324.64	23.221
325.00	22.719
325.37	25.069
325.73	22.303
326.10	22.979
326.46	23.049
326.83	23.185
327.19	23.801
327.56	23.284
327.92	22.975
328.29	22.411
328.65	23.585
329.01	22.794
329.38	21.843
329.74	23.229
330.11	21.409
330.47	22.171
330.84	21.058
331.20	23.574
331.56	22.500
331.93	21.826
332.29	23.098
332.66	22.081
333.02	22.770
333.38	21.632
333.75	22.344
334.11	21.128
334.48	22.303
334.84	21.795
335.20	22.324
335.57	20.127
335.93	20.145
336.29	21.823
336.66	20.890
337.02	21.561
337.38	21.759
337.75	21.182
338.11	22.633
338.47	22.080
338.84	22.366
339.20	20.567
339.56	21.468
339.93	22.292
340.29	22.110
340.65	21.416
341.02	21.543
341.38	22.301
341.74	21.025
342.11	20.884
342.47	21.085
342.83	21.886
343.20	21.864
343.56	21.130
343.92	21.081
344.28	21.093
344.65	22.366
345.01	19.965
345.37	21.615
345.73	20.335
346.10	21.225
346.46	21.699
346.82	21.195
347.19	20.033
347.55	21.303
347.91	21.117
348.27	21.180
348.63	21.635
349.00	20.509
349.36	20.948
349.72	20.647
350.08	21.230
350.45	21.149
350.81	20.681
351.17	19.870
351.53	21.714
351.89	20.066
352.26	20.400
352.62	21.210
352.98	19.598
353.34	19.968
353.70	21.197
354.07	20.565
354.43	20.016
354.79	20.066
355.15	21.270
355.51	20.411
355.87	20.146
356.24	19.739
356.60	19.887
356.96	20.952
357.32	19.329
357.68	20.250
358.04	19.952
358.40	19.695
358.77	20.175
359.13	20.096
359.49	19.569
359.85	20.281
360.21	19.697
360.57	19.893
360.93	19.213
361.29	18.127
361.66	20.298
362.02	20.000
362.38	19.726
362.74	20.969
363.10	20.316
363.46	19.496
363.82	20.586
364.18	19.188
364.54	18.750
364.90	19.642
365.26	19.651
365.62	20.292
365.98	19.282
366.35	20.757
366.71	19.660
367.07	19.376
367.43	18.116
367.79	19.223
368.15	19.742
368.51	19.665
368.87	19.167
369.23	18.412
369.59	19.898
369.95	20.674
370.31	20.087
370.67	19.104
371.03	20.090
371.39	18.673
371.75	18.608
372.11	18.474
372.47	19.527
372.83	19.021
373.19	19.401
373.55	18.917
373.91	18.790
374.27	19.277
374.63	19.311
374.99	19.220
375.35	19.429
375.71	19.790
376.07	18.961
376.42	18.980
376.78	19.329
377.14	19.228
377.50	19.456
377.86	18.876
378.22	19.272
378.58	17.564
378.94	18.084
379.30	18.840
379.66	19.185
380.02	18.639
380.38	18.259
380.74	18.671
381.09	19.448
381.45	18.716
381.81	18.322
382.17	18.845
382.53	18.239
382.89	18.581
383.25	19.664
383.61	19.634
383.97	18.413
384.32	18.824
384.68	19.071
385.04	18.689
385.40	17.859
385.76	19.686
386.12	18.176
386.48	19.029
386.83	18.580
387.19	19.658
387.55	19.009
387.91	18.643
388.27	18.498
388.62	18.313
388.98	18.662
389.34	19.051
389.70	19.018
390.06	17.684
390.42	18.005
390.77	18.182
391.13	18.033
391.49	17.917
391.85	18.129
392.20	18.770
392.56	18.436
392.92	19.378
393.28	19.163
393.64	17.898
393.99	19.373
394.35	17.268
394.71	19.029
395.07	18.228
395.42	18.397
395.78	18.111
396.14	18.222
396.50	19.023
396.85	18.223
397.21	18.672
397.57	18.871
397.92	18.514
398.28	18.678
398.64	17.831
399.00	18.849
399.35	18.115
399.71	18.036
400.07	18.259
400.42	18.605
400.78	19.412
401.14	18.754
401.49	19.357
401.85	18.282
402.21	17.831
402.57	20.000
402.92	17.942
403.28	18.797
403.63	18.474
403.99	18.112
404.35	18.738
404.70	17.857
405.06	18.449
405.42	18.769
405.77	17.316
406.13	18.976
406.49	18.650
406.84	18.643
407.20	18.242
407.55	18.094
407.91	18.583
408.27	18.419
408.62	18.338
408.98	19.100
409.34	19.579
409.69	18.475
410.05	18.350
410.40	18.395
410.76	18.335
411.11	19.500
411.47	18.935
411.83	18.456
412.18	19.305
412.54	18.727
412.89	18.904
413.25	19.013
413.60	18.882
413.96	18.221
414.31	18.537
414.67	18.089
415.03	18.309
415.38	18.211
415.74	18.241
416.09	19.334
416.45	19.109
416.80	18.308
417.16	18.923
417.51	19.387
417.87	18.449
418.22	18.718
418.58	19.197
418.93	18.621
419.29	17.606
419.64	19.054
420.00	19.395
420.35	18.687
420.71	19.745
421.06	18.048
421.42	19.892
421.77	19.075
422.12	19.012
422.48	18.300
422.83	18.852
423.19	18.567
423.54	18.636
423.90	18.080
424.25	18.370
424.61	18.605
424.96	18.757
425.31	19.584
425.67	18.486
426.02	19.376
426.38	19.537
426.73	18.826
427.09	19.241
427.44	19.765
427.79	19.741
428.15	19.417
428.50	19.261
428.85	17.936
429.21	19.977
429.56	18.652
429.92	19.312
430.27	19.198
430.62	18.610
430.98	19.161
431.33	19.348
431.68	18.995
432.04	18.837
432.39	18.540
432.74	19.182
433.10	20.632
433.45	19.295
433.80	19.211
434.16	19.391
434.51	18.871
434.86	19.106
435.22	18.957
435.57	18.964
435.92	19.042
436.28	18.008
436.63	19.167
436.98	18.946
437.34	19.117
437.69	19.857
438.04	19.487
438.39	19.731
438.75	18.458
439.10	19.581
439.45	20.511
439.81	19.266
440.16	18.646
440.51	19.821
440.86	20.846
441.22	20.079
441.57	20.364
441.92	19.622
442.27	19.568
442.63	19.861
442.98	19.184
443.33	19.421
443.68	19.788
444.03	20.268
444.39	19.725
444.74	20.457
445.09	19.321
445.44	20.627
445.79	20.268
446.15	19.659
446.50	19.190
446.85	19.501
447.20	20.438
447.55	19.754
447.91	19.797
448.26	20.774
448.61	20.668
448.96	20.597
449.31	20.405
449.66	20.616
450.02	19.738
450.37	19.739
450.72	19.989
451.07	20.443
451.42	19.913
451.77	20.374
452.12	19.557
452.47	20.734
452.83	19.729
453.18	20.557
453.53	20.038
453.88	21.008
454.23	20.344
454.58	20.907
454.93	21.392
455.28	19.365
455.63	20.893
455.98	21.708
456.34	20.051
456.69	21.093
457.04	21.613
457.39	19.988
457.74	20.375
458.09	20.129
458.44	20.421
458.79	19.888
459.14	21.053
459.49	21.493
459.84	21.545
460.19	20.085
460.54	21.149
460.89	21.591
461.24	20.807
461.59	21.734
461.94	20.000
462.29	20.265
462.64	22.060
462.99	21.462
463.34	21.071
463.69	21.171
464.04	21.186
464.39	20.922
464.74	21.718
465.09	21.709
465.44	21.523
465.79	20.465
466.14	20.981
466.49	21.334
466.84	22.189
467.19	21.026
467.54	20.754
467.89	20.910
468.24	21.533
468.59	22.540
468.94	21.968
469.29	22.557
469.64	22.625
469.99	22.845
470.34	21.160
470.68	22.744
471.03	23.496
471.38	22.468
471.73	22.619
472.08	22.592
472.43	22.617
472.78	21.933
473.13	22.245
473.48	23.127
473.83	21.856
474.17	21.956
474.52	22.655
474.87	22.545
475.22	21.415
475.57	21.852
475.92	22.216
476.27	22.875
476.61	23.090
476.96	22.309
477.31	22.985
477.66	22.472
478.01	22.965
478.36	22.168
478.70	22.730
479.05	22.912
479.40	22.840
479.75	22.315
480.10	22.273
480.45	21.950
480.79	22.910
481.14	22.490
481.49	22.167
481.84	22.249
482.19	22.357
482.53	23.118
482.88	23.055
483.23	22.217
483.58	22.406
483.92	22.410
484.27	22.288
484.62	22.143
484.97	21.600
485.31	21.676
485.66	20.446
486.01	19.819
486.36	19.095
486.70	19.423
487.05	20.237
487.40	20.605
487.75	20.451
488.09	20.396
488.44	21.045
488.79	21.778
489.13	22.756
489.48	22.702
489.83	22.870
490.17	23.011
490.52	22.910
490.87	23.276
491.22	23.591
491.56	23.102
491.91	22.945
492.26	23.821
492.60	23.752
492.95	23.906
493.30	23.547
493.64	24.067
493.99	24.396
494.34	23.544
494.68	23.714
495.03	23.163
495.37	23.651
495.72	24.382
496.07	23.805
496.41	23.019
496.76	23.952
497.11	23.242
497.45	23.819
497.80	24.420
498.14	24.044
498.49	24.276
498.84	25.150
499.18	24.147
499.53	24.206
499.87	24.611
500.22	24.233
500.56	24.004
500.91	24.398
501.26	23.826
501.60	24.250
501.95	24.503
502.29	23.923
502.64	24.469
502.98	24.864
503.33	23.535
503.67	23.759
504.02	25.415
504.36	24.542
504.71	23.687
505.06	23.855
505.40	24.721
505.75	24.381
506.09	24.430
506.44	25.821
506.78	24.541
507.13	25.336
507.47	24.178
507.82	24.733
508.16	25.726
508.51	25.026
508.85	24.280
509.19	25.120
509.54	25.469
509.88	25.566
510.23	25.444
510.57	24.693
510.92	24.787
511.26	25.150
511.61	25.468
511.95	25.205
512.30	25.443
512.64	26.043
512.98	25.772
513.33	26.357
513.67	26.549
514.02	27.231
514.36	26.514
514.70	27.331
515.05	27.086
515.39	26.682
515.74	27.964
516.08	27.316
516.42	27.032
516.77	26.507
517.11	27.715
517.46	26.691
517.80	26.400
518.14	26.944
518.49	27.344
518.83	28.250
519.17	26.743
519.52	27.294
519.86	27.431
520.20	26.306
520.55	26.204
520.89	28.105
521.23	27.739
521.58	27.950
521.92	28.590
522.26	28.107
522.61	28.182
522.95	28.808
523.29	27.128
523.64	28.463
523.98	28.905
524.32	28.737
524.66	29.129
525.01	28.766
525.35	28.386
525.69	28.283
526.04	28.439
526.38	29.702
526.72	28.254
527.06	28.080
527.41	29.156
527.75	28.686
528.09	28.571
528.43	29.845
528.78	28.911
529.12	28.581
529.46	29.435
529.80	29.196
530.15	28.779
530.49	28.620
530.83	29.343
531.17	28.207
531.51	28.728
531.86	28.688
532.20	29.715
532.54	28.455
532.88	29.774
533.22	28.562
533.57	28.375
533.91	28.590
534.25	28.841
534.59	27.389
534.93	27.250
535.27	27.094
535.62	27.868
535.96	28.311
536.30	27.968
536.64	28.256
536.98	28.153
537.32	28.947
537.66	29.804
538.01	30.000
538.35	28.225
538.69	28.096
539.03	28.161
539.37	28.129
539.71	27.539
540.05	28.853
540.39	28.947
540.73	29.010
541.07	28.384
541.42	28.562
541.76	29.732
542.10	28.699
542.44	29.256
542.78	28.975
543.12	27.953
543.46	29.068
543.80	29.424
544.14	27.904
544.48	27.915
544.82	28.640
545.16	29.235
545.50	29.640
545.84	29.037
546.18	29.362
546.52	28.767
546.86	28.828
547.20	28.398
547.54	27.279
547.88	28.668
548.22	26.890
548.56	28.298
548.90	28.571
549.24	28.306
549.58	28.632
549.92	28.449
550.26	28.938
550.60	30.483
550.94	29.425
551.28	30.448
551.62	30.231
551.96	29.323
552.30	29.678
552.64	27.997
552.98	28.973
553.32	29.387
553.66	29.173
554.00	29.635
554.34	29.616
554.68	28.761
555.02	30.432
555.36	29.544
555.69	27.912
556.03	29.193
556.37	29.466
556.71	29.314
557.05	29.306
557.39	28.030
557.73	29.160
558.07	29.940
558.41	29.173
558.75	30.164
559.08	30.181
559.42	30.159
559.76	31.785
560.10	29.511
560.44	29.039
560.78	29.580
561.12	29.408
561.45	29.164
561.79	28.852
562.13	29.737
562.47	28.921
562.81	29.323
563.15	28.702
563.48	29.349
563.82	29.375
564.16	29.178
564.50	28.784
564.84	28.514
565.17	28.303
565.51	28.689
565.85	29.492
566.19	29.178
566.52	28.284
566.86	30.270
567.20	28.643
567.54	27.737
567.88	28.412
568.21	26.980
568.55	26.685
568.89	26.437
569.23	25.855
569.56	25.701
569.90	24.848
570.24	23.818
570.57	24.145
570.91	23.702
571.25	23.282
571.59	22.890
571.92	22.430
572.26	22.222
572.60	23.132
572.93	23.031
573.27	22.226
573.61	22.494
573.95	22.474
574.28	22.352
574.62	21.637
574.96	21.341
575.29	21.706
575.63	21.379
575.97	21.469
576.30	21.844
576.64	21.775
576.98	21.570
577.31	21.455
577.65	21.835
577.98	21.027
578.32	21.168
578.66	20.739
578.99	20.730
579.33	21.459
579.67	21.045
580.00	21.291
580.34	21.542
580.67	21.291
581.01	21.638
581.35	21.361
581.68	20.980
582.02	20.573
582.35	19.926
582.69	20.354
583.02	20.679
583.36	21.221
583.70	21.547
584.03	22.074
584.37	22.276
584.70	21.951
585.04	21.425
585.37	21.622
585.71	21.353
586.04	20.978
586.38	21.846
586.72	22.181
587.05	22.328
587.39	21.974
587.72	22.171
588.06	22.198
588.39	21.931
588.73	22.314
589.06	23.288
589.40	22.330
589.73	23.147
590.07	23.301
590.40	23.065
590.73	23.764
591.07	24.046
591.40	24.443
591.74	24.525
592.07	24.397
592.41	24.426
592.74	23.975
593.08	22.843
593.41	22.142
593.75	21.721
594.08	22.485
594.41	22.525
594.75	23.397
595.08	22.815
595.42	22.525
595.75	23.357
596.09	23.651
596.42	23.770
596.75	24.023
597.09	24.191
597.42	23.351
597.75	23.362
598.09	23.721
598.42	24.188
598.76	23.552
599.09	22.837
599.42	22.660
599.76	22.799
600.09	23.190
600.42	22.745
600.76	22.140
601.09	22.939
601.42	23.149
601.76	22.946
602.09	23.185
602.42	23.378
602.76	23.599
603.09	23.547
603.42	24.122
603.76	23.145
604.09	22.843
604.42	23.477
604.76	23.854
605.09	24.726
605.42	24.108
605.75	23.468
606.09	23.185
606.42	23.186
606.75	23.723
607.09	23.473
607.42	23.039
607.75	23.712
608.08	23.270
608.42	23.892
608.75	23.855
609.08	23.916
609.41	25.025
609.75	25.101
610.08	25.162
610.41	23.720
610.74	23.940
611.07	25.116
611.41	24.961
611.74	25.640
612.07	24.625
612.40	24.726
612.73	24.972
613.07	24.972
613.40	25.656
613.73	24.175
614.06	25.097
614.39	25.719
614.72	25.546
615.06	25.140
615.39	24.509
615.72	24.489
616.05	25.363
616.38	24.729
616.71	25.138
617.05	26.313
617.38	26.398
617.71	26.164
618.04	27.048
618.37	26.482
618.70	27.195
619.03	27.569
619.36	27.062
619.69	29.037
620.03	28.123
620.36	27.682
620.69	27.338
621.02	28.364
621.35	30.456
621.68	29.082
622.01	29.333
622.34	28.332
622.67	28.943
623.00	26.876
623.33	28.354
623.66	26.926
623.99	26.778
624.32	28.365
624.65	28.647
624.99	27.916
625.32	28.203
625.65	29.222
625.98	29.412
626.31	29.510
626.64	30.156
626.97	31.065
627.30	29.772
627.63	29.896
627.96	29.739
628.29	31.915
628.62	31.465
628.95	30.762
629.28	30.746
629.61	31.206
629.94	32.063
630.26	31.225
630.59	32.674
630.92	32.410
631.25	31.179
631.58	32.599
631.91	31.798
632.24	32.339
632.57	33.182
632.90	33.333
633.23	32.706
