SpectraSuite Data File
++++++++++++++++++++++++++++++++++++
Date: Fri May 15 20:27:09 PDT 2015
User: schluterlab
Dark Spectrum Present: Yes
Reference Spectrum Present: Yes
Number of Sampled Component Spectra: 1
Spectrometers: USB2E3373
Integration Time (usec): 3000 (USB2E3373)
Spectra Averaged: 3 (USB2E3373)
Boxcar Smoothing: 0 (USB2E3373)
Correct for Electrical Dark: No (USB2E3373)
Strobe/Lamp Enabled: No (USB2E3373)
Correct for Detector Non-linearity: No (USB2E3373)
Correct for Stray Light: No (USB2E3373)
Number of Pixels in Processed Spectrum: 2048
>>>>>Begin Processed Spectral Data<<<<<
178.53	0.000
178.91	0.000
179.29	112.500
179.67	-300.000
180.04	-71.429
180.42	275.000
180.80	0.000
181.18	-33.333
181.56	350.000
181.94	200.000
182.31	-300.000
182.69	0.000
183.07	-66.667
183.45	40.000
183.83	200.000
184.20	-9.091
184.58	111.111
184.96	-300.000
185.34	33.333
185.72	50.000
186.09	15.385
186.47	-100.000
186.85	66.667
187.23	177.778
187.61	-1100.000
187.98	-200.000
188.36	44.444
188.74	0.000
189.12	23.529
189.49	-16.667
189.87	0.000
190.25	50.000
190.63	150.000
191.00	-166.667
191.38	68.421
191.76	500.000
192.14	50.000
192.51	0.000
192.89	55.556
193.27	-28.571
193.65	100.000
194.02	136.364
194.40	40.000
194.78	-125.000
195.15	91.667
195.53	-50.000
195.91	275.000
196.29	-150.000
196.66	84.615
197.04	171.429
197.42	66.667
197.79	0.000
198.17	-76.923
198.55	1400.000
198.92	-66.667
199.30	0.000
199.68	-40.000
200.05	-133.333
200.43	0.000
200.81	-100.000
201.18	-33.333
201.56	800.000
201.94	-50.000
202.31	-133.333
202.69	-300.000
203.07	175.000
203.44	0.000
203.82	0.000
204.19	21.429
204.57	-600.000
204.95	25.000
205.32	-30.000
205.70	-42.857
206.08	75.000
206.45	122.222
206.83	107.143
207.20	-157.143
207.58	-0.000
207.96	-166.667
208.33	-90.000
208.71	150.000
209.08	-216.667
209.46	-900.000
209.84	120.000
210.21	300.000
210.59	42.857
210.96	33.333
211.34	150.000
211.71	40.000
212.09	-28.571
212.46	-1400.000
212.84	0.000
213.22	70.000
213.59	450.000
213.97	38.462
214.34	81.818
214.72	216.667
215.09	400.000
215.47	-7.692
215.84	-72.727
216.22	-233.333
216.59	12.500
216.97	0.000
217.34	-325.000
217.72	-360.000
218.09	100.000
218.47	75.000
218.84	500.000
219.22	33.333
219.59	-60.000
219.97	166.667
220.34	225.000
220.72	171.429
221.09	-225.000
221.47	-150.000
221.84	-1100.000
222.22	-650.000
222.59	54.545
222.97	50.000
223.34	-66.667
223.72	-14.286
224.09	-9.524
224.46	46.429
224.84	66.667
225.21	40.000
225.59	0.000
225.96	-100.000
226.34	100.000
226.71	-114.286
227.08	0.000
227.46	-87.500
227.83	-250.000
228.21	-33.333
228.58	-81.818
228.95	37.500
229.33	140.000
229.70	-18.750
230.08	-62.500
230.45	-71.429
230.82	128.571
231.20	13.333
231.57	35.714
231.95	-28.571
232.32	-90.000
232.69	78.571
233.07	66.667
233.44	-40.000
233.81	-50.000
234.19	11.111
234.56	11.765
234.93	-0.000
235.31	75.000
235.68	-100.000
236.05	15.385
236.43	-35.000
236.80	5.882
237.17	0.000
237.55	20.000
237.92	3.704
238.29	11.111
238.67	33.333
239.04	26.471
239.41	4.878
239.79	0.000
240.16	53.659
240.53	26.316
240.91	34.783
241.28	31.746
241.65	37.500
242.02	28.767
242.40	28.333
242.77	25.424
243.14	31.818
243.51	25.000
243.89	28.736
244.26	19.540
244.63	16.667
245.00	37.113
245.38	39.175
245.75	19.101
246.12	16.379
246.49	15.702
246.87	27.885
247.24	31.092
247.61	15.789
247.98	27.642
248.36	23.750
248.73	28.947
249.10	21.429
249.47	26.582
249.84	18.301
250.22	24.706
250.59	25.490
250.96	28.638
251.33	27.326
251.70	19.412
252.08	24.365
252.45	21.287
252.82	27.638
253.19	22.581
253.56	17.757
253.94	25.225
254.31	24.783
254.68	29.825
255.05	27.165
255.42	27.948
255.79	27.413
256.16	25.681
256.54	26.493
256.91	25.095
257.28	22.305
257.65	24.719
258.02	25.532
258.39	21.212
258.76	28.938
259.14	26.578
259.51	26.861
259.88	24.399
260.25	24.183
260.62	28.819
260.99	21.356
261.36	24.658
261.73	28.797
262.10	26.140
262.47	24.847
262.85	25.705
263.22	26.462
263.59	29.283
263.96	31.366
264.33	27.879
264.70	26.786
265.07	24.405
265.44	29.745
265.81	25.424
266.18	26.230
266.55	28.021
266.92	25.907
267.29	25.326
267.66	25.831
268.03	23.298
268.40	25.326
268.77	32.620
269.14	27.338
269.51	28.021
269.88	26.933
270.25	27.296
270.62	26.829
270.99	25.064
271.36	28.606
271.73	25.822
272.10	28.224
272.47	24.823
272.84	25.000
273.21	23.898
273.58	26.988
273.95	24.027
274.32	21.709
274.69	22.624
275.06	26.562
275.43	26.757
275.80	26.269
276.17	25.517
276.54	25.910
276.91	28.070
277.28	23.799
277.65	27.273
278.02	25.319
278.39	25.383
278.76	25.577
279.13	22.822
279.50	25.630
279.87	25.270
280.23	21.720
280.60	24.951
280.97	26.465
281.34	23.846
281.71	23.409
282.08	24.131
282.45	22.114
282.82	22.394
283.19	25.725
283.56	23.892
283.92	22.770
284.29	21.731
284.66	24.225
285.03	23.183
285.40	24.008
285.77	24.429
286.14	25.090
286.51	26.199
286.87	22.303
287.24	23.389
287.61	23.810
287.98	24.912
288.35	25.303
288.72	22.942
289.08	22.917
289.45	23.550
289.82	22.028
290.19	21.160
290.56	20.240
290.93	22.222
291.29	21.418
291.66	24.252
292.03	22.967
292.40	21.452
292.77	22.329
293.13	20.455
293.50	20.637
293.87	20.763
294.24	19.320
294.60	18.778
294.97	20.089
295.34	20.245
295.71	19.672
296.08	20.030
296.44	17.496
296.81	19.306
297.18	18.116
297.55	18.428
297.91	18.904
298.28	19.525
298.65	19.810
299.02	18.329
299.38	17.921
299.75	17.379
300.12	16.361
300.48	17.391
300.85	18.885
301.22	18.701
301.59	16.711
301.95	17.975
302.32	18.288
302.69	15.920
303.05	17.203
303.42	17.933
303.79	17.874
304.15	16.965
304.52	16.885
304.89	16.959
305.25	19.007
305.62	15.053
305.99	15.205
306.35	16.879
306.72	15.073
307.09	15.964
307.45	17.107
307.82	15.972
308.19	17.538
308.55	15.158
308.92	17.320
309.29	15.754
309.65	15.931
310.02	15.952
310.38	16.026
310.75	17.049
311.12	16.577
311.48	16.755
311.85	15.183
312.22	15.084
312.58	16.242
312.95	14.621
313.31	17.081
313.68	15.497
314.05	15.102
314.41	15.361
314.78	17.010
315.14	16.752
315.51	14.907
315.87	16.701
316.24	17.897
316.61	14.961
316.97	15.873
317.34	15.039
317.70	16.348
318.07	15.288
318.43	15.686
318.80	16.004
319.16	14.453
319.53	16.619
319.89	15.551
320.26	16.093
320.62	17.252
320.99	15.449
321.35	15.519
321.72	15.576
322.08	15.811
322.45	14.518
322.81	14.637
323.18	14.524
323.54	14.479
323.91	14.119
324.27	15.039
324.64	15.449
325.00	15.967
325.37	17.264
325.73	14.506
326.10	16.530
326.46	15.695
326.83	15.661
327.19	16.042
327.56	15.725
327.92	16.549
328.29	14.732
328.65	14.717
329.01	14.798
329.38	16.313
329.74	14.920
330.11	15.107
330.47	15.584
330.84	14.327
331.20	16.255
331.56	15.370
331.93	15.068
332.29	14.482
332.66	15.566
333.02	14.870
333.38	14.849
333.75	15.934
334.11	13.071
334.48	15.141
334.84	16.026
335.20	15.188
335.57	15.322
335.93	16.531
336.29	15.378
336.66	14.351
337.02	13.383
337.38	12.778
337.75	14.455
338.11	14.608
338.47	15.511
338.84	14.418
339.20	14.534
339.56	17.156
339.93	15.756
340.29	15.138
340.65	15.233
341.02	15.691
341.38	14.867
341.74	14.046
342.11	15.251
342.47	14.413
342.83	15.744
343.20	14.286
343.56	14.783
343.92	14.703
344.28	15.115
344.65	15.112
345.01	15.298
345.37	14.718
345.73	16.067
346.10	15.272
346.46	14.802
346.82	14.894
347.19	14.464
347.55	14.871
347.91	15.777
348.27	14.309
348.63	14.310
349.00	14.930
349.36	15.129
349.72	15.920
350.08	14.754
350.45	15.084
350.81	14.369
351.17	14.495
351.53	15.918
351.89	14.699
352.26	14.320
352.62	15.081
352.98	14.297
353.34	14.171
353.70	15.372
354.07	15.000
354.43	13.931
354.79	13.955
355.15	15.079
355.51	13.687
355.87	14.806
356.24	13.540
356.60	15.117
356.96	14.841
357.32	14.217
357.68	14.073
358.04	14.297
358.40	14.469
358.77	14.115
359.13	13.691
359.49	14.176
359.85	14.509
360.21	14.274
360.57	14.002
360.93	13.994
361.29	13.671
361.66	14.185
362.02	15.000
362.38	14.242
362.74	13.323
363.10	14.221
363.46	14.233
363.82	15.477
364.18	13.358
364.54	13.824
364.90	13.907
365.26	14.047
365.62	15.328
365.98	14.003
366.35	14.202
366.71	13.747
367.07	13.861
367.43	13.731
367.79	13.357
368.15	14.214
368.51	13.328
368.87	14.142
369.23	13.141
369.59	14.577
369.95	14.956
370.31	14.017
370.67	13.433
371.03	13.966
371.39	13.786
371.75	13.480
372.11	14.408
372.47	13.831
372.83	14.194
373.19	14.836
373.55	13.141
373.91	13.823
374.27	14.600
374.63	14.070
374.99	13.759
375.35	13.928
375.71	13.636
376.07	13.975
376.42	14.082
376.78	14.631
377.14	13.406
377.50	12.815
377.86	13.320
378.22	13.529
378.58	13.526
378.94	12.665
379.30	13.225
379.66	14.671
380.02	13.550
380.38	13.147
380.74	13.285
381.09	14.049
381.45	13.700
381.81	13.634
382.17	13.515
382.53	13.554
382.89	12.932
383.25	13.566
383.61	14.207
383.97	13.397
384.32	13.258
384.68	13.375
385.04	13.297
385.40	13.068
385.76	14.465
386.12	13.648
386.48	13.921
386.83	12.999
387.19	13.492
387.55	13.676
387.91	13.081
388.27	13.736
388.62	13.405
388.98	12.953
389.34	12.992
389.70	12.617
390.06	13.342
390.42	12.824
390.77	13.277
391.13	12.484
391.49	12.937
391.85	12.865
392.20	13.497
392.56	13.160
392.92	13.682
393.28	13.679
393.64	13.033
393.99	14.044
394.35	12.334
394.71	13.729
395.07	13.451
395.42	12.447
395.78	12.704
396.14	12.989
396.50	13.063
396.85	13.329
397.21	12.782
397.57	13.229
397.92	13.481
398.28	13.333
398.64	12.289
399.00	13.713
399.35	12.754
399.71	13.326
400.07	13.180
400.42	13.403
400.78	13.840
401.14	13.370
401.49	13.282
401.85	13.102
402.21	12.590
402.57	12.625
402.92	12.233
403.28	13.471
403.63	13.178
403.99	13.520
404.35	13.429
404.70	11.845
405.06	12.985
405.42	12.989
405.77	13.074
406.13	12.922
406.49	13.262
406.84	13.386
407.20	13.486
407.55	13.587
407.91	13.503
408.27	12.938
408.62	14.338
408.98	12.446
409.34	13.445
409.69	11.886
410.05	13.116
410.40	12.778
410.76	13.812
411.11	13.250
411.47	13.346
411.83	13.120
412.18	13.771
412.54	13.858
412.89	12.377
413.25	12.696
413.60	13.106
413.96	13.681
414.31	13.171
414.67	12.700
415.03	13.382
415.38	12.598
415.74	12.899
416.09	13.912
416.45	13.099
416.80	13.814
417.16	13.674
417.51	13.791
417.87	13.038
418.22	14.508
418.58	13.512
418.93	13.793
419.29	12.676
419.64	13.675
420.00	13.728
420.35	13.373
420.71	13.548
421.06	12.646
421.42	13.762
421.77	12.890
422.12	12.713
422.48	13.590
422.83	13.225
423.19	13.262
423.54	12.463
423.90	12.603
424.25	12.687
424.61	13.035
424.96	13.763
425.31	13.172
425.67	13.967
426.02	13.015
426.38	13.713
426.73	13.741
427.09	14.684
427.44	13.882
427.79	14.025
428.15	13.896
428.50	13.386
428.85	12.899
429.21	13.865
429.56	13.531
429.92	13.662
430.27	13.233
430.62	13.382
430.98	14.013
431.33	13.828
431.68	13.082
432.04	13.024
432.39	13.177
432.74	12.989
433.10	14.425
433.45	13.082
433.80	13.291
434.16	12.687
434.51	13.656
434.86	13.182
435.22	13.965
435.57	13.100
435.92	13.892
436.28	13.536
436.63	13.406
436.98	13.268
437.34	13.007
437.69	14.192
438.04	13.504
438.39	13.745
438.75	13.236
439.10	13.413
439.45	14.242
439.81	13.333
440.16	13.895
440.51	13.851
440.86	14.079
441.22	14.367
441.57	13.742
441.92	14.638
442.27	14.080
442.63	14.026
442.98	13.326
443.33	13.356
443.68	13.050
444.03	13.413
444.39	13.920
444.74	14.047
445.09	14.031
445.44	13.903
445.79	14.079
446.15	13.436
446.50	12.590
446.85	14.187
447.20	13.295
447.55	14.342
447.91	13.931
448.26	14.570
448.61	13.817
448.96	13.712
449.31	13.642
449.66	14.286
450.02	13.520
450.37	13.337
450.72	13.860
451.07	13.924
451.42	13.421
451.77	13.803
452.12	12.081
452.47	13.651
452.83	14.370
453.18	13.915
453.53	14.223
453.88	13.783
454.23	14.198
454.58	14.358
454.93	13.402
455.28	13.270
455.63	14.941
455.98	13.891
456.34	13.729
456.69	14.612
457.04	14.430
457.39	13.973
457.74	13.724
458.09	13.773
458.44	14.453
458.79	13.613
459.14	14.016
459.49	15.284
459.84	15.398
460.19	13.592
460.54	13.936
460.89	14.432
461.24	13.727
461.59	14.549
461.94	13.270
462.29	14.113
462.64	14.817
462.99	15.098
463.34	13.352
463.69	14.672
464.04	14.649
464.39	14.008
464.74	14.110
465.09	14.722
465.44	15.061
465.79	14.286
466.14	14.481
466.49	14.549
466.84	14.337
467.19	15.081
467.54	14.304
467.89	13.898
468.24	13.078
468.59	14.476
468.94	13.905
469.29	15.213
469.64	14.217
469.99	15.347
470.34	13.788
470.68	15.362
471.03	15.499
471.38	14.836
471.73	14.356
472.08	14.925
472.43	14.094
472.78	14.668
473.13	14.218
473.48	14.267
473.83	15.318
474.17	14.378
474.52	15.316
474.87	15.091
475.22	14.338
475.57	14.625
475.92	14.866
476.27	15.076
476.61	15.683
476.96	15.059
477.31	14.873
477.66	14.270
478.01	14.262
478.36	14.597
478.70	14.247
479.05	14.451
479.40	15.315
479.75	14.077
480.10	14.593
480.45	14.600
480.79	15.408
481.14	15.113
481.49	14.581
481.84	15.541
482.19	14.733
482.53	14.916
482.88	15.131
483.23	15.355
483.58	14.623
483.92	14.521
484.27	14.813
484.62	15.554
484.97	14.677
485.31	14.523
485.66	14.535
486.01	14.418
486.36	14.372
486.70	14.216
487.05	14.094
487.40	14.504
487.75	14.028
488.09	13.937
488.44	13.824
488.79	14.419
489.13	14.303
489.48	14.835
489.83	14.978
490.17	14.427
490.52	14.503
490.87	15.363
491.22	14.709
491.56	14.991
491.91	14.293
492.26	14.827
492.60	14.731
492.95	15.396
493.30	15.291
493.64	15.963
493.99	15.411
494.34	14.466
494.68	15.381
495.03	14.939
495.37	15.505
495.72	15.396
496.07	15.366
496.41	15.236
496.76	14.417
497.11	14.625
497.45	15.465
497.80	15.288
498.14	15.450
498.49	14.678
498.84	15.519
499.18	14.910
499.53	14.683
499.87	14.981
500.22	15.134
500.56	14.624
500.91	15.060
501.26	14.829
501.60	14.953
501.95	15.769
502.29	15.496
502.64	15.541
502.98	15.244
503.33	14.793
503.67	15.518
504.02	15.885
504.36	15.883
504.71	15.606
505.06	15.048
505.40	15.635
505.75	15.670
506.09	15.813
506.44	15.708
506.78	15.357
507.13	14.736
507.47	14.360
507.82	14.957
508.16	15.372
508.51	15.635
508.85	16.065
509.19	15.008
509.54	15.228
509.88	15.264
510.23	14.363
510.57	16.729
510.92	14.606
511.26	14.730
511.61	15.182
511.95	16.384
512.30	15.576
512.64	15.693
512.98	14.992
513.33	16.060
513.67	15.861
514.02	16.304
514.36	16.343
514.70	16.841
515.05	16.686
515.39	15.702
515.74	16.467
516.08	16.318
516.42	16.961
516.77	16.559
517.11	16.855
517.46	16.218
517.80	16.269
518.14	15.738
518.49	15.925
518.83	15.978
519.17	15.221
519.52	15.394
519.86	16.026
520.20	15.735
520.55	15.322
520.89	16.939
521.23	15.769
521.58	16.593
521.92	16.474
522.26	15.680
522.61	16.169
522.95	16.358
523.29	16.518
523.64	16.582
523.98	16.461
524.32	16.108
524.66	16.581
525.01	16.494
525.35	17.563
525.69	15.488
526.04	16.601
526.38	17.704
526.72	15.631
527.06	16.407
527.41	16.821
527.75	15.550
528.09	15.748
528.43	16.678
528.78	17.096
529.12	16.645
529.46	16.699
529.80	16.783
530.15	16.370
530.49	16.431
530.83	17.510
531.17	16.454
531.51	17.852
531.86	16.655
532.20	15.727
532.54	16.406
532.88	17.043
533.22	16.398
533.57	16.907
533.91	15.601
534.25	17.383
534.59	16.292
534.93	16.111
535.27	15.990
535.62	17.045
535.96	17.221
536.30	17.348
536.64	16.609
536.98	16.237
537.32	16.643
537.66	17.041
538.01	18.042
538.35	16.505
538.69	17.044
539.03	15.379
539.37	17.026
539.71	16.633
540.05	17.447
540.39	17.798
540.73	17.294
541.07	16.436
541.42	17.204
541.76	17.206
542.10	16.724
542.44	17.373
542.78	15.623
543.12	16.484
543.46	16.551
543.80	17.071
544.14	16.088
544.48	15.723
544.82	15.721
545.16	16.598
545.50	17.690
545.84	16.997
546.18	17.092
546.52	17.159
546.86	15.960
547.20	17.382
547.54	16.537
547.88	17.391
548.22	15.450
548.56	16.821
548.90	16.240
549.24	16.873
549.58	17.348
549.92	15.297
550.26	16.410
550.60	17.323
550.94	16.953
551.28	16.770
551.62	17.538
551.96	17.368
552.30	16.447
552.64	16.573
552.98	17.018
553.32	17.190
553.66	16.401
554.00	16.788
554.34	16.544
554.68	16.003
555.02	16.890
555.36	16.604
555.69	15.604
556.03	16.488
556.37	17.224
556.71	16.462
557.05	17.450
557.39	16.134
557.73	17.166
558.07	16.968
558.41	16.922
558.75	16.524
559.08	17.021
559.42	16.429
559.76	16.333
560.10	15.902
560.44	15.934
560.78	17.063
561.12	16.925
561.45	17.428
561.79	17.367
562.13	17.033
562.47	16.043
562.81	16.571
563.15	17.066
563.48	17.256
563.82	17.090
564.16	16.643
564.50	16.081
564.84	16.867
565.17	16.633
565.51	17.008
565.85	17.215
566.19	17.042
566.52	17.024
566.86	16.902
567.20	15.878
567.54	16.363
567.88	17.047
568.21	15.950
568.55	15.598
568.89	16.581
569.23	15.936
569.56	15.499
569.90	17.134
570.24	16.003
570.57	16.145
570.91	15.476
571.25	15.159
571.59	15.167
571.92	14.637
572.26	15.248
572.60	15.194
572.93	15.218
573.27	15.361
573.61	15.125
573.95	14.855
574.28	14.645
574.62	14.518
574.96	15.258
575.29	14.740
575.63	14.252
575.97	14.774
576.30	14.760
576.64	14.623
576.98	14.929
577.31	14.574
577.65	14.862
577.98	15.068
578.32	14.724
578.66	14.141
578.99	14.530
579.33	14.289
579.67	14.333
580.00	14.709
580.34	14.428
580.67	14.441
581.01	15.250
581.35	14.686
581.68	14.781
582.02	14.590
582.35	14.485
582.69	14.316
583.02	14.826
583.36	14.171
583.70	14.798
584.03	15.040
584.37	15.217
584.70	14.176
585.04	14.845
585.37	14.423
585.71	14.416
586.04	14.700
586.38	14.297
586.72	14.892
587.05	15.425
587.39	14.761
587.72	15.090
588.06	14.835
588.39	14.953
588.73	14.896
589.06	15.525
589.40	15.347
589.73	15.590
590.07	15.332
590.40	14.745
590.73	15.404
591.07	15.522
591.40	15.272
591.74	15.656
592.07	15.584
592.41	15.813
592.74	15.890
593.08	15.124
593.41	15.453
593.75	15.309
594.08	14.864
594.41	15.211
594.75	14.237
595.08	15.702
595.42	15.385
595.75	14.645
596.09	14.816
596.42	14.924
596.75	15.853
597.09	15.080
597.42	15.492
597.75	15.712
598.09	15.663
598.42	14.801
598.76	14.843
599.09	15.785
599.42	15.044
599.76	14.748
600.09	14.706
600.42	15.656
600.76	14.487
601.09	14.656
601.42	14.806
601.76	15.244
602.09	15.182
602.42	14.617
602.76	14.983
603.09	15.615
603.42	15.677
603.76	15.000
604.09	14.459
604.42	15.355
604.76	15.888
605.09	15.585
605.42	14.763
605.75	15.368
606.09	14.692
606.42	14.846
606.75	15.628
607.09	15.692
607.42	14.976
607.75	15.497
608.08	14.016
608.42	15.121
608.75	15.470
609.08	15.645
609.41	15.279
609.75	15.877
610.08	15.077
610.41	15.362
610.74	14.871
611.07	15.245
611.41	15.516
611.74	15.832
612.07	15.953
612.40	15.427
612.73	15.706
613.07	16.198
613.40	15.919
613.73	15.109
614.06	15.804
614.39	15.905
614.72	16.134
615.06	15.810
615.39	15.284
615.72	14.962
616.05	15.028
616.38	14.872
616.71	15.413
617.05	15.874
617.38	16.656
617.71	15.912
618.04	16.254
618.37	16.898
618.70	15.908
619.03	16.319
619.36	15.774
619.69	16.755
620.03	16.654
620.36	15.808
620.69	15.560
621.02	17.278
621.35	17.012
621.68	16.837
622.01	17.250
622.34	17.159
622.67	17.192
623.00	17.228
623.33	17.302
623.66	16.081
623.99	16.112
624.32	16.730
624.65	16.241
624.99	17.532
625.32	15.997
625.65	17.596
625.98	16.761
626.31	15.711
626.64	16.638
626.97	17.016
627.30	17.163
627.63	16.811
627.96	16.532
628.29	16.651
628.62	17.601
628.95	17.435
629.28	17.137
629.61	16.251
629.94	18.377
630.26	18.182
630.59	18.106
630.92	16.308
631.25	16.410
631.58	18.943
631.91	15.789
632.24	17.202
632.57	18.864
632.90	17.912
633.23	19.529
633.56	17.884
633.89	17.509
634.22	19.630
