SpectraSuite Data File
++++++++++++++++++++++++++++++++++++
Date: Fri May 15 20:31:41 PDT 2015
User: schluterlab
Dark Spectrum Present: Yes
Reference Spectrum Present: Yes
Number of Sampled Component Spectra: 1
Spectrometers: USB2E3373
Integration Time (usec): 3000 (USB2E3373)
Spectra Averaged: 3 (USB2E3373)
Boxcar Smoothing: 0 (USB2E3373)
Correct for Electrical Dark: No (USB2E3373)
Strobe/Lamp Enabled: No (USB2E3373)
Correct for Detector Non-linearity: No (USB2E3373)
Correct for Stray Light: No (USB2E3373)
Number of Pixels in Processed Spectrum: 2048
>>>>>Begin Processed Spectral Data<<<<<
178.53	0.000
178.91	0.000
179.29	25.000
179.67	-450.000
180.04	-71.429
180.42	-150.000
180.80	100.000
181.18	166.667
181.56	400.000
181.94	-300.000
182.31	-100.000
182.69	-80.000
183.07	0.000
183.45	-80.000
183.83	133.333
184.20	-100.000
184.58	133.333
184.96	-150.000
185.34	300.000
185.72	-250.000
186.09	130.769
186.47	-400.000
186.85	200.000
187.23	188.889
187.61	500.000
187.98	-600.000
188.36	22.222
188.74	-66.667
189.12	11.765
189.49	50.000
189.87	0.000
190.25	71.429
190.63	-300.000
191.00	-33.333
191.38	-5.263
191.76	200.000
192.14	150.000
192.51	50.000
192.89	-66.667
193.27	-128.571
193.65	166.667
194.02	163.636
194.40	-60.000
194.78	-125.000
195.15	-58.333
195.53	-100.000
195.91	75.000
196.29	-125.000
196.66	84.615
197.04	271.429
197.42	-88.889
197.79	-600.000
198.17	-107.692
198.55	600.000
198.92	0.000
199.30	-700.000
199.68	-60.000
200.05	-300.000
200.43	0.000
200.81	-166.667
201.18	-200.000
201.56	1400.000
201.94	150.000
202.31	-200.000
202.69	-120.000
203.07	225.000
203.44	800.000
203.82	0.000
204.19	-21.429
204.57	-333.333
204.95	50.000
205.32	70.000
205.70	-57.143
206.08	-175.000
206.45	166.667
206.83	7.143
207.20	-114.286
207.58	300.000
207.96	-133.333
208.33	-80.000
208.71	300.000
209.08	-266.667
209.46	200.000
209.84	-120.000
210.21	-1100.000
210.59	-42.857
210.96	-116.667
211.34	-75.000
211.71	73.333
212.09	-114.286
212.46	-1300.000
212.84	0.000
213.22	10.000
213.59	300.000
213.97	30.769
214.34	18.182
214.72	50.000
215.09	425.000
215.47	-69.231
215.84	-27.273
216.22	-433.333
216.59	-12.500
216.97	300.000
217.34	-125.000
217.72	-160.000
218.09	-25.000
218.47	137.500
218.84	-200.000
219.22	-100.000
219.59	-140.000
219.97	466.667
220.34	450.000
220.72	-128.571
221.09	-175.000
221.47	0.000
221.84	-550.000
222.22	-550.000
222.59	0.000
222.97	-41.667
223.34	-433.333
223.72	-21.429
224.09	14.286
224.46	14.286
224.84	333.333
225.21	0.000
225.59	-6.667
225.96	-550.000
226.34	300.000
226.71	57.143
227.08	-83.333
227.46	-12.500
227.83	-700.000
228.21	0.000
228.58	27.273
228.95	-112.500
229.33	110.000
229.70	-12.500
230.08	25.000
230.45	-142.857
230.82	57.143
231.20	-53.333
231.57	-21.429
231.95	28.571
232.32	-90.000
232.69	7.143
233.07	200.000
233.44	280.000
233.81	-20.000
234.19	-11.111
234.56	5.882
234.93	200.000
235.31	-75.000
235.68	-100.000
236.05	-84.615
236.43	0.000
236.80	5.882
237.17	9.375
237.55	55.000
237.92	-29.630
238.29	25.000
238.67	26.667
239.04	14.706
239.41	-9.756
239.79	0.000
240.16	43.902
240.53	7.895
240.91	4.348
241.28	28.571
241.65	35.714
242.02	31.507
242.40	23.333
242.77	32.203
243.14	19.697
243.51	16.250
243.89	41.379
244.26	19.540
244.63	34.524
245.00	31.959
245.38	34.021
245.75	15.730
246.12	23.276
246.49	32.231
246.87	40.385
247.24	27.731
247.61	20.175
247.98	23.577
248.36	26.250
248.73	32.237
249.10	29.870
249.47	33.544
249.84	35.948
250.22	31.765
250.59	28.758
250.96	33.803
251.33	34.884
251.70	42.353
252.08	34.010
252.45	30.198
252.82	34.171
253.19	33.641
253.56	29.439
253.94	32.432
254.31	33.913
254.68	35.526
255.05	32.283
255.42	33.188
255.79	35.907
256.16	33.852
256.54	39.179
256.91	33.080
257.28	31.227
257.65	35.955
258.02	29.433
258.39	31.313
258.76	37.363
259.14	34.884
259.51	32.686
259.88	35.739
260.25	33.333
260.62	38.542
260.99	31.186
261.36	32.534
261.73	35.759
262.10	34.043
262.47	30.982
262.85	32.288
263.22	34.154
263.59	34.579
263.96	34.161
264.33	35.758
264.70	35.714
265.07	35.714
265.44	36.827
265.81	35.028
266.18	33.060
266.55	34.190
266.92	33.161
267.29	37.598
267.66	36.061
268.03	35.340
268.40	33.681
268.77	36.364
269.14	33.333
269.51	35.476
269.88	35.162
270.25	32.653
270.62	33.902
270.99	29.923
271.36	32.029
271.73	34.507
272.10	37.470
272.47	36.643
272.84	32.178
273.21	35.499
273.58	33.012
273.95	33.867
274.32	31.871
274.69	31.900
275.06	35.268
275.43	32.880
275.80	35.099
276.17	33.103
276.54	32.762
276.91	34.211
277.28	30.568
277.65	33.058
278.02	31.489
278.39	33.479
278.76	32.495
279.13	30.083
279.50	34.664
279.87	34.773
280.23	30.968
280.60	33.528
280.97	30.707
281.34	29.038
281.71	33.676
282.08	31.084
282.45	30.724
282.82	32.239
283.19	32.689
283.56	32.563
283.92	30.361
284.29	32.692
284.66	32.171
285.03	32.024
285.40	31.191
285.77	31.283
286.14	31.769
286.51	33.764
286.87	29.068
287.24	32.228
287.61	29.630
287.98	30.877
288.35	30.503
288.72	30.298
289.08	29.340
289.45	28.822
289.82	28.671
290.19	29.863
290.56	29.674
290.93	29.461
291.29	26.040
291.66	29.764
292.03	27.751
292.40	27.581
292.77	28.389
293.13	26.136
293.50	26.859
293.87	27.176
294.24	25.348
294.60	28.018
294.97	27.827
295.34	25.613
295.71	26.975
296.08	25.561
296.44	23.613
296.81	24.306
297.18	26.812
297.55	25.610
297.91	26.575
298.28	25.594
298.65	23.745
299.02	24.259
299.38	22.709
299.75	24.690
300.12	22.251
300.48	24.769
300.85	23.321
301.22	23.766
301.59	24.342
301.95	24.430
302.32	23.735
302.69	23.383
303.05	24.505
303.42	24.159
303.79	23.598
304.15	24.373
304.52	21.165
304.89	22.573
305.25	22.760
305.62	21.587
305.99	23.041
306.35	21.503
306.72	21.710
307.09	22.805
307.45	22.503
307.82	21.759
308.19	22.300
308.55	22.137
308.92	22.331
309.29	22.123
309.65	22.820
310.02	21.562
310.38	22.722
310.75	23.716
311.12	21.851
311.48	22.906
311.85	22.513
312.22	21.097
312.58	22.718
312.95	20.918
313.31	21.222
313.68	21.990
314.05	22.449
314.41	22.165
314.78	22.062
315.14	22.816
315.51	24.120
315.87	21.209
316.24	22.447
316.61	22.047
316.97	22.123
317.34	23.145
317.70	21.989
318.07	22.596
318.43	22.745
318.80	22.064
319.16	23.633
319.53	23.742
319.89	22.736
320.26	22.065
320.62	23.470
320.99	23.069
321.35	24.666
321.72	24.611
322.08	23.968
322.45	23.756
322.81	24.754
323.18	24.730
323.54	24.517
323.91	25.609
324.27	26.562
324.64	26.311
325.00	27.099
325.37	27.273
325.73	26.383
326.10	26.794
326.46	28.789
326.83	28.609
327.19	26.504
327.56	28.149
327.92	28.873
328.29	28.839
328.65	30.189
329.01	30.423
329.38	29.217
329.74	28.517
330.11	30.120
330.47	28.942
330.84	29.904
331.20	32.129
331.56	29.259
331.93	31.416
332.29	31.531
332.66	30.860
333.02	31.320
333.38	31.897
333.75	32.509
334.11	30.976
334.48	33.636
334.84	32.784
335.20	31.290
335.57	30.825
335.93	31.527
336.29	32.413
336.66	31.789
337.02	31.320
337.38	31.481
337.75	33.909
338.11	33.544
338.47	33.212
338.84	32.255
339.20	33.181
339.56	32.385
339.93	32.498
340.29	33.119
340.65	33.423
341.02	32.713
341.38	32.655
341.74	31.625
342.11	31.109
342.47	32.384
342.83	32.785
343.20	31.794
343.56	33.478
343.92	33.392
344.28	33.219
344.65	32.902
345.01	32.325
345.37	31.876
345.73	32.720
346.10	33.909
346.46	33.053
346.82	32.733
347.19	31.837
347.55	33.333
347.91	32.848
348.27	32.741
348.63	32.879
349.00	33.224
349.36	33.084
349.72	34.163
350.08	33.852
350.45	34.397
350.81	33.804
351.17	34.283
351.53	34.204
351.89	32.948
352.26	32.560
352.62	33.548
352.98	32.530
353.34	33.575
353.70	33.981
354.07	33.387
354.43	33.387
354.79	35.260
355.15	34.365
355.51	32.753
355.87	34.628
356.24	33.279
356.60	33.630
356.96	33.413
357.32	34.585
357.68	33.855
358.04	34.168
358.40	34.003
358.77	35.327
359.13	34.748
359.49	33.436
359.85	33.229
360.21	35.486
360.57	34.124
360.93	34.266
361.29	33.686
361.66	34.796
362.02	34.621
362.38	33.511
362.74	34.974
363.10	35.741
363.46	35.582
363.82	35.612
364.18	34.391
364.54	33.971
364.90	34.552
365.26	35.517
365.62	36.715
365.98	35.997
366.35	35.324
366.71	35.551
367.07	35.196
367.43	34.579
367.79	34.770
368.15	35.966
368.51	35.615
368.87	35.607
369.23	35.379
369.59	36.079
369.95	36.657
370.31	37.211
370.67	36.343
371.03	36.072
371.39	36.761
371.75	37.363
372.11	36.805
372.47	36.391
372.83	37.189
373.19	36.662
373.55	35.668
373.91	37.293
374.27	38.483
374.63	37.688
374.99	36.738
375.35	36.978
375.71	38.601
376.07	37.079
376.42	38.639
376.78	38.389
377.14	38.253
377.50	38.313
377.86	38.688
378.22	38.162
378.58	39.167
378.94	37.744
379.30	37.430
379.66	38.934
380.02	38.197
380.38	39.379
380.74	38.600
381.09	39.816
381.45	38.532
381.81	40.592
382.17	39.784
382.53	39.913
382.89	40.866
383.25	41.133
383.61	40.427
383.97	39.810
384.32	40.025
384.68	40.433
385.04	39.583
385.40	41.070
385.76	41.887
386.12	42.173
386.48	42.146
386.83	41.281
387.19	41.880
387.55	41.844
387.91	42.176
388.27	41.148
388.62	41.787
388.98	41.743
389.34	42.661
389.70	42.387
390.06	41.536
390.42	43.329
390.77	43.689
391.13	41.677
391.49	44.502
391.85	43.015
392.20	43.377
392.56	43.357
392.92	43.688
393.28	43.868
393.64	42.583
393.99	45.016
394.35	43.454
394.71	44.317
395.07	43.432
395.42	43.716
395.78	45.147
396.14	45.460
396.50	45.656
396.85	45.847
397.21	44.987
397.57	44.639
397.92	45.297
398.28	45.517
398.64	44.337
399.00	45.993
399.35	45.203
399.71	46.180
400.07	47.340
400.42	46.022
400.78	46.540
401.14	46.279
401.49	46.933
401.85	47.288
402.21	46.566
402.57	46.875
402.92	46.675
403.28	47.682
403.63	48.172
403.99	46.811
404.35	48.532
404.70	46.964
405.06	46.533
405.42	47.048
405.77	46.252
406.13	47.264
406.49	47.425
406.84	48.350
407.20	48.946
407.55	48.744
407.91	49.666
408.27	48.311
408.62	48.677
408.98	48.983
409.34	49.195
409.69	48.514
410.05	47.783
410.40	50.062
410.76	49.517
411.11	49.438
411.47	50.099
411.83	48.901
412.18	50.129
412.54	48.814
412.89	48.892
413.25	50.000
413.60	50.497
413.96	49.939
414.31	50.549
414.67	49.711
415.03	50.466
415.38	50.131
415.74	50.489
416.09	50.490
416.45	50.574
416.80	50.562
417.16	51.865
417.51	50.500
417.87	51.956
418.22	51.231
418.58	51.773
418.93	50.784
419.29	50.704
419.64	49.903
420.00	52.582
420.35	50.925
420.71	51.094
421.06	51.320
421.42	51.502
421.77	50.983
422.12	51.192
422.48	50.839
422.83	50.754
423.19	52.427
423.54	52.263
423.90	50.177
424.25	52.181
424.61	52.142
424.96	53.252
425.31	53.611
425.67	51.643
426.02	53.534
426.38	53.475
426.73	54.782
427.09	54.430
427.44	53.235
427.79	53.565
428.15	52.791
428.50	52.635
428.85	53.563
429.21	53.254
429.56	53.801
429.92	52.080
430.27	51.228
430.62	51.803
430.98	52.176
431.33	53.207
431.68	51.910
432.04	54.612
432.39	53.052
432.74	51.594
433.10	53.563
433.45	53.286
433.80	53.685
434.16	53.463
434.51	53.548
434.86	54.994
435.22	54.010
435.57	54.959
435.92	53.952
436.28	53.429
436.63	52.881
436.98	53.824
437.34	55.172
437.69	54.323
438.04	55.328
438.39	53.024
438.75	55.009
439.10	53.537
439.45	55.447
439.81	55.780
440.16	55.582
440.51	54.985
440.86	55.770
441.22	52.941
441.57	55.740
441.92	56.034
442.27	55.654
442.63	55.139
442.98	55.256
443.33	54.257
443.68	54.430
444.03	55.738
444.39	54.156
444.74	56.633
445.09	55.846
445.44	55.897
445.79	56.111
446.15	54.846
446.50	54.298
446.85	56.270
447.20	54.119
447.55	55.580
447.91	56.627
448.26	55.151
448.61	56.419
448.96	56.225
449.31	56.127
449.66	55.459
450.02	55.790
450.37	56.906
450.72	55.155
451.07	55.886
451.42	55.680
451.77	56.721
452.12	55.742
452.47	56.986
452.83	55.830
453.18	56.230
453.53	57.712
453.88	56.406
454.23	55.439
454.58	57.242
454.93	57.474
455.28	55.238
455.63	56.913
455.98	56.164
456.34	55.747
456.69	56.989
457.04	55.703
457.39	56.318
457.74	55.985
458.09	54.267
458.44	56.583
458.79	56.695
459.14	56.865
459.49	57.015
459.84	57.417
460.19	58.131
460.54	56.968
460.89	57.614
461.24	57.453
461.59	56.532
461.94	56.352
462.29	56.634
462.64	57.940
462.99	57.278
463.34	58.484
463.69	57.465
464.04	58.293
464.39	57.489
464.74	54.663
465.09	57.829
465.44	57.011
465.79	55.385
466.14	56.613
466.49	57.734
466.84	55.860
467.19	58.323
467.54	57.024
467.89	57.296
468.24	58.455
468.59	58.794
468.94	57.651
469.29	58.557
469.64	57.280
469.99	59.005
470.34	57.952
470.68	58.911
471.03	60.156
471.38	59.058
471.73	58.333
472.08	59.023
472.43	59.262
472.78	58.191
473.13	58.776
473.48	58.958
473.83	57.783
474.17	59.132
474.52	58.775
474.87	58.545
475.22	59.060
475.57	58.329
475.92	58.475
476.27	59.313
476.61	58.796
476.96	57.223
477.31	59.329
477.66	57.978
478.01	59.236
478.36	58.170
478.70	59.271
479.05	58.297
479.40	58.771
479.75	58.081
480.10	58.577
480.45	58.650
480.79	59.416
481.14	59.631
481.49	58.621
481.84	59.749
482.19	58.653
482.53	59.376
482.88	58.377
483.23	57.869
483.58	58.962
483.92	57.648
484.27	57.566
484.62	58.628
484.97	57.297
485.31	56.431
485.66	53.251
486.01	52.583
486.36	53.547
486.70	54.631
487.05	55.461
487.40	56.412
487.75	57.437
488.09	57.293
488.44	57.909
488.79	57.564
489.13	59.575
489.48	58.572
489.83	58.655
490.17	58.562
490.52	58.430
490.87	57.797
491.22	59.838
491.56	58.918
491.91	57.887
492.26	59.650
492.60	58.685
492.95	60.748
493.30	58.964
493.64	60.806
493.99	59.275
494.34	59.029
494.68	58.619
495.03	58.005
495.37	59.617
495.72	60.878
496.07	60.390
496.41	58.302
496.76	58.959
497.11	57.848
497.45	59.523
497.80	60.595
498.14	59.016
498.49	60.081
498.84	58.982
499.18	60.141
499.53	59.772
499.87	59.922
500.22	59.496
500.56	60.565
500.91	60.341
501.26	60.109
501.60	59.567
501.95	59.631
502.29	60.145
502.64	60.569
502.98	60.533
503.33	59.366
503.67	60.048
504.02	61.730
504.36	61.059
504.71	61.667
505.06	60.342
505.40	60.558
505.75	61.701
506.09	60.010
506.44	61.858
506.78	60.714
507.13	62.203
507.47	60.627
507.82	61.485
508.16	61.965
508.51	62.067
508.85	61.591
509.19	61.309
509.54	61.394
509.88	61.165
510.23	62.292
510.57	62.640
510.92	60.608
511.26	62.466
511.61	62.156
511.95	62.411
512.30	64.024
512.64	62.270
512.98	62.942
513.33	63.962
513.67	63.047
514.02	64.416
514.36	64.686
514.70	64.860
515.05	65.629
515.39	66.057
515.74	66.527
516.08	66.587
516.42	66.078
516.77	64.775
517.11	66.884
517.46	65.649
517.80	65.077
518.14	66.442
518.49	65.865
518.83	65.978
519.17	65.191
519.52	64.594
519.86	64.766
520.20	67.740
520.55	66.354
520.89	67.252
521.23	65.928
521.58	67.445
521.92	66.987
522.26	67.859
522.61	67.662
522.95	69.603
523.29	66.773
523.64	66.773
523.98	69.216
524.32	66.430
524.66	67.414
525.01	69.545
525.35	68.503
525.69	68.754
526.04	68.056
526.38	68.223
526.72	67.495
527.06	67.704
527.41	66.887
527.75	67.694
528.09	67.907
528.43	67.184
528.78	68.713
529.12	65.355
529.46	68.031
529.80	66.878
530.15	67.591
530.49	68.148
530.83	69.357
531.17	68.167
531.51	68.741
531.86	69.409
532.20	67.780
532.54	67.393
532.88	68.652
533.22	67.944
533.57	66.972
533.91	66.384
534.25	67.383
534.59	68.121
534.93	65.890
535.27	65.863
535.62	67.401
535.96	68.102
536.30	67.876
536.64	68.436
536.98	67.456
537.32	68.279
537.66	68.934
538.01	68.462
538.35	66.782
538.69	67.776
539.03	65.414
539.37	67.631
539.71	66.258
540.05	67.685
540.39	67.382
540.73	68.201
541.07	68.025
541.42	66.196
541.76	67.171
542.10	67.171
542.44	67.477
542.78	65.244
543.12	65.934
543.46	67.455
543.80	67.731
544.14	64.619
544.48	66.689
544.82	66.917
545.16	65.096
545.50	64.619
545.84	67.422
546.18	67.518
546.52	65.970
546.86	66.715
547.20	67.525
547.54	65.088
547.88	65.829
548.22	64.563
548.56	64.380
548.90	66.038
549.24	65.496
549.58	65.444
549.92	65.761
550.26	66.740
550.60	66.989
550.94	66.990
551.28	66.383
551.62	68.231
551.96	67.820
552.30	66.594
552.64	64.175
552.98	66.245
553.32	66.049
553.66	65.167
554.00	65.912
554.34	67.430
554.68	65.634
555.02	66.071
555.36	65.669
555.69	66.740
556.03	64.739
556.37	63.915
556.71	66.643
557.05	66.145
557.39	66.320
557.73	66.492
558.07	67.496
558.41	66.922
558.75	67.966
559.08	64.933
559.42	67.063
559.76	66.293
560.10	66.208
560.44	64.408
560.78	63.986
561.12	64.739
561.45	65.355
561.79	64.706
562.13	64.514
562.47	65.324
562.81	63.401
563.15	62.482
563.48	64.993
563.82	64.173
564.16	64.485
564.50	63.716
564.84	62.651
565.17	63.850
565.51	66.462
565.85	65.158
566.19	63.196
566.52	64.075
566.86	63.432
567.20	62.951
567.54	63.443
567.88	61.804
568.21	62.500
568.55	61.304
568.89	60.626
569.23	60.376
569.56	58.800
569.90	60.049
570.24	56.606
570.57	57.818
570.91	57.720
571.25	56.758
571.59	57.054
571.92	55.378
572.26	56.099
572.60	55.566
572.93	56.009
573.27	56.489
573.61	55.400
573.95	55.653
574.28	54.502
574.62	54.259
574.96	54.400
575.29	53.685
575.63	53.770
575.97	54.351
576.30	54.259
576.64	54.252
576.98	54.080
577.31	54.264
577.65	54.243
577.98	53.360
578.32	52.596
578.66	53.063
578.99	53.884
579.33	53.685
579.67	53.596
580.00	53.772
580.34	54.030
580.67	53.264
581.01	53.386
581.35	52.541
581.68	52.116
582.02	52.156
582.35	52.293
582.69	52.844
583.02	53.108
583.36	54.317
583.70	54.829
584.03	55.630
584.37	55.534
584.70	53.929
585.04	52.746
585.37	52.703
585.71	52.407
586.04	53.152
586.38	53.107
586.72	53.314
587.05	53.928
587.39	53.760
587.72	53.745
588.06	53.584
588.39	53.233
588.73	53.907
589.06	55.349
589.40	54.753
589.73	55.422
590.07	55.098
590.40	55.108
590.73	57.043
591.07	55.344
591.40	55.966
591.74	56.561
592.07	55.751
592.41	56.051
592.74	53.564
593.08	51.939
593.41	52.257
593.75	52.568
594.08	53.004
594.41	52.693
594.75	53.359
595.08	54.370
595.42	53.478
595.75	54.976
596.09	54.730
596.42	54.816
596.75	55.240
597.09	54.533
597.42	54.878
597.75	55.474
598.09	53.554
598.42	53.430
598.76	53.968
599.09	52.764
599.42	52.103
599.76	53.461
600.09	51.471
600.42	51.971
600.76	51.374
601.09	52.748
601.42	52.252
601.76	53.235
602.09	53.919
602.42	54.507
602.76	53.778
603.09	53.156
603.42	55.059
603.76	52.460
604.09	52.450
604.42	53.342
604.76	53.805
605.09	53.245
605.42	53.093
605.75	53.590
606.09	52.781
606.42	52.669
606.75	52.814
607.09	52.044
607.42	52.636
607.75	52.043
608.08	52.246
608.42	51.667
608.75	53.928
609.08	53.014
609.41	53.909
609.75	53.780
610.08	53.620
610.41	53.285
610.74	53.389
611.07	53.385
611.41	53.295
611.74	54.264
612.07	52.516
612.40	54.978
612.73	55.028
613.07	53.881
613.40	54.267
613.73	53.497
614.06	53.589
614.39	54.484
614.72	53.501
615.06	53.575
615.39	53.493
615.72	51.991
616.05	52.402
616.38	53.219
616.71	53.211
617.05	54.849
617.38	54.934
617.71	54.591
618.04	54.921
618.37	53.783
618.70	55.644
619.03	56.944
619.36	54.848
619.69	56.558
620.03	55.442
620.36	55.150
620.69	55.175
621.02	56.575
621.35	58.589
621.68	59.014
622.01	56.833
622.34	55.307
622.67	55.836
623.00	55.130
623.33	55.030
623.66	53.852
623.99	54.463
624.32	55.513
624.65	55.188
624.99	55.380
625.32	54.359
625.65	56.481
625.98	57.131
626.31	55.777
626.64	56.672
626.97	56.894
627.30	57.618
627.63	56.239
627.96	57.951
628.29	57.262
628.62	57.129
628.95	57.615
629.28	57.762
629.61	57.627
629.94	56.989
630.26	58.202
630.59	60.978
630.92	59.282
631.25	56.615
631.58	59.912
631.91	60.088
632.24	61.927
632.57	59.886
632.90	60.261
633.23	58.941
