SpectraSuite Data File
++++++++++++++++++++++++++++++++++++
Date: Fri May 15 20:46:49 PDT 2015
User: schluterlab
Dark Spectrum Present: Yes
Reference Spectrum Present: Yes
Number of Sampled Component Spectra: 1
Spectrometers: USB2E3373
Integration Time (usec): 3000 (USB2E3373)
Spectra Averaged: 3 (USB2E3373)
Boxcar Smoothing: 0 (USB2E3373)
Correct for Electrical Dark: No (USB2E3373)
Strobe/Lamp Enabled: No (USB2E3373)
Correct for Detector Non-linearity: No (USB2E3373)
Correct for Stray Light: No (USB2E3373)
Number of Pixels in Processed Spectrum: 2048
>>>>>Begin Processed Spectral Data<<<<<
178.53	0.000
178.91	0.000
179.29	112.500
179.67	-350.000
180.04	28.571
180.42	25.000
180.80	-200.000
181.18	-133.333
181.56	950.000
181.94	200.000
182.31	1000.000
182.69	-160.000
183.07	-233.333
183.45	20.000
183.83	16.667
184.20	-45.455
184.58	55.556
184.96	-150.000
185.34	166.667
185.72	-450.000
186.09	84.615
186.47	-600.000
186.85	183.333
187.23	166.667
187.61	-300.000
187.98	-100.000
188.36	-44.444
188.74	100.000
189.12	-11.765
189.49	50.000
189.87	0.000
190.25	28.571
190.63	-150.000
191.00	33.333
191.38	-47.368
191.76	0.000
192.14	250.000
192.51	0.000
192.89	-77.778
193.27	-271.429
193.65	133.333
194.02	209.091
194.40	-60.000
194.78	-125.000
195.15	-25.000
195.53	-100.000
195.91	350.000
196.29	0.000
196.66	138.462
197.04	85.714
197.42	-22.222
197.79	-600.000
198.17	-84.615
198.55	700.000
198.92	-400.000
199.30	-500.000
199.68	-120.000
200.05	-400.000
200.43	0.000
200.81	33.333
201.18	-500.000
201.56	1000.000
201.94	-400.000
202.31	66.667
202.69	-120.000
203.07	175.000
203.44	100.000
203.82	0.000
204.19	0.000
204.57	-666.667
204.95	137.500
205.32	-60.000
205.70	-28.571
206.08	175.000
206.45	122.222
206.83	28.571
207.20	-242.857
207.58	600.000
207.96	0.000
208.33	-120.000
208.71	-150.000
209.08	-166.667
209.46	-1000.000
209.84	120.000
210.21	-900.000
210.59	-171.429
210.96	-116.667
211.34	-125.000
211.71	-6.667
212.09	-85.714
212.46	-1200.000
212.84	0.000
213.22	0.000
213.59	700.000
213.97	-23.077
214.34	145.455
214.72	-250.000
215.09	350.000
215.47	0.000
215.84	-36.364
216.22	-533.333
216.59	-25.000
216.97	50.000
217.34	0.000
217.72	-400.000
218.09	-62.500
218.47	150.000
218.84	-700.000
219.22	-155.556
219.59	-220.000
219.97	366.667
220.34	225.000
220.72	0.000
221.09	-350.000
221.47	300.000
221.84	-450.000
222.22	-900.000
222.59	-27.273
222.97	-16.667
223.34	-266.667
223.72	21.429
224.09	-4.762
224.46	14.286
224.84	500.000
225.21	-100.000
225.59	-20.000
225.96	-300.000
226.34	325.000
226.71	-71.429
227.08	16.667
227.46	-100.000
227.83	-800.000
228.21	-111.111
228.58	9.091
228.95	-262.500
229.33	170.000
229.70	37.500
230.08	-87.500
230.45	-57.143
230.82	-85.714
231.20	-20.000
231.57	100.000
231.95	-57.143
232.32	-140.000
232.69	-7.143
233.07	-100.000
233.44	-80.000
233.81	-170.000
234.19	0.000
234.56	-47.059
234.93	400.000
235.31	-50.000
235.68	-200.000
236.05	-84.615
236.43	-70.000
236.80	-11.765
237.17	-25.000
237.55	-25.000
237.92	-22.222
238.29	8.333
238.67	10.000
239.04	2.941
239.41	-19.512
239.79	20.000
240.16	26.829
240.53	-18.421
240.91	4.348
241.28	14.286
241.65	17.857
242.02	24.658
242.40	31.667
242.77	18.644
243.14	7.576
243.51	17.500
243.89	25.287
244.26	9.195
244.63	20.238
245.00	19.588
245.38	24.742
245.75	24.719
246.12	9.483
246.49	16.529
246.87	17.308
247.24	17.647
247.61	11.404
247.98	13.821
248.36	13.750
248.73	17.763
249.10	18.831
249.47	22.152
249.84	19.608
250.22	14.118
250.59	18.954
250.96	23.944
251.33	19.767
251.70	23.529
252.08	20.812
252.45	19.307
252.82	17.085
253.19	21.198
253.56	14.953
253.94	19.820
254.31	25.217
254.68	23.684
255.05	22.047
255.42	20.961
255.79	21.622
256.16	22.568
256.54	20.896
256.91	20.152
257.28	21.561
257.65	24.719
258.02	19.149
258.39	24.916
258.76	22.344
259.14	18.937
259.51	22.654
259.88	23.024
260.25	21.242
260.62	25.347
260.99	19.322
261.36	21.575
261.73	21.835
262.10	20.973
262.47	21.166
262.85	21.317
263.22	21.231
263.59	19.003
263.96	21.739
264.33	23.030
264.70	20.238
265.07	20.238
265.44	21.813
265.81	25.706
266.18	21.858
266.55	23.136
266.92	22.021
267.29	21.149
267.66	20.205
268.03	21.204
268.40	24.021
268.77	25.668
269.14	20.144
269.51	21.851
269.88	20.948
270.25	18.112
270.62	18.049
270.99	19.437
271.36	19.560
271.73	22.066
272.10	24.574
272.47	21.986
272.84	22.525
273.21	24.826
273.58	22.651
273.95	22.883
274.32	19.630
274.69	20.136
275.06	24.107
275.43	19.955
275.80	22.296
276.17	20.690
276.54	22.056
276.91	23.465
277.28	19.214
277.65	21.488
278.02	19.362
278.39	22.101
278.76	21.174
279.13	16.805
279.50	21.008
279.87	23.326
280.23	19.140
280.60	20.078
280.97	21.616
281.34	22.308
281.71	23.614
282.08	16.769
282.45	21.135
282.82	19.498
283.19	19.149
283.56	21.965
283.92	18.975
284.29	18.462
284.66	18.798
285.03	19.646
285.40	19.660
285.77	20.914
286.14	17.148
286.51	21.587
286.87	18.830
287.24	19.705
287.61	19.048
287.98	19.474
288.35	18.718
288.72	19.615
289.08	19.792
289.45	19.332
289.82	20.280
290.19	15.870
290.56	19.554
290.93	19.192
291.29	17.565
291.66	20.000
292.03	18.820
292.40	17.903
292.77	16.746
293.13	14.286
293.50	18.058
293.87	17.863
294.24	14.683
294.60	16.841
294.97	16.667
295.34	17.178
295.71	16.244
296.08	14.649
296.44	13.656
296.81	15.417
297.18	15.507
297.55	18.699
297.91	14.521
298.28	17.282
298.65	16.825
299.02	14.825
299.38	13.269
299.75	15.172
300.12	15.314
300.48	15.547
300.85	15.463
301.22	15.584
301.59	13.947
301.95	16.203
302.32	16.213
302.69	14.179
303.05	14.851
303.42	15.193
303.79	15.888
304.15	14.695
304.52	13.317
304.89	15.088
305.25	15.617
305.62	12.952
305.99	14.854
306.35	13.410
306.72	13.498
307.09	14.481
307.45	15.614
307.82	15.046
308.19	14.518
308.55	14.831
308.92	14.924
309.29	13.743
309.65	14.101
310.02	14.191
310.38	15.807
310.75	15.519
311.12	14.316
311.48	14.952
311.85	14.555
312.22	15.506
312.58	14.119
312.95	14.301
313.31	14.182
313.68	14.136
314.05	14.388
314.41	15.052
314.78	16.598
315.14	15.725
315.51	17.184
315.87	15.471
316.24	16.886
316.61	15.650
316.97	16.766
317.34	15.527
317.70	16.252
318.07	16.058
318.43	16.863
318.80	16.098
319.16	17.871
319.53	18.803
319.89	18.110
320.26	17.814
320.62	18.455
320.99	18.476
321.35	17.986
321.72	18.588
322.08	19.134
322.45	19.594
322.81	19.352
323.18	18.351
323.54	18.243
323.91	18.987
324.27	20.215
324.64	20.974
325.00	20.620
325.37	22.222
325.73	19.492
326.10	20.436
326.46	22.332
326.83	22.922
327.19	21.360
327.56	22.589
327.92	23.151
328.29	21.071
328.65	22.453
329.01	21.507
329.38	23.041
329.74	22.191
330.11	22.521
330.47	22.171
330.84	21.154
331.20	25.095
331.56	22.778
331.93	23.288
332.29	24.015
332.66	23.258
333.02	23.141
333.38	21.815
333.75	25.092
334.11	22.739
334.48	23.844
334.84	23.810
335.20	23.971
335.57	22.484
335.93	22.584
336.29	23.297
336.66	23.433
337.02	22.212
337.38	23.981
337.75	24.000
338.11	24.076
338.47	24.635
338.84	24.214
339.20	24.314
339.56	22.477
339.93	23.814
340.29	23.853
340.65	24.194
341.02	23.138
341.38	23.628
341.74	23.410
342.11	23.310
342.47	24.199
342.83	24.654
343.20	23.258
343.56	24.087
343.92	24.358
344.28	24.338
344.65	24.698
345.01	22.731
345.37	24.306
345.73	24.268
346.10	24.676
346.46	24.390
346.82	23.895
347.19	22.776
347.55	24.394
347.91	24.029
348.27	23.767
348.63	23.680
349.00	23.052
349.36	24.106
349.72	24.544
350.08	24.262
350.45	24.182
350.81	23.588
351.17	22.964
351.53	24.245
351.89	23.699
352.26	24.960
352.62	24.435
352.98	24.177
353.34	24.879
353.70	25.162
354.07	24.194
354.43	23.859
354.79	24.525
355.15	23.730
355.51	23.813
355.87	25.324
356.24	24.470
356.60	24.414
356.96	25.556
357.32	24.201
357.68	24.707
358.04	24.313
358.40	24.035
358.77	25.518
359.13	24.099
359.49	24.807
359.85	25.039
360.21	23.844
360.57	23.718
360.93	25.038
361.29	24.245
361.66	24.922
362.02	24.848
362.38	24.372
362.74	24.678
363.10	26.035
363.46	24.537
363.82	25.394
364.18	24.280
364.54	23.676
364.90	24.301
365.26	25.983
365.62	25.255
365.98	26.246
366.35	25.127
366.71	25.721
367.07	26.343
367.43	25.162
367.79	25.159
368.15	25.915
368.51	25.783
368.87	24.695
369.23	24.621
369.59	25.802
369.95	26.173
370.31	24.928
370.67	25.896
371.03	24.645
371.39	25.164
371.75	25.495
372.11	25.107
372.47	25.666
372.83	26.047
373.19	25.464
373.55	24.621
373.91	25.702
374.27	25.797
374.63	25.341
374.99	26.028
375.35	25.557
375.71	26.294
376.07	25.983
376.42	26.531
376.78	26.107
377.14	25.931
377.50	25.697
377.86	25.435
378.22	25.654
378.58	25.705
378.94	26.024
379.30	25.764
379.66	26.144
380.02	26.180
380.38	24.833
380.74	25.613
381.09	27.117
381.45	26.116
381.81	26.959
382.17	26.713
382.53	26.796
382.89	26.051
383.25	26.322
383.61	26.829
383.97	25.841
384.32	26.391
384.68	26.749
385.04	27.145
385.40	26.198
385.76	27.547
386.12	27.296
386.48	27.522
386.83	26.126
387.19	27.350
387.55	27.666
387.91	26.100
388.27	25.763
388.62	26.683
388.98	26.703
389.34	26.796
389.70	26.290
390.06	26.746
390.42	26.813
390.77	26.684
391.13	26.230
391.49	27.426
391.85	26.381
392.20	26.805
392.56	26.446
392.92	27.540
393.28	26.356
393.64	26.306
393.99	28.589
394.35	27.261
394.71	27.842
395.07	26.147
395.42	26.655
395.78	26.906
396.14	27.175
396.50	27.077
396.85	27.688
397.21	27.193
397.57	27.210
397.92	26.243
398.28	27.701
398.64	26.386
399.00	27.765
399.35	26.242
399.71	25.962
400.07	26.904
400.42	27.540
400.78	26.516
401.14	26.134
401.49	27.278
401.85	26.813
402.21	26.687
402.57	26.687
402.92	26.662
403.28	26.566
403.63	27.427
403.99	26.658
404.35	26.921
404.70	26.310
405.06	25.676
405.42	26.476
405.77	26.554
406.13	26.717
406.49	25.873
406.84	26.222
407.20	27.152
407.55	25.370
407.91	25.936
408.27	26.386
408.62	27.262
408.98	27.542
409.34	27.323
409.69	26.098
410.05	25.800
410.40	27.407
410.76	27.382
411.11	26.500
411.47	25.904
411.83	25.173
412.18	25.869
412.54	26.529
412.89	26.355
413.25	27.196
413.60	26.087
413.96	24.969
414.31	25.488
414.67	25.978
415.03	26.232
415.38	25.196
415.74	25.928
416.09	25.800
416.45	26.739
416.80	26.173
417.16	26.934
417.51	25.450
417.87	24.967
418.22	26.490
418.58	26.488
418.93	26.207
419.29	25.032
419.64	24.951
420.00	27.771
420.35	26.090
420.71	26.185
421.06	25.905
421.42	25.901
421.77	25.318
422.12	25.199
422.48	26.746
422.83	26.798
423.19	26.129
423.54	25.397
423.90	25.559
424.25	25.947
424.61	26.377
424.96	25.261
425.31	26.285
425.67	26.585
426.02	26.620
426.38	25.611
426.73	26.150
427.09	26.203
427.44	26.235
427.79	25.280
428.15	26.092
428.50	25.863
428.85	25.061
429.21	25.297
429.56	25.876
429.92	25.578
430.27	25.213
430.62	24.673
430.98	25.000
431.33	25.868
431.68	25.746
432.04	25.154
432.39	25.613
432.74	25.977
433.10	25.517
433.45	24.791
433.80	25.247
434.16	25.706
434.51	26.022
434.86	26.074
435.22	25.519
435.57	25.515
435.92	25.569
436.28	24.568
436.63	24.758
436.98	25.145
437.34	25.711
437.69	25.880
438.04	24.957
438.39	25.412
438.75	25.440
439.10	25.014
439.45	25.015
439.81	24.832
440.16	25.772
440.51	25.194
440.86	25.619
441.22	24.943
441.57	24.558
441.92	25.656
442.27	25.776
442.63	25.696
442.98	25.503
443.33	24.875
443.68	23.820
444.03	24.988
444.39	25.135
444.74	25.697
445.09	25.891
445.44	25.128
445.79	25.529
446.15	25.110
446.50	24.459
446.85	24.495
447.20	25.756
447.55	26.283
447.91	24.647
448.26	25.157
448.61	25.504
448.96	24.670
449.31	24.682
449.66	24.971
450.02	25.442
450.37	26.082
450.72	25.029
451.07	26.139
451.42	24.844
451.77	25.136
452.12	24.641
452.47	24.018
452.83	24.558
453.18	25.047
453.53	24.779
453.88	25.379
454.23	25.323
454.58	24.622
454.93	24.420
455.28	24.063
455.63	25.108
455.98	25.256
456.34	25.287
456.69	25.286
457.04	24.953
457.39	23.633
457.74	24.547
458.09	24.308
458.44	24.459
458.79	24.482
459.14	25.400
459.49	25.134
459.84	25.381
460.19	24.818
460.54	25.306
460.89	24.432
461.24	24.845
461.59	25.059
461.94	24.214
462.29	24.729
462.64	24.518
462.99	25.186
463.34	24.339
463.69	24.260
464.04	24.516
464.39	24.682
464.74	24.172
465.09	24.267
465.44	24.466
465.79	24.036
466.14	25.485
466.49	24.554
466.84	24.212
467.19	24.218
467.54	23.308
467.89	24.005
468.24	23.236
468.59	23.746
468.94	24.190
469.29	24.459
469.64	24.675
469.99	24.737
470.34	23.823
470.68	24.981
471.03	25.336
471.38	23.966
471.73	24.230
472.08	24.830
472.43	23.758
472.78	23.989
473.13	24.694
473.48	24.169
473.83	23.163
474.17	24.806
474.52	23.995
474.87	23.818
475.22	23.795
475.57	23.885
475.92	24.081
476.27	24.913
476.61	24.306
476.96	23.982
477.31	24.662
477.66	23.708
478.01	23.975
478.36	23.420
478.70	24.633
479.05	23.571
479.40	24.218
479.75	23.201
480.10	23.502
480.45	23.950
480.79	23.666
481.14	23.924
481.49	23.448
481.84	23.552
482.19	23.199
482.53	23.549
482.88	23.294
483.23	23.225
483.58	23.491
483.92	23.233
484.27	23.200
484.62	22.636
484.97	23.176
485.31	22.001
485.66	21.359
486.01	21.391
486.36	21.599
486.70	22.054
487.05	21.979
487.40	22.311
487.75	21.718
488.09	21.941
488.44	22.008
488.79	22.189
489.13	23.197
489.48	22.959
489.83	23.004
490.17	22.202
490.52	23.464
490.87	22.397
491.22	23.209
491.56	23.008
491.91	22.801
492.26	24.259
492.60	23.656
492.95	22.922
493.30	22.912
493.64	23.232
493.99	22.947
494.34	22.427
494.68	22.619
495.03	21.849
495.37	22.964
495.72	22.463
496.07	22.829
496.41	22.264
496.76	22.524
497.11	22.357
497.45	22.816
497.80	23.310
498.14	22.404
498.49	22.956
498.84	22.156
499.18	22.892
499.53	22.073
499.87	22.811
500.22	22.404
500.56	23.046
500.91	22.641
501.26	22.590
501.60	21.938
501.95	22.222
502.29	22.954
502.64	22.587
502.98	22.842
503.33	21.902
503.67	21.831
504.02	22.239
504.36	22.316
504.71	21.919
505.06	21.993
505.40	21.929
505.75	22.526
506.09	22.504
506.44	22.485
506.78	23.214
507.13	22.647
507.47	21.723
507.82	22.489
508.16	22.557
508.51	22.980
508.85	22.711
509.19	21.554
509.54	22.466
509.88	22.006
510.23	21.893
510.57	21.646
510.92	21.482
511.26	22.695
511.61	22.332
511.95	22.575
512.30	22.838
512.64	22.315
512.98	21.336
513.33	21.936
513.67	22.683
514.02	22.826
514.36	22.229
514.70	23.485
515.05	23.267
515.39	23.259
515.74	23.892
516.08	23.132
516.42	23.439
516.77	23.054
517.11	21.721
517.46	23.160
517.80	22.884
518.14	22.719
518.49	22.776
518.83	22.600
519.17	21.286
519.52	21.906
519.86	22.449
520.20	23.147
520.55	22.389
520.89	23.338
521.23	22.926
521.58	23.596
521.92	23.269
522.26	22.381
522.61	24.026
522.95	23.444
523.29	23.189
523.64	22.554
523.98	23.526
524.32	22.358
524.66	23.239
525.01	23.247
525.35	23.072
525.69	22.290
526.04	22.751
526.38	24.060
526.72	22.564
527.06	23.411
527.41	23.087
527.75	21.850
528.09	22.924
528.43	22.417
528.78	22.706
529.12	23.161
529.46	22.417
529.80	22.356
530.15	22.838
530.49	21.953
530.83	22.845
531.17	22.163
531.51	22.914
531.86	22.026
532.20	22.060
532.54	23.145
532.88	22.450
533.22	22.177
533.57	21.756
533.91	20.822
534.25	22.070
534.59	21.552
534.93	21.649
535.27	21.827
535.62	21.128
535.96	21.331
536.30	21.702
536.64	21.571
536.98	22.160
537.32	22.760
537.66	22.511
538.01	22.657
538.35	21.914
538.69	22.170
539.03	22.351
539.37	22.207
539.71	20.859
540.05	21.724
540.39	22.230
540.73	21.967
541.07	22.514
541.42	21.707
541.76	22.712
542.10	21.886
542.44	21.612
542.78	20.165
543.12	21.566
543.46	22.045
543.80	22.623
544.14	21.028
544.48	21.452
544.82	21.463
545.16	21.448
545.50	22.230
545.84	22.663
546.18	21.915
546.52	21.341
546.86	21.352
547.20	21.245
547.54	20.989
547.88	20.788
548.22	19.592
548.56	20.844
548.90	21.496
549.24	20.799
549.58	22.285
549.92	20.229
550.26	21.319
550.60	21.264
550.94	21.583
551.28	21.175
551.62	21.231
551.96	22.180
552.30	21.784
552.64	20.592
552.98	20.956
553.32	20.756
553.66	20.537
554.00	21.314
554.34	20.679
554.68	21.239
555.02	21.131
555.36	20.194
555.69	20.293
556.03	20.557
556.37	20.142
556.71	20.650
557.05	20.283
557.39	19.851
557.73	21.889
558.07	21.719
558.41	20.138
558.75	21.278
559.08	21.355
559.42	20.952
559.76	20.657
560.10	20.719
560.44	20.253
560.78	21.259
561.12	20.874
561.45	20.661
561.79	20.588
562.13	21.079
562.47	20.647
562.81	20.533
563.15	21.086
563.48	20.156
563.82	20.522
564.16	20.404
564.50	20.608
564.84	20.214
565.17	19.718
565.51	21.038
565.85	19.753
566.19	20.358
566.52	20.040
566.86	21.080
567.20	19.240
567.54	18.917
567.88	20.035
568.21	19.910
568.55	19.620
568.89	19.815
569.23	19.066
569.56	18.214
569.90	19.164
570.24	18.087
570.57	18.400
570.91	18.752
571.25	18.086
571.59	18.094
571.92	17.422
572.26	17.331
572.60	17.457
572.93	17.320
573.27	17.273
573.61	17.512
573.95	16.985
574.28	17.082
574.62	16.832
574.96	16.879
575.29	17.037
575.63	16.662
575.97	16.400
576.30	16.952
576.64	16.715
576.98	17.477
577.31	16.859
577.65	16.766
577.98	16.927
578.32	16.663
578.66	16.377
578.99	16.355
579.33	16.937
579.67	16.402
580.00	16.405
580.34	16.244
580.67	16.642
581.01	16.979
581.35	16.516
581.68	16.355
582.02	16.150
582.35	16.267
582.69	16.245
583.02	16.279
583.36	16.347
583.70	16.900
584.03	17.042
584.37	17.165
584.70	16.593
585.04	15.984
585.37	16.388
585.71	15.947
586.04	16.515
586.38	16.138
586.72	16.758
587.05	16.262
587.39	16.802
587.72	16.785
588.06	16.994
588.39	16.662
588.73	16.880
589.06	17.449
589.40	17.145
589.73	17.269
590.07	17.145
590.40	17.067
590.73	17.586
591.07	16.921
591.40	17.409
591.74	16.923
592.07	18.228
592.41	17.580
592.74	16.726
593.08	16.137
593.41	17.002
593.75	16.585
594.08	17.439
594.41	16.885
594.75	17.023
595.08	16.950
595.42	16.783
595.75	17.124
596.09	16.927
596.42	17.197
596.75	17.007
597.09	17.175
597.42	17.073
597.75	17.636
598.09	16.704
598.42	16.787
598.76	16.602
599.09	16.747
599.42	16.749
599.76	16.328
600.09	16.516
600.42	16.907
600.76	16.196
601.09	16.412
601.42	16.255
601.76	15.760
602.09	16.460
602.42	16.765
602.76	16.553
603.09	17.110
603.42	16.806
603.76	15.444
604.09	16.363
604.42	16.582
604.76	17.668
605.09	16.819
605.42	17.291
605.75	16.681
606.09	16.348
606.42	16.138
606.75	16.234
607.09	16.571
607.42	16.482
607.75	16.963
608.08	16.262
608.42	16.400
608.75	17.398
609.08	16.741
609.41	16.497
609.75	16.331
610.08	17.374
610.41	16.618
610.74	16.967
611.07	16.796
611.41	17.177
611.74	17.324
612.07	16.542
612.40	17.834
612.73	16.497
613.07	16.479
613.40	17.287
613.73	16.508
614.06	17.307
614.39	17.090
614.72	17.143
615.06	17.598
615.39	16.976
615.72	16.523
616.05	17.933
616.38	16.353
616.71	16.453
617.05	18.036
617.38	17.599
617.71	17.296
618.04	17.397
618.37	18.285
618.70	17.690
619.03	18.333
619.36	17.945
619.69	17.513
620.03	18.773
620.36	17.597
620.69	17.559
621.02	16.896
621.35	18.755
621.68	18.707
622.01	18.000
622.34	18.595
622.67	18.849
623.00	18.683
623.33	18.369
623.66	16.904
623.99	18.457
624.32	18.099
624.65	17.669
624.99	17.607
625.32	17.210
625.65	17.910
625.98	18.372
626.31	17.456
626.64	18.804
626.97	18.674
627.30	19.352
627.63	18.544
627.96	19.856
628.29	19.056
628.62	19.076
628.95	19.639
629.28	19.355
629.61	19.143
629.94	19.550
630.26	19.466
630.59	19.251
630.92	19.487
631.25	19.487
631.58	20.044
631.91	18.860
632.24	18.807
632.57	19.773
632.90	20.166
