SpectraSuite Data File
++++++++++++++++++++++++++++++++++++
Date: Fri May 15 20:34:21 PDT 2015
User: schluterlab
Dark Spectrum Present: Yes
Reference Spectrum Present: Yes
Number of Sampled Component Spectra: 1
Spectrometers: USB2E3373
Integration Time (usec): 3000 (USB2E3373)
Spectra Averaged: 3 (USB2E3373)
Boxcar Smoothing: 0 (USB2E3373)
Correct for Electrical Dark: No (USB2E3373)
Strobe/Lamp Enabled: No (USB2E3373)
Correct for Detector Non-linearity: No (USB2E3373)
Correct for Stray Light: No (USB2E3373)
Number of Pixels in Processed Spectrum: 2048
>>>>>Begin Processed Spectral Data<<<<<
178.53	0.000
178.91	0.000
179.29	-25.000
179.67	-550.000
180.04	28.571
180.42	50.000
180.80	-600.000
181.18	200.000
181.56	550.000
181.94	-250.000
182.31	400.000
182.69	-160.000
183.07	-100.000
183.45	60.000
183.83	133.333
184.20	-9.091
184.58	77.778
184.96	-25.000
185.34	200.000
185.72	-850.000
186.09	76.923
186.47	-600.000
186.85	233.333
187.23	133.333
187.61	200.000
187.98	-133.333
188.36	0.000
188.74	-33.333
189.12	-23.529
189.49	5.556
189.87	0.000
190.25	-78.571
190.63	-150.000
191.00	-33.333
191.38	31.579
191.76	150.000
192.14	-75.000
192.51	-150.000
192.89	-55.556
193.27	-100.000
193.65	166.667
194.02	118.182
194.40	-30.000
194.78	-150.000
195.15	0.000
195.53	-75.000
195.91	375.000
196.29	-225.000
196.66	138.462
197.04	71.429
197.42	-55.556
197.79	-333.333
198.17	-38.462
198.55	1800.000
198.92	-400.000
199.30	-1200.000
199.68	-140.000
200.05	66.667
200.43	0.000
200.81	-166.667
201.18	-100.000
201.56	700.000
201.94	-550.000
202.31	266.667
202.69	-120.000
203.07	325.000
203.44	-100.000
203.82	0.000
204.19	0.000
204.57	-133.333
204.95	137.500
205.32	-40.000
205.70	-85.714
206.08	-100.000
206.45	100.000
206.83	92.857
207.20	-157.143
207.58	-100.000
207.96	0.000
208.33	-40.000
208.71	-225.000
209.08	-183.333
209.46	-1400.000
209.84	100.000
210.21	-1200.000
210.59	-57.143
210.96	16.667
211.34	-200.000
211.71	20.000
212.09	-42.857
212.46	-1800.000
212.84	0.000
213.22	-30.000
213.59	450.000
213.97	23.077
214.34	27.273
214.72	-150.000
215.09	625.000
215.47	-46.154
215.84	45.455
216.22	-366.667
216.59	-112.500
216.97	300.000
217.34	-250.000
217.72	-140.000
218.09	0.000
218.47	250.000
218.84	-900.000
219.22	-100.000
219.59	-160.000
219.97	566.667
220.34	450.000
220.72	57.143
221.09	-175.000
221.47	100.000
221.84	-550.000
222.22	-900.000
222.59	9.091
222.97	-41.667
223.34	-133.333
223.72	-28.571
224.09	-33.333
224.46	-14.286
224.84	600.000
225.21	-150.000
225.59	-40.000
225.96	-500.000
226.34	375.000
226.71	-171.429
227.08	-83.333
227.46	-12.500
227.83	-650.000
228.21	-22.222
228.58	-36.364
228.95	-87.500
229.33	40.000
229.70	31.250
230.08	-100.000
230.45	-128.571
230.82	-85.714
231.20	-53.333
231.57	28.571
231.95	-14.286
232.32	-180.000
232.69	42.857
233.07	-133.333
233.44	-60.000
233.81	-130.000
234.19	-77.778
234.56	-88.235
234.93	650.000
235.31	50.000
235.68	-260.000
236.05	-76.923
236.43	-55.000
236.80	0.000
237.17	12.500
237.55	-45.000
237.92	-37.037
238.29	19.444
238.67	-23.333
239.04	0.000
239.41	-12.195
239.79	-33.333
240.16	-2.439
240.53	-10.526
240.91	-21.739
241.28	-9.524
241.65	3.571
242.02	15.068
242.40	1.667
242.77	6.780
243.14	-4.545
243.51	-3.750
243.89	14.943
244.26	1.149
244.63	7.143
245.00	3.093
245.38	9.278
245.75	-3.371
246.12	1.724
246.49	7.438
246.87	7.692
247.24	0.840
247.61	7.018
247.98	3.252
248.36	12.500
248.73	7.237
249.10	8.442
249.47	4.430
249.84	16.993
250.22	8.235
250.59	7.190
250.96	15.023
251.33	5.233
251.70	14.706
252.08	5.076
252.45	6.436
252.82	8.040
253.19	7.373
253.56	4.673
253.94	5.405
254.31	8.696
254.68	10.088
255.05	13.386
255.42	6.550
255.79	8.108
256.16	10.117
256.54	8.955
256.91	7.985
257.28	8.178
257.65	5.993
258.02	9.220
258.39	4.714
258.76	8.059
259.14	11.960
259.51	11.003
259.88	9.278
260.25	11.765
260.62	9.375
260.99	6.102
261.36	7.877
261.73	8.544
262.10	11.246
262.47	11.043
262.85	6.897
263.22	7.692
263.59	10.592
263.96	12.112
264.33	7.879
264.70	8.333
265.07	10.417
265.44	12.181
265.81	10.734
266.18	9.016
266.55	10.797
266.92	9.067
267.29	7.833
267.66	10.997
268.03	9.686
268.40	9.661
268.77	12.299
269.14	9.592
269.51	12.082
269.88	7.481
270.25	8.418
270.62	10.000
270.99	5.115
271.36	8.802
271.73	10.329
272.10	10.706
272.47	8.274
272.84	9.158
273.21	12.065
273.58	10.120
273.95	11.442
274.32	8.776
274.69	9.276
275.06	11.607
275.43	9.070
275.80	10.375
276.17	7.126
276.54	9.422
276.91	9.868
277.28	8.297
277.65	10.950
278.02	9.787
278.39	8.972
278.76	9.434
279.13	7.676
279.50	8.824
279.87	6.695
280.23	8.602
280.60	12.281
280.97	9.495
281.34	10.000
281.71	13.552
282.08	7.975
282.45	7.632
282.82	7.529
283.19	7.737
283.56	9.056
283.92	8.539
284.29	8.654
284.66	8.140
285.03	6.876
285.40	8.696
285.77	8.787
286.14	7.040
286.51	10.332
286.87	7.130
287.24	9.024
287.61	8.113
287.98	10.175
288.35	8.666
288.72	10.158
289.08	9.201
289.45	8.787
289.82	9.615
290.19	6.997
290.56	6.175
290.93	7.239
291.29	6.009
291.66	7.717
292.03	6.699
292.40	8.871
292.77	7.974
293.13	6.169
293.50	6.222
293.87	6.870
294.24	8.192
294.60	8.197
294.97	7.143
295.34	7.362
295.71	8.942
296.08	5.531
296.44	5.548
296.81	6.944
297.18	6.667
297.55	8.537
297.91	7.260
298.28	9.631
298.65	6.784
299.02	6.739
299.38	5.609
299.75	8.414
300.12	6.152
300.48	6.324
300.85	6.971
301.22	6.234
301.59	6.447
301.95	7.089
302.32	7.393
302.69	7.338
303.05	5.322
303.42	7.347
303.79	7.360
304.15	8.005
304.52	4.875
304.89	5.614
305.25	5.811
305.62	5.951
305.99	5.965
306.35	6.127
306.72	5.624
307.09	6.385
307.45	7.348
307.82	7.292
308.19	6.272
308.55	6.543
308.92	6.318
309.29	4.022
309.65	6.674
310.02	6.821
310.38	6.367
310.75	7.104
311.12	6.243
311.48	7.635
311.85	6.178
312.22	5.802
312.58	7.325
312.95	5.550
313.31	6.211
313.68	6.702
314.05	6.429
314.41	5.979
314.78	7.526
315.14	7.400
315.51	7.453
315.87	7.992
316.24	9.100
316.61	8.957
316.97	7.242
317.34	7.617
317.70	7.075
318.07	7.885
318.43	8.725
318.80	8.996
319.16	8.984
319.53	9.687
319.89	9.547
320.26	8.704
320.62	10.632
320.99	10.334
321.35	10.072
321.72	11.630
322.08	11.782
322.45	11.472
322.81	12.672
323.18	12.561
323.54	12.355
323.91	12.950
324.27	13.281
324.64	14.326
325.00	15.602
325.37	16.437
325.73	15.775
326.10	14.623
326.46	16.233
326.83	17.060
327.19	17.611
327.56	18.071
327.92	18.222
328.29	18.214
328.65	18.396
329.01	18.199
329.38	18.433
329.74	19.263
330.11	19.277
330.47	19.388
330.84	17.885
331.20	22.148
331.56	19.259
331.93	19.817
332.29	20.073
332.66	21.629
333.02	20.818
333.38	21.907
333.75	22.161
334.11	19.517
334.48	22.303
334.84	21.429
335.20	21.409
335.57	20.762
335.93	21.771
336.29	22.376
336.66	20.527
337.02	19.888
337.38	21.019
337.75	22.091
338.11	22.272
338.47	23.358
338.84	22.366
339.20	22.303
339.56	22.661
339.93	21.576
340.29	21.743
340.65	23.118
341.02	22.163
341.38	21.770
341.74	22.350
342.11	21.750
342.47	21.975
342.83	21.886
343.20	22.300
343.56	23.130
343.92	22.586
344.28	24.338
344.65	22.539
345.01	22.645
345.37	21.867
345.73	22.845
346.10	23.037
346.46	24.222
346.82	22.586
347.19	21.862
347.55	22.807
347.91	23.301
348.27	22.716
348.63	22.828
349.00	21.575
349.36	22.028
349.72	23.715
350.08	23.033
350.45	22.586
350.81	22.674
351.17	22.068
351.53	23.429
351.89	21.883
352.26	22.320
352.62	23.065
352.98	22.811
353.34	23.671
353.70	23.301
354.07	22.177
354.43	21.938
354.79	22.378
355.15	23.492
355.51	23.892
355.87	23.058
356.24	22.023
356.60	23.040
356.96	23.333
357.32	22.843
357.68	22.909
358.04	22.940
358.40	23.714
358.77	24.960
359.13	22.738
359.49	22.650
359.85	23.869
360.21	22.249
360.57	22.647
360.93	23.979
361.29	23.187
361.66	23.668
362.02	23.333
362.38	24.372
362.74	22.786
363.10	24.003
363.46	23.647
363.82	23.366
364.18	23.911
364.54	22.500
364.90	23.584
365.26	23.217
365.62	24.526
365.98	24.194
366.35	23.671
366.71	24.021
367.07	24.383
367.43	24.227
367.79	24.382
368.15	24.480
368.51	24.035
368.87	24.695
369.23	23.466
369.59	23.469
369.95	24.487
370.31	25.217
370.67	24.478
371.03	24.421
371.39	25.018
371.75	25.201
372.11	25.250
372.47	24.556
372.83	24.982
373.19	25.036
373.55	23.538
373.91	25.918
374.27	24.805
374.63	25.341
374.99	23.972
375.35	24.791
375.71	25.455
376.07	25.562
376.42	26.122
376.78	25.973
377.14	25.728
377.50	25.365
377.86	25.033
378.22	25.590
378.58	25.897
378.94	25.079
379.30	26.388
379.66	26.019
380.02	25.690
380.38	25.685
380.74	26.092
381.09	26.503
381.45	26.177
381.81	26.897
382.17	26.713
382.53	27.795
382.89	26.554
383.25	26.758
383.61	26.524
383.97	26.540
384.32	26.517
384.68	27.678
385.04	26.838
385.40	26.322
385.76	27.925
386.12	27.426
386.48	27.395
386.83	26.886
387.19	27.717
387.55	29.109
387.91	27.506
388.27	26.984
388.62	28.005
388.98	27.686
389.34	27.858
389.70	27.470
390.06	27.502
390.42	27.850
390.77	28.319
391.13	28.058
391.49	27.814
391.85	27.355
392.20	27.244
392.56	27.209
392.92	28.479
393.28	28.892
393.64	27.928
393.99	29.028
394.35	27.514
394.71	29.246
395.07	28.284
395.42	27.201
395.78	28.143
396.14	28.247
396.50	28.662
396.85	28.397
397.21	27.444
397.57	28.150
397.92	28.520
398.28	28.333
398.64	27.590
399.00	28.047
399.35	27.314
399.71	27.628
400.07	27.932
400.42	27.601
400.78	28.965
401.14	28.191
401.49	28.112
401.85	27.544
402.21	28.434
402.57	28.438
402.92	27.666
403.28	27.757
403.63	28.878
403.99	27.615
404.35	27.733
404.70	28.274
405.06	28.202
405.42	27.035
405.77	27.600
406.13	27.590
406.49	27.117
406.84	28.178
407.20	28.417
407.55	28.075
407.91	26.805
408.27	27.215
408.62	26.769
408.98	27.665
409.34	28.191
409.69	27.067
410.05	27.894
410.40	27.901
410.76	28.227
411.11	27.000
411.47	27.087
411.83	26.428
412.18	28.185
412.54	27.341
412.89	26.047
413.25	27.858
413.60	26.646
413.96	25.583
414.31	27.622
414.67	26.620
415.03	26.897
415.38	26.110
415.74	27.296
416.09	26.780
416.45	27.819
416.80	27.759
417.16	27.555
417.51	27.715
417.87	26.467
418.22	26.166
418.58	27.692
418.93	27.524
419.29	26.248
419.64	26.507
420.00	28.023
420.35	26.687
420.71	28.129
421.06	27.624
421.42	26.502
421.77	27.052
422.12	27.072
422.48	26.584
422.83	26.450
423.19	26.919
423.54	26.925
423.90	25.795
424.25	27.038
424.61	27.662
424.96	27.003
425.31	27.210
425.67	26.761
426.02	27.739
426.38	26.738
426.73	27.058
427.09	26.899
427.44	27.588
427.79	26.164
428.15	27.609
428.50	27.256
428.85	25.860
429.21	27.051
429.56	27.332
429.92	26.810
430.27	27.018
430.62	25.091
430.98	26.115
431.33	27.445
431.68	26.321
432.04	26.887
432.39	26.868
432.74	26.097
433.10	27.414
433.45	26.404
433.80	26.524
434.16	25.596
434.51	26.559
434.86	26.771
435.22	25.743
435.57	26.825
435.92	26.228
436.28	26.893
436.63	27.096
436.98	26.362
437.34	26.618
437.69	28.086
438.04	27.236
438.39	26.634
438.75	27.444
439.10	26.825
439.45	27.754
439.81	26.789
440.16	28.800
440.51	28.358
440.86	27.492
441.22	26.810
441.57	27.870
441.92	28.279
442.27	27.217
442.63	28.319
442.98	27.858
443.33	27.546
443.68	28.329
444.03	28.614
444.39	27.939
444.74	28.094
445.09	28.731
445.44	28.034
445.79	29.139
446.15	27.588
446.50	27.842
446.85	28.215
447.20	27.685
447.55	28.850
447.91	27.862
448.26	29.254
448.61	28.152
448.96	29.145
449.31	28.786
449.66	27.410
450.02	28.523
450.37	27.445
450.72	28.408
451.07	28.481
451.42	27.778
451.77	27.908
452.12	27.512
452.47	27.495
452.83	29.093
453.18	27.704
453.53	28.382
453.88	28.476
454.23	28.150
454.58	29.156
454.93	29.575
455.28	27.746
455.63	29.076
455.98	28.743
456.34	28.352
456.69	29.543
457.04	28.544
457.39	28.068
457.74	27.449
458.09	27.134
458.44	28.438
458.79	27.171
459.14	28.432
459.49	28.836
459.84	27.975
460.19	27.306
460.54	28.912
460.89	28.239
461.24	27.640
461.59	27.969
461.94	26.855
462.29	27.563
462.64	28.173
462.99	27.082
463.34	27.747
463.69	27.284
464.04	27.906
464.39	27.107
464.74	27.730
465.09	27.636
465.44	27.928
465.79	27.608
466.14	26.853
466.49	27.085
466.84	26.591
467.19	27.785
467.54	26.309
467.89	27.479
468.24	26.946
468.59	27.238
468.94	26.603
469.29	27.148
469.64	26.521
469.99	27.260
470.34	26.553
470.68	27.740
471.03	27.318
471.38	25.963
471.73	26.401
472.08	25.509
472.43	26.980
472.78	25.634
473.13	25.918
473.48	25.537
473.83	26.152
474.17	25.972
474.52	26.739
474.87	25.333
475.22	25.991
475.57	25.692
475.92	26.879
476.27	27.183
476.61	26.447
476.96	25.432
477.31	25.852
477.66	26.292
478.01	24.818
478.36	25.490
478.70	25.938
479.05	26.154
479.40	25.967
479.75	25.182
480.10	25.448
480.45	24.950
480.79	25.428
481.14	25.410
481.49	24.729
481.84	24.855
482.19	24.602
482.53	24.556
482.88	24.869
483.23	25.000
483.58	24.575
483.92	23.475
484.27	24.157
484.62	25.011
484.97	23.798
485.31	23.880
485.66	23.240
486.01	24.062
486.36	23.752
486.70	24.288
487.05	24.235
487.40	23.604
487.75	23.239
488.09	23.177
488.44	23.384
488.79	22.861
489.13	24.239
489.48	23.258
489.83	23.543
490.17	23.640
490.52	23.649
490.87	23.415
491.22	23.305
491.56	23.150
491.91	23.184
492.26	23.529
492.60	23.656
492.95	24.152
493.30	23.205
493.64	23.821
493.99	23.092
494.34	22.718
494.68	22.333
495.03	22.774
495.37	23.209
495.72	22.615
496.07	23.659
496.41	22.311
496.76	21.925
497.11	22.450
497.45	22.673
497.80	22.553
498.14	22.206
498.49	22.092
498.84	21.956
499.18	23.343
499.53	22.520
499.87	21.790
500.22	21.860
500.56	22.441
500.91	21.084
501.26	22.294
501.60	22.036
501.95	21.591
502.29	21.743
502.64	22.683
502.98	21.707
503.33	20.701
503.67	22.602
504.02	22.141
504.36	22.167
504.71	21.465
505.06	21.137
505.40	20.355
505.75	21.907
506.09	21.490
506.44	21.509
506.78	21.480
507.13	21.510
507.47	20.366
507.82	20.085
508.16	20.338
508.51	21.196
508.85	21.088
509.19	20.490
509.54	20.375
509.88	20.874
510.23	20.334
510.57	21.112
510.92	19.030
511.26	20.240
511.61	21.122
511.95	20.767
512.30	20.787
512.64	20.812
512.98	20.157
513.33	21.433
513.67	19.784
514.02	21.682
514.36	21.371
514.70	21.329
515.05	20.975
515.39	20.661
515.74	20.359
516.08	20.861
516.42	20.318
516.77	20.012
517.11	20.356
517.46	19.868
517.80	19.845
518.14	19.473
518.49	19.531
518.83	19.502
519.17	19.042
519.52	19.124
519.86	19.028
520.20	19.623
520.55	18.949
520.89	20.263
521.23	19.253
521.58	20.505
521.92	19.936
522.26	18.608
522.61	20.000
522.95	19.205
523.29	19.441
523.64	19.441
523.98	19.572
524.32	19.008
524.66	19.462
525.01	18.831
525.35	20.026
525.69	17.912
526.04	18.320
526.38	20.169
526.72	18.509
527.06	19.390
527.41	19.591
527.75	18.566
528.09	18.206
528.43	19.109
528.78	19.010
529.12	18.581
529.46	18.324
529.80	17.923
530.15	18.020
530.49	19.192
530.83	18.468
531.17	17.260
531.51	18.536
531.86	17.743
532.20	17.745
532.54	18.856
532.88	17.864
533.22	16.667
533.57	18.087
533.91	17.624
534.25	18.490
534.59	17.319
534.93	17.306
535.27	16.878
535.62	16.656
535.96	17.547
536.30	18.008
536.64	17.850
536.98	16.725
537.32	17.781
537.66	18.163
538.01	17.902
538.35	17.060
538.69	17.443
539.03	16.815
539.37	16.622
539.71	17.178
540.05	17.379
540.39	16.828
540.73	17.294
541.07	16.575
541.42	17.540
541.76	16.999
542.10	16.793
542.44	17.651
542.78	16.173
543.12	16.071
543.46	17.038
543.80	16.516
544.14	16.155
544.48	16.456
544.82	17.567
545.16	17.145
545.50	17.223
545.84	16.643
546.18	16.170
546.52	17.015
546.86	16.751
547.20	17.167
547.54	15.760
547.88	16.644
548.22	16.239
548.56	15.699
548.90	16.644
549.24	15.702
549.58	16.361
549.92	14.868
550.26	16.703
550.60	16.283
550.94	15.459
551.28	15.688
551.62	15.538
551.96	16.316
552.30	16.667
552.64	16.079
552.98	15.612
553.32	15.549
553.66	14.659
554.00	16.204
554.34	15.731
554.68	16.003
555.02	15.476
555.36	14.809
555.69	15.311
556.03	14.632
556.37	15.302
556.71	16.029
557.05	15.138
557.39	14.944
557.73	15.967
558.07	14.857
558.41	15.161
558.75	14.653
559.08	15.051
559.42	15.079
559.76	15.052
560.10	14.220
560.44	14.743
560.78	15.105
561.12	15.867
561.45	15.179
561.79	15.896
562.13	15.188
562.47	14.820
562.81	14.481
563.15	16.079
563.48	15.771
563.82	15.511
564.16	14.206
564.50	14.054
564.84	14.592
565.17	14.755
565.51	14.959
565.85	14.335
566.19	14.390
566.52	15.214
566.86	15.553
567.20	14.321
567.54	14.538
567.88	15.231
568.21	14.876
568.55	14.837
568.89	14.476
569.23	15.070
569.56	14.229
569.90	14.941
570.24	14.552
570.57	14.182
570.91	14.988
571.25	13.745
571.59	13.983
571.92	13.867
572.26	13.889
572.60	14.016
572.93	14.465
573.27	13.856
573.61	13.753
573.95	13.872
574.28	13.745
574.62	13.857
574.96	13.912
575.29	13.705
575.63	13.708
575.97	13.662
576.30	13.495
576.64	13.404
576.98	13.925
577.31	13.787
577.65	13.647
577.98	13.715
578.32	13.556
578.66	13.432
578.99	13.547
579.33	13.065
579.67	13.298
580.00	13.696
580.34	13.632
580.67	13.501
581.01	13.545
581.35	13.480
581.68	13.304
582.02	13.544
582.35	13.519
582.69	13.635
583.02	13.758
583.36	13.485
583.70	13.811
584.03	13.595
584.37	13.721
584.70	13.297
585.04	13.161
585.37	13.587
585.71	13.207
586.04	13.313
586.38	13.257
586.72	13.515
587.05	13.836
587.39	13.671
587.72	13.942
588.06	13.534
588.39	13.301
588.73	13.156
589.06	13.438
589.40	13.619
589.73	13.436
590.07	13.784
590.40	13.816
590.73	13.550
591.07	12.892
591.40	13.402
591.74	13.801
592.07	13.497
592.41	13.428
592.74	13.461
593.08	12.854
593.41	13.575
593.75	13.248
594.08	13.045
594.41	13.464
594.75	13.092
595.08	12.978
595.42	13.876
595.75	13.406
596.09	13.448
596.42	12.898
596.75	13.233
597.09	13.303
597.42	13.550
597.75	13.330
598.09	13.219
598.42	13.087
598.76	13.342
599.09	12.901
599.42	12.997
599.76	13.619
600.09	13.009
600.42	13.154
600.76	12.630
601.09	13.206
601.42	12.769
601.76	13.259
602.09	13.160
602.42	13.016
602.76	12.946
603.09	13.289
603.42	13.462
603.76	13.145
604.09	12.920
604.42	13.494
604.76	13.307
605.09	12.980
605.42	12.235
605.75	12.960
606.09	12.824
606.42	13.053
606.75	12.468
607.09	13.758
607.42	12.893
607.75	12.256
608.08	12.174
608.42	13.248
608.75	13.012
609.08	13.054
609.41	13.147
609.75	11.895
610.08	13.030
610.41	12.754
610.74	12.433
611.07	13.333
611.41	12.662
611.74	13.913
612.07	13.169
612.40	12.856
612.73	13.051
613.07	12.430
613.40	13.239
613.73	12.703
614.06	13.523
614.39	13.142
614.72	12.269
615.06	12.961
615.39	12.172
615.72	12.217
616.05	12.291
616.38	11.795
616.71	12.844
617.05	14.083
617.38	13.262
617.71	12.327
618.04	12.571
618.37	12.799
618.70	12.343
619.03	12.778
619.36	12.952
619.69	12.585
620.03	12.491
620.36	13.448
620.69	12.562
621.02	13.226
621.35	13.610
621.68	13.180
622.01	13.250
622.34	13.647
622.67	12.461
623.00	12.940
623.33	12.881
623.66	12.715
623.99	12.859
624.32	13.536
624.65	12.105
624.99	12.415
625.32	12.737
625.65	12.647
625.98	13.457
626.31	11.970
626.64	13.432
626.97	12.827
627.30	13.135
627.63	13.518
627.96	13.118
628.29	13.136
628.62	11.996
628.95	13.226
629.28	12.399
629.61	12.263
629.94	14.174
630.26	12.352
630.59	13.632
630.92	12.410
631.25	13.538
631.58	13.436
631.91	11.513
632.24	11.812
632.57	13.409
632.90	12.337
633.23	13.176
633.56	12.091
633.89	13.070
634.22	12.346
634.55	12.452
634.88	10.983
635.20	12.949
635.53	13.333
635.86	13.134
636.19	13.842
636.52	12.117
