SpectraSuite Data File
++++++++++++++++++++++++++++++++++++
Date: Fri May 15 20:27:36 PDT 2015
User: schluterlab
Dark Spectrum Present: Yes
Reference Spectrum Present: Yes
Number of Sampled Component Spectra: 1
Spectrometers: USB2E3373
Integration Time (usec): 3000 (USB2E3373)
Spectra Averaged: 3 (USB2E3373)
Boxcar Smoothing: 0 (USB2E3373)
Correct for Electrical Dark: No (USB2E3373)
Strobe/Lamp Enabled: No (USB2E3373)
Correct for Detector Non-linearity: No (USB2E3373)
Correct for Stray Light: No (USB2E3373)
Number of Pixels in Processed Spectrum: 2048
>>>>>Begin Processed Spectral Data<<<<<
178.53	0.000
178.91	0.000
179.29	100.000
179.67	-100.000
180.04	-28.571
180.42	125.000
180.80	-300.000
181.18	-33.333
181.56	250.000
181.94	-250.000
182.31	300.000
182.69	60.000
183.07	-266.667
183.45	-60.000
183.83	166.667
184.20	-27.273
184.58	133.333
184.96	-25.000
185.34	266.667
185.72	-550.000
186.09	100.000
186.47	-600.000
186.85	166.667
187.23	133.333
187.61	-0.000
187.98	-300.000
188.36	111.111
188.74	-400.000
189.12	58.824
189.49	66.667
189.87	0.000
190.25	50.000
190.63	250.000
191.00	-133.333
191.38	5.263
191.76	50.000
192.14	250.000
192.51	150.000
192.89	-88.889
193.27	-185.714
193.65	183.333
194.02	100.000
194.40	-50.000
194.78	-137.500
195.15	-83.333
195.53	-50.000
195.91	175.000
196.29	25.000
196.66	123.077
197.04	114.286
197.42	66.667
197.79	-433.333
198.17	-38.462
198.55	700.000
198.92	-433.333
199.30	800.000
199.68	-120.000
200.05	-100.000
200.43	0.000
200.81	-166.667
201.18	166.667
201.56	1500.000
201.94	150.000
202.31	233.333
202.69	-120.000
203.07	150.000
203.44	800.000
203.82	0.000
204.19	78.571
204.57	-333.333
204.95	25.000
205.32	-30.000
205.70	114.286
206.08	-25.000
206.45	122.222
206.83	28.571
207.20	-85.714
207.58	100.000
207.96	-366.667
208.33	-110.000
208.71	-200.000
209.08	-200.000
209.46	-900.000
209.84	60.000
210.21	-400.000
210.59	85.714
210.96	16.667
211.34	125.000
211.71	53.333
212.09	-14.286
212.46	-1200.000
212.84	0.000
213.22	30.000
213.59	500.000
213.97	46.154
214.34	36.364
214.72	0.000
215.09	300.000
215.47	-7.692
215.84	18.182
216.22	-100.000
216.59	25.000
216.97	250.000
217.34	-50.000
217.72	-160.000
218.09	25.000
218.47	125.000
218.84	-700.000
219.22	-44.444
219.59	-100.000
219.97	200.000
220.34	225.000
220.72	71.429
221.09	-125.000
221.47	-450.000
221.84	-100.000
222.22	-650.000
222.59	-18.182
222.97	8.333
223.34	-500.000
223.72	0.000
224.09	-4.762
224.46	-10.714
224.84	266.667
225.21	-100.000
225.59	40.000
225.96	200.000
226.34	325.000
226.71	14.286
227.08	16.667
227.46	-37.500
227.83	-350.000
228.21	-11.111
228.58	18.182
228.95	-37.500
229.33	30.000
229.70	0.000
230.08	-137.500
230.45	-114.286
230.82	157.143
231.20	-6.667
231.57	57.143
231.95	57.143
232.32	-60.000
232.69	107.143
233.07	-266.667
233.44	-40.000
233.81	10.000
234.19	133.333
234.56	-23.529
234.93	300.000
235.31	150.000
235.68	-320.000
236.05	-46.154
236.43	-20.000
236.80	0.000
237.17	9.375
237.55	5.000
237.92	18.519
238.29	2.778
238.67	13.333
239.04	-8.824
239.41	2.439
239.79	-13.333
240.16	34.146
240.53	15.789
240.91	13.043
241.28	17.460
241.65	19.643
242.02	26.027
242.40	25.000
242.77	15.254
243.14	31.818
243.51	16.250
243.89	24.138
244.26	12.644
244.63	21.429
245.00	21.649
245.38	23.711
245.75	13.483
246.12	11.207
246.49	23.967
246.87	25.000
247.24	12.605
247.61	14.035
247.98	20.325
248.36	23.125
248.73	23.684
249.10	20.779
249.47	22.152
249.84	23.529
250.22	24.118
250.59	20.261
250.96	25.822
251.33	20.349
251.70	24.706
252.08	24.365
252.45	23.267
252.82	23.116
253.19	21.659
253.56	25.701
253.94	21.171
254.31	24.348
254.68	23.684
255.05	24.016
255.42	25.764
255.79	23.938
256.16	27.626
256.54	23.881
256.91	21.673
257.28	23.048
257.65	21.348
258.02	19.858
258.39	23.569
258.76	26.007
259.14	26.578
259.51	22.977
259.88	25.086
260.25	22.222
260.62	25.000
260.99	20.339
261.36	24.315
261.73	25.949
262.10	25.228
262.47	24.233
262.85	20.690
263.22	22.154
263.59	22.118
263.96	27.950
264.33	25.455
264.70	25.000
265.07	24.405
265.44	22.946
265.81	24.576
266.18	22.678
266.55	25.193
266.92	23.575
267.29	25.065
267.66	24.041
268.03	23.037
268.40	24.282
268.77	28.610
269.14	24.940
269.51	24.679
269.88	23.441
270.25	24.745
270.62	20.732
270.99	24.041
271.36	22.494
271.73	26.526
272.10	25.547
272.47	24.113
272.84	22.772
273.21	24.130
273.58	26.024
273.95	25.629
274.32	21.247
274.69	24.887
275.06	24.777
275.43	24.490
275.80	23.841
276.17	25.057
276.54	21.627
276.91	21.711
277.28	23.362
277.65	24.587
278.02	20.638
278.39	22.319
278.76	22.013
279.13	19.295
279.50	22.899
279.87	22.894
280.23	20.645
280.60	22.612
280.97	24.848
281.34	20.577
281.71	24.641
282.08	23.926
282.45	21.918
282.82	21.429
283.19	23.404
283.56	21.387
283.92	22.960
284.29	22.308
284.66	22.287
285.03	24.754
285.40	21.172
285.77	20.562
286.14	22.383
286.51	22.694
286.87	20.475
287.24	20.994
287.61	20.635
287.98	20.526
288.35	22.010
288.72	22.767
289.08	23.090
289.45	21.441
289.82	21.154
290.19	20.137
290.56	20.069
290.93	21.044
291.29	19.260
291.66	21.260
292.03	20.893
292.40	19.516
292.77	19.617
293.13	16.396
293.50	20.637
293.87	18.473
294.24	21.484
294.60	18.033
294.97	18.899
295.34	16.564
295.71	19.523
296.08	18.087
296.44	16.501
296.81	17.917
297.18	15.942
297.55	17.751
297.91	17.945
298.28	19.261
298.65	16.825
299.02	18.733
299.38	13.680
299.75	17.103
300.12	16.885
300.48	16.996
300.85	17.997
301.22	16.364
301.59	16.447
301.95	17.975
302.32	18.158
302.69	17.040
303.05	16.832
303.42	16.812
303.79	16.121
304.15	16.965
304.52	14.744
304.89	15.205
305.25	14.891
305.62	14.936
305.99	15.673
306.35	15.029
306.72	13.498
307.09	15.735
307.45	15.844
307.82	15.278
308.19	16.028
308.55	14.831
308.92	16.776
309.29	15.978
309.65	15.285
310.02	15.732
310.38	16.246
310.75	16.503
311.12	16.039
311.48	16.225
311.85	14.974
312.22	15.823
312.58	16.030
312.95	15.475
313.31	15.321
313.68	16.021
314.05	15.918
314.41	15.155
314.78	15.361
315.14	16.547
315.51	17.391
315.87	16.906
316.24	17.492
316.61	17.126
316.97	18.948
317.34	17.090
317.70	17.878
318.07	17.500
318.43	19.216
318.80	17.992
319.16	18.945
319.53	20.608
319.89	20.079
320.26	19.028
320.62	22.066
320.99	21.086
321.35	22.405
321.72	22.430
322.08	21.652
322.45	20.203
322.81	21.611
323.18	20.805
323.54	22.201
323.91	23.272
324.27	24.609
324.64	24.813
325.00	24.179
325.37	26.171
325.73	24.116
326.10	26.794
326.46	27.175
326.83	25.984
327.19	27.289
327.56	28.063
327.92	27.465
328.29	27.054
328.65	28.679
329.01	28.125
329.38	28.940
329.74	27.290
330.11	30.491
330.47	29.592
330.84	28.365
331.20	29.278
331.56	28.981
331.93	29.589
332.29	30.431
332.66	29.593
333.02	29.926
333.38	29.973
333.75	31.593
334.11	29.364
334.48	30.916
334.84	29.670
335.20	30.924
335.57	29.918
335.93	30.443
336.29	32.228
336.66	30.881
337.02	30.112
337.38	30.463
337.75	30.727
338.11	31.019
338.47	30.931
338.84	31.793
339.20	31.627
339.56	31.009
339.93	30.707
340.29	30.734
340.65	30.466
341.02	29.521
341.38	30.000
341.74	29.594
342.11	28.769
342.47	32.295
342.83	31.055
343.20	29.530
343.56	30.435
343.92	30.204
344.28	29.804
344.65	29.534
345.01	28.349
345.37	29.016
345.73	30.377
346.10	29.767
346.46	29.100
346.82	28.642
347.19	28.013
347.55	29.156
347.91	29.045
348.27	28.860
348.63	30.835
349.00	29.368
349.36	29.593
349.72	29.353
350.08	27.869
350.45	28.412
350.81	29.153
351.17	27.524
351.53	29.469
351.89	28.489
352.26	28.560
352.62	28.306
352.98	27.631
353.34	27.536
353.70	28.964
354.07	28.629
354.43	27.702
354.79	27.663
355.15	27.937
355.51	29.035
355.87	27.184
356.24	26.264
356.60	27.324
356.96	28.413
357.32	26.677
357.68	26.818
358.04	27.141
358.40	27.492
358.77	29.187
359.13	28.423
359.49	26.579
359.85	27.223
360.21	29.027
360.57	27.467
360.93	27.534
361.29	26.360
361.66	27.821
362.02	27.424
362.38	28.180
362.74	26.949
363.10	27.690
363.46	26.538
363.82	28.850
364.18	27.306
364.54	27.132
364.90	26.667
365.26	27.220
365.62	28.905
365.98	27.053
366.35	27.385
366.71	28.381
367.07	28.302
367.43	27.750
367.79	28.269
368.15	27.064
368.51	28.478
368.87	28.356
369.23	27.870
369.59	28.499
369.95	28.152
370.31	28.035
370.67	28.881
371.03	27.558
371.39	27.133
371.75	28.571
372.11	27.960
372.47	27.959
372.83	28.957
373.19	28.887
373.55	27.726
373.91	27.862
374.27	29.766
374.63	29.146
374.99	28.014
375.35	29.109
375.71	28.741
376.07	29.073
376.42	30.136
376.78	30.805
377.14	29.926
377.50	28.619
377.86	31.191
378.22	30.057
378.58	30.385
378.94	28.986
379.30	29.819
379.66	30.784
380.02	31.024
380.38	31.467
380.74	30.640
381.09	31.902
381.45	30.887
381.81	30.907
382.17	31.409
382.53	32.542
382.89	32.203
383.25	33.354
383.61	33.415
383.97	32.317
384.32	32.083
384.68	32.693
385.04	31.311
385.40	32.110
385.76	33.836
386.12	33.118
386.48	34.930
386.83	33.862
387.19	33.394
387.55	34.630
387.91	34.046
388.27	33.455
388.62	35.368
388.98	34.868
389.34	35.415
389.70	35.550
390.06	34.361
390.42	35.104
390.77	35.252
391.13	34.678
391.49	36.223
391.85	35.608
392.20	34.777
392.56	35.474
392.92	36.876
393.28	36.733
393.64	35.315
393.99	37.116
394.35	34.978
394.71	36.845
395.07	36.204
395.42	35.883
395.78	36.612
396.14	36.255
396.50	37.349
396.85	37.090
397.21	36.529
397.57	36.552
397.92	36.549
398.28	38.333
398.64	36.566
399.00	37.020
399.35	37.472
399.71	36.301
400.07	37.424
400.42	36.414
400.78	38.089
401.14	38.294
401.49	37.761
401.85	38.147
402.21	37.530
402.57	37.625
402.92	37.265
403.28	37.531
403.63	38.714
403.99	37.628
404.35	37.164
404.70	37.321
405.06	37.603
405.42	36.544
405.77	37.304
406.13	36.903
406.49	37.182
406.84	37.469
407.20	36.845
407.55	35.995
407.91	37.834
408.27	37.157
408.62	37.292
408.98	37.585
409.34	38.414
409.69	37.855
410.05	37.254
410.40	36.975
410.76	37.153
411.11	38.625
411.47	37.804
411.83	37.037
412.18	36.937
412.54	35.705
412.89	36.884
413.25	36.703
413.60	36.957
413.96	36.074
414.31	37.317
414.67	37.139
415.03	36.951
415.38	37.206
415.74	37.003
416.09	37.622
416.45	37.745
416.80	37.211
417.16	37.776
417.51	38.574
417.87	36.636
418.22	37.306
418.58	37.391
418.93	39.310
419.29	36.236
419.64	37.589
420.00	39.043
420.35	37.134
420.71	37.485
421.06	37.017
421.42	38.041
421.77	38.671
422.12	38.025
422.48	37.141
422.83	37.297
423.19	37.585
423.54	37.449
423.90	36.985
424.25	37.313
424.61	37.087
424.96	37.166
425.31	38.359
425.67	37.265
426.02	37.986
426.38	39.512
426.73	37.712
427.09	37.025
427.44	38.529
427.79	37.596
428.15	37.925
428.50	37.190
428.85	36.794
429.21	37.351
429.56	37.574
429.92	37.904
430.27	37.393
430.62	37.428
430.98	37.208
431.33	38.065
431.68	38.095
432.04	38.178
432.39	37.479
432.74	36.260
433.10	38.736
433.45	38.471
433.80	38.770
434.16	37.341
434.51	38.656
434.86	38.734
435.22	38.474
435.57	37.367
435.92	38.263
436.28	37.925
436.63	38.677
436.98	37.080
437.34	38.113
437.69	38.104
438.04	37.607
438.39	37.813
438.75	38.434
439.10	38.766
439.45	39.075
439.81	36.820
440.16	39.846
440.51	39.403
440.86	39.698
441.22	38.462
441.57	38.962
441.92	39.664
442.27	39.302
442.63	39.775
442.98	39.518
443.33	39.566
443.68	39.204
444.03	38.698
444.39	38.662
444.74	39.632
445.09	39.811
445.44	39.145
445.79	40.949
446.15	39.978
446.50	38.991
446.85	40.064
447.20	39.677
447.55	40.625
447.91	38.917
448.26	39.670
448.61	40.472
448.96	39.759
449.31	39.711
449.66	39.954
450.02	40.274
450.37	39.478
450.72	39.347
451.07	39.494
451.42	38.826
451.77	39.361
452.12	38.935
452.47	38.957
452.83	39.812
453.18	39.785
453.53	39.633
453.88	40.376
454.23	40.074
454.58	40.113
454.93	39.755
455.28	38.413
455.63	40.174
455.98	40.529
456.34	40.613
456.69	39.517
457.04	41.084
457.39	39.854
457.74	40.024
458.09	38.729
458.44	40.316
458.79	39.496
459.14	40.046
459.49	41.433
459.84	39.820
460.19	40.595
460.54	40.403
460.89	41.080
461.24	39.752
461.59	39.846
461.94	39.119
462.29	40.169
462.64	40.864
462.99	39.878
463.34	39.360
463.69	39.768
464.04	40.557
464.39	40.509
464.74	40.245
465.09	41.173
465.44	39.815
465.79	38.889
466.14	40.251
466.49	39.735
466.84	40.869
467.19	40.175
467.54	39.464
467.89	39.735
468.24	39.477
468.59	40.825
468.94	38.921
469.29	39.148
469.64	40.055
469.99	40.995
470.34	39.522
470.68	40.418
471.03	39.066
471.38	40.514
471.73	40.196
472.08	40.027
472.43	40.067
472.78	40.164
473.13	39.660
473.48	39.544
473.83	38.667
474.17	40.868
474.52	39.375
474.87	39.818
475.22	39.475
475.57	39.921
475.92	40.208
476.27	39.173
476.61	39.699
476.96	38.595
477.31	38.886
477.66	38.708
478.01	39.528
478.36	39.161
478.70	39.804
479.05	39.725
479.40	39.746
479.75	39.260
480.10	40.707
480.45	39.700
480.79	40.131
481.14	39.652
481.49	39.704
481.84	39.865
482.19	39.523
482.53	40.000
482.88	39.475
483.23	38.676
483.58	39.198
483.92	39.497
484.27	38.605
484.62	38.637
484.97	38.391
485.31	38.909
485.66	39.522
486.01	40.169
486.36	39.893
486.70	39.928
487.05	38.642
487.40	38.883
487.75	39.014
488.09	37.639
488.44	37.483
488.79	38.140
489.13	38.061
489.48	39.675
489.83	38.834
490.17	38.787
490.52	38.014
490.87	37.899
491.22	38.777
491.56	38.520
491.91	38.480
492.26	38.746
492.60	38.292
492.95	39.597
493.30	38.544
493.64	39.293
493.99	38.502
494.34	39.320
494.68	38.571
495.03	38.102
495.37	38.077
495.72	38.516
496.07	39.512
496.41	37.783
496.76	37.540
497.11	38.519
497.45	38.091
497.80	38.951
498.14	37.407
498.49	38.598
498.84	38.473
499.18	38.906
499.53	38.740
499.87	37.986
500.22	38.526
500.56	38.326
500.91	37.801
501.26	37.123
501.60	38.367
501.95	37.943
502.29	38.063
502.64	38.417
502.98	38.135
503.33	37.224
503.67	37.108
504.02	37.830
504.36	38.545
504.71	36.465
505.06	36.940
505.40	37.919
505.75	37.784
506.09	37.253
506.44	38.963
506.78	37.653
507.13	37.746
507.47	37.076
507.82	37.447
508.16	36.820
508.51	37.093
508.85	37.834
509.19	37.201
509.54	36.676
509.88	36.677
510.23	37.278
510.57	37.948
510.92	36.247
511.26	37.971
511.61	37.569
511.95	36.986
512.30	36.973
512.64	36.394
512.98	36.609
513.33	37.605
513.67	36.327
514.02	37.128
514.36	37.829
514.70	38.228
515.05	38.367
515.39	37.249
515.74	37.485
516.08	36.282
516.42	37.220
516.77	37.566
517.11	37.151
517.46	37.163
517.80	36.234
518.14	36.069
518.49	36.959
518.83	36.695
519.17	36.264
519.52	36.767
519.86	35.774
520.20	35.966
520.55	35.710
520.89	36.763
521.23	37.302
521.58	37.539
521.92	36.346
522.26	36.825
522.61	36.688
522.95	37.748
523.29	36.277
523.64	37.230
523.98	36.293
524.32	35.309
524.66	37.196
525.01	36.818
525.35	36.487
525.69	35.556
526.04	36.111
526.38	36.835
526.72	35.317
527.06	35.668
527.41	35.290
527.75	36.126
528.09	34.950
528.43	37.070
528.78	34.653
529.12	35.419
529.46	35.802
529.80	35.149
530.15	35.842
530.49	34.815
530.83	35.636
531.17	35.729
531.51	36.115
531.86	35.078
532.20	35.630
532.54	34.581
532.88	36.413
533.22	34.812
533.57	35.387
533.91	36.227
534.25	36.003
534.59	34.958
534.93	34.424
535.27	34.898
535.62	35.321
535.96	36.595
536.30	34.894
536.64	37.078
536.98	35.261
537.32	36.344
537.66	35.975
538.01	35.664
538.35	35.160
538.69	33.955
539.03	34.655
539.37	35.061
539.71	35.037
540.05	35.234
540.39	34.834
540.73	34.868
541.07	34.530
541.42	35.215
541.76	34.343
542.10	34.687
542.44	34.955
542.78	34.343
543.12	35.027
543.46	35.327
543.80	34.282
544.14	33.712
544.48	34.510
544.82	35.270
545.16	35.383
545.50	33.912
545.84	35.269
546.18	35.106
546.52	35.472
546.86	35.083
547.20	34.478
547.54	31.943
547.88	34.851
548.22	33.399
548.56	33.443
548.90	34.164
549.24	33.471
549.58	32.581
549.92	33.167
550.26	33.846
550.60	32.565
550.94	34.653
551.28	33.462
551.62	33.692
551.96	33.759
552.30	33.114
552.64	33.427
552.98	33.615
553.32	32.240
553.66	34.688
554.00	33.066
554.34	34.343
554.68	32.522
555.02	33.557
555.36	32.536
555.69	32.454
556.03	32.905
556.37	33.025
556.71	33.357
557.05	32.513
557.39	31.822
557.73	32.834
558.07	33.635
558.41	31.394
558.75	32.190
559.08	32.151
559.42	31.746
559.76	32.746
560.10	32.798
560.44	32.986
560.78	31.958
561.12	33.427
561.45	34.153
561.79	32.073
562.13	32.434
562.47	33.022
562.81	32.205
563.15	32.722
563.48	32.390
563.82	32.464
564.16	31.685
564.50	33.176
564.84	32.463
565.17	31.522
565.51	33.197
565.85	32.030
566.19	32.294
566.52	32.105
566.86	33.740
567.20	33.188
567.54	30.900
567.88	32.806
568.21	32.579
568.55	32.391
568.89	32.495
569.23	32.210
569.56	32.443
569.90	33.090
570.24	31.969
570.57	32.218
570.91	32.799
571.25	31.569
571.59	31.704
571.92	31.585
572.26	31.099
572.60	30.946
572.93	30.750
573.27	30.721
573.61	31.474
573.95	31.458
574.28	31.091
574.62	30.943
574.96	30.616
575.29	30.767
575.63	29.982
575.97	30.008
576.30	31.037
576.64	29.987
576.98	30.914
577.31	30.990
577.65	30.528
577.98	30.896
578.32	30.761
578.66	29.981
578.99	30.276
579.33	29.878
579.67	29.624
580.00	30.481
580.34	30.100
580.67	29.871
581.01	29.803
581.35	30.362
581.68	30.486
582.02	30.171
582.35	30.269
582.69	30.522
583.02	30.143
583.36	29.927
583.70	30.478
584.03	29.747
584.37	29.842
584.70	29.643
585.04	28.990
585.37	29.730
585.71	29.746
586.04	30.005
586.38	29.528
586.72	30.273
587.05	29.347
587.39	30.053
587.72	30.837
588.06	29.560
588.39	29.735
588.73	29.335
589.06	29.387
589.40	28.690
589.73	29.865
590.07	29.834
590.40	29.412
590.73	28.913
591.07	29.347
591.40	29.519
591.74	29.864
592.07	30.288
592.41	29.947
592.74	29.988
593.08	29.410
593.41	30.049
593.75	29.833
594.08	28.699
594.41	29.476
594.75	28.931
595.08	28.982
595.42	29.923
595.75	29.140
596.09	29.672
596.42	29.268
596.75	28.597
597.09	28.884
597.42	28.636
597.75	29.684
598.09	28.610
598.42	28.384
598.76	28.100
599.09	29.207
599.42	28.534
599.76	28.819
600.09	28.582
600.42	28.772
600.76	28.306
601.09	28.511
601.42	27.340
601.76	28.027
602.09	28.218
602.42	28.728
602.76	28.778
603.09	28.738
603.42	28.679
603.76	28.710
604.09	27.542
604.42	28.088
604.76	28.616
605.09	28.473
605.42	28.217
605.75	28.196
606.09	28.493
606.42	27.565
606.75	27.792
607.09	28.220
607.42	28.046
607.75	27.265
608.08	27.269
608.42	27.410
608.75	27.807
609.08	28.700
609.41	27.766
609.75	27.016
610.08	28.108
610.41	27.246
610.74	27.791
611.07	28.114
611.41	28.490
611.74	29.264
612.07	27.141
612.40	27.516
612.73	27.797
613.07	27.165
613.40	27.133
613.73	26.917
614.06	27.546
614.39	27.355
614.72	27.395
615.06	27.039
615.39	27.129
615.72	26.534
616.05	27.374
616.38	25.641
616.71	27.217
617.05	26.189
617.38	28.284
617.71	27.358
618.04	26.984
618.37	27.869
618.70	27.195
619.03	27.778
619.36	25.977
619.69	28.582
620.03	28.269
620.36	27.110
620.69	27.123
621.02	26.529
621.35	26.805
621.68	27.466
622.01	27.083
622.34	27.135
622.67	26.183
623.00	27.182
623.33	26.982
623.66	26.851
623.99	27.534
624.32	26.844
624.65	26.391
624.99	27.013
625.32	26.232
625.65	26.080
625.98	27.478
626.31	25.769
626.64	27.816
626.97	28.185
627.30	28.109
627.63	27.643
627.96	26.685
628.29	26.087
628.62	26.844
628.95	26.653
629.28	24.194
629.61	25.623
629.94	28.152
630.26	26.877
630.59	27.367
630.92	27.487
631.25	27.385
631.58	26.872
631.91	26.316
632.24	27.638
632.57	26.818
632.90	26.809
633.23	27.412
633.56	27.456
