SpectraSuite Data File
++++++++++++++++++++++++++++++++++++
Date: Fri May 15 21:04:33 PDT 2015
User: schluterlab
Dark Spectrum Present: Yes
Reference Spectrum Present: Yes
Number of Sampled Component Spectra: 1
Spectrometers: USB2E3373
Integration Time (usec): 3000 (USB2E3373)
Spectra Averaged: 3 (USB2E3373)
Boxcar Smoothing: 0 (USB2E3373)
Correct for Electrical Dark: No (USB2E3373)
Strobe/Lamp Enabled: No (USB2E3373)
Correct for Detector Non-linearity: No (USB2E3373)
Correct for Stray Light: No (USB2E3373)
Number of Pixels in Processed Spectrum: 2048
>>>>>Begin Processed Spectral Data<<<<<
178.53	0.000
178.91	0.000
179.29	-12.500
179.67	-500.000
180.04	142.857
180.42	25.000
180.80	-800.000
181.18	266.667
181.56	800.000
181.94	-150.000
182.31	800.000
182.69	-120.000
183.07	-166.667
183.45	-100.000
183.83	266.667
184.20	72.727
184.58	166.667
184.96	100.000
185.34	100.000
185.72	-100.000
186.09	7.692
186.47	-1300.000
186.85	383.333
187.23	166.667
187.61	800.000
187.98	-500.000
188.36	-55.556
188.74	-200.000
189.12	23.529
189.49	-11.111
189.87	0.000
190.25	35.714
190.63	-500.000
191.00	-266.667
191.38	-36.842
191.76	-500.000
192.14	125.000
192.51	-500.000
192.89	-77.778
193.27	-285.714
193.65	400.000
194.02	154.545
194.40	10.000
194.78	-162.500
195.15	-33.333
195.53	-37.500
195.91	300.000
196.29	-225.000
196.66	115.385
197.04	228.571
197.42	-77.778
197.79	-100.000
198.17	-115.385
198.55	1400.000
198.92	-466.667
199.30	-700.000
199.68	-120.000
200.05	-533.333
200.43	0.000
200.81	-233.333
201.18	-66.667
201.56	1000.000
201.94	-400.000
202.31	266.667
202.69	-360.000
203.07	200.000
203.44	-400.000
203.82	0.000
204.19	28.571
204.57	-900.000
204.95	112.500
205.32	0.000
205.70	-57.143
206.08	-200.000
206.45	133.333
206.83	64.286
207.20	-214.286
207.58	1800.000
207.96	-166.667
208.33	-90.000
208.71	-75.000
209.08	-166.667
209.46	-1900.000
209.84	-160.000
210.21	-1400.000
210.59	-42.857
210.96	-83.333
211.34	-400.000
211.71	-13.333
212.09	-157.143
212.46	-2100.000
212.84	0.000
213.22	20.000
213.59	500.000
213.97	30.769
214.34	-45.455
214.72	-200.000
215.09	425.000
215.47	-30.769
215.84	0.000
216.22	-333.333
216.59	-100.000
216.97	400.000
217.34	-100.000
217.72	-40.000
218.09	-25.000
218.47	137.500
218.84	-900.000
219.22	-22.222
219.59	-140.000
219.97	600.000
220.34	400.000
220.72	-14.286
221.09	-150.000
221.47	-100.000
221.84	-500.000
222.22	-950.000
222.59	9.091
222.97	25.000
223.34	-400.000
223.72	-64.286
224.09	28.571
224.46	3.571
224.84	666.667
225.21	-70.000
225.59	13.333
225.96	-500.000
226.34	475.000
226.71	-114.286
227.08	-50.000
227.46	-62.500
227.83	-800.000
228.21	-44.444
228.58	-9.091
228.95	-75.000
229.33	170.000
229.70	-56.250
230.08	-187.500
230.45	-185.714
230.82	0.000
231.20	-33.333
231.57	21.429
231.95	-14.286
232.32	-10.000
232.69	28.571
233.07	-33.333
233.44	-340.000
233.81	-120.000
234.19	-111.111
234.56	-88.235
234.93	450.000
235.31	-50.000
235.68	-440.000
236.05	-15.385
236.43	-30.000
236.80	23.529
237.17	34.375
237.55	0.000
237.92	-18.519
238.29	-27.778
238.67	-3.333
239.04	11.765
239.41	-34.146
239.79	-26.667
240.16	7.317
240.53	-34.211
240.91	4.348
241.28	-6.349
241.65	8.929
242.02	17.808
242.40	0.000
242.77	10.169
243.14	-1.515
243.51	-1.250
243.89	13.793
244.26	-9.195
244.63	3.571
245.00	10.309
245.38	7.216
245.75	-12.360
246.12	3.448
246.49	0.826
246.87	8.654
247.24	-2.521
247.61	-4.386
247.98	-11.382
248.36	5.625
248.73	3.289
249.10	0.649
249.47	2.532
249.84	5.229
250.22	8.235
250.59	7.843
250.96	10.798
251.33	2.326
251.70	4.118
252.08	8.629
252.45	5.446
252.82	5.528
253.19	4.147
253.56	1.402
253.94	5.856
254.31	6.957
254.68	6.579
255.05	6.693
255.42	7.860
255.79	7.722
256.16	8.949
256.54	7.090
256.91	3.042
257.28	7.807
257.65	6.742
258.02	4.610
258.39	9.764
258.76	8.059
259.14	10.299
259.51	8.091
259.88	5.155
260.25	4.575
260.62	5.556
260.99	6.102
261.36	4.795
261.73	6.013
262.10	6.991
262.47	3.988
262.85	5.956
263.22	5.846
263.59	7.788
263.96	8.075
264.33	9.091
264.70	5.357
265.07	4.464
265.44	7.365
265.81	6.215
266.18	9.563
266.55	4.627
266.92	4.663
267.29	8.094
267.66	6.138
268.03	6.806
268.40	5.222
268.77	10.160
269.14	8.153
269.51	7.198
269.88	8.728
270.25	5.357
270.62	7.561
270.99	4.604
271.36	8.557
271.73	9.155
272.10	4.866
272.47	6.147
272.84	7.673
273.21	6.961
273.58	5.301
273.95	8.009
274.32	6.236
274.69	8.145
275.06	7.143
275.43	5.669
275.80	6.843
276.17	4.598
276.54	9.850
276.91	7.018
277.28	5.459
277.65	7.231
278.02	8.085
278.39	6.346
278.76	8.386
279.13	5.602
279.50	8.193
279.87	8.207
280.23	3.871
280.60	7.602
280.97	7.273
281.34	6.731
281.71	9.240
282.08	7.362
282.45	6.458
282.82	6.950
283.19	7.157
283.56	8.863
283.92	5.693
284.29	6.731
284.66	6.395
285.03	7.073
285.40	8.507
285.77	7.909
286.14	7.220
286.51	7.934
286.87	4.753
287.24	7.735
287.61	4.938
287.98	7.895
288.35	5.199
288.72	7.005
289.08	8.160
289.45	7.733
289.82	7.168
290.19	5.461
290.56	6.346
290.93	8.081
291.29	7.088
291.66	6.142
292.03	6.539
292.40	6.774
292.77	7.496
293.13	4.383
293.50	5.311
293.87	5.802
294.24	6.491
294.60	6.110
294.97	8.185
295.34	5.521
295.71	5.216
296.08	4.335
296.44	5.121
296.81	6.389
297.18	4.928
297.55	6.504
297.91	7.671
298.28	7.124
298.65	6.649
299.02	4.178
299.38	3.967
299.75	5.517
300.12	6.283
300.48	5.534
300.85	6.210
301.22	5.974
301.59	4.605
301.95	6.962
302.32	6.226
302.69	6.343
303.05	5.446
303.42	5.853
303.79	6.659
304.15	7.407
304.52	4.400
304.89	7.251
305.25	6.659
305.62	5.484
305.99	5.731
306.35	6.127
306.72	6.524
307.09	5.587
307.45	6.315
307.82	5.324
308.19	7.549
308.55	6.216
308.92	7.407
309.29	6.592
309.65	6.136
310.02	6.601
310.38	6.696
310.75	8.306
311.12	7.212
311.48	7.317
311.85	7.644
312.22	7.068
312.58	7.006
312.95	6.190
313.31	5.797
313.68	6.911
314.05	7.041
314.41	6.598
314.78	8.763
315.14	9.764
315.51	8.903
315.87	8.197
316.24	10.010
316.61	9.547
316.97	9.821
317.34	9.082
317.70	9.751
318.07	10.096
318.43	10.098
318.80	11.364
319.16	10.937
319.53	10.161
319.89	10.630
320.26	11.235
320.62	12.437
320.99	12.735
321.35	10.791
321.72	13.396
322.08	12.890
322.45	13.503
322.81	14.244
323.18	13.543
323.54	13.707
323.91	14.411
324.27	14.062
324.64	15.356
325.00	16.788
325.37	16.988
325.73	15.956
326.10	17.984
326.46	17.758
326.83	17.060
327.19	18.221
327.56	19.548
327.92	19.102
328.29	19.286
328.65	20.283
329.01	20.864
329.38	20.184
329.74	19.830
330.11	21.687
330.47	19.852
330.84	19.615
331.20	23.764
331.56	21.944
331.93	21.826
332.29	21.998
332.66	22.896
333.02	22.212
333.38	21.357
333.75	24.084
334.11	21.755
334.48	23.572
334.84	21.245
335.20	23.788
335.57	23.119
335.93	24.119
336.29	23.204
336.66	23.161
337.02	22.212
337.38	23.148
337.75	22.636
338.11	23.986
338.47	23.905
338.84	23.290
339.20	22.395
339.56	22.752
339.93	23.724
340.29	25.321
340.65	24.642
341.02	23.936
341.38	23.540
341.74	22.703
342.11	22.964
342.47	24.377
342.83	23.529
343.20	23.693
343.56	23.304
343.92	24.358
344.28	24.594
344.65	23.575
345.01	22.645
345.37	23.381
345.73	23.013
346.10	23.986
346.46	23.970
346.82	23.568
347.19	21.696
347.55	22.723
347.91	23.786
348.27	23.201
348.63	24.106
349.00	22.724
349.36	23.774
349.72	24.212
350.08	23.443
350.45	24.342
350.81	22.176
351.17	23.941
351.53	24.327
351.89	23.617
352.26	23.120
352.62	23.145
352.98	23.373
353.34	23.027
353.70	24.676
354.07	23.145
354.43	23.699
354.79	23.865
355.15	23.492
355.51	24.051
355.87	24.595
356.24	24.144
356.60	24.414
356.96	24.444
357.32	22.764
357.68	23.221
358.04	23.910
358.40	23.714
358.77	24.083
359.13	24.420
359.49	22.804
359.85	23.011
360.21	23.525
360.57	23.259
360.93	24.054
361.29	23.565
361.66	23.746
362.02	24.621
362.38	24.143
362.74	23.846
363.10	24.078
363.46	25.130
363.82	25.695
364.18	25.092
364.54	23.235
364.90	23.728
365.26	22.707
365.62	24.891
365.98	23.827
366.35	24.545
366.71	23.873
367.07	24.383
367.43	23.293
367.79	24.806
368.15	23.546
368.51	24.035
368.87	23.403
369.23	23.032
369.59	24.708
369.95	23.900
370.31	24.928
370.67	24.179
371.03	24.197
371.39	23.997
371.75	24.176
372.11	24.108
372.47	24.112
372.83	24.202
373.19	25.606
373.55	23.466
373.91	24.190
374.27	25.089
374.63	23.977
374.99	23.759
375.35	23.955
375.71	25.105
376.07	24.508
376.42	24.694
376.78	25.302
377.14	23.900
377.50	23.772
377.86	24.498
378.22	24.442
378.58	23.974
378.94	24.260
379.30	23.955
379.66	25.078
380.02	25.077
380.38	23.433
380.74	24.716
381.09	25.153
381.45	24.220
381.81	23.812
382.17	24.429
382.53	25.234
382.89	24.105
383.25	24.767
383.61	25.305
383.97	24.571
384.32	24.203
384.68	24.396
385.04	24.387
385.40	24.580
385.76	25.220
386.12	24.903
386.48	25.543
386.83	24.540
387.19	24.481
387.55	25.282
387.91	24.633
388.27	24.420
388.62	25.047
388.98	24.187
389.34	24.984
389.70	25.855
390.06	24.292
390.42	25.194
390.77	25.049
391.13	24.401
391.49	24.256
391.85	25.276
392.20	24.168
392.56	24.603
392.92	26.130
393.28	25.531
393.64	24.805
393.99	26.771
394.35	25.047
394.71	24.777
395.07	24.010
395.42	25.015
395.78	24.365
396.14	25.851
396.50	24.731
396.85	24.984
397.21	24.812
397.57	23.887
397.92	24.626
398.28	25.345
398.64	24.157
399.00	24.944
399.35	24.266
399.71	24.698
400.07	25.635
400.42	24.480
400.78	24.495
401.14	24.743
401.49	25.313
401.85	24.680
402.21	25.000
402.57	25.000
402.92	24.153
403.28	24.937
403.63	25.032
403.99	24.043
404.35	24.922
404.70	24.821
405.06	24.736
405.42	24.363
405.77	24.114
406.13	24.563
406.49	24.275
406.84	24.756
407.20	24.624
407.55	24.469
407.91	24.398
408.27	25.430
408.62	24.492
408.98	24.399
409.34	24.721
409.69	24.096
410.05	23.461
410.40	24.012
410.76	25.392
411.11	24.562
411.47	24.589
411.83	24.859
412.18	24.067
412.54	24.282
412.89	24.138
413.25	24.850
413.60	24.161
413.96	24.172
414.31	24.634
414.67	24.310
415.03	24.234
415.38	24.608
415.74	24.756
416.09	23.971
416.45	23.903
416.80	24.323
417.16	25.069
417.51	23.851
417.87	23.533
418.22	24.482
418.58	25.351
418.93	25.329
419.29	23.752
419.64	24.822
420.00	24.685
420.35	24.955
420.71	25.152
421.06	24.064
421.42	24.760
421.77	24.162
422.12	25.539
422.48	23.498
422.83	24.710
423.19	24.831
423.54	23.280
423.90	24.853
424.25	25.086
424.61	25.459
424.96	24.042
425.31	25.419
425.67	25.822
426.02	25.913
426.38	25.423
426.73	25.666
427.09	25.823
427.44	24.294
427.79	24.691
428.15	25.061
428.50	24.894
428.85	24.939
429.21	25.580
429.56	25.553
429.92	25.681
430.27	24.962
430.62	24.882
430.98	25.053
431.33	25.131
431.68	25.118
432.04	25.657
432.39	24.815
432.74	24.714
433.10	26.034
433.45	24.731
433.80	25.189
434.16	24.875
434.51	25.484
434.86	25.203
435.22	25.182
435.57	25.889
435.92	25.449
436.28	25.701
436.63	24.529
436.98	24.855
437.34	25.650
437.69	26.416
438.04	25.299
438.39	25.412
438.75	26.230
439.10	24.958
439.45	27.389
439.81	25.749
440.16	26.128
440.51	25.910
440.86	26.828
441.22	25.113
441.57	25.993
441.92	26.705
442.27	26.275
442.63	26.178
442.98	25.905
443.33	26.322
443.68	25.570
444.03	25.236
444.39	25.971
444.74	26.979
445.09	25.501
445.44	26.040
445.79	26.715
446.15	26.432
446.50	25.402
446.85	25.824
447.20	25.600
447.55	27.288
447.91	26.340
448.26	26.124
448.61	27.634
448.96	27.080
449.31	26.879
449.66	26.655
450.02	27.268
450.37	26.556
450.72	25.716
451.07	27.089
451.42	26.280
451.77	26.643
452.12	25.778
452.47	27.624
452.83	27.503
453.18	25.680
453.53	27.370
453.88	26.351
454.23	27.720
454.58	27.078
454.93	26.482
455.28	24.952
455.63	27.526
455.98	27.120
456.34	27.203
456.69	26.493
457.04	27.221
457.39	27.096
457.74	26.844
458.09	26.839
458.44	26.799
458.79	27.003
459.14	27.632
459.49	27.224
459.84	26.340
460.19	27.002
460.54	26.650
460.89	27.386
461.24	27.578
461.59	27.850
461.94	27.358
462.29	27.805
462.64	27.774
462.99	27.827
463.34	27.051
463.69	27.220
464.04	26.998
464.39	27.411
464.74	25.767
465.09	27.573
465.44	26.947
465.79	25.907
466.14	27.366
466.49	26.452
466.84	27.424
467.19	27.472
467.54	26.628
467.89	26.658
468.24	27.433
468.59	28.063
468.94	27.048
469.29	28.262
469.64	27.478
469.99	28.381
470.34	27.099
470.68	28.934
471.03	28.238
471.38	27.247
471.73	28.081
472.08	27.612
472.43	27.047
472.78	27.759
473.13	27.687
473.48	27.296
473.83	27.148
474.17	28.238
474.52	28.271
474.87	29.273
475.22	28.493
475.57	26.256
475.92	27.592
476.27	28.347
476.61	27.951
476.96	27.552
477.31	28.826
477.66	27.865
478.01	28.411
478.36	27.669
478.70	28.603
479.05	28.791
479.40	28.405
479.75	27.842
480.10	28.059
480.45	27.500
480.79	28.046
481.14	28.740
481.49	27.192
481.84	28.282
482.19	26.707
482.53	28.058
482.88	27.876
483.23	27.495
483.58	26.934
483.92	27.880
484.27	27.575
484.62	27.432
484.97	26.990
485.31	26.662
485.66	25.443
486.01	24.769
486.36	24.954
486.70	25.838
487.05	26.603
487.40	26.396
487.75	27.042
488.09	26.236
488.44	26.479
488.79	27.755
489.13	27.845
489.48	28.132
489.83	27.220
490.17	27.551
490.52	27.898
490.87	28.366
491.22	27.937
491.56	28.321
491.91	27.342
492.26	28.877
492.60	27.447
492.95	28.677
493.30	27.308
493.64	28.143
493.99	27.681
494.34	28.883
494.68	27.905
495.03	26.959
495.37	28.214
495.72	28.117
496.07	28.829
496.41	27.783
496.76	27.407
497.11	27.993
497.45	28.019
497.80	29.011
498.14	28.515
498.49	27.577
498.84	27.794
499.18	27.761
499.53	28.373
499.87	28.210
500.22	28.684
500.56	28.190
500.91	28.514
501.26	28.077
501.60	28.283
501.95	27.559
502.29	28.087
502.64	27.703
502.98	28.910
503.33	27.906
503.67	28.867
504.02	28.592
504.36	28.847
504.71	28.485
505.06	28.384
505.40	29.289
505.75	28.866
506.09	29.093
506.44	29.158
506.78	28.929
507.13	28.594
507.47	28.825
507.82	27.885
508.16	27.522
508.51	28.384
508.85	28.833
509.19	29.218
509.54	29.437
509.88	29.018
510.23	29.209
510.57	29.610
510.92	28.252
511.26	29.514
511.61	29.318
511.95	29.425
512.30	29.989
512.64	30.440
512.98	28.804
513.33	30.442
513.67	29.505
514.02	30.492
514.36	29.086
514.70	30.886
515.05	30.494
515.39	29.752
515.74	31.437
516.08	30.066
516.42	31.154
516.77	31.012
517.11	30.386
517.46	30.640
517.80	30.453
518.14	30.496
518.49	30.829
518.83	30.863
519.17	30.564
519.52	30.077
519.86	29.892
520.20	31.592
520.55	30.769
520.89	31.179
521.23	31.286
521.58	31.356
521.92	30.962
522.26	31.295
522.61	31.429
522.95	30.927
523.29	30.623
523.64	31.321
523.98	32.404
524.32	29.961
524.66	32.074
525.01	31.818
525.35	31.692
525.69	31.515
526.04	31.349
526.38	33.009
526.72	31.524
527.06	31.323
527.41	32.124
527.75	31.434
528.09	32.093
528.43	32.208
528.78	30.825
529.12	31.484
529.46	30.994
529.80	31.982
530.15	30.825
530.49	30.976
530.83	31.532
531.17	31.296
531.51	32.148
531.86	31.679
532.20	31.315
532.54	31.382
532.88	32.717
533.22	30.847
533.57	30.865
533.91	31.332
534.25	31.445
534.59	30.917
534.93	30.648
535.27	29.442
535.62	31.497
535.96	30.659
536.30	30.805
536.64	31.220
536.98	30.732
537.32	32.717
537.66	32.539
538.01	30.769
538.35	29.958
538.69	30.360
539.03	31.237
539.37	31.225
539.71	30.879
540.05	31.636
540.39	30.817
540.73	31.381
541.07	31.561
541.42	32.392
541.76	32.072
542.10	31.796
542.44	30.577
542.78	29.387
543.12	30.701
543.46	30.946
543.80	32.200
544.14	29.840
544.48	29.714
544.82	30.280
545.16	31.011
545.50	30.507
545.84	30.170
546.18	31.135
546.52	31.291
546.86	30.697
547.20	31.402
547.54	30.177
547.88	30.707
548.22	29.257
548.56	30.343
548.90	30.997
549.24	30.096
549.58	30.324
549.92	30.236
550.26	31.648
550.60	31.004
550.94	31.217
551.28	31.530
551.62	31.308
551.96	31.053
552.30	30.775
552.64	31.241
552.98	30.450
553.32	31.526
553.66	30.697
554.00	29.927
554.34	30.724
554.68	29.499
555.02	30.952
555.36	31.040
555.69	30.183
556.03	30.764
556.37	30.819
556.71	31.264
557.05	31.096
557.39	30.558
557.73	29.985
558.07	31.222
558.41	31.087
558.75	30.709
559.08	30.969
559.42	31.984
559.76	30.905
560.10	31.116
560.44	30.454
560.78	30.490
561.12	30.465
561.45	31.131
561.79	29.972
562.13	30.944
562.47	30.791
562.81	30.692
563.15	29.972
563.48	28.642
563.82	30.062
564.16	29.596
564.50	28.986
564.84	29.384
565.17	29.846
565.51	29.986
565.85	29.150
566.19	29.178
566.52	29.759
566.86	29.820
567.20	28.456
567.54	29.623
567.88	29.174
568.21	28.959
568.55	27.717
568.89	28.439
569.23	27.588
569.56	27.539
569.90	27.203
570.24	26.758
570.57	26.364
570.91	26.873
571.25	25.814
571.59	25.195
571.92	24.948
572.26	25.725
572.60	25.581
572.93	25.541
573.27	24.859
573.61	26.313
573.95	25.150
574.28	25.238
574.62	24.333
574.96	24.433
575.29	24.432
575.63	23.970
575.97	24.207
576.30	24.459
576.64	25.245
576.98	24.788
577.31	24.920
577.65	24.564
577.98	24.768
578.32	24.171
578.66	24.156
578.99	24.333
579.33	24.307
579.67	24.022
580.00	25.114
580.34	24.950
580.67	24.604
581.01	24.688
581.35	23.816
581.68	23.972
582.02	23.876
582.35	23.584
582.69	23.783
583.02	23.756
583.36	24.580
583.70	24.974
584.03	25.243
584.37	26.002
584.70	25.137
585.04	24.430
585.37	24.005
585.71	24.611
586.04	24.382
586.38	24.273
586.72	24.390
587.05	24.928
587.39	24.825
587.72	25.232
588.06	24.273
588.39	24.779
588.73	25.244
589.06	25.897
589.40	25.199
589.73	26.141
590.07	26.057
590.40	26.200
590.73	27.100
591.07	25.997
591.40	26.091
591.74	27.059
592.07	26.994
592.41	26.237
592.74	25.010
593.08	24.625
593.41	25.074
593.75	25.025
594.08	25.026
594.41	24.927
594.75	25.420
595.08	25.199
595.42	25.396
595.75	25.573
596.09	25.098
596.42	25.548
596.75	26.066
597.09	26.469
597.42	25.836
597.75	26.157
598.09	25.894
598.42	25.451
598.76	25.397
599.09	25.601
599.42	25.047
599.76	25.470
600.09	25.339
600.42	24.678
600.76	25.223
601.09	24.885
601.42	25.069
601.76	25.169
602.09	24.959
602.42	26.074
602.76	26.146
603.09	25.374
603.42	26.045
603.76	24.556
604.09	24.261
604.42	26.481
604.76	26.613
605.09	25.457
605.42	26.501
605.75	25.438
606.09	25.775
606.42	25.146
606.75	25.108
607.09	25.714
607.42	24.590
607.75	24.378
608.08	24.888
608.42	25.354
608.75	26.217
609.08	25.909
609.41	25.330
609.75	25.353
610.08	25.612
610.41	24.396
610.74	25.597
611.07	25.581
611.41	25.843
611.74	27.186
612.07	26.178
612.40	26.969
612.73	26.158
613.07	26.772
613.40	26.094
613.73	26.245
614.06	26.099
614.39	26.001
614.72	26.050
615.06	26.034
615.39	25.109
615.72	25.996
616.05	25.922
616.38	25.242
616.71	26.422
617.05	26.683
617.38	27.656
617.71	26.478
618.04	26.603
618.37	27.869
618.70	27.855
619.03	26.667
619.36	26.628
619.69	28.961
620.03	28.050
620.36	27.182
620.69	26.552
621.02	27.905
621.35	28.963
621.68	29.082
622.01	29.083
622.34	27.933
622.67	28.707
623.00	26.799
623.33	26.601
623.66	27.524
623.99	27.383
624.32	28.213
624.65	27.368
624.99	28.141
625.32	27.369
625.65	28.830
625.98	29.895
626.31	27.764
626.64	30.069
626.97	30.105
627.30	29.772
627.63	29.463
627.96	28.751
628.29	27.937
628.62	30.285
628.95	29.659
629.28	29.536
629.61	29.013
629.94	29.228
630.26	29.743
630.59	31.009
630.92	30.769
631.25	28.615
631.58	31.608
631.91	29.167
632.24	30.619
632.57	31.705
632.90	30.961
633.23	32.824
633.56	31.486
633.89	30.703
634.22	32.593
634.55	32.147
634.88	32.184
635.20	31.923
635.53	31.600
635.86	32.380
636.19	32.730
636.52	31.378
