SpectraSuite Data File
++++++++++++++++++++++++++++++++++++
Date: Fri May 15 20:38:17 PDT 2015
User: schluterlab
Dark Spectrum Present: Yes
Reference Spectrum Present: Yes
Number of Sampled Component Spectra: 1
Spectrometers: USB2E3373
Integration Time (usec): 3000 (USB2E3373)
Spectra Averaged: 3 (USB2E3373)
Boxcar Smoothing: 0 (USB2E3373)
Correct for Electrical Dark: No (USB2E3373)
Strobe/Lamp Enabled: No (USB2E3373)
Correct for Detector Non-linearity: No (USB2E3373)
Correct for Stray Light: No (USB2E3373)
Number of Pixels in Processed Spectrum: 2048
>>>>>Begin Processed Spectral Data<<<<<
178.53	0.000
178.91	0.000
179.29	-12.500
179.67	0.000
180.04	-28.571
180.42	50.000
180.80	-700.000
181.18	33.333
181.56	700.000
181.94	50.000
182.31	900.000
182.69	80.000
183.07	-100.000
183.45	-80.000
183.83	200.000
184.20	-127.273
184.58	122.222
184.96	75.000
185.34	433.333
185.72	-250.000
186.09	169.231
186.47	-700.000
186.85	183.333
187.23	166.667
187.61	700.000
187.98	-300.000
188.36	-22.222
188.74	-233.333
189.12	82.353
189.49	33.333
189.87	0.000
190.25	7.143
190.63	0.000
191.00	-666.667
191.38	-21.053
191.76	150.000
192.14	125.000
192.51	300.000
192.89	22.222
193.27	-71.429
193.65	316.667
194.02	154.545
194.40	30.000
194.78	-87.500
195.15	33.333
195.53	-175.000
195.91	325.000
196.29	-250.000
196.66	115.385
197.04	157.143
197.42	22.222
197.79	-600.000
198.17	-184.615
198.55	1500.000
198.92	-666.667
199.30	-500.000
199.68	-80.000
200.05	33.333
200.43	0.000
200.81	-66.667
201.18	-333.333
201.56	1300.000
201.94	-400.000
202.31	66.667
202.69	-220.000
203.07	100.000
203.44	300.000
203.82	0.000
204.19	64.286
204.57	-366.667
204.95	50.000
205.32	30.000
205.70	-42.857
206.08	-100.000
206.45	133.333
206.83	-21.429
207.20	-142.857
207.58	900.000
207.96	-400.000
208.33	-180.000
208.71	-100.000
209.08	-266.667
209.46	-400.000
209.84	-160.000
210.21	100.000
210.59	85.714
210.96	-83.333
211.34	-50.000
211.71	73.333
212.09	-257.143
212.46	-1200.000
212.84	0.000
213.22	170.000
213.59	300.000
213.97	7.692
214.34	-63.636
214.72	-16.667
215.09	375.000
215.47	7.692
215.84	18.182
216.22	-300.000
216.59	-37.500
216.97	150.000
217.34	50.000
217.72	-240.000
218.09	-25.000
218.47	150.000
218.84	-700.000
219.22	-133.333
219.59	-60.000
219.97	66.667
220.34	375.000
220.72	28.571
221.09	-100.000
221.47	50.000
221.84	-800.000
222.22	-1000.000
222.59	-9.091
222.97	25.000
223.34	33.333
223.72	-107.143
224.09	23.810
224.46	-7.143
224.84	400.000
225.21	0.000
225.59	13.333
225.96	50.000
226.34	525.000
226.71	-42.857
227.08	-83.333
227.46	25.000
227.83	-850.000
228.21	44.444
228.58	81.818
228.95	-50.000
229.33	110.000
229.70	87.500
230.08	-87.500
230.45	-200.000
230.82	28.571
231.20	33.333
231.57	78.571
231.95	85.714
232.32	-90.000
232.69	-7.143
233.07	-166.667
233.44	-100.000
233.81	-110.000
234.19	100.000
234.56	11.765
234.93	550.000
235.31	-50.000
235.68	-380.000
236.05	-46.154
236.43	-25.000
236.80	-11.765
237.17	18.750
237.55	-55.000
237.92	-11.111
238.29	-2.778
238.67	6.667
239.04	-35.294
239.41	-4.878
239.79	-36.667
240.16	-4.878
240.53	-13.158
240.91	-26.087
241.28	11.111
241.65	8.929
242.02	12.329
242.40	-15.000
242.77	0.000
243.14	-10.606
243.51	1.250
243.89	6.897
244.26	4.598
244.63	-5.952
245.00	-1.031
245.38	-10.309
245.75	-11.236
246.12	-6.897
246.49	-5.785
246.87	-0.962
247.24	-2.521
247.61	-13.158
247.98	-7.317
248.36	0.625
248.73	-1.316
249.10	-0.649
249.47	1.266
249.84	0.000
250.22	-0.588
250.59	-3.922
250.96	5.634
251.33	-2.326
251.70	-3.529
252.08	0.508
252.45	-3.465
252.82	-1.005
253.19	2.765
253.56	-4.206
253.94	1.351
254.31	0.435
254.68	2.632
255.05	-1.181
255.42	3.930
255.79	0.772
256.16	3.113
256.54	5.224
256.91	0.760
257.28	-1.859
257.65	4.869
258.02	-1.064
258.39	3.367
258.76	1.832
259.14	0.332
259.51	3.236
259.88	1.031
260.25	-0.654
260.62	0.694
260.99	-4.407
261.36	-2.397
261.73	0.000
262.10	0.304
262.47	-0.920
262.85	-1.881
263.22	0.308
263.59	3.427
263.96	3.106
264.33	2.424
264.70	0.595
265.07	-0.595
265.44	3.683
265.81	2.825
266.18	3.005
266.55	4.113
266.92	1.554
267.29	1.828
267.66	4.859
268.03	0.524
268.40	-1.828
268.77	0.000
269.14	0.719
269.51	4.627
269.88	5.736
270.25	0.255
270.62	2.195
270.99	-2.046
271.36	0.978
271.73	3.991
272.10	2.190
272.47	1.182
272.84	2.970
273.21	0.232
273.58	0.482
273.95	3.204
274.32	3.464
274.69	0.000
275.06	2.679
275.43	0.680
275.80	1.545
276.17	-0.230
276.54	2.141
276.91	0.439
277.28	1.310
277.65	3.306
278.02	3.191
278.39	3.063
278.76	1.258
279.13	-0.622
279.50	1.261
279.87	1.512
280.23	1.290
280.60	2.924
280.97	0.808
281.34	3.077
281.71	2.464
282.08	1.227
282.45	3.523
282.82	0.193
283.19	1.547
283.56	0.963
283.92	1.139
284.29	1.154
284.66	1.550
285.03	-0.589
285.40	1.701
285.77	2.988
286.14	1.264
286.51	3.875
286.87	3.473
287.24	-0.368
287.61	0.176
287.98	2.456
288.35	-1.040
288.72	4.028
289.08	1.389
289.45	2.285
289.82	1.049
290.19	0.512
290.56	-0.343
290.93	0.000
291.29	1.079
291.66	1.575
292.03	2.073
292.40	3.226
292.77	-0.638
293.13	-0.162
293.50	1.517
293.87	1.832
294.24	1.700
294.60	1.341
294.97	2.827
295.34	-0.153
295.71	1.788
296.08	0.299
296.44	-0.996
296.81	1.944
297.18	2.464
297.55	1.897
297.91	1.644
298.28	4.090
298.65	1.493
299.02	1.482
299.38	0.274
299.75	0.966
300.12	1.047
300.48	1.186
300.85	2.281
301.22	1.299
301.59	-0.789
301.95	2.785
302.32	1.686
302.69	1.244
303.05	1.980
303.42	1.121
303.79	2.103
304.15	2.509
304.52	-0.595
304.89	1.871
305.25	1.937
305.62	1.167
305.99	-0.117
306.35	1.618
306.72	-0.337
307.09	2.052
307.45	1.378
307.82	0.810
308.19	1.974
308.55	0.981
308.92	2.614
309.29	0.223
309.65	0.753
310.02	0.990
310.38	2.525
310.75	2.404
311.12	1.076
311.48	1.697
311.85	1.990
312.22	1.582
312.58	1.805
312.95	2.028
313.31	1.656
313.68	1.571
314.05	2.653
314.41	2.577
314.78	2.371
315.14	3.289
315.51	3.002
315.87	4.098
316.24	5.258
316.61	5.118
316.97	4.266
317.34	4.297
317.70	4.685
318.07	4.904
318.43	5.098
318.80	4.735
319.16	5.469
319.53	5.983
319.89	6.004
320.26	5.263
320.62	6.219
320.99	5.637
321.35	7.811
321.72	7.269
322.08	6.647
322.45	8.528
322.81	7.662
323.18	8.636
323.54	8.398
323.91	9.445
324.27	8.887
324.64	9.176
325.00	11.131
325.37	10.468
325.73	10.335
326.10	11.081
326.46	12.377
326.83	11.111
327.19	10.811
327.56	11.903
327.92	11.708
328.29	11.607
328.65	12.075
329.01	12.316
329.38	13.088
329.74	11.048
330.11	12.512
330.47	11.874
330.84	10.865
331.20	14.449
331.56	13.241
331.93	14.064
332.29	13.566
332.66	13.575
333.02	14.312
333.38	12.924
333.75	14.286
334.11	12.713
334.48	15.050
334.84	13.645
335.20	13.907
335.57	12.239
335.93	14.815
336.29	13.076
336.66	13.624
337.02	13.569
337.38	14.074
337.75	13.727
338.11	15.059
338.47	15.876
338.84	13.956
339.20	14.717
339.56	14.037
339.93	14.772
340.29	14.404
340.65	15.233
341.02	14.007
341.38	14.513
341.74	13.869
342.11	14.558
342.47	13.701
342.83	13.495
343.20	13.763
343.56	13.739
343.92	13.729
344.28	14.518
344.65	13.731
345.01	12.360
345.37	14.466
345.73	15.565
346.10	15.186
346.46	14.886
346.82	14.566
347.19	12.968
347.55	14.369
347.91	14.482
348.27	13.015
348.63	14.566
349.00	13.454
349.36	14.214
349.72	14.262
350.08	14.672
350.45	15.004
350.81	13.455
351.17	13.518
351.53	14.857
351.89	13.708
352.26	14.000
352.62	14.113
352.98	14.458
353.34	14.734
353.70	14.644
354.07	14.435
354.43	14.171
354.79	13.543
355.15	16.270
355.51	14.399
355.87	15.534
356.24	13.458
356.60	14.228
356.96	15.397
357.32	14.696
357.68	14.386
358.04	14.701
358.40	14.791
358.77	14.354
359.13	14.732
359.49	14.484
359.85	13.651
360.21	13.876
360.57	14.078
360.93	14.977
361.29	13.520
361.66	16.144
362.02	13.864
362.38	15.613
362.74	13.777
363.10	14.146
363.46	14.381
363.82	15.477
364.18	14.244
364.54	13.971
364.90	14.480
365.26	14.993
365.62	16.131
365.98	15.543
366.35	14.712
366.71	14.856
367.07	15.239
367.43	14.378
367.79	15.124
368.15	15.291
368.51	14.567
368.87	14.070
369.23	14.152
369.59	15.598
369.95	15.103
370.31	15.101
370.67	15.299
371.03	14.712
371.39	13.931
371.75	14.872
372.11	15.407
372.47	14.719
372.83	14.833
373.19	15.121
373.55	14.946
373.91	15.767
374.27	15.379
374.63	15.147
374.99	14.255
375.35	15.808
375.71	15.105
376.07	15.309
376.42	15.374
376.78	15.235
377.14	15.166
377.50	15.339
377.86	15.127
378.22	14.805
378.58	14.551
378.94	14.934
379.30	15.908
379.66	15.110
380.02	15.573
380.38	15.399
380.74	15.978
381.09	15.890
381.45	15.352
381.81	15.238
382.17	15.102
382.53	16.177
382.89	15.129
383.25	14.997
383.61	14.756
383.97	15.238
384.32	15.760
384.68	15.666
385.04	15.012
385.40	16.117
385.76	16.038
386.12	16.300
386.48	15.709
386.83	14.838
387.19	16.667
387.55	16.186
387.91	15.403
388.27	15.873
388.62	15.859
388.98	15.777
389.34	16.115
389.70	16.097
390.06	14.978
390.42	15.026
390.77	15.435
391.13	16.456
391.49	16.235
391.85	15.724
392.20	15.191
392.56	16.020
392.92	15.972
393.28	15.743
393.64	16.456
393.99	16.301
394.35	15.939
394.71	15.900
395.07	15.776
395.42	15.665
395.78	16.287
396.14	15.826
396.50	16.550
396.85	16.098
397.21	15.789
397.57	15.799
397.92	15.279
398.28	16.149
398.64	15.000
399.00	16.366
399.35	14.786
399.71	16.542
400.07	16.022
400.42	16.157
400.78	16.105
401.14	16.455
401.49	16.736
401.85	15.661
402.21	16.867
402.57	15.687
402.92	15.558
403.28	16.353
403.63	16.646
403.99	15.625
404.35	16.740
404.70	15.774
405.06	15.687
405.42	16.470
405.77	15.224
406.13	15.658
406.49	16.400
406.84	15.831
407.20	16.195
407.55	15.969
407.91	16.377
408.27	15.806
408.62	16.000
408.98	15.773
409.34	15.799
409.69	15.504
410.05	15.825
410.40	15.926
410.76	16.224
411.11	16.125
411.47	15.976
411.83	15.003
412.18	16.538
412.54	15.855
412.89	15.148
413.25	15.764
413.60	15.590
413.96	15.153
414.31	16.463
414.67	16.164
415.03	15.912
415.38	15.535
415.74	16.026
416.09	16.460
416.45	16.340
416.80	15.929
417.16	15.470
417.51	16.256
417.87	15.515
418.22	16.127
418.58	16.187
418.93	16.176
419.29	15.109
419.64	15.165
420.00	16.436
420.35	16.716
420.71	15.371
421.06	16.206
421.42	16.106
421.77	15.896
422.12	16.175
422.48	16.026
422.83	16.183
423.19	16.422
423.54	16.167
423.90	15.901
424.25	15.786
424.61	15.973
424.96	16.318
425.31	16.060
425.67	15.610
426.02	16.372
426.38	16.218
426.73	16.102
427.09	16.835
427.44	15.647
427.79	16.500
428.15	16.141
428.50	16.233
428.85	16.093
429.21	16.412
429.56	16.927
429.92	15.973
430.27	15.639
430.62	16.100
430.98	15.711
431.33	15.878
431.68	16.013
432.04	15.819
432.39	16.201
432.74	15.394
433.10	16.092
433.45	15.412
433.80	16.309
434.16	15.180
434.51	16.290
434.86	16.609
435.22	15.816
435.57	15.908
435.92	15.988
436.28	15.444
436.63	15.801
436.98	16.280
437.34	15.608
437.69	16.160
438.04	15.897
438.39	15.211
438.75	15.847
439.10	15.959
439.45	16.433
439.81	15.291
440.16	16.508
440.51	15.940
440.86	16.979
441.22	15.611
441.57	15.728
441.92	17.209
442.27	16.408
442.63	16.328
442.98	16.829
443.33	16.249
443.68	15.119
444.03	16.443
444.39	15.839
444.74	15.886
445.09	16.648
445.44	16.980
445.79	17.225
446.15	15.749
446.50	16.140
446.85	16.950
447.20	16.840
447.55	17.132
447.91	16.413
448.26	16.961
448.61	16.580
448.96	16.925
449.31	16.069
449.66	16.725
450.02	16.258
450.37	15.708
450.72	16.896
451.07	16.835
451.42	15.418
451.77	16.637
452.12	15.191
452.47	15.712
452.83	16.372
453.18	16.445
453.53	16.688
453.88	16.393
454.23	16.964
454.58	16.814
454.93	17.010
455.28	15.111
455.63	16.305
455.98	16.597
456.34	15.837
456.69	16.264
457.04	17.391
457.39	15.796
457.74	15.719
458.09	16.480
458.44	15.272
458.79	16.303
459.14	16.304
459.49	17.194
459.84	16.526
460.19	15.959
460.54	16.687
460.89	16.307
461.24	15.652
461.59	16.211
461.94	14.780
462.29	16.767
462.64	16.877
462.99	15.843
463.34	15.229
463.69	16.345
464.04	15.981
464.39	15.888
464.74	15.890
465.09	16.095
465.44	15.465
465.79	15.023
466.14	15.564
466.49	15.526
466.84	15.824
467.19	15.770
467.54	15.709
467.89	15.035
468.24	15.328
468.59	16.063
468.94	15.111
469.29	16.656
469.64	15.379
469.99	16.819
470.34	14.676
470.68	16.629
471.03	15.640
471.38	15.407
471.73	15.686
472.08	15.739
472.43	14.564
472.78	15.627
473.13	15.170
473.48	14.853
473.83	14.882
474.17	14.961
474.52	14.933
474.87	15.455
475.22	14.765
475.57	14.342
475.92	15.524
476.27	15.658
476.61	15.220
476.96	14.780
477.31	15.414
477.66	14.551
478.01	14.823
478.36	14.597
478.70	15.063
479.05	14.835
479.40	14.785
479.75	14.442
480.10	14.849
480.45	14.100
480.79	15.206
481.14	15.215
481.49	14.335
481.84	13.803
482.19	13.985
482.53	14.388
482.88	14.272
483.23	14.107
483.58	14.575
483.92	14.037
484.27	14.129
484.62	13.537
484.97	13.847
485.31	14.017
485.66	13.272
486.01	13.278
486.36	13.120
486.70	13.351
487.05	13.670
487.40	13.857
487.75	13.690
488.09	13.535
488.44	13.858
488.79	13.560
489.13	14.543
489.48	13.767
489.83	13.543
490.17	13.843
490.52	14.088
490.87	13.559
491.22	13.801
491.56	13.662
491.91	13.432
492.26	13.952
492.60	13.580
492.95	14.363
493.30	14.118
493.64	13.605
493.99	14.010
494.34	12.573
494.68	13.619
495.03	12.798
495.37	13.494
495.72	13.629
496.07	13.512
496.41	12.877
496.76	13.174
497.11	12.902
497.45	13.747
497.80	13.522
498.14	13.612
498.49	12.798
498.84	13.074
499.18	12.299
499.53	13.244
499.87	12.014
500.22	12.562
500.56	12.506
500.91	12.701
501.26	12.358
501.60	12.986
501.95	12.664
502.29	12.300
502.64	12.452
502.98	12.926
503.33	11.864
503.67	12.916
504.02	12.366
504.36	12.618
504.71	12.576
505.06	12.481
505.40	12.843
505.75	12.320
506.09	12.570
506.44	12.885
506.78	12.908
507.13	12.668
507.47	11.488
507.82	11.859
508.16	12.573
508.51	12.644
508.85	12.245
509.19	11.389
509.54	12.225
509.88	11.597
510.23	11.727
510.57	12.346
510.92	11.620
511.26	11.948
511.61	11.496
511.95	12.548
512.30	11.863
512.64	11.185
512.98	11.903
513.33	12.255
513.67	11.939
514.02	12.815
514.36	12.057
514.70	11.772
515.05	12.221
515.39	11.747
515.74	12.275
516.08	12.552
516.42	12.014
516.77	11.352
517.11	10.861
517.46	11.670
517.80	11.383
518.14	11.819
518.49	11.298
518.83	11.786
519.17	10.370
519.52	10.894
519.86	10.684
520.20	10.936
520.55	11.007
520.89	11.731
521.23	11.843
521.58	12.240
521.92	11.474
522.26	11.646
522.61	11.429
522.95	12.252
523.29	12.071
523.64	10.991
523.98	11.925
524.32	11.276
524.66	10.755
525.01	11.104
525.35	10.823
525.69	9.764
526.04	10.450
526.38	12.387
526.72	10.726
527.06	10.895
527.41	11.280
527.75	10.188
528.09	10.897
528.43	11.344
528.78	9.901
529.12	10.581
529.46	10.136
529.80	11.716
530.15	11.353
530.49	10.370
530.83	10.670
531.17	10.947
531.51	10.670
531.86	10.401
532.20	10.230
532.54	9.803
532.88	10.746
533.22	10.618
533.57	9.895
533.91	9.726
534.25	10.417
534.59	10.327
534.93	10.195
535.27	10.025
535.62	10.110
535.96	10.828
536.30	10.554
536.64	9.786
536.98	9.965
537.32	9.815
537.66	10.238
538.01	10.280
538.35	9.085
538.69	10.186
539.03	9.159
539.37	9.825
539.71	10.361
540.05	10.319
540.39	9.903
540.73	9.693
541.07	10.221
541.42	10.551
541.76	9.704
542.10	8.741
542.44	9.798
542.78	8.878
543.12	9.272
543.46	10.362
543.80	9.646
544.14	8.812
544.48	9.860
544.82	9.569
545.16	9.563
545.50	10.013
545.84	9.915
546.18	9.574
546.52	10.382
546.86	9.418
547.20	9.514
547.54	8.481
547.88	8.899
548.22	8.481
548.56	8.377
548.90	9.906
549.24	9.298
549.58	9.238
549.92	8.435
550.26	8.352
550.60	9.888
550.94	9.485
551.28	8.810
551.62	9.538
551.96	8.872
552.30	8.772
552.64	8.181
552.98	9.072
553.32	9.058
553.66	8.200
554.00	9.270
554.34	9.453
554.68	8.923
555.02	9.598
555.36	8.003
555.69	9.011
556.03	8.851
556.37	8.327
556.71	8.231
557.05	8.352
557.39	7.881
557.73	8.621
558.07	8.974
558.41	8.652
558.75	7.872
559.08	8.195
559.42	8.413
559.76	8.247
560.10	7.187
560.44	8.116
560.78	8.951
561.12	8.815
561.45	8.503
561.79	7.983
562.13	8.801
562.47	8.633
562.81	8.501
563.15	9.238
563.48	8.699
563.82	9.266
564.16	7.451
564.50	7.973
564.84	8.635
565.17	8.518
565.51	8.197
565.85	8.093
566.19	8.223
566.52	8.378
566.86	9.062
567.20	7.970
567.54	7.847
567.88	7.616
568.21	7.919
568.55	7.717
568.89	7.392
569.23	7.655
569.56	7.093
569.90	7.349
570.24	7.518
570.57	7.600
570.91	7.703
571.25	7.333
571.59	7.101
571.92	7.141
572.26	6.824
572.60	7.349
572.93	7.280
573.27	6.991
573.61	7.488
573.95	6.936
574.28	7.071
574.62	6.814
574.96	6.981
575.29	6.890
575.63	6.582
575.97	6.858
576.30	7.085
576.64	6.543
576.98	6.976
577.31	7.176
577.65	6.858
577.98	6.910
578.32	6.653
578.66	6.619
578.99	6.879
579.33	6.845
579.67	6.737
580.00	6.582
580.34	6.617
580.67	6.652
581.01	6.772
581.35	6.589
581.68	6.849
582.02	6.460
582.35	6.611
582.69	6.700
583.02	6.494
583.36	6.813
583.70	6.724
584.03	6.311
584.37	7.199
584.70	6.841
585.04	6.710
585.37	6.806
585.71	6.591
586.04	6.556
586.38	6.375
586.72	6.657
587.05	7.048
587.39	6.682
587.72	7.135
588.06	6.560
588.39	6.836
588.73	6.716
589.06	6.947
589.40	6.810
589.73	7.375
590.07	7.024
590.40	6.927
590.73	7.043
591.07	6.573
591.40	7.257
591.74	7.330
592.07	7.514
592.41	6.935
592.74	7.049
593.08	6.706
593.41	6.491
593.75	6.575
594.08	6.111
594.41	6.550
594.75	6.107
595.08	6.432
595.42	6.110
595.75	7.097
596.09	6.529
596.42	7.028
596.75	7.060
597.09	7.016
597.42	6.549
597.75	6.367
598.09	6.428
598.42	6.318
598.76	6.263
599.09	6.651
599.42	6.556
599.76	6.433
600.09	6.109
600.42	6.293
600.76	5.944
601.09	5.878
601.42	6.424
601.76	6.669
602.09	6.312
602.42	6.992
602.76	6.621
603.09	6.603
603.42	6.982
603.76	5.806
604.09	5.994
604.42	6.176
604.76	7.032
605.09	6.581
605.42	6.546
605.75	6.042
606.09	6.327
606.42	6.214
606.75	6.537
607.09	7.165
607.42	6.159
607.75	6.128
608.08	6.514
608.42	6.807
608.75	6.506
609.08	6.228
609.41	6.548
609.75	6.502
610.08	6.490
610.41	5.942
610.74	5.363
611.07	6.822
611.41	6.746
611.74	7.942
612.07	5.996
612.40	6.619
612.73	6.328
613.07	5.512
613.40	6.783
613.73	5.932
614.06	6.288
614.39	6.317
614.72	5.938
615.06	6.480
615.39	6.277
615.72	5.651
616.05	6.872
616.38	5.470
616.71	6.177
617.05	5.497
617.38	6.600
617.71	6.038
618.04	6.730
618.37	6.936
618.70	7.525
619.03	7.222
619.36	6.151
619.69	6.141
620.03	7.743
620.36	6.652
620.69	6.495
621.02	7.110
621.35	7.552
621.68	6.122
622.01	6.250
622.34	6.385
622.67	7.650
623.00	6.355
623.33	5.640
623.66	7.031
623.99	7.110
624.32	6.236
624.65	6.391
624.99	6.697
625.32	6.444
625.65	6.756
625.98	6.769
626.31	6.234
626.64	7.192
626.97	6.981
627.30	6.655
627.63	7.712
627.96	7.367
628.29	6.105
628.62	7.965
628.95	7.014
629.28	5.746
629.61	6.879
629.94	6.940
630.26	7.016
630.59	7.700
630.92	6.256
631.25	6.564
631.58	6.167
631.91	5.592
632.24	5.275
632.57	6.818
632.90	5.575
633.23	7.412
633.56	5.290
633.89	6.535
634.22	6.914
634.55	7.497
634.88	7.791
635.20	6.282
635.53	5.333
635.86	5.722
636.19	7.762
636.52	4.847
636.85	6.203
637.18	6.038
637.51	7.673
637.83	5.388
638.16	8.595
638.49	6.131
638.82	6.711
639.15	5.834
639.48	7.290
639.81	5.300
640.13	6.349
640.46	5.539
640.79	6.922
641.12	6.204
641.45	5.405
641.77	6.667
642.10	8.215
642.43	5.788
642.76	7.096
643.09	7.754
643.41	6.958
643.74	5.107
644.07	7.553
