SpectraSuite Data File
++++++++++++++++++++++++++++++++++++
Date: Fri May 15 20:43:42 PDT 2015
User: schluterlab
Dark Spectrum Present: Yes
Reference Spectrum Present: Yes
Number of Sampled Component Spectra: 1
Spectrometers: USB2E3373
Integration Time (usec): 3000 (USB2E3373)
Spectra Averaged: 3 (USB2E3373)
Boxcar Smoothing: 0 (USB2E3373)
Correct for Electrical Dark: No (USB2E3373)
Strobe/Lamp Enabled: No (USB2E3373)
Correct for Detector Non-linearity: No (USB2E3373)
Correct for Stray Light: No (USB2E3373)
Number of Pixels in Processed Spectrum: 2048
>>>>>Begin Processed Spectral Data<<<<<
178.53	0.000
178.91	0.000
179.29	-12.500
179.67	-250.000
180.04	57.143
180.42	75.000
180.80	-800.000
181.18	100.000
181.56	550.000
181.94	-50.000
182.31	-400.000
182.69	-40.000
183.07	-566.667
183.45	-20.000
183.83	100.000
184.20	-54.545
184.58	122.222
184.96	150.000
185.34	-66.667
185.72	-300.000
186.09	100.000
186.47	-700.000
186.85	166.667
187.23	222.222
187.61	600.000
187.98	100.000
188.36	88.889
188.74	-233.333
189.12	5.882
189.49	11.111
189.87	0.000
190.25	57.143
190.63	-200.000
191.00	33.333
191.38	-31.579
191.76	-200.000
192.14	-200.000
192.51	-250.000
192.89	-77.778
193.27	-100.000
193.65	116.667
194.02	136.364
194.40	-80.000
194.78	-125.000
195.15	16.667
195.53	0.000
195.91	225.000
196.29	-300.000
196.66	146.154
197.04	285.714
197.42	-33.333
197.79	-366.667
198.17	-92.308
198.55	1400.000
198.92	-566.667
199.30	-500.000
199.68	-300.000
200.05	-600.000
200.43	0.000
200.81	-33.333
201.18	-33.333
201.56	800.000
201.94	-50.000
202.31	-33.333
202.69	-260.000
203.07	200.000
203.44	-600.000
203.82	0.000
204.19	-42.857
204.57	-566.667
204.95	187.500
205.32	-40.000
205.70	-14.286
206.08	-275.000
206.45	155.556
206.83	71.429
207.20	-128.571
207.58	700.000
207.96	-66.667
208.33	-50.000
208.71	-150.000
209.08	-133.333
209.46	-600.000
209.84	60.000
210.21	-1000.000
210.59	-85.714
210.96	-150.000
211.34	125.000
211.71	40.000
212.09	-57.143
212.46	-1900.000
212.84	0.000
213.22	60.000
213.59	350.000
213.97	15.385
214.34	9.091
214.72	-116.667
215.09	425.000
215.47	-15.385
215.84	-54.545
216.22	-333.333
216.59	-112.500
216.97	-350.000
217.34	-125.000
217.72	-260.000
218.09	-62.500
218.47	212.500
218.84	-900.000
219.22	-133.333
219.59	-260.000
219.97	233.333
220.34	200.000
220.72	71.429
221.09	-100.000
221.47	-350.000
221.84	-400.000
222.22	-350.000
222.59	27.273
222.97	75.000
223.34	-500.000
223.72	-7.143
224.09	9.524
224.46	21.429
224.84	666.667
225.21	-30.000
225.59	40.000
225.96	-100.000
226.34	450.000
226.71	-128.571
227.08	-50.000
227.46	-125.000
227.83	-400.000
228.21	100.000
228.58	27.273
228.95	12.500
229.33	90.000
229.70	-31.250
230.08	-137.500
230.45	-100.000
230.82	57.143
231.20	40.000
231.57	35.714
231.95	-85.714
232.32	-130.000
232.69	28.571
233.07	133.333
233.44	-300.000
233.81	-10.000
234.19	-88.889
234.56	-47.059
234.93	550.000
235.31	-75.000
235.68	-360.000
236.05	-69.231
236.43	-35.000
236.80	-35.294
237.17	0.000
237.55	25.000
237.92	3.704
238.29	-2.778
238.67	43.333
239.04	32.353
239.41	-17.073
239.79	-3.333
240.16	31.707
240.53	10.526
240.91	0.000
241.28	7.937
241.65	17.857
242.02	27.397
242.40	23.333
242.77	13.559
243.14	13.636
243.51	15.000
243.89	26.437
244.26	22.989
244.63	9.524
245.00	20.619
245.38	30.928
245.75	4.494
246.12	13.793
246.49	30.579
246.87	16.346
247.24	12.605
247.61	18.421
247.98	9.756
248.36	16.250
248.73	19.079
249.10	18.182
249.47	24.684
249.84	20.261
250.22	16.471
250.59	20.261
250.96	19.249
251.33	18.023
251.70	12.941
252.08	17.766
252.45	16.832
252.82	20.101
253.19	22.120
253.56	22.430
253.94	21.171
254.31	25.217
254.68	21.053
255.05	16.535
255.42	22.271
255.79	23.166
256.16	19.455
256.54	20.522
256.91	16.350
257.28	23.792
257.65	20.599
258.02	19.149
258.39	20.875
258.76	19.048
259.14	17.608
259.51	18.447
259.88	14.089
260.25	24.183
260.62	20.486
260.99	16.949
261.36	17.466
261.73	20.570
262.10	19.149
262.47	20.552
262.85	19.122
263.22	20.000
263.59	21.184
263.96	21.739
264.33	21.818
264.70	19.345
265.07	16.964
265.44	21.246
265.81	19.492
266.18	15.847
266.55	21.080
266.92	19.171
267.29	21.671
267.66	20.205
268.03	22.513
268.40	21.149
268.77	21.390
269.14	18.945
269.51	21.851
269.88	18.953
270.25	20.153
270.62	17.805
270.99	19.693
271.36	18.093
271.73	20.657
272.10	20.438
272.47	23.404
272.84	20.545
273.21	21.578
273.58	24.096
273.95	20.824
274.32	20.554
274.69	16.968
275.06	19.866
275.43	19.501
275.80	18.764
276.17	17.241
276.54	21.413
276.91	20.395
277.28	19.214
277.65	21.281
278.02	20.851
278.39	21.007
278.76	18.868
279.13	18.465
279.50	19.958
279.87	19.438
280.23	14.624
280.60	20.078
280.97	19.798
281.34	21.538
281.71	18.275
282.08	19.018
282.45	18.787
282.82	18.533
283.19	20.503
283.56	20.039
283.92	16.509
284.29	16.154
284.66	18.798
285.03	19.057
285.40	19.093
285.77	16.872
286.14	20.758
286.51	21.218
286.87	17.916
287.24	17.495
287.61	18.871
287.98	18.596
288.35	19.584
288.72	20.315
289.08	17.535
289.45	18.453
289.82	16.958
290.19	16.212
290.56	16.810
290.93	14.983
291.29	16.949
291.66	17.165
292.03	14.992
292.40	16.129
292.77	15.630
293.13	15.260
293.50	15.781
293.87	15.725
294.24	17.465
294.60	15.946
294.97	16.071
295.34	15.184
295.71	15.052
296.08	14.051
296.44	14.083
296.81	14.444
297.18	14.493
297.55	15.447
297.91	14.384
298.28	15.435
298.65	13.569
299.02	14.825
299.38	12.312
299.75	14.897
300.12	11.126
300.48	15.283
300.85	14.956
301.22	13.636
301.59	12.895
301.95	14.177
302.32	16.342
302.69	13.060
303.05	13.243
303.42	12.080
303.79	13.318
304.15	15.173
304.52	12.723
304.89	14.152
305.25	12.470
305.62	11.552
305.99	13.801
306.35	12.717
306.72	12.823
307.09	12.657
307.45	13.777
307.82	11.921
308.19	12.660
308.55	13.850
308.92	14.270
309.29	11.844
309.65	12.917
310.02	13.421
310.38	12.404
310.75	13.880
311.12	13.671
311.48	13.256
311.85	10.995
312.22	10.865
312.58	12.951
312.95	11.526
313.31	12.422
313.68	12.670
314.05	11.837
314.41	12.577
314.78	11.959
315.14	12.333
315.51	13.147
315.87	11.578
316.24	13.448
316.61	12.008
316.97	12.401
317.34	12.793
317.70	11.090
318.07	11.635
318.43	12.647
318.80	11.648
319.16	12.305
319.53	12.536
319.89	12.598
320.26	12.348
320.62	12.839
320.99	11.900
321.35	12.230
321.72	13.915
322.08	12.790
322.45	11.675
322.81	13.261
323.18	11.973
323.54	11.486
323.91	12.853
324.27	12.305
324.64	14.139
325.00	13.504
325.37	13.866
325.73	12.783
326.10	13.079
326.46	13.004
326.83	12.598
327.19	13.078
327.56	12.858
327.92	14.173
328.29	13.036
328.65	13.208
329.01	12.500
329.38	13.088
329.74	13.598
330.11	12.882
330.47	13.358
330.84	12.596
331.20	13.973
331.56	12.593
331.93	12.420
332.29	13.841
332.66	13.394
333.02	11.989
333.38	11.549
333.75	13.736
334.11	12.802
334.48	13.146
334.84	12.363
335.20	12.534
335.57	11.605
335.93	13.911
336.29	12.983
336.66	12.262
337.02	11.524
337.38	10.926
337.75	13.727
338.11	12.534
338.47	14.142
338.84	12.939
339.20	13.163
339.56	12.936
339.93	12.802
340.29	13.394
340.65	13.889
341.02	12.855
341.38	12.478
341.74	12.456
342.11	12.132
342.47	12.456
342.83	12.197
343.20	11.672
343.56	12.957
343.92	13.640
344.28	12.895
344.65	12.435
345.01	11.322
345.37	12.868
345.73	12.385
346.10	13.115
346.46	12.195
346.82	12.848
347.19	11.554
347.55	12.448
347.91	12.864
348.27	12.449
348.63	12.947
349.00	11.075
349.36	12.386
349.72	13.018
350.08	11.393
350.45	12.769
350.81	12.625
351.17	12.052
351.53	12.490
351.89	11.726
352.26	12.320
352.62	12.097
352.98	12.691
353.34	11.675
353.70	13.107
354.07	12.581
354.43	12.410
354.79	12.221
355.15	13.651
355.51	12.104
355.87	11.974
356.24	11.990
356.60	11.722
356.96	13.333
357.32	12.061
357.68	11.572
358.04	11.793
358.40	11.656
358.77	12.281
359.13	12.170
359.49	10.709
359.85	12.402
360.21	11.722
360.57	11.630
360.93	12.405
361.29	11.329
361.66	12.069
362.02	13.106
362.38	11.957
362.74	10.977
363.10	12.792
363.46	11.638
363.82	12.998
364.18	11.661
364.54	11.544
364.90	11.183
365.26	12.373
365.62	13.285
365.98	11.290
366.35	12.891
366.71	11.308
367.07	12.119
367.43	11.071
367.79	11.590
368.15	12.276
368.51	11.580
368.87	11.199
369.23	10.686
369.59	10.714
369.95	11.804
370.31	12.645
370.67	10.821
371.03	11.576
371.39	11.306
371.75	11.868
372.11	12.197
372.47	10.133
372.83	12.065
373.19	11.626
373.55	11.841
373.91	11.447
374.27	12.048
374.63	12.276
374.99	11.064
375.35	11.560
375.71	12.517
376.07	10.815
376.42	11.293
376.78	11.678
377.14	11.781
377.50	11.620
377.86	11.245
378.22	11.232
378.58	11.538
378.94	11.279
379.30	11.478
379.66	10.846
380.02	11.097
380.38	10.895
380.74	10.832
381.09	11.902
381.45	11.009
381.81	11.474
382.17	11.739
382.53	11.430
382.89	11.488
383.25	11.512
383.61	12.073
383.97	11.048
384.32	11.194
384.68	11.084
385.04	10.600
385.40	11.139
385.76	12.390
386.12	10.996
386.48	11.750
386.83	11.097
387.19	11.538
387.55	11.543
387.91	11.491
388.27	11.233
388.62	11.391
388.98	11.234
389.34	12.430
389.70	11.249
390.06	11.202
390.42	11.464
390.77	11.511
391.13	10.845
391.49	10.867
391.85	11.566
392.20	11.174
392.56	10.871
392.92	11.274
393.28	12.205
393.64	11.832
393.99	12.351
394.35	10.689
394.71	11.239
395.07	10.497
395.42	11.111
395.78	11.205
396.14	11.917
396.50	11.351
396.85	11.848
397.21	11.278
397.57	11.097
397.92	11.684
398.28	11.379
398.64	10.361
399.00	11.682
399.35	10.214
399.71	11.660
400.07	11.306
400.42	11.506
400.78	12.002
401.14	10.708
401.49	12.031
401.85	10.603
402.21	12.530
402.57	11.125
402.92	10.226
403.28	12.343
403.63	11.349
403.99	11.161
404.35	11.243
404.70	11.905
405.06	11.105
405.42	11.684
405.77	10.808
406.13	11.059
406.49	11.545
406.84	10.880
407.20	11.198
407.55	10.625
407.91	10.628
408.27	10.899
408.62	11.631
408.98	11.152
409.34	12.701
409.69	10.917
410.05	10.899
410.40	11.728
410.76	11.701
411.11	11.875
411.47	12.229
411.83	10.986
412.18	10.811
412.54	12.360
412.89	11.453
413.25	11.733
413.60	11.429
413.96	10.859
414.31	12.439
414.67	11.225
415.03	11.718
415.38	11.358
415.74	11.401
416.09	12.476
416.45	12.221
416.80	11.500
417.16	11.464
417.51	11.925
417.87	11.473
418.22	12.241
418.58	11.773
418.93	13.041
419.29	11.652
419.64	11.406
420.00	13.035
420.35	11.940
420.71	11.725
421.06	11.786
421.42	11.779
421.77	12.197
422.12	12.145
422.48	11.857
422.83	11.427
423.19	12.020
423.54	10.347
423.90	11.955
424.25	12.227
424.61	12.301
424.96	12.079
425.31	12.247
425.67	11.678
426.02	12.544
426.38	12.210
426.73	12.349
427.09	12.152
427.44	12.824
427.79	11.844
428.15	12.682
428.50	12.235
428.85	12.285
429.21	12.677
429.56	12.075
429.92	12.738
430.27	12.231
430.62	11.657
430.98	11.677
431.33	12.566
431.68	11.931
432.04	12.241
432.39	11.466
432.74	11.064
433.10	12.529
433.45	12.425
433.80	12.130
434.16	11.524
434.51	12.581
434.86	12.195
435.22	11.441
435.57	12.601
435.92	11.976
436.28	11.628
436.63	12.949
436.98	11.530
437.34	11.615
437.69	11.688
438.04	12.650
438.39	11.546
438.75	12.447
439.10	11.715
439.45	12.355
439.81	11.865
440.16	12.708
440.51	12.896
440.86	13.293
441.22	12.557
441.57	12.472
441.92	13.064
442.27	12.528
442.63	12.794
442.98	12.522
443.33	12.632
443.68	12.414
444.03	13.115
444.39	12.494
444.74	12.876
445.09	12.528
445.44	12.934
445.79	12.996
446.15	12.555
446.50	12.257
446.85	12.912
447.20	12.878
447.55	12.946
447.91	12.578
448.26	13.147
448.61	12.953
448.96	13.196
449.31	12.775
449.66	13.240
450.02	12.721
450.37	13.159
450.72	12.944
451.07	13.671
451.42	12.609
451.77	13.803
452.12	12.022
452.47	13.007
452.83	13.310
453.18	13.536
453.53	12.769
453.88	13.297
454.23	13.399
454.58	13.728
454.93	12.951
455.28	12.508
455.63	14.135
455.98	13.590
456.34	13.793
456.69	13.787
457.04	13.170
457.39	13.062
457.74	13.603
458.09	12.242
458.44	13.224
458.79	12.829
459.14	13.673
459.49	14.328
459.84	13.536
460.19	12.500
460.54	13.875
460.89	13.295
461.24	13.665
461.59	13.895
461.94	13.019
462.29	13.691
462.64	13.488
462.99	13.135
463.34	12.726
463.69	13.063
464.04	13.862
464.39	13.038
464.74	12.883
465.09	14.847
465.44	13.676
465.79	12.812
466.14	13.569
466.49	13.686
466.84	13.623
467.19	14.143
467.54	13.474
467.89	13.329
468.24	13.564
468.59	13.270
468.94	13.397
469.29	13.115
469.64	13.807
469.99	13.875
470.34	12.491
470.68	13.274
471.03	15.004
471.38	13.124
471.73	13.585
472.08	13.772
472.43	13.557
472.78	13.571
473.13	13.469
473.48	13.681
473.83	14.134
474.17	13.795
474.52	14.486
474.87	14.121
475.22	13.423
475.57	14.060
475.92	14.098
476.27	13.446
476.61	13.831
476.96	13.107
477.31	14.873
477.66	13.708
478.01	13.476
478.36	13.889
478.70	14.084
479.05	14.560
479.40	14.255
479.75	14.025
480.10	13.978
480.45	14.000
480.79	14.250
481.14	14.088
481.49	13.645
481.84	13.369
482.19	13.517
482.53	13.957
482.88	13.986
483.23	13.916
483.58	13.585
483.92	13.166
484.27	13.674
484.62	14.478
484.97	13.889
485.31	14.198
485.66	13.864
486.01	14.044
486.36	14.321
486.70	13.982
487.05	13.871
487.40	13.935
487.75	13.662
488.09	13.257
488.44	13.274
488.79	13.597
489.13	14.103
489.48	14.322
489.83	13.587
490.17	12.719
490.52	14.088
490.87	14.160
491.22	14.327
491.56	13.330
491.91	13.671
492.26	13.320
492.60	13.964
492.95	13.920
493.30	13.923
493.64	14.096
493.99	14.251
494.34	14.078
494.68	14.286
495.03	13.674
495.37	13.984
495.72	13.983
496.07	14.049
496.41	13.774
496.76	13.819
497.11	13.740
497.45	13.795
497.80	14.127
498.14	14.009
498.49	13.763
498.84	14.222
499.18	13.353
499.53	14.236
499.87	13.278
500.22	13.897
500.56	13.817
500.91	14.458
501.26	13.643
501.60	13.970
501.95	13.925
502.29	14.431
502.64	13.851
502.98	14.110
503.33	13.929
503.67	14.265
504.02	14.907
504.36	13.657
504.71	13.889
505.06	13.790
505.40	13.909
505.75	14.381
506.09	13.583
506.44	14.990
506.78	15.000
507.13	14.943
507.47	13.890
507.82	13.835
508.16	13.524
508.51	14.376
508.85	14.600
509.19	14.689
509.54	14.638
509.88	13.916
510.23	14.094
510.57	14.484
510.92	13.539
511.26	14.184
511.61	14.356
511.95	14.192
512.30	14.246
512.64	14.580
512.98	13.588
513.33	14.829
513.67	14.156
514.02	15.732
514.36	15.429
514.70	15.501
515.05	15.217
515.39	14.994
515.74	14.671
516.08	14.286
516.42	15.371
516.77	14.745
517.11	14.421
517.46	14.303
517.80	15.197
518.14	14.268
518.49	14.303
518.83	14.034
519.17	13.705
519.52	14.624
519.86	14.166
520.20	15.128
520.55	14.009
520.89	14.617
521.23	13.680
521.58	15.268
521.92	14.423
522.26	15.029
522.61	15.260
522.95	14.636
523.29	14.168
523.64	14.930
523.98	15.100
524.32	14.175
524.66	15.685
525.01	14.545
525.35	15.100
525.69	14.074
526.04	13.624
526.38	15.694
526.72	14.258
527.06	14.916
527.41	14.578
527.75	14.276
528.09	14.086
528.43	15.327
528.78	14.323
529.12	15.226
529.46	15.010
529.80	14.566
530.15	15.050
530.49	14.478
530.83	16.074
531.17	14.439
531.51	14.843
531.86	14.548
532.20	14.266
532.54	15.044
532.88	13.621
533.22	15.659
533.57	15.662
533.91	15.013
534.25	15.234
534.59	14.240
534.93	15.167
535.27	13.579
535.62	14.517
535.96	15.068
536.30	15.369
536.64	15.369
536.98	14.634
537.32	15.434
537.66	15.849
538.01	15.455
538.35	13.870
538.69	14.847
539.03	15.379
539.37	15.545
539.71	14.928
540.05	15.275
540.39	15.512
540.73	14.156
541.07	15.262
541.42	15.659
541.76	14.797
542.10	15.485
542.44	14.454
542.78	14.040
543.12	14.286
543.46	15.855
543.80	15.961
544.14	15.020
544.48	15.123
544.82	15.516
545.16	15.779
545.50	16.155
545.84	15.368
546.18	15.674
546.52	14.852
546.86	15.241
547.20	15.808
547.54	14.841
547.88	15.421
548.22	15.056
548.56	16.029
548.90	15.768
549.24	16.391
549.58	14.739
549.92	14.582
550.26	15.385
550.60	15.390
550.94	16.057
551.28	15.688
551.62	15.846
551.96	15.865
552.30	16.082
552.64	15.092
552.98	16.596
553.32	14.907
553.66	15.385
554.00	16.277
554.34	15.805
554.68	15.487
555.02	15.997
555.36	15.183
555.69	15.458
556.03	14.561
556.37	14.947
556.71	15.884
557.05	15.436
557.39	13.903
557.73	15.742
558.07	16.290
558.41	15.926
558.75	14.965
559.08	15.366
559.42	15.317
559.76	14.732
560.10	15.902
560.44	14.669
560.78	15.734
561.12	16.079
561.45	15.320
561.79	15.826
562.13	15.046
562.47	15.324
562.81	15.634
563.15	15.656
563.48	15.488
563.82	15.923
564.16	16.086
564.50	15.676
564.84	17.068
565.17	15.493
565.51	17.350
565.85	16.324
566.19	15.119
566.52	15.751
566.86	17.224
567.20	16.252
567.54	16.241
567.88	16.344
568.21	16.403
568.55	15.598
568.89	16.119
569.23	15.599
569.56	15.674
569.90	16.362
570.24	15.891
570.57	15.855
570.91	15.789
571.25	15.554
571.59	15.353
571.92	15.230
572.26	14.946
572.60	15.473
572.93	15.218
573.27	15.235
573.61	15.543
573.95	15.756
574.28	15.572
574.62	15.256
574.96	15.233
575.29	15.548
575.63	15.289
575.97	14.774
576.30	14.872
576.64	14.702
576.98	15.804
577.31	15.901
577.65	15.528
577.98	15.533
578.32	15.370
578.66	15.087
578.99	15.325
579.33	15.214
579.67	15.216
580.00	15.266
580.34	15.149
580.67	14.985
581.01	15.178
581.35	15.568
581.68	15.686
582.02	15.764
582.35	15.395
582.69	15.602
583.02	15.317
583.36	15.306
583.70	15.498
584.03	15.541
584.37	15.951
584.70	15.385
585.04	15.389
585.37	15.430
585.71	15.478
586.04	15.456
586.38	15.124
586.72	16.241
587.05	16.147
587.39	15.935
587.72	15.746
588.06	15.721
588.39	15.921
588.73	16.239
589.06	16.601
589.40	16.488
589.73	16.283
590.07	16.352
590.40	16.293
590.73	16.557
591.07	16.243
591.40	15.895
591.74	16.018
592.07	16.976
592.41	17.226
592.74	16.049
593.08	16.067
593.41	16.211
593.75	16.389
594.08	15.723
594.41	15.830
594.75	16.298
595.08	16.232
595.42	16.047
595.75	15.847
596.09	15.833
596.42	16.453
596.75	16.341
597.09	16.128
597.42	16.396
597.75	16.399
598.09	15.754
598.42	16.245
598.76	16.860
599.09	16.827
599.42	16.067
599.76	15.651
600.09	16.365
600.42	16.300
600.76	15.639
601.09	16.489
601.42	16.216
601.76	16.435
602.09	15.470
602.42	16.976
602.76	16.214
603.09	16.321
603.42	16.973
603.76	16.855
604.09	16.120
604.42	16.328
604.76	16.288
605.09	16.179
605.42	16.479
605.75	16.375
606.09	16.476
606.42	15.763
606.75	16.277
607.09	16.571
607.42	16.704
607.75	15.719
608.08	16.128
608.42	16.583
608.75	17.494
609.08	15.894
609.41	16.650
609.75	15.827
610.08	16.925
610.41	15.990
610.74	16.138
611.07	16.796
611.41	16.502
611.74	17.217
612.07	16.006
612.40	16.521
612.73	15.876
613.07	15.973
613.40	16.575
613.73	16.284
614.06	16.861
614.39	16.469
614.72	15.518
615.06	16.592
615.39	16.485
615.72	16.738
616.05	16.425
616.38	16.125
616.71	15.168
617.05	16.492
617.38	16.782
617.71	16.415
618.04	16.698
618.37	17.276
618.70	16.832
619.03	17.153
619.36	15.268
619.69	15.997
620.03	17.020
620.36	16.810
620.69	16.345
621.02	17.125
621.35	17.178
621.68	16.752
622.01	17.583
622.34	17.558
622.67	18.060
623.00	17.228
623.33	18.216
623.66	17.352
623.99	18.003
624.32	18.023
624.65	15.940
624.99	17.156
625.32	15.466
625.65	17.282
625.98	16.277
626.31	15.877
626.64	16.724
626.97	17.277
627.30	17.163
627.63	17.591
627.96	17.610
628.29	17.114
628.62	16.323
628.95	17.034
629.28	16.028
629.61	16.550
629.94	17.302
630.26	17.885
630.59	18.106
630.92	16.821
631.25	15.897
631.58	17.621
631.91	16.557
632.24	17.546
632.57	18.636
632.90	16.251
