SpectraSuite Data File
++++++++++++++++++++++++++++++++++++
Date: Fri May 15 21:12:47 PDT 2015
User: schluterlab
Dark Spectrum Present: Yes
Reference Spectrum Present: Yes
Number of Sampled Component Spectra: 1
Spectrometers: USB2E3373
Integration Time (usec): 3000 (USB2E3373)
Spectra Averaged: 3 (USB2E3373)
Boxcar Smoothing: 0 (USB2E3373)
Correct for Electrical Dark: No (USB2E3373)
Strobe/Lamp Enabled: No (USB2E3373)
Correct for Detector Non-linearity: No (USB2E3373)
Correct for Stray Light: No (USB2E3373)
Number of Pixels in Processed Spectrum: 2048
>>>>>Begin Processed Spectral Data<<<<<
178.53	0.000
178.91	0.000
179.29	37.500
179.67	-350.000
180.04	28.571
180.42	225.000
180.80	200.000
181.18	166.667
181.56	350.000
181.94	-150.000
182.31	800.000
182.69	40.000
183.07	-366.667
183.45	-60.000
183.83	183.333
184.20	-54.545
184.58	211.111
184.96	-25.000
185.34	133.333
185.72	-650.000
186.09	115.385
186.47	-600.000
186.85	250.000
187.23	200.000
187.61	-300.000
187.98	-433.333
188.36	-11.111
188.74	-166.667
189.12	-5.882
189.49	5.556
189.87	0.000
190.25	135.714
190.63	-600.000
191.00	-66.667
191.38	-10.526
191.76	-100.000
192.14	-0.000
192.51	-100.000
192.89	-11.111
193.27	-128.571
193.65	350.000
194.02	218.182
194.40	-60.000
194.78	-275.000
195.15	0.000
195.53	-150.000
195.91	275.000
196.29	-300.000
196.66	84.615
197.04	71.429
197.42	0.000
197.79	-233.333
198.17	-123.077
198.55	200.000
198.92	-500.000
199.30	-1000.000
199.68	-200.000
200.05	-466.667
200.43	0.000
200.81	-100.000
201.18	-233.333
201.56	1500.000
201.94	-350.000
202.31	-33.333
202.69	-240.000
203.07	50.000
203.44	-100.000
203.82	0.000
204.19	-57.143
204.57	-600.000
204.95	162.500
205.32	-60.000
205.70	42.857
206.08	-200.000
206.45	166.667
206.83	35.714
207.20	-14.286
207.58	200.000
207.96	-333.333
208.33	-80.000
208.71	75.000
209.08	-333.333
209.46	0.000
209.84	-160.000
210.21	-600.000
210.59	-28.571
210.96	-166.667
211.34	-25.000
211.71	-6.667
212.09	-14.286
212.46	-1400.000
212.84	0.000
213.22	30.000
213.59	1000.000
213.97	-30.769
214.34	36.364
214.72	0.000
215.09	400.000
215.47	92.308
215.84	-45.455
216.22	-466.667
216.59	0.000
216.97	-300.000
217.34	-200.000
217.72	-180.000
218.09	-25.000
218.47	200.000
218.84	-700.000
219.22	-11.111
219.59	-100.000
219.97	500.000
220.34	400.000
220.72	85.714
221.09	-225.000
221.47	50.000
221.84	-500.000
222.22	-550.000
222.59	-9.091
222.97	16.667
223.34	-166.667
223.72	-14.286
224.09	-19.048
224.46	0.000
224.84	500.000
225.21	-20.000
225.59	0.000
225.96	-450.000
226.34	425.000
226.71	-142.857
227.08	-150.000
227.46	-37.500
227.83	-900.000
228.21	0.000
228.58	36.364
228.95	-25.000
229.33	40.000
229.70	-25.000
230.08	-175.000
230.45	-14.286
230.82	-14.286
231.20	0.000
231.57	114.286
231.95	28.571
232.32	-230.000
232.69	-7.143
233.07	-300.000
233.44	0.000
233.81	-130.000
234.19	-44.444
234.56	-29.412
234.93	650.000
235.31	50.000
235.68	-220.000
236.05	-61.538
236.43	-25.000
236.80	-35.294
237.17	6.250
237.55	-45.000
237.92	-29.630
238.29	8.333
238.67	-3.333
239.04	-2.941
239.41	-17.073
239.79	-13.333
240.16	4.878
240.53	-34.211
240.91	2.174
241.28	1.587
241.65	14.286
242.02	17.808
242.40	3.333
242.77	-5.085
243.14	9.091
243.51	7.500
243.89	21.839
244.26	6.897
244.63	14.286
245.00	11.340
245.38	14.433
245.75	-12.360
246.12	11.207
246.49	5.785
246.87	15.385
247.24	1.681
247.61	0.877
247.98	0.000
248.36	10.625
248.73	4.605
249.10	7.792
249.47	10.127
249.84	7.843
250.22	11.765
250.59	17.647
250.96	15.962
251.33	6.977
251.70	7.647
252.08	8.122
252.45	9.901
252.82	12.563
253.19	6.912
253.56	7.009
253.94	13.063
254.31	13.043
254.68	11.842
255.05	8.661
255.42	11.790
255.79	7.722
256.16	7.782
256.54	13.433
256.91	11.027
257.28	9.294
257.65	13.858
258.02	11.702
258.39	15.488
258.76	12.088
259.14	12.625
259.51	12.621
259.88	10.653
260.25	14.052
260.62	11.458
260.99	6.441
261.36	7.877
261.73	8.228
262.10	11.550
262.47	11.963
262.85	10.658
263.22	8.923
263.59	15.265
263.96	13.665
264.33	11.818
264.70	8.929
265.07	9.524
265.44	10.482
265.81	9.322
266.18	14.481
266.55	10.026
266.92	11.140
267.29	11.227
267.66	13.811
268.03	10.995
268.40	11.227
268.77	13.636
269.14	12.470
269.51	13.368
269.88	11.970
270.25	8.418
270.62	10.976
270.99	9.974
271.36	10.269
271.73	9.390
272.10	9.489
272.47	9.220
272.84	12.376
273.21	10.441
273.58	12.289
273.95	10.984
274.32	10.393
274.69	9.729
275.06	11.607
275.43	10.204
275.80	10.375
276.17	8.276
276.54	12.848
276.91	11.623
277.28	10.917
277.65	12.397
278.02	10.000
278.39	9.628
278.76	8.595
279.13	6.639
279.50	11.345
279.87	11.879
280.23	7.957
280.60	11.891
280.97	9.495
281.34	10.577
281.71	13.347
282.08	9.611
282.45	10.568
282.82	10.039
283.19	8.317
283.56	8.863
283.92	8.729
284.29	9.615
284.66	9.302
285.03	8.251
285.40	10.019
285.77	9.139
286.14	10.650
286.51	10.886
286.87	10.420
287.24	9.761
287.61	8.995
287.98	11.053
288.35	9.185
288.72	9.632
289.08	11.111
289.45	8.084
289.82	10.315
290.19	8.362
290.56	8.062
290.93	9.428
291.29	9.245
291.66	9.134
292.03	10.526
292.40	9.032
292.77	8.772
293.13	4.545
293.50	8.801
293.87	9.313
294.24	8.037
294.60	9.240
294.97	10.565
295.34	9.356
295.71	6.557
296.08	7.175
296.44	5.548
296.81	8.056
297.18	9.130
297.55	10.163
297.91	7.534
298.28	9.235
298.65	8.277
299.02	7.817
299.38	6.019
299.75	10.207
300.12	6.675
300.48	7.773
300.85	7.351
301.22	7.013
301.59	7.368
301.95	8.861
302.32	9.598
302.69	7.711
303.05	7.302
303.42	8.717
303.79	8.528
304.15	8.722
304.52	5.826
304.89	6.550
305.25	8.232
305.62	6.068
305.99	8.187
306.35	7.514
306.72	6.412
307.09	8.096
307.45	8.152
307.82	6.250
308.19	6.504
308.55	8.397
308.92	8.824
309.29	6.927
309.65	6.459
310.02	6.931
310.38	8.452
310.75	8.525
311.12	7.427
311.48	8.271
311.85	7.120
312.22	6.646
312.58	7.431
312.95	6.830
313.31	6.832
313.68	8.901
314.05	8.061
314.41	9.278
314.78	7.835
315.14	9.969
315.51	9.731
315.87	9.324
316.24	10.516
316.61	9.843
316.97	10.317
317.34	10.254
317.70	10.134
318.07	11.058
318.43	10.196
318.80	10.417
319.16	11.914
319.53	12.156
319.89	11.319
320.26	12.753
320.62	14.443
320.99	11.378
321.35	13.155
321.72	12.253
322.08	13.696
322.45	15.025
322.81	15.324
323.18	14.720
323.54	15.251
323.91	15.677
324.27	15.430
324.64	16.948
325.00	16.788
325.37	17.631
325.73	18.586
326.10	18.619
326.46	18.296
326.83	19.948
327.19	19.791
327.56	20.156
327.92	20.246
328.29	20.893
328.65	20.472
329.01	21.140
329.38	21.475
329.74	20.869
330.11	22.057
330.47	21.336
330.84	21.538
331.20	23.194
331.56	22.315
331.93	22.466
332.29	22.823
332.66	22.534
333.02	22.862
333.38	22.365
333.75	23.626
334.11	22.381
334.48	23.481
334.84	23.993
335.20	23.788
335.57	23.209
335.93	24.300
336.29	22.928
336.66	23.342
337.02	23.885
337.38	23.611
337.75	23.455
338.11	25.068
338.47	25.456
338.84	25.139
339.20	23.766
339.56	25.138
339.93	24.440
340.29	23.578
340.65	25.000
341.02	24.291
341.38	24.602
341.74	24.293
342.11	24.350
342.47	24.110
342.83	24.308
343.20	24.477
343.56	25.391
343.92	24.624
344.28	26.985
344.65	24.784
345.01	24.201
345.37	24.895
345.73	24.268
346.10	25.367
346.46	24.474
346.82	25.205
347.19	24.522
347.55	25.647
347.91	24.353
348.27	24.495
348.63	24.872
349.00	24.118
349.36	24.190
349.72	26.285
350.08	26.475
350.45	26.018
350.81	25.581
351.17	24.511
351.53	25.633
351.89	24.855
352.26	26.240
352.62	26.129
352.98	24.257
353.34	26.651
353.70	26.294
354.07	24.919
354.43	25.220
354.79	26.590
355.15	26.825
355.51	26.503
355.87	25.809
356.24	25.449
356.60	25.707
356.96	26.905
357.32	26.837
357.68	25.723
358.04	26.010
358.40	27.412
358.77	27.113
359.13	26.581
359.49	25.732
359.85	27.067
360.21	27.671
360.57	26.855
360.93	27.080
361.29	26.133
361.66	27.194
362.02	28.258
362.38	26.123
362.74	27.025
363.10	28.141
363.46	28.169
363.82	28.926
364.18	28.118
364.54	26.912
364.90	28.459
365.26	27.802
365.62	28.686
365.98	29.179
366.35	28.114
366.71	29.194
367.07	28.447
367.43	28.756
367.79	29.117
368.15	28.859
368.51	27.895
368.87	27.782
369.23	28.375
369.59	29.227
369.95	29.326
370.31	29.191
370.67	29.627
371.03	28.753
371.39	29.978
371.75	29.817
372.11	29.458
372.47	30.695
372.83	30.589
373.19	30.456
373.55	29.964
373.91	30.166
374.27	31.042
374.63	31.012
374.99	30.851
375.35	30.780
375.71	31.189
376.07	31.320
376.42	31.701
376.78	31.409
377.14	31.618
377.50	31.806
377.86	31.191
378.22	30.377
378.58	31.474
378.94	31.947
379.30	32.813
379.66	31.850
380.02	31.576
380.38	31.710
380.74	30.999
381.09	33.252
381.45	31.927
381.81	32.881
382.17	31.853
382.53	31.980
382.89	32.957
383.25	33.354
383.61	33.171
383.97	32.952
384.32	33.271
384.68	32.570
385.04	32.782
385.40	32.732
385.76	35.220
386.12	34.347
386.48	33.653
386.83	32.530
387.19	33.394
387.55	34.379
387.91	34.046
388.27	33.516
388.62	34.928
388.98	34.745
389.34	34.104
389.70	35.674
390.06	33.921
390.42	35.557
390.77	35.579
391.13	34.552
391.49	34.670
391.85	35.543
392.20	34.903
392.56	35.219
392.92	35.467
393.28	35.200
393.64	34.054
393.99	35.737
394.35	36.686
394.71	36.718
395.07	34.821
395.42	36.612
395.78	35.440
396.14	34.931
396.50	35.447
396.85	35.802
397.21	36.905
397.57	35.110
397.92	36.129
398.28	36.149
398.64	35.843
399.00	36.512
399.35	35.835
399.71	36.071
400.07	36.215
400.42	36.230
400.78	36.803
401.14	36.177
401.49	36.867
401.85	35.893
402.21	36.928
402.57	35.625
402.92	36.010
403.28	37.281
403.63	36.381
403.99	36.033
404.35	36.790
404.70	35.595
405.06	36.251
405.42	35.923
405.77	36.490
406.13	36.438
406.49	36.057
406.84	37.592
407.20	37.086
407.55	36.317
407.91	37.032
408.27	36.839
408.62	37.354
408.98	35.798
409.34	36.927
409.69	37.403
410.05	37.623
410.40	36.975
410.76	37.153
411.11	37.000
411.47	37.607
411.83	36.158
412.18	36.358
412.54	36.517
412.89	35.837
413.25	36.582
413.60	36.460
413.96	35.521
414.31	36.524
414.67	36.883
415.03	36.818
415.38	36.292
415.74	37.134
416.09	35.794
416.45	36.124
416.80	36.153
417.16	37.845
417.51	36.376
417.87	36.310
418.22	36.917
418.58	37.191
418.93	37.241
419.29	35.851
419.64	36.811
420.00	38.791
420.35	36.119
420.71	37.060
421.06	36.894
421.42	38.041
421.77	36.705
422.12	36.152
422.48	37.141
422.83	36.717
423.19	36.343
423.54	36.743
423.90	35.218
424.25	37.084
424.61	37.454
424.96	36.934
425.31	38.186
425.67	36.972
426.02	38.163
426.38	37.633
426.73	38.075
427.09	37.975
427.44	37.118
427.79	37.478
428.15	36.529
428.50	37.492
428.85	36.425
429.21	36.955
429.56	37.628
429.92	36.826
430.27	37.043
430.62	36.383
430.98	36.040
431.33	36.593
431.68	36.630
432.04	36.557
432.39	36.965
432.74	36.079
433.10	37.586
433.45	36.022
433.80	36.332
434.16	35.900
434.51	37.043
434.86	36.353
435.22	36.568
435.57	37.492
435.92	36.886
436.28	37.448
436.63	36.794
436.98	36.559
437.34	35.935
437.69	37.448
438.04	36.866
438.39	36.042
438.75	38.251
439.10	37.351
439.45	37.797
439.81	36.147
440.16	37.233
440.51	37.612
440.86	38.248
441.22	35.916
441.57	36.589
441.92	38.510
442.27	37.029
442.63	38.276
442.98	37.163
443.33	36.895
443.68	37.029
444.03	37.158
444.39	36.350
444.74	37.904
445.09	37.862
445.44	37.892
445.79	37.029
446.15	36.013
446.50	36.883
446.85	37.407
447.20	36.548
447.55	37.333
447.91	37.169
448.26	36.596
448.61	37.363
448.96	37.866
449.31	36.647
449.66	37.398
450.02	36.509
450.37	36.633
450.72	36.541
451.07	36.329
451.42	36.767
451.77	36.769
452.12	35.646
452.47	36.574
452.83	36.808
453.18	35.863
453.53	36.473
453.88	36.794
454.23	36.386
454.58	36.776
454.93	36.405
455.28	35.175
455.63	36.454
455.98	36.500
456.34	36.398
456.69	36.150
457.04	36.232
457.39	36.027
457.74	36.638
458.09	34.785
458.44	36.279
458.79	35.350
459.14	36.442
459.49	36.597
459.84	35.759
460.19	35.012
460.54	35.697
460.89	36.080
461.24	35.839
461.59	35.748
461.94	34.717
462.29	35.826
462.64	35.681
462.99	35.139
463.34	35.466
463.69	34.749
464.04	35.291
464.39	34.991
464.74	34.969
465.09	35.496
465.44	35.488
465.79	35.034
466.14	35.576
466.49	36.285
466.84	35.098
467.19	34.105
467.54	34.610
467.89	33.165
468.24	34.489
468.59	35.111
468.94	34.032
469.29	36.131
469.64	34.040
469.99	35.039
470.34	34.266
470.68	34.974
471.03	35.740
471.38	34.451
471.73	35.154
472.08	33.039
472.43	34.027
472.78	34.270
473.13	33.741
473.48	34.723
473.83	34.309
474.17	35.298
474.52	32.865
474.87	34.121
475.22	34.045
475.57	33.653
475.92	34.668
476.27	34.750
476.61	33.970
476.96	33.519
477.31	34.451
477.66	33.596
478.01	33.857
478.36	32.789
478.70	33.714
479.05	33.626
479.40	33.386
479.75	32.273
480.10	33.641
480.45	33.550
480.79	34.743
481.14	33.145
481.49	32.562
481.84	33.349
482.19	32.320
482.53	33.621
482.88	33.031
483.23	32.774
483.58	32.264
483.92	33.011
484.27	32.634
484.62	32.228
484.97	32.546
485.31	32.081
485.66	30.897
486.01	31.782
486.36	31.698
486.70	32.396
487.05	32.254
487.40	31.774
487.75	32.085
488.09	31.675
488.44	31.155
488.79	31.565
489.13	31.891
489.48	31.167
489.83	31.525
490.17	32.045
490.52	32.102
490.87	31.282
491.22	32.283
491.56	31.072
491.91	31.788
492.26	31.794
492.60	32.198
492.95	32.858
493.30	30.728
493.64	32.662
493.99	30.725
494.34	30.728
494.68	31.048
495.03	31.241
495.37	31.207
495.72	31.095
496.07	31.073
496.41	30.566
496.76	30.677
497.11	30.368
497.45	31.981
497.80	31.887
498.14	31.197
498.49	31.133
498.84	30.689
499.18	31.225
499.53	31.101
499.87	30.010
500.22	30.861
500.56	31.266
500.91	31.024
501.26	29.758
501.60	30.054
501.95	30.422
502.29	29.588
502.64	30.743
502.98	30.982
503.33	29.539
503.67	30.169
504.02	31.427
504.36	31.222
504.71	29.444
505.06	29.995
505.40	29.594
505.75	30.464
506.09	29.954
506.44	30.236
506.78	30.051
507.13	29.886
507.47	28.825
507.82	29.647
508.16	29.635
508.51	29.014
508.85	29.775
509.19	29.643
509.54	29.437
509.88	29.504
510.23	29.586
510.57	29.075
510.92	28.625
511.26	29.842
511.61	29.098
511.95	29.315
512.30	29.435
512.64	30.161
512.98	29.141
513.33	29.211
513.67	28.709
514.02	30.721
514.36	29.600
514.70	29.953
515.05	30.435
515.39	28.453
515.74	29.401
516.08	30.245
516.42	30.153
516.77	29.959
517.11	29.080
517.46	28.845
517.80	29.380
518.14	29.333
518.49	28.846
518.83	29.344
519.17	28.017
519.52	28.952
519.86	27.851
520.20	29.222
520.55	27.830
520.89	28.795
521.23	28.816
521.58	29.338
521.92	29.808
522.26	29.083
522.61	28.117
522.95	28.940
523.29	28.081
523.64	28.717
523.98	29.618
524.32	27.899
524.66	28.041
525.01	28.831
525.35	29.164
525.69	27.340
526.04	28.505
526.38	28.210
526.72	27.600
527.06	28.080
527.41	28.628
527.75	27.882
528.09	27.110
528.43	28.562
528.78	28.053
529.12	29.097
529.46	27.875
529.80	27.612
530.15	27.393
530.49	28.350
530.83	28.249
531.17	26.797
531.51	27.975
531.86	27.600
532.20	27.418
532.54	26.889
532.88	28.063
533.22	27.755
533.57	26.933
533.91	27.546
534.25	28.125
534.59	28.095
534.93	26.746
535.27	26.967
535.62	27.479
535.96	27.071
536.30	28.430
536.64	27.843
536.98	27.247
537.32	27.525
537.66	28.191
538.01	27.832
538.35	27.323
538.69	26.698
539.03	27.136
539.37	27.322
539.71	26.244
540.05	27.088
540.39	26.939
540.73	26.778
541.07	27.486
541.42	26.546
541.76	26.772
542.10	26.084
542.44	27.033
542.78	26.428
543.12	25.687
543.46	26.912
543.80	26.440
544.14	26.168
544.48	26.049
544.82	26.111
545.16	26.639
545.50	26.702
545.84	25.708
546.18	27.376
546.52	25.595
546.86	25.953
547.20	26.180
547.54	26.148
547.88	25.747
548.22	24.852
548.56	26.319
548.90	25.741
549.24	24.105
549.58	25.882
549.92	24.875
550.26	25.055
550.60	25.651
550.94	25.840
551.28	25.270
551.62	26.231
551.96	26.466
552.30	25.950
552.64	24.330
552.98	24.473
553.32	25.535
553.66	24.673
554.00	25.401
554.34	24.889
554.68	24.631
555.02	25.298
555.36	24.757
555.69	23.810
556.03	24.625
556.37	24.484
556.71	25.415
557.05	25.429
557.39	24.610
557.73	24.963
558.07	25.867
558.41	24.426
558.75	24.630
559.08	24.665
559.42	24.127
559.76	24.580
560.10	25.153
560.44	24.870
560.78	24.266
561.12	24.683
561.45	25.439
561.79	24.510
562.13	24.769
562.47	23.741
562.81	24.712
563.15	24.542
563.48	24.257
563.82	25.189
564.16	23.607
564.50	23.986
564.84	23.561
565.17	24.212
565.51	24.590
565.85	23.868
566.19	24.668
566.52	24.397
566.86	23.972
567.20	23.661
567.54	23.905
567.88	24.253
568.21	24.717
568.55	23.641
568.89	23.614
569.23	23.736
569.56	23.424
569.90	23.833
570.24	24.116
570.57	23.273
570.91	23.632
571.25	22.427
571.59	22.703
571.92	22.459
572.26	22.252
572.60	23.039
572.93	23.439
573.27	22.320
573.61	23.031
573.95	22.829
574.28	22.643
574.62	22.375
574.96	22.538
575.29	22.009
575.63	21.534
575.97	21.496
576.30	21.844
576.64	21.404
576.98	22.420
577.31	22.266
577.65	22.362
577.98	21.893
578.32	22.169
578.66	21.878
578.99	22.064
579.33	21.859
579.67	21.877
580.00	21.646
580.34	21.965
580.67	21.291
581.01	21.926
581.35	21.425
581.68	21.846
582.02	21.784
582.35	21.523
582.69	21.698
583.02	21.064
583.36	21.647
583.70	22.248
584.03	22.074
584.37	22.247
584.70	21.456
585.04	21.062
585.37	21.597
585.71	21.205
586.04	21.306
586.38	21.179
586.72	21.636
587.05	22.155
587.39	21.610
587.72	22.034
588.06	21.561
588.39	21.703
588.73	22.009
589.06	22.114
589.40	20.913
589.73	22.271
590.07	21.601
590.40	21.594
590.73	21.787
591.07	21.628
591.40	21.594
591.74	21.584
592.07	21.939
592.41	21.511
592.74	22.063
593.08	20.922
593.41	21.153
593.75	20.805
594.08	21.250
594.41	21.761
594.75	21.107
595.08	21.302
595.42	21.016
595.75	20.804
596.09	21.345
596.42	21.207
596.75	21.137
597.09	21.777
597.42	21.183
597.75	21.118
598.09	20.688
598.42	20.578
598.76	20.292
599.09	21.114
599.42	20.917
599.76	20.429
600.09	20.626
600.42	20.281
600.76	20.097
601.09	20.611
601.42	20.172
601.76	20.723
602.09	19.802
602.42	21.188
602.76	20.586
603.09	20.930
603.42	21.405
603.76	19.879
604.09	20.778
604.42	21.024
604.76	21.540
605.09	20.887
605.42	20.948
605.75	20.403
606.09	19.618
606.42	19.766
606.75	20.823
607.09	20.527
607.42	19.894
607.75	19.893
608.08	19.811
608.42	20.420
608.75	20.193
609.08	20.578
609.41	19.848
609.75	19.909
610.08	20.519
610.41	19.662
610.74	20.429
611.07	20.258
611.41	20.550
611.74	20.682
612.07	19.433
612.40	20.186
612.73	19.661
613.07	18.898
613.40	20.569
613.73	19.866
614.06	20.590
614.39	20.417
614.72	19.720
615.06	19.553
615.39	20.197
615.72	20.075
616.05	20.894
616.38	19.202
616.71	19.572
617.05	20.321
617.38	20.176
617.71	20.440
618.04	19.810
618.37	19.546
618.70	21.650
619.03	21.597
619.36	19.030
619.69	20.773
620.03	21.402
620.36	19.671
620.69	19.986
621.02	20.336
621.35	21.162
621.68	19.728
622.01	19.583
622.34	21.149
622.67	20.662
623.00	19.908
623.33	20.503
623.66	19.147
623.99	20.197
624.32	19.468
624.65	19.699
624.99	20.617
625.32	18.878
625.65	21.367
625.98	20.145
626.31	19.285
626.64	20.017
626.97	19.983
627.30	20.228
627.63	19.844
627.96	19.766
628.29	19.241
628.62	19.666
628.95	19.539
629.28	19.153
629.61	20.040
629.94	19.648
630.26	19.269
630.59	20.812
630.92	19.282
631.25	19.795
631.58	20.595
631.91	17.982
632.24	19.266
632.57	19.318
632.90	20.878
633.23	20.353
633.56	18.388
633.89	20.962
634.22	21.235
634.55	20.457
634.88	20.051
635.20	19.744
635.53	19.733
635.86	18.986
