SpectraSuite Data File
++++++++++++++++++++++++++++++++++++
Date: Fri May 15 20:44:59 PDT 2015
User: schluterlab
Dark Spectrum Present: Yes
Reference Spectrum Present: Yes
Number of Sampled Component Spectra: 1
Spectrometers: USB2E3373
Integration Time (usec): 3000 (USB2E3373)
Spectra Averaged: 3 (USB2E3373)
Boxcar Smoothing: 0 (USB2E3373)
Correct for Electrical Dark: No (USB2E3373)
Strobe/Lamp Enabled: No (USB2E3373)
Correct for Detector Non-linearity: No (USB2E3373)
Correct for Stray Light: No (USB2E3373)
Number of Pixels in Processed Spectrum: 2048
>>>>>Begin Processed Spectral Data<<<<<
178.53	0.000
178.91	0.000
179.29	-25.000
179.67	150.000
180.04	28.571
180.42	-50.000
180.80	-1200.000
181.18	200.000
181.56	400.000
181.94	-450.000
182.31	1000.000
182.69	-160.000
183.07	-466.667
183.45	120.000
183.83	150.000
184.20	-9.091
184.58	155.556
184.96	75.000
185.34	133.333
185.72	-50.000
186.09	100.000
186.47	-800.000
186.85	100.000
187.23	88.889
187.61	300.000
187.98	-433.333
188.36	-22.222
188.74	166.667
189.12	11.765
189.49	-11.111
189.87	0.000
190.25	14.286
190.63	-100.000
191.00	-66.667
191.38	0.000
191.76	-150.000
192.14	-25.000
192.51	400.000
192.89	-122.222
193.27	-314.286
193.65	116.667
194.02	227.273
194.40	-20.000
194.78	-37.500
195.15	-108.333
195.53	-125.000
195.91	400.000
196.29	-200.000
196.66	107.692
197.04	200.000
197.42	-144.444
197.79	-633.333
198.17	-107.692
198.55	1300.000
198.92	-200.000
199.30	-900.000
199.68	-80.000
200.05	-166.667
200.43	0.000
200.81	-66.667
201.18	-166.667
201.56	1100.000
201.94	-300.000
202.31	233.333
202.69	-240.000
203.07	275.000
203.44	-400.000
203.82	0.000
204.19	14.286
204.57	-300.000
204.95	212.500
205.32	20.000
205.70	57.143
206.08	-325.000
206.45	144.444
206.83	21.429
207.20	-271.429
207.58	300.000
207.96	0.000
208.33	-80.000
208.71	-375.000
209.08	-200.000
209.46	-700.000
209.84	-100.000
210.21	-1100.000
210.59	85.714
210.96	-83.333
211.34	-275.000
211.71	73.333
212.09	-114.286
212.46	-1400.000
212.84	0.000
213.22	60.000
213.59	450.000
213.97	23.077
214.34	81.818
214.72	-283.333
215.09	475.000
215.47	-30.769
215.84	-109.091
216.22	-233.333
216.59	-75.000
216.97	-150.000
217.34	-100.000
217.72	-340.000
218.09	-12.500
218.47	137.500
218.84	-1200.000
219.22	-88.889
219.59	-140.000
219.97	433.333
220.34	400.000
220.72	42.857
221.09	-75.000
221.47	-250.000
221.84	-450.000
222.22	-1000.000
222.59	36.364
222.97	41.667
223.34	-366.667
223.72	0.000
224.09	23.810
224.46	7.143
224.84	266.667
225.21	80.000
225.59	-46.667
225.96	100.000
226.34	525.000
226.71	57.143
227.08	16.667
227.46	-62.500
227.83	-700.000
228.21	0.000
228.58	-18.182
228.95	37.500
229.33	-0.000
229.70	-12.500
230.08	-112.500
230.45	-100.000
230.82	-57.143
231.20	-6.667
231.57	0.000
231.95	-71.429
232.32	-180.000
232.69	0.000
233.07	166.667
233.44	-60.000
233.81	-100.000
234.19	-33.333
234.56	17.647
234.93	600.000
235.31	75.000
235.68	-40.000
236.05	-7.692
236.43	-40.000
236.80	-5.882
237.17	21.875
237.55	-15.000
237.92	3.704
238.29	25.000
238.67	40.000
239.04	26.471
239.41	-2.439
239.79	13.333
240.16	34.146
240.53	7.895
240.91	2.174
241.28	0.000
241.65	35.714
242.02	24.658
242.40	18.333
242.77	28.814
243.14	21.212
243.51	22.500
243.89	39.080
244.26	28.736
244.63	35.714
245.00	24.742
245.38	29.897
245.75	30.337
246.12	25.000
246.49	22.314
246.87	25.000
247.24	34.454
247.61	26.316
247.98	31.707
248.36	26.250
248.73	34.211
249.10	23.377
249.47	36.709
249.84	33.987
250.22	28.824
250.59	33.333
250.96	29.108
251.33	26.163
251.70	36.471
252.08	33.503
252.45	27.723
252.82	26.633
253.19	29.032
253.56	29.907
253.94	35.586
254.31	36.087
254.68	33.772
255.05	29.528
255.42	30.131
255.79	30.888
256.16	35.409
256.54	35.448
256.91	33.080
257.28	32.342
257.65	25.468
258.02	31.915
258.39	32.323
258.76	34.066
259.14	36.545
259.51	29.450
259.88	31.615
260.25	36.601
260.62	34.375
260.99	30.169
261.36	32.534
261.73	32.278
262.10	32.219
262.47	29.448
262.85	33.856
263.22	36.615
263.59	33.022
263.96	30.124
264.33	37.576
264.70	33.333
265.07	30.655
265.44	32.861
265.81	31.638
266.18	32.240
266.55	31.620
266.92	31.865
267.29	35.248
267.66	31.714
268.03	33.770
268.40	32.898
268.77	35.294
269.14	34.053
269.51	34.447
269.88	31.172
270.25	31.633
270.62	33.902
270.99	34.271
271.36	33.741
271.73	31.925
272.10	32.117
272.47	32.388
272.84	31.683
273.21	34.803
273.58	31.807
273.95	32.037
274.32	30.485
274.69	29.186
275.06	34.821
275.43	28.118
275.80	31.347
276.17	30.805
276.54	34.047
276.91	32.018
277.28	30.131
277.65	31.612
278.02	30.851
278.39	30.416
278.76	29.769
279.13	27.593
279.50	30.882
279.87	30.238
280.23	33.118
280.60	31.384
280.97	32.121
281.34	28.462
281.71	33.265
282.08	29.857
282.45	28.180
282.82	29.730
283.19	31.721
283.56	30.058
283.92	29.791
284.29	29.808
284.66	28.295
285.03	29.273
285.40	27.977
285.77	30.756
286.14	27.437
286.51	32.657
286.87	29.982
287.24	28.913
287.61	28.219
287.98	29.298
288.35	27.903
288.72	30.473
289.08	29.340
289.45	29.877
289.82	28.322
290.19	26.451
290.56	25.729
290.93	26.263
291.29	24.499
291.66	25.984
292.03	24.402
292.40	28.710
292.77	25.678
293.13	24.188
293.50	24.734
293.87	25.802
294.24	25.811
294.60	24.888
294.97	23.661
295.34	24.233
295.71	23.696
296.08	23.767
296.44	22.760
296.81	23.333
297.18	24.928
297.55	25.745
297.91	23.973
298.28	23.615
298.65	23.338
299.02	22.507
299.38	22.298
299.75	21.241
300.12	22.382
300.48	22.266
300.85	21.546
301.22	20.000
301.59	22.105
301.95	23.291
302.32	21.530
302.69	20.522
303.05	21.906
303.42	21.420
303.79	21.495
304.15	21.386
304.52	21.046
304.89	19.766
305.25	19.976
305.62	19.487
305.99	19.649
306.35	20.694
306.72	17.773
307.09	21.323
307.45	21.010
307.82	20.139
308.19	19.977
308.55	19.847
308.92	21.242
309.29	19.330
309.65	20.560
310.02	19.582
310.38	20.746
310.75	21.421
311.12	19.591
311.48	18.982
311.85	20.209
312.22	18.987
312.58	18.577
312.95	20.384
313.31	18.012
313.68	19.372
314.05	20.000
314.41	20.619
314.78	19.072
315.14	20.349
315.51	21.222
315.87	18.340
316.24	20.222
316.61	20.374
316.97	19.643
317.34	20.703
317.70	19.790
318.07	19.135
318.43	18.824
318.80	19.223
319.16	20.410
319.53	20.228
319.89	19.291
320.26	19.838
320.62	20.562
320.99	18.372
321.35	19.836
321.72	19.730
322.08	19.033
322.45	20.609
322.81	18.861
323.18	19.235
323.54	18.533
323.91	19.572
324.27	20.508
324.64	20.787
325.00	18.613
325.37	19.559
325.73	20.218
326.10	20.618
326.46	21.256
326.83	20.297
327.19	21.011
327.56	19.896
327.92	21.127
328.29	19.464
328.65	21.038
329.01	20.588
329.38	20.737
329.74	20.397
330.11	18.999
330.47	19.944
330.84	19.135
331.20	20.722
331.56	19.074
331.93	20.000
332.29	20.348
332.66	19.910
333.02	18.959
333.38	19.248
333.75	20.788
334.11	19.069
334.48	20.218
334.84	20.696
335.20	19.671
335.57	19.674
335.93	20.145
336.29	19.705
336.66	20.254
337.02	19.145
337.38	19.630
337.75	19.818
338.11	21.641
338.47	21.898
338.84	19.778
339.20	19.378
339.56	19.725
339.93	19.696
340.29	19.266
340.65	20.161
341.02	18.617
341.38	18.850
341.74	19.170
342.11	18.977
342.47	19.039
342.83	20.502
343.20	20.035
343.56	19.739
343.92	19.043
344.28	20.325
344.65	18.566
345.01	18.237
345.37	20.017
345.73	20.084
346.10	19.327
346.46	19.765
346.82	19.313
347.19	19.036
347.55	19.382
347.91	19.498
348.27	20.210
348.63	19.250
349.00	19.934
349.36	19.701
349.72	19.900
350.08	18.443
350.45	19.872
350.81	17.608
351.17	18.730
351.53	19.673
351.89	18.002
352.26	19.280
352.62	19.839
352.98	19.277
353.34	18.357
353.70	19.984
354.07	18.710
354.43	19.135
354.79	17.754
355.15	20.000
355.51	19.225
355.87	17.880
356.24	18.434
356.60	18.674
356.96	19.524
357.32	19.569
357.68	18.139
358.04	18.417
358.40	18.810
358.77	18.979
359.13	18.335
359.49	17.180
359.85	18.955
360.21	18.501
360.57	18.133
360.93	18.911
361.29	17.145
361.66	18.417
362.02	19.167
362.38	19.040
362.74	18.244
363.10	19.338
363.46	18.829
363.82	19.910
364.18	18.376
364.54	17.426
364.90	17.849
365.26	18.486
365.62	19.708
365.98	18.842
366.35	18.572
366.71	18.182
367.07	18.505
367.43	17.685
367.79	18.021
368.15	18.090
368.51	18.135
368.87	18.306
369.23	17.256
369.59	19.023
369.95	19.135
370.31	17.991
370.67	17.687
371.03	17.774
371.39	16.995
371.75	18.095
372.11	17.475
372.47	17.825
372.83	17.672
373.19	17.546
373.55	17.112
373.91	17.567
374.27	17.789
374.63	17.732
374.99	17.163
375.35	17.549
375.71	18.671
376.07	17.978
376.42	17.619
376.78	18.121
377.14	17.265
377.50	17.463
377.86	17.671
378.22	17.613
378.58	17.692
378.94	17.643
379.30	17.717
379.66	16.803
380.02	17.106
380.38	16.859
380.74	17.295
381.09	17.423
381.45	17.125
381.81	17.397
382.17	18.211
382.53	17.676
382.89	17.075
383.25	17.424
383.61	17.683
383.97	17.333
384.32	17.699
384.68	18.142
385.04	17.218
385.40	17.299
385.76	18.050
386.12	17.012
386.48	17.369
386.83	17.565
387.19	17.582
387.55	18.193
387.91	16.626
388.27	17.827
388.62	18.125
388.98	17.311
389.34	17.926
389.70	17.961
390.06	16.237
390.42	16.645
390.77	17.070
391.13	17.213
391.49	16.882
391.85	17.804
392.20	17.012
392.56	17.673
392.92	16.500
393.28	17.748
393.64	16.156
393.99	18.119
394.35	16.572
394.71	17.752
395.07	16.530
395.42	16.393
395.78	16.678
396.14	17.465
396.50	17.502
396.85	18.352
397.21	17.544
397.57	17.241
397.92	16.896
398.28	17.644
398.64	16.627
399.00	17.381
399.35	15.801
399.71	17.806
400.07	18.138
400.42	16.463
400.78	16.473
401.14	16.818
401.49	17.213
401.85	17.185
402.21	17.349
402.57	17.125
402.92	17.127
403.28	18.484
403.63	17.402
403.99	16.582
404.35	17.614
404.70	16.488
405.06	16.804
405.42	17.464
405.77	16.153
406.13	16.764
406.49	17.288
406.84	17.054
407.20	18.001
407.55	16.935
407.91	17.513
408.27	16.189
408.62	17.354
408.98	17.560
409.34	17.720
409.69	16.602
410.05	17.057
410.40	17.346
410.76	17.431
411.11	16.937
411.47	17.620
411.83	16.824
412.18	17.375
412.54	17.166
412.89	16.687
413.25	17.509
413.60	16.957
413.96	17.730
414.31	17.927
414.67	17.768
415.03	17.310
415.38	16.645
415.74	17.264
416.09	17.244
416.45	16.745
416.80	17.052
417.16	17.818
417.51	17.722
417.87	17.536
418.22	18.588
418.58	18.127
418.93	17.868
419.29	16.581
419.64	17.758
420.00	19.207
420.35	17.075
420.71	18.226
421.06	18.232
421.42	18.149
421.77	17.399
422.12	17.140
422.48	17.596
422.83	18.271
423.19	17.607
423.54	17.402
423.90	17.845
424.25	17.910
424.61	18.666
424.96	17.596
425.31	18.255
425.67	17.782
426.02	19.022
426.38	18.723
426.73	18.160
427.09	18.101
427.44	18.588
427.79	18.916
428.15	18.507
428.50	18.292
428.85	18.366
429.21	18.393
429.56	18.868
429.92	18.028
430.27	18.246
430.62	16.884
430.98	18.206
431.33	18.244
431.68	17.896
432.04	18.055
432.39	18.083
432.74	17.919
433.10	17.816
433.45	17.802
433.80	18.862
434.16	17.396
434.51	18.333
434.86	18.293
435.22	18.564
435.57	18.403
435.92	18.024
436.28	18.784
436.63	18.426
436.98	17.903
437.34	18.209
437.69	18.843
438.04	17.664
438.39	17.715
438.75	18.094
439.10	18.563
439.45	18.807
439.81	18.104
440.16	18.587
440.51	18.746
440.86	19.215
441.22	18.835
441.57	19.095
441.92	18.835
442.27	18.459
442.63	19.486
442.98	18.495
443.33	18.420
443.68	18.355
444.03	19.573
444.39	18.347
444.74	19.119
445.09	19.265
445.44	18.063
445.79	20.010
446.15	19.383
446.50	17.582
446.85	18.225
447.20	18.561
447.55	20.257
447.91	19.064
448.26	19.863
448.61	19.229
448.96	19.105
449.31	19.306
449.66	20.151
450.02	18.996
450.37	19.739
450.72	19.301
451.07	19.430
451.42	19.039
451.77	19.168
452.12	19.199
452.47	18.352
452.83	18.787
453.18	19.228
453.53	19.532
453.88	18.397
454.23	18.808
454.58	20.214
454.93	20.168
455.28	18.921
455.63	19.839
455.98	20.024
456.34	20.243
456.69	20.394
457.04	20.227
457.39	20.109
457.74	19.468
458.09	19.070
458.44	18.841
458.79	18.992
459.14	20.595
459.49	20.239
459.84	19.797
460.19	19.782
460.54	19.804
460.89	19.432
461.24	20.124
461.59	21.021
461.94	19.748
462.29	20.205
462.64	21.196
462.99	20.311
463.34	20.028
463.69	20.077
464.04	20.702
464.39	20.619
464.74	21.043
465.09	20.649
465.44	19.446
465.79	18.991
466.14	20.182
466.49	20.817
466.84	20.702
467.19	21.402
467.54	20.626
467.89	20.910
468.24	20.316
468.59	20.190
468.94	20.127
469.29	20.590
469.64	21.463
469.99	22.565
470.34	20.819
470.68	21.849
471.03	21.868
471.38	22.468
471.73	21.919
472.08	21.031
472.43	22.013
472.78	20.699
473.13	21.973
473.48	22.150
473.83	20.797
474.17	22.215
474.52	22.017
474.87	21.818
475.22	20.988
475.57	21.231
475.92	21.393
476.27	22.119
476.61	21.875
476.96	20.803
477.31	21.471
477.66	20.730
478.01	22.010
478.36	21.732
478.70	21.588
479.05	22.473
479.40	21.940
479.75	21.220
480.10	21.403
480.45	22.050
480.79	22.659
481.14	21.875
481.49	21.626
481.84	21.429
482.19	20.907
482.53	21.295
482.88	22.243
483.23	22.217
483.58	22.123
483.92	21.733
484.27	21.787
484.62	21.874
484.97	20.854
485.31	21.387
485.66	20.124
486.01	19.525
486.36	19.112
486.70	18.721
487.05	19.902
487.40	20.036
487.75	19.521
488.09	20.457
488.44	20.461
488.79	20.620
489.13	20.954
489.48	22.061
489.83	21.928
490.17	21.483
490.52	22.402
490.87	21.934
491.22	22.732
491.56	22.960
491.91	21.654
492.26	22.752
492.60	23.656
492.95	23.414
493.30	22.667
493.64	23.134
493.99	24.203
494.34	22.330
494.68	23.619
495.03	22.968
495.37	22.424
495.72	23.120
496.07	23.122
496.41	22.547
496.76	23.399
497.11	21.565
497.45	23.675
497.80	24.168
498.14	23.199
498.49	23.362
498.84	24.152
499.18	23.343
499.53	23.859
499.87	22.325
500.22	22.255
500.56	23.147
500.91	23.494
501.26	22.887
501.60	23.266
501.95	24.066
502.29	23.729
502.64	24.421
502.98	23.582
503.33	23.679
503.67	22.892
504.02	23.558
504.36	24.493
504.71	23.434
505.06	23.805
505.40	24.467
505.75	24.175
506.09	23.315
506.44	24.435
506.78	23.673
507.13	24.509
507.47	23.342
507.82	24.306
508.16	24.089
508.51	24.502
508.85	24.699
509.19	23.736
509.54	24.504
509.88	24.488
510.23	25.121
510.57	24.693
510.92	23.827
511.26	25.259
511.61	25.633
511.95	25.260
512.30	25.277
512.64	25.710
512.98	24.818
513.33	24.454
513.67	24.901
514.02	26.831
514.36	26.171
514.70	26.282
515.05	26.498
515.39	26.328
515.74	26.766
516.08	26.240
516.42	27.208
516.77	26.916
517.11	25.816
517.46	27.349
517.80	26.937
518.14	26.699
518.49	26.202
518.83	26.974
519.17	26.198
519.52	26.821
519.86	26.771
520.20	27.096
520.55	26.391
520.89	26.788
521.23	27.739
521.58	27.129
521.92	27.500
522.26	27.781
522.61	28.117
522.95	27.947
523.29	28.971
523.64	28.335
523.98	27.868
524.32	26.997
524.66	28.105
525.01	28.831
525.35	28.581
525.69	28.081
526.04	27.249
526.38	28.923
526.72	27.469
527.06	28.275
527.41	29.288
527.75	28.284
528.09	28.239
528.43	29.710
528.78	28.449
529.12	29.290
529.46	27.615
529.80	27.169
530.15	28.053
530.49	28.350
530.83	28.523
531.17	28.005
531.51	28.933
531.86	28.212
532.20	28.114
532.54	28.114
532.88	27.515
533.22	28.293
533.57	27.261
533.91	27.611
534.25	27.799
534.59	27.710
534.93	26.495
535.27	26.523
535.62	27.738
535.96	27.397
536.30	28.298
536.64	28.325
536.98	28.641
537.32	28.307
537.66	28.261
538.01	28.881
538.35	28.086
538.69	29.028
539.03	27.478
539.37	27.995
539.71	26.312
540.05	28.785
540.39	28.393
540.73	29.847
541.07	28.867
541.42	29.435
541.76	28.837
542.10	28.493
542.44	27.450
542.78	26.841
543.12	28.022
543.46	27.955
543.80	28.175
544.14	26.702
544.48	26.915
544.82	28.366
545.16	28.279
545.50	28.304
545.84	27.904
546.18	28.369
546.52	28.695
546.86	27.678
547.20	28.612
547.54	27.350
547.88	27.514
548.22	27.153
548.56	27.441
548.90	28.167
549.24	27.548
549.58	27.997
549.92	27.591
550.26	28.132
550.60	28.773
550.94	28.827
551.28	29.598
551.62	30.615
551.96	29.925
552.30	28.363
552.64	27.786
552.98	28.481
553.32	28.816
553.66	27.649
554.00	29.270
554.34	29.321
554.68	28.614
555.02	28.051
555.36	28.272
555.69	28.278
556.03	28.266
556.37	28.399
556.71	28.881
557.05	29.157
557.39	27.955
557.73	29.310
558.07	29.713
558.41	29.173
558.75	29.306
559.08	28.842
559.42	28.889
559.76	30.184
560.10	28.823
560.44	28.518
560.78	28.951
561.12	29.055
561.45	28.391
561.79	28.992
562.13	29.666
562.47	28.633
562.81	28.098
563.15	29.831
563.48	29.066
563.82	28.346
564.16	27.994
564.50	28.378
564.84	28.782
565.17	28.773
565.51	28.620
565.85	28.326
566.19	29.178
566.52	28.619
566.86	28.728
567.20	27.958
567.54	27.433
567.88	27.241
568.21	27.262
568.55	25.815
568.89	26.386
569.23	25.951
569.56	24.737
569.90	24.482
570.24	24.488
570.57	24.291
570.91	23.911
571.25	22.887
571.59	22.859
571.92	22.785
572.26	22.494
572.60	22.202
572.93	22.937
573.27	22.382
573.61	22.047
573.95	22.256
574.28	21.557
574.62	21.409
574.96	21.291
575.29	21.302
575.63	21.327
575.97	21.469
576.30	21.760
576.64	21.430
576.98	21.802
577.31	21.504
577.65	21.674
577.98	21.492
578.32	20.876
578.66	20.073
578.99	20.800
579.33	21.034
579.67	21.095
580.00	21.443
580.34	21.393
580.67	21.291
581.01	20.917
581.35	20.758
581.68	20.823
582.02	20.536
582.35	20.483
582.69	20.530
583.02	20.273
583.36	20.795
583.70	21.469
584.03	22.130
584.37	21.457
584.70	21.374
585.04	21.166
585.37	21.081
585.71	21.550
586.04	20.827
586.38	21.286
586.72	21.951
587.05	22.675
587.39	22.002
587.72	22.034
588.06	21.810
588.39	21.675
588.73	22.314
589.06	22.374
589.40	22.606
589.73	23.184
590.07	23.338
590.40	22.562
590.73	23.806
591.07	24.131
591.40	23.776
591.74	25.113
592.07	24.675
592.41	24.337
592.74	23.656
593.08	22.354
593.41	23.130
593.75	22.309
594.08	22.039
594.41	22.598
594.75	22.557
595.08	23.534
595.42	22.782
595.75	23.019
596.09	22.791
596.42	23.109
596.75	24.334
597.09	23.645
597.42	23.939
597.75	23.683
598.09	23.676
598.42	22.879
598.76	23.638
599.09	23.397
599.42	23.153
599.76	22.724
600.09	23.152
600.42	22.745
600.76	22.474
601.09	22.595
601.42	23.188
601.76	23.263
602.09	23.391
602.42	23.842
602.76	24.024
603.09	23.339
603.42	24.122
603.76	22.903
604.09	22.438
604.42	23.477
604.76	24.566
605.09	24.223
605.42	23.476
605.75	23.468
606.09	23.864
606.42	22.977
606.75	23.550
607.09	24.088
607.42	24.103
607.75	23.268
608.08	23.720
608.42	23.984
608.75	24.386
609.08	24.116
609.41	24.721
609.75	23.387
610.08	24.264
610.41	24.251
610.74	24.086
611.07	24.703
611.41	25.065
611.74	26.066
612.07	24.518
612.40	25.328
612.73	25.424
613.07	24.803
613.40	25.766
613.73	24.063
614.06	25.153
614.39	24.817
614.72	25.602
615.06	24.246
615.39	24.727
615.72	24.435
616.05	24.693
616.38	24.046
616.71	25.994
617.05	26.498
617.38	26.713
617.71	26.038
618.04	26.794
618.37	25.977
618.70	26.469
619.03	27.014
619.36	27.641
619.69	27.293
620.03	27.319
620.36	26.538
620.69	27.266
621.02	28.976
621.35	28.050
621.68	29.507
622.01	29.667
622.34	28.172
622.67	29.259
623.00	28.101
623.33	27.820
623.66	27.973
623.99	27.383
624.32	28.213
624.65	28.195
624.99	28.141
625.32	27.218
625.65	29.929
625.98	29.089
626.31	28.761
626.64	29.723
626.97	30.541
627.30	30.998
627.63	29.289
627.96	31.626
628.29	30.527
628.62	31.465
628.95	30.361
629.28	32.056
629.61	30.708
629.94	31.476
630.26	30.830
630.59	32.882
630.92	32.410
631.25	30.051
631.58	33.811
631.91	31.360
632.24	32.454
632.57	33.864
632.90	33.571
