SpectraSuite Data File
++++++++++++++++++++++++++++++++++++
Date: Fri May 15 20:56:51 PDT 2015
User: schluterlab
Dark Spectrum Present: Yes
Reference Spectrum Present: Yes
Number of Sampled Component Spectra: 1
Spectrometers: USB2E3373
Integration Time (usec): 3000 (USB2E3373)
Spectra Averaged: 3 (USB2E3373)
Boxcar Smoothing: 0 (USB2E3373)
Correct for Electrical Dark: No (USB2E3373)
Strobe/Lamp Enabled: No (USB2E3373)
Correct for Detector Non-linearity: No (USB2E3373)
Correct for Stray Light: No (USB2E3373)
Number of Pixels in Processed Spectrum: 2048
>>>>>Begin Processed Spectral Data<<<<<
178.53	0.000
178.91	0.000
179.29	100.000
179.67	-350.000
180.04	57.143
180.42	0.000
180.80	-100.000
181.18	100.000
181.56	100.000
181.94	-50.000
182.31	1000.000
182.69	-20.000
183.07	-200.000
183.45	-180.000
183.83	100.000
184.20	0.000
184.58	166.667
184.96	-75.000
185.34	233.333
185.72	-400.000
186.09	84.615
186.47	-700.000
186.85	150.000
187.23	211.111
187.61	100.000
187.98	-266.667
188.36	44.444
188.74	-133.333
189.12	29.412
189.49	16.667
189.87	0.000
190.25	35.714
190.63	-400.000
191.00	-233.333
191.38	-57.895
191.76	-100.000
192.14	125.000
192.51	-50.000
192.89	-100.000
193.27	-185.714
193.65	83.333
194.02	181.818
194.40	60.000
194.78	-175.000
195.15	-16.667
195.53	-137.500
195.91	50.000
196.29	-175.000
196.66	146.154
197.04	171.429
197.42	-66.667
197.79	-366.667
198.17	-61.538
198.55	-100.000
198.92	-133.333
199.30	-500.000
199.68	0.000
200.05	-133.333
200.43	0.000
200.81	-33.333
201.18	-166.667
201.56	1100.000
201.94	100.000
202.31	-0.000
202.69	-140.000
203.07	50.000
203.44	1200.000
203.82	0.000
204.19	0.000
204.57	-533.333
204.95	137.500
205.32	-40.000
205.70	-28.571
206.08	-25.000
206.45	155.556
206.83	21.429
207.20	-100.000
207.58	300.000
207.96	-200.000
208.33	-70.000
208.71	125.000
209.08	-200.000
209.46	-100.000
209.84	60.000
210.21	-1100.000
210.59	114.286
210.96	-133.333
211.34	-150.000
211.71	6.667
212.09	-85.714
212.46	-2000.000
212.84	0.000
213.22	80.000
213.59	600.000
213.97	53.846
214.34	90.909
214.72	-33.333
215.09	525.000
215.47	-23.077
215.84	18.182
216.22	-33.333
216.59	-37.500
216.97	-100.000
217.34	25.000
217.72	-120.000
218.09	-37.500
218.47	100.000
218.84	-700.000
219.22	33.333
219.59	40.000
219.97	466.667
220.34	275.000
220.72	71.429
221.09	-300.000
221.47	50.000
221.84	-650.000
222.22	-550.000
222.59	9.091
222.97	-8.333
223.34	0.000
223.72	14.286
224.09	14.286
224.46	14.286
224.84	166.667
225.21	-110.000
225.59	-66.667
225.96	-100.000
226.34	225.000
226.71	57.143
227.08	50.000
227.46	37.500
227.83	-400.000
228.21	33.333
228.58	18.182
228.95	-25.000
229.33	90.000
229.70	-12.500
230.08	-125.000
230.45	-85.714
230.82	157.143
231.20	60.000
231.57	107.143
231.95	42.857
232.32	10.000
232.69	100.000
233.07	0.000
233.44	100.000
233.81	40.000
234.19	-11.111
234.56	64.706
234.93	800.000
235.31	200.000
235.68	-200.000
236.05	-38.462
236.43	5.000
236.80	-82.353
237.17	34.375
237.55	-15.000
237.92	25.926
238.29	22.222
238.67	33.333
239.04	20.588
239.41	-19.512
239.79	-3.333
240.16	48.780
240.53	-5.263
240.91	10.870
241.28	12.698
241.65	30.357
242.02	19.178
242.40	30.000
242.77	22.034
243.14	6.061
243.51	17.500
243.89	12.644
244.26	24.138
244.63	22.619
245.00	27.835
245.38	42.268
245.75	14.607
246.12	12.931
246.49	23.140
246.87	28.846
247.24	16.807
247.61	20.175
247.98	21.951
248.36	18.750
248.73	21.711
249.10	22.078
249.47	20.886
249.84	16.993
250.22	20.000
250.59	23.529
250.96	30.047
251.33	33.721
251.70	30.588
252.08	23.858
252.45	22.277
252.82	18.593
253.19	20.737
253.56	22.430
253.94	25.225
254.31	29.130
254.68	28.070
255.05	25.591
255.42	25.328
255.79	26.255
256.16	29.961
256.54	28.731
256.91	23.194
257.28	22.677
257.65	18.727
258.02	24.468
258.39	23.232
258.76	23.077
259.14	24.917
259.51	29.773
259.88	24.742
260.25	22.549
260.62	29.167
260.99	26.102
261.36	27.055
261.73	24.051
262.10	26.748
262.47	24.847
262.85	25.078
263.22	27.692
263.59	24.611
263.96	31.677
264.33	29.091
264.70	25.595
265.07	25.000
265.44	28.045
265.81	24.859
266.18	26.230
266.55	24.679
266.92	26.943
267.29	26.632
267.66	24.552
268.03	28.272
268.40	25.587
268.77	27.273
269.14	26.379
269.51	25.707
269.88	26.434
270.25	22.449
270.62	24.146
270.99	23.785
271.36	21.516
271.73	26.056
272.10	23.601
272.47	26.950
272.84	25.248
273.21	24.594
273.58	26.747
273.95	24.485
274.32	25.173
274.69	23.303
275.06	26.786
275.43	24.490
275.80	24.283
276.17	25.057
276.54	24.625
276.91	23.465
277.28	23.581
277.65	25.000
278.02	25.106
278.39	22.976
278.76	26.205
279.13	20.747
279.50	24.160
279.87	25.054
280.23	22.581
280.60	24.561
280.97	26.667
281.34	23.462
281.71	26.078
282.08	22.904
282.45	20.939
282.82	24.517
283.19	24.565
283.56	22.543
283.92	22.201
284.29	21.346
284.66	23.256
285.03	22.593
285.40	22.684
285.77	23.726
286.14	21.661
286.51	26.753
286.87	21.207
287.24	23.573
287.61	20.988
287.98	22.982
288.35	24.437
288.72	22.417
289.08	21.007
289.45	23.023
289.82	21.329
290.19	22.014
290.56	20.926
290.93	22.559
291.29	18.798
291.66	21.575
292.03	20.574
292.40	21.290
292.77	20.415
293.13	17.695
293.50	19.879
293.87	20.305
294.24	18.856
294.60	19.523
294.97	19.048
295.34	20.092
295.71	19.076
296.08	17.788
296.44	16.643
296.81	16.944
297.18	17.971
297.55	18.970
297.91	18.904
298.28	20.053
298.65	17.910
299.02	17.925
299.38	16.416
299.75	18.345
300.12	18.325
300.48	16.996
300.85	17.364
301.22	17.792
301.59	16.316
301.95	18.861
302.32	18.158
302.69	17.040
303.05	18.564
303.42	17.186
303.79	18.575
304.15	16.607
304.52	15.696
304.89	17.310
305.25	17.433
305.62	14.352
305.99	16.959
306.35	17.341
306.72	14.398
307.09	16.876
307.45	15.959
307.82	16.435
308.19	16.492
308.55	16.794
308.92	16.776
309.29	16.425
309.65	15.608
310.02	15.402
310.38	16.136
310.75	17.268
311.12	15.931
311.48	16.967
311.85	16.440
312.22	16.350
312.58	14.544
312.95	16.329
313.31	14.596
313.68	18.115
314.05	15.714
314.41	16.289
314.78	16.186
315.14	16.855
315.51	18.012
315.87	17.213
316.24	18.807
316.61	16.535
316.97	16.667
317.34	17.188
317.70	17.973
318.07	17.692
318.43	18.627
318.80	17.235
319.16	19.238
319.53	19.658
319.89	20.177
320.26	20.040
320.62	20.060
320.99	18.580
321.35	20.247
321.72	21.288
322.08	23.162
322.45	21.218
322.81	23.084
323.18	22.179
323.54	23.263
323.91	23.369
324.27	25.391
324.64	24.625
325.00	23.905
325.37	26.263
325.73	24.932
326.10	25.795
326.46	27.534
326.83	28.346
327.19	28.073
327.56	29.626
327.92	29.049
328.29	29.107
328.65	30.000
329.01	29.136
329.38	30.968
329.74	29.934
330.11	31.511
330.47	31.076
330.84	31.154
331.20	32.890
331.56	31.481
331.93	33.699
332.29	33.822
332.66	33.394
333.02	33.829
333.38	32.172
333.75	33.974
334.11	33.483
334.48	34.361
334.84	34.066
335.20	34.401
335.57	33.454
335.93	35.140
336.29	34.991
336.66	33.969
337.02	34.294
337.38	35.185
337.75	34.909
338.11	35.257
338.47	34.854
338.84	34.935
339.20	33.912
339.56	34.679
339.93	37.064
340.29	36.239
340.65	36.828
341.02	35.638
341.38	35.929
341.74	36.307
342.11	33.969
342.47	37.011
342.83	36.419
343.20	37.021
343.56	37.391
343.92	37.112
344.28	36.892
344.65	36.874
345.01	36.301
345.37	36.501
345.73	36.736
346.10	37.532
346.46	37.342
346.82	36.661
347.19	34.663
347.55	36.090
347.91	38.026
348.27	36.944
348.63	36.457
349.00	36.916
349.36	37.905
349.72	37.065
350.08	37.213
350.45	36.712
350.81	37.043
351.17	38.029
351.53	37.714
351.89	37.820
352.26	35.120
352.62	38.226
352.98	38.474
353.34	37.198
353.70	39.320
354.07	37.823
354.43	38.110
354.79	39.059
355.15	38.095
355.51	39.082
355.87	38.592
356.24	38.336
356.60	37.833
356.96	38.492
357.32	38.019
357.68	38.155
358.04	40.307
358.40	38.666
358.77	40.351
359.13	38.271
359.49	38.752
359.85	38.846
360.21	38.836
360.57	38.791
360.93	38.124
361.29	37.387
361.66	40.752
362.02	40.152
362.38	39.147
362.74	40.802
363.10	40.331
363.46	40.771
363.82	39.820
364.18	39.631
364.54	39.412
364.90	40.860
365.26	40.539
365.62	40.876
365.98	40.616
366.35	40.932
366.71	41.020
367.07	40.856
367.43	41.193
367.79	40.777
368.15	40.847
368.51	41.952
368.87	41.924
369.23	41.877
369.59	41.910
369.95	43.988
370.31	42.197
370.67	41.940
371.03	42.644
371.39	42.232
371.75	41.685
372.11	42.439
372.47	43.195
372.83	42.796
373.19	42.225
373.55	41.155
373.91	43.413
374.27	42.665
374.63	43.360
374.99	42.766
375.35	44.150
375.71	43.566
376.07	43.890
376.42	43.741
376.78	43.423
377.14	43.466
377.50	43.692
377.86	44.378
378.22	44.735
378.58	44.359
378.94	43.163
379.30	44.791
379.66	44.451
380.02	44.083
380.38	43.944
380.74	44.464
381.09	46.196
381.45	44.281
381.81	45.589
382.17	45.622
382.53	45.784
382.89	45.825
383.25	46.235
383.61	45.610
383.97	45.460
384.32	46.091
384.68	44.520
385.04	46.140
385.40	46.049
385.76	47.736
386.12	46.572
386.48	46.935
386.83	45.593
387.19	46.032
387.55	47.679
387.91	46.760
388.27	46.886
388.62	48.710
388.98	46.593
389.34	46.908
389.70	46.489
390.06	47.262
390.42	47.539
390.77	48.267
391.13	46.721
391.49	48.383
391.85	47.758
392.20	47.897
392.56	47.807
392.92	48.385
393.28	47.465
393.64	47.207
393.99	49.342
394.35	48.893
394.71	49.042
395.07	48.146
395.42	48.087
395.78	49.316
396.14	49.117
396.50	48.003
396.85	49.259
397.21	48.810
397.57	48.652
397.92	48.532
398.28	49.770
398.64	47.711
399.00	48.702
399.35	48.307
399.71	48.995
400.07	50.544
400.42	49.266
400.78	49.663
401.14	48.578
401.49	49.792
401.85	48.446
402.21	49.157
402.57	49.188
402.92	48.871
403.28	49.624
403.63	48.928
403.99	50.064
404.35	49.532
404.70	49.345
405.06	49.412
405.42	48.664
405.77	48.867
406.13	50.233
406.49	48.964
406.84	50.000
407.20	50.271
407.55	49.581
407.91	49.198
408.27	49.458
408.62	50.215
408.98	49.230
409.34	50.434
409.69	48.708
410.05	49.138
410.40	50.062
410.76	50.603
411.11	51.812
411.47	50.296
411.83	50.282
412.18	51.995
412.54	50.437
412.89	49.692
413.25	49.940
413.60	49.876
413.96	50.245
414.31	49.451
414.67	49.391
415.03	50.000
415.38	50.065
415.74	50.749
416.09	50.359
416.45	51.249
416.80	49.174
417.16	51.519
417.51	51.432
417.87	50.587
418.22	51.166
418.58	49.833
418.93	50.282
419.29	49.104
419.64	50.356
420.00	52.078
420.35	48.896
420.71	51.276
421.06	50.153
421.42	51.082
421.77	51.561
422.12	49.035
422.48	51.218
422.83	50.812
423.19	50.395
423.54	50.441
423.90	50.471
424.25	50.804
424.61	51.897
424.96	50.697
425.31	51.704
425.67	50.939
426.02	52.061
426.38	51.597
426.73	51.937
427.09	52.532
427.44	52.412
427.79	50.796
428.15	51.032
428.50	51.545
428.85	50.491
429.21	52.066
429.56	51.860
429.92	51.104
430.27	49.925
430.62	50.235
430.98	51.486
431.33	51.262
431.68	51.230
432.04	52.208
432.39	50.599
432.74	51.173
433.10	52.586
433.45	52.808
433.80	53.395
434.16	51.579
434.51	51.613
434.86	51.452
435.22	52.159
435.57	53.525
435.92	52.575
436.28	51.938
436.63	53.280
436.98	51.275
437.34	52.692
437.69	52.952
438.04	52.365
438.39	53.024
438.75	53.248
439.10	53.820
439.45	54.291
439.81	52.599
440.16	54.394
440.51	53.552
440.86	54.924
441.22	52.658
441.57	52.925
441.92	53.568
442.27	54.767
442.63	54.015
442.98	54.451
443.33	53.422
443.68	53.422
444.03	54.396
444.39	54.009
444.74	55.128
445.09	54.287
445.44	54.131
445.79	54.719
446.15	53.084
446.50	54.687
446.85	55.367
447.20	53.754
447.55	54.408
447.91	53.694
448.26	54.582
448.61	55.037
448.96	55.077
449.31	54.104
449.66	54.530
450.02	53.965
450.37	55.957
450.72	55.155
451.07	54.937
451.42	52.996
451.77	55.274
452.12	54.486
452.47	55.248
452.83	54.594
453.18	55.218
453.53	54.678
453.88	54.948
454.23	54.825
454.58	55.730
454.93	54.510
455.28	54.286
455.63	55.673
455.98	54.901
456.34	55.683
456.69	55.527
457.04	55.009
457.39	55.832
457.74	55.804
458.09	54.974
458.44	55.530
458.79	53.445
459.14	54.691
459.49	55.940
459.84	55.725
460.19	55.461
460.54	55.990
460.89	55.682
461.24	56.273
461.59	56.532
461.94	55.094
462.29	56.092
462.64	56.013
462.99	57.278
463.34	57.441
463.69	55.277
464.04	55.569
464.39	54.700
464.74	54.110
465.09	55.708
465.44	55.222
465.79	53.345
466.14	56.100
466.49	55.952
466.84	56.692
467.19	56.258
467.54	56.003
467.89	57.486
468.24	56.569
468.59	57.397
468.94	56.698
469.29	57.836
469.64	56.323
469.99	58.024
470.34	57.065
470.68	59.284
471.03	58.811
471.38	57.775
471.73	58.053
472.08	58.005
472.43	59.128
472.78	58.053
473.13	58.231
473.48	57.590
473.83	58.157
474.17	57.578
474.52	57.498
474.87	57.939
475.22	57.596
475.57	57.199
475.92	58.914
476.27	58.847
476.61	58.391
476.96	57.167
477.31	58.464
477.66	57.978
478.01	59.573
478.36	58.932
478.70	58.782
479.05	58.681
479.40	59.247
479.75	57.873
480.10	58.269
480.45	57.900
480.79	58.510
481.14	57.684
481.49	57.537
481.84	58.398
482.19	58.232
482.53	58.465
482.88	57.995
483.23	57.821
483.58	57.689
483.92	58.809
484.27	57.293
484.62	57.194
484.97	57.463
485.31	55.997
485.66	53.305
486.01	53.388
486.36	53.464
486.70	54.577
487.05	55.975
487.40	55.662
487.75	55.606
488.09	56.768
488.44	57.703
488.79	57.975
489.13	57.772
489.48	57.546
489.83	58.027
490.17	58.292
490.52	57.090
490.87	57.149
491.22	58.644
491.56	57.827
491.91	57.553
492.26	58.824
492.60	57.582
492.95	58.977
493.30	57.841
493.64	59.528
493.99	58.551
494.34	58.883
494.68	58.476
495.03	58.005
495.37	59.814
495.72	59.061
496.07	59.073
496.41	58.868
496.76	58.268
497.11	59.106
497.45	58.902
497.80	59.132
498.14	58.122
498.49	59.116
498.84	59.830
499.18	59.388
499.53	58.234
499.87	59.193
500.22	58.704
500.56	59.254
500.91	59.739
501.26	59.367
501.60	59.370
501.95	60.602
502.29	59.080
502.64	59.459
502.98	59.299
503.33	59.078
503.67	59.036
504.02	60.557
504.36	61.306
504.71	59.798
505.06	59.185
505.40	60.102
505.75	61.546
506.09	59.554
506.44	61.242
506.78	61.429
507.13	61.169
507.47	61.097
507.82	60.844
508.16	61.173
508.51	61.752
508.85	62.585
509.19	62.001
509.54	62.574
509.88	61.758
510.23	62.292
510.57	62.694
510.92	62.313
511.26	62.902
511.61	63.806
511.95	63.452
512.30	62.971
512.64	62.938
512.98	63.953
513.33	63.682
513.67	64.127
514.02	65.446
514.36	64.629
514.70	66.142
515.05	65.746
515.39	65.230
515.74	66.287
516.08	66.169
516.42	67.079
516.77	67.642
517.11	66.469
517.46	66.068
517.80	66.925
518.14	66.197
518.49	66.106
518.83	67.922
519.17	65.373
519.52	66.548
519.86	66.026
520.20	67.558
520.55	68.480
520.89	68.758
521.23	67.574
521.58	67.697
521.92	68.910
522.26	69.551
522.61	68.247
522.95	70.795
523.29	67.281
523.64	67.980
523.98	69.216
524.32	68.235
524.66	69.462
525.01	68.571
525.35	68.827
525.69	70.640
526.04	68.188
526.38	69.650
526.72	67.888
527.06	68.029
527.41	69.987
527.75	68.901
528.09	69.103
528.43	69.750
528.78	70.033
529.12	68.710
529.46	67.966
529.80	67.954
530.15	68.185
530.49	69.428
530.83	69.699
531.17	68.570
531.51	70.041
531.86	68.525
532.20	69.450
532.54	68.346
532.88	68.994
533.22	69.489
533.57	67.497
533.91	67.885
534.25	69.010
534.59	67.736
534.93	66.709
535.27	67.132
535.62	67.531
535.96	67.776
536.30	69.393
536.64	69.194
536.98	67.735
537.32	69.630
537.66	68.583
538.01	69.161
538.35	67.060
538.69	65.712
539.03	65.960
539.37	67.564
539.71	67.076
540.05	66.599
540.39	68.283
540.73	67.713
541.07	68.508
541.42	67.876
541.76	68.617
542.10	68.135
542.44	68.033
542.78	64.969
543.12	66.896
543.46	65.925
543.80	66.690
544.14	65.087
544.48	66.223
544.82	65.482
545.16	66.530
545.50	66.155
545.84	67.210
546.18	66.667
546.52	68.205
546.86	66.283
547.20	65.880
547.54	64.664
547.88	65.489
548.22	63.445
548.56	63.325
548.90	64.892
549.24	65.289
549.58	64.810
549.92	65.618
550.26	64.542
550.60	68.401
550.94	68.036
551.28	66.383
551.62	67.308
551.96	66.015
552.30	65.863
552.64	65.162
552.98	65.049
553.32	64.051
553.66	63.933
554.00	66.715
554.34	66.691
554.68	65.192
555.02	67.113
555.36	64.921
555.69	64.249
556.03	62.170
556.37	63.132
556.71	62.888
557.05	65.772
557.39	64.015
557.73	65.367
558.07	64.329
558.41	66.080
558.75	64.692
559.08	65.327
559.42	65.397
559.76	65.012
560.10	64.297
560.44	64.036
560.78	62.867
561.12	63.540
561.45	63.036
561.79	63.866
562.13	63.449
562.47	63.237
562.81	63.545
563.15	61.777
563.48	63.791
563.82	62.320
564.16	62.883
564.50	62.027
564.84	60.576
565.17	61.972
565.51	63.866
565.85	62.277
566.19	63.196
566.52	61.729
566.86	61.375
567.20	60.834
567.54	61.071
567.88	60.984
568.21	60.690
568.55	59.565
568.89	58.778
569.23	57.631
569.56	57.312
569.90	56.638
570.24	54.671
570.57	55.382
570.91	55.978
571.25	54.390
571.59	54.251
571.92	53.333
572.26	53.261
572.60	52.806
572.93	53.624
573.27	53.574
573.61	53.222
573.95	52.731
574.28	52.701
574.62	52.021
574.96	51.857
575.29	51.136
575.63	50.428
575.97	50.664
576.30	51.307
576.64	51.523
576.98	51.171
577.31	51.733
577.65	51.216
577.98	50.275
578.32	50.323
578.66	49.925
578.99	50.889
579.33	50.562
579.67	49.937
580.00	51.215
580.34	50.697
580.67	50.544
581.01	51.273
581.35	49.526
581.68	49.419
582.02	48.981
582.35	49.359
582.69	49.610
583.02	49.712
583.36	49.799
583.70	50.857
584.03	52.071
584.37	51.863
584.70	50.907
585.04	49.845
585.37	49.140
585.71	49.099
586.04	49.723
586.38	49.053
586.72	50.473
587.05	50.549
587.39	50.210
587.72	50.984
588.06	50.069
588.39	49.559
588.73	50.794
589.06	51.468
589.40	50.536
589.73	51.625
590.07	52.228
590.40	51.703
590.73	53.007
591.07	52.672
591.40	52.182
591.74	51.810
592.07	52.412
592.41	52.208
592.74	50.060
593.08	48.061
593.41	49.621
593.75	48.446
594.08	48.163
594.41	49.199
594.75	49.313
595.08	49.754
595.42	49.614
595.75	51.145
596.09	51.564
596.42	49.979
596.75	50.888
597.09	50.569
597.42	50.632
597.75	49.748
598.09	49.389
598.42	50.000
598.76	48.563
599.09	48.638
599.42	47.707
599.76	48.119
600.09	48.228
600.42	46.967
600.76	47.437
601.09	47.595
601.42	47.904
601.76	47.598
602.09	48.515
602.42	49.452
602.76	48.599
603.09	49.003
603.42	49.582
603.76	48.468
604.09	47.995
604.42	48.435
604.76	49.043
605.09	48.903
605.42	48.262
605.75	46.804
606.09	48.238
606.42	46.539
606.75	48.052
607.09	48.044
607.42	46.921
607.75	47.869
608.08	46.541
608.42	46.825
608.75	48.048
609.08	48.879
609.41	48.629
609.75	48.185
610.08	48.128
610.41	46.715
610.74	47.635
611.07	48.889
611.41	48.106
611.74	49.574
612.07	47.859
612.40	48.851
612.73	48.079
613.07	48.144
613.40	49.344
613.73	47.846
614.06	48.971
614.39	49.408
614.72	47.563
615.06	49.385
615.39	46.670
615.72	46.986
616.05	46.313
616.38	47.293
616.71	48.135
617.05	48.487
617.38	49.591
617.71	48.868
618.04	49.397
618.37	48.298
618.70	48.779
619.03	49.444
619.36	50.000
619.69	50.417
620.03	49.963
620.36	49.356
620.69	48.537
621.02	48.853
621.35	52.199
621.68	51.020
622.01	50.750
622.34	49.162
622.67	50.237
623.00	49.311
623.33	48.857
623.66	48.093
623.99	49.470
624.32	49.962
624.65	49.248
624.99	48.834
625.32	49.052
625.65	50.982
625.98	49.637
626.31	49.127
626.64	50.780
626.97	49.825
627.30	51.401
627.63	50.867
627.96	51.482
628.29	50.509
628.62	52.901
628.95	50.000
629.28	51.512
629.61	51.745
629.94	51.613
630.26	50.000
630.59	52.862
630.92	50.564
631.25	50.051
631.58	53.855
631.91	51.425
632.24	52.523
632.57	54.091
632.90	52.669
633.23	51.412
633.56	52.141
