SpectraSuite Data File
++++++++++++++++++++++++++++++++++++
Date: Fri May 15 20:38:25 PDT 2015
User: schluterlab
Dark Spectrum Present: Yes
Reference Spectrum Present: Yes
Number of Sampled Component Spectra: 1
Spectrometers: USB2E3373
Integration Time (usec): 3000 (USB2E3373)
Spectra Averaged: 3 (USB2E3373)
Boxcar Smoothing: 0 (USB2E3373)
Correct for Electrical Dark: No (USB2E3373)
Strobe/Lamp Enabled: No (USB2E3373)
Correct for Detector Non-linearity: No (USB2E3373)
Correct for Stray Light: No (USB2E3373)
Number of Pixels in Processed Spectrum: 2048
>>>>>Begin Processed Spectral Data<<<<<
178.53	0.000
178.91	0.000
179.29	50.000
179.67	-600.000
180.04	100.000
180.42	100.000
180.80	500.000
181.18	133.333
181.56	700.000
181.94	250.000
182.31	100.000
182.69	-40.000
183.07	66.667
183.45	-140.000
183.83	83.333
184.20	-18.182
184.58	166.667
184.96	-75.000
185.34	33.333
185.72	-100.000
186.09	69.231
186.47	-700.000
186.85	16.667
187.23	155.556
187.61	-200.000
187.98	-466.667
188.36	55.556
188.74	-133.333
189.12	82.353
189.49	27.778
189.87	0.000
190.25	42.857
190.63	50.000
191.00	-266.667
191.38	31.579
191.76	350.000
192.14	50.000
192.51	300.000
192.89	22.222
193.27	-85.714
193.65	166.667
194.02	100.000
194.40	-40.000
194.78	-137.500
195.15	8.333
195.53	-12.500
195.91	225.000
196.29	-100.000
196.66	30.769
197.04	14.286
197.42	-44.444
197.79	-333.333
198.17	-46.154
198.55	2000.000
198.92	-400.000
199.30	-500.000
199.68	-20.000
200.05	-33.333
200.43	0.000
200.81	-400.000
201.18	33.333
201.56	200.000
201.94	-450.000
202.31	233.333
202.69	-280.000
203.07	125.000
203.44	400.000
203.82	0.000
204.19	-35.714
204.57	-633.333
204.95	125.000
205.32	-10.000
205.70	42.857
206.08	-275.000
206.45	88.889
206.83	14.286
207.20	-128.571
207.58	700.000
207.96	-266.667
208.33	-130.000
208.71	-150.000
209.08	-66.667
209.46	0.000
209.84	-40.000
210.21	-800.000
210.59	0.000
210.96	83.333
211.34	-25.000
211.71	6.667
212.09	28.571
212.46	-1300.000
212.84	0.000
213.22	50.000
213.59	300.000
213.97	76.923
214.34	54.545
214.72	-16.667
215.09	450.000
215.47	-61.538
215.84	0.000
216.22	266.667
216.59	0.000
216.97	150.000
217.34	50.000
217.72	-260.000
218.09	0.000
218.47	12.500
218.84	-500.000
219.22	66.667
219.59	-80.000
219.97	400.000
220.34	100.000
220.72	-42.857
221.09	-75.000
221.47	50.000
221.84	-400.000
222.22	-600.000
222.59	36.364
222.97	108.333
223.34	-66.667
223.72	-35.714
224.09	-33.333
224.46	25.000
224.84	366.667
225.21	-30.000
225.59	13.333
225.96	-100.000
226.34	325.000
226.71	-71.429
227.08	33.333
227.46	-100.000
227.83	-550.000
228.21	-22.222
228.58	0.000
228.95	25.000
229.33	50.000
229.70	-12.500
230.08	-50.000
230.45	-85.714
230.82	-28.571
231.20	-60.000
231.57	85.714
231.95	-14.286
232.32	0.000
232.69	21.429
233.07	-33.333
233.44	-20.000
233.81	40.000
234.19	166.667
234.56	5.882
234.93	400.000
235.31	100.000
235.68	-40.000
236.05	30.769
236.43	20.000
236.80	5.882
237.17	-3.125
237.55	25.000
237.92	14.815
238.29	27.778
238.67	63.333
239.04	50.000
239.41	-17.073
239.79	33.333
240.16	26.829
240.53	5.263
240.91	26.087
241.28	26.984
241.65	32.143
242.02	36.986
242.40	43.333
242.77	40.678
243.14	30.303
243.51	25.000
243.89	34.483
244.26	13.793
244.63	28.571
245.00	34.021
245.38	41.237
245.75	29.213
246.12	26.724
246.49	30.579
246.87	37.500
247.24	29.412
247.61	40.351
247.98	29.268
248.36	31.250
248.73	40.132
249.10	35.714
249.47	37.975
249.84	27.451
250.22	32.941
250.59	39.869
250.96	35.211
251.33	33.140
251.70	47.059
252.08	29.949
252.45	37.129
252.82	40.201
253.19	41.014
253.56	28.972
253.94	37.838
254.31	41.304
254.68	40.789
255.05	35.827
255.42	39.301
255.79	38.224
256.16	35.019
256.54	40.299
256.91	33.080
257.28	33.457
257.65	34.831
258.02	33.333
258.39	36.027
258.76	41.758
259.14	36.213
259.51	39.482
259.88	34.364
260.25	41.830
260.62	36.458
260.99	35.254
261.36	40.411
261.73	36.709
262.10	34.954
262.47	37.730
262.85	37.931
263.22	35.077
263.59	38.318
263.96	40.373
264.33	36.061
264.70	39.286
265.07	37.202
265.44	37.677
265.81	35.593
266.18	38.525
266.55	39.846
266.92	39.378
267.29	37.076
267.66	33.248
268.03	37.435
268.40	33.420
268.77	42.513
269.14	33.333
269.51	37.532
269.88	35.162
270.25	38.010
270.62	37.805
270.99	38.363
271.36	35.208
271.73	37.324
272.10	38.200
272.47	34.279
272.84	38.614
273.21	33.875
273.58	37.108
273.95	37.529
274.32	36.721
274.69	34.615
275.06	36.607
275.43	33.560
275.80	37.748
276.17	33.793
276.54	34.690
276.91	38.816
277.28	34.061
277.65	35.124
278.02	35.319
278.39	36.543
278.76	37.526
279.13	32.365
279.50	36.345
279.87	36.933
280.23	35.054
280.60	37.037
280.97	36.162
281.34	35.769
281.71	36.756
282.08	37.014
282.45	34.247
282.82	34.363
283.19	36.170
283.56	35.260
283.92	35.484
284.29	32.692
284.66	35.078
285.03	35.560
285.40	35.728
285.77	31.634
286.14	35.379
286.51	36.716
286.87	34.004
287.24	34.991
287.61	31.922
287.98	35.263
288.35	33.449
288.72	32.574
289.08	31.597
289.45	35.501
289.82	31.818
290.19	31.399
290.56	30.532
290.93	31.145
291.29	31.125
291.66	30.866
292.03	30.144
292.40	31.452
292.77	28.549
293.13	27.110
293.50	28.376
293.87	29.160
294.24	28.594
294.60	30.104
294.97	27.679
295.34	28.067
295.71	29.657
296.08	27.952
296.44	24.893
296.81	27.917
297.18	26.812
297.55	27.913
297.91	27.123
298.28	28.760
298.65	25.509
299.02	27.224
299.38	26.813
299.75	25.517
300.12	25.785
300.48	24.111
300.85	25.475
301.22	26.753
301.59	25.526
301.95	27.595
302.32	27.108
302.69	26.119
303.05	26.485
303.42	26.027
303.79	26.519
304.15	25.090
304.52	24.019
304.89	24.561
305.25	25.666
305.62	22.520
305.99	23.509
306.35	24.162
306.72	24.409
307.09	25.998
307.45	26.292
307.82	24.190
308.19	26.132
308.55	25.409
308.92	26.253
309.29	24.916
309.65	24.758
310.02	25.303
310.38	24.479
310.75	26.120
311.12	25.834
311.48	24.390
311.85	24.817
312.22	25.949
312.58	25.796
312.95	26.254
313.31	26.501
313.68	25.969
314.05	25.918
314.41	28.144
314.78	27.010
315.14	29.394
315.51	28.261
315.87	27.459
316.24	29.323
316.61	29.134
316.97	28.671
317.34	30.078
317.70	30.880
318.07	30.288
318.43	30.392
318.80	30.303
319.16	32.324
319.53	32.669
319.89	33.268
320.26	32.591
320.62	34.303
320.99	32.985
321.35	34.738
321.72	34.891
322.08	36.657
322.45	38.071
322.81	36.248
323.18	36.212
323.54	36.969
323.91	37.390
324.27	37.988
324.64	38.109
325.00	38.777
325.37	40.312
325.73	38.531
326.10	39.873
326.46	40.090
326.83	41.032
327.19	41.761
327.56	40.573
327.92	41.637
328.29	39.821
328.65	43.019
329.01	42.463
329.38	40.092
329.74	41.926
330.11	42.725
330.47	41.558
330.84	41.058
331.20	44.106
331.56	40.648
331.93	41.279
332.29	40.788
332.66	40.271
333.02	42.007
333.38	42.438
333.75	43.956
334.11	42.704
334.48	44.606
334.84	43.132
335.20	42.818
335.57	41.523
335.93	42.005
336.29	43.278
336.66	42.053
337.02	41.357
337.38	41.852
337.75	41.182
338.11	42.020
338.47	40.967
338.84	43.253
339.20	41.225
339.56	41.927
339.93	41.987
340.29	42.018
340.65	41.756
341.02	41.844
341.38	41.770
341.74	41.696
342.11	40.035
342.47	41.459
342.83	41.090
343.20	40.505
343.56	42.000
343.92	41.010
344.28	41.588
344.65	41.278
345.01	40.449
345.37	39.865
345.73	40.502
346.10	41.070
346.46	41.379
346.82	40.917
347.19	39.568
347.55	40.685
347.91	40.453
348.27	40.420
348.63	42.078
349.00	39.377
349.36	40.815
349.72	41.542
350.08	40.738
350.45	40.303
350.81	40.864
351.17	39.251
351.53	39.755
351.89	39.059
352.26	39.360
352.62	39.758
352.98	38.313
353.34	38.406
353.70	39.401
354.07	38.629
354.43	39.552
354.79	40.297
355.15	39.444
355.51	38.687
355.87	39.159
356.24	39.723
356.60	39.369
356.96	38.968
357.32	38.339
357.68	39.093
358.04	39.095
358.40	38.746
358.77	39.553
359.13	38.911
359.49	38.290
359.85	39.158
360.21	39.314
360.57	38.944
360.93	39.183
361.29	38.520
361.66	40.439
362.02	38.333
362.38	39.223
362.74	39.213
363.10	38.600
363.46	38.992
363.82	39.970
364.18	39.410
364.54	38.088
364.90	38.710
365.26	37.918
365.62	40.000
365.98	39.589
366.35	39.257
366.71	40.503
367.07	39.405
367.43	38.533
367.79	39.081
368.15	39.627
368.51	38.747
368.87	38.622
369.23	40.000
369.59	39.650
369.95	39.809
370.31	38.656
370.67	39.552
371.03	39.358
371.39	37.856
371.75	38.755
372.11	40.728
372.47	38.757
372.83	39.744
373.19	38.802
373.55	38.917
373.91	39.741
374.27	39.759
374.63	38.765
374.99	39.433
375.35	39.554
375.71	39.650
376.07	38.694
376.42	38.707
376.78	39.732
377.14	39.810
377.50	40.173
377.86	39.157
378.22	39.502
378.58	39.936
378.94	38.752
379.30	38.802
379.66	40.000
380.02	39.914
380.38	38.710
380.74	38.600
381.09	39.755
381.45	38.471
381.81	39.050
382.17	40.038
382.53	39.975
382.89	40.678
383.25	40.324
383.61	41.159
383.97	41.143
384.32	39.587
384.68	39.505
385.04	38.971
385.40	39.577
385.76	41.195
386.12	41.268
386.48	41.315
386.83	40.140
387.19	39.866
387.55	40.652
387.91	40.526
388.27	39.683
388.62	41.032
388.98	39.840
389.34	39.538
389.70	39.776
390.06	38.892
390.42	40.738
390.77	39.895
391.13	39.344
391.49	39.586
391.85	40.611
392.20	39.674
392.56	38.589
392.92	39.930
393.28	39.564
393.64	38.979
393.99	41.254
394.35	39.848
394.71	40.741
395.07	40.163
395.42	40.376
395.78	39.739
396.14	39.786
396.50	40.710
396.85	40.180
397.21	39.724
397.57	40.188
397.92	40.503
398.28	40.690
398.64	39.217
399.00	40.124
399.35	40.237
399.71	40.149
400.07	39.964
400.42	40.086
400.78	40.233
401.14	40.169
401.49	40.143
401.85	39.427
402.21	40.181
402.57	40.437
402.92	39.900
403.28	40.163
403.63	40.921
403.99	40.051
404.35	40.412
404.70	38.333
405.06	39.835
405.42	40.087
405.77	39.628
406.13	39.464
406.49	39.905
406.84	40.037
407.20	40.217
407.55	40.438
407.91	40.307
408.27	40.535
408.62	39.877
408.98	39.433
409.34	39.405
409.69	39.599
410.05	38.732
410.40	39.136
410.76	38.963
411.11	40.375
411.47	40.500
411.83	37.979
412.18	40.026
412.54	38.639
412.89	37.931
413.25	39.110
413.60	38.944
413.96	38.896
414.31	39.329
414.67	37.652
415.03	38.748
415.38	38.773
415.74	39.935
416.09	39.582
416.45	40.243
416.80	39.722
417.16	40.193
417.51	39.374
417.87	39.896
418.22	40.220
418.58	39.666
418.93	40.188
419.29	38.860
419.64	39.533
420.00	38.854
420.35	39.164
420.71	39.064
421.06	37.999
421.42	39.784
421.77	38.728
422.12	38.082
422.48	38.711
422.83	39.153
423.19	38.318
423.54	40.212
423.90	38.339
424.25	38.921
424.61	39.535
424.96	38.966
425.31	39.977
425.67	39.671
426.02	39.458
426.38	40.075
426.73	38.680
427.09	39.430
427.44	39.176
427.79	38.539
428.15	38.714
428.50	38.704
428.85	38.821
429.21	39.785
429.56	40.377
429.92	38.315
430.27	38.045
430.62	38.787
430.98	39.384
431.33	39.537
431.68	38.095
432.04	39.072
432.39	38.448
432.74	37.643
433.10	39.425
433.45	38.829
433.80	39.292
434.16	37.396
434.51	39.624
434.86	39.605
435.22	39.035
435.57	39.988
435.92	38.563
436.28	37.984
436.63	38.106
436.98	37.486
437.34	38.173
437.69	39.833
438.04	38.632
438.39	37.935
438.75	40.376
439.10	37.634
439.45	38.344
439.81	37.982
440.16	38.480
440.51	37.910
440.86	40.060
441.22	37.952
441.57	38.466
441.92	39.454
442.27	38.747
442.63	38.223
442.98	38.311
443.33	38.676
443.68	38.143
444.03	38.102
444.39	38.564
444.74	39.632
445.09	38.920
445.44	38.006
445.79	39.247
446.15	37.445
446.50	38.325
446.85	38.363
447.20	38.321
447.55	37.723
447.91	37.620
448.26	38.133
448.61	38.169
448.96	38.439
449.31	37.572
449.66	38.037
450.02	37.707
450.37	37.522
450.72	37.457
451.07	38.671
451.42	37.703
451.77	37.553
452.12	38.038
452.47	37.476
452.83	38.045
453.18	37.887
453.53	38.748
453.88	38.434
454.23	38.291
454.58	39.295
454.93	37.887
455.28	37.397
455.63	37.384
455.98	38.485
456.34	37.484
456.69	37.294
457.04	37.681
457.39	38.335
457.74	38.331
458.09	36.963
458.44	36.864
458.79	37.311
459.14	37.815
459.49	37.851
459.84	37.789
460.19	36.772
460.54	37.836
460.89	38.068
461.24	36.770
461.59	38.658
461.94	36.855
462.29	38.058
462.64	37.741
462.99	37.576
463.34	36.648
463.69	36.937
464.04	37.530
464.39	37.113
464.74	36.626
465.09	37.804
465.44	37.680
465.79	36.791
466.14	36.830
466.49	35.883
466.84	36.942
467.19	37.171
467.54	37.995
467.89	37.018
468.24	37.895
468.59	37.714
468.94	36.317
469.29	36.590
469.64	37.799
469.99	38.332
470.34	37.474
470.68	37.957
471.03	36.801
471.38	37.447
471.73	37.255
472.08	36.974
472.43	35.906
472.78	36.121
473.13	37.755
473.48	35.765
473.83	35.990
474.17	37.176
474.52	36.439
474.87	36.848
475.22	36.120
475.57	36.533
475.92	36.149
476.27	36.438
476.61	37.037
476.96	36.364
477.31	37.263
477.66	35.562
478.01	36.496
478.36	36.874
478.70	37.357
479.05	37.088
479.40	37.520
479.75	36.027
480.10	35.740
480.45	36.050
480.79	36.757
481.14	36.475
481.49	35.025
481.84	36.728
482.19	36.155
482.53	35.827
482.88	35.800
483.23	35.845
483.58	35.849
483.92	35.044
484.27	34.366
484.62	35.858
484.97	35.779
485.31	35.368
485.66	34.336
486.01	34.826
486.36	34.869
486.70	35.964
487.05	35.381
487.40	35.548
487.75	35.549
488.09	34.981
488.44	35.041
488.79	35.114
489.13	35.216
489.48	35.485
489.83	34.619
490.17	34.607
490.52	35.289
490.87	34.197
491.22	35.387
491.56	34.677
491.91	35.134
492.26	35.391
492.60	34.501
492.95	35.563
493.30	34.148
493.64	35.609
493.99	34.396
494.34	34.126
494.68	34.810
495.03	34.599
495.37	35.623
495.72	34.730
496.07	34.878
496.41	34.528
496.76	34.500
497.11	34.560
497.45	34.606
497.80	34.612
498.14	34.923
498.49	35.043
498.84	34.232
499.18	33.936
499.53	34.921
499.87	33.268
500.22	34.669
500.56	34.695
500.91	33.685
501.26	33.613
501.60	34.383
501.95	35.129
502.29	34.915
502.64	34.315
502.98	34.879
503.33	33.333
503.67	34.361
504.02	33.627
504.36	33.993
504.71	33.434
505.06	33.920
505.40	33.503
505.75	35.155
506.09	32.995
506.44	34.548
506.78	34.184
507.13	33.764
507.47	32.637
507.82	34.081
508.16	33.122
508.51	34.155
508.85	33.700
509.19	33.209
509.54	32.761
509.88	32.524
510.23	33.997
510.57	33.084
510.92	32.463
511.26	32.079
511.61	33.168
511.95	34.137
512.30	33.426
512.64	33.612
512.98	32.903
513.33	34.079
513.67	33.258
514.02	33.696
514.36	33.657
514.70	34.324
515.05	34.371
515.39	32.940
515.74	34.850
516.08	33.174
516.42	33.451
516.77	33.704
517.11	34.006
517.46	35.069
517.80	33.909
518.14	33.680
518.49	33.714
518.83	33.354
519.17	33.050
519.52	31.735
519.86	33.613
520.20	33.232
520.55	33.083
520.89	33.061
521.23	32.489
521.58	33.502
521.92	33.205
522.26	33.182
522.61	33.247
522.95	34.172
523.29	33.355
523.64	33.037
523.98	33.377
524.32	32.474
524.66	33.355
525.01	33.247
525.35	33.830
525.69	32.593
526.04	32.870
526.38	33.593
526.72	32.636
527.06	32.815
527.41	32.982
527.75	33.110
528.09	32.492
528.43	33.086
528.78	32.541
529.12	32.839
529.46	32.424
529.80	31.602
530.15	33.267
530.49	31.919
530.83	32.216
531.17	32.774
531.51	33.379
531.86	32.223
532.20	32.777
532.54	32.403
532.88	31.554
533.22	32.661
533.57	32.569
533.91	32.376
534.25	33.138
534.59	31.366
534.93	31.655
535.27	31.853
535.62	31.367
535.96	32.420
536.30	31.992
536.64	32.805
536.98	31.707
537.32	32.717
537.66	32.468
538.01	32.867
538.35	31.415
538.69	31.824
539.03	31.100
539.37	32.571
539.71	32.311
540.05	31.500
540.39	32.133
540.73	31.729
541.07	32.528
541.42	32.325
541.76	32.691
542.10	31.315
542.44	32.106
542.78	30.351
543.12	32.898
543.46	33.171
543.80	31.853
544.14	30.641
544.48	31.379
544.82	32.604
545.16	32.514
545.50	32.510
545.84	32.011
546.18	32.057
546.52	32.877
546.86	32.063
547.20	32.117
547.54	31.237
547.88	31.386
548.22	30.506
548.56	30.937
548.90	32.075
549.24	31.543
549.58	31.241
549.92	29.521
550.26	31.355
550.60	32.045
550.94	31.740
551.28	30.757
551.62	32.462
551.96	31.203
552.30	30.921
552.64	31.171
552.98	30.661
553.32	31.098
553.66	30.842
554.00	31.825
554.34	31.979
554.68	30.236
555.02	30.804
555.36	30.815
555.69	30.696
556.03	29.764
556.37	30.249
556.71	30.181
557.05	30.947
557.39	30.335
557.73	31.334
558.07	31.373
558.41	31.317
558.75	30.787
559.08	31.048
559.42	30.238
559.76	30.825
560.10	29.740
560.44	30.007
560.78	30.839
561.12	30.113
561.45	30.148
561.79	30.392
562.13	30.731
562.47	30.072
562.81	31.340
563.15	29.478
563.48	30.127
563.82	31.503
564.16	30.641
564.50	30.068
564.84	30.656
565.17	30.315
565.51	30.943
565.85	30.521
566.19	31.233
566.52	30.764
566.86	31.427
567.20	29.950
567.54	31.387
567.88	30.990
568.21	31.561
568.55	30.543
568.89	30.801
569.23	30.140
569.56	30.648
569.90	31.019
570.24	30.368
570.57	30.327
570.91	30.150
571.25	30.187
571.59	29.399
571.92	29.481
572.26	29.982
572.60	29.767
572.93	29.714
573.27	29.310
573.61	29.475
573.95	29.765
574.28	29.343
574.62	28.782
574.96	29.668
575.29	29.531
575.63	28.997
575.97	28.951
576.30	28.592
576.64	28.742
576.98	29.318
577.31	29.688
577.65	29.174
577.98	29.861
578.32	29.364
578.66	28.906
578.99	29.551
579.33	29.278
579.67	29.372
580.00	29.519
580.34	29.453
580.67	28.981
581.01	28.987
581.35	29.048
581.68	29.010
582.02	29.290
582.35	28.784
582.69	29.198
583.02	29.054
583.36	28.933
583.70	29.855
584.03	29.664
584.37	29.644
584.70	29.670
585.04	28.912
585.37	29.091
585.71	29.153
586.04	28.996
586.38	28.274
586.72	29.383
587.05	29.723
587.39	29.131
587.72	29.552
588.06	28.951
588.39	29.479
588.73	29.212
589.06	29.550
589.40	29.450
589.73	29.646
590.07	29.532
590.40	29.412
590.73	29.778
591.07	29.347
591.40	28.762
591.74	30.181
592.07	29.545
592.41	29.859
592.74	28.435
593.08	27.733
593.41	29.094
593.75	28.786
594.08	28.562
594.41	28.894
594.75	27.595
595.08	29.171
595.42	29.150
595.75	29.516
596.09	28.968
596.42	29.310
596.75	28.952
597.09	28.292
597.42	27.958
597.75	28.814
598.09	27.886
598.42	28.069
598.76	28.357
599.09	28.045
599.42	28.344
599.76	28.442
600.09	28.167
600.42	28.317
600.76	27.377
601.09	27.748
601.42	27.340
601.76	28.503
602.09	27.970
602.42	28.517
602.76	28.480
603.09	29.028
603.42	29.055
603.76	28.105
604.09	28.230
604.42	28.596
604.76	28.794
605.09	27.925
605.42	27.856
605.75	27.846
606.09	28.195
606.42	28.232
606.75	28.312
607.09	28.264
607.42	26.805
607.75	27.265
608.08	27.763
608.42	27.821
608.75	28.048
609.08	28.201
609.41	28.122
609.75	28.024
610.08	28.807
610.41	27.440
610.74	27.596
611.07	28.217
611.41	28.334
611.74	28.252
612.07	27.837
612.40	28.446
612.73	29.096
613.07	27.109
613.40	28.392
613.73	28.260
614.06	28.158
614.39	27.693
614.72	27.451
615.06	27.207
615.39	27.402
615.72	27.126
616.05	28.045
616.38	27.920
616.71	27.401
617.05	27.239
617.38	28.096
617.71	27.547
618.04	28.127
618.37	29.067
618.70	28.911
619.03	28.333
619.36	27.569
619.69	28.734
620.03	28.342
620.36	28.183
620.69	28.622
621.02	27.905
621.35	28.133
621.68	29.677
622.01	28.167
622.34	28.172
622.67	29.022
623.00	27.948
623.33	28.430
623.66	27.524
623.99	27.912
624.32	28.441
624.65	27.594
624.99	27.314
625.32	27.293
625.65	28.201
625.98	28.122
626.31	27.016
626.64	29.376
626.97	27.138
627.30	28.021
627.63	28.250
627.96	28.122
628.29	28.492
628.62	28.417
628.95	27.255
629.28	28.427
629.61	27.517
629.94	27.957
630.26	27.569
630.59	28.304
630.92	27.692
631.25	26.154
631.58	27.203
631.91	27.193
632.24	27.752
632.57	27.955
632.90	27.758
633.23	28.118
633.56	26.700
633.89	27.127
