SpectraSuite Data File
++++++++++++++++++++++++++++++++++++
Date: Fri May 15 21:11:26 PDT 2015
User: schluterlab
Dark Spectrum Present: Yes
Reference Spectrum Present: Yes
Number of Sampled Component Spectra: 1
Spectrometers: USB2E3373
Integration Time (usec): 3000 (USB2E3373)
Spectra Averaged: 3 (USB2E3373)
Boxcar Smoothing: 0 (USB2E3373)
Correct for Electrical Dark: No (USB2E3373)
Strobe/Lamp Enabled: No (USB2E3373)
Correct for Detector Non-linearity: No (USB2E3373)
Correct for Stray Light: No (USB2E3373)
Number of Pixels in Processed Spectrum: 2048
>>>>>Begin Processed Spectral Data<<<<<
178.53	0.000
178.91	0.000
179.29	0.000
179.67	-400.000
180.04	57.143
180.42	-50.000
180.80	-1200.000
181.18	-200.000
181.56	300.000
181.94	0.000
182.31	700.000
182.69	40.000
183.07	-133.333
183.45	-40.000
183.83	50.000
184.20	81.818
184.58	88.889
184.96	50.000
185.34	300.000
185.72	-600.000
186.09	76.923
186.47	-900.000
186.85	233.333
187.23	100.000
187.61	300.000
187.98	-300.000
188.36	11.111
188.74	-166.667
189.12	-17.647
189.49	27.778
189.87	0.000
190.25	0.000
190.63	50.000
191.00	0.000
191.38	15.789
191.76	200.000
192.14	200.000
192.51	-400.000
192.89	-66.667
193.27	-71.429
193.65	100.000
194.02	281.818
194.40	-60.000
194.78	-150.000
195.15	-66.667
195.53	-200.000
195.91	100.000
196.29	-150.000
196.66	84.615
197.04	85.714
197.42	-66.667
197.79	-266.667
198.17	-115.385
198.55	1700.000
198.92	-533.333
199.30	-500.000
199.68	-140.000
200.05	-300.000
200.43	0.000
200.81	33.333
201.18	-333.333
201.56	1200.000
201.94	-400.000
202.31	66.667
202.69	-60.000
203.07	400.000
203.44	-200.000
203.82	0.000
204.19	-7.143
204.57	-566.667
204.95	75.000
205.32	60.000
205.70	-14.286
206.08	-150.000
206.45	177.778
206.83	92.857
207.20	-214.286
207.58	1300.000
207.96	-333.333
208.33	-20.000
208.71	-25.000
209.08	-133.333
209.46	-1300.000
209.84	-240.000
210.21	-400.000
210.59	28.571
210.96	-183.333
211.34	50.000
211.71	53.333
212.09	-157.143
212.46	-1600.000
212.84	0.000
213.22	0.000
213.59	850.000
213.97	38.462
214.34	-54.545
214.72	33.333
215.09	550.000
215.47	-30.769
215.84	-54.545
216.22	-66.667
216.59	-87.500
216.97	-50.000
217.34	-275.000
217.72	-240.000
218.09	-12.500
218.47	87.500
218.84	-1200.000
219.22	-77.778
219.59	-240.000
219.97	500.000
220.34	150.000
220.72	0.000
221.09	50.000
221.47	0.000
221.84	-450.000
222.22	-550.000
222.59	9.091
222.97	-83.333
223.34	-233.333
223.72	14.286
224.09	52.381
224.46	28.571
224.84	400.000
225.21	-30.000
225.59	6.667
225.96	-700.000
226.34	250.000
226.71	28.571
227.08	-133.333
227.46	-87.500
227.83	-400.000
228.21	0.000
228.58	-54.545
228.95	50.000
229.33	130.000
229.70	6.250
230.08	-125.000
230.45	-214.286
230.82	85.714
231.20	-33.333
231.57	-14.286
231.95	0.000
232.32	10.000
232.69	57.143
233.07	-166.667
233.44	0.000
233.81	-100.000
234.19	0.000
234.56	-29.412
234.93	-50.000
235.31	0.000
235.68	-440.000
236.05	-100.000
236.43	-45.000
236.80	-11.765
237.17	21.875
237.55	-35.000
237.92	0.000
238.29	-8.333
238.67	10.000
239.04	-11.765
239.41	-9.756
239.79	-20.000
240.16	19.512
240.53	0.000
240.91	10.870
241.28	11.111
241.65	5.357
242.02	16.438
242.40	13.333
242.77	5.085
243.14	-7.576
243.51	7.500
243.89	12.644
244.26	4.598
244.63	10.714
245.00	16.495
245.38	22.680
245.75	3.371
246.12	6.034
246.49	10.744
246.87	5.769
247.24	14.286
247.61	3.509
247.98	7.317
248.36	8.125
248.73	16.447
249.10	7.143
249.47	11.392
249.84	16.993
250.22	14.706
250.59	10.458
250.96	15.493
251.33	6.977
251.70	13.529
252.08	11.675
252.45	10.396
252.82	13.568
253.19	13.825
253.56	11.215
253.94	16.216
254.31	12.609
254.68	19.298
255.05	11.024
255.42	14.847
255.79	17.761
256.16	13.230
256.54	18.657
256.91	8.745
257.28	15.613
257.65	10.487
258.02	13.121
258.39	16.162
258.76	12.088
259.14	16.611
259.51	13.269
259.88	17.869
260.25	13.072
260.62	16.319
260.99	10.508
261.36	10.959
261.73	13.291
262.10	17.933
262.47	13.190
262.85	15.047
263.22	13.846
263.59	12.773
263.96	15.528
264.33	14.242
264.70	14.286
265.07	14.286
265.44	13.314
265.81	12.712
266.18	13.934
266.55	15.167
266.92	14.508
267.29	13.055
267.66	15.345
268.03	14.921
268.40	13.055
268.77	18.449
269.14	13.429
269.51	14.910
269.88	13.716
270.25	11.480
270.62	15.610
270.99	13.811
271.36	9.780
271.73	19.953
272.10	15.572
272.47	14.894
272.84	13.614
273.21	16.473
273.58	13.494
273.95	16.247
274.32	13.395
274.69	11.312
275.06	14.955
275.43	13.605
275.80	15.011
276.17	11.954
276.54	12.848
276.91	14.912
277.28	14.847
277.65	14.876
278.02	12.128
278.39	11.379
278.76	11.530
279.13	9.544
279.50	14.916
279.87	12.959
280.23	11.183
280.60	15.789
280.97	13.131
281.34	11.346
281.71	14.374
282.08	15.133
282.45	11.350
282.82	12.162
283.19	14.507
283.56	15.029
283.92	11.385
284.29	11.346
284.66	14.729
285.03	13.360
285.40	13.043
285.77	12.127
286.14	12.816
286.51	16.052
286.87	14.260
287.24	12.891
287.61	13.051
287.98	12.456
288.35	12.305
288.72	13.835
289.08	14.062
289.45	13.181
289.82	13.112
290.19	11.945
290.56	11.835
290.93	13.468
291.29	13.251
291.66	16.220
292.03	12.759
292.40	14.839
292.77	11.962
293.13	12.175
293.50	10.319
293.87	10.229
294.24	13.138
294.60	10.432
294.97	11.756
295.34	11.503
295.71	10.432
296.08	10.762
296.44	8.677
296.81	12.361
297.18	10.435
297.55	12.060
297.91	12.329
298.28	12.005
298.65	10.855
299.02	10.782
299.38	8.482
299.75	10.897
300.12	9.293
300.48	10.277
300.85	12.674
301.22	11.558
301.59	11.711
301.95	11.392
302.32	11.933
302.69	10.323
303.05	9.530
303.42	12.204
303.79	11.098
304.15	10.872
304.52	10.226
304.89	9.591
305.25	11.864
305.62	8.285
305.99	10.994
306.35	9.942
306.72	9.224
307.09	12.201
307.45	11.711
307.82	9.606
308.19	11.150
308.55	10.796
308.92	11.765
309.29	10.056
309.65	11.195
310.02	10.891
310.38	11.196
310.75	11.257
311.12	11.087
311.48	11.347
311.85	11.832
312.22	12.447
312.58	12.420
312.95	11.419
313.31	11.180
313.68	12.880
314.05	11.327
314.41	12.680
314.78	13.299
315.14	15.005
315.51	13.043
315.87	13.422
316.24	15.672
316.61	14.764
316.97	14.881
317.34	14.063
317.70	14.914
318.07	15.385
318.43	14.608
318.80	15.436
319.16	17.188
319.53	18.519
319.89	17.028
320.26	17.206
320.62	17.252
320.99	17.641
321.35	17.986
321.72	18.588
322.08	18.328
322.45	18.985
322.81	19.941
323.18	19.333
323.54	20.367
323.91	20.156
324.27	20.898
324.64	21.629
325.00	21.168
325.37	23.967
325.73	21.306
326.10	22.979
326.46	22.870
326.83	24.497
327.19	24.150
327.56	25.891
327.92	25.440
328.29	23.839
328.65	26.792
329.01	25.276
329.38	26.820
329.74	25.212
330.11	27.896
330.47	25.603
330.84	27.788
331.20	29.278
331.56	27.315
331.93	27.580
332.29	28.506
332.66	27.964
333.02	27.695
333.38	28.781
333.75	29.670
334.11	27.663
334.48	27.924
334.84	29.945
335.20	29.003
335.57	28.105
335.93	29.901
336.29	29.650
336.66	28.792
337.02	27.974
337.38	29.815
337.75	30.545
338.11	30.298
338.47	30.931
338.84	31.238
339.20	30.256
339.56	31.927
339.93	31.692
340.29	31.193
340.65	32.885
341.02	32.181
341.38	31.681
341.74	31.449
342.11	31.369
342.47	32.562
342.83	30.969
343.20	31.446
343.56	33.043
343.92	33.038
344.28	33.646
344.65	32.642
345.01	33.189
345.37	32.380
345.73	34.895
346.10	33.563
346.46	33.810
346.82	33.388
347.19	33.832
347.55	34.252
347.91	35.761
348.27	34.681
348.63	35.009
349.00	34.208
349.36	35.495
349.72	35.904
350.08	35.082
350.45	35.674
350.81	35.631
351.17	36.075
351.53	38.041
351.89	35.508
352.26	35.920
352.62	38.226
352.98	35.904
353.34	37.520
353.70	37.298
354.07	36.452
354.43	36.910
354.79	37.572
355.15	38.492
355.51	39.478
355.87	39.482
356.24	37.357
356.60	38.399
356.96	38.254
357.32	39.377
357.68	38.155
358.04	38.207
358.40	39.148
358.77	39.155
359.13	41.473
359.49	39.445
359.85	39.626
360.21	40.271
360.57	39.250
360.93	41.074
361.29	41.012
361.66	40.125
362.02	40.606
362.38	40.746
362.74	40.802
363.10	41.836
363.46	42.179
363.82	42.524
364.18	41.328
364.54	41.103
364.90	41.792
365.26	40.611
365.62	43.650
365.98	42.595
366.35	43.263
366.71	42.646
367.07	43.324
367.43	42.056
367.79	42.686
368.15	42.929
368.51	43.627
368.87	43.647
369.23	42.527
369.59	44.461
369.95	43.035
370.31	43.280
370.67	44.179
371.03	41.598
371.39	42.378
371.75	44.249
372.11	44.294
372.47	45.044
372.83	44.642
373.19	43.723
373.55	44.477
373.91	43.988
374.27	44.862
374.63	44.939
374.99	45.461
375.35	44.847
375.71	45.734
376.07	45.576
376.42	45.170
376.78	46.443
377.14	45.836
377.50	45.286
377.86	45.649
378.22	45.756
378.58	45.897
378.94	45.936
379.30	45.789
379.66	45.893
380.02	45.371
380.38	46.196
380.74	46.559
381.09	47.485
381.45	47.217
381.81	46.514
382.17	46.764
382.53	47.220
382.89	47.772
383.25	48.164
383.61	47.256
383.97	47.683
384.32	47.967
384.68	46.873
385.04	46.936
385.40	46.484
385.76	48.868
386.12	49.418
386.48	49.553
386.83	48.256
387.19	47.375
387.55	48.745
387.91	47.311
388.27	48.168
388.62	48.962
388.98	48.987
389.34	47.908
389.70	50.715
390.06	48.143
390.42	49.741
390.77	49.444
391.13	48.928
391.49	49.677
391.85	49.188
392.20	49.278
392.56	49.841
392.92	49.031
393.28	49.410
393.64	48.949
393.99	50.219
394.35	48.893
394.71	48.467
395.07	48.272
395.42	48.027
395.78	49.055
396.14	49.433
396.50	49.588
396.85	49.517
397.21	50.000
397.57	48.715
397.92	49.970
398.28	49.310
398.64	48.554
399.00	50.056
399.35	48.363
399.71	48.937
400.07	49.879
400.42	48.898
400.78	50.214
401.14	49.002
401.49	49.732
401.85	49.360
402.21	47.952
402.57	49.563
402.92	47.679
403.28	48.684
403.63	47.730
403.99	48.214
404.35	47.970
404.70	47.500
405.06	47.239
405.42	47.296
405.77	48.228
406.13	48.487
406.49	48.668
406.84	49.144
407.20	48.886
407.55	48.487
407.91	48.128
408.27	48.948
408.62	48.062
408.98	48.244
409.34	48.451
409.69	46.253
410.05	46.675
410.40	46.975
410.76	48.492
411.11	48.000
411.47	47.929
411.83	47.018
412.18	47.490
412.54	45.506
412.89	46.552
413.25	46.029
413.60	46.460
413.96	45.521
414.31	46.159
414.67	46.440
415.03	48.202
415.38	45.888
415.74	46.450
416.09	47.159
416.45	45.915
416.80	46.993
417.16	46.754
417.51	46.902
417.87	46.349
418.22	46.826
418.58	46.823
418.93	46.458
419.29	45.711
419.64	46.598
420.00	47.418
420.35	45.134
420.71	45.869
421.06	45.918
421.42	46.815
421.77	46.358
422.12	45.970
422.48	45.858
422.83	45.708
423.19	45.429
423.54	44.797
423.90	44.641
424.25	45.809
424.61	46.144
424.96	45.470
425.31	47.140
425.67	45.423
426.02	45.760
426.38	45.961
426.73	46.671
427.09	46.582
427.44	45.824
427.79	44.785
428.15	45.631
428.50	45.185
428.85	44.410
429.21	46.237
429.56	45.984
429.92	44.684
430.27	44.261
430.62	44.119
430.98	45.011
431.33	44.795
431.68	44.532
432.04	44.159
432.39	43.925
432.74	44.257
433.10	45.690
433.45	44.564
433.80	44.399
434.16	44.100
434.51	43.817
434.86	44.715
435.22	43.242
435.57	43.980
435.92	43.713
436.28	43.172
436.63	43.982
436.98	43.279
437.34	43.981
437.69	44.603
438.04	44.274
438.39	42.944
438.75	44.019
439.10	41.483
439.45	43.457
439.81	42.875
440.16	44.359
440.51	42.866
440.86	44.048
441.22	42.930
441.57	42.991
441.92	42.812
442.27	42.184
442.63	42.238
442.98	42.906
443.33	42.014
443.68	41.698
444.03	42.921
444.39	41.909
444.74	43.478
445.09	42.706
445.44	42.678
445.79	42.909
446.15	41.795
446.50	40.876
446.85	43.305
447.20	41.606
447.55	41.964
447.91	41.399
448.26	41.890
448.61	41.623
448.96	42.857
449.31	41.214
449.66	41.463
450.02	39.989
450.37	39.715
450.72	41.352
451.07	41.013
451.42	39.763
451.77	40.325
452.12	39.773
452.47	40.373
452.83	39.635
453.18	39.026
453.53	40.834
453.88	39.891
454.23	39.213
454.58	39.861
454.93	39.948
455.28	37.905
455.63	39.368
455.98	39.808
456.34	38.761
456.69	38.818
457.04	40.202
457.39	38.153
457.74	38.210
458.09	38.140
458.44	37.624
458.79	38.263
459.14	38.215
459.49	37.791
459.84	37.394
460.19	37.985
460.54	38.570
460.89	37.841
461.24	36.708
461.59	36.758
461.94	36.792
462.29	38.661
462.64	36.811
462.99	36.696
463.34	35.605
463.69	35.907
464.04	36.380
464.39	36.264
464.74	36.135
465.09	35.745
465.44	34.968
465.79	34.524
466.14	36.146
466.49	34.963
466.84	35.277
467.19	34.981
467.54	34.930
467.89	34.934
468.24	34.672
468.59	34.540
468.94	33.333
469.29	35.869
469.64	34.586
469.99	35.879
470.34	33.720
470.68	35.123
471.03	34.466
471.38	33.951
471.73	33.894
472.08	33.175
472.43	33.356
472.78	32.557
473.13	33.741
473.48	33.029
473.83	33.624
474.17	34.780
474.52	33.631
474.87	32.242
475.22	33.069
475.57	31.395
475.92	31.925
476.27	32.014
476.61	32.986
476.96	31.511
477.31	32.883
477.66	31.685
478.01	31.499
478.36	31.318
478.70	31.756
479.05	32.363
479.40	31.426
479.75	30.605
480.10	30.927
480.45	30.400
480.79	31.319
481.14	30.891
481.49	30.099
481.84	31.033
482.19	30.075
482.53	31.079
482.88	30.119
483.23	30.470
483.58	29.340
483.92	28.848
484.27	29.535
484.62	29.269
484.97	29.146
485.31	28.504
485.66	27.539
486.01	28.285
486.36	27.909
486.70	27.928
487.05	27.652
487.40	27.999
487.75	28.085
488.09	27.534
488.44	27.751
488.79	28.353
489.13	28.446
489.48	28.217
489.83	28.386
490.17	28.180
490.52	28.222
490.87	27.534
491.22	28.032
491.56	28.131
491.91	27.916
492.26	28.488
492.60	28.023
492.95	27.595
493.30	27.553
493.64	27.947
493.99	27.246
494.34	27.379
494.68	27.333
495.03	27.348
495.37	26.742
495.72	27.208
496.07	26.537
496.41	26.415
496.76	26.716
497.11	26.176
497.45	26.635
497.80	26.942
498.14	26.627
498.49	27.070
498.84	26.796
499.18	26.104
499.53	26.488
499.87	25.778
500.22	25.865
500.56	26.223
500.91	26.355
501.26	25.260
501.60	25.676
501.95	26.395
502.29	26.150
502.64	25.483
502.98	25.506
503.33	25.216
503.67	25.735
504.02	25.464
504.36	25.829
504.71	24.949
505.06	25.415
505.40	25.178
505.75	25.773
506.09	24.328
506.44	25.257
506.78	25.153
507.13	25.440
507.47	24.386
507.82	24.626
508.16	24.775
508.51	25.393
508.85	24.804
509.19	24.321
509.54	24.450
509.88	24.919
510.23	23.991
510.57	24.906
510.92	24.094
511.26	25.532
511.61	24.037
511.95	24.986
512.30	25.222
512.64	24.652
512.98	23.807
513.33	24.510
513.67	23.366
514.02	24.085
514.36	24.514
514.70	25.524
515.05	25.206
515.39	24.439
515.74	25.150
516.08	24.088
516.42	25.147
516.77	25.453
517.11	24.926
517.46	24.357
517.80	25.268
518.14	24.250
518.49	23.678
518.83	23.572
519.17	22.923
519.52	23.742
519.86	23.169
520.20	24.727
520.55	24.078
520.89	24.090
521.23	23.686
521.58	24.353
521.92	23.718
522.26	23.422
522.61	23.961
522.95	24.238
523.29	23.571
523.64	23.825
523.98	23.979
524.32	23.711
524.66	24.840
525.01	24.545
525.35	23.785
525.69	23.367
526.04	22.288
526.38	24.643
526.72	22.498
527.06	23.606
527.41	23.285
527.75	22.922
528.09	21.794
528.43	24.713
528.78	22.706
529.12	23.097
529.46	22.677
529.80	23.116
530.15	24.224
530.49	23.165
530.83	23.598
531.17	22.095
531.51	22.640
531.86	21.346
532.20	22.338
532.54	23.758
532.88	23.888
533.22	22.984
533.57	23.132
533.91	21.867
534.25	23.112
534.59	22.514
534.93	22.341
535.27	22.398
535.62	22.165
535.96	22.831
536.30	22.823
536.64	21.640
536.98	21.951
537.32	22.262
537.66	21.599
538.01	21.748
538.35	21.637
538.69	22.170
539.03	21.599
539.37	22.005
539.71	21.063
540.05	20.978
540.39	21.399
540.73	21.618
541.07	21.892
541.42	21.774
541.76	22.092
542.10	21.473
542.44	21.960
542.78	19.615
543.12	21.223
543.46	21.349
543.80	21.374
544.14	20.761
544.48	20.386
544.82	21.326
545.16	21.038
545.50	21.629
545.84	21.742
546.18	21.986
546.52	21.269
546.86	21.495
547.20	21.102
547.54	20.495
547.88	20.924
548.22	20.381
548.56	20.053
548.90	21.294
549.24	20.937
549.58	20.451
549.92	20.586
550.26	20.220
550.60	20.595
550.94	20.911
551.28	21.020
551.62	21.077
551.96	21.278
552.30	20.614
552.64	20.240
552.98	21.730
553.32	20.685
553.66	20.174
554.00	19.708
554.34	21.196
554.68	19.985
555.02	20.982
555.36	19.970
555.69	20.220
556.03	19.772
556.37	20.214
556.71	20.144
557.05	20.283
557.39	18.513
557.73	19.865
558.07	21.493
558.41	20.444
558.75	20.421
559.08	20.961
559.42	20.476
559.76	20.576
560.10	20.260
560.44	19.881
560.78	20.210
561.12	20.028
561.45	20.169
561.79	20.168
562.13	19.872
562.47	20.000
562.81	19.957
563.15	20.451
563.48	20.085
563.82	19.835
564.16	20.056
564.50	18.378
564.84	20.549
565.17	19.852
565.51	20.902
565.85	19.822
566.19	19.496
566.52	19.705
566.86	19.409
567.20	19.676
567.54	19.526
567.88	19.625
568.21	19.400
568.55	19.239
568.89	19.610
569.23	18.633
569.56	18.651
569.90	18.961
570.24	18.236
570.57	18.327
570.91	18.543
571.25	17.889
571.59	17.751
571.92	17.215
572.26	17.452
572.60	17.271
572.93	17.603
573.27	17.273
573.61	18.198
573.95	17.832
574.28	17.320
574.62	17.061
574.96	17.153
575.29	17.087
575.63	17.181
575.97	17.159
576.30	17.459
576.64	16.980
576.98	17.864
577.31	17.105
577.65	17.729
577.98	16.610
578.32	17.247
578.66	16.398
578.99	16.706
579.33	16.638
579.67	17.007
580.00	16.835
580.34	17.313
580.67	16.592
581.01	16.907
581.35	16.667
581.68	16.749
582.02	16.682
582.35	16.657
582.69	16.810
583.02	16.834
583.36	17.057
583.70	17.368
584.03	16.959
584.37	17.532
584.70	17.418
585.04	16.477
585.37	17.076
585.71	16.342
586.04	16.616
586.38	16.671
586.72	16.987
587.05	17.187
587.39	16.997
587.72	17.277
588.06	16.634
588.39	16.463
588.73	16.972
589.06	16.797
589.40	16.937
589.73	17.561
590.07	17.409
590.40	17.067
590.73	17.298
591.07	16.709
591.40	17.275
591.74	17.149
592.07	17.532
592.41	17.491
592.74	16.687
593.08	16.277
593.41	17.068
593.75	16.781
594.08	16.752
594.41	16.885
594.75	16.489
595.08	17.253
595.42	17.262
595.75	17.424
596.09	16.771
596.42	16.825
596.75	16.874
597.09	17.084
597.42	16.757
597.75	16.812
598.09	17.021
598.42	16.968
598.76	16.645
599.09	16.266
599.42	16.029
599.76	16.403
600.09	16.252
600.42	16.490
600.76	15.490
601.09	16.145
601.42	16.334
601.76	16.078
602.09	16.378
602.42	16.681
602.76	16.171
603.09	16.860
603.42	17.349
603.76	15.766
604.09	15.958
604.42	17.005
604.76	16.911
605.09	16.545
605.42	16.749
605.75	16.025
606.09	16.008
606.42	16.681
606.75	16.277
607.09	17.099
607.42	16.216
607.75	16.519
608.08	15.813
608.42	15.989
608.75	16.530
609.08	16.243
609.41	16.396
609.75	17.188
610.08	17.074
610.41	15.990
610.74	16.529
611.07	16.693
611.41	16.866
611.74	16.151
612.07	15.792
612.40	17.123
612.73	16.497
613.07	16.198
613.40	16.849
613.73	15.221
614.06	16.583
614.39	16.018
614.72	15.742
615.06	16.425
615.39	16.703
615.72	16.308
616.05	16.369
616.38	15.897
616.71	16.881
617.05	16.306
617.38	16.279
617.71	15.912
618.04	16.127
618.37	17.024
618.70	16.964
619.03	17.500
619.36	16.570
619.69	18.196
620.03	18.481
620.36	17.167
620.69	16.631
621.02	16.590
621.35	17.344
621.68	18.367
622.01	17.167
622.34	16.919
622.67	17.508
623.00	17.152
623.33	16.540
623.66	15.782
623.99	16.641
624.32	17.262
624.65	16.767
624.99	16.629
625.32	16.452
625.65	17.518
625.98	17.164
626.31	16.791
626.64	16.638
626.97	17.888
627.30	16.900
627.63	16.984
627.96	16.801
628.29	17.114
628.62	18.092
628.95	17.234
629.28	15.927
629.61	17.049
629.94	18.475
630.26	17.688
630.59	18.835
630.92	17.744
631.25	18.154
631.58	18.282
631.91	16.118
632.24	16.055
632.57	17.614
632.90	16.133
633.23	18.235
633.56	17.254
633.89	15.290
