SpectraSuite Data File
++++++++++++++++++++++++++++++++++++
Date: Fri May 15 21:10:53 PDT 2015
User: schluterlab
Dark Spectrum Present: Yes
Reference Spectrum Present: Yes
Number of Sampled Component Spectra: 1
Spectrometers: USB2E3373
Integration Time (usec): 3000 (USB2E3373)
Spectra Averaged: 3 (USB2E3373)
Boxcar Smoothing: 0 (USB2E3373)
Correct for Electrical Dark: No (USB2E3373)
Strobe/Lamp Enabled: No (USB2E3373)
Correct for Detector Non-linearity: No (USB2E3373)
Correct for Stray Light: No (USB2E3373)
Number of Pixels in Processed Spectrum: 2048
>>>>>Begin Processed Spectral Data<<<<<
178.53	0.000
178.91	0.000
179.29	100.000
179.67	-400.000
180.04	-128.571
180.42	175.000
180.80	-500.000
181.18	-100.000
181.56	350.000
181.94	0.000
182.31	300.000
182.69	-260.000
183.07	-400.000
183.45	-280.000
183.83	133.333
184.20	-81.818
184.58	122.222
184.96	-0.000
185.34	133.333
185.72	-350.000
186.09	130.769
186.47	-1200.000
186.85	100.000
187.23	88.889
187.61	200.000
187.98	-133.333
188.36	77.778
188.74	-366.667
189.12	-29.412
189.49	33.333
189.87	0.000
190.25	-14.286
190.63	350.000
191.00	-333.333
191.38	-21.053
191.76	0.000
192.14	175.000
192.51	200.000
192.89	-100.000
193.27	-57.143
193.65	166.667
194.02	81.818
194.40	-60.000
194.78	-225.000
195.15	-58.333
195.53	-137.500
195.91	450.000
196.29	-75.000
196.66	115.385
197.04	57.143
197.42	0.000
197.79	-566.667
198.17	-69.231
198.55	1300.000
198.92	-166.667
199.30	-700.000
199.68	-100.000
200.05	-300.000
200.43	0.000
200.81	-300.000
201.18	-66.667
201.56	600.000
201.94	-400.000
202.31	166.667
202.69	-300.000
203.07	400.000
203.44	100.000
203.82	0.000
204.19	-21.429
204.57	-233.333
204.95	262.500
205.32	-20.000
205.70	-71.429
206.08	125.000
206.45	211.111
206.83	85.714
207.20	-128.571
207.58	500.000
207.96	-633.333
208.33	-20.000
208.71	75.000
209.08	-50.000
209.46	-400.000
209.84	-40.000
210.21	-1000.000
210.59	157.143
210.96	-33.333
211.34	-150.000
211.71	-26.667
212.09	-128.571
212.46	-1100.000
212.84	0.000
213.22	-50.000
213.59	800.000
213.97	-15.385
214.34	45.455
214.72	16.667
215.09	450.000
215.47	-46.154
215.84	-45.455
216.22	-300.000
216.59	-62.500
216.97	-300.000
217.34	75.000
217.72	-420.000
218.09	12.500
218.47	225.000
218.84	-1200.000
219.22	-66.667
219.59	-40.000
219.97	266.667
220.34	50.000
220.72	0.000
221.09	-50.000
221.47	-350.000
221.84	-750.000
222.22	-700.000
222.59	-18.182
222.97	41.667
223.34	-200.000
223.72	-7.143
224.09	-57.143
224.46	3.571
224.84	500.000
225.21	-10.000
225.59	6.667
225.96	-400.000
226.34	150.000
226.71	-128.571
227.08	-250.000
227.46	-150.000
227.83	-600.000
228.21	77.778
228.58	-45.455
228.95	-100.000
229.33	120.000
229.70	25.000
230.08	-162.500
230.45	-57.143
230.82	114.286
231.20	-6.667
231.57	57.143
231.95	-42.857
232.32	-130.000
232.69	-14.286
233.07	-66.667
233.44	-280.000
233.81	-120.000
234.19	-33.333
234.56	-23.529
234.93	400.000
235.31	100.000
235.68	-360.000
236.05	-92.308
236.43	-45.000
236.80	-5.882
237.17	0.000
237.55	-65.000
237.92	-7.407
238.29	-2.778
238.67	-3.333
239.04	-14.706
239.41	-26.829
239.79	-23.333
240.16	14.634
240.53	-5.263
240.91	4.348
241.28	-3.175
241.65	-1.786
242.02	16.438
242.40	-1.667
242.77	-10.169
243.14	-9.091
243.51	10.000
243.89	8.046
244.26	-2.299
244.63	2.381
245.00	0.000
245.38	3.093
245.75	-14.607
246.12	-0.862
246.49	5.785
246.87	6.731
247.24	0.840
247.61	-4.386
247.98	-3.252
248.36	7.500
248.73	7.895
249.10	6.494
249.47	5.063
249.84	6.536
250.22	6.471
250.59	3.922
250.96	12.207
251.33	0.000
251.70	8.824
252.08	6.599
252.45	3.465
252.82	8.040
253.19	8.295
253.56	1.869
253.94	4.955
254.31	2.174
254.68	7.895
255.05	7.480
255.42	2.620
255.79	7.336
256.16	8.560
256.54	7.090
256.91	1.141
257.28	8.178
257.65	5.618
258.02	5.319
258.39	8.754
258.76	9.158
259.14	6.645
259.51	10.356
259.88	7.216
260.25	3.922
260.62	6.250
260.99	1.695
261.36	3.767
261.73	6.962
262.10	6.383
262.47	4.908
262.85	6.583
263.22	6.462
263.59	6.231
263.96	7.764
264.33	7.576
264.70	7.738
265.07	2.976
265.44	6.799
265.81	8.192
266.18	8.197
266.55	4.884
266.92	6.736
267.29	8.094
267.66	4.859
268.03	8.115
268.40	7.050
268.77	7.754
269.14	4.796
269.51	10.283
269.88	5.985
270.25	5.102
270.62	5.122
270.99	6.138
271.36	3.912
271.73	8.216
272.10	8.759
272.47	8.038
272.84	6.683
273.21	7.425
273.58	8.434
273.95	6.865
274.32	5.543
274.69	4.299
275.06	6.696
275.43	5.896
275.80	7.064
276.17	4.598
276.54	7.923
276.91	8.553
277.28	6.550
277.65	7.438
278.02	7.872
278.39	6.565
278.76	5.241
279.13	2.075
279.50	9.664
279.87	7.343
280.23	6.022
280.60	6.433
280.97	5.051
281.34	5.962
281.71	9.651
282.08	4.908
282.45	7.828
282.82	5.212
283.19	5.996
283.56	6.358
283.92	5.503
284.29	3.462
284.66	6.395
285.03	7.859
285.40	5.482
285.77	5.975
286.14	5.957
286.51	6.273
286.87	5.667
287.24	6.630
287.61	5.115
287.98	5.965
288.35	6.932
288.72	7.356
289.08	5.903
289.45	6.854
289.82	7.867
290.19	4.096
290.56	5.832
290.93	5.219
291.29	4.160
291.66	5.354
292.03	6.061
292.40	5.000
292.77	5.742
293.13	4.545
293.50	4.401
293.87	6.565
294.24	5.719
294.60	5.216
294.97	5.952
295.34	4.141
295.71	6.259
296.08	4.933
296.44	3.414
296.81	5.833
297.18	6.812
297.55	5.827
297.91	6.027
298.28	6.596
298.65	5.427
299.02	3.774
299.38	3.694
299.75	5.241
300.12	6.414
300.48	4.348
300.85	6.337
301.22	4.935
301.59	4.868
301.95	6.835
302.32	6.744
302.69	6.095
303.05	5.569
303.42	4.981
303.79	6.075
304.15	5.137
304.52	4.400
304.89	5.146
305.25	3.753
305.62	4.784
305.99	5.965
306.35	4.162
306.72	2.925
307.09	4.903
307.45	4.018
307.82	4.282
308.19	4.878
308.55	5.234
308.92	5.556
309.29	3.575
309.65	4.844
310.02	4.510
310.38	5.708
310.75	5.355
311.12	4.198
311.48	2.969
311.85	4.921
312.22	3.797
312.58	4.352
312.95	4.482
313.31	3.934
313.68	3.665
314.05	5.000
314.41	4.639
314.78	4.433
315.14	5.139
315.51	5.072
315.87	3.791
316.24	5.561
316.61	5.413
316.97	4.861
317.34	4.102
317.70	5.163
318.07	5.288
318.43	5.000
318.80	3.314
319.16	4.980
319.53	5.793
319.89	4.232
320.26	4.757
320.62	6.219
320.99	1.879
321.35	4.522
321.72	5.192
322.08	5.539
322.45	5.888
322.81	5.010
323.18	4.122
323.54	3.958
323.91	3.895
324.27	5.371
324.64	4.213
325.00	6.113
325.37	6.428
325.73	4.624
326.10	4.995
326.46	5.650
326.83	5.337
327.19	5.405
327.56	5.387
327.92	5.458
328.29	3.750
328.65	4.340
329.01	4.412
329.38	5.530
329.74	4.344
330.11	4.078
330.47	5.102
330.84	3.173
331.20	5.323
331.56	4.167
331.93	4.749
332.29	5.683
332.66	5.249
333.02	4.740
333.38	4.950
333.75	5.952
334.11	3.850
334.48	5.349
334.84	5.403
335.20	4.666
335.57	4.442
335.93	5.420
336.29	5.341
336.66	3.633
337.02	4.368
337.38	4.444
337.75	4.455
338.11	4.509
338.47	5.109
338.84	4.806
339.20	4.936
339.56	4.679
339.93	4.476
340.29	4.220
340.65	5.645
341.02	5.053
341.38	4.690
341.74	3.975
342.11	4.073
342.47	4.270
342.83	5.017
343.20	4.878
343.56	4.522
343.92	5.137
344.28	5.124
344.65	3.886
345.01	4.840
345.37	3.869
345.73	4.937
346.10	4.745
346.46	3.448
346.82	4.583
347.19	3.824
347.55	4.678
347.91	5.178
348.27	4.689
348.63	4.344
349.00	4.348
349.36	5.403
349.72	4.229
350.08	4.344
350.45	5.666
350.81	3.987
351.17	4.316
351.53	5.714
351.89	3.138
352.26	5.280
352.62	5.161
352.98	4.096
353.34	4.428
353.70	4.773
354.07	5.484
354.43	4.083
354.79	3.551
355.15	6.270
355.51	5.063
355.87	4.693
356.24	3.018
356.60	4.123
356.96	4.683
357.32	5.032
357.68	4.300
358.04	4.200
358.40	4.904
358.77	4.705
359.13	3.683
359.49	3.775
359.85	4.212
360.21	4.864
360.57	4.973
360.93	4.312
361.29	3.474
361.66	4.937
362.02	4.848
362.38	4.189
362.74	3.482
363.10	4.891
363.46	4.744
363.82	4.132
364.18	4.354
364.54	3.971
364.90	4.373
365.26	4.440
365.62	4.964
365.98	4.472
366.35	5.098
366.71	4.730
367.07	4.717
367.43	4.313
367.79	4.452
368.15	4.523
368.51	4.880
368.87	4.235
369.23	4.621
369.59	4.592
369.95	3.959
370.31	3.757
370.67	4.104
371.03	4.108
371.39	3.793
371.75	4.982
372.11	3.638
372.47	4.290
372.83	4.897
373.19	4.208
373.55	3.899
373.91	4.464
374.27	4.040
374.63	5.025
374.99	3.475
375.35	4.248
375.71	3.706
376.07	3.371
376.42	4.966
376.78	4.362
377.14	4.739
377.50	4.250
377.86	4.016
378.22	3.893
378.58	3.654
378.94	4.159
379.30	3.993
379.66	4.953
380.02	4.047
380.38	3.774
380.74	3.411
381.09	4.417
381.45	4.220
381.81	4.010
382.17	4.124
382.53	3.873
382.89	3.704
383.25	4.356
383.61	4.207
383.97	3.302
384.32	4.065
384.68	4.458
385.04	3.554
385.40	3.049
385.76	3.208
386.12	4.334
386.48	3.640
386.83	3.868
387.19	4.335
387.55	3.325
387.91	3.667
388.27	3.846
388.62	3.776
388.98	4.359
389.34	3.498
389.70	4.786
390.06	3.524
390.42	3.562
390.77	3.074
391.13	3.153
391.49	3.687
391.85	4.483
392.20	4.206
392.56	3.306
392.92	3.582
393.28	3.715
393.64	4.264
393.99	4.075
394.35	3.416
394.71	4.215
395.07	3.143
395.42	4.372
395.78	3.322
396.14	3.594
396.50	4.312
396.85	3.155
397.21	4.010
397.57	3.699
397.92	3.715
398.28	3.793
398.64	3.614
399.00	4.515
399.35	3.104
399.71	3.733
400.07	3.748
400.42	3.917
400.78	3.858
401.14	4.779
401.49	4.288
401.85	3.352
402.21	4.277
402.57	3.562
402.92	3.011
403.28	4.386
403.63	3.342
403.99	3.827
404.35	3.810
404.70	3.393
405.06	4.172
405.42	4.413
405.77	3.080
406.13	3.318
406.49	3.908
406.84	4.095
407.20	3.552
407.55	2.962
407.91	3.676
408.27	2.996
408.62	4.185
408.98	3.943
409.34	3.532
409.69	3.553
410.05	3.633
410.40	3.704
410.76	3.800
411.11	3.250
411.47	3.419
411.83	3.013
412.18	3.218
412.54	4.120
412.89	3.017
413.25	3.550
413.60	3.043
413.96	3.252
414.31	4.634
414.67	3.207
415.03	3.395
415.38	3.394
415.74	3.844
416.09	4.050
416.45	4.186
416.80	3.305
417.16	3.039
417.51	3.598
417.87	3.194
418.22	2.915
418.58	3.411
418.93	4.075
419.29	2.945
419.64	2.916
420.00	4.282
420.35	3.881
420.71	4.617
421.06	3.929
421.42	3.786
421.77	3.642
422.12	3.065
422.48	3.465
422.83	3.016
423.19	3.725
423.54	2.822
423.90	3.062
424.25	4.076
424.61	3.611
424.96	3.600
425.31	3.408
425.67	3.756
426.02	4.417
426.38	3.507
426.73	4.177
427.09	3.924
427.44	4.235
427.79	3.477
428.15	3.944
428.50	3.513
428.85	4.177
429.21	3.452
429.56	3.504
429.92	3.338
430.27	4.010
430.62	3.084
430.98	3.132
431.33	3.943
431.68	3.244
432.04	3.633
432.39	4.107
432.74	3.428
433.10	4.713
433.45	3.345
433.80	3.540
434.16	2.936
434.51	3.602
434.86	3.717
435.22	3.870
435.57	3.681
435.92	3.892
436.28	3.757
436.63	3.309
436.98	3.302
437.34	3.872
437.69	3.995
438.04	4.046
438.39	2.871
438.75	3.704
439.10	3.905
439.45	3.165
439.81	3.364
440.16	3.682
440.51	4.179
440.86	3.988
441.22	3.846
441.57	3.698
441.92	4.145
442.27	3.326
442.63	4.979
442.98	4.308
443.33	3.116
443.68	4.138
444.03	4.719
444.39	4.132
444.74	4.738
445.09	4.065
445.44	4.330
445.79	5.260
446.15	3.524
446.50	3.661
446.85	4.782
447.20	4.327
447.55	4.967
447.91	4.230
448.26	4.382
448.61	5.009
448.96	4.016
449.31	4.104
449.66	4.297
450.02	4.221
450.37	4.090
450.72	4.296
451.07	4.051
451.42	5.056
451.77	4.219
452.12	3.529
452.47	4.250
452.83	5.241
453.18	3.985
453.53	5.752
453.88	4.918
454.23	4.610
454.58	4.660
454.93	4.639
455.28	4.952
455.63	5.022
455.98	5.111
456.34	5.045
456.69	4.574
457.04	4.978
457.39	4.010
457.74	4.716
458.09	4.356
458.44	4.389
458.79	4.482
459.14	5.092
459.49	5.731
459.84	4.738
460.19	5.036
460.54	4.707
460.89	5.227
461.24	5.280
461.59	4.810
461.94	5.094
462.29	5.066
462.64	5.050
462.99	5.416
463.34	4.798
463.69	4.633
464.04	4.661
464.39	4.669
464.74	5.828
465.09	5.490
465.44	6.290
465.79	4.535
466.14	5.188
466.49	4.715
466.84	4.759
467.19	5.820
467.54	6.003
467.89	5.370
468.24	5.596
468.59	5.587
468.94	4.889
469.29	5.639
469.64	6.425
469.99	5.396
470.34	4.505
470.68	5.742
471.03	5.662
471.38	5.492
471.73	5.672
472.08	5.902
472.43	4.698
472.78	5.552
473.13	5.442
473.48	5.081
473.83	4.919
474.17	5.052
474.52	5.807
474.87	5.515
475.22	5.674
475.57	4.800
475.92	5.595
476.27	6.228
476.61	6.250
476.96	5.466
477.31	5.462
477.66	5.506
478.01	5.166
478.36	5.229
478.70	5.492
479.05	5.879
479.40	5.723
479.75	5.005
480.10	5.786
480.45	5.550
480.79	5.589
481.14	6.352
481.49	5.074
481.84	5.164
482.19	5.145
482.53	5.995
482.88	5.394
483.23	5.566
483.58	5.708
483.92	5.179
484.27	5.561
484.62	5.782
484.97	5.390
485.31	5.708
485.66	5.266
486.01	5.696
486.36	5.542
486.70	6.018
487.05	5.964
487.40	5.765
487.75	5.324
488.09	5.841
488.44	5.433
488.79	5.827
489.13	6.410
489.48	5.814
489.83	5.561
490.17	5.978
490.52	5.958
490.87	5.784
491.22	6.304
491.56	5.645
491.91	5.688
492.26	5.396
492.60	5.758
492.95	5.952
493.30	5.813
493.64	4.715
493.99	6.135
494.34	5.437
494.68	5.571
495.03	5.791
495.37	5.692
495.72	5.300
496.07	5.756
496.41	5.425
496.76	5.712
497.11	5.962
497.45	6.444
497.80	6.206
498.14	5.912
498.49	5.079
498.84	5.838
499.18	6.325
499.53	5.655
499.87	5.496
500.22	5.638
500.56	5.245
500.91	5.020
501.26	5.339
501.60	5.116
501.95	5.725
502.29	6.053
502.64	5.985
502.98	5.476
503.33	5.331
503.67	5.108
504.02	5.816
504.36	6.086
504.71	5.253
505.06	5.335
505.40	5.685
505.75	5.515
506.09	5.930
506.44	6.366
506.78	5.867
507.13	5.584
507.47	5.170
507.82	4.968
508.16	5.652
508.51	5.876
508.85	5.390
509.19	5.216
509.54	5.630
509.88	5.448
510.23	6.347
510.57	5.986
510.92	4.851
511.26	5.346
511.61	5.831
511.95	6.301
512.30	5.599
512.64	6.344
512.98	5.503
513.33	6.491
513.67	5.401
514.02	6.064
514.36	6.229
514.70	6.352
515.05	6.052
515.39	5.844
515.74	6.707
516.08	5.619
516.42	6.419
516.77	6.554
517.11	4.866
517.46	6.224
517.80	6.019
518.14	5.511
518.49	5.529
518.83	5.043
519.17	4.912
519.52	5.151
519.86	5.642
520.20	5.650
520.55	5.191
520.89	5.834
521.23	5.890
521.58	6.435
521.92	5.897
522.26	5.791
522.61	6.169
522.95	6.026
523.29	6.099
523.64	6.290
523.98	5.574
524.32	4.768
524.66	5.698
525.01	5.519
525.35	5.898
525.69	4.646
526.04	4.630
526.38	6.615
526.72	4.971
527.06	5.318
527.41	5.871
527.75	4.826
528.09	4.850
528.43	6.212
528.78	5.083
529.12	5.419
529.46	5.068
529.80	5.700
530.15	5.479
530.49	4.714
530.83	4.993
531.17	5.306
531.51	4.856
531.86	5.031
532.20	4.593
532.54	4.697
532.88	5.613
533.22	4.301
533.57	4.980
533.91	4.308
534.25	5.469
534.59	4.298
534.93	4.720
535.27	4.061
535.62	4.148
535.96	5.414
536.30	5.607
536.64	5.307
536.98	4.669
537.32	4.908
537.66	6.171
538.01	4.825
538.35	4.508
538.69	5.193
539.03	5.126
539.37	4.845
539.71	4.976
540.05	5.024
540.39	4.709
540.73	5.718
541.07	4.834
541.42	6.116
541.76	5.231
542.10	4.955
542.44	5.420
542.78	4.198
543.12	4.121
543.46	4.937
543.80	4.650
544.14	4.473
544.48	5.130
544.82	4.853
545.16	5.123
545.50	5.274
545.84	6.303
546.18	5.603
546.52	5.624
546.86	4.745
547.20	5.007
547.54	4.382
547.88	5.367
548.22	4.734
548.56	5.475
548.90	5.526
549.24	4.545
549.58	5.924
549.92	4.575
550.26	5.495
550.60	4.312
550.94	5.004
551.28	5.410
551.62	5.154
551.96	5.639
552.30	6.213
552.64	5.007
552.98	5.767
553.32	5.064
553.66	4.644
554.00	5.036
554.34	5.539
554.68	5.678
555.02	5.506
555.36	5.236
555.69	4.689
556.03	4.854
556.37	5.053
556.71	5.704
557.05	4.623
557.39	4.758
557.73	5.697
558.07	5.958
558.41	5.513
558.75	5.300
559.08	5.674
559.42	5.159
559.76	4.804
560.10	5.352
560.44	5.361
560.78	5.385
561.12	5.994
561.45	4.989
561.79	5.322
562.13	5.678
562.47	4.964
562.81	5.548
563.15	6.417
563.48	5.446
563.82	5.697
564.16	5.223
564.50	5.000
564.84	6.158
565.17	5.231
565.51	5.396
565.85	5.213
566.19	5.769
566.52	5.027
566.86	5.784
567.20	4.732
567.54	5.718
567.88	5.272
568.21	5.260
568.55	4.457
568.89	5.441
569.23	5.537
569.56	5.123
569.90	5.238
570.24	5.136
570.57	5.127
570.91	5.681
571.25	4.900
571.59	5.045
571.92	5.274
572.26	4.891
572.60	4.682
572.93	5.240
573.27	4.859
573.61	5.221
573.95	5.298
574.28	4.926
574.62	5.009
574.96	5.186
575.29	4.897
575.63	5.131
575.97	4.771
576.30	4.779
576.64	4.662
576.98	5.045
577.31	5.259
577.65	5.206
577.98	5.072
578.32	4.859
578.66	4.556
578.99	5.147
579.33	4.946
579.67	4.971
580.00	5.443
580.34	5.224
580.67	5.292
581.01	5.259
581.35	5.362
581.68	5.334
582.02	4.882
582.35	5.107
582.69	5.025
583.02	5.319
583.36	5.394
583.70	5.971
584.03	5.616
584.37	5.618
584.70	5.495
585.04	5.518
585.37	5.700
585.71	5.529
586.04	5.572
586.38	5.601
586.72	5.624
587.05	6.210
587.39	6.094
587.72	6.506
588.06	5.840
588.39	6.038
588.73	5.922
589.06	6.425
589.40	6.015
589.73	6.827
590.07	6.684
590.40	6.618
590.73	6.960
591.07	6.277
591.40	6.500
591.74	6.516
592.07	6.679
592.41	6.758
592.74	6.571
593.08	6.392
593.41	6.392
593.75	6.444
594.08	6.797
594.41	6.368
594.75	6.450
595.08	6.962
595.42	6.257
595.75	7.172
596.09	6.411
596.42	7.358
596.75	6.927
597.09	7.380
597.42	7.407
597.75	6.871
598.09	6.881
598.42	6.995
598.76	7.121
599.09	6.851
599.42	6.821
599.76	6.772
600.09	7.127
600.42	6.861
600.76	6.686
601.09	6.718
601.42	6.855
601.76	6.828
602.09	7.013
602.42	7.793
602.76	6.494
603.09	7.143
603.42	7.483
603.76	6.613
604.09	7.007
604.42	6.684
604.76	7.566
605.09	7.450
605.42	7.359
605.75	7.268
606.09	6.624
606.42	7.423
606.75	7.273
607.09	7.473
607.42	7.089
607.75	7.194
608.08	6.739
608.42	7.492
608.75	7.133
609.08	6.826
609.41	6.802
609.75	7.308
610.08	7.039
610.41	7.005
610.74	7.557
611.07	7.287
611.41	7.006
611.74	6.876
612.07	6.692
612.40	8.042
612.73	7.175
613.07	6.862
613.40	8.589
613.73	6.995
614.06	7.958
614.39	7.558
614.72	7.283
615.06	7.263
615.39	7.041
615.72	7.481
616.05	7.095
616.38	6.838
616.71	6.850
617.05	7.659
617.38	7.291
617.71	7.296
618.04	7.873
618.37	7.945
618.70	8.053
619.03	8.750
619.36	6.729
619.69	7.733
620.03	7.670
620.36	7.797
620.69	6.995
621.02	8.028
621.35	7.635
621.68	6.633
622.01	7.917
622.34	7.103
622.67	8.044
623.00	7.810
623.33	7.317
623.66	6.806
623.99	6.959
624.32	7.681
624.65	6.692
624.99	7.223
625.32	7.051
625.65	7.777
625.98	6.930
626.31	7.315
626.64	7.799
626.97	7.679
627.30	7.005
627.63	7.539
627.96	7.457
628.29	7.401
628.62	7.670
628.95	7.816
629.28	7.762
629.61	7.378
629.94	7.918
630.26	7.115
630.59	7.492
630.92	7.179
631.25	6.872
631.58	7.819
631.91	6.140
632.24	7.798
632.57	9.091
632.90	6.999
633.23	7.647
633.56	6.549
633.89	6.412
634.22	8.765
634.55	6.607
634.88	8.046
635.20	7.179
635.53	7.467
635.86	7.152
636.19	8.409
636.52	7.781
636.85	5.707
637.18	6.289
637.51	7.547
637.83	6.702
638.16	9.004
638.49	7.493
638.82	6.842
639.15	6.242
639.48	7.565
639.81	8.229
640.13	6.926
640.46	7.726
640.79	6.038
641.12	6.499
641.45	5.706
641.77	8.444
642.10	9.479
642.43	6.913
642.76	7.261
643.09	7.754
643.41	8.091
643.74	6.096
644.07	7.389
644.40	8.277
644.73	8.406
645.05	7.550
645.38	7.760
645.71	5.851
646.04	6.822
646.36	6.915
646.69	8.273
647.02	7.561
647.35	6.530
647.67	8.410
648.00	7.649
648.33	7.338
648.66	7.966
648.98	7.370
649.31	6.116
649.64	6.907
649.96	6.159
650.29	7.496
650.62	6.667
650.94	4.630
651.27	5.773
651.60	7.568
651.92	8.217
652.25	6.394
652.58	6.667
652.90	8.748
653.23	7.395
653.56	6.768
653.88	6.873
654.21	4.729
654.54	6.621
654.86	7.810
655.19	5.702
655.52	7.972
655.84	6.821
656.17	7.613
656.49	10.121
656.82	10.860
657.15	8.503
657.47	6.413
657.80	4.831
658.13	4.890
658.45	7.320
