SpectraSuite Data File
++++++++++++++++++++++++++++++++++++
Date: Fri May 15 20:39:14 PDT 2015
User: schluterlab
Dark Spectrum Present: Yes
Reference Spectrum Present: Yes
Number of Sampled Component Spectra: 1
Spectrometers: USB2E3373
Integration Time (usec): 3000 (USB2E3373)
Spectra Averaged: 3 (USB2E3373)
Boxcar Smoothing: 0 (USB2E3373)
Correct for Electrical Dark: No (USB2E3373)
Strobe/Lamp Enabled: No (USB2E3373)
Correct for Detector Non-linearity: No (USB2E3373)
Correct for Stray Light: No (USB2E3373)
Number of Pixels in Processed Spectrum: 2048
>>>>>Begin Processed Spectral Data<<<<<
178.53	0.000
178.91	0.000
179.29	-12.500
179.67	-400.000
180.04	85.714
180.42	-75.000
180.80	-500.000
181.18	-133.333
181.56	250.000
181.94	300.000
182.31	300.000
182.69	-20.000
183.07	-166.667
183.45	-120.000
183.83	100.000
184.20	9.091
184.58	44.444
184.96	-175.000
185.34	66.667
185.72	-100.000
186.09	46.154
186.47	-900.000
186.85	200.000
187.23	111.111
187.61	-0.000
187.98	-233.333
188.36	133.333
188.74	-433.333
189.12	58.824
189.49	44.444
189.87	0.000
190.25	107.143
190.63	-50.000
191.00	-166.667
191.38	52.632
191.76	550.000
192.14	-50.000
192.51	300.000
192.89	55.556
193.27	-42.857
193.65	150.000
194.02	145.455
194.40	-30.000
194.78	-12.500
195.15	-33.333
195.53	-75.000
195.91	275.000
196.29	-125.000
196.66	46.154
197.04	100.000
197.42	100.000
197.79	-500.000
198.17	-84.615
198.55	1700.000
198.92	-333.333
199.30	-100.000
199.68	-40.000
200.05	133.333
200.43	0.000
200.81	-233.333
201.18	-33.333
201.56	300.000
201.94	-350.000
202.31	-66.667
202.69	-200.000
203.07	25.000
203.44	-100.000
203.82	0.000
204.19	21.429
204.57	-400.000
204.95	187.500
205.32	50.000
205.70	0.000
206.08	-25.000
206.45	55.556
206.83	14.286
207.20	-14.286
207.58	-100.000
207.96	200.000
208.33	-60.000
208.71	-100.000
209.08	-83.333
209.46	-700.000
209.84	-260.000
210.21	-800.000
210.59	114.286
210.96	33.333
211.34	25.000
211.71	0.000
212.09	-42.857
212.46	-1700.000
212.84	0.000
213.22	70.000
213.59	400.000
213.97	115.385
214.34	100.000
214.72	-100.000
215.09	275.000
215.47	-7.692
215.84	63.636
216.22	-233.333
216.59	-112.500
216.97	150.000
217.34	-25.000
217.72	-280.000
218.09	75.000
218.47	137.500
218.84	-400.000
219.22	-55.556
219.59	-40.000
219.97	-33.333
220.34	450.000
220.72	85.714
221.09	-25.000
221.47	-200.000
221.84	-300.000
222.22	-600.000
222.59	18.182
222.97	25.000
223.34	66.667
223.72	-57.143
224.09	19.048
224.46	7.143
224.84	333.333
225.21	-60.000
225.59	-6.667
225.96	-50.000
226.34	250.000
226.71	14.286
227.08	0.000
227.46	37.500
227.83	-150.000
228.21	44.444
228.58	45.455
228.95	-62.500
229.33	30.000
229.70	-12.500
230.08	-62.500
230.45	28.571
230.82	57.143
231.20	66.667
231.57	85.714
231.95	0.000
232.32	-50.000
232.69	64.286
233.07	166.667
233.44	-100.000
233.81	0.000
234.19	33.333
234.56	11.765
234.93	450.000
235.31	125.000
235.68	-160.000
236.05	-38.462
236.43	10.000
236.80	100.000
237.17	46.875
237.55	35.000
237.92	18.519
238.29	55.556
238.67	46.667
239.04	41.176
239.41	29.268
239.79	60.000
240.16	60.976
240.53	18.421
240.91	30.435
241.28	44.444
241.65	39.286
242.02	52.055
242.40	55.000
242.77	55.932
243.14	34.848
243.51	55.000
243.89	60.920
244.26	47.126
244.63	55.952
245.00	52.577
245.38	49.485
245.75	44.944
246.12	33.621
246.49	46.281
246.87	50.962
247.24	51.261
247.61	44.737
247.98	53.659
248.36	44.375
248.73	43.421
249.10	40.260
249.47	49.367
249.84	49.020
250.22	53.529
250.59	53.595
250.96	50.704
251.33	52.907
251.70	55.294
252.08	53.807
252.45	51.485
252.82	48.241
253.19	53.917
253.56	46.262
253.94	51.351
254.31	53.043
254.68	54.825
255.05	48.819
255.42	54.585
255.79	50.193
256.16	50.584
256.54	52.612
256.91	49.049
257.28	48.699
257.65	48.689
258.02	51.418
258.39	48.822
258.76	47.985
259.14	51.163
259.51	50.809
259.88	49.828
260.25	52.614
260.62	54.167
260.99	50.508
261.36	49.658
261.73	50.633
262.10	50.456
262.47	54.908
262.85	50.470
263.22	53.846
263.59	50.779
263.96	49.689
264.33	50.000
264.70	50.000
265.07	51.488
265.44	57.224
265.81	53.390
266.18	55.191
266.55	52.442
266.92	54.404
267.29	54.047
267.66	51.407
268.03	53.927
268.40	51.697
268.77	55.882
269.14	49.161
269.51	54.499
269.88	50.374
270.25	50.510
270.62	48.780
270.99	48.593
271.36	51.345
271.73	51.408
272.10	51.825
272.47	49.645
272.84	51.238
273.21	46.172
273.58	52.771
273.95	49.657
274.32	49.423
274.69	47.964
275.06	51.786
275.43	50.567
275.80	50.552
276.17	51.034
276.54	49.036
276.91	50.000
277.28	48.908
277.65	48.760
278.02	49.149
278.39	48.796
278.76	50.943
279.13	44.191
279.50	50.630
279.87	48.380
280.23	50.323
280.60	47.368
280.97	52.525
281.34	48.269
281.71	50.719
282.08	50.102
282.45	44.423
282.82	45.753
283.19	47.002
283.56	46.821
283.92	49.526
284.29	47.692
284.66	45.736
285.03	47.151
285.40	46.503
285.77	45.870
286.14	47.292
286.51	49.077
286.87	47.715
287.24	46.593
287.61	44.092
287.98	47.544
288.35	46.794
288.72	48.511
289.08	43.924
289.45	45.870
289.82	46.154
290.19	45.563
290.56	44.597
290.93	42.761
291.29	41.140
291.66	41.102
292.03	40.829
292.40	42.419
292.77	40.191
293.13	37.175
293.50	38.543
293.87	38.779
294.24	38.485
294.60	40.686
294.97	39.881
295.34	39.110
295.71	37.556
296.08	38.864
296.44	35.562
296.81	38.056
297.18	37.101
297.55	38.753
297.91	36.986
298.28	36.807
298.65	35.550
299.02	36.658
299.38	33.105
299.75	35.448
300.12	36.780
300.48	35.968
300.85	35.108
301.22	34.935
301.59	34.211
301.95	35.190
302.32	34.630
302.69	36.692
303.05	34.530
303.42	33.624
303.79	35.047
304.15	33.572
304.52	33.532
304.89	33.099
305.25	32.930
305.62	32.905
305.99	32.632
306.35	33.179
306.72	31.159
307.09	32.953
307.45	34.558
307.82	31.829
308.19	32.753
308.55	31.298
308.92	33.333
309.29	31.732
309.65	30.678
310.02	31.683
310.38	32.272
310.75	31.913
311.12	31.862
311.48	31.071
311.85	30.785
312.22	31.118
312.58	32.590
312.95	29.883
313.31	30.952
313.68	30.366
314.05	32.143
314.41	30.515
314.78	31.443
315.14	31.655
315.51	31.159
315.87	31.865
316.24	32.963
316.61	29.626
316.97	30.853
317.34	30.371
317.70	31.071
318.07	30.577
318.43	29.412
318.80	29.167
319.16	32.520
319.53	31.054
319.89	30.413
320.26	30.263
320.62	31.595
320.99	30.271
321.35	30.113
321.72	31.464
322.08	29.909
322.45	31.472
322.81	30.452
323.18	30.226
323.54	29.247
323.91	29.503
324.27	29.785
324.64	29.213
325.00	29.015
325.37	32.231
325.73	29.646
326.10	29.609
326.46	30.493
326.83	31.409
327.19	31.125
327.56	29.540
327.92	30.810
328.29	29.643
328.65	30.000
329.01	29.688
329.38	30.138
329.74	29.273
330.11	30.491
330.47	28.757
330.84	30.192
331.20	32.129
331.56	29.444
331.93	28.858
332.29	29.789
332.66	28.416
333.02	29.461
333.38	29.331
333.75	30.220
334.11	28.111
334.48	30.281
334.84	30.220
335.20	29.369
335.57	27.289
335.93	28.184
336.29	29.098
336.66	28.792
337.02	28.717
337.38	29.815
337.75	30.000
338.11	29.396
338.47	28.285
338.84	27.634
339.20	28.976
339.56	29.083
339.93	28.469
340.29	29.725
340.65	29.211
341.02	27.128
341.38	28.850
341.74	28.092
342.11	27.643
342.47	28.737
342.83	28.201
343.20	26.481
343.56	28.174
343.92	27.901
344.28	28.523
344.65	27.116
345.01	27.139
345.37	28.680
345.73	27.364
346.10	28.214
346.46	27.586
346.82	27.823
347.19	27.764
347.55	27.235
347.91	27.184
348.27	27.890
348.63	27.513
349.00	28.220
349.36	27.265
349.72	28.856
350.08	27.131
350.45	27.374
350.81	27.824
351.17	26.873
351.53	27.347
351.89	26.920
352.26	26.400
352.62	28.145
352.98	26.506
353.34	26.329
353.70	26.861
354.07	25.161
354.43	26.581
354.79	27.333
355.15	27.381
355.51	27.294
355.87	27.427
356.24	26.591
356.60	26.597
356.96	27.619
357.32	26.198
357.68	26.036
358.04	26.979
358.40	25.965
358.77	27.113
359.13	27.062
359.49	26.502
359.85	26.365
360.21	27.512
360.57	25.784
360.93	27.005
361.29	25.906
361.66	27.116
362.02	27.121
362.38	26.504
362.74	26.192
363.10	26.411
363.46	27.205
363.82	26.221
364.18	25.092
364.54	25.588
364.90	25.376
365.26	25.764
365.62	25.693
365.98	26.540
366.35	27.094
366.71	27.051
367.07	26.052
367.43	26.096
367.79	25.300
368.15	26.202
368.51	26.074
368.87	25.413
369.23	24.043
369.59	25.073
369.95	26.760
370.31	27.384
370.67	25.299
371.03	24.944
371.39	24.508
371.75	25.275
372.11	25.678
372.47	25.518
372.83	25.479
373.19	25.036
373.55	24.260
373.91	25.054
374.27	25.726
374.63	25.485
374.99	24.326
375.35	25.070
375.71	24.685
376.07	25.351
376.42	25.714
376.78	26.309
377.14	24.509
377.50	25.166
377.86	25.502
378.22	24.569
378.58	24.808
378.94	24.512
379.30	25.577
379.66	25.266
380.02	24.709
380.38	24.102
380.74	24.357
381.09	26.258
381.45	23.914
381.81	25.231
382.17	24.810
382.53	24.485
382.89	24.922
383.25	24.829
383.61	25.366
383.97	24.825
384.32	24.203
384.68	25.201
385.04	23.039
385.40	24.082
385.76	25.535
386.12	24.968
386.48	25.223
386.83	24.604
387.19	24.542
387.55	24.843
387.91	25.000
388.27	24.359
388.62	23.159
388.98	24.125
389.34	25.297
389.70	24.860
390.06	24.858
390.42	25.453
390.77	24.657
391.13	24.590
391.49	24.580
391.85	25.471
392.20	23.729
392.56	23.840
392.92	24.486
393.28	23.880
393.64	25.405
393.99	25.517
394.35	23.909
394.71	25.032
395.07	24.136
395.42	23.983
395.78	25.081
396.14	24.716
396.50	24.604
396.85	24.211
397.21	25.000
397.57	24.326
397.92	23.787
398.28	25.000
398.64	23.554
399.00	23.928
399.35	23.025
399.71	23.262
400.07	23.579
400.42	23.929
400.78	25.352
401.14	23.412
401.49	23.585
401.85	23.705
402.21	23.373
402.57	24.312
402.92	23.777
403.28	23.622
403.63	23.329
403.99	24.107
404.35	24.610
404.70	23.274
405.06	23.325
405.42	23.493
405.77	24.056
406.13	23.399
406.49	24.393
406.84	23.044
407.20	24.383
407.55	24.340
407.91	23.195
408.27	23.709
408.62	24.369
408.98	24.584
409.34	24.597
409.69	22.868
410.05	23.584
410.40	23.148
410.76	24.125
411.11	22.688
411.47	23.208
411.83	23.038
412.18	24.131
412.54	23.596
412.89	23.276
413.25	24.007
413.60	24.161
413.96	23.804
414.31	24.085
414.67	24.118
415.03	23.768
415.38	23.433
415.74	23.518
416.09	23.841
416.45	23.093
416.80	23.728
417.16	24.033
417.51	23.651
417.87	23.924
418.22	23.834
418.58	23.211
418.93	24.138
419.29	23.175
419.64	22.878
420.00	24.559
420.35	23.522
420.71	24.180
421.06	23.818
421.42	23.918
421.77	23.584
422.12	24.064
422.48	24.039
422.83	23.492
423.19	23.589
423.54	23.045
423.90	23.675
424.25	23.479
424.61	24.235
424.96	23.403
425.31	23.686
425.67	24.002
426.02	24.205
426.38	24.483
426.73	23.245
427.09	24.430
427.44	23.000
427.79	24.337
428.15	24.515
428.50	22.956
428.85	22.666
429.21	23.769
429.56	24.690
429.92	23.729
430.27	23.158
430.62	23.157
430.98	23.992
431.33	24.290
431.68	23.548
432.04	24.651
432.39	23.217
432.74	23.091
433.10	24.310
433.45	22.760
433.80	22.983
434.16	23.380
434.51	24.032
434.86	23.693
435.22	23.724
435.57	24.828
435.92	23.832
436.28	22.660
436.63	24.016
436.98	23.233
437.34	23.714
437.69	24.150
438.04	23.590
438.39	23.274
438.75	23.315
439.10	23.486
439.45	23.250
439.81	23.547
440.16	24.584
440.51	24.478
440.86	24.773
441.22	24.265
441.57	23.841
441.92	24.397
442.27	24.279
442.63	25.161
442.98	23.550
443.33	24.374
443.68	23.926
444.03	25.335
444.39	23.561
444.74	24.526
445.09	25.223
445.44	24.217
445.79	24.600
446.15	23.623
446.50	24.182
446.85	24.070
447.20	23.514
447.55	25.056
447.91	24.196
448.26	23.392
448.61	24.007
448.96	24.269
449.31	23.642
449.66	24.506
450.02	24.701
450.37	23.889
450.72	23.998
451.07	24.367
451.42	23.533
451.77	24.051
452.12	24.103
452.47	23.374
452.83	23.027
453.18	24.225
453.53	24.716
453.88	24.833
454.23	24.462
454.58	25.315
454.93	23.454
455.28	23.175
455.63	24.613
455.98	24.775
456.34	24.393
456.69	25.222
457.04	25.520
457.39	24.301
457.74	24.305
458.09	24.367
458.44	24.283
458.79	24.538
459.14	24.199
459.49	23.642
459.84	25.155
460.19	24.211
460.54	24.389
460.89	25.114
461.24	24.348
461.59	24.347
461.94	24.088
462.29	24.729
462.64	24.518
462.99	25.118
463.34	24.200
463.69	24.646
464.04	25.121
464.39	25.227
464.74	24.847
465.09	25.390
465.44	24.812
465.79	23.810
466.14	25.143
466.49	24.324
466.84	25.045
467.19	24.030
467.54	24.585
467.89	24.510
468.24	24.027
468.59	24.889
468.94	25.016
469.29	24.787
469.64	24.539
469.99	25.718
470.34	23.276
470.68	25.280
471.03	24.841
471.38	25.464
471.73	25.630
472.08	25.034
472.43	23.423
472.78	24.743
473.13	24.898
473.48	24.169
473.83	23.786
474.17	24.806
474.52	24.059
474.87	25.030
475.22	24.161
475.57	24.958
475.92	25.123
476.27	25.204
476.61	24.537
476.96	24.038
477.31	24.932
477.66	24.101
478.01	24.088
478.36	24.074
478.70	24.959
479.05	25.330
479.40	25.013
479.75	24.818
480.10	24.782
480.45	25.150
480.79	25.730
481.14	24.641
481.49	24.138
481.84	24.710
482.19	23.948
482.53	25.132
482.88	24.057
483.23	24.856
483.58	24.434
483.92	24.589
484.27	23.974
484.62	24.204
484.97	24.005
485.31	23.844
485.66	23.724
486.01	24.239
486.36	24.520
486.70	24.847
487.05	24.905
487.40	24.612
487.75	24.704
488.09	24.598
488.44	24.553
488.79	25.028
489.13	25.401
489.48	24.925
489.83	24.439
490.17	24.315
490.52	24.573
490.87	23.461
491.22	24.976
491.56	23.909
491.91	24.379
492.26	25.328
492.60	24.712
492.95	25.529
493.30	24.426
493.64	24.607
493.99	24.010
494.34	24.272
494.68	24.571
495.03	23.650
495.37	24.779
495.72	24.634
496.07	24.098
496.41	25.142
496.76	24.735
497.11	24.499
497.45	25.203
497.80	24.773
498.14	24.739
498.49	23.819
498.84	24.701
499.18	24.498
499.53	25.347
499.87	23.979
500.22	24.283
500.56	24.054
500.91	24.849
501.26	24.815
501.60	24.742
501.95	25.667
502.29	25.036
502.64	25.145
502.98	24.371
503.33	23.535
503.67	24.867
504.02	25.318
504.36	25.383
504.71	23.535
505.06	23.956
505.40	24.518
505.75	24.897
506.09	24.126
506.44	24.743
506.78	25.051
507.13	25.336
507.47	24.230
507.82	25.000
508.16	24.459
508.51	23.977
508.85	25.222
509.19	24.534
509.54	23.914
509.88	24.326
510.23	24.529
510.57	25.494
510.92	23.507
511.26	23.895
511.61	25.083
511.95	24.603
512.30	24.778
512.64	24.318
512.98	23.526
513.33	24.678
513.67	23.707
514.02	25.515
514.36	25.543
514.70	25.583
515.05	25.558
515.39	24.793
515.74	25.808
516.08	24.985
516.42	24.735
516.77	24.985
517.11	25.223
517.46	25.015
517.80	25.864
518.14	25.536
518.49	25.421
518.83	24.241
519.17	24.803
519.52	24.334
519.86	24.430
520.20	25.395
520.55	24.078
520.89	24.153
521.23	25.522
521.58	25.741
521.92	25.128
522.26	24.463
522.61	24.805
522.95	26.225
523.29	25.222
523.64	25.540
523.98	26.636
524.32	24.098
524.66	26.248
525.01	25.390
525.35	25.275
525.69	25.118
526.04	24.735
526.38	26.135
526.72	24.460
527.06	24.773
527.41	25.660
527.75	24.933
528.09	25.714
528.43	25.793
528.78	24.950
529.12	25.613
529.46	25.016
529.80	25.079
530.15	25.941
530.49	24.983
530.83	25.992
531.17	25.185
531.51	25.787
531.86	24.949
532.20	23.939
532.54	25.596
532.88	25.120
533.22	25.403
533.57	25.688
533.91	25.587
534.25	26.237
534.59	24.952
534.93	25.362
535.27	24.810
535.62	24.498
535.96	25.962
536.30	26.781
536.64	25.706
536.98	24.808
537.32	26.387
537.66	25.456
538.01	25.315
538.35	24.688
538.69	25.699
539.03	24.675
539.37	25.101
539.71	26.040
540.05	25.119
540.39	25.762
540.73	26.220
541.07	25.414
541.42	26.478
541.76	25.877
542.10	25.327
542.44	24.322
542.78	24.432
543.12	24.245
543.46	25.591
543.80	24.774
544.14	23.965
544.48	24.983
544.82	25.290
545.16	26.981
545.50	25.768
545.84	26.062
546.18	25.887
546.52	25.523
546.86	25.665
547.20	25.751
547.54	24.806
547.88	25.543
548.22	24.458
548.56	24.934
548.90	25.337
549.24	24.931
549.58	25.317
549.92	25.661
550.26	24.542
550.60	26.617
550.94	25.168
551.28	25.734
551.62	26.000
551.96	26.015
552.30	26.170
552.64	24.471
552.98	25.457
553.32	25.250
553.66	24.601
554.00	25.620
554.34	26.366
554.68	24.410
555.02	24.554
555.36	24.981
555.69	25.641
556.03	25.268
556.37	25.480
556.71	25.848
557.05	26.473
557.39	25.576
557.73	25.337
558.07	25.943
558.41	25.727
558.75	25.955
559.08	25.296
559.42	24.921
559.76	26.581
560.10	24.847
560.44	24.795
560.78	24.965
561.12	25.035
561.45	26.283
561.79	25.980
562.13	25.976
562.47	25.755
562.81	25.720
563.15	26.375
563.48	25.248
563.82	27.385
564.16	25.487
564.50	24.662
564.84	25.435
565.17	25.084
565.51	26.025
565.85	25.789
566.19	25.995
566.52	26.676
566.86	25.900
567.20	25.529
567.54	25.852
567.88	26.186
568.21	26.357
568.55	25.054
568.89	25.873
569.23	25.614
569.56	25.482
569.90	25.741
570.24	25.195
570.57	26.691
570.91	26.490
571.25	25.222
571.59	25.226
571.92	25.452
572.26	25.151
572.60	25.519
572.93	25.416
573.27	25.329
573.61	25.149
573.95	25.560
574.28	25.344
574.62	24.841
574.96	25.031
575.29	24.962
575.63	24.566
575.97	24.858
576.30	25.471
576.64	24.662
576.98	25.380
577.31	25.436
577.65	25.023
577.98	25.402
578.32	24.797
578.66	24.866
578.99	24.731
579.33	24.756
579.67	25.107
580.00	25.013
580.34	25.348
580.67	24.555
581.01	25.312
581.35	25.000
581.68	25.448
582.02	25.344
582.35	25.107
582.69	25.438
583.02	25.144
583.36	25.053
583.70	26.116
584.03	25.771
584.37	25.805
584.70	25.907
585.04	24.793
585.37	25.135
585.71	25.105
586.04	24.887
586.38	24.940
586.72	25.395
587.05	25.708
587.39	25.552
587.72	25.560
588.06	25.685
588.39	25.520
588.73	25.672
589.06	26.256
589.40	25.994
589.73	26.177
590.07	25.944
590.40	25.929
590.73	26.318
591.07	25.954
591.40	25.735
591.74	26.018
592.07	26.623
592.41	26.325
592.74	24.970
593.08	25.148
593.41	25.568
593.75	25.352
594.08	25.060
594.41	25.691
594.75	26.336
595.08	25.918
595.42	26.205
595.75	25.573
596.09	26.505
596.42	26.209
596.75	25.755
597.09	25.786
597.42	26.332
597.75	25.653
598.09	25.260
598.42	25.587
598.76	25.783
599.09	25.641
599.42	25.237
599.76	25.395
600.09	25.264
600.42	25.625
600.76	25.557
601.09	25.687
601.42	25.108
601.76	25.804
602.09	25.083
602.42	26.369
602.76	26.146
603.09	25.498
603.42	26.589
603.76	25.121
604.09	25.840
604.42	26.607
604.76	26.658
605.09	25.868
605.42	25.508
605.75	25.175
606.09	26.200
606.42	25.980
606.75	26.104
607.09	25.538
607.42	25.786
607.75	26.243
608.08	25.382
608.42	25.582
608.75	25.880
609.08	25.660
609.41	26.142
609.75	26.310
610.08	26.161
610.41	25.024
610.74	25.451
611.07	26.925
611.41	26.518
611.74	26.333
612.07	25.910
612.40	26.039
612.73	25.819
613.07	25.478
613.40	26.860
613.73	25.686
614.06	26.099
614.39	26.170
614.72	26.106
615.06	26.201
615.39	24.563
615.72	25.727
616.05	26.536
616.38	24.729
616.71	26.483
617.05	25.880
617.38	26.587
617.71	26.038
618.04	26.667
618.37	27.238
618.70	26.733
619.03	26.181
619.36	26.411
619.69	26.611
620.03	26.443
620.36	26.466
620.69	25.839
621.02	25.994
621.35	26.058
621.68	26.361
622.01	26.750
622.34	26.496
622.67	26.025
623.00	27.029
623.33	26.448
623.66	25.879
623.99	25.719
624.32	27.148
624.65	25.865
624.99	26.712
625.32	26.080
625.65	26.394
625.98	26.189
626.31	26.683
626.64	26.863
626.97	27.051
627.30	25.394
627.63	26.776
627.96	27.134
628.29	26.272
628.62	26.450
628.95	27.255
629.28	26.613
629.61	27.318
629.94	27.859
630.26	26.482
630.59	27.055
630.92	26.359
631.25	26.051
631.58	27.423
631.91	25.329
632.24	26.491
632.57	26.818
632.90	27.046
633.23	26.941
633.56	26.952
