SpectraSuite Data File
++++++++++++++++++++++++++++++++++++
Date: Fri May 15 20:39:11 PDT 2015
User: schluterlab
Dark Spectrum Present: Yes
Reference Spectrum Present: Yes
Number of Sampled Component Spectra: 1
Spectrometers: USB2E3373
Integration Time (usec): 3000 (USB2E3373)
Spectra Averaged: 3 (USB2E3373)
Boxcar Smoothing: 0 (USB2E3373)
Correct for Electrical Dark: No (USB2E3373)
Strobe/Lamp Enabled: No (USB2E3373)
Correct for Detector Non-linearity: No (USB2E3373)
Correct for Stray Light: No (USB2E3373)
Number of Pixels in Processed Spectrum: 2048
>>>>>Begin Processed Spectral Data<<<<<
178.53	0.000
178.91	0.000
179.29	25.000
179.67	-50.000
180.04	14.286
180.42	275.000
180.80	-300.000
181.18	100.000
181.56	500.000
181.94	300.000
182.31	-200.000
182.69	-100.000
183.07	-33.333
183.45	-120.000
183.83	83.333
184.20	9.091
184.58	122.222
184.96	-75.000
185.34	166.667
185.72	-450.000
186.09	161.538
186.47	-700.000
186.85	83.333
187.23	111.111
187.61	-100.000
187.98	-166.667
188.36	-11.111
188.74	-66.667
189.12	5.882
189.49	33.333
189.87	0.000
190.25	14.286
190.63	700.000
191.00	200.000
191.38	-5.263
191.76	350.000
192.14	250.000
192.51	-100.000
192.89	-22.222
193.27	-100.000
193.65	150.000
194.02	145.455
194.40	20.000
194.78	0.000
195.15	-50.000
195.53	-100.000
195.91	350.000
196.29	25.000
196.66	130.769
197.04	100.000
197.42	-122.222
197.79	-700.000
198.17	-123.077
198.55	300.000
198.92	-233.333
199.30	200.000
199.68	-200.000
200.05	-300.000
200.43	0.000
200.81	33.333
201.18	-333.333
201.56	1200.000
201.94	-150.000
202.31	-66.667
202.69	-280.000
203.07	50.000
203.44	0.000
203.82	0.000
204.19	35.714
204.57	-533.333
204.95	50.000
205.32	-20.000
205.70	71.429
206.08	-175.000
206.45	111.111
206.83	-14.286
207.20	-114.286
207.58	600.000
207.96	-233.333
208.33	-130.000
208.71	-300.000
209.08	-66.667
209.46	-1200.000
209.84	0.000
210.21	-1500.000
210.59	28.571
210.96	33.333
211.34	100.000
211.71	80.000
212.09	-142.857
212.46	-1300.000
212.84	0.000
213.22	120.000
213.59	250.000
213.97	15.385
214.34	-54.545
214.72	-133.333
215.09	500.000
215.47	0.000
215.84	9.091
216.22	-133.333
216.59	-25.000
216.97	-100.000
217.34	-100.000
217.72	-360.000
218.09	75.000
218.47	100.000
218.84	-200.000
219.22	-11.111
219.59	-240.000
219.97	100.000
220.34	275.000
220.72	28.571
221.09	-200.000
221.47	100.000
221.84	-600.000
222.22	-750.000
222.59	-9.091
222.97	-58.333
223.34	-266.667
223.72	-50.000
224.09	-28.571
224.46	46.429
224.84	300.000
225.21	20.000
225.59	6.667
225.96	-500.000
226.34	325.000
226.71	-114.286
227.08	16.667
227.46	-25.000
227.83	-600.000
228.21	-11.111
228.58	-81.818
228.95	50.000
229.33	120.000
229.70	-37.500
230.08	-112.500
230.45	-128.571
230.82	-28.571
231.20	-13.333
231.57	14.286
231.95	142.857
232.32	-210.000
232.69	-14.286
233.07	-366.667
233.44	-100.000
233.81	-60.000
234.19	-66.667
234.56	-58.824
234.93	200.000
235.31	125.000
235.68	0.000
236.05	-107.692
236.43	-40.000
236.80	-64.706
237.17	-18.750
237.55	-45.000
237.92	-48.148
238.29	-5.556
238.67	20.000
239.04	-2.941
239.41	-14.634
239.79	-3.333
240.16	-14.634
240.53	-23.684
240.91	-10.870
241.28	-4.762
241.65	16.071
242.02	12.329
242.40	16.667
242.77	0.000
243.14	-12.121
243.51	0.000
243.89	3.448
244.26	1.149
244.63	7.143
245.00	4.124
245.38	-2.062
245.75	-15.730
246.12	0.862
246.49	2.479
246.87	8.654
247.24	-5.042
247.61	-10.526
247.98	6.504
248.36	1.875
248.73	7.237
249.10	-0.649
249.47	3.797
249.84	-1.307
250.22	0.000
250.59	7.190
250.96	5.634
251.33	-1.744
251.70	2.941
252.08	-2.538
252.45	3.465
252.82	2.513
253.19	3.687
253.56	-1.869
253.94	3.153
254.31	4.783
254.68	7.456
255.05	3.543
255.42	1.747
255.79	3.861
256.16	-1.167
256.54	9.328
256.91	1.901
257.28	4.089
257.65	-0.749
258.02	1.418
258.39	4.714
258.76	6.227
259.14	2.990
259.51	3.236
259.88	1.718
260.25	0.980
260.62	6.250
260.99	-2.373
261.36	-1.712
261.73	2.215
262.10	3.343
262.47	2.454
262.85	1.881
263.22	0.308
263.59	0.935
263.96	3.727
264.33	2.727
264.70	1.190
265.07	3.869
265.44	4.249
265.81	0.565
266.18	2.732
266.55	4.627
266.92	2.332
267.29	2.611
267.66	1.279
268.03	4.188
268.40	1.305
268.77	5.348
269.14	2.878
269.51	3.856
269.88	1.995
270.25	2.041
270.62	2.195
270.99	0.512
271.36	3.912
271.73	3.756
272.10	2.190
272.47	4.255
272.84	1.238
273.21	4.872
273.58	2.651
273.95	4.348
274.32	0.924
274.69	0.452
275.06	3.795
275.43	3.628
275.80	1.766
276.17	2.069
276.54	3.426
276.91	4.167
277.28	0.218
277.65	4.132
278.02	1.915
278.39	2.626
278.76	3.983
279.13	1.867
279.50	3.782
279.87	5.400
280.23	3.441
280.60	3.509
280.97	2.424
281.34	2.115
281.71	4.107
282.08	3.476
282.45	1.174
282.82	1.931
283.19	6.190
283.56	0.963
283.92	1.518
284.29	0.769
284.66	2.326
285.03	3.340
285.40	0.945
285.77	3.691
286.14	2.888
286.51	5.351
286.87	2.559
287.24	2.210
287.61	3.351
287.98	5.439
288.35	2.946
288.72	2.627
289.08	4.688
289.45	2.636
289.82	3.147
290.19	3.242
290.56	1.887
290.93	2.020
291.29	3.236
291.66	2.992
292.03	1.595
292.40	2.903
292.77	1.435
293.13	-0.162
293.50	1.366
293.87	3.359
294.24	2.473
294.60	2.683
294.97	2.976
295.34	1.380
295.71	3.428
296.08	0.299
296.44	1.280
296.81	1.250
297.18	1.739
297.55	2.168
297.91	2.192
298.28	3.562
298.65	3.121
299.02	2.830
299.38	-0.410
299.75	3.310
300.12	1.440
300.48	1.449
300.85	3.802
301.22	0.779
301.59	2.368
301.95	1.899
302.32	4.280
302.69	2.488
303.05	2.104
303.42	2.366
303.79	2.336
304.15	4.659
304.52	1.665
304.89	2.339
305.25	2.179
305.62	0.817
305.99	1.520
306.35	0.925
306.72	2.137
307.09	2.166
307.45	2.870
307.82	0.926
308.19	2.671
308.55	1.636
308.92	1.852
309.29	1.453
309.65	1.076
310.02	2.420
310.38	2.634
310.75	2.842
311.12	2.045
311.48	1.379
311.85	2.408
312.22	0.949
312.58	1.805
312.95	1.921
313.31	1.035
313.68	2.513
314.05	2.347
314.41	1.959
314.78	2.268
315.14	2.158
315.51	2.692
315.87	1.434
316.24	4.752
316.61	2.264
316.97	2.877
317.34	3.320
317.70	1.434
318.07	1.058
318.43	2.941
318.80	2.083
319.16	2.344
319.53	3.419
319.89	3.543
320.26	2.530
320.62	3.109
320.99	1.670
321.35	3.392
321.72	3.323
322.08	2.417
322.45	3.249
322.81	1.473
323.18	1.668
323.54	2.027
323.91	2.337
324.27	3.125
324.64	2.903
325.00	2.828
325.37	3.673
325.73	2.539
326.10	2.725
326.46	3.318
326.83	3.412
327.19	3.487
327.56	3.475
327.92	3.873
328.29	3.571
328.65	2.925
329.01	2.390
329.38	3.318
329.74	2.833
330.11	3.336
330.47	2.690
330.84	2.308
331.20	3.042
331.56	3.519
331.93	4.384
332.29	3.941
332.66	3.348
333.02	3.996
333.38	3.208
333.75	3.663
334.11	3.312
334.48	4.261
334.84	3.571
335.20	3.019
335.57	3.264
335.93	3.523
336.29	4.236
336.66	2.906
337.02	3.067
337.38	3.796
337.75	3.455
338.11	3.336
338.47	2.920
338.84	4.251
339.20	3.565
339.56	2.936
339.93	4.118
340.29	3.761
340.65	3.763
341.02	3.369
341.38	4.071
341.74	2.562
342.11	3.120
342.47	2.580
342.83	4.325
343.20	2.875
343.56	3.304
343.92	3.277
344.28	3.843
344.65	3.454
345.01	3.371
345.37	3.448
345.73	4.435
346.10	3.106
346.46	4.205
346.82	3.110
347.19	2.743
347.55	3.342
347.91	3.317
348.27	4.123
348.63	2.555
349.00	3.035
349.36	1.829
349.72	3.648
350.08	4.180
350.45	3.352
350.81	2.243
351.17	3.013
351.53	3.755
351.89	4.046
352.26	3.440
352.62	3.629
352.98	3.373
353.34	2.979
353.70	3.803
354.07	3.790
354.43	3.683
354.79	3.055
355.15	3.810
355.51	3.718
355.87	3.398
356.24	2.773
356.60	3.234
356.96	4.365
357.32	2.955
357.68	3.049
358.04	2.342
358.40	2.894
358.77	3.509
359.13	3.523
359.49	2.388
359.85	2.964
360.21	3.030
360.57	2.754
360.93	3.404
361.29	2.115
361.66	3.213
362.02	3.409
362.38	3.199
362.74	2.650
363.10	3.010
363.46	2.891
363.82	4.433
364.18	3.469
364.54	2.426
364.90	2.222
365.26	3.566
365.62	3.650
365.98	2.419
366.35	3.350
366.71	2.882
367.07	3.338
367.43	3.091
367.79	3.039
368.15	3.015
368.51	3.277
368.87	2.297
369.23	2.310
369.59	3.061
369.95	3.079
370.31	3.757
370.67	3.134
371.03	1.494
371.39	2.845
371.75	2.857
372.11	3.281
372.47	2.441
372.83	3.052
373.19	4.066
373.55	2.310
373.91	3.168
374.27	3.047
374.63	3.015
374.99	2.979
375.35	2.089
375.71	3.287
376.07	3.020
376.42	3.741
376.78	3.826
377.14	2.844
377.50	3.121
377.86	2.610
378.22	3.127
378.58	2.179
378.94	3.718
379.30	2.682
379.66	3.824
380.02	2.514
380.38	3.165
380.74	2.753
381.09	4.233
381.45	2.936
381.81	2.529
382.17	3.490
382.53	2.811
382.89	2.260
383.25	3.485
383.61	3.537
383.97	2.159
384.32	2.564
384.68	3.406
385.04	2.574
385.40	2.116
385.76	3.648
386.12	3.234
386.48	2.746
386.83	2.156
387.19	3.724
387.55	3.011
387.91	2.812
388.27	3.602
388.62	3.713
388.98	2.762
389.34	2.748
389.70	3.232
390.06	2.517
390.42	3.562
390.77	2.485
391.13	2.081
391.49	2.264
391.85	2.794
392.20	2.574
392.56	2.606
392.92	3.406
393.28	2.594
393.64	2.883
393.99	3.699
394.35	2.277
394.71	3.321
395.07	2.514
395.42	2.793
395.78	2.345
396.14	2.837
396.50	3.044
396.85	2.769
397.21	2.569
397.57	3.072
397.92	2.756
398.28	2.874
398.64	2.831
399.00	3.104
399.35	2.144
399.71	2.700
400.07	3.023
400.42	2.999
400.78	2.694
401.14	3.267
401.49	3.931
401.85	2.803
402.21	3.193
402.57	2.938
402.92	2.133
403.28	2.945
403.63	2.774
403.99	2.105
404.35	2.811
404.70	2.560
405.06	3.173
405.42	2.983
405.77	1.917
406.13	2.503
406.49	2.783
406.84	2.445
407.20	3.251
407.55	1.996
407.91	2.807
408.27	2.422
408.62	3.446
408.98	2.588
409.34	3.408
409.69	2.713
410.05	2.648
410.40	3.148
410.76	3.257
411.11	2.562
411.47	3.616
411.83	2.134
412.18	2.638
412.54	3.059
412.89	1.847
413.25	3.490
413.60	2.919
413.96	3.006
414.31	3.537
414.67	2.951
415.03	2.796
415.38	3.264
415.74	3.062
416.09	3.462
416.45	2.701
416.80	2.776
417.16	2.555
417.51	3.264
417.87	2.542
418.22	3.756
418.58	2.809
418.93	3.386
419.29	2.497
419.64	2.528
420.00	3.841
420.35	3.761
420.71	3.645
421.06	3.376
421.42	3.846
421.77	3.064
422.12	2.838
422.48	3.086
422.83	3.190
423.19	3.160
423.54	2.587
423.90	2.945
424.25	3.559
424.61	3.182
424.96	2.962
425.31	4.159
425.67	2.817
426.02	2.768
426.38	2.943
426.73	3.874
427.09	3.861
427.44	4.235
427.79	3.123
428.15	3.883
428.50	3.331
428.85	3.133
429.21	3.905
429.56	3.504
429.92	3.903
430.27	3.759
430.62	2.823
430.98	3.185
431.33	4.364
431.68	3.872
432.04	2.907
432.39	3.423
432.74	3.127
433.10	4.828
433.45	3.286
433.80	3.482
434.16	2.936
434.51	3.763
434.86	3.426
435.22	3.758
435.57	2.932
435.92	4.012
436.28	3.637
436.63	3.879
436.98	3.244
437.34	3.025
437.69	3.697
438.04	3.476
438.39	3.177
438.75	3.400
439.10	3.565
439.45	4.321
439.81	2.813
440.16	3.207
440.51	4.358
440.86	5.136
441.22	3.733
441.57	3.311
441.92	4.355
442.27	4.213
442.63	4.764
442.98	3.619
443.33	3.895
443.68	3.767
444.03	3.924
444.39	3.984
444.74	4.404
445.09	4.343
445.44	3.533
445.79	4.435
446.15	4.130
446.50	3.328
446.85	3.879
447.20	3.597
447.55	4.241
447.91	4.061
448.26	5.122
448.61	4.836
448.96	3.844
449.31	3.353
449.66	3.659
450.02	4.392
450.37	3.794
450.72	4.582
451.07	4.494
451.42	3.995
451.77	4.521
452.12	4.127
452.47	3.284
452.83	3.651
453.18	3.858
453.53	4.235
453.88	4.554
454.23	4.179
454.58	4.660
454.93	4.704
455.28	3.492
455.63	4.650
455.98	4.931
456.34	4.406
456.69	4.447
457.04	4.915
457.39	3.767
457.74	4.353
458.09	3.237
458.44	4.037
458.79	4.482
459.14	4.748
459.49	5.254
459.84	4.963
460.19	4.369
460.54	3.851
460.89	4.432
461.24	4.472
461.59	5.226
461.94	4.025
462.29	4.463
462.64	4.983
462.99	4.807
463.34	4.172
463.69	4.183
464.04	4.903
464.39	4.124
464.74	4.663
465.09	4.803
465.44	5.136
465.79	3.798
466.14	4.846
466.49	5.290
466.84	4.997
467.19	4.443
467.54	4.406
467.89	3.980
468.24	4.927
468.59	5.143
468.94	4.825
469.29	5.049
469.64	5.400
469.99	5.256
470.34	4.505
470.68	4.922
471.03	5.096
471.38	4.422
471.73	5.252
472.08	4.613
472.43	4.094
472.78	4.455
473.13	4.762
473.48	5.798
473.83	4.670
474.17	4.987
474.52	5.361
474.87	4.545
475.22	4.698
475.57	4.856
475.92	4.717
476.27	5.064
476.61	5.035
476.96	4.964
477.31	5.408
477.66	4.888
478.01	4.660
478.36	4.956
478.70	4.894
479.05	5.604
479.40	5.246
479.75	4.692
480.10	5.376
480.45	5.050
480.79	5.841
481.14	5.686
481.49	4.828
481.84	3.861
482.19	5.519
482.53	5.084
482.88	5.537
483.23	5.038
483.58	5.613
483.92	4.792
484.27	5.469
484.62	4.931
484.97	5.265
485.31	4.733
485.66	4.809
486.01	5.028
486.36	4.974
486.70	5.117
487.05	4.869
487.40	5.145
487.75	5.014
488.09	5.068
488.44	5.158
488.79	5.043
489.13	5.609
489.48	4.746
489.83	5.247
490.17	4.989
490.52	5.312
490.87	5.553
491.22	5.253
491.56	4.934
491.91	5.163
492.26	5.105
492.60	5.326
492.95	5.755
493.30	5.178
493.64	4.813
493.99	5.700
494.34	5.340
494.68	4.524
495.03	4.623
495.37	5.692
495.72	5.755
496.07	5.610
496.41	5.189
496.76	5.435
497.11	5.123
497.45	4.821
497.80	5.550
498.14	5.514
498.49	5.688
498.84	5.489
499.18	5.221
499.53	5.704
499.87	4.961
500.22	5.242
500.56	5.396
500.91	5.271
501.26	5.091
501.60	4.968
501.95	5.580
502.29	5.230
502.64	5.502
502.98	5.081
503.33	5.331
503.67	5.542
504.02	6.061
504.36	5.888
504.71	5.707
505.06	5.385
505.40	5.635
505.75	5.258
506.09	4.967
506.44	6.109
506.78	6.071
507.13	5.843
507.47	5.222
507.82	4.274
508.16	5.547
508.51	6.401
508.85	5.861
509.19	4.949
509.54	5.684
509.88	5.448
510.23	5.702
510.57	5.826
510.92	5.224
511.26	5.237
511.61	5.666
511.95	5.863
512.30	6.042
512.64	6.344
512.98	5.334
513.33	6.379
513.67	4.946
514.02	6.865
514.36	6.114
514.70	6.410
515.05	6.404
515.39	6.139
515.74	6.168
516.08	5.738
516.42	7.126
516.77	6.144
517.11	5.697
517.46	6.164
517.80	6.436
518.14	6.552
518.49	5.769
518.83	5.954
519.17	5.822
519.52	6.039
519.86	5.942
520.20	6.318
520.55	5.253
520.89	6.775
521.23	6.460
521.58	6.751
521.92	6.474
522.26	6.506
522.61	6.234
522.95	6.225
523.29	7.116
523.64	6.989
523.98	6.935
524.32	5.992
524.66	6.594
525.01	7.338
525.35	6.935
525.69	6.465
526.04	5.820
526.38	7.847
526.72	6.017
527.06	6.291
527.41	6.135
527.75	6.032
528.09	7.176
528.43	7.562
528.78	6.469
529.12	6.710
529.46	6.303
529.80	7.346
530.15	6.535
530.49	6.936
530.83	6.772
531.17	6.917
531.51	7.045
531.86	5.846
532.20	7.029
532.54	6.739
532.88	6.913
533.22	6.989
533.57	6.750
533.91	6.136
534.25	7.487
534.59	6.928
534.93	7.048
535.27	7.487
535.62	6.610
535.96	6.915
536.30	6.992
536.64	7.305
536.98	7.456
537.32	7.041
537.66	8.345
538.01	6.923
538.35	6.796
538.69	7.523
539.03	6.835
539.37	8.008
539.71	7.635
540.05	7.739
540.39	7.618
540.73	8.438
541.07	7.251
541.42	8.065
541.76	7.571
542.10	7.020
542.44	7.644
542.78	5.781
543.12	7.005
543.46	7.580
543.80	7.564
544.14	6.609
544.48	7.595
544.82	7.382
545.16	6.899
545.50	7.677
545.84	7.790
546.18	7.447
546.52	7.570
546.86	7.189
547.20	7.010
547.54	6.290
547.88	6.861
548.22	7.035
548.56	7.190
548.90	7.412
549.24	7.094
549.58	7.546
549.92	7.076
550.26	6.667
550.60	7.584
550.94	6.572
551.28	6.878
551.62	6.769
551.96	7.368
552.30	6.725
552.64	7.334
552.98	7.876
553.32	7.061
553.66	7.039
554.00	6.788
554.34	7.607
554.68	7.153
555.02	7.515
555.36	6.507
555.69	6.813
556.03	7.495
556.37	7.189
556.71	7.365
557.05	7.383
557.39	6.245
557.73	8.021
558.07	6.938
558.41	7.121
558.75	6.703
559.08	6.935
559.42	6.905
559.76	6.325
560.10	6.498
560.44	7.446
560.78	8.042
561.12	6.488
561.45	7.168
561.79	7.003
562.13	7.594
562.47	6.475
562.81	7.853
563.15	7.334
563.48	7.567
563.82	7.550
564.16	6.964
564.50	6.892
564.84	6.894
565.17	7.378
565.51	8.060
565.85	7.476
566.19	7.361
566.52	6.434
566.86	7.519
567.20	6.787
567.54	6.934
567.88	6.737
568.21	7.296
568.55	7.554
568.89	7.444
569.23	7.126
569.56	7.312
569.90	6.821
570.24	6.997
570.57	7.018
570.91	6.797
571.25	6.643
571.59	6.883
571.92	6.667
572.26	6.673
572.60	6.915
572.93	6.746
573.27	6.144
573.61	6.951
573.95	6.881
574.28	6.912
574.62	6.484
574.96	6.856
575.29	7.042
575.63	6.375
575.97	6.696
576.30	6.550
576.64	6.887
576.98	7.053
577.31	6.758
577.65	6.858
577.98	6.826
578.32	6.715
578.66	6.490
578.99	6.575
579.33	6.495
579.67	6.586
580.00	6.886
580.34	6.567
580.67	6.602
581.01	6.484
581.35	6.826
581.68	6.770
582.02	6.717
582.35	6.741
582.69	6.506
583.02	6.452
583.36	6.600
583.70	7.009
584.03	7.117
584.37	7.199
584.70	6.621
585.04	6.632
585.37	6.732
585.71	6.344
586.04	6.833
586.38	6.482
586.72	7.059
587.05	6.904
587.39	6.654
587.72	7.162
588.06	6.781
588.39	6.722
588.73	6.838
589.06	7.273
589.40	7.086
589.73	6.937
590.07	7.251
590.40	7.198
590.73	7.331
591.07	7.082
591.40	7.035
591.74	7.376
592.07	7.514
592.41	7.111
592.74	6.930
593.08	6.567
593.41	6.919
593.75	6.771
594.08	6.694
594.41	6.987
594.75	6.374
595.08	6.583
595.42	7.361
595.75	6.384
596.09	7.428
596.42	6.862
596.75	6.794
597.09	7.380
597.42	6.369
597.75	7.146
598.09	7.017
598.42	7.265
598.76	6.778
599.09	7.212
599.42	7.048
599.76	6.960
600.09	6.712
600.42	6.748
600.76	6.649
601.09	6.794
601.42	6.463
601.76	6.868
602.09	6.724
602.42	6.950
602.76	7.131
603.09	7.184
603.42	7.274
603.76	6.331
604.09	6.642
604.42	6.853
604.76	7.076
605.09	7.221
605.42	6.817
605.75	6.524
606.09	6.667
606.42	6.839
606.75	7.056
607.09	7.077
607.42	6.114
607.75	6.794
608.08	6.514
608.42	6.670
608.75	6.843
609.08	6.976
609.41	6.904
609.75	7.560
610.08	6.291
610.41	6.860
610.74	6.680
611.07	6.357
611.41	6.435
611.74	7.196
612.07	6.585
612.40	6.838
612.73	6.836
613.07	6.749
613.40	8.206
613.73	6.100
614.06	6.956
614.39	7.501
614.72	6.555
615.06	6.425
615.39	6.277
615.72	6.512
616.05	6.592
616.38	5.869
616.71	7.645
617.05	6.424
617.38	7.165
617.71	7.799
618.04	6.921
618.37	6.873
618.70	6.931
619.03	7.500
619.36	6.223
619.69	6.975
620.03	7.597
620.36	6.795
620.69	6.924
621.02	7.492
621.35	7.469
621.68	6.803
622.01	6.167
622.34	7.263
622.67	6.782
623.00	6.585
623.33	7.088
623.66	6.507
623.99	6.959
624.32	6.920
624.65	5.865
624.99	7.374
625.32	5.307
625.65	6.991
625.98	6.608
626.31	6.068
626.64	7.972
626.97	6.632
627.30	7.093
627.63	6.153
627.96	6.918
628.29	6.660
628.62	6.883
628.95	6.413
629.28	6.452
629.61	7.278
629.94	7.625
630.26	6.423
630.59	7.180
630.92	7.179
631.25	7.282
631.58	7.048
631.91	6.798
632.24	5.275
632.57	7.841
632.90	6.762
633.23	7.176
633.56	6.927
633.89	5.795
634.22	6.173
634.55	6.226
634.88	5.236
635.20	5.128
635.53	7.867
635.86	7.412
636.19	8.150
636.52	5.230
636.85	6.700
637.18	5.912
637.51	6.667
637.83	7.359
638.16	7.776
638.49	6.540
638.82	8.158
639.15	5.563
639.48	7.290
639.81	6.276
640.13	7.504
640.46	7.580
640.79	4.418
641.12	6.499
641.45	6.306
641.77	5.333
642.10	6.635
642.43	8.682
642.76	9.241
643.09	7.593
643.41	6.311
643.74	7.249
644.07	7.718
644.40	7.432
644.73	7.180
645.05	7.550
645.38	10.053
645.71	5.142
646.04	8.438
646.36	5.496
646.69	7.914
647.02	7.940
647.35	9.888
647.67	8.410
648.00	6.157
648.33	7.509
648.66	5.593
648.98	3.685
649.31	5.455
649.64	5.965
649.96	5.835
650.29	9.199
650.62	7.692
650.94	5.185
651.27	6.704
651.60	7.928
651.92	8.392
652.25	6.039
652.58	6.500
652.90	8.405
653.23	6.050
653.56	6.091
653.88	7.045
654.21	4.378
654.54	6.961
654.86	7.470
655.19	6.433
655.52	6.889
655.84	5.574
656.17	6.216
656.49	8.339
656.82	8.688
657.15	6.603
657.47	4.940
657.80	3.690
658.13	3.654
658.45	5.510
