SpectraSuite Data File
++++++++++++++++++++++++++++++++++++
Date: Fri May 15 20:59:38 PDT 2015
User: schluterlab
Dark Spectrum Present: Yes
Reference Spectrum Present: Yes
Number of Sampled Component Spectra: 1
Spectrometers: USB2E3373
Integration Time (usec): 3000 (USB2E3373)
Spectra Averaged: 3 (USB2E3373)
Boxcar Smoothing: 0 (USB2E3373)
Correct for Electrical Dark: No (USB2E3373)
Strobe/Lamp Enabled: No (USB2E3373)
Correct for Detector Non-linearity: No (USB2E3373)
Correct for Stray Light: No (USB2E3373)
Number of Pixels in Processed Spectrum: 2048
>>>>>Begin Processed Spectral Data<<<<<
178.53	0.000
178.91	0.000
179.29	62.500
179.67	-250.000
180.04	100.000
180.42	-175.000
180.80	300.000
181.18	433.333
181.56	700.000
181.94	-450.000
182.31	100.000
182.69	0.000
183.07	-366.667
183.45	-160.000
183.83	183.333
184.20	-27.273
184.58	155.556
184.96	50.000
185.34	-33.333
185.72	-550.000
186.09	107.692
186.47	-900.000
186.85	150.000
187.23	111.111
187.61	500.000
187.98	-500.000
188.36	-44.444
188.74	-333.333
189.12	17.647
189.49	5.556
189.87	0.000
190.25	7.143
190.63	150.000
191.00	-100.000
191.38	26.316
191.76	-550.000
192.14	250.000
192.51	250.000
192.89	-44.444
193.27	-157.143
193.65	233.333
194.02	127.273
194.40	10.000
194.78	-225.000
195.15	-25.000
195.53	-162.500
195.91	450.000
196.29	-75.000
196.66	146.154
197.04	242.857
197.42	-22.222
197.79	-666.667
198.17	-146.154
198.55	900.000
198.92	-400.000
199.30	-300.000
199.68	-320.000
200.05	-366.667
200.43	0.000
200.81	-366.667
201.18	-66.667
201.56	1800.000
201.94	-150.000
202.31	-66.667
202.69	-320.000
203.07	225.000
203.44	300.000
203.82	0.000
204.19	-71.429
204.57	-533.333
204.95	200.000
205.32	-110.000
205.70	14.286
206.08	-25.000
206.45	88.889
206.83	121.429
207.20	-214.286
207.58	1300.000
207.96	0.000
208.33	-130.000
208.71	-50.000
209.08	-183.333
209.46	-800.000
209.84	-100.000
210.21	-1800.000
210.59	128.571
210.96	-50.000
211.34	0.000
211.71	6.667
212.09	-171.429
212.46	-900.000
212.84	0.000
213.22	-30.000
213.59	850.000
213.97	38.462
214.34	-27.273
214.72	-216.667
215.09	450.000
215.47	69.231
215.84	-45.455
216.22	-266.667
216.59	50.000
216.97	-550.000
217.34	-150.000
217.72	-160.000
218.09	-12.500
218.47	125.000
218.84	-1500.000
219.22	-33.333
219.59	20.000
219.97	566.667
220.34	400.000
220.72	-157.143
221.09	-100.000
221.47	0.000
221.84	-1050.000
222.22	-650.000
222.59	0.000
222.97	25.000
223.34	-333.333
223.72	-28.571
224.09	9.524
224.46	10.714
224.84	733.333
225.21	-90.000
225.59	-66.667
225.96	-650.000
226.34	350.000
226.71	-14.286
227.08	-33.333
227.46	-100.000
227.83	-750.000
228.21	-44.444
228.58	18.182
228.95	-62.500
229.33	80.000
229.70	18.750
230.08	-137.500
230.45	-42.857
230.82	-28.571
231.20	0.000
231.57	-42.857
231.95	-142.857
232.32	-120.000
232.69	-14.286
233.07	33.333
233.44	-40.000
233.81	-110.000
234.19	-133.333
234.56	-41.176
234.93	50.000
235.31	100.000
235.68	-200.000
236.05	-146.154
236.43	-45.000
236.80	-47.059
237.17	0.000
237.55	0.000
237.92	-11.111
238.29	-2.778
238.67	10.000
239.04	11.765
239.41	-41.463
239.79	-40.000
240.16	14.634
240.53	-26.316
240.91	-19.565
241.28	11.111
241.65	3.571
242.02	5.479
242.40	6.667
242.77	-32.203
243.14	-19.697
243.51	1.250
243.89	1.149
244.26	-9.195
244.63	-10.714
245.00	-12.371
245.38	-3.093
245.75	-17.978
246.12	1.724
246.49	3.306
246.87	-1.923
247.24	-9.244
247.61	-11.404
247.98	-7.317
248.36	-3.750
248.73	-3.947
249.10	-5.844
249.47	-0.633
249.84	-11.111
250.22	2.353
250.59	-0.654
250.96	6.573
251.33	-0.581
251.70	-4.706
252.08	-2.538
252.45	0.495
252.82	-4.020
253.19	-4.608
253.56	-5.607
253.94	-1.351
254.31	0.000
254.68	4.386
255.05	1.969
255.42	-4.803
255.79	3.089
256.16	-3.502
256.54	-1.119
256.91	-2.281
257.28	-3.346
257.65	-0.749
258.02	-3.901
258.39	1.684
258.76	-3.297
259.14	0.997
259.51	1.618
259.88	-3.093
260.25	-1.634
260.62	0.000
260.99	-3.729
261.36	-5.137
261.73	-3.165
262.10	0.912
262.47	-1.534
262.85	-0.627
263.22	-2.769
263.59	0.935
263.96	-0.621
264.33	-0.606
264.70	-1.786
265.07	-0.298
265.44	0.283
265.81	-0.282
266.18	-1.093
266.55	2.314
266.92	-0.518
267.29	-1.044
267.66	-1.279
268.03	-0.524
268.40	-3.394
268.77	1.337
269.14	-2.398
269.51	-0.514
269.88	0.499
270.25	-3.061
270.62	0.732
270.99	-0.256
271.36	-4.645
271.73	0.235
272.10	-0.487
272.47	0.000
272.84	-2.970
273.21	2.088
273.58	-0.964
273.95	0.915
274.32	-1.155
274.69	-2.036
275.06	-0.223
275.43	-1.134
275.80	-1.104
276.17	-3.448
276.54	1.285
276.91	-0.439
277.28	-0.655
277.65	2.686
278.02	1.489
278.39	-0.219
278.76	0.419
279.13	-2.905
279.50	0.630
279.87	1.512
280.23	0.860
280.60	1.754
280.97	1.616
281.34	-0.385
281.71	2.053
282.08	-1.431
282.45	-0.196
282.82	0.579
283.19	1.934
283.56	-0.385
283.92	-2.087
284.29	1.154
284.66	-0.775
285.03	-2.554
285.40	-0.756
285.77	-0.527
286.14	-0.181
286.51	1.476
286.87	0.731
287.24	0.000
287.61	-1.058
287.98	0.175
288.35	-0.520
288.72	2.802
289.08	0.521
289.45	1.406
289.82	0.175
290.19	0.000
290.56	-1.029
290.93	-1.010
291.29	0.462
291.66	0.945
292.03	-0.159
292.40	0.806
292.77	1.276
293.13	-3.247
293.50	-1.973
293.87	-0.916
294.24	-0.464
294.60	0.298
294.97	0.744
295.34	0.613
295.71	0.298
296.08	0.747
296.44	-0.711
296.81	0.278
297.18	-1.304
297.55	0.813
297.91	1.096
298.28	1.715
298.65	0.000
299.02	-0.270
299.38	-1.778
299.75	-0.828
300.12	-1.047
300.48	-2.240
300.85	0.760
301.22	-0.130
301.59	-0.132
301.95	1.013
302.32	1.816
302.69	-0.124
303.05	-0.371
303.42	1.370
303.79	0.701
304.15	0.119
304.52	-0.832
304.89	0.585
305.25	-0.121
305.62	-0.117
305.99	-0.117
306.35	-0.347
306.72	-0.337
307.09	0.456
307.45	-1.033
307.82	-0.926
308.19	-1.626
308.55	0.000
308.92	1.416
309.29	0.112
309.65	-0.215
310.02	-0.880
310.38	0.329
310.75	0.874
311.12	0.646
311.48	-0.106
311.85	1.466
312.22	0.105
312.58	0.637
312.95	-0.427
313.31	0.311
313.68	0.838
314.05	-0.612
314.41	1.443
314.78	0.619
315.14	1.747
315.51	1.967
315.87	1.639
316.24	3.236
316.61	2.953
316.97	3.274
317.34	2.832
317.70	2.103
318.07	1.731
318.43	1.961
318.80	3.314
319.16	3.027
319.53	4.938
319.89	3.642
320.26	4.049
320.62	4.313
320.99	3.340
321.35	4.728
321.72	5.504
322.08	5.237
322.45	5.584
322.81	6.582
323.18	5.299
323.54	5.405
323.91	6.426
324.27	6.641
324.64	7.491
325.00	8.577
325.37	10.376
325.73	7.253
326.10	9.537
326.46	10.224
326.83	10.324
327.19	11.072
327.56	10.339
327.92	11.356
328.29	11.696
328.65	11.226
329.01	12.500
329.38	12.903
329.74	12.653
330.11	14.365
330.47	12.245
330.84	12.692
331.20	14.544
331.56	14.352
331.93	15.890
332.29	15.857
332.66	14.932
333.02	14.777
333.38	14.024
333.75	15.568
334.11	15.309
334.48	16.863
334.84	15.751
335.20	15.919
335.57	14.959
335.93	16.079
336.29	16.759
336.66	16.076
337.02	14.963
337.38	16.759
337.75	17.000
338.11	16.862
338.47	17.427
338.84	16.821
339.20	16.910
339.56	17.064
339.93	16.473
340.29	17.156
340.65	18.280
341.02	16.755
341.38	16.814
341.74	15.018
342.11	16.464
342.47	15.480
342.83	17.993
343.20	17.334
343.56	16.348
343.92	15.943
344.28	17.592
344.65	17.617
345.01	17.978
345.37	16.232
345.73	17.322
346.10	17.343
346.46	16.400
346.82	15.876
347.19	16.376
347.55	17.377
347.91	17.314
348.27	16.249
348.63	16.695
349.00	16.653
349.36	16.958
349.72	17.413
350.08	16.967
350.45	17.239
350.81	15.365
351.17	16.612
351.53	16.571
351.89	16.763
352.26	15.600
352.62	16.129
352.98	16.225
353.34	15.942
353.70	17.395
354.07	17.177
354.43	16.573
354.79	17.011
355.15	17.698
355.51	17.563
355.87	16.667
356.24	15.416
356.60	17.381
356.96	16.667
357.32	16.933
357.68	16.106
358.04	15.994
358.40	15.273
358.77	17.544
359.13	16.253
359.49	16.795
359.85	16.693
360.21	16.906
360.57	16.067
360.93	15.582
361.29	15.559
361.66	17.006
362.02	16.894
362.38	16.146
362.74	16.276
363.10	16.855
363.46	17.198
363.82	17.806
364.18	17.048
364.54	16.397
364.90	17.204
365.26	16.885
365.62	17.080
365.98	16.276
366.35	17.116
366.71	16.999
367.07	16.328
367.43	16.175
367.79	16.396
368.15	16.942
368.51	16.096
368.87	16.296
369.23	16.534
369.59	16.181
369.95	16.716
370.31	17.341
370.67	16.194
371.03	16.206
371.39	16.484
371.75	16.264
372.11	16.120
372.47	17.160
372.83	16.466
373.19	16.619
373.55	15.957
373.91	16.919
374.27	17.151
374.63	17.588
374.99	16.879
375.35	16.156
375.71	16.154
376.07	16.081
376.42	16.395
376.78	16.376
377.14	16.249
377.50	16.135
377.86	16.466
378.22	16.656
378.58	16.474
378.94	15.879
379.30	16.781
379.66	17.116
380.02	16.616
380.38	15.216
380.74	16.577
381.09	17.117
381.45	15.780
381.81	16.163
382.17	15.609
382.53	16.177
382.89	16.384
383.25	16.553
383.61	16.707
383.97	15.873
384.32	16.073
384.68	17.028
385.04	15.257
385.40	16.366
385.76	16.981
386.12	16.559
386.48	16.539
386.83	16.043
387.19	16.545
387.55	16.186
387.91	16.076
388.27	16.850
388.62	15.356
388.98	15.531
389.34	16.115
389.70	16.408
390.06	14.915
390.42	15.479
390.77	16.089
391.13	14.565
391.49	15.653
391.85	15.919
392.20	15.756
392.56	15.702
392.92	16.383
393.28	16.686
393.64	15.375
393.99	16.301
394.35	14.548
394.71	15.581
395.07	15.211
395.42	15.301
395.78	16.287
396.14	15.132
396.50	16.424
396.85	16.227
397.21	15.789
397.57	15.235
397.92	15.518
398.28	15.862
398.64	14.819
399.00	15.745
399.35	14.391
399.71	14.819
400.07	14.933
400.42	15.422
400.78	15.126
401.14	15.245
401.49	15.068
401.85	14.138
402.21	15.241
402.57	15.125
402.92	13.990
403.28	15.100
403.63	15.132
403.99	14.031
404.35	15.365
404.70	14.583
405.06	14.101
405.42	15.289
405.77	14.003
406.13	14.435
406.49	14.565
406.84	14.364
407.20	15.533
407.55	12.878
407.91	13.703
408.27	13.066
408.62	14.462
408.98	14.787
409.34	14.870
409.69	14.083
410.05	14.347
410.40	14.321
410.76	14.536
411.11	14.000
411.47	14.135
411.83	13.622
412.18	13.385
412.54	14.232
412.89	13.793
413.25	14.440
413.60	14.410
413.96	13.497
414.31	13.354
414.67	13.598
415.03	13.249
415.38	13.577
415.74	14.463
416.09	14.566
416.45	14.112
416.80	13.549
417.16	13.950
417.51	12.991
417.87	13.494
418.22	13.731
418.58	13.846
418.93	14.545
419.29	13.060
419.64	13.610
420.00	14.924
420.35	14.030
420.71	14.277
421.06	13.505
421.42	14.844
421.77	13.295
422.12	12.770
422.48	13.590
422.83	13.805
423.19	13.883
423.54	12.581
423.90	13.251
424.25	13.662
424.61	14.933
424.96	13.763
425.31	13.518
425.67	13.498
426.02	13.958
426.38	13.964
426.73	13.620
427.09	14.367
427.44	14.059
427.79	13.259
428.15	14.078
428.50	14.294
428.85	13.329
429.21	13.978
429.56	14.016
429.92	13.919
430.27	13.634
430.62	13.016
430.98	13.800
431.33	13.985
431.68	14.286
432.04	14.030
432.39	14.261
432.74	13.169
433.10	14.253
433.45	14.397
433.80	13.407
434.16	13.518
434.51	13.763
434.86	13.589
435.22	14.694
435.57	13.974
435.92	12.934
436.28	13.655
436.63	14.204
436.98	12.862
437.34	13.612
437.69	14.013
438.04	13.504
438.39	13.317
438.75	13.783
439.10	13.752
439.45	14.060
439.81	14.067
440.16	14.667
440.51	14.806
440.86	14.743
441.22	14.706
441.57	14.349
441.92	14.638
442.27	14.690
442.63	14.936
442.98	14.302
443.33	14.969
443.68	14.005
444.03	14.953
444.39	15.150
444.74	15.162
445.09	14.644
445.44	15.556
445.79	15.472
446.15	14.758
446.50	14.032
446.85	14.931
447.20	14.390
447.55	15.290
447.91	14.946
448.26	15.822
448.61	15.371
448.96	16.294
449.31	14.913
449.66	15.273
450.02	15.573
450.37	14.464
450.72	14.662
451.07	15.000
451.42	15.356
451.77	14.888
452.12	14.593
452.47	14.617
452.83	14.959
453.18	14.674
453.53	15.107
453.88	15.422
454.23	15.550
454.58	14.987
454.93	15.851
455.28	14.730
455.63	15.995
455.98	15.454
456.34	15.262
456.69	16.137
457.04	15.879
457.39	15.917
457.74	14.752
458.09	14.715
458.44	15.331
458.79	14.790
459.14	15.618
459.49	15.343
459.84	16.300
460.19	15.352
460.54	15.526
460.89	15.455
461.24	16.273
461.59	15.855
461.94	14.403
462.29	16.345
462.64	15.415
462.99	14.895
463.34	14.743
463.69	14.801
464.04	15.436
464.39	15.403
464.74	14.969
465.09	15.221
465.44	15.811
465.79	15.023
466.14	15.906
466.49	15.756
466.84	15.407
467.19	14.643
467.54	15.006
467.89	16.045
468.24	15.024
468.59	15.683
468.94	14.857
469.29	16.197
469.64	15.584
469.99	16.538
470.34	14.061
470.68	15.436
471.03	15.428
471.38	13.695
471.73	15.336
472.08	15.129
472.43	14.295
472.78	14.462
473.13	15.238
473.48	15.440
473.83	14.633
474.17	15.026
474.52	14.742
474.87	15.758
475.22	13.789
475.57	14.907
475.92	15.250
476.27	15.076
476.61	15.278
476.96	14.835
477.31	15.089
477.66	14.438
478.01	14.711
478.36	14.815
478.70	15.117
479.05	15.769
479.40	15.421
479.75	14.234
480.10	13.774
480.45	15.100
480.79	15.911
481.14	15.266
481.49	14.384
481.84	14.286
482.19	14.125
482.53	14.820
482.88	15.465
483.23	14.395
483.58	14.811
483.92	13.988
484.27	14.403
484.62	15.016
484.97	14.469
485.31	13.728
485.66	13.944
486.01	14.516
486.36	14.205
486.70	14.306
487.05	14.764
487.40	14.762
487.75	14.282
488.09	14.339
488.44	14.752
488.79	14.046
489.13	14.864
489.48	14.408
489.83	13.946
490.17	13.618
490.52	13.395
490.87	13.790
491.22	14.613
491.56	13.947
491.91	14.197
492.26	13.758
492.60	14.299
492.95	14.757
493.30	13.483
493.64	14.342
493.99	14.541
494.34	13.398
494.68	13.952
495.03	13.723
495.37	13.788
495.72	14.437
496.07	14.293
496.41	12.830
496.76	13.680
497.11	13.461
497.45	14.606
497.80	14.531
498.14	13.512
498.49	13.814
498.84	13.373
499.18	13.906
499.53	14.187
499.87	13.570
500.22	13.403
500.56	13.414
500.91	13.454
501.26	13.297
501.60	12.986
501.95	13.392
502.29	14.383
502.64	13.320
502.98	13.074
503.33	12.776
503.67	13.494
504.02	13.050
504.36	13.706
504.71	13.737
505.06	12.733
505.40	13.249
505.75	13.763
506.09	13.077
506.44	13.347
506.78	13.163
507.13	12.875
507.47	13.003
507.82	12.553
508.16	13.154
508.51	13.484
508.85	13.239
509.19	12.613
509.54	13.834
509.88	13.053
510.23	13.502
510.57	13.896
510.92	12.420
511.26	12.711
511.61	13.641
511.95	12.877
512.30	13.359
512.64	13.745
512.98	13.139
513.33	13.598
513.67	13.019
514.02	13.616
514.36	13.371
514.70	12.413
515.05	13.102
515.39	13.341
515.74	13.952
516.08	13.270
516.42	13.192
516.77	12.990
517.11	12.285
517.46	13.046
517.80	13.230
518.14	12.431
518.49	12.800
518.83	13.183
519.17	12.068
519.52	12.966
519.86	12.065
520.20	12.029
520.55	12.008
520.89	13.174
521.23	12.856
521.58	13.880
521.92	12.756
522.26	12.622
522.61	11.818
522.95	14.040
523.29	12.262
523.64	12.643
523.98	12.767
524.32	11.727
524.66	12.420
525.01	12.532
525.35	13.351
525.69	12.189
526.04	12.169
526.38	13.489
526.72	10.988
527.06	12.646
527.41	12.005
527.75	11.796
528.09	12.292
528.43	13.032
528.78	11.287
529.12	11.935
529.46	12.151
529.80	12.603
530.15	12.343
530.49	12.862
530.83	11.765
531.17	11.551
531.51	12.038
531.86	11.285
532.20	11.134
532.54	12.117
532.88	13.279
533.22	12.231
533.57	11.402
533.91	11.097
534.25	12.044
534.59	11.161
534.93	12.398
535.27	11.104
535.62	10.693
535.96	12.133
536.30	11.346
536.64	11.785
536.98	12.056
537.32	12.802
537.66	12.342
538.01	10.979
538.35	11.442
538.69	12.117
539.03	11.825
539.37	11.777
539.71	11.520
540.05	11.609
540.39	11.496
540.73	10.739
541.07	10.773
541.42	12.702
541.76	11.218
542.10	10.943
542.44	10.285
542.78	10.599
543.12	11.607
543.46	11.892
543.80	11.797
544.14	11.015
544.48	11.659
544.82	11.483
545.16	11.066
545.50	11.549
545.84	11.756
546.18	12.057
546.52	11.608
546.86	11.359
547.20	11.874
547.54	10.459
547.88	11.753
548.22	10.782
548.56	10.686
548.90	11.860
549.24	10.882
549.58	11.213
549.92	11.079
550.26	10.769
550.60	10.929
550.94	9.933
551.28	9.892
551.62	10.692
551.96	11.429
552.30	10.819
552.64	10.367
552.98	10.689
553.32	10.913
553.66	10.522
554.00	11.387
554.34	11.448
554.68	10.398
555.02	11.682
555.36	11.144
555.69	10.256
556.03	10.493
556.37	10.249
556.71	10.542
557.05	10.515
557.39	9.814
557.73	9.895
558.07	11.086
558.41	10.337
558.75	10.522
559.08	10.008
559.42	9.921
559.76	10.088
560.10	9.557
560.44	9.829
560.78	10.490
561.12	10.790
561.45	10.119
561.79	10.714
562.13	10.717
562.47	9.856
562.81	9.366
563.15	11.142
563.48	10.537
563.82	10.021
564.16	9.401
564.50	10.000
564.84	10.509
565.17	9.859
565.51	10.109
565.85	10.151
566.19	10.544
566.52	9.920
566.86	10.733
567.20	9.153
567.54	10.097
567.88	10.721
568.21	10.464
568.55	9.891
568.89	10.010
569.23	10.496
569.56	9.982
569.90	10.313
570.24	9.900
570.57	9.455
570.91	10.073
571.25	9.569
571.59	9.436
571.92	9.570
572.26	9.300
572.60	9.271
572.93	9.821
573.27	9.624
573.61	9.576
573.95	9.803
574.28	9.560
574.62	9.255
574.96	9.075
575.29	9.213
575.63	9.070
575.97	9.108
576.30	9.418
576.64	9.166
576.98	9.421
577.31	9.437
577.65	9.266
577.98	9.700
578.32	9.301
578.66	9.263
578.99	9.336
579.33	9.593
579.67	9.286
580.00	9.316
580.34	9.179
580.67	8.877
581.01	9.222
581.35	9.238
581.68	9.486
582.02	9.011
582.35	9.099
582.69	9.252
583.02	9.293
583.36	9.487
583.70	9.450
584.03	9.480
584.37	9.910
584.70	9.121
585.04	8.938
585.37	9.042
585.71	8.961
586.04	8.825
586.38	9.389
586.72	9.785
587.05	9.445
587.39	9.869
587.72	9.513
588.06	9.189
588.39	9.826
588.73	9.249
589.06	10.013
589.40	9.333
589.73	9.602
590.07	9.517
590.40	9.559
590.73	9.514
591.07	9.288
591.40	9.172
591.74	9.502
592.07	9.323
592.41	10.115
592.74	8.642
593.08	9.186
593.41	9.588
593.75	9.388
594.08	9.337
594.41	8.806
594.75	9.122
595.08	8.929
595.42	8.465
595.75	9.200
596.09	9.109
596.42	9.260
596.75	9.725
597.09	8.929
597.42	8.762
597.75	9.253
598.09	9.190
598.42	9.386
598.76	9.181
599.09	9.135
599.42	9.397
599.76	8.728
600.09	9.389
600.42	9.325
600.76	8.655
601.09	9.198
601.42	8.931
601.76	9.170
602.09	8.705
602.42	9.604
602.76	9.168
603.09	9.053
603.42	9.657
603.76	8.911
604.09	8.829
604.42	9.391
604.76	8.856
605.09	9.506
605.42	9.029
605.75	8.975
606.09	8.323
606.42	8.590
606.75	9.221
607.09	9.407
607.42	8.728
607.75	8.703
608.08	8.760
608.42	9.319
608.75	8.675
609.08	8.869
609.41	8.985
609.75	8.821
610.08	8.487
610.41	8.116
610.74	8.971
611.07	8.941
611.41	8.666
611.74	9.542
612.07	8.458
612.40	8.862
612.73	8.475
613.07	8.380
613.40	9.354
613.73	9.065
614.06	8.904
614.39	8.629
614.72	9.132
615.06	8.603
615.39	8.297
615.72	8.450
616.05	8.715
616.38	8.604
616.71	8.930
617.05	7.968
617.38	8.799
617.71	8.176
618.04	8.571
618.37	9.521
618.70	8.977
619.03	9.792
619.36	8.900
619.69	9.325
620.03	9.861
620.36	8.798
620.69	8.280
621.02	8.869
621.35	9.046
621.68	9.439
622.01	8.917
622.34	8.699
622.67	9.543
623.00	8.423
623.33	8.841
623.66	8.527
623.99	9.682
624.32	8.897
624.65	8.271
624.99	8.503
625.32	8.264
625.65	8.798
625.98	9.670
626.31	8.894
626.64	9.185
626.97	9.686
627.30	8.144
627.63	9.185
627.96	8.985
628.29	7.771
628.62	8.850
628.95	9.218
629.28	8.266
629.61	9.671
629.94	9.677
630.26	8.992
630.59	9.365
630.92	9.744
631.25	9.026
631.58	8.150
631.91	7.566
632.24	7.339
632.57	8.864
632.90	7.948
633.23	8.118
633.56	8.312
633.89	9.494
634.22	9.012
634.55	7.497
634.88	8.174
635.20	7.692
635.53	8.533
635.86	7.802
636.19	7.762
636.52	7.908
636.85	7.940
637.18	7.799
637.51	9.308
637.83	7.884
638.16	10.232
638.49	7.629
638.82	11.579
639.15	7.327
639.48	9.354
639.81	9.205
640.13	8.658
