SpectraSuite Data File
++++++++++++++++++++++++++++++++++++
Date: Fri May 15 20:31:46 PDT 2015
User: schluterlab
Dark Spectrum Present: Yes
Reference Spectrum Present: Yes
Number of Sampled Component Spectra: 1
Spectrometers: USB2E3373
Integration Time (usec): 3000 (USB2E3373)
Spectra Averaged: 3 (USB2E3373)
Boxcar Smoothing: 0 (USB2E3373)
Correct for Electrical Dark: No (USB2E3373)
Strobe/Lamp Enabled: No (USB2E3373)
Correct for Detector Non-linearity: No (USB2E3373)
Correct for Stray Light: No (USB2E3373)
Number of Pixels in Processed Spectrum: 2048
>>>>>Begin Processed Spectral Data<<<<<
178.53	0.000
178.91	0.000
179.29	75.000
179.67	-500.000
180.04	-71.429
180.42	-200.000
180.80	-900.000
181.18	266.667
181.56	250.000
181.94	150.000
182.31	600.000
182.69	-180.000
183.07	-200.000
183.45	0.000
183.83	216.667
184.20	9.091
184.58	155.556
184.96	150.000
185.34	-233.333
185.72	-200.000
186.09	84.615
186.47	-1100.000
186.85	250.000
187.23	133.333
187.61	1300.000
187.98	-533.333
188.36	0.000
188.74	-200.000
189.12	-11.765
189.49	16.667
189.87	0.000
190.25	50.000
190.63	-150.000
191.00	-333.333
191.38	0.000
191.76	-400.000
192.14	150.000
192.51	100.000
192.89	-111.111
193.27	-28.571
193.65	100.000
194.02	81.818
194.40	50.000
194.78	-225.000
195.15	-66.667
195.53	-137.500
195.91	325.000
196.29	-175.000
196.66	115.385
197.04	242.857
197.42	-100.000
197.79	-266.667
198.17	-130.769
198.55	700.000
198.92	-66.667
199.30	-700.000
199.68	-120.000
200.05	-266.667
200.43	0.000
200.81	-66.667
201.18	-333.333
201.56	1600.000
201.94	-400.000
202.31	266.667
202.69	-180.000
203.07	225.000
203.44	400.000
203.82	0.000
204.19	121.429
204.57	-766.667
204.95	125.000
205.32	-10.000
205.70	14.286
206.08	-125.000
206.45	177.778
206.83	78.571
207.20	-242.857
207.58	200.000
207.96	-200.000
208.33	-10.000
208.71	-125.000
209.08	-166.667
209.46	-1300.000
209.84	0.000
210.21	-1500.000
210.59	-42.857
210.96	33.333
211.34	75.000
211.71	-40.000
212.09	-42.857
212.46	-1600.000
212.84	0.000
213.22	10.000
213.59	700.000
213.97	0.000
214.34	127.273
214.72	-133.333
215.09	275.000
215.47	30.769
215.84	63.636
216.22	0.000
216.59	-162.500
216.97	300.000
217.34	-175.000
217.72	-120.000
218.09	0.000
218.47	337.500
218.84	-1900.000
219.22	-88.889
219.59	-60.000
219.97	566.667
220.34	225.000
220.72	0.000
221.09	25.000
221.47	150.000
221.84	-350.000
222.22	-500.000
222.59	-9.091
222.97	25.000
223.34	-166.667
223.72	-21.429
224.09	19.048
224.46	25.000
224.84	100.000
225.21	-70.000
225.59	6.667
225.96	300.000
226.34	500.000
226.71	71.429
227.08	-150.000
227.46	-62.500
227.83	-700.000
228.21	-55.556
228.58	-45.455
228.95	-12.500
229.33	70.000
229.70	-31.250
230.08	-162.500
230.45	-85.714
230.82	-142.857
231.20	26.667
231.57	85.714
231.95	85.714
232.32	-120.000
232.69	21.429
233.07	-233.333
233.44	-20.000
233.81	-160.000
234.19	-11.111
234.56	-35.294
234.93	500.000
235.31	25.000
235.68	-300.000
236.05	-53.846
236.43	-45.000
236.80	-23.529
237.17	3.125
237.55	0.000
237.92	40.741
238.29	8.333
238.67	3.333
239.04	-26.471
239.41	-19.512
239.79	-23.333
240.16	9.756
240.53	18.421
240.91	-8.696
241.28	17.460
241.65	14.286
242.02	19.178
242.40	10.000
242.77	-3.390
243.14	13.636
243.51	-1.250
243.89	27.586
244.26	6.897
244.63	14.286
245.00	16.495
245.38	20.619
245.75	-4.494
246.12	6.897
246.49	4.959
246.87	17.308
247.24	5.042
247.61	-2.632
247.98	0.000
248.36	16.250
248.73	6.579
249.10	6.494
249.47	10.759
249.84	11.111
250.22	9.412
250.59	7.190
250.96	12.676
251.33	10.465
251.70	14.118
252.08	9.137
252.45	12.376
252.82	9.045
253.19	12.903
253.56	4.206
253.94	15.315
254.31	14.348
254.68	17.105
255.05	14.961
255.42	10.917
255.79	14.672
256.16	9.339
256.54	16.418
256.91	13.308
257.28	10.037
257.65	11.610
258.02	7.447
258.39	18.182
258.76	11.355
259.14	12.292
259.51	7.767
259.88	10.653
260.25	9.804
260.62	12.153
260.99	10.508
261.36	11.986
261.73	12.975
262.10	12.766
262.47	11.043
262.85	11.285
263.22	10.769
263.59	14.019
263.96	12.733
264.33	12.121
264.70	10.417
265.07	10.417
265.44	11.048
265.81	9.887
266.18	13.934
266.55	14.139
266.92	13.731
267.29	14.621
267.66	13.299
268.03	13.874
268.40	14.360
268.77	16.845
269.14	12.710
269.51	13.368
269.88	10.723
270.25	12.500
270.62	10.000
270.99	13.043
271.36	7.824
271.73	13.615
272.10	13.139
272.47	13.948
272.84	12.376
273.21	12.993
273.58	15.663
273.95	13.501
274.32	10.624
274.69	9.955
275.06	11.830
275.43	12.472
275.80	12.804
276.17	11.724
276.54	11.135
276.91	11.623
277.28	10.699
277.65	15.289
278.02	14.255
278.39	12.254
278.76	13.627
279.13	8.921
279.50	12.815
279.87	12.527
280.23	10.753
280.60	13.255
280.97	11.515
281.34	11.154
281.71	13.963
282.08	10.225
282.45	10.959
282.82	10.039
283.19	15.280
283.56	13.680
283.92	12.903
284.29	9.808
284.66	12.791
285.03	9.823
285.40	12.098
285.77	12.302
286.14	12.996
286.51	12.915
286.87	10.786
287.24	9.945
287.61	10.935
287.98	12.982
288.35	10.745
288.72	12.785
289.08	12.153
289.45	13.533
289.82	11.888
290.19	11.092
290.56	10.806
290.93	10.438
291.29	11.248
291.66	11.181
292.03	10.367
292.40	11.452
292.77	11.005
293.13	9.253
293.50	9.560
293.87	8.550
294.24	9.274
294.60	11.028
294.97	11.607
295.34	7.209
295.71	11.923
296.08	9.716
296.44	7.681
296.81	9.167
297.18	8.841
297.55	12.195
297.91	12.055
298.28	9.499
298.65	9.227
299.02	8.895
299.38	8.208
299.75	8.276
300.12	9.686
300.48	10.013
300.85	9.379
301.22	9.091
301.59	8.158
301.95	9.873
302.32	10.636
302.69	9.453
303.05	9.282
303.42	9.714
303.79	9.229
304.15	10.155
304.52	8.205
304.89	7.953
305.25	8.354
305.62	7.468
305.99	8.889
306.35	10.289
306.72	8.999
307.09	9.350
307.45	9.529
307.82	8.218
308.19	8.362
308.55	8.506
308.92	9.913
309.29	8.380
309.65	8.719
310.02	10.011
310.38	8.891
310.75	9.290
311.12	8.181
311.48	9.332
311.85	9.110
312.22	9.177
312.58	10.085
312.95	10.779
313.31	10.041
313.68	10.576
314.05	9.796
314.41	11.856
314.78	11.856
315.14	11.305
315.51	11.698
315.87	12.090
316.24	11.527
316.61	13.287
316.97	12.302
317.34	12.793
317.70	13.289
318.07	13.846
318.43	13.922
318.80	14.015
319.16	15.137
319.53	16.429
319.89	14.567
320.26	15.081
320.62	17.252
320.99	15.449
321.35	15.827
321.72	17.861
322.08	17.221
322.45	17.868
322.81	18.369
323.18	18.842
323.54	18.147
323.91	19.766
324.27	20.508
324.64	23.127
325.00	22.536
325.37	23.324
325.73	23.028
326.10	23.887
326.46	25.381
326.83	24.934
327.19	25.981
327.56	26.933
327.92	26.761
328.29	27.500
328.65	28.019
329.01	28.860
329.38	29.585
329.74	30.312
330.11	30.399
330.47	28.850
330.84	30.288
331.20	32.890
331.56	30.833
331.93	32.055
332.29	32.997
332.66	30.769
333.02	32.342
333.38	33.089
333.75	33.425
334.11	31.692
334.48	35.358
334.84	33.883
335.20	33.760
335.57	33.273
335.93	34.508
336.29	34.899
336.66	33.515
337.02	35.502
337.38	33.796
337.75	34.818
338.11	35.257
338.47	35.128
338.84	34.658
339.20	34.826
339.56	34.220
339.93	34.736
340.29	34.495
340.65	37.455
341.02	35.284
341.38	36.106
341.74	35.159
342.11	33.362
342.47	35.320
342.83	36.678
343.20	34.495
343.56	35.652
343.92	36.315
344.28	35.525
344.65	35.233
345.01	34.140
345.37	35.576
345.73	35.900
346.10	35.893
346.46	36.081
346.82	35.025
347.19	34.497
347.55	36.007
347.91	36.246
348.27	34.600
348.63	34.838
349.00	35.193
349.36	35.162
349.72	35.075
350.08	34.918
350.45	35.435
350.81	35.216
351.17	36.075
351.53	35.510
351.89	34.434
352.26	34.000
352.62	33.871
352.98	34.699
353.34	34.219
353.70	35.113
354.07	34.435
354.43	35.548
354.79	35.260
355.15	35.476
355.51	35.047
355.87	34.951
356.24	34.747
356.60	34.923
356.96	35.079
357.32	35.463
357.68	34.402
358.04	34.572
358.40	34.807
358.77	34.530
359.13	34.428
359.49	34.206
359.85	34.243
360.21	33.573
360.57	33.971
360.93	35.779
361.29	31.949
361.66	35.658
362.02	34.924
362.38	33.663
362.74	33.460
363.10	35.515
363.46	34.618
363.82	35.612
364.18	34.096
364.54	33.603
364.90	34.552
365.26	34.279
365.62	35.839
365.98	34.824
366.35	34.304
366.71	34.664
367.07	34.107
367.43	34.004
367.79	34.558
368.15	34.602
368.51	33.576
368.87	33.597
369.23	33.791
369.59	33.965
369.95	33.358
370.31	34.393
370.67	34.925
371.03	34.130
371.39	33.917
371.75	34.066
372.11	33.880
372.47	34.024
372.83	34.067
373.19	33.880
373.55	33.285
373.91	33.117
374.27	34.373
374.63	34.243
374.99	33.121
375.35	32.730
375.71	33.846
376.07	32.514
376.42	33.401
376.78	34.161
377.14	33.446
377.50	33.997
377.86	34.003
378.22	33.057
378.58	32.885
378.94	32.766
379.30	33.250
379.66	34.044
380.02	32.128
380.38	33.293
380.74	33.154
381.09	33.681
381.45	32.844
381.81	32.696
382.17	33.122
382.53	33.292
382.89	33.208
383.25	33.479
383.61	34.085
383.97	32.127
384.32	33.396
384.68	32.879
385.04	32.047
385.40	32.607
385.76	34.465
386.12	32.859
386.48	33.461
386.83	32.911
387.19	32.540
387.55	32.873
387.91	32.763
388.27	32.234
388.62	31.970
388.98	33.026
389.34	33.354
389.70	33.313
390.06	32.096
390.42	32.189
390.77	33.486
391.13	31.967
391.49	32.924
391.85	32.229
392.20	32.957
392.56	31.214
392.92	32.883
393.28	32.547
393.64	31.952
393.99	33.605
394.35	32.701
394.71	33.653
395.07	30.987
395.42	31.512
395.78	31.922
396.14	33.102
396.50	33.354
396.85	32.131
397.21	32.707
397.57	31.912
397.92	30.737
398.28	31.724
398.64	31.386
399.00	32.675
399.35	31.772
399.71	30.729
400.07	32.104
400.42	30.967
400.78	31.353
401.14	32.486
401.49	31.566
401.85	32.236
402.21	32.169
402.57	32.875
402.92	32.183
403.28	31.516
403.63	32.093
403.99	30.931
404.35	32.542
404.70	30.714
405.06	31.199
405.42	30.764
405.77	30.622
406.13	31.898
406.49	30.195
406.84	31.296
407.20	31.367
407.55	31.552
407.91	31.283
408.27	31.039
408.62	32.369
408.98	30.807
409.34	31.475
409.69	30.620
410.05	31.158
410.40	31.235
410.76	31.544
411.11	31.750
411.47	30.966
411.83	30.132
412.18	31.467
412.54	30.774
412.89	30.788
413.25	31.829
413.60	30.745
413.96	30.859
414.31	32.073
414.67	31.302
415.03	30.959
415.38	30.483
415.74	31.726
416.09	31.025
416.45	31.060
416.80	30.337
417.16	30.939
417.51	30.846
417.87	31.291
418.22	31.736
418.58	30.903
418.93	31.599
419.29	29.770
419.64	31.238
420.00	31.927
420.35	30.090
420.71	30.802
421.06	29.711
421.42	30.709
421.77	30.520
422.12	30.306
422.48	30.374
422.83	30.104
423.19	30.869
423.54	29.218
423.90	30.448
424.25	31.228
424.61	30.355
424.96	30.139
425.31	30.965
425.67	30.399
426.02	30.860
426.38	31.371
426.73	31.416
427.09	31.899
427.44	30.882
427.79	30.053
428.15	31.553
428.50	30.648
428.85	30.221
429.21	30.560
429.56	30.512
429.92	30.354
430.27	29.624
430.62	29.901
430.98	30.308
431.33	30.652
431.68	29.984
432.04	31.191
432.39	30.348
432.74	29.465
433.10	30.862
433.45	29.809
433.80	30.122
434.16	30.249
434.51	30.430
434.86	29.791
435.22	30.230
435.57	31.815
435.92	30.120
436.28	30.292
436.63	29.606
436.98	29.664
437.34	30.551
437.69	31.008
438.04	30.142
438.39	30.666
438.75	30.237
439.10	29.259
439.45	31.284
439.81	29.908
440.16	30.463
440.51	30.328
440.86	31.118
441.22	29.355
441.57	30.022
441.92	30.430
442.27	30.765
442.63	31.585
442.98	30.959
443.33	29.994
443.68	30.027
444.03	30.154
444.39	30.300
444.74	30.713
445.09	30.178
445.44	30.940
445.79	31.150
446.15	30.121
446.50	29.451
446.85	31.084
447.20	30.761
447.55	30.301
447.91	29.724
448.26	31.076
448.61	30.973
448.96	30.293
449.31	29.595
449.66	29.733
450.02	30.405
450.37	29.994
450.72	30.069
451.07	31.899
451.42	31.461
451.77	30.199
452.12	29.545
452.47	29.813
452.83	30.094
453.18	28.779
453.53	30.594
453.88	30.662
454.23	30.608
454.58	30.542
454.93	31.057
455.28	30.349
455.63	31.308
455.98	30.307
456.34	30.779
456.69	30.559
457.04	31.506
457.39	30.316
457.74	30.169
458.09	29.488
458.44	29.666
458.79	29.636
459.14	30.092
459.49	31.343
459.84	30.231
460.19	31.311
460.54	30.318
460.89	30.795
461.24	30.248
461.59	31.116
461.94	30.377
462.29	30.579
462.64	30.831
462.99	30.332
463.34	29.694
463.69	30.824
464.04	30.751
464.39	30.321
464.74	30.245
465.09	30.381
465.44	29.833
465.79	29.592
466.14	29.989
466.49	30.017
466.84	29.685
467.19	30.788
467.54	29.438
467.89	30.954
468.24	30.596
468.59	30.095
468.94	29.778
469.29	30.623
469.64	31.784
469.99	31.535
470.34	29.829
470.68	31.394
471.03	30.998
471.38	30.528
471.73	30.952
472.08	31.072
472.43	30.604
472.78	30.432
473.13	30.952
473.48	31.661
473.83	30.884
474.17	31.347
474.52	30.185
474.87	30.788
475.22	30.323
475.57	30.209
475.92	30.005
476.27	30.442
476.61	29.803
476.96	29.392
477.31	31.531
477.66	29.607
478.01	29.871
478.36	29.085
478.70	30.343
479.05	30.604
479.40	30.684
479.75	29.771
480.10	30.056
480.45	30.750
480.79	30.866
481.14	30.840
481.49	29.409
481.84	30.405
482.19	30.168
482.53	31.175
482.88	30.453
483.23	30.470
483.58	29.575
483.92	29.235
484.27	28.806
484.62	29.180
484.97	29.395
485.31	28.540
485.66	27.055
486.01	27.598
486.36	27.424
486.70	28.198
487.05	28.546
487.40	28.723
487.75	29.324
488.09	28.770
488.44	28.611
488.79	28.726
489.13	29.928
489.48	29.585
489.83	29.596
490.17	29.573
490.52	29.931
490.87	29.431
491.22	30.229
491.56	29.459
491.91	29.732
492.26	29.655
492.60	30.230
492.95	31.087
493.30	30.239
493.64	30.501
493.99	29.903
494.34	29.612
494.68	29.857
495.03	30.657
495.37	29.342
495.72	29.682
496.07	29.854
496.41	29.292
496.76	29.433
497.11	30.088
497.45	30.072
497.80	30.323
498.14	29.856
498.49	30.168
498.84	30.888
499.18	29.568
499.53	29.762
499.87	29.037
500.22	28.635
500.56	30.308
500.91	29.568
501.26	30.104
501.60	29.562
501.95	29.015
502.29	30.169
502.64	29.971
502.98	30.340
503.33	29.395
503.67	29.253
504.02	29.081
504.36	30.134
504.71	29.192
505.06	29.290
505.40	28.934
505.75	30.412
506.09	28.383
506.44	31.057
506.78	30.408
507.13	30.455
507.47	29.243
507.82	29.327
508.16	29.741
508.51	30.378
508.85	29.984
509.19	29.271
509.54	29.544
509.88	29.504
510.23	30.178
510.57	30.091
510.92	28.412
511.26	29.678
511.61	30.198
511.95	30.027
512.30	29.268
512.64	29.661
512.98	29.534
513.33	29.715
513.67	29.449
514.02	30.320
514.36	30.343
514.70	31.119
515.05	30.141
515.39	29.752
515.74	30.838
516.08	30.126
516.42	30.035
516.77	30.369
517.11	29.911
517.46	30.940
517.80	29.738
518.14	30.496
518.49	29.327
518.83	29.769
519.17	29.412
519.52	29.189
519.86	29.412
520.20	30.255
520.55	30.269
520.89	30.552
521.23	30.399
521.58	30.473
521.92	30.513
522.26	30.319
522.61	31.234
522.95	31.126
523.29	30.623
523.64	30.241
523.98	31.627
524.32	29.188
524.66	29.834
525.01	30.260
525.35	30.266
525.69	30.034
526.04	29.101
526.38	31.064
526.72	29.169
527.06	29.572
527.41	31.135
527.75	30.027
528.09	29.568
528.43	30.115
528.78	29.439
529.12	29.677
529.46	29.500
529.80	30.082
530.15	30.297
530.49	29.428
530.83	29.549
531.17	29.281
531.51	29.959
531.86	29.980
532.20	29.367
532.54	30.293
532.88	29.432
533.22	29.234
533.57	29.292
533.91	28.198
534.25	29.232
534.59	29.185
534.93	28.194
535.27	28.680
535.62	28.257
535.96	29.028
536.30	29.420
536.64	28.256
536.98	28.990
537.32	29.018
537.66	29.102
538.01	30.070
538.35	28.502
538.69	28.162
539.03	27.956
539.37	28.062
539.71	28.425
540.05	28.377
540.39	28.878
540.73	27.266
541.07	27.970
541.42	28.965
541.76	27.942
542.10	29.663
542.44	29.117
542.78	26.428
543.12	27.885
543.46	27.747
543.80	28.383
544.14	26.702
544.48	26.982
544.82	28.298
545.16	29.098
545.50	27.704
545.84	27.833
546.18	28.227
546.52	27.830
546.86	28.613
547.20	28.255
547.54	27.138
547.88	26.902
548.22	26.101
548.56	27.045
548.90	27.493
549.24	27.342
549.58	27.574
549.92	27.377
550.26	26.960
550.60	28.253
550.94	28.305
551.28	28.284
551.62	28.538
551.96	27.519
552.30	27.266
552.64	26.798
552.98	27.356
553.32	28.602
553.66	26.851
554.00	27.153
554.34	26.514
554.68	27.360
555.02	28.571
555.36	27.823
555.69	26.886
556.03	26.552
556.37	27.260
556.71	27.653
557.05	27.368
557.39	26.617
557.73	27.811
558.07	28.281
558.41	26.723
558.75	27.825
559.08	27.187
559.42	27.063
559.76	28.583
560.10	27.141
560.44	27.401
560.78	27.133
561.12	26.657
561.45	26.915
561.79	26.681
562.13	26.899
562.47	26.763
562.81	26.441
563.15	26.869
563.48	27.440
563.82	27.179
564.16	26.741
564.50	26.824
564.84	26.975
565.17	25.822
565.51	26.298
565.85	26.132
566.19	26.857
566.52	27.413
566.86	26.542
567.20	25.778
567.54	26.034
567.88	25.132
568.21	25.509
568.55	24.293
568.89	25.462
569.23	23.784
569.56	23.555
569.90	24.239
570.24	23.446
570.57	22.873
570.91	23.388
571.25	22.460
571.59	22.267
571.92	22.163
572.26	22.826
572.60	22.450
572.93	22.686
573.27	22.445
573.61	22.285
573.95	22.338
574.28	21.637
574.62	21.434
574.96	21.242
575.29	21.504
575.63	21.197
575.97	21.767
576.30	20.945
576.64	21.351
576.98	21.879
577.31	21.455
577.65	21.261
577.98	21.154
578.32	20.834
578.66	20.524
578.99	20.660
579.33	20.660
579.67	21.045
580.00	21.418
580.34	20.771
580.67	20.821
581.01	20.941
581.35	20.801
581.68	20.823
582.02	20.536
582.35	20.557
582.69	20.783
583.02	20.872
583.36	20.984
583.70	21.547
584.03	21.435
584.37	21.909
584.70	21.346
585.04	20.570
585.37	20.590
585.71	20.612
586.04	20.676
586.38	20.806
586.72	21.636
587.05	21.231
587.39	21.387
587.72	21.597
588.06	21.063
588.39	21.105
588.73	21.245
589.06	22.016
589.40	21.535
589.73	22.052
590.07	22.092
590.40	22.136
590.73	22.982
591.07	22.180
591.40	22.974
591.74	21.946
592.07	23.052
592.41	21.864
592.74	22.103
593.08	21.236
593.41	22.076
593.75	21.426
594.08	21.215
594.41	22.198
594.75	21.832
595.08	21.680
595.42	21.053
595.75	22.231
596.09	22.752
596.42	22.613
596.75	22.869
597.09	22.688
597.42	22.222
597.75	22.584
598.09	21.820
598.42	22.022
598.76	22.008
599.09	21.795
599.42	21.599
599.76	21.896
600.09	21.041
600.42	21.835
600.76	20.728
601.09	21.641
601.42	21.269
601.76	21.755
602.09	21.617
602.42	22.157
602.76	21.817
603.09	22.176
603.42	22.784
603.76	21.653
604.09	21.061
604.42	22.673
604.76	23.231
605.09	22.989
605.42	21.354
605.75	21.454
606.09	21.571
606.42	21.601
606.75	22.424
607.09	22.593
607.42	21.976
607.75	21.270
608.08	21.788
608.42	21.151
608.75	22.217
609.08	22.073
609.41	21.929
609.75	22.329
610.08	22.167
610.41	21.643
610.74	22.331
611.07	22.326
611.41	22.470
611.74	22.974
612.07	21.895
612.40	22.319
612.73	22.599
613.07	21.766
613.40	22.319
613.73	22.832
614.06	23.038
614.39	23.237
614.72	22.297
615.06	22.682
615.39	22.380
615.72	22.121
616.05	22.737
616.38	21.311
616.71	22.202
617.05	22.607
617.38	23.130
617.71	23.082
618.04	23.619
618.37	23.707
618.70	23.102
619.03	24.861
619.36	23.155
619.69	24.640
620.03	24.178
620.36	23.820
620.69	23.198
621.02	23.165
621.35	23.900
621.68	25.000
622.01	24.000
622.34	23.144
622.67	23.975
623.00	23.430
623.33	24.466
623.66	22.438
623.99	23.298
624.32	23.650
624.65	23.008
624.99	23.251
625.32	22.820
625.65	23.409
625.98	23.449
626.31	23.026
626.64	25.043
626.97	25.044
627.30	24.869
627.63	25.043
627.96	24.978
628.29	24.977
628.62	25.074
628.95	24.349
629.28	25.907
629.61	24.427
629.94	24.927
630.26	24.506
630.59	25.286
630.92	26.564
631.25	24.718
631.58	25.991
631.91	24.781
632.24	25.803
632.57	26.023
632.90	24.911
633.23	27.059
633.56	25.441
633.89	26.141
634.22	26.790
634.55	26.811
