SpectraSuite Data File
++++++++++++++++++++++++++++++++++++
Date: Fri May 15 20:52:39 PDT 2015
User: schluterlab
Dark Spectrum Present: Yes
Reference Spectrum Present: Yes
Number of Sampled Component Spectra: 1
Spectrometers: USB2E3373
Integration Time (usec): 3000 (USB2E3373)
Spectra Averaged: 3 (USB2E3373)
Boxcar Smoothing: 0 (USB2E3373)
Correct for Electrical Dark: No (USB2E3373)
Strobe/Lamp Enabled: No (USB2E3373)
Correct for Detector Non-linearity: No (USB2E3373)
Correct for Stray Light: No (USB2E3373)
Number of Pixels in Processed Spectrum: 2048
>>>>>Begin Processed Spectral Data<<<<<
178.53	0.000
178.91	0.000
179.29	37.500
179.67	-400.000
180.04	-42.857
180.42	75.000
180.80	100.000
181.18	100.000
181.56	550.000
181.94	0.000
182.31	200.000
182.69	-80.000
183.07	-266.667
183.45	-60.000
183.83	-33.333
184.20	-109.091
184.58	188.889
184.96	-0.000
185.34	66.667
185.72	-300.000
186.09	46.154
186.47	-800.000
186.85	83.333
187.23	122.222
187.61	100.000
187.98	-166.667
188.36	88.889
188.74	-166.667
189.12	52.941
189.49	22.222
189.87	0.000
190.25	14.286
190.63	550.000
191.00	-200.000
191.38	0.000
191.76	-350.000
192.14	100.000
192.51	0.000
192.89	-33.333
193.27	-71.429
193.65	100.000
194.02	118.182
194.40	-60.000
194.78	-100.000
195.15	-33.333
195.53	-112.500
195.91	275.000
196.29	-100.000
196.66	76.923
197.04	114.286
197.42	-11.111
197.79	-300.000
198.17	-130.769
198.55	1400.000
198.92	-366.667
199.30	100.000
199.68	-20.000
200.05	-100.000
200.43	0.000
200.81	-66.667
201.18	366.667
201.56	500.000
201.94	-50.000
202.31	-33.333
202.69	-320.000
203.07	200.000
203.44	0.000
203.82	0.000
204.19	64.286
204.57	-200.000
204.95	112.500
205.32	-10.000
205.70	-42.857
206.08	-175.000
206.45	144.444
206.83	114.286
207.20	0.000
207.58	-400.000
207.96	-200.000
208.33	-80.000
208.71	-75.000
209.08	0.000
209.46	-700.000
209.84	100.000
210.21	-1100.000
210.59	85.714
210.96	-116.667
211.34	125.000
211.71	73.333
212.09	-114.286
212.46	-800.000
212.84	0.000
213.22	-10.000
213.59	800.000
213.97	38.462
214.34	18.182
214.72	-100.000
215.09	225.000
215.47	-69.231
215.84	-9.091
216.22	-300.000
216.59	75.000
216.97	450.000
217.34	75.000
217.72	-200.000
218.09	-25.000
218.47	212.500
218.84	-200.000
219.22	-66.667
219.59	-260.000
219.97	200.000
220.34	325.000
220.72	14.286
221.09	-50.000
221.47	-100.000
221.84	-600.000
222.22	-200.000
222.59	118.182
222.97	25.000
223.34	-166.667
223.72	-57.143
224.09	4.762
224.46	35.714
224.84	266.667
225.21	-50.000
225.59	-13.333
225.96	-150.000
226.34	125.000
226.71	-28.571
227.08	-250.000
227.46	0.000
227.83	200.000
228.21	-77.778
228.58	63.636
228.95	25.000
229.33	60.000
229.70	12.500
230.08	-37.500
230.45	0.000
230.82	114.286
231.20	6.667
231.57	7.143
231.95	-142.857
232.32	-130.000
232.69	21.429
233.07	-266.667
233.44	-40.000
233.81	-60.000
234.19	66.667
234.56	-52.941
234.93	250.000
235.31	175.000
235.68	-180.000
236.05	-53.846
236.43	-20.000
236.80	23.529
237.17	6.250
237.55	10.000
237.92	40.741
238.29	25.000
238.67	23.333
239.04	20.588
239.41	-21.951
239.79	0.000
240.16	36.585
240.53	10.526
240.91	6.522
241.28	26.984
241.65	42.857
242.02	35.616
242.40	31.667
242.77	37.288
243.14	28.788
243.51	35.000
243.89	42.529
244.26	34.483
244.63	39.286
245.00	37.113
245.38	39.175
245.75	33.708
246.12	21.552
246.49	33.058
246.87	27.885
247.24	26.050
247.61	27.193
247.98	37.398
248.36	34.375
248.73	36.842
249.10	27.273
249.47	36.076
249.84	34.641
250.22	33.529
250.59	41.176
250.96	32.394
251.33	33.721
251.70	31.765
252.08	36.548
252.45	33.663
252.82	38.191
253.19	39.631
253.56	33.178
253.94	34.234
254.31	35.652
254.68	33.333
255.05	37.008
255.42	36.681
255.79	37.838
256.16	38.521
256.54	38.060
256.91	33.460
257.28	33.086
257.65	36.330
258.02	32.270
258.39	38.384
258.76	39.560
259.14	35.216
259.51	33.333
259.88	35.052
260.25	36.928
260.62	36.458
260.99	31.525
261.36	32.192
261.73	36.709
262.10	35.866
262.47	34.356
262.85	31.661
263.22	32.000
263.59	36.449
263.96	36.335
264.33	33.333
264.70	34.821
265.07	33.631
265.44	34.844
265.81	33.616
266.18	36.066
266.55	34.961
266.92	33.420
267.29	34.204
267.66	35.550
268.03	34.817
268.40	34.465
268.77	36.096
269.14	35.492
269.51	34.704
269.88	34.913
270.25	36.480
270.62	30.488
270.99	32.992
271.36	33.496
271.73	34.977
272.10	34.307
272.47	34.752
272.84	30.446
273.21	33.643
273.58	33.253
273.95	33.181
274.32	30.716
274.69	30.090
275.06	35.491
275.43	30.612
275.80	34.879
276.17	32.644
276.54	31.263
276.91	33.114
277.28	30.131
277.65	31.405
278.02	29.787
278.39	32.823
278.76	33.543
279.13	29.668
279.50	33.613
279.87	30.454
280.23	32.043
280.60	30.019
280.97	32.929
281.34	29.808
281.71	33.470
282.08	30.266
282.45	32.485
282.82	31.467
283.19	32.689
283.56	31.985
283.92	29.602
284.29	31.538
284.66	32.558
285.03	32.417
285.40	29.112
285.77	28.998
286.14	27.978
286.51	32.657
286.87	31.810
287.24	31.676
287.61	29.806
287.98	31.404
288.35	29.116
288.72	31.173
289.08	30.382
289.45	31.986
289.82	29.371
290.19	29.181
290.56	30.532
290.93	30.471
291.29	27.735
291.66	31.496
292.03	31.419
292.40	30.000
292.77	30.144
293.13	27.435
293.50	29.287
293.87	30.382
294.24	30.294
294.60	28.614
294.97	28.720
295.34	27.454
295.71	30.999
296.08	28.550
296.44	27.596
296.81	27.222
297.18	29.855
297.55	27.913
297.91	27.397
298.28	28.364
298.65	27.815
299.02	27.628
299.38	25.992
299.75	28.828
300.12	27.618
300.48	28.195
300.85	29.024
301.22	26.623
301.59	26.711
301.95	28.608
302.32	30.220
302.69	29.975
303.05	27.847
303.42	27.397
303.79	29.206
304.15	29.032
304.52	28.419
304.89	28.421
305.25	29.177
305.62	27.888
305.99	27.368
306.35	28.902
306.72	28.796
307.09	28.962
307.45	30.425
307.82	31.019
308.19	28.688
308.55	27.699
308.92	30.065
309.29	29.497
309.65	29.171
310.02	30.583
310.38	30.516
310.75	31.257
311.12	31.109
311.48	29.268
311.85	30.785
312.22	30.169
312.58	30.042
312.95	30.309
313.31	31.366
313.68	32.880
314.05	31.939
314.41	34.330
314.78	32.784
315.14	34.224
315.51	34.161
315.87	33.197
316.24	35.187
316.61	34.646
316.97	34.623
317.34	34.180
317.70	35.373
318.07	36.154
318.43	37.549
318.80	35.795
319.16	37.793
319.53	38.462
319.89	38.878
320.26	37.449
320.62	39.719
320.99	40.501
321.35	40.596
321.72	41.745
322.08	40.282
322.45	43.452
322.81	42.043
323.18	43.278
323.54	42.664
323.91	45.083
324.27	45.703
324.64	46.629
325.00	45.894
325.37	48.118
325.73	46.510
326.10	49.955
326.46	49.776
326.83	49.606
327.19	52.659
327.56	49.609
327.92	53.609
328.29	51.518
328.65	52.453
329.01	52.206
329.38	53.364
329.74	53.069
330.11	52.456
330.47	54.545
330.84	54.135
331.20	56.939
331.56	54.167
331.93	55.890
332.29	55.454
332.66	56.199
333.02	55.390
333.38	54.079
333.75	54.762
334.11	53.268
334.48	55.848
334.84	54.487
335.20	54.712
335.57	54.397
335.93	55.104
336.29	54.696
336.66	56.131
337.02	55.576
337.38	54.167
337.75	56.091
338.11	56.447
338.47	55.931
338.84	55.823
339.20	55.759
339.56	56.147
339.93	54.611
340.29	56.330
340.65	54.301
341.02	55.496
341.38	55.487
341.74	55.654
342.11	54.506
342.47	55.516
342.83	54.066
343.20	54.530
343.56	54.696
343.92	54.739
344.28	55.423
344.65	54.059
345.01	54.365
345.37	54.752
345.73	54.226
346.10	54.789
346.46	53.574
346.82	52.537
347.19	53.117
347.55	54.887
347.91	55.178
348.27	52.951
348.63	55.537
349.00	53.568
349.36	54.032
349.72	55.970
350.08	54.180
350.45	52.993
350.81	53.488
351.17	51.873
351.53	55.429
351.89	53.344
352.26	52.320
352.62	53.790
352.98	52.610
353.34	52.415
353.70	53.317
354.07	52.661
354.43	52.922
354.79	52.023
355.15	52.381
355.51	53.165
355.87	53.560
356.24	52.692
356.60	52.708
356.96	53.333
357.32	51.597
357.68	52.932
358.04	52.342
358.40	52.814
358.77	52.153
359.13	52.682
359.49	50.770
359.85	51.716
360.21	52.552
360.57	52.410
360.93	51.589
361.29	51.057
361.66	52.978
362.02	51.439
362.38	51.485
362.74	52.233
363.10	53.950
363.46	51.890
363.82	53.043
364.18	51.218
364.54	51.324
364.90	52.401
365.26	52.111
365.62	52.774
365.98	51.613
366.35	52.877
366.71	52.550
367.07	52.104
367.43	51.402
367.79	51.943
368.15	51.902
368.51	53.751
368.87	51.759
369.23	52.491
369.59	52.988
369.95	51.979
370.31	53.107
370.67	53.433
371.03	52.502
371.39	51.276
371.75	52.601
372.11	51.284
372.47	52.367
372.83	53.087
373.19	50.927
373.55	52.635
373.91	52.556
374.27	52.020
374.63	53.769
374.99	52.624
375.35	52.786
375.71	53.217
376.07	53.371
376.42	52.653
376.78	51.745
377.14	53.081
377.50	53.054
377.86	52.878
378.22	52.457
378.58	53.846
378.94	51.292
379.30	53.088
379.66	52.414
380.02	51.993
380.38	52.952
380.74	53.202
381.09	53.374
381.45	53.456
381.81	52.745
382.17	52.792
382.53	53.154
382.89	53.923
383.25	53.703
383.61	52.988
383.97	52.698
384.32	53.096
384.68	53.003
385.04	52.635
385.40	52.956
385.76	54.843
386.12	53.493
386.48	54.981
386.83	53.075
387.19	53.663
387.55	54.015
387.91	53.729
388.27	53.968
388.62	54.437
388.98	54.328
389.34	53.779
389.70	54.257
390.06	53.367
390.42	53.044
390.77	54.742
391.13	54.098
391.49	54.787
391.85	55.361
392.20	53.610
392.56	53.846
392.92	53.435
393.28	53.656
393.64	54.414
393.99	55.987
394.35	53.637
394.71	53.512
395.07	54.054
395.42	52.398
395.78	54.137
396.14	52.900
396.50	53.773
396.85	54.604
397.21	54.010
397.57	51.975
397.92	52.666
398.28	54.080
398.64	52.590
399.00	54.007
399.35	51.749
399.71	52.441
400.07	52.781
400.42	52.448
400.78	53.644
401.14	52.511
401.49	52.948
401.85	53.687
402.21	52.590
402.57	52.812
402.92	52.070
403.28	53.258
403.63	53.279
403.99	51.913
404.35	51.968
404.70	51.012
405.06	51.704
405.42	51.212
405.77	51.772
406.13	51.921
406.49	51.214
406.84	51.406
407.20	51.355
407.55	52.028
407.91	51.604
408.27	52.581
408.62	51.631
408.98	51.941
409.34	51.859
409.69	51.744
410.05	49.877
410.40	51.790
410.76	51.689
411.11	51.375
411.47	51.348
411.83	51.538
412.18	51.609
412.54	50.499
412.89	49.754
413.25	51.143
413.60	50.124
413.96	50.491
414.31	49.939
414.67	49.583
415.03	50.333
415.38	50.849
415.74	50.619
416.09	50.229
416.45	51.789
416.80	50.826
417.16	51.727
417.51	52.099
417.87	49.478
418.22	52.526
418.58	51.572
418.93	51.912
419.29	49.872
419.64	51.069
420.00	51.448
420.35	50.269
420.71	51.944
421.06	51.443
421.42	51.743
421.77	50.462
422.12	51.192
422.48	50.677
422.83	51.044
423.19	51.637
423.54	52.028
423.90	51.943
424.25	51.894
424.61	52.326
424.96	51.974
425.31	54.131
425.67	54.049
426.02	53.710
426.38	54.978
426.73	53.753
427.09	54.494
427.44	52.941
427.79	52.976
428.15	53.277
428.50	54.270
428.85	53.378
429.21	54.895
429.56	53.801
429.92	54.905
430.27	52.581
430.62	54.208
430.98	53.715
431.33	54.206
431.68	53.061
432.04	55.282
432.39	53.851
432.74	53.638
433.10	55.690
433.45	55.137
433.80	55.369
434.16	54.737
434.51	54.409
434.86	55.981
435.22	55.300
435.57	57.268
435.92	56.467
436.28	55.456
436.63	55.733
436.98	55.330
437.34	57.653
437.69	56.947
438.04	57.493
438.39	56.323
438.75	57.923
439.10	58.234
439.45	58.734
439.81	58.593
440.16	59.917
440.51	60.358
440.86	60.846
441.22	57.919
441.57	58.664
441.92	61.018
442.27	60.421
442.63	60.546
442.98	59.966
443.33	60.045
443.68	59.682
444.03	60.854
444.39	59.321
444.74	62.542
445.09	61.971
445.44	61.823
445.79	62.042
446.15	60.958
446.50	61.065
446.85	62.540
447.20	61.992
447.55	61.942
447.91	62.380
448.26	62.891
448.61	62.119
448.96	63.569
449.31	62.659
449.66	64.460
450.02	63.605
450.37	65.264
450.72	62.658
451.07	66.266
451.42	64.357
451.77	63.894
452.12	63.517
452.47	62.846
452.83	64.016
453.18	64.263
453.53	66.561
453.88	65.088
454.23	64.413
454.58	66.877
454.93	65.722
455.28	64.190
455.63	66.770
455.98	65.965
456.34	66.156
456.69	66.201
457.04	67.801
457.39	66.403
457.74	66.868
458.09	65.803
458.44	66.940
458.79	65.154
459.14	66.934
459.49	66.507
459.84	65.990
460.19	66.505
460.54	66.626
460.89	67.443
461.24	65.404
461.59	68.052
461.94	67.044
462.29	67.793
462.64	68.638
462.99	67.163
463.34	68.359
463.69	67.825
464.04	68.281
464.39	67.799
464.74	66.626
465.09	68.185
465.44	67.744
465.79	66.100
466.14	66.477
466.49	66.993
466.84	67.876
467.19	67.647
467.54	67.816
467.89	69.046
468.24	68.735
468.59	69.016
468.94	68.381
469.29	70.230
469.64	70.745
469.99	70.848
470.34	70.717
470.68	71.812
471.03	72.187
471.38	71.826
471.73	71.499
472.08	70.149
472.43	70.872
472.78	70.802
473.13	72.993
473.48	71.857
473.83	70.486
474.17	73.122
474.52	71.985
474.87	71.515
475.22	71.141
475.57	71.203
475.92	70.817
476.27	71.304
476.61	71.701
476.96	70.441
477.31	71.985
477.66	71.011
478.01	71.364
478.36	71.514
478.70	72.539
479.05	71.703
479.40	72.443
479.75	71.481
480.10	71.121
480.45	71.400
480.79	72.961
481.14	73.207
481.49	71.823
481.84	72.539
482.19	72.170
482.53	71.703
482.88	72.983
483.23	72.793
483.58	72.453
483.92	72.459
484.27	72.242
484.62	72.255
484.97	70.937
485.31	69.509
485.66	66.604
486.01	66.333
486.36	65.598
486.70	65.964
487.05	67.612
487.40	68.226
487.75	68.310
488.09	68.820
488.44	69.120
488.79	70.601
489.13	72.436
489.48	71.783
489.83	73.677
490.17	73.348
490.52	73.210
490.87	72.374
491.22	74.594
491.56	73.340
491.91	73.901
492.26	75.741
492.60	74.376
492.95	75.652
493.30	73.864
493.64	75.589
493.99	75.121
494.34	74.563
494.68	74.714
495.03	74.891
495.37	75.957
495.72	76.224
496.07	75.707
496.41	74.764
496.76	74.620
497.11	73.265
497.45	75.322
497.80	77.245
498.14	76.801
498.49	77.298
498.84	76.846
499.18	77.058
499.53	76.984
499.87	75.924
500.22	76.311
500.56	77.156
500.91	77.159
501.26	76.125
501.60	76.390
501.95	76.904
502.29	76.707
502.64	76.255
502.98	78.244
503.33	76.129
503.67	76.675
504.02	77.664
504.36	78.427
504.71	77.525
505.06	78.057
505.40	78.223
505.75	79.330
506.09	78.966
506.44	79.979
506.78	79.541
507.13	79.317
507.47	78.329
507.82	79.327
508.16	79.292
508.51	79.801
508.85	79.487
509.19	79.457
509.54	79.946
509.88	80.259
510.23	81.011
510.57	80.759
510.92	78.838
511.26	81.233
511.61	80.693
511.95	80.712
512.30	81.208
512.64	82.081
512.98	82.257
513.33	82.429
513.67	83.229
514.02	84.897
514.36	83.771
514.70	84.207
515.05	85.370
515.39	82.822
515.74	85.928
516.08	84.100
516.42	85.984
516.77	85.255
517.11	84.688
517.46	85.877
517.80	84.625
518.14	86.344
518.49	84.375
518.83	85.115
519.17	85.506
519.52	84.073
519.86	85.054
520.20	86.999
520.55	86.992
520.89	87.327
521.23	86.637
521.58	86.498
521.92	86.923
522.26	86.792
522.61	87.403
522.95	89.404
523.29	86.468
523.64	87.865
523.98	87.816
524.32	87.693
524.66	87.772
525.01	89.091
525.35	87.427
525.69	89.226
526.04	88.426
526.38	89.689
526.72	87.116
527.06	86.965
527.41	88.127
527.75	87.735
528.09	87.973
528.43	89.332
528.78	89.175
529.12	87.161
529.46	87.459
529.80	86.510
530.15	88.845
530.49	87.609
530.83	90.629
531.17	87.844
531.51	89.603
531.86	88.647
532.20	88.379
532.54	87.611
532.88	88.706
533.22	88.978
533.57	87.746
533.91	87.924
534.25	87.435
534.59	87.171
534.93	85.400
535.27	85.406
535.62	86.844
535.96	86.758
536.30	86.544
536.64	88.629
536.98	88.571
537.32	87.838
537.66	89.341
538.01	88.182
538.35	87.864
538.69	87.017
539.03	85.167
539.37	87.887
539.71	86.571
540.05	86.286
540.39	88.227
540.73	87.796
541.07	88.052
541.42	85.887
541.76	88.369
542.10	88.162
542.44	87.144
542.78	85.754
543.12	87.706
543.46	87.204
543.80	86.815
544.14	85.981
544.48	84.610
544.82	87.150
545.16	85.861
545.50	85.648
545.84	87.465
546.18	87.092
546.52	88.536
546.86	87.994
547.20	87.554
547.54	86.714
547.88	85.802
548.22	85.141
548.56	84.763
548.90	86.860
549.24	87.259
549.58	86.037
549.92	87.706
550.26	88.059
550.60	89.665
550.94	89.246
551.28	88.872
551.62	91.077
551.96	89.098
552.30	87.792
552.64	87.094
552.98	85.443
553.32	87.589
553.66	87.083
554.00	91.314
554.34	88.700
554.68	86.652
555.02	89.509
555.36	88.482
555.69	87.912
556.03	87.152
556.37	86.833
556.71	87.798
557.05	89.113
557.39	87.286
557.73	88.531
558.07	89.517
558.41	90.505
558.75	89.867
559.08	90.938
559.42	90.000
559.76	91.593
560.10	89.679
560.44	88.459
560.78	86.154
561.12	87.024
561.45	89.178
561.79	87.955
562.13	88.715
562.47	88.705
562.81	88.545
563.15	86.178
563.48	87.199
563.82	87.989
564.16	88.928
564.50	86.486
564.84	86.747
565.17	86.519
565.51	88.866
565.85	88.066
566.19	85.544
566.52	86.327
566.86	85.411
567.20	84.932
567.54	85.341
567.88	85.179
568.21	83.484
568.55	83.207
568.89	82.854
569.23	81.656
569.56	79.816
569.90	79.618
570.24	76.256
570.57	76.982
570.91	75.950
571.25	74.383
571.59	73.746
571.92	72.889
572.26	73.249
572.60	72.868
572.93	73.517
573.27	73.542
573.61	72.942
573.95	72.501
574.28	71.266
574.62	70.862
574.96	70.282
575.29	70.369
575.63	69.370
575.97	70.263
576.30	71.437
576.64	70.649
576.98	71.454
577.31	72.106
577.65	70.482
577.98	70.139
578.32	69.051
578.66	68.386
578.99	69.818
579.33	70.147
579.67	70.098
580.00	71.038
580.34	70.224
580.67	69.065
581.01	70.797
581.35	69.078
581.68	68.549
582.02	68.893
582.35	69.025
582.69	68.796
583.02	69.301
583.36	70.121
583.70	71.937
584.03	72.533
584.37	72.445
584.70	71.841
585.04	70.415
585.37	70.516
585.71	70.452
586.04	69.718
586.38	70.525
586.72	72.281
587.05	73.397
587.39	72.715
587.72	72.335
588.06	71.935
588.39	71.547
588.73	72.802
589.06	74.266
589.40	75.389
589.73	74.407
590.07	74.849
590.40	75.426
590.73	77.018
591.07	76.124
591.40	78.183
591.74	77.421
592.07	78.386
592.41	77.562
592.74	75.149
593.08	71.952
593.41	73.970
593.75	72.162
594.08	71.988
594.41	72.671
594.75	74.618
595.08	73.553
595.42	74.678
595.75	74.803
596.09	74.511
596.42	75.568
596.75	76.377
597.09	76.902
597.42	76.603
597.75	77.462
598.09	75.283
598.42	76.218
598.76	75.461
599.09	73.678
599.42	73.020
599.76	73.062
600.09	73.643
600.42	73.692
600.76	72.288
601.09	74.198
601.42	72.777
601.76	74.276
602.09	74.587
602.42	75.232
602.76	76.825
603.09	74.917
603.42	76.296
603.76	74.839
604.09	73.998
604.42	76.100
604.76	77.125
605.09	76.234
605.42	75.892
605.75	75.131
606.09	75.202
606.42	73.520
606.75	74.329
607.09	74.198
607.42	74.391
607.75	74.911
608.08	73.989
608.42	75.148
608.75	76.241
609.08	77.628
609.41	77.056
609.75	77.520
610.08	76.935
610.41	75.797
610.74	76.109
611.07	76.951
611.41	76.700
611.74	79.104
612.07	77.463
612.40	78.829
612.73	78.927
613.07	78.178
613.40	78.829
613.73	79.743
614.06	78.130
614.39	79.357
614.72	77.927
615.06	78.324
615.39	75.819
615.72	77.395
616.05	77.151
616.38	76.524
616.71	79.266
617.05	79.741
617.38	78.755
617.71	80.314
618.04	81.714
618.37	81.589
618.70	81.782
619.03	83.264
619.36	83.719
619.69	84.989
620.03	83.638
620.36	83.190
620.69	82.941
621.02	83.869
621.35	87.884
621.68	86.650
622.01	86.167
622.34	86.433
622.67	85.095
623.00	83.920
623.33	83.232
623.66	83.321
623.99	84.871
624.32	84.715
624.65	83.158
624.99	84.123
625.32	82.942
625.65	86.017
625.98	86.301
626.31	84.040
626.64	90.035
626.97	87.696
627.30	89.054
627.63	87.262
627.96	88.410
628.29	88.159
628.62	92.035
628.95	91.884
629.28	93.347
629.61	91.825
629.94	91.007
630.26	91.897
630.59	92.612
630.92	94.051
631.25	90.564
631.58	93.282
631.91	94.189
632.24	97.248
632.57	94.205
632.90	96.560
633.23	96.824
633.56	98.237
