SpectraSuite Data File
++++++++++++++++++++++++++++++++++++
Date: Fri May 15 20:47:58 PDT 2015
User: schluterlab
Dark Spectrum Present: Yes
Reference Spectrum Present: Yes
Number of Sampled Component Spectra: 1
Spectrometers: USB2E3373
Integration Time (usec): 3000 (USB2E3373)
Spectra Averaged: 3 (USB2E3373)
Boxcar Smoothing: 0 (USB2E3373)
Correct for Electrical Dark: No (USB2E3373)
Strobe/Lamp Enabled: No (USB2E3373)
Correct for Detector Non-linearity: No (USB2E3373)
Correct for Stray Light: No (USB2E3373)
Number of Pixels in Processed Spectrum: 2048
>>>>>Begin Processed Spectral Data<<<<<
178.53	0.000
178.91	0.000
179.29	-12.500
179.67	-250.000
180.04	28.571
180.42	0.000
180.80	-700.000
181.18	366.667
181.56	450.000
181.94	-150.000
182.31	800.000
182.69	0.000
183.07	-300.000
183.45	-60.000
183.83	216.667
184.20	9.091
184.58	200.000
184.96	300.000
185.34	-200.000
185.72	-250.000
186.09	76.923
186.47	-900.000
186.85	283.333
187.23	166.667
187.61	300.000
187.98	-33.333
188.36	22.222
188.74	-200.000
189.12	23.529
189.49	38.889
189.87	0.000
190.25	-42.857
190.63	100.000
191.00	-566.667
191.38	-36.842
191.76	0.000
192.14	75.000
192.51	-350.000
192.89	-188.889
193.27	-128.571
193.65	166.667
194.02	118.182
194.40	10.000
194.78	-137.500
195.15	-16.667
195.53	-162.500
195.91	375.000
196.29	-175.000
196.66	192.308
197.04	157.143
197.42	-55.556
197.79	-500.000
198.17	-69.231
198.55	1600.000
198.92	-533.333
199.30	400.000
199.68	-20.000
200.05	-300.000
200.43	0.000
200.81	-366.667
201.18	-200.000
201.56	1900.000
201.94	-150.000
202.31	33.333
202.69	-60.000
203.07	75.000
203.44	-700.000
203.82	0.000
204.19	57.143
204.57	-500.000
204.95	175.000
205.32	-30.000
205.70	71.429
206.08	125.000
206.45	88.889
206.83	28.571
207.20	-85.714
207.58	1000.000
207.96	-133.333
208.33	-150.000
208.71	-150.000
209.08	-216.667
209.46	-500.000
209.84	-160.000
210.21	-1100.000
210.59	-100.000
210.96	66.667
211.34	-25.000
211.71	-60.000
212.09	-128.571
212.46	-1800.000
212.84	0.000
213.22	110.000
213.59	300.000
213.97	-92.308
214.34	-45.455
214.72	0.000
215.09	600.000
215.47	-92.308
215.84	9.091
216.22	-100.000
216.59	-100.000
216.97	-600.000
217.34	-200.000
217.72	-120.000
218.09	-12.500
218.47	100.000
218.84	-700.000
219.22	-55.556
219.59	-120.000
219.97	533.333
220.34	300.000
220.72	-28.571
221.09	-250.000
221.47	-400.000
221.84	-400.000
222.22	-850.000
222.59	-9.091
222.97	-50.000
223.34	-466.667
223.72	-57.143
224.09	-19.048
224.46	10.714
224.84	133.333
225.21	10.000
225.59	6.667
225.96	50.000
226.34	325.000
226.71	-157.143
227.08	-16.667
227.46	-100.000
227.83	-800.000
228.21	33.333
228.58	-36.364
228.95	-37.500
229.33	120.000
229.70	0.000
230.08	-87.500
230.45	-242.857
230.82	71.429
231.20	-120.000
231.57	28.571
231.95	-28.571
232.32	-110.000
232.69	78.571
233.07	-233.333
233.44	-20.000
233.81	-120.000
234.19	-33.333
234.56	-35.294
234.93	1000.000
235.31	0.000
235.68	-180.000
236.05	30.769
236.43	-5.000
236.80	-23.529
237.17	18.750
237.55	5.000
237.92	14.815
238.29	-8.333
238.67	10.000
239.04	14.706
239.41	-7.317
239.79	-3.333
240.16	24.390
240.53	31.579
240.91	17.391
241.28	25.397
241.65	28.571
242.02	39.726
242.40	25.000
242.77	16.949
243.14	19.697
243.51	28.750
243.89	33.333
244.26	18.391
244.63	33.333
245.00	23.711
245.38	32.990
245.75	19.101
246.12	27.586
246.49	28.099
246.87	31.731
247.24	26.050
247.61	16.667
247.98	27.642
248.36	27.500
248.73	23.026
249.10	34.416
249.47	28.481
249.84	37.255
250.22	27.059
250.59	30.065
250.96	35.681
251.33	32.558
251.70	32.353
252.08	25.888
252.45	32.178
252.82	31.156
253.19	25.806
253.56	28.505
253.94	31.532
254.31	30.435
254.68	31.140
255.05	30.709
255.42	35.371
255.79	33.977
256.16	33.463
256.54	34.328
256.91	30.798
257.28	29.740
257.65	29.213
258.02	32.270
258.39	32.660
258.76	38.462
259.14	35.880
259.51	29.450
259.88	33.333
260.25	31.699
260.62	35.417
260.99	29.153
261.36	31.164
261.73	34.177
262.10	36.778
262.47	31.288
262.85	32.288
263.22	31.385
263.59	30.218
263.96	32.298
264.33	31.212
264.70	34.821
265.07	32.440
265.44	32.295
265.81	32.486
266.18	30.601
266.55	33.419
266.92	39.637
267.29	31.854
267.66	30.691
268.03	32.984
268.40	30.548
268.77	34.492
269.14	31.415
269.51	32.905
269.88	28.678
270.25	31.122
270.62	29.024
270.99	31.969
271.36	27.873
271.73	33.568
272.10	30.170
272.47	30.733
272.84	30.941
273.21	31.555
273.58	31.325
273.95	32.265
274.32	33.256
274.69	29.864
275.06	33.036
275.43	32.200
275.80	30.464
276.17	27.816
276.54	30.193
276.91	33.772
277.28	32.969
277.65	30.372
278.02	31.915
278.39	30.853
278.76	31.027
279.13	29.461
279.50	32.563
279.87	28.942
280.23	32.258
280.60	29.630
280.97	30.505
281.34	30.577
281.71	32.854
282.08	27.607
282.45	29.159
282.82	28.378
283.19	29.594
283.56	29.480
283.92	28.843
284.29	28.462
284.66	29.264
285.03	29.666
285.40	30.246
285.77	30.756
286.14	30.325
286.51	28.782
286.87	27.971
287.24	31.308
287.61	28.748
287.98	27.895
288.35	30.156
288.72	30.123
289.08	26.389
289.45	26.889
289.82	29.196
290.19	28.498
290.56	27.616
290.93	25.421
291.29	24.345
291.66	29.764
292.03	25.837
292.40	26.935
292.77	24.880
293.13	23.701
293.50	24.431
293.87	25.496
294.24	25.193
294.60	23.696
294.97	23.661
295.34	26.074
295.71	23.994
296.08	22.571
296.44	22.902
296.81	24.306
297.18	24.058
297.55	24.390
297.91	22.329
298.28	23.087
298.65	22.795
299.02	23.720
299.38	21.341
299.75	21.379
300.12	22.644
300.48	24.111
300.85	21.293
301.22	21.169
301.59	22.763
301.95	22.405
302.32	23.606
302.69	22.139
303.05	20.916
303.42	21.295
303.79	22.196
304.15	20.550
304.52	20.809
304.89	20.117
305.25	21.308
305.62	20.537
305.99	21.053
306.35	21.040
306.72	20.247
307.09	19.612
307.45	21.240
307.82	20.833
308.19	22.532
308.55	18.321
308.92	21.460
309.29	19.218
309.65	20.775
310.02	20.022
310.38	19.429
310.75	20.219
311.12	20.344
311.48	20.785
311.85	19.791
312.22	19.409
312.58	20.170
312.95	19.957
313.31	19.565
313.68	20.105
314.05	20.408
314.41	20.928
314.78	21.340
315.14	21.069
315.51	20.704
315.87	20.287
316.24	22.750
316.61	22.441
316.97	21.825
317.34	21.582
317.70	21.893
318.07	20.577
318.43	21.078
318.80	21.212
319.16	23.242
319.53	23.267
319.89	22.638
320.26	22.470
320.62	23.270
320.99	23.069
321.35	23.433
321.72	23.884
322.08	24.169
322.45	23.858
322.81	23.183
323.18	23.749
323.54	24.035
323.91	24.245
324.27	24.316
324.64	24.813
325.00	26.004
325.37	26.446
325.73	25.204
326.10	25.976
326.46	27.534
326.83	27.034
327.19	27.637
327.56	27.715
327.92	28.873
328.29	27.232
328.65	28.774
329.01	28.125
329.38	28.479
329.74	28.329
330.11	29.194
330.47	29.221
330.84	27.981
331.20	31.559
331.56	29.815
331.93	30.320
332.29	31.072
332.66	30.136
333.02	29.554
333.38	29.056
333.75	31.502
334.11	30.439
334.48	30.190
334.84	30.586
335.20	30.650
335.57	30.462
335.93	28.817
336.29	30.571
336.66	30.699
337.02	29.833
337.38	30.000
337.75	30.636
338.11	30.658
338.47	30.566
338.84	30.591
339.20	30.165
339.56	31.376
339.93	31.423
340.29	31.835
340.65	29.659
341.02	30.142
341.38	29.381
341.74	29.152
342.11	29.983
342.47	31.495
342.83	30.796
343.20	30.226
343.56	30.000
343.92	30.115
344.28	31.512
344.65	30.570
345.01	30.856
345.37	30.109
345.73	31.046
346.10	30.544
346.46	30.109
346.82	30.442
347.19	29.842
347.55	31.078
347.91	31.392
348.27	30.639
348.63	30.750
349.00	30.107
349.36	30.341
349.72	30.846
350.08	30.738
350.45	30.646
350.81	29.319
351.17	30.049
351.53	30.612
351.89	31.131
352.26	29.920
352.62	30.726
352.98	30.683
353.34	29.710
353.70	30.744
354.07	31.855
354.43	31.145
354.79	30.058
355.15	30.635
355.51	30.775
355.87	31.311
356.24	29.527
356.60	31.285
356.96	32.222
357.32	29.792
357.68	29.163
358.04	31.099
358.40	29.984
358.77	30.622
359.13	30.184
359.49	29.815
359.85	31.201
360.21	30.941
360.57	31.370
360.93	31.543
361.29	30.287
361.66	31.191
362.02	31.288
362.38	32.216
362.74	31.567
363.10	32.355
363.46	31.950
363.82	32.231
364.18	31.292
364.54	30.956
364.90	30.968
365.26	30.859
365.62	31.533
365.98	31.818
366.35	31.974
366.71	32.520
367.07	31.277
367.43	30.697
367.79	31.590
368.15	32.592
368.51	32.411
368.87	31.371
369.23	32.202
369.59	32.289
369.95	32.111
370.31	33.020
370.67	32.612
371.03	32.487
371.39	31.802
371.75	32.894
372.11	31.883
372.47	32.322
372.83	33.712
373.19	31.669
373.55	30.975
373.91	32.973
374.27	33.097
374.63	32.448
374.99	32.411
375.35	31.964
375.71	33.077
376.07	33.006
376.42	33.605
376.78	32.349
377.14	33.243
377.50	33.068
377.86	33.869
378.22	32.355
378.58	32.308
378.94	32.199
379.30	33.812
379.66	33.730
380.02	33.047
380.38	32.684
380.74	33.573
381.09	33.804
381.45	33.700
381.81	32.819
382.17	33.947
382.53	33.104
382.89	33.333
383.25	34.350
383.61	33.841
383.97	32.635
384.32	34.146
384.68	33.684
385.04	33.885
385.40	32.358
385.76	34.088
386.12	34.541
386.48	34.163
386.83	32.911
387.19	33.883
387.55	33.940
387.91	33.130
388.27	33.394
388.62	34.802
388.98	34.561
389.34	33.916
389.70	34.742
390.06	33.732
390.42	33.420
390.77	34.271
391.13	32.976
391.49	33.700
391.85	32.943
392.20	34.777
392.56	34.711
392.92	34.586
393.28	34.257
393.64	33.634
393.99	35.047
394.35	34.409
394.71	34.674
395.07	33.690
395.42	34.183
395.78	35.309
396.14	34.552
396.50	34.306
396.85	34.256
397.21	35.025
397.57	34.107
397.92	34.332
398.28	35.345
398.64	33.675
399.00	35.835
399.35	34.312
399.71	34.865
400.07	36.457
400.42	34.823
400.78	35.150
401.14	34.543
401.49	34.783
401.85	34.735
402.21	34.398
402.57	36.375
402.92	33.877
403.28	35.150
403.63	36.066
403.99	34.949
404.35	35.853
404.70	34.881
405.06	35.018
405.42	35.053
405.77	34.108
406.13	34.808
406.49	35.820
406.84	35.575
407.20	36.183
407.55	35.351
407.91	35.829
408.27	36.265
408.62	35.015
408.98	35.613
409.34	35.006
409.69	34.044
410.05	34.852
410.40	35.679
410.76	34.922
411.11	35.938
411.47	35.569
411.83	35.844
412.18	36.293
412.54	35.830
412.89	34.852
413.25	36.643
413.60	35.590
413.96	35.276
414.31	35.244
414.67	34.638
415.03	36.019
415.38	36.292
415.74	35.570
416.09	35.663
416.45	36.664
416.80	36.087
417.16	36.602
417.51	36.509
417.87	36.832
418.22	35.557
418.58	36.522
418.93	37.367
419.29	36.172
419.64	36.423
420.00	36.902
420.35	36.179
420.71	35.966
421.06	35.482
421.42	36.238
421.77	36.590
422.12	35.528
422.48	36.167
422.83	37.239
423.19	36.738
423.54	37.213
423.90	37.044
424.25	37.543
424.61	37.148
424.96	38.095
425.31	38.070
425.67	38.146
426.02	37.574
426.38	36.756
426.73	38.015
427.09	38.671
427.44	36.765
427.79	37.831
428.15	37.015
428.50	38.340
428.85	36.794
429.21	37.974
429.56	38.706
429.92	37.185
430.27	36.992
430.62	36.539
430.98	37.845
431.33	37.066
431.68	37.363
432.04	38.010
432.39	37.136
432.74	36.681
433.10	39.368
433.45	38.710
433.80	38.712
434.16	37.950
434.51	38.387
434.86	37.747
435.22	38.138
435.57	38.428
435.92	37.246
436.28	37.627
436.63	36.965
436.98	37.717
437.34	36.600
437.69	38.342
438.04	37.550
438.39	38.180
438.75	39.709
439.10	37.974
439.45	38.771
439.81	37.859
440.16	38.124
440.51	39.045
440.86	39.637
441.22	38.688
441.57	37.859
441.92	39.035
442.27	39.080
442.63	39.615
442.98	38.254
443.33	38.397
443.68	38.568
444.03	39.046
444.39	39.006
444.74	39.799
445.09	39.644
445.44	39.202
445.79	38.731
446.15	38.271
446.50	39.157
446.85	39.904
447.20	39.781
447.55	39.955
447.91	39.650
448.26	39.556
448.61	39.148
448.96	39.759
449.31	39.017
449.66	39.257
450.02	39.932
450.37	39.360
450.72	39.404
451.07	39.937
451.42	38.265
451.77	38.698
452.12	38.218
452.47	38.699
452.83	39.753
453.18	39.405
453.53	39.886
453.88	40.316
454.23	39.889
454.58	40.113
454.93	40.786
455.28	38.349
455.63	41.042
455.98	40.890
456.34	39.783
456.69	39.517
457.04	39.950
457.39	39.672
457.74	39.117
458.09	38.611
458.44	39.380
458.79	37.871
459.14	40.160
459.49	40.358
459.84	39.932
460.19	38.896
460.54	40.403
460.89	39.489
461.24	40.932
461.59	39.549
461.94	39.434
462.29	41.013
462.64	40.797
462.99	40.758
463.34	39.917
463.69	39.060
464.04	40.194
464.39	40.085
464.74	39.325
465.09	40.674
465.44	40.219
465.79	38.322
466.14	40.764
466.49	39.218
466.84	40.512
467.19	40.300
467.54	40.230
467.89	39.672
468.24	39.781
468.59	40.381
468.94	40.508
469.29	41.049
469.64	40.123
469.99	40.575
470.34	40.000
470.68	40.268
471.03	41.472
471.38	39.800
471.73	40.546
472.08	41.113
472.43	40.604
472.78	39.753
473.13	40.272
473.48	40.847
473.83	38.979
474.17	40.220
474.52	40.523
474.87	40.606
475.22	40.818
475.57	40.994
475.92	40.812
476.27	41.502
476.61	41.609
476.96	39.264
477.31	40.130
477.66	40.112
478.01	40.820
478.36	39.706
478.70	41.001
479.05	41.484
479.40	40.753
479.75	40.146
480.10	40.195
480.45	40.750
480.79	40.836
481.14	41.855
481.49	40.197
481.84	40.541
482.19	39.991
482.53	40.767
482.88	39.761
483.23	40.739
483.58	41.179
483.92	40.077
484.27	39.836
484.62	39.803
484.97	39.594
485.31	39.595
485.66	37.695
486.01	38.106
486.36	37.740
486.70	39.405
487.05	39.915
487.40	39.581
487.75	39.746
488.09	39.586
488.44	40.131
488.79	40.493
489.13	41.306
489.48	40.787
489.83	41.031
490.17	40.539
490.52	40.831
490.87	41.231
491.22	41.834
491.56	41.224
491.91	40.440
492.26	41.371
492.60	40.403
492.95	41.515
493.30	40.645
493.64	40.914
493.99	40.386
494.34	40.874
494.68	41.190
495.03	40.925
495.37	41.609
495.72	41.646
496.07	41.610
496.41	41.981
496.76	41.271
497.11	40.568
497.45	42.339
497.80	42.381
498.14	41.381
498.49	40.376
498.84	41.617
499.18	42.068
499.53	41.270
499.87	40.856
500.22	41.048
500.56	42.057
500.91	41.817
501.26	41.770
501.60	40.876
501.95	41.970
502.29	41.356
502.64	41.988
502.98	41.638
503.33	41.210
503.67	41.542
504.02	42.522
504.36	42.504
504.71	42.475
505.06	40.765
505.40	41.929
505.75	43.093
506.09	42.524
506.44	43.532
506.78	43.316
507.13	43.226
507.47	42.298
507.82	42.361
508.16	42.895
508.51	43.284
508.85	43.799
509.19	42.469
509.54	43.056
509.88	43.096
510.23	44.701
510.57	44.735
510.92	42.644
511.26	44.081
511.61	44.059
511.95	43.671
512.30	43.570
512.64	43.851
512.98	44.189
513.33	44.264
513.67	44.116
514.02	45.824
514.36	45.029
514.70	46.737
515.05	46.240
515.39	45.750
515.74	48.084
516.08	46.324
516.42	46.231
516.77	45.290
517.11	45.816
517.46	47.457
517.80	47.616
518.14	47.214
518.49	46.575
518.83	46.780
519.17	46.513
519.52	46.892
519.86	46.459
520.20	47.631
520.55	47.217
520.89	47.992
521.23	47.498
521.58	48.770
521.92	47.885
522.26	46.779
522.61	48.701
522.95	49.603
523.29	49.492
523.64	48.539
523.98	49.125
524.32	48.389
524.66	48.848
525.01	49.416
525.35	50.162
525.69	48.485
526.04	50.529
526.38	50.000
526.72	48.790
527.06	49.611
527.41	49.934
527.75	49.799
528.09	49.302
528.43	51.722
528.78	50.363
529.12	49.935
529.46	49.838
529.80	49.082
530.15	50.627
530.49	50.842
530.83	51.710
531.17	51.175
531.51	51.163
531.86	51.462
532.20	50.661
532.54	51.259
532.88	51.882
533.22	49.866
533.57	50.393
533.91	50.653
534.25	51.758
534.59	50.609
534.93	49.402
535.27	50.190
535.62	51.588
535.96	51.729
536.30	51.253
536.64	53.411
536.98	50.941
537.32	53.058
537.66	52.875
538.01	53.566
538.35	51.456
538.69	49.933
539.03	50.786
539.37	52.355
539.71	51.261
540.05	50.509
540.39	53.255
540.73	52.092
541.07	51.727
541.42	51.277
541.76	52.581
542.10	51.755
542.44	51.355
542.78	50.241
543.12	50.069
543.46	52.434
543.80	51.770
544.14	50.467
544.48	51.432
544.82	52.153
545.16	51.913
545.50	52.270
545.84	52.904
546.18	51.348
546.52	52.704
546.86	52.408
547.20	52.289
547.54	51.166
547.88	52.582
548.22	50.099
548.56	51.187
548.90	50.809
549.24	50.138
549.58	51.481
549.92	51.894
550.26	52.234
550.60	52.193
550.94	53.846
551.28	53.323
551.62	53.308
551.96	52.556
552.30	52.778
552.64	51.551
552.98	52.250
553.32	51.854
553.66	52.032
554.00	52.628
554.34	53.176
554.68	52.212
555.02	52.158
555.36	53.478
555.69	51.722
556.03	51.963
556.37	51.673
556.71	53.863
557.05	53.095
557.39	51.673
557.73	52.999
558.07	54.072
558.41	53.675
558.75	54.170
559.08	54.216
559.42	52.778
559.76	55.004
560.10	51.606
560.44	52.867
560.78	52.587
561.12	52.186
561.45	52.916
561.79	53.221
562.13	52.874
562.47	53.597
562.81	52.738
563.15	50.776
563.48	52.617
563.82	52.848
564.16	51.811
564.50	50.878
564.84	51.740
565.17	50.771
565.51	52.937
565.85	52.126
566.19	51.326
566.52	53.351
566.86	52.121
567.20	51.494
567.54	51.095
567.88	53.368
568.21	52.093
568.55	50.870
568.89	50.462
569.23	50.554
569.56	49.650
569.90	49.858
570.24	47.897
570.57	48.109
570.91	49.320
571.25	47.419
571.59	46.621
571.92	46.519
572.26	46.437
572.60	46.543
572.93	46.470
573.27	46.395
573.61	47.047
573.95	46.532
574.28	46.637
574.62	45.411
574.96	46.173
575.29	46.037
575.63	44.934
575.97	45.487
576.30	46.134
576.64	45.642
576.98	46.512
577.31	46.449
577.65	46.330
577.98	45.816
578.32	45.652
578.66	44.509
578.99	45.414
579.33	45.466
579.67	45.168
580.00	45.468
580.34	46.070
580.67	45.524
581.01	45.845
581.35	44.832
581.68	45.129
582.02	44.889
582.35	45.497
582.69	45.540
583.02	45.097
583.36	45.943
583.70	46.210
584.03	47.567
584.37	46.640
584.70	46.154
585.04	45.959
585.37	45.209
585.71	45.446
586.04	45.714
586.38	46.359
586.72	46.313
587.05	47.083
587.39	47.079
587.72	47.321
588.06	45.945
588.39	46.710
588.73	46.490
589.06	48.337
589.40	47.079
589.73	47.353
590.07	47.998
590.40	47.523
590.73	48.723
591.07	48.346
591.40	48.130
591.74	49.276
592.07	49.165
592.41	48.940
592.74	47.033
593.08	46.839
593.41	46.458
593.75	45.960
594.08	46.104
594.41	46.434
594.75	46.832
595.08	47.787
595.42	47.074
595.75	47.615
596.09	47.967
596.42	48.450
596.75	48.712
597.09	48.246
597.42	47.922
597.75	48.649
598.09	46.084
598.42	47.067
598.76	46.976
599.09	46.915
599.42	46.646
599.76	46.614
600.09	46.606
600.42	46.816
600.76	46.137
601.09	46.260
601.42	46.298
601.76	46.844
602.09	47.483
602.42	48.062
602.76	47.411
603.09	47.841
603.42	49.122
603.76	47.056
604.09	46.294
604.42	47.124
604.76	48.776
605.09	48.355
605.42	47.585
605.75	47.242
606.09	47.049
606.42	46.247
606.75	47.489
607.09	47.121
607.42	47.895
607.75	47.425
608.08	46.586
608.42	47.008
608.75	48.482
609.08	48.381
609.41	49.188
609.75	47.228
610.08	48.278
610.41	47.005
610.74	47.830
611.07	48.527
611.41	48.417
611.74	49.733
612.07	47.056
612.40	49.562
612.73	48.927
613.07	49.100
613.40	48.249
613.73	49.133
614.06	48.637
614.39	48.111
614.72	48.011
615.06	49.106
615.39	47.107
615.72	47.955
616.05	49.162
616.38	47.521
616.71	49.419
617.05	49.537
617.38	49.089
617.71	49.182
618.04	50.032
618.37	50.883
618.70	49.571
619.03	51.181
619.36	50.796
619.69	51.630
620.03	53.397
620.36	50.286
620.69	50.749
621.02	49.847
621.35	52.946
621.68	51.956
622.01	52.500
622.34	50.120
622.67	51.262
623.00	50.995
623.33	52.668
623.66	50.411
623.99	50.000
624.32	53.156
624.65	50.000
624.99	51.618
625.32	50.190
625.65	51.532
625.98	51.168
626.31	51.122
626.64	52.946
626.97	52.880
627.30	52.102
627.63	51.820
627.96	52.291
628.29	52.451
628.62	54.769
628.95	54.108
629.28	55.645
629.61	54.138
629.94	54.057
630.26	52.964
630.59	56.400
630.92	55.487
631.25	53.436
631.58	55.507
631.91	54.496
632.24	56.422
632.57	55.795
632.90	56.228
