SpectraSuite Data File
++++++++++++++++++++++++++++++++++++
Date: Fri May 15 20:51:31 PDT 2015
User: schluterlab
Dark Spectrum Present: Yes
Reference Spectrum Present: Yes
Number of Sampled Component Spectra: 1
Spectrometers: USB2E3373
Integration Time (usec): 3000 (USB2E3373)
Spectra Averaged: 3 (USB2E3373)
Boxcar Smoothing: 0 (USB2E3373)
Correct for Electrical Dark: No (USB2E3373)
Strobe/Lamp Enabled: No (USB2E3373)
Correct for Detector Non-linearity: No (USB2E3373)
Correct for Stray Light: No (USB2E3373)
Number of Pixels in Processed Spectrum: 2048
>>>>>Begin Processed Spectral Data<<<<<
178.53	0.000
178.91	0.000
179.29	87.500
179.67	-150.000
180.04	28.571
180.42	-175.000
180.80	-400.000
181.18	-0.000
181.56	500.000
181.94	-100.000
182.31	300.000
182.69	0.000
183.07	-200.000
183.45	-40.000
183.83	200.000
184.20	-45.455
184.58	222.222
184.96	150.000
185.34	66.667
185.72	-300.000
186.09	30.769
186.47	400.000
186.85	200.000
187.23	122.222
187.61	-100.000
187.98	-400.000
188.36	100.000
188.74	-133.333
189.12	17.647
189.49	-5.556
189.87	0.000
190.25	-7.143
190.63	50.000
191.00	366.667
191.38	21.053
191.76	100.000
192.14	125.000
192.51	-50.000
192.89	0.000
193.27	0.000
193.65	83.333
194.02	190.909
194.40	-40.000
194.78	-12.500
195.15	16.667
195.53	12.500
195.91	-0.000
196.29	-25.000
196.66	115.385
197.04	242.857
197.42	44.444
197.79	-733.333
198.17	-76.923
198.55	1100.000
198.92	-166.667
199.30	-100.000
199.68	-80.000
200.05	-266.667
200.43	0.000
200.81	-166.667
201.18	-266.667
201.56	500.000
201.94	-250.000
202.31	200.000
202.69	-240.000
203.07	250.000
203.44	400.000
203.82	0.000
204.19	-28.571
204.57	-400.000
204.95	87.500
205.32	90.000
205.70	-14.286
206.08	-250.000
206.45	144.444
206.83	85.714
207.20	-171.429
207.58	1100.000
207.96	-566.667
208.33	-160.000
208.71	-100.000
209.08	-200.000
209.46	-1000.000
209.84	-80.000
210.21	-800.000
210.59	-28.571
210.96	50.000
211.34	-200.000
211.71	13.333
212.09	-242.857
212.46	-1300.000
212.84	0.000
213.22	30.000
213.59	400.000
213.97	-30.769
214.34	36.364
214.72	-50.000
215.09	675.000
215.47	23.077
215.84	18.182
216.22	-133.333
216.59	-75.000
216.97	-100.000
217.34	-75.000
217.72	-140.000
218.09	-162.500
218.47	25.000
218.84	-900.000
219.22	-88.889
219.59	-200.000
219.97	300.000
220.34	175.000
220.72	14.286
221.09	-50.000
221.47	-300.000
221.84	-700.000
222.22	-750.000
222.59	27.273
222.97	-8.333
223.34	-266.667
223.72	0.000
224.09	-14.286
224.46	57.143
224.84	366.667
225.21	-60.000
225.59	26.667
225.96	-250.000
226.34	425.000
226.71	-100.000
227.08	-116.667
227.46	-37.500
227.83	-750.000
228.21	-55.556
228.58	-36.364
228.95	-137.500
229.33	70.000
229.70	6.250
230.08	-150.000
230.45	-85.714
230.82	-28.571
231.20	-33.333
231.57	7.143
231.95	-171.429
232.32	-80.000
232.69	28.571
233.07	-466.667
233.44	-120.000
233.81	-100.000
234.19	11.111
234.56	-47.059
234.93	300.000
235.31	-150.000
235.68	-280.000
236.05	-53.846
236.43	-60.000
236.80	-82.353
237.17	-3.125
237.55	-85.000
237.92	-22.222
238.29	-8.333
238.67	33.333
239.04	-14.706
239.41	-24.390
239.79	-46.667
240.16	-4.878
240.53	-28.947
240.91	-10.870
241.28	-9.524
241.65	-7.143
242.02	17.808
242.40	0.000
242.77	-3.390
243.14	-9.091
243.51	6.250
243.89	5.747
244.26	-1.149
244.63	5.952
245.00	8.247
245.38	14.433
245.75	-2.247
246.12	-14.655
246.49	-0.826
246.87	-3.846
247.24	2.521
247.61	-14.035
247.98	-5.691
248.36	1.875
248.73	3.947
249.10	-4.545
249.47	3.165
249.84	2.614
250.22	3.529
250.59	0.000
250.96	9.859
251.33	2.326
251.70	1.765
252.08	5.584
252.45	-1.980
252.82	3.015
253.19	2.304
253.56	-1.402
253.94	-1.351
254.31	6.522
254.68	5.702
255.05	3.543
255.42	1.747
255.79	4.247
256.16	4.280
256.54	9.701
256.91	-0.380
257.28	5.576
257.65	5.243
258.02	-0.355
258.39	5.387
258.76	1.832
259.14	3.654
259.51	4.531
259.88	2.405
260.25	3.922
260.62	5.208
260.99	1.356
261.36	4.110
261.73	2.532
262.10	4.863
262.47	4.908
262.85	4.075
263.22	3.692
263.59	5.607
263.96	7.143
264.33	1.818
264.70	1.786
265.07	2.679
265.44	6.516
265.81	3.672
266.18	4.098
266.55	8.483
266.92	3.627
267.29	6.789
267.66	4.604
268.03	4.974
268.40	4.439
268.77	4.278
269.14	6.235
269.51	5.141
269.88	3.741
270.25	1.786
270.62	3.902
270.99	4.348
271.36	4.401
271.73	4.930
272.10	3.893
272.47	2.600
272.84	3.713
273.21	5.104
273.58	6.265
273.95	6.407
274.32	4.157
274.69	2.489
275.06	7.366
275.43	4.989
275.80	5.298
276.17	2.069
276.54	5.353
276.91	4.825
277.28	4.803
277.65	7.645
278.02	3.191
278.39	3.939
278.76	3.983
279.13	1.245
279.50	5.042
279.87	7.343
280.23	3.441
280.60	6.238
280.97	7.071
281.34	3.846
281.71	6.160
282.08	4.499
282.45	1.566
282.82	4.054
283.19	5.803
283.56	4.046
283.92	3.036
284.29	2.308
284.66	5.620
285.03	6.680
285.40	4.537
285.77	4.042
286.14	4.874
286.51	7.011
286.87	5.302
287.24	2.762
287.61	3.175
287.98	5.614
288.35	5.373
288.72	5.954
289.08	3.646
289.45	4.921
289.82	4.371
290.19	2.218
290.56	2.744
290.93	3.199
291.29	5.239
291.66	5.039
292.03	4.306
292.40	3.710
292.77	4.625
293.13	0.974
293.50	3.035
293.87	6.718
294.24	4.019
294.60	3.726
294.97	5.208
295.34	4.141
295.71	4.471
296.08	3.886
296.44	3.129
296.81	3.611
297.18	4.058
297.55	6.233
297.91	3.425
298.28	4.354
298.65	4.342
299.02	2.965
299.38	0.684
299.75	3.310
300.12	3.927
300.48	2.503
300.85	3.802
301.22	3.247
301.59	4.474
301.95	4.304
302.32	5.318
302.69	3.483
303.05	4.703
303.42	4.234
303.79	4.322
304.15	4.540
304.52	2.378
304.89	4.327
305.25	3.632
305.62	2.334
305.99	3.041
306.35	3.237
306.72	3.487
307.09	4.333
307.45	4.133
307.82	3.125
308.19	4.181
308.55	2.508
308.92	4.031
309.29	3.352
309.65	4.629
310.02	4.290
310.38	3.952
310.75	6.011
311.12	4.629
311.48	4.878
311.85	3.770
312.22	3.692
312.58	3.928
312.95	4.269
313.31	4.762
313.68	4.817
314.05	6.327
314.41	6.082
314.78	5.464
315.14	6.475
315.51	6.625
315.87	6.455
316.24	7.280
316.61	7.283
316.97	7.242
317.34	7.129
317.70	7.361
318.07	7.692
318.43	8.627
318.80	7.860
319.16	9.082
319.53	10.446
319.89	8.957
320.26	9.312
320.62	10.832
320.99	8.977
321.35	11.100
321.72	10.177
322.08	11.581
322.45	11.980
322.81	12.672
323.18	12.856
323.54	13.127
323.91	12.463
324.27	14.062
324.64	15.169
325.00	14.234
325.37	15.519
325.73	14.053
326.10	14.351
326.46	15.785
326.83	16.798
327.19	15.955
327.56	15.986
327.92	16.197
328.29	17.411
328.65	16.887
329.01	17.096
329.38	17.235
329.74	16.714
330.11	18.628
330.47	17.718
330.84	16.731
331.20	19.677
331.56	18.333
331.93	18.356
332.29	18.515
332.66	17.376
333.02	20.074
333.38	17.965
333.75	19.505
334.11	18.532
334.48	19.311
334.84	19.048
335.20	18.756
335.57	18.314
335.93	19.693
336.29	17.956
336.66	18.801
337.02	17.937
337.38	18.426
337.75	18.182
338.11	19.657
338.47	19.161
338.84	19.778
339.20	18.464
339.56	20.550
339.93	18.621
340.29	19.817
340.65	19.444
341.02	18.528
341.38	18.673
341.74	19.346
342.11	17.764
342.47	18.861
342.83	18.599
343.20	17.857
343.56	19.130
343.92	19.132
344.28	18.958
344.65	18.826
345.01	17.718
345.37	19.849
345.73	19.582
346.10	18.637
346.46	19.428
346.82	17.430
347.19	17.872
347.55	18.045
347.91	19.256
348.27	18.593
348.63	17.632
349.00	17.801
349.36	18.288
349.72	17.910
350.08	17.623
350.45	18.595
350.81	17.027
351.17	17.752
351.53	18.286
351.89	17.754
352.26	18.320
352.62	18.065
352.98	17.349
353.34	18.599
353.70	18.689
354.07	17.339
354.43	17.854
354.79	16.846
355.15	19.286
355.51	20.095
355.87	17.718
356.24	17.374
356.60	17.623
356.96	18.333
357.32	18.131
357.68	17.905
358.04	16.478
358.40	17.524
358.77	18.102
359.13	18.014
359.49	17.180
359.85	18.331
360.21	17.863
360.57	17.598
360.93	17.474
361.29	16.465
361.66	18.025
362.02	18.712
362.38	17.441
362.74	16.957
363.10	18.209
363.46	17.717
363.82	18.633
364.18	17.860
364.54	17.500
364.90	16.918
365.26	17.977
365.62	18.686
365.98	18.695
366.35	18.281
366.71	17.591
367.07	17.489
367.43	17.685
367.79	18.375
368.15	18.521
368.51	17.771
368.87	17.803
369.23	17.834
369.59	17.638
369.95	18.328
370.31	18.786
370.67	17.537
371.03	17.999
371.39	16.703
371.75	18.608
372.11	17.404
372.47	18.639
372.83	17.814
373.19	18.830
373.55	17.329
373.91	18.503
374.27	18.498
374.63	18.521
374.99	17.376
375.35	18.524
375.71	18.462
376.07	18.680
376.42	17.959
376.78	18.591
377.14	17.400
377.50	18.194
377.86	17.738
378.22	18.698
378.58	17.564
378.94	16.698
379.30	18.091
379.66	18.558
380.02	17.106
380.38	17.894
380.74	17.295
381.09	19.264
381.45	18.471
381.81	18.630
382.17	17.893
382.53	17.739
382.89	18.330
383.25	18.046
383.61	19.085
383.97	18.476
384.32	19.450
384.68	17.585
385.04	18.321
385.40	19.042
385.76	19.560
386.12	19.405
386.48	19.476
386.83	18.580
387.19	18.681
387.55	19.260
387.91	18.826
388.27	18.559
388.62	19.446
388.98	18.785
389.34	19.238
389.70	19.515
390.06	18.062
390.42	19.041
390.77	18.116
391.13	18.726
391.49	19.017
391.85	18.713
392.20	19.209
392.56	19.517
392.92	19.319
393.28	20.283
393.64	18.979
393.99	19.561
394.35	18.469
394.71	19.540
395.07	19.296
395.42	18.822
395.78	19.349
396.14	19.987
396.50	18.770
396.85	19.897
397.21	19.612
397.57	19.373
397.92	18.694
398.28	19.080
398.64	18.976
399.00	19.808
399.35	18.397
399.71	18.840
400.07	19.649
400.42	19.339
400.78	19.902
401.14	20.387
401.49	20.369
401.85	18.586
402.21	19.819
402.57	19.437
402.92	18.570
403.28	19.799
403.63	19.420
403.99	19.643
404.35	19.800
404.70	19.702
405.06	19.213
405.42	19.577
405.77	18.536
406.13	19.034
406.49	19.361
406.84	19.804
407.20	18.663
407.55	19.833
407.91	19.786
408.27	19.312
408.62	20.185
408.98	19.778
409.34	20.136
409.69	19.315
410.05	19.828
410.40	19.938
410.76	19.964
411.11	19.625
411.47	19.461
411.83	19.146
412.18	20.142
412.54	20.037
412.89	19.150
413.25	20.939
413.60	19.006
413.96	18.712
414.31	20.549
414.67	18.473
415.03	19.574
415.38	19.778
415.74	19.739
416.09	19.726
416.45	19.514
416.80	19.564
417.16	19.544
417.51	20.453
417.87	19.426
418.22	19.689
418.58	19.465
418.93	20.690
419.29	19.398
419.64	19.378
420.00	21.222
420.35	19.522
420.71	20.352
421.06	20.319
421.42	21.454
421.77	19.480
422.12	19.637
422.48	19.491
422.83	20.302
423.19	20.147
423.54	19.577
423.90	19.965
424.25	20.551
424.61	20.379
424.96	20.557
425.31	20.855
425.67	20.246
426.02	20.612
426.38	20.413
426.73	20.157
427.09	21.203
427.44	20.882
427.79	20.684
428.15	20.752
428.50	21.078
428.85	19.840
429.21	20.770
429.56	21.078
429.92	20.904
430.27	19.850
430.62	20.335
430.98	20.488
431.33	21.188
431.68	20.513
432.04	20.570
432.39	20.023
432.74	20.686
433.10	21.552
433.45	20.848
433.80	20.488
434.16	20.000
434.51	21.774
434.86	20.499
435.22	20.079
435.57	20.961
435.92	20.419
436.28	20.990
436.63	20.936
436.98	20.800
437.34	20.085
437.69	21.646
438.04	20.969
438.39	21.258
438.75	21.069
439.10	20.826
439.45	21.911
439.81	19.572
440.16	21.081
440.51	21.313
440.86	22.719
441.22	21.154
441.57	21.578
441.92	21.773
442.27	22.118
442.63	21.574
442.98	21.654
443.33	20.979
443.68	21.273
444.03	21.560
444.39	21.151
444.74	22.575
445.09	21.214
445.44	22.165
445.79	22.486
446.15	22.412
446.50	21.298
446.85	21.307
447.20	20.959
447.55	21.987
447.91	21.545
448.26	21.969
448.61	21.819
448.96	22.088
449.31	20.983
449.66	21.545
450.02	21.107
450.37	22.110
450.72	21.249
451.07	22.089
451.42	21.598
451.77	21.941
452.12	21.411
452.47	20.734
452.83	22.379
453.18	21.632
453.53	22.314
453.88	21.129
454.23	21.942
454.58	22.229
454.93	22.358
455.28	21.206
455.63	21.699
455.98	21.768
456.34	21.009
456.69	22.109
457.04	22.495
457.39	22.175
457.74	21.342
458.09	21.130
458.44	21.240
458.79	21.401
459.14	21.510
459.49	22.209
459.84	22.786
460.19	21.905
460.54	22.494
460.89	21.364
461.24	22.360
461.59	21.912
461.94	21.950
462.29	23.402
462.64	22.126
462.99	22.613
463.34	22.462
463.69	21.107
464.04	21.731
464.39	22.013
464.74	21.350
465.09	22.146
465.44	21.870
465.79	22.279
466.14	22.349
466.49	21.564
466.84	22.427
467.19	23.029
467.54	21.328
467.89	21.541
468.24	21.715
468.59	22.286
468.94	22.476
469.29	21.180
469.64	22.146
469.99	21.654
470.34	20.819
470.68	21.999
471.03	21.727
471.38	22.183
471.73	21.429
472.08	21.642
472.43	22.349
472.78	21.590
473.13	22.721
473.48	22.345
473.83	21.544
474.17	21.632
474.52	22.336
474.87	21.879
475.22	21.049
475.57	21.739
475.92	22.326
476.27	21.886
476.61	22.512
476.96	21.305
477.31	21.092
477.66	20.955
478.01	21.561
478.36	20.861
478.70	22.621
479.05	21.813
479.40	21.834
479.75	20.855
480.10	22.069
480.45	21.550
480.79	22.810
481.14	21.363
481.49	20.443
481.84	21.525
482.19	21.562
482.53	21.535
482.88	21.193
483.23	22.073
483.58	22.123
483.92	21.684
484.27	21.012
484.62	21.022
484.97	21.061
485.31	20.123
485.66	19.962
486.01	20.173
486.36	20.214
486.70	20.360
487.05	20.862
487.40	20.372
487.75	20.366
488.09	19.561
488.44	21.011
488.79	21.068
489.13	21.074
489.48	20.821
489.83	21.166
490.17	20.944
490.52	21.155
490.87	20.824
491.22	20.392
491.56	20.778
491.91	20.937
492.26	20.126
492.60	21.209
492.95	21.446
493.30	20.664
493.64	20.727
493.99	21.014
494.34	20.534
494.68	20.905
495.03	20.584
495.37	20.314
495.72	21.252
496.07	20.829
496.41	19.858
496.76	20.359
497.11	20.307
497.45	21.002
497.80	20.888
498.14	20.616
498.49	20.416
498.84	20.709
499.18	20.884
499.53	20.635
499.87	20.525
500.22	20.030
500.56	20.676
500.91	19.880
501.26	19.773
501.60	20.020
501.95	19.893
502.29	20.242
502.64	20.656
502.98	19.339
503.33	19.645
503.67	20.530
504.02	20.186
504.36	19.891
504.71	19.798
505.06	20.282
505.40	19.594
505.75	19.897
506.09	19.513
506.44	20.329
506.78	20.255
507.13	19.855
507.47	19.530
507.82	19.284
508.16	19.123
508.51	19.622
508.85	19.362
509.19	18.787
509.54	19.678
509.88	19.471
510.23	19.580
510.57	18.760
510.92	18.763
511.26	19.149
511.61	20.352
511.95	19.836
512.30	20.067
512.64	20.089
512.98	19.090
513.33	20.593
513.67	19.443
514.02	20.595
514.36	21.143
514.70	19.814
515.05	19.976
515.39	19.421
515.74	20.898
516.08	19.605
516.42	20.612
516.77	20.655
517.11	19.169
517.46	19.928
517.80	19.964
518.14	18.861
518.49	18.990
518.83	19.198
519.17	19.588
519.52	18.532
519.86	18.968
520.20	19.016
520.55	18.324
520.89	19.950
521.23	19.063
521.58	20.126
521.92	19.487
522.26	19.779
522.61	19.091
522.95	19.272
523.29	19.314
523.64	19.187
523.98	19.767
524.32	18.814
524.66	19.526
525.01	19.935
525.35	19.767
525.69	18.653
526.04	18.254
526.38	19.455
526.72	18.574
527.06	18.742
527.41	19.261
527.75	18.298
528.09	18.870
528.43	19.446
528.78	19.142
529.12	19.484
529.46	18.583
529.80	18.873
530.15	19.472
530.49	17.576
530.83	19.425
531.17	18.536
531.51	19.631
531.86	18.151
532.20	18.441
532.54	18.244
532.88	18.138
533.22	18.347
533.57	18.807
533.91	17.624
534.25	18.164
534.59	17.640
534.93	17.936
535.27	17.005
535.62	17.693
535.96	18.591
536.30	18.931
536.64	18.470
536.98	17.352
537.32	17.568
537.66	18.864
538.01	18.601
538.35	17.753
538.69	17.909
539.03	17.225
539.37	18.573
539.71	17.928
540.05	17.176
540.39	18.421
540.73	18.131
541.07	17.541
541.42	17.742
541.76	18.100
542.10	17.619
542.44	17.582
542.78	16.793
543.12	16.964
543.46	18.011
543.80	17.071
544.14	17.356
544.48	17.055
544.82	17.293
545.16	17.691
545.50	18.224
545.84	17.139
546.18	16.950
546.52	17.376
546.86	16.679
547.20	17.096
547.54	16.325
547.88	16.848
548.22	17.160
548.56	17.084
548.90	16.712
549.24	15.909
549.58	15.726
549.92	15.368
550.26	16.630
550.60	16.803
550.94	15.758
551.28	15.765
551.62	17.231
551.96	16.617
552.30	16.520
552.64	16.502
552.98	16.737
553.32	15.549
553.66	15.820
554.00	17.372
554.34	16.248
554.68	16.150
555.02	16.890
555.36	16.305
555.69	15.751
556.03	15.989
556.37	15.231
556.71	17.040
557.05	16.033
557.39	15.465
557.73	16.492
558.07	15.611
558.41	16.080
558.75	15.978
559.08	16.391
559.42	16.190
559.76	15.853
560.10	16.131
560.44	14.669
560.78	16.434
561.12	15.303
561.45	15.882
561.79	16.176
562.13	15.827
562.47	15.252
562.81	15.346
563.15	15.515
563.48	15.417
563.82	15.923
564.16	15.251
564.50	15.000
564.84	15.930
565.17	16.231
565.51	14.822
565.85	15.706
566.19	14.788
566.52	15.818
566.86	16.067
567.20	14.384
567.54	15.024
567.88	14.821
568.21	14.706
568.55	14.076
568.89	15.144
569.23	14.540
569.56	14.186
569.90	14.373
570.24	13.844
570.57	13.964
570.91	14.360
571.25	13.910
571.59	14.139
571.92	13.126
572.26	13.285
572.60	13.240
572.93	13.900
573.27	13.229
573.61	13.395
573.95	13.080
574.28	12.765
574.62	12.611
574.96	13.089
575.29	13.049
575.63	12.724
575.97	12.686
576.30	12.595
576.64	12.768
576.98	13.359
577.31	13.099
577.65	12.890
577.98	12.574
578.32	13.034
578.66	12.637
578.99	12.915
579.33	12.591
579.67	12.793
580.00	12.557
580.34	12.736
580.67	12.413
581.01	12.704
581.35	12.102
581.68	12.478
582.02	12.296
582.35	12.163
582.69	12.330
583.02	12.497
583.36	12.396
583.70	12.954
584.03	12.927
584.37	13.269
584.70	12.637
585.04	12.539
585.37	12.408
585.71	12.145
586.04	12.254
586.38	12.377
586.72	12.683
587.05	12.883
587.39	12.469
587.72	13.013
588.06	12.621
588.39	12.589
588.73	12.943
589.06	12.916
589.40	13.308
589.73	13.290
590.07	12.764
590.40	13.274
590.73	12.850
591.07	13.359
591.40	12.645
591.74	12.851
592.07	13.497
592.41	13.163
592.74	12.465
593.08	12.609
593.41	12.323
593.75	12.234
594.08	11.809
594.41	12.045
594.75	12.099
595.08	12.334
595.42	12.367
595.75	12.204
596.09	12.744
596.42	12.691
596.75	12.833
597.09	12.938
597.42	12.963
597.75	12.368
598.09	11.951
598.42	12.500
598.76	12.269
599.09	12.580
599.42	12.202
599.76	12.491
600.09	12.179
600.42	12.282
600.76	11.924
601.09	11.794
601.42	11.673
601.76	12.346
602.09	12.335
602.42	12.679
602.76	12.394
603.09	12.791
603.42	12.458
603.76	11.452
604.09	11.786
604.42	12.352
604.76	12.150
605.09	12.660
605.42	12.054
605.75	11.778
606.09	11.890
606.42	11.676
606.75	12.424
607.09	11.692
607.42	11.431
607.75	12.078
608.08	11.141
608.42	11.649
608.75	12.675
609.08	11.958
609.41	12.132
609.75	11.996
610.08	11.583
610.41	11.691
610.74	11.555
611.07	12.196
611.41	12.662
611.74	13.433
612.07	12.206
612.40	12.746
612.73	11.921
613.07	12.711
613.40	12.363
613.73	12.031
614.06	12.521
614.39	12.296
614.72	11.989
615.06	12.011
615.39	11.572
615.72	11.572
616.05	12.458
616.38	11.738
616.71	11.865
617.05	11.983
617.38	11.628
617.71	12.201
618.04	12.698
618.37	13.178
618.70	11.617
619.03	12.917
619.36	11.795
619.69	12.813
620.03	12.929
620.36	12.589
620.69	12.562
621.02	12.920
621.35	13.195
621.68	12.925
622.01	13.083
622.34	12.849
622.67	12.697
623.00	12.175
623.33	12.271
623.66	11.369
623.99	12.330
624.32	12.015
624.65	11.955
624.99	12.114
625.32	11.145
625.65	12.412
625.98	12.893
626.31	12.136
626.64	12.738
626.97	13.700
627.30	12.609
627.63	12.565
627.96	13.118
628.29	13.321
628.62	12.291
628.95	13.026
629.28	12.500
629.61	12.762
629.94	13.881
630.26	12.945
630.59	13.215
630.92	13.538
631.25	12.103
631.58	12.775
631.91	11.184
632.24	12.156
632.57	13.182
632.90	11.507
633.23	13.529
633.56	13.098
633.89	12.577
634.22	13.457
634.55	11.817
634.88	12.005
635.20	12.436
635.53	13.200
635.86	13.004
636.19	14.230
636.52	13.010
636.85	11.538
637.18	12.830
