SpectraSuite Data File
++++++++++++++++++++++++++++++++++++
Date: Fri May 15 20:39:31 PDT 2015
User: schluterlab
Dark Spectrum Present: Yes
Reference Spectrum Present: Yes
Number of Sampled Component Spectra: 1
Spectrometers: USB2E3373
Integration Time (usec): 3000 (USB2E3373)
Spectra Averaged: 3 (USB2E3373)
Boxcar Smoothing: 0 (USB2E3373)
Correct for Electrical Dark: No (USB2E3373)
Strobe/Lamp Enabled: No (USB2E3373)
Correct for Detector Non-linearity: No (USB2E3373)
Correct for Stray Light: No (USB2E3373)
Number of Pixels in Processed Spectrum: 2048
>>>>>Begin Processed Spectral Data<<<<<
178.53	0.000
178.91	0.000
179.29	50.000
179.67	-400.000
180.04	28.571
180.42	0.000
180.80	-400.000
181.18	266.667
181.56	600.000
181.94	-150.000
182.31	800.000
182.69	-140.000
183.07	-200.000
183.45	-100.000
183.83	-0.000
184.20	-36.364
184.58	111.111
184.96	200.000
185.34	66.667
185.72	-450.000
186.09	69.231
186.47	-100.000
186.85	116.667
187.23	144.444
187.61	900.000
187.98	66.667
188.36	11.111
188.74	-266.667
189.12	35.294
189.49	0.000
189.87	0.000
190.25	-21.429
190.63	-200.000
191.00	-200.000
191.38	26.316
191.76	650.000
192.14	250.000
192.51	0.000
192.89	-33.333
193.27	-114.286
193.65	100.000
194.02	181.818
194.40	10.000
194.78	-137.500
195.15	-25.000
195.53	-100.000
195.91	50.000
196.29	-75.000
196.66	100.000
197.04	57.143
197.42	11.111
197.79	-300.000
198.17	-153.846
198.55	1100.000
198.92	-366.667
199.30	-800.000
199.68	-80.000
200.05	-500.000
200.43	0.000
200.81	-166.667
201.18	-66.667
201.56	600.000
201.94	-300.000
202.31	200.000
202.69	-140.000
203.07	300.000
203.44	200.000
203.82	0.000
204.19	28.571
204.57	-400.000
204.95	150.000
205.32	40.000
205.70	157.143
206.08	-200.000
206.45	77.778
206.83	71.429
207.20	-128.571
207.58	600.000
207.96	-100.000
208.33	-70.000
208.71	-150.000
209.08	-150.000
209.46	-1200.000
209.84	-180.000
210.21	-1300.000
210.59	57.143
210.96	-16.667
211.34	-50.000
211.71	-13.333
212.09	-71.429
212.46	-1500.000
212.84	0.000
213.22	80.000
213.59	450.000
213.97	15.385
214.34	90.909
214.72	-16.667
215.09	425.000
215.47	0.000
215.84	-54.545
216.22	-100.000
216.59	-100.000
216.97	-200.000
217.34	25.000
217.72	-140.000
218.09	12.500
218.47	100.000
218.84	-500.000
219.22	-33.333
219.59	80.000
219.97	400.000
220.34	100.000
220.72	28.571
221.09	25.000
221.47	250.000
221.84	-650.000
222.22	-350.000
222.59	54.545
222.97	16.667
223.34	-466.667
223.72	35.714
224.09	42.857
224.46	14.286
224.84	600.000
225.21	20.000
225.59	26.667
225.96	-300.000
226.34	275.000
226.71	-185.714
227.08	-33.333
227.46	75.000
227.83	-300.000
228.21	0.000
228.58	72.727
228.95	-37.500
229.33	110.000
229.70	0.000
230.08	-112.500
230.45	-157.143
230.82	57.143
231.20	6.667
231.57	21.429
231.95	-128.571
232.32	-90.000
232.69	71.429
233.07	233.333
233.44	100.000
233.81	-100.000
234.19	-44.444
234.56	11.765
234.93	250.000
235.31	-175.000
235.68	-240.000
236.05	-38.462
236.43	0.000
236.80	-35.294
237.17	15.625
237.55	-30.000
237.92	-18.519
238.29	11.111
238.67	-16.667
239.04	-20.588
239.41	-14.634
239.79	-13.333
240.16	2.439
240.53	-31.579
240.91	-13.043
241.28	17.460
241.65	12.500
242.02	6.849
242.40	3.333
242.77	-6.780
243.14	-1.515
243.51	-5.000
243.89	3.448
244.26	-8.046
244.63	-2.381
245.00	-3.093
245.38	0.000
245.75	-10.112
246.12	-0.862
246.49	-3.306
246.87	-7.692
247.24	-2.521
247.61	-10.526
247.98	-8.130
248.36	1.875
248.73	0.000
249.10	-5.195
249.47	-4.430
249.84	-5.229
250.22	0.000
250.59	-1.307
250.96	2.347
251.33	-5.233
251.70	-6.471
252.08	-7.107
252.45	0.495
252.82	1.005
253.19	3.687
253.56	-3.271
253.94	-0.450
254.31	4.348
254.68	3.070
255.05	-1.181
255.42	0.437
255.79	-1.931
256.16	-0.778
256.54	1.866
256.91	0.760
257.28	2.974
257.65	0.000
258.02	-2.128
258.39	2.694
258.76	1.832
259.14	1.661
259.51	0.324
259.88	-1.375
260.25	0.327
260.62	2.431
260.99	0.000
261.36	-2.397
261.73	-1.899
262.10	1.520
262.47	-2.454
262.85	-2.821
263.22	0.308
263.59	-2.181
263.96	1.242
264.33	-0.606
264.70	-1.190
265.07	-2.083
265.44	-0.850
265.81	1.130
266.18	4.098
266.55	1.799
266.92	3.109
267.29	-2.611
267.66	2.302
268.03	1.571
268.40	-1.305
268.77	2.406
269.14	1.918
269.51	-0.257
269.88	-1.496
270.25	-1.276
270.62	-2.195
270.99	-2.046
271.36	-3.667
271.73	1.878
272.10	-0.243
272.47	1.418
272.84	-0.743
273.21	2.552
273.58	-1.205
273.95	0.458
274.32	-0.924
274.69	-2.489
275.06	-0.223
275.43	0.907
275.80	-0.442
276.17	-2.069
276.54	0.857
276.91	-1.754
277.28	-0.218
277.65	1.860
278.02	0.638
278.39	-2.407
278.76	0.839
279.13	-2.282
279.50	2.311
279.87	-0.432
280.23	-1.075
280.60	3.509
280.97	-0.404
281.34	-1.346
281.71	0.205
282.08	-0.409
282.45	1.174
282.82	-2.317
283.19	0.774
283.56	-1.156
283.92	-1.898
284.29	-0.577
284.66	0.581
285.03	-0.196
285.40	-0.756
285.77	-0.351
286.14	1.264
286.51	0.923
286.87	0.548
287.24	0.000
287.61	-0.529
287.98	1.053
288.35	-0.173
288.72	2.802
289.08	-1.042
289.45	-0.351
289.82	0.350
290.19	-0.341
290.56	-1.201
290.93	0.168
291.29	-1.233
291.66	1.732
292.03	1.435
292.40	1.452
292.77	0.957
293.13	-1.299
293.50	-1.366
293.87	0.305
294.24	0.773
294.60	1.341
294.97	2.976
295.34	0.767
295.71	0.894
296.08	-0.747
296.44	-0.427
296.81	-0.556
297.18	0.000
297.55	2.439
297.91	0.548
298.28	0.528
298.65	1.085
299.02	-0.674
299.38	-0.821
299.75	0.828
300.12	0.262
300.48	-1.054
300.85	2.281
301.22	0.779
301.59	0.263
301.95	0.886
302.32	1.297
302.69	0.622
303.05	0.124
303.42	0.996
303.79	1.519
304.15	0.119
304.52	-0.595
304.89	0.585
305.25	0.969
305.62	-0.233
305.99	0.468
306.35	0.462
306.72	0.000
307.09	0.684
307.45	1.722
307.82	0.810
308.19	0.232
308.55	0.218
308.92	1.634
309.29	1.229
309.65	1.076
310.02	0.990
310.38	0.439
310.75	1.093
311.12	0.969
311.48	0.106
311.85	0.838
312.22	1.055
312.58	-0.106
312.95	0.000
313.31	-0.932
313.68	0.314
314.05	1.020
314.41	-0.103
314.78	0.722
315.14	0.925
315.51	1.760
315.87	1.332
316.24	3.539
316.61	2.461
316.97	2.480
317.34	1.758
317.70	3.155
318.07	2.212
318.43	2.745
318.80	2.178
319.16	3.418
319.53	3.419
319.89	3.150
320.26	3.441
320.62	4.915
320.99	3.653
321.35	5.550
321.72	5.607
322.08	6.042
322.45	6.091
322.81	6.974
323.18	8.047
323.54	7.336
323.91	9.153
324.27	9.473
324.64	10.393
325.00	11.131
325.37	12.213
325.73	10.789
326.10	11.807
326.46	12.556
326.83	13.823
327.19	13.775
327.56	14.509
327.92	15.405
328.29	15.714
328.65	16.981
329.01	17.188
329.38	18.710
329.74	18.414
330.11	17.980
330.47	19.295
330.84	18.942
331.20	22.338
331.56	20.093
331.93	20.457
332.29	22.273
332.66	22.262
333.02	22.305
333.38	23.190
333.75	23.901
334.11	21.576
334.48	23.481
334.84	23.168
335.20	23.605
335.57	23.119
335.93	23.758
336.29	24.033
336.66	24.251
337.02	24.442
337.38	23.056
337.75	24.727
338.11	24.887
338.47	25.091
338.84	25.786
339.20	24.223
339.56	24.312
339.93	25.783
340.29	26.055
340.65	25.896
341.02	25.532
341.38	25.841
341.74	24.647
342.11	24.523
342.47	26.335
342.83	26.990
343.20	25.958
343.56	26.087
343.92	25.509
344.28	27.412
344.65	25.734
345.01	25.065
345.37	25.820
345.73	27.950
346.10	27.783
346.46	26.072
346.82	26.678
347.19	25.520
347.55	27.151
347.91	27.023
348.27	26.758
348.63	26.746
349.00	26.579
349.36	27.182
349.72	26.866
350.08	26.148
350.45	27.294
350.81	26.578
351.17	26.792
351.53	26.694
351.89	27.746
352.26	27.920
352.62	28.629
352.98	27.068
353.34	26.087
353.70	27.670
354.07	27.177
354.43	27.462
354.79	28.654
355.15	27.857
355.51	27.373
355.87	27.994
356.24	26.917
356.60	27.243
356.96	28.333
357.32	27.077
357.68	27.443
358.04	27.141
358.40	27.653
358.77	28.628
359.13	27.542
359.49	26.579
359.85	28.627
360.21	27.911
360.57	27.544
360.93	29.652
361.29	27.266
361.66	29.310
362.02	28.939
362.38	28.713
362.74	28.615
363.10	28.894
363.46	28.169
363.82	29.226
364.18	28.635
364.54	28.456
364.90	26.953
365.26	29.112
365.62	29.708
365.98	28.812
366.35	28.988
366.71	29.268
367.07	29.100
367.43	28.253
367.79	29.823
368.15	29.433
368.51	29.643
368.87	29.361
369.23	28.736
369.59	29.810
369.95	29.472
370.31	30.491
370.67	29.552
371.03	28.753
371.39	29.905
371.75	30.037
372.11	29.173
372.47	30.843
372.83	31.299
373.19	30.670
373.55	28.953
373.91	29.806
374.27	30.687
374.63	31.299
374.99	29.787
375.35	31.198
375.71	30.280
376.07	31.320
376.42	30.204
376.78	31.275
377.14	30.806
377.50	31.275
377.86	31.526
378.22	31.270
378.58	31.603
378.94	30.561
379.30	30.443
379.66	31.724
380.02	30.166
380.38	31.223
380.74	31.418
381.09	31.288
381.45	30.765
381.81	30.290
382.17	31.662
382.53	31.168
382.89	32.141
383.25	32.358
383.61	32.195
383.97	30.857
384.32	31.332
384.68	32.012
385.04	31.801
385.40	30.865
385.76	32.642
386.12	31.953
386.48	32.439
386.83	31.135
387.19	31.807
387.55	31.117
387.91	31.357
388.27	32.112
388.62	32.410
388.98	32.044
389.34	32.105
389.70	33.126
390.06	30.963
390.42	31.930
390.77	32.897
391.13	32.535
391.49	32.665
391.85	32.424
392.20	32.768
392.56	32.359
392.92	32.590
393.28	32.488
393.64	31.411
393.99	32.853
394.35	32.195
394.71	34.163
395.07	32.055
395.42	31.451
395.78	33.290
396.14	32.219
396.50	32.276
396.85	32.260
397.21	32.206
397.57	31.661
397.92	32.055
398.28	32.241
398.64	31.807
399.00	31.716
399.35	32.280
399.71	32.165
400.07	32.588
400.42	32.252
400.78	33.007
401.14	32.789
401.49	32.222
401.85	31.871
402.21	32.530
402.57	32.625
402.92	30.678
403.28	32.519
403.63	32.472
403.99	31.952
404.35	32.917
404.70	31.429
405.06	31.610
405.42	33.188
405.77	30.331
406.13	32.480
406.49	31.380
406.84	31.846
407.20	33.293
407.55	32.775
407.91	31.952
408.27	31.995
408.62	33.354
408.98	31.731
409.34	32.342
409.69	31.525
410.05	31.527
410.40	32.037
410.76	31.242
411.11	32.250
411.47	31.953
411.83	31.325
412.18	33.140
412.54	31.398
412.89	31.712
413.25	32.010
413.60	31.056
413.96	31.166
414.31	32.012
414.67	31.495
415.03	31.691
415.38	32.180
415.74	32.508
416.09	31.744
416.45	32.208
416.80	32.452
417.16	33.011
417.51	31.579
417.87	33.116
418.22	32.642
418.58	31.839
418.93	33.480
419.29	32.586
419.64	31.886
420.00	34.068
420.35	32.060
420.71	32.078
421.06	31.799
421.42	33.594
421.77	33.295
422.12	31.839
422.48	32.160
422.83	32.773
423.19	33.465
423.54	32.451
423.90	32.332
424.25	32.262
424.61	32.925
424.96	32.636
425.31	34.547
425.67	33.509
426.02	33.510
426.38	34.252
426.73	33.596
427.09	34.051
427.44	34.235
427.79	34.060
428.15	33.556
428.50	32.889
428.85	33.108
429.21	33.673
429.56	33.801
429.92	33.128
430.27	32.932
430.62	33.089
430.98	33.227
431.33	33.964
431.68	32.862
432.04	34.433
432.39	33.771
432.74	33.494
433.10	35.115
433.45	34.588
433.80	34.127
434.16	33.740
434.51	34.409
434.86	34.901
435.22	32.866
435.57	34.373
435.92	35.389
436.28	34.109
436.63	34.398
436.98	35.110
437.34	34.362
437.69	35.957
438.04	34.416
438.39	35.308
438.75	36.066
439.10	36.163
439.45	36.153
439.81	35.474
440.16	36.936
440.51	35.701
440.86	36.495
441.22	35.803
441.57	36.755
441.92	36.779
442.27	36.585
442.63	36.563
442.98	36.244
443.33	36.505
443.68	36.393
444.03	36.562
444.39	36.695
444.74	37.347
445.09	37.361
445.44	37.151
445.79	37.545
446.15	37.280
446.50	36.495
446.85	37.885
447.20	37.800
447.55	38.951
447.91	37.112
448.26	37.849
448.61	37.881
448.96	38.841
449.31	38.324
449.66	37.456
450.02	38.505
450.37	38.471
450.72	38.889
451.07	38.481
451.42	37.953
451.77	38.758
452.12	37.500
452.47	38.506
452.83	37.927
453.18	38.267
453.53	38.748
453.88	38.555
454.23	38.168
454.58	38.287
454.93	39.884
455.28	38.159
455.63	39.802
455.98	38.785
456.34	39.208
456.69	38.501
457.04	38.626
457.39	39.611
457.74	38.331
458.09	37.552
458.44	39.029
458.79	38.095
459.14	38.787
459.49	39.761
459.84	38.748
460.19	39.381
460.54	38.570
460.89	38.409
461.24	38.261
461.59	38.539
461.94	38.365
462.29	39.626
462.64	39.003
462.99	38.186
463.34	38.595
463.69	38.417
464.04	38.862
464.39	39.721
464.74	37.853
465.09	38.178
465.44	38.604
465.79	37.755
466.14	39.111
466.49	38.240
466.84	38.786
467.19	39.800
467.54	39.336
467.89	38.408
468.24	38.443
468.59	39.810
468.94	38.603
469.29	39.344
469.64	38.961
469.99	40.014
470.34	38.157
470.68	39.224
471.03	40.410
471.38	39.158
471.73	39.846
472.08	39.281
472.43	38.523
472.78	39.342
473.13	39.048
473.48	38.241
473.83	38.169
474.17	38.860
474.52	38.545
474.87	40.000
475.22	38.621
475.57	39.300
475.92	38.947
476.27	38.999
476.61	38.542
476.96	39.264
477.31	39.048
477.66	38.258
478.01	38.967
478.36	38.562
478.70	39.152
479.05	38.736
479.40	39.640
479.75	37.956
480.10	39.119
480.45	38.250
480.79	39.476
481.14	39.447
481.49	37.685
481.84	37.838
482.19	38.026
482.53	38.225
482.88	37.470
483.23	38.052
483.58	37.311
483.92	38.238
484.27	38.241
484.62	37.875
484.97	37.438
485.31	36.272
485.66	34.820
486.01	35.180
486.36	34.669
486.70	34.883
487.05	35.738
487.40	35.988
487.75	36.141
488.09	36.001
488.44	35.626
488.79	37.206
489.13	36.859
489.48	37.324
489.83	36.771
490.17	37.213
490.52	37.321
490.87	37.112
491.22	38.109
491.56	37.334
491.91	37.189
492.26	38.649
492.60	37.716
492.95	38.367
493.30	37.079
493.64	38.310
493.99	37.391
494.34	38.010
494.68	37.762
495.03	37.275
495.37	37.635
495.72	38.869
496.07	37.902
496.41	36.887
496.76	37.080
497.11	35.631
497.45	37.613
497.80	37.689
498.14	36.910
498.49	37.379
498.84	37.425
499.18	36.998
499.53	36.806
499.87	36.868
500.22	37.141
500.56	37.015
500.91	36.697
501.26	37.074
501.60	37.137
501.95	36.536
502.29	36.949
502.64	36.969
502.98	37.000
503.33	36.455
503.67	36.386
504.02	37.097
504.36	36.714
504.71	35.556
505.06	36.588
505.40	36.853
505.75	37.526
506.09	36.594
506.44	37.628
506.78	37.092
507.13	36.867
507.47	36.084
507.82	36.859
508.16	36.556
508.51	36.569
508.85	37.101
509.19	36.775
509.54	35.818
509.88	36.516
510.23	36.740
510.57	36.665
510.92	34.701
511.26	36.116
511.61	37.294
511.95	36.877
512.30	36.364
512.64	36.617
512.98	36.665
513.33	36.374
513.67	36.441
514.02	37.300
514.36	37.657
514.70	37.879
515.05	38.014
515.39	36.423
515.74	38.383
516.08	37.059
516.42	37.456
516.77	36.747
517.11	36.677
517.46	37.044
517.80	36.830
518.14	36.130
518.49	36.779
518.83	36.695
519.17	35.901
519.52	36.412
519.86	36.675
520.20	36.391
520.55	36.398
520.89	36.637
521.23	36.985
521.58	36.530
521.92	37.179
522.26	35.719
522.61	37.208
522.95	36.954
523.29	36.468
523.64	35.324
523.98	36.163
524.32	35.052
524.66	36.236
525.01	36.623
525.35	36.682
525.69	35.488
526.04	35.450
526.38	37.484
526.72	34.859
527.06	35.927
527.41	36.807
527.75	36.126
528.09	35.947
528.43	36.597
528.78	35.248
529.12	35.935
529.46	35.737
529.80	34.959
530.15	35.710
530.49	35.825
530.83	35.910
531.17	35.124
531.51	35.021
531.86	35.010
532.20	34.586
532.54	35.058
532.88	35.661
533.22	34.745
533.57	34.076
533.91	34.465
534.25	34.831
534.59	33.419
534.93	33.040
535.27	33.503
535.62	32.469
535.96	34.834
536.30	34.565
536.64	34.114
536.98	32.962
537.32	34.566
537.66	33.941
538.01	34.406
538.35	33.356
538.69	33.089
539.03	33.698
539.37	33.984
539.71	33.401
540.05	33.537
540.39	33.310
540.73	34.031
541.07	32.459
541.42	33.804
541.76	34.825
542.10	32.897
542.44	33.495
542.78	31.659
543.12	32.349
543.46	33.449
543.80	33.796
544.14	31.709
544.48	32.645
544.82	32.536
545.16	32.855
545.50	32.443
545.84	33.074
546.18	33.972
546.52	33.670
546.86	32.351
547.20	33.548
547.54	30.954
547.88	32.269
548.22	30.769
548.56	30.739
548.90	30.391
549.24	31.129
549.58	31.805
549.92	29.736
550.26	32.381
550.60	31.599
550.94	31.217
551.28	32.689
551.62	33.462
551.96	32.481
552.30	32.456
552.64	31.735
552.98	30.942
553.32	30.742
553.66	31.930
554.00	31.898
554.34	31.979
554.68	31.490
555.02	30.655
555.36	30.292
555.69	30.037
556.03	31.263
556.37	30.676
556.71	31.769
557.05	31.544
557.39	30.483
557.73	32.084
558.07	31.674
558.41	31.394
558.75	31.177
559.08	31.284
559.42	30.317
559.76	30.665
560.10	30.810
560.44	30.156
560.78	30.280
561.12	30.324
561.45	30.639
561.79	29.832
562.13	31.370
562.47	30.288
562.81	29.539
563.15	29.760
563.48	30.976
563.82	29.307
564.16	30.223
564.50	29.324
564.84	28.648
565.17	28.571
565.51	29.918
565.85	29.218
566.19	29.775
566.52	30.027
566.86	29.563
567.20	28.394
567.54	28.771
567.88	29.643
568.21	29.186
568.55	27.772
568.89	28.593
569.23	27.877
569.56	27.277
569.90	27.365
570.24	26.386
570.57	26.218
570.91	26.943
571.25	25.584
571.59	25.101
571.92	24.207
572.26	24.698
572.60	25.457
572.93	25.133
573.27	24.890
573.61	24.254
573.95	24.850
574.28	24.576
574.62	23.900
574.96	23.361
575.29	23.877
575.63	23.659
575.97	23.936
576.30	23.784
576.64	23.894
576.98	24.144
577.31	24.379
577.65	23.739
577.98	23.605
578.32	23.128
578.66	23.125
578.99	23.374
579.33	23.532
579.67	23.543
580.00	23.873
580.34	23.632
580.67	23.220
581.01	23.727
581.35	22.847
581.68	22.968
582.02	22.995
582.35	23.027
582.69	22.828
583.02	22.944
583.36	23.515
583.70	24.143
584.03	24.520
584.37	24.224
584.70	23.544
585.04	23.549
585.37	23.096
585.71	23.081
586.04	23.222
586.38	23.180
586.72	23.558
587.05	23.541
587.39	23.595
587.72	24.002
588.06	22.807
588.39	23.384
588.73	23.260
589.06	24.005
589.40	23.954
589.73	24.023
590.07	24.131
590.40	23.955
590.73	25.412
591.07	24.555
591.40	24.711
591.74	24.570
592.07	25.046
592.41	24.602
592.74	23.098
593.08	23.507
593.41	23.295
593.75	22.866
594.08	22.554
594.41	23.690
594.75	23.244
595.08	23.912
595.42	23.114
595.75	23.695
596.09	23.495
596.42	23.770
596.75	24.290
597.09	23.645
597.42	24.119
597.75	24.049
598.09	23.947
598.42	23.782
598.76	23.037
599.09	22.556
599.42	22.130
599.76	22.649
600.09	22.775
600.42	22.403
600.76	21.842
601.09	22.176
601.42	22.444
601.76	22.350
602.09	22.814
602.42	23.715
602.76	23.048
603.09	23.256
603.42	23.453
603.76	22.903
604.09	22.519
604.42	23.223
604.76	23.498
605.09	23.766
605.42	22.619
605.75	22.942
606.09	22.633
606.42	22.644
606.75	22.944
607.09	22.725
607.42	21.755
607.75	22.291
608.08	21.698
608.42	22.339
608.75	23.566
609.08	22.820
609.41	23.655
609.75	22.883
610.08	22.866
610.41	22.560
610.74	22.867
611.07	23.773
611.41	23.456
611.74	23.721
612.07	22.752
612.40	23.414
612.73	23.277
613.07	22.610
613.40	23.359
613.73	22.384
614.06	23.261
614.39	24.083
614.72	22.185
615.06	23.017
615.39	22.380
615.72	21.690
616.05	23.687
616.38	21.595
616.71	22.875
617.05	23.162
617.38	23.130
617.71	23.522
618.04	23.429
618.37	24.968
618.70	24.356
619.03	24.514
619.36	23.082
619.69	24.337
620.03	24.617
620.36	24.392
620.69	23.198
621.02	24.006
621.35	25.809
621.68	24.745
622.01	23.667
622.34	23.783
622.67	23.265
623.00	24.119
623.33	23.018
623.66	23.560
623.99	23.676
624.32	24.259
624.65	23.008
624.99	24.454
625.32	23.048
625.65	24.745
625.98	24.174
626.31	22.860
626.64	25.043
626.97	23.997
627.30	25.394
627.63	23.397
627.96	24.798
628.29	24.237
628.62	25.074
628.95	24.248
629.28	24.496
629.61	24.427
629.94	25.220
630.26	24.605
630.59	24.454
630.92	26.051
631.25	23.590
631.58	25.881
631.91	24.452
632.24	25.000
632.57	25.909
632.90	24.318
633.23	24.471
633.56	26.574
633.89	25.154
634.22	24.444
634.55	25.159
634.88	24.904
635.20	25.513
635.53	26.267
635.86	24.187
636.19	25.873
