SpectraSuite Data File
++++++++++++++++++++++++++++++++++++
Date: Fri May 15 20:56:23 PDT 2015
User: schluterlab
Dark Spectrum Present: Yes
Reference Spectrum Present: Yes
Number of Sampled Component Spectra: 1
Spectrometers: USB2E3373
Integration Time (usec): 3000 (USB2E3373)
Spectra Averaged: 3 (USB2E3373)
Boxcar Smoothing: 0 (USB2E3373)
Correct for Electrical Dark: No (USB2E3373)
Strobe/Lamp Enabled: No (USB2E3373)
Correct for Detector Non-linearity: No (USB2E3373)
Correct for Stray Light: No (USB2E3373)
Number of Pixels in Processed Spectrum: 2048
>>>>>Begin Processed Spectral Data<<<<<
178.53	0.000
178.91	0.000
179.29	87.500
179.67	-350.000
180.04	100.000
180.42	0.000
180.80	-1200.000
181.18	-0.000
181.56	-50.000
181.94	-100.000
182.31	900.000
182.69	-60.000
183.07	33.333
183.45	-100.000
183.83	183.333
184.20	9.091
184.58	100.000
184.96	-25.000
185.34	-66.667
185.72	-50.000
186.09	153.846
186.47	-400.000
186.85	150.000
187.23	122.222
187.61	-1000.000
187.98	-200.000
188.36	11.111
188.74	-33.333
189.12	47.059
189.49	38.889
189.87	0.000
190.25	64.286
190.63	100.000
191.00	-166.667
191.38	26.316
191.76	200.000
192.14	-25.000
192.51	-50.000
192.89	-77.778
193.27	-142.857
193.65	166.667
194.02	200.000
194.40	20.000
194.78	-312.500
195.15	16.667
195.53	12.500
195.91	250.000
196.29	-25.000
196.66	92.308
197.04	185.714
197.42	-66.667
197.79	-566.667
198.17	-69.231
198.55	300.000
198.92	66.667
199.30	-700.000
199.68	-220.000
200.05	-233.333
200.43	0.000
200.81	-66.667
201.18	-133.333
201.56	1500.000
201.94	-350.000
202.31	-0.000
202.69	-100.000
203.07	75.000
203.44	900.000
203.82	0.000
204.19	57.143
204.57	-66.667
204.95	162.500
205.32	-120.000
205.70	-85.714
206.08	150.000
206.45	55.556
206.83	28.571
207.20	-71.429
207.58	300.000
207.96	-233.333
208.33	-90.000
208.71	-50.000
209.08	-316.667
209.46	-800.000
209.84	-220.000
210.21	-100.000
210.59	114.286
210.96	0.000
211.34	-50.000
211.71	33.333
212.09	-200.000
212.46	-700.000
212.84	0.000
213.22	10.000
213.59	250.000
213.97	-7.692
214.34	54.545
214.72	-150.000
215.09	300.000
215.47	15.385
215.84	-27.273
216.22	-166.667
216.59	-150.000
216.97	150.000
217.34	-225.000
217.72	-300.000
218.09	-12.500
218.47	37.500
218.84	500.000
219.22	-77.778
219.59	-40.000
219.97	266.667
220.34	175.000
220.72	-71.429
221.09	-50.000
221.47	50.000
221.84	-500.000
222.22	-600.000
222.59	-27.273
222.97	41.667
223.34	-166.667
223.72	-14.286
224.09	-14.286
224.46	50.000
224.84	366.667
225.21	60.000
225.59	-40.000
225.96	-550.000
226.34	275.000
226.71	-100.000
227.08	-66.667
227.46	-25.000
227.83	-400.000
228.21	-11.111
228.58	9.091
228.95	-50.000
229.33	30.000
229.70	-37.500
230.08	-50.000
230.45	-28.571
230.82	14.286
231.20	6.667
231.57	14.286
231.95	85.714
232.32	-40.000
232.69	0.000
233.07	33.333
233.44	-120.000
233.81	0.000
234.19	44.444
234.56	0.000
234.93	400.000
235.31	275.000
235.68	-200.000
236.05	-23.077
236.43	-15.000
236.80	17.647
237.17	25.000
237.55	25.000
237.92	37.037
238.29	19.444
238.67	6.667
239.04	55.882
239.41	-4.878
239.79	23.333
240.16	29.268
240.53	13.158
240.91	23.913
241.28	55.556
241.65	32.143
242.02	35.616
242.40	40.000
242.77	28.814
243.14	34.848
243.51	48.750
243.89	49.425
244.26	27.586
244.63	45.238
245.00	34.021
245.38	50.515
245.75	39.326
246.12	34.483
246.49	43.802
246.87	35.577
247.24	33.613
247.61	44.737
247.98	39.024
248.36	41.875
248.73	39.474
249.10	35.065
249.47	41.772
249.84	43.137
250.22	44.118
250.59	52.288
250.96	38.967
251.33	38.372
251.70	54.118
252.08	40.102
252.45	41.089
252.82	46.734
253.19	50.230
253.56	39.720
253.94	43.694
254.31	45.652
254.68	47.368
255.05	41.732
255.42	48.908
255.79	44.015
256.16	42.802
256.54	40.299
256.91	41.445
257.28	40.892
257.65	43.446
258.02	40.426
258.39	44.108
258.76	46.886
259.14	45.847
259.51	41.100
259.88	39.863
260.25	44.444
260.62	45.486
260.99	40.678
261.36	43.151
261.73	42.405
262.10	41.945
262.47	42.025
262.85	41.066
263.22	44.308
263.59	42.991
263.96	41.615
264.33	41.212
264.70	43.750
265.07	45.833
265.44	49.008
265.81	45.763
266.18	44.536
266.55	42.674
266.92	46.114
267.29	46.475
267.66	41.688
268.03	47.382
268.40	42.820
268.77	47.594
269.14	45.324
269.51	46.272
269.88	44.888
270.25	42.857
270.62	41.707
270.99	44.757
271.36	42.787
271.73	42.019
272.10	45.255
272.47	42.790
272.84	44.307
273.21	41.763
273.58	45.301
273.95	45.309
274.32	39.954
274.69	40.045
275.06	43.527
275.43	41.497
275.80	45.033
276.17	44.828
276.54	41.328
276.91	44.298
277.28	41.485
277.65	41.116
278.02	42.340
278.39	41.794
278.76	43.816
279.13	39.212
279.50	41.176
279.87	43.844
280.23	38.925
280.60	41.520
280.97	41.818
281.34	41.346
281.71	43.121
282.08	39.877
282.45	40.705
282.82	40.154
283.19	41.006
283.56	43.931
283.92	39.469
284.29	39.615
284.66	39.341
285.03	40.472
285.40	38.185
285.77	39.719
286.14	40.433
286.51	41.144
286.87	36.929
287.24	40.516
287.61	39.153
287.98	39.649
288.35	38.648
288.72	39.755
289.08	40.451
289.45	39.016
289.82	40.734
290.19	35.666
290.56	36.707
290.93	37.205
291.29	34.515
291.66	37.480
292.03	34.450
292.40	36.452
292.77	33.812
293.13	32.630
293.50	33.080
293.87	33.588
294.24	34.467
294.60	34.128
294.97	33.631
295.34	32.822
295.71	31.446
296.08	33.632
296.44	28.165
296.81	32.083
297.18	32.899
297.55	32.791
297.91	30.959
298.28	31.003
298.65	30.801
299.02	30.458
299.38	28.317
299.75	29.793
300.12	29.712
300.48	29.776
300.85	29.785
301.22	28.961
301.59	29.605
301.95	30.759
302.32	30.610
302.69	28.607
303.05	29.455
303.42	29.390
303.79	28.972
304.15	29.988
304.52	27.348
304.89	28.304
305.25	28.087
305.62	27.071
305.99	28.538
306.35	28.555
306.72	26.659
307.09	27.594
307.45	29.392
307.82	29.051
308.19	28.455
308.55	28.135
308.92	28.322
309.29	26.369
309.65	27.449
310.02	27.613
310.38	29.089
310.75	28.962
311.12	27.772
311.48	27.359
311.85	27.120
312.22	28.481
312.58	27.070
312.95	26.254
313.31	25.983
313.68	27.435
314.05	25.102
314.41	27.423
314.78	27.216
315.14	27.749
315.51	27.847
315.87	27.357
316.24	27.098
316.61	27.756
316.97	26.587
317.34	26.465
317.70	25.239
318.07	27.692
318.43	27.843
318.80	25.758
319.16	27.441
319.53	27.350
319.89	27.657
320.26	27.227
320.62	27.182
320.99	25.470
321.35	26.824
321.72	26.376
322.08	26.888
322.45	27.513
322.81	26.916
323.18	26.497
323.54	27.027
323.91	26.777
324.27	27.734
324.64	27.247
325.00	26.551
325.37	27.548
325.73	25.748
326.10	27.884
326.46	28.251
326.83	27.209
327.19	27.289
327.56	26.759
327.92	28.169
328.29	25.625
328.65	25.755
329.01	25.092
329.38	26.636
329.74	25.307
330.11	26.228
330.47	25.232
330.84	25.481
331.20	27.186
331.56	25.000
331.93	25.845
332.29	27.223
332.66	25.882
333.02	25.743
333.38	24.931
333.75	25.458
334.11	25.336
334.48	27.561
334.84	25.275
335.20	25.709
335.57	23.209
335.93	26.378
336.29	24.586
336.66	25.431
337.02	24.442
337.38	25.000
337.75	24.636
338.11	25.969
338.47	25.912
338.84	25.231
339.20	24.680
339.56	25.505
339.93	23.545
340.29	26.055
340.65	26.613
341.02	24.645
341.38	25.133
341.74	23.057
342.11	23.484
342.47	24.733
342.83	24.913
343.20	25.348
343.56	24.870
343.92	24.004
344.28	25.278
344.65	24.784
345.01	23.941
345.37	23.381
345.73	24.854
346.10	25.194
346.46	24.054
346.82	23.895
347.19	23.691
347.55	25.647
347.91	24.029
348.27	24.010
348.63	24.446
349.00	24.364
349.36	23.940
349.72	24.793
350.08	23.525
350.45	24.342
350.81	23.173
351.17	23.371
351.53	24.082
351.89	23.617
352.26	23.120
352.62	24.355
352.98	22.570
353.34	22.625
353.70	24.515
354.07	25.161
354.43	23.299
354.79	22.874
355.15	23.968
355.51	22.864
355.87	23.625
356.24	22.349
356.60	24.171
356.96	24.206
357.32	22.843
357.68	22.909
358.04	23.102
358.40	22.267
358.77	23.445
359.13	22.658
359.49	22.419
359.85	22.933
360.21	22.648
360.57	23.106
360.93	22.693
361.29	21.450
361.66	22.179
362.02	22.879
362.38	22.544
362.74	22.559
363.10	22.874
363.46	22.980
363.82	24.343
364.18	23.247
364.54	22.721
364.90	22.581
365.26	22.780
365.62	22.774
365.98	22.214
366.35	23.452
366.71	22.247
367.07	22.932
367.43	21.639
367.79	22.403
368.15	22.685
368.51	21.777
368.87	22.972
369.23	21.949
369.59	22.157
369.95	23.607
370.31	22.977
370.67	22.239
371.03	21.882
371.39	22.028
371.75	23.590
372.11	22.397
372.47	22.855
372.83	21.859
373.19	22.539
373.55	21.300
373.91	22.894
374.27	23.955
374.63	21.967
374.99	21.560
375.35	21.170
375.71	22.308
376.07	22.051
376.42	22.517
376.78	22.013
377.14	21.666
377.50	21.514
377.86	21.954
378.22	21.570
378.58	21.795
378.94	21.109
379.30	21.959
379.66	22.884
380.02	21.398
380.38	21.120
380.74	21.664
381.09	22.454
381.45	20.734
381.81	22.764
382.17	21.193
382.53	20.800
382.89	21.218
383.25	21.966
383.61	22.073
383.97	20.635
384.32	20.763
384.68	21.486
385.04	21.140
385.40	20.909
385.76	22.264
386.12	21.798
386.48	21.456
386.83	21.877
387.19	21.429
387.55	21.581
387.91	21.577
388.27	20.452
388.62	21.397
388.98	21.731
389.34	22.049
389.70	20.820
390.06	20.831
390.42	20.920
390.77	21.256
391.13	20.870
391.49	21.022
391.85	20.663
392.20	20.590
392.56	20.979
392.92	21.022
393.28	20.578
393.64	21.381
393.99	21.567
394.35	21.632
394.71	21.009
395.07	20.427
395.42	20.765
395.78	20.912
396.14	20.996
396.50	21.623
396.85	21.378
397.21	20.050
397.57	20.878
397.92	20.791
398.28	21.609
398.64	20.241
399.00	20.655
399.35	19.695
399.71	20.678
400.07	20.979
400.42	20.747
400.78	21.127
401.14	21.597
401.49	21.144
401.85	20.719
402.21	20.783
402.57	21.312
402.92	19.762
403.28	21.115
403.63	20.870
403.99	20.408
404.35	20.924
404.70	19.881
405.06	19.800
405.42	20.137
405.77	19.930
406.13	21.071
406.49	20.485
406.84	20.416
407.20	21.192
407.55	20.026
407.91	19.853
408.27	19.885
408.62	21.169
408.98	21.195
409.34	20.508
409.69	19.897
410.05	20.505
410.40	20.185
410.76	20.446
411.11	20.875
411.47	20.842
411.83	20.151
412.18	20.785
412.54	21.286
412.89	20.197
413.25	20.517
413.60	20.311
413.96	20.552
414.31	20.488
414.67	20.654
415.03	19.907
415.38	20.627
415.74	21.759
416.09	21.097
416.45	20.662
416.80	20.886
417.16	20.856
417.51	20.653
417.87	19.817
418.22	19.689
418.58	20.535
418.93	20.752
419.29	20.102
419.64	19.183
420.00	21.096
420.35	20.179
420.71	19.623
421.06	20.196
421.42	20.433
421.77	19.191
422.12	20.034
422.48	20.087
422.83	20.766
423.19	20.429
423.54	20.694
423.90	19.965
424.25	20.379
424.61	21.175
424.96	19.919
425.31	20.566
425.67	20.012
426.02	21.084
426.38	20.726
426.73	20.460
427.09	21.203
427.44	20.765
427.79	21.037
428.15	19.903
428.50	19.624
428.85	20.209
429.21	20.770
429.56	20.647
429.92	20.390
430.27	20.100
430.62	20.125
430.98	20.011
431.33	20.557
431.68	20.460
432.04	20.235
432.39	20.194
432.74	19.723
433.10	20.575
433.45	20.789
433.80	19.849
434.16	18.947
434.51	20.323
434.86	20.790
435.22	20.976
435.57	20.711
435.92	20.120
436.28	20.453
436.63	20.194
436.98	19.177
437.34	20.145
437.69	20.513
438.04	19.373
438.39	20.586
438.75	21.008
439.10	19.581
439.45	19.477
439.81	20.122
440.16	19.596
440.51	20.776
440.86	21.450
441.22	19.570
441.57	19.812
441.92	20.619
442.27	20.067
442.63	20.717
442.98	20.276
443.33	20.033
443.68	20.531
444.03	21.013
444.39	20.216
444.74	20.847
445.09	20.824
445.44	20.627
445.79	20.784
446.15	20.595
446.50	19.967
446.85	19.660
447.20	20.021
447.55	20.926
447.91	20.192
448.26	21.286
448.61	20.841
448.96	21.056
449.31	20.578
449.66	20.325
450.02	20.422
450.37	20.510
450.72	20.389
451.07	20.127
451.42	20.225
451.77	20.976
452.12	19.199
452.47	19.704
452.83	21.260
453.18	21.189
453.53	21.239
453.88	20.947
454.23	19.914
454.58	21.285
454.93	19.716
455.28	19.746
455.63	20.831
455.98	20.625
456.34	20.498
456.69	20.712
457.04	21.235
457.39	21.203
457.74	20.133
458.09	19.305
458.44	19.836
458.79	21.008
459.14	20.767
459.49	21.731
459.84	20.756
460.19	20.813
460.54	20.782
460.89	20.625
461.24	21.615
461.59	20.843
461.94	20.126
462.29	21.773
462.64	20.997
462.99	20.988
463.34	19.541
463.69	20.721
464.04	19.976
464.39	20.073
464.74	20.184
465.09	20.337
465.44	20.889
465.79	19.671
466.14	20.353
466.49	20.127
466.84	20.405
467.19	20.526
467.54	21.009
467.89	20.025
468.24	20.012
468.59	21.143
468.94	19.873
469.29	20.525
469.64	21.258
469.99	20.673
470.34	19.727
470.68	20.433
471.03	20.878
471.38	20.114
471.73	20.378
472.08	19.742
472.43	19.866
472.78	18.986
473.13	19.728
473.48	20.521
473.83	19.240
474.17	20.855
474.52	20.421
474.87	20.061
475.22	20.256
475.57	20.158
475.92	20.406
476.27	20.722
476.61	19.734
476.96	19.967
477.31	20.822
477.66	19.326
478.01	20.213
478.36	19.880
478.70	20.120
479.05	20.604
479.40	20.138
479.75	19.917
480.10	20.225
480.45	19.050
480.79	20.544
481.14	20.697
481.49	19.803
481.84	19.836
482.19	19.598
482.53	21.007
482.88	20.525
483.23	20.393
483.58	20.755
483.92	19.894
484.27	19.736
484.62	20.081
484.97	19.610
485.31	20.195
485.66	19.156
486.01	19.721
486.36	20.297
486.70	20.937
487.05	21.354
487.40	21.096
487.75	21.042
488.09	20.859
488.44	20.908
488.79	20.807
489.13	20.913
489.48	20.180
489.83	20.628
490.17	20.674
490.52	19.861
490.87	19.574
491.22	20.487
491.56	20.209
491.91	20.602
492.26	20.418
492.60	19.818
492.95	20.561
493.30	20.176
493.64	20.776
493.99	20.531
494.34	19.563
494.68	20.143
495.03	19.805
495.37	19.676
495.72	20.091
496.07	20.439
496.41	20.189
496.76	20.544
497.11	19.935
497.45	20.095
497.80	21.090
498.14	19.970
498.49	20.416
498.84	20.359
499.18	20.281
499.53	19.792
499.87	19.455
500.22	19.535
500.56	20.121
500.91	19.829
501.26	20.020
501.60	19.479
501.95	20.184
502.29	20.630
502.64	20.319
502.98	20.079
503.33	19.212
503.67	19.807
504.02	20.626
504.36	20.534
504.71	19.293
505.06	20.483
505.40	19.746
505.75	19.742
506.09	20.274
506.44	20.791
506.78	20.000
507.13	20.372
507.47	19.634
507.82	19.818
508.16	19.968
508.51	20.462
508.85	19.937
509.19	19.585
509.54	20.536
509.88	19.741
510.23	20.172
510.57	20.631
510.92	19.776
511.26	19.749
511.61	19.692
511.95	20.219
512.30	19.734
512.64	20.033
512.98	19.652
513.33	20.090
513.67	19.898
514.02	20.595
514.36	20.629
514.70	20.338
515.05	20.740
515.39	20.366
515.74	20.299
516.08	21.040
516.42	20.318
516.77	20.655
517.11	19.881
517.46	20.467
517.80	20.799
518.14	20.147
518.49	20.433
518.83	20.109
519.17	19.709
519.52	19.834
519.86	19.868
520.20	20.778
520.55	19.700
520.89	20.828
521.23	20.139
521.58	21.136
521.92	20.385
522.26	20.104
522.61	20.584
522.95	20.530
523.29	19.949
523.64	20.140
523.98	20.674
524.32	19.523
524.66	20.487
525.01	20.974
525.35	20.415
525.69	20.135
526.04	19.974
526.38	21.725
526.72	18.509
527.06	20.039
527.41	20.580
527.75	19.839
528.09	20.664
528.43	20.932
528.78	20.198
529.12	21.097
529.46	19.363
529.80	20.329
530.15	21.188
530.49	20.202
530.83	20.451
531.17	20.148
531.51	20.588
531.86	20.122
532.20	20.181
532.54	20.218
532.88	20.465
533.22	20.094
533.57	21.101
533.91	20.366
534.25	21.419
534.59	20.205
534.93	20.076
535.27	19.734
535.62	20.480
535.96	20.613
536.30	20.515
536.64	20.606
536.98	20.488
537.32	20.484
537.66	21.108
538.01	20.350
538.35	20.042
538.69	20.107
539.03	20.574
539.37	21.602
539.71	20.791
540.05	20.367
540.39	20.083
540.73	20.502
541.07	20.925
541.42	20.901
541.76	20.922
542.10	19.546
542.44	20.014
542.78	19.890
543.12	19.025
543.46	21.001
543.80	20.333
544.14	19.826
544.48	21.053
544.82	20.916
545.16	20.014
545.50	21.429
545.84	21.530
546.18	20.638
546.52	20.692
546.86	20.561
547.20	20.529
547.54	19.223
547.88	20.584
548.22	19.921
548.56	20.844
548.90	20.889
549.24	20.179
549.58	19.605
549.92	19.871
550.26	19.487
550.60	20.595
550.94	20.239
551.28	19.784
551.62	21.077
551.96	20.451
552.30	20.029
552.64	20.522
552.98	20.745
553.32	19.615
553.66	20.102
554.00	20.803
554.34	20.901
554.68	19.912
555.02	20.610
555.36	20.344
555.69	19.927
556.03	19.629
556.37	19.715
556.71	21.083
557.05	20.358
557.39	19.926
557.73	21.289
558.07	21.946
558.41	19.296
558.75	20.499
559.08	19.937
559.42	20.714
559.76	19.616
560.10	20.872
560.44	20.179
560.78	20.140
561.12	21.016
561.45	20.661
561.79	21.639
562.13	20.582
562.47	20.791
562.81	20.245
563.15	20.663
563.48	19.661
563.82	20.041
564.16	20.056
564.50	20.811
564.84	20.080
565.17	20.322
565.51	21.926
565.85	20.850
566.19	20.557
566.52	20.576
566.86	21.272
567.20	20.735
567.54	20.195
567.88	21.265
568.21	21.606
568.55	20.815
568.89	20.483
569.23	22.003
569.56	21.191
569.90	20.950
570.24	20.878
570.57	21.018
570.91	21.366
571.25	20.618
571.59	20.430
571.92	20.296
572.26	20.954
572.60	20.682
572.93	21.368
573.27	20.470
573.61	20.883
573.95	20.945
574.28	20.551
574.62	20.849
574.96	20.992
575.29	20.798
575.63	20.187
575.97	20.439
576.30	20.917
576.64	20.106
576.98	21.004
577.31	21.111
577.65	20.940
577.98	20.943
578.32	20.855
578.66	20.675
578.99	21.385
579.33	21.109
579.67	20.767
580.00	20.937
580.34	20.920
580.67	20.969
581.01	21.013
581.35	20.586
581.68	20.783
582.02	20.719
582.35	20.817
582.69	20.997
583.02	21.769
583.36	21.173
583.70	21.911
584.03	21.852
584.37	21.880
584.70	21.813
585.04	20.725
585.37	20.663
585.71	20.760
586.04	20.877
586.38	20.565
586.72	21.463
587.05	20.479
587.39	21.219
587.72	21.733
588.06	21.035
588.39	21.646
588.73	21.245
589.06	21.363
589.40	21.708
589.73	21.760
590.07	21.790
590.40	21.517
590.73	22.323
591.07	21.035
591.40	20.703
591.74	20.950
592.07	21.753
592.41	21.069
592.74	20.430
593.08	20.154
593.41	20.329
593.75	20.641
594.08	20.082
594.41	21.070
594.75	21.031
595.08	21.075
595.42	21.126
595.75	21.893
596.09	21.736
596.42	21.579
596.75	21.048
597.09	20.729
597.42	20.822
597.75	20.889
598.09	21.141
598.42	20.262
598.76	21.021
599.09	20.433
599.42	20.728
599.76	20.993
600.09	20.513
600.42	20.508
600.76	20.319
601.09	20.229
601.42	20.721
601.76	20.564
602.09	20.875
602.42	21.862
602.76	20.798
603.09	21.429
603.42	20.903
603.76	20.726
604.09	20.494
604.42	21.108
604.76	21.718
605.09	21.527
605.42	20.361
605.75	20.665
606.09	20.892
606.42	20.267
606.75	20.996
607.09	21.011
607.42	20.824
607.75	20.471
608.08	20.081
608.42	20.009
608.75	21.253
609.08	20.628
609.41	21.066
609.75	21.018
610.08	21.218
610.41	20.725
610.74	20.478
611.07	21.292
611.41	21.173
611.74	20.949
612.07	20.664
612.40	21.335
612.73	20.678
613.07	20.360
613.40	20.788
613.73	21.097
614.06	21.258
614.39	20.023
614.72	19.664
615.06	20.670
615.39	20.579
615.72	18.945
616.05	21.229
616.38	19.316
616.71	20.061
617.05	20.568
617.38	20.427
617.71	21.321
618.04	21.397
618.37	21.059
618.70	21.056
619.03	21.111
619.36	20.405
619.69	20.849
620.03	21.914
620.36	21.245
620.69	20.414
621.02	20.336
621.35	21.162
621.68	21.003
622.01	20.667
622.34	20.032
622.67	20.584
623.00	20.904
623.33	20.884
623.66	19.147
623.99	20.953
624.32	20.608
624.65	19.023
624.99	19.940
625.32	20.318
625.65	20.896
625.98	21.031
626.31	19.950
626.64	21.490
626.97	20.593
627.30	20.140
627.63	21.057
627.96	21.384
628.29	20.167
628.62	20.059
628.95	21.343
629.28	19.355
629.61	19.741
629.94	20.821
630.26	19.763
630.59	20.291
630.92	20.718
631.25	19.692
631.58	20.815
631.91	18.640
632.24	20.069
632.57	21.136
632.90	18.268
633.23	21.529
633.56	20.655
