SpectraSuite Data File
++++++++++++++++++++++++++++++++++++
Date: Fri May 15 21:08:36 PDT 2015
User: schluterlab
Dark Spectrum Present: Yes
Reference Spectrum Present: Yes
Number of Sampled Component Spectra: 1
Spectrometers: USB2E3373
Integration Time (usec): 3000 (USB2E3373)
Spectra Averaged: 3 (USB2E3373)
Boxcar Smoothing: 0 (USB2E3373)
Correct for Electrical Dark: No (USB2E3373)
Strobe/Lamp Enabled: No (USB2E3373)
Correct for Detector Non-linearity: No (USB2E3373)
Correct for Stray Light: No (USB2E3373)
Number of Pixels in Processed Spectrum: 2048
>>>>>Begin Processed Spectral Data<<<<<
178.53	0.000
178.91	0.000
179.29	-12.500
179.67	-50.000
180.04	-28.571
180.42	0.000
180.80	-300.000
181.18	100.000
181.56	400.000
181.94	50.000
182.31	1100.000
182.69	20.000
183.07	-266.667
183.45	-200.000
183.83	283.333
184.20	0.000
184.58	133.333
184.96	-225.000
185.34	133.333
185.72	-150.000
186.09	169.231
186.47	-1100.000
186.85	183.333
187.23	111.111
187.61	500.000
187.98	-66.667
188.36	-100.000
188.74	-66.667
189.12	-5.882
189.49	5.556
189.87	0.000
190.25	78.571
190.63	0.000
191.00	-533.333
191.38	10.526
191.76	100.000
192.14	-175.000
192.51	250.000
192.89	0.000
193.27	-57.143
193.65	116.667
194.02	172.727
194.40	-90.000
194.78	-25.000
195.15	-16.667
195.53	-100.000
195.91	150.000
196.29	-375.000
196.66	123.077
197.04	42.857
197.42	-33.333
197.79	-200.000
198.17	-61.538
198.55	1300.000
198.92	-366.667
199.30	200.000
199.68	-120.000
200.05	-266.667
200.43	0.000
200.81	-233.333
201.18	100.000
201.56	1100.000
201.94	-250.000
202.31	33.333
202.69	-40.000
203.07	100.000
203.44	300.000
203.82	0.000
204.19	35.714
204.57	-466.667
204.95	175.000
205.32	-20.000
205.70	100.000
206.08	125.000
206.45	177.778
206.83	71.429
207.20	-114.286
207.58	1000.000
207.96	-133.333
208.33	-30.000
208.71	-75.000
209.08	-266.667
209.46	0.000
209.84	0.000
210.21	-300.000
210.59	128.571
210.96	-166.667
211.34	-275.000
211.71	6.667
212.09	-42.857
212.46	-1400.000
212.84	0.000
213.22	0.000
213.59	400.000
213.97	46.154
214.34	9.091
214.72	-116.667
215.09	325.000
215.47	-30.769
215.84	-9.091
216.22	-333.333
216.59	-150.000
216.97	300.000
217.34	-50.000
217.72	-200.000
218.09	-37.500
218.47	112.500
218.84	200.000
219.22	-122.222
219.59	-100.000
219.97	433.333
220.34	275.000
220.72	-57.143
221.09	-25.000
221.47	-150.000
221.84	-550.000
222.22	-700.000
222.59	-81.818
222.97	0.000
223.34	-233.333
223.72	-50.000
224.09	-23.810
224.46	17.857
224.84	500.000
225.21	50.000
225.59	6.667
225.96	-100.000
226.34	225.000
226.71	-185.714
227.08	-133.333
227.46	-75.000
227.83	-600.000
228.21	-88.889
228.58	-90.909
228.95	-125.000
229.33	70.000
229.70	-12.500
230.08	0.000
230.45	-28.571
230.82	57.143
231.20	-40.000
231.57	-14.286
231.95	71.429
232.32	-60.000
232.69	50.000
233.07	-66.667
233.44	-20.000
233.81	-30.000
234.19	-11.111
234.56	-41.176
234.93	350.000
235.31	125.000
235.68	-220.000
236.05	-53.846
236.43	-30.000
236.80	11.765
237.17	28.125
237.55	-40.000
237.92	11.111
238.29	5.556
238.67	13.333
239.04	17.647
239.41	-34.146
239.79	-20.000
240.16	17.073
240.53	2.632
240.91	-2.174
241.28	4.762
241.65	17.857
242.02	17.808
242.40	13.333
242.77	10.169
243.14	10.606
243.51	-2.500
243.89	22.989
244.26	18.391
244.63	10.714
245.00	13.402
245.38	20.619
245.75	-1.124
246.12	6.897
246.49	9.917
246.87	20.192
247.24	3.361
247.61	7.895
247.98	15.447
248.36	5.000
248.73	17.105
249.10	11.039
249.47	15.190
249.84	11.111
250.22	13.529
250.59	17.647
250.96	13.615
251.33	12.791
251.70	11.176
252.08	14.721
252.45	16.337
252.82	15.075
253.19	17.512
253.56	11.215
253.94	11.712
254.31	15.652
254.68	18.860
255.05	17.717
255.42	17.904
255.79	13.900
256.16	17.510
256.54	16.045
256.91	16.730
257.28	15.242
257.65	13.858
258.02	13.121
258.39	17.508
258.76	17.582
259.14	18.605
259.51	16.181
259.88	12.027
260.25	19.608
260.62	13.542
260.99	14.576
261.36	11.644
261.73	14.873
262.10	16.109
262.47	15.644
262.85	17.555
263.22	16.308
263.59	18.069
263.96	17.391
264.33	17.576
264.70	13.690
265.07	14.881
265.44	16.997
265.81	17.514
266.18	16.940
266.55	16.710
266.92	14.508
267.29	15.666
267.66	16.368
268.03	14.921
268.40	13.316
268.77	16.845
269.14	15.588
269.51	15.167
269.88	15.960
270.25	15.816
270.62	16.098
270.99	14.578
271.36	14.181
271.73	14.789
272.10	18.005
272.47	15.366
272.84	15.842
273.21	15.081
273.58	16.145
273.95	15.561
274.32	12.933
274.69	12.896
275.06	16.741
275.43	14.966
275.80	16.556
276.17	13.333
276.54	13.919
276.91	15.789
277.28	16.376
277.65	15.083
278.02	15.106
278.39	14.004
278.76	13.836
279.13	15.768
279.50	16.176
279.87	14.687
280.23	13.763
280.60	15.595
280.97	14.141
281.34	15.962
281.71	15.811
282.08	14.315
282.45	14.677
282.82	13.320
283.19	14.120
283.56	14.836
283.92	12.524
284.29	13.462
284.66	12.597
285.03	15.128
285.40	13.800
285.77	13.005
286.14	17.329
286.51	16.605
286.87	13.528
287.24	13.812
287.61	15.344
287.98	14.386
288.35	14.038
288.72	15.587
289.08	13.715
289.45	12.830
289.82	14.336
290.19	14.676
290.56	11.835
290.93	13.468
291.29	13.097
291.66	14.016
292.03	12.600
292.40	13.387
292.77	11.962
293.13	9.740
293.50	11.836
293.87	12.214
294.24	14.219
294.60	14.158
294.97	12.202
295.34	11.656
295.71	11.773
296.08	12.108
296.44	10.384
296.81	12.500
297.18	13.913
297.55	14.363
297.91	11.781
298.28	14.380
298.65	11.669
299.02	13.073
299.38	10.123
299.75	13.379
300.12	11.780
300.48	13.175
300.85	12.041
301.22	11.558
301.59	12.237
301.95	12.911
302.32	13.230
302.69	12.438
303.05	12.995
303.42	12.329
303.79	12.500
304.15	12.186
304.52	11.653
304.89	11.930
305.25	10.896
305.62	10.618
305.99	11.930
306.35	11.908
306.72	12.148
307.09	10.604
307.45	11.940
307.82	11.921
308.19	13.124
308.55	11.778
308.92	13.725
309.29	12.961
309.65	12.702
310.02	11.991
310.38	11.965
310.75	13.333
311.12	13.025
311.48	12.831
311.85	12.984
312.22	12.342
312.58	13.057
312.95	12.593
313.31	13.147
313.68	13.298
314.05	13.980
314.41	15.155
314.78	15.052
315.14	14.286
315.51	15.217
315.87	14.857
316.24	16.077
316.61	15.748
316.97	13.889
317.34	15.820
317.70	16.157
318.07	15.288
318.43	15.980
318.80	15.720
319.16	16.504
319.53	16.904
319.89	17.028
320.26	16.296
320.62	17.854
320.99	15.971
321.35	17.472
321.72	17.549
322.08	18.429
322.45	18.173
322.81	19.253
323.18	18.646
323.54	18.919
323.91	18.403
324.27	20.215
324.64	19.850
325.00	20.529
325.37	21.212
325.73	18.767
326.10	20.708
326.46	21.704
326.83	20.560
327.19	20.750
327.56	20.678
327.92	21.655
328.29	22.054
328.65	21.604
329.01	22.151
329.38	22.581
329.74	21.152
330.11	21.687
330.47	22.542
330.84	20.096
331.20	23.574
331.56	21.204
331.93	23.379
332.29	24.198
332.66	21.900
333.02	21.561
333.38	22.090
333.75	22.253
334.11	21.934
334.48	22.756
334.84	22.527
335.20	22.415
335.57	21.668
335.93	22.674
336.29	22.560
336.66	21.526
337.02	21.097
337.38	21.389
337.75	23.000
338.11	23.264
338.47	23.905
338.84	22.366
339.20	22.669
339.56	23.303
339.93	23.187
340.29	22.385
340.65	22.670
341.02	22.518
341.38	22.832
341.74	22.261
342.11	22.444
342.47	22.687
342.83	23.010
343.20	22.300
343.56	22.261
343.92	22.586
344.28	21.264
344.65	21.244
345.01	24.201
345.37	22.792
345.73	23.431
346.10	23.037
346.46	24.138
346.82	22.668
347.19	22.195
347.55	23.726
347.91	23.301
348.27	21.665
348.63	23.595
349.00	22.724
349.36	22.693
349.72	23.549
350.08	24.098
350.45	23.943
350.81	22.010
351.17	22.638
351.53	23.347
351.89	23.617
352.26	22.800
352.62	23.226
352.98	23.534
353.34	22.947
353.70	23.463
354.07	23.226
354.43	23.779
354.79	23.782
355.15	23.730
355.51	23.655
355.87	23.301
356.24	22.838
356.60	22.555
356.96	22.857
357.32	23.482
357.68	23.847
358.04	23.586
358.40	23.875
358.77	24.561
359.13	23.539
359.49	23.190
359.85	23.245
360.21	23.764
360.57	24.101
360.93	25.038
361.29	22.961
361.66	24.060
362.02	24.545
362.38	25.362
362.74	24.073
363.10	24.906
363.46	24.388
363.82	24.793
364.18	24.280
364.54	25.000
364.90	24.444
365.26	24.600
365.62	25.109
365.98	25.147
366.35	25.929
366.71	25.795
367.07	25.254
367.43	25.018
367.79	25.795
368.15	25.197
368.51	25.127
368.87	25.485
369.23	24.910
369.59	24.708
369.95	27.346
370.31	26.228
370.67	25.896
371.03	24.795
371.39	25.018
371.75	26.740
372.11	26.748
372.47	26.479
372.83	25.834
373.19	26.676
373.55	25.704
373.91	25.558
374.27	26.081
374.63	26.561
374.99	25.816
375.35	27.019
375.71	27.902
376.07	27.247
376.42	27.619
376.78	25.906
377.14	27.691
377.50	27.490
377.86	27.175
378.22	28.207
378.58	28.013
378.94	27.662
379.30	28.447
379.66	28.589
380.02	27.897
380.38	27.876
380.74	27.887
381.09	27.853
381.45	27.951
381.81	28.254
382.17	27.411
382.53	28.545
382.89	28.500
383.25	28.127
383.61	28.537
383.97	28.762
384.32	28.580
384.68	29.288
385.04	28.554
385.40	28.811
385.76	29.057
386.12	29.690
386.48	30.460
386.83	29.740
387.19	29.182
387.55	29.925
387.91	29.095
388.27	28.816
388.62	30.522
388.98	29.711
389.34	30.481
389.70	30.329
390.06	29.767
390.42	29.793
390.77	30.020
391.13	29.697
391.49	30.207
391.85	30.149
392.20	29.190
392.56	31.341
392.92	29.947
393.28	31.073
393.64	30.511
393.99	31.034
394.35	30.740
394.71	31.609
395.07	30.170
395.42	30.844
395.78	31.466
396.14	30.328
396.50	31.325
396.85	30.844
397.21	30.388
397.57	30.094
397.92	30.377
398.28	31.954
398.64	31.024
399.00	31.490
399.35	31.095
399.71	31.074
400.07	31.016
400.42	31.395
400.78	31.476
401.14	31.155
401.49	31.745
401.85	30.774
402.21	30.964
402.57	30.875
402.92	30.991
403.28	31.642
403.63	32.156
403.99	31.441
404.35	30.981
404.70	31.310
405.06	30.787
405.42	30.951
405.77	30.912
406.13	31.607
406.49	31.380
406.84	32.029
407.20	31.367
407.55	30.779
407.91	31.083
408.27	31.676
408.62	31.323
408.98	31.238
409.34	31.289
409.69	30.426
410.05	31.034
410.40	30.864
410.76	30.820
411.11	31.625
411.47	31.032
411.83	30.195
412.18	30.438
412.54	31.398
412.89	29.557
413.25	31.107
413.60	30.870
413.96	30.000
414.31	30.915
414.67	30.276
415.03	30.226
415.38	29.961
415.74	30.749
416.09	31.156
416.45	32.951
416.80	29.610
417.16	31.492
417.51	30.180
417.87	30.378
418.22	30.699
418.58	31.371
418.93	31.160
419.29	30.282
419.64	30.071
420.00	32.053
420.35	30.985
420.71	31.835
421.06	30.632
421.42	30.709
421.77	31.445
422.12	30.704
422.48	30.915
422.83	30.336
423.19	30.530
423.54	29.277
423.90	30.389
424.25	30.597
424.61	31.457
424.96	31.591
425.31	31.369
425.67	31.221
426.02	31.390
426.38	31.058
426.73	31.961
427.09	31.456
427.44	31.529
427.79	30.407
428.15	31.189
428.50	30.830
428.85	29.361
429.21	30.334
429.56	30.943
429.92	30.406
430.27	29.875
430.62	29.848
430.98	30.626
431.33	31.388
431.68	29.880
432.04	29.625
432.39	30.006
432.74	29.705
433.10	30.345
433.45	29.450
433.80	29.309
434.16	29.363
434.51	30.161
434.86	30.952
435.22	30.454
435.57	30.443
435.92	30.419
436.28	29.815
436.63	29.892
436.98	29.258
437.34	30.974
437.69	31.067
438.04	30.028
438.39	29.322
438.75	29.508
439.10	30.504
439.45	30.554
439.81	29.969
440.16	30.344
440.51	29.791
440.86	30.997
441.22	29.977
441.57	29.691
441.92	30.955
442.27	30.765
442.63	30.728
442.98	29.868
443.33	29.939
443.68	29.761
444.03	29.707
444.39	29.513
444.74	29.320
445.09	30.178
445.44	29.402
445.79	29.964
446.15	29.130
446.50	28.952
446.85	29.862
447.20	28.936
447.55	29.520
447.91	29.836
448.26	29.596
448.61	30.167
448.96	30.522
449.31	29.538
449.66	29.326
450.02	29.949
450.37	30.231
450.72	28.981
451.07	29.937
451.42	29.213
451.77	29.355
452.12	28.529
452.47	29.169
452.83	29.093
453.18	28.590
453.53	28.698
453.88	29.205
454.23	29.379
454.58	28.463
454.93	30.219
455.28	28.381
455.63	29.634
455.98	29.284
456.34	28.352
456.69	28.717
457.04	29.679
457.39	28.797
457.74	28.960
458.09	28.134
458.44	27.853
458.79	27.675
459.14	28.375
459.49	28.836
459.84	29.554
460.19	27.913
460.54	28.301
460.89	29.205
461.24	29.193
461.59	29.157
461.94	27.862
462.29	29.493
462.64	29.568
462.99	28.639
463.34	28.373
463.69	27.864
464.04	27.724
464.39	27.774
464.74	27.239
465.09	28.634
465.44	27.871
465.79	27.551
466.14	27.309
466.49	27.487
466.84	28.673
467.19	28.536
467.54	28.352
467.89	27.543
468.24	28.589
468.59	28.952
468.94	28.571
469.29	28.000
469.64	29.392
469.99	29.713
470.34	27.509
470.68	28.710
471.03	28.379
471.38	28.959
471.73	28.291
472.08	27.883
472.43	27.584
472.78	28.924
473.13	28.231
473.48	28.534
473.83	28.020
474.17	28.238
474.52	27.569
474.87	28.000
475.22	28.493
475.57	27.837
475.92	27.263
476.27	29.278
476.61	28.009
476.96	26.715
477.31	28.340
477.66	27.978
478.01	26.895
478.36	27.451
478.70	27.787
479.05	28.571
479.40	27.928
479.75	27.424
480.10	27.547
480.45	26.650
480.79	28.097
481.14	27.613
481.49	26.700
481.84	27.510
482.19	26.660
482.53	26.667
482.88	27.208
483.23	27.063
483.58	27.500
483.92	27.009
484.27	26.527
484.62	26.670
484.97	26.368
485.31	25.542
485.66	24.987
486.01	24.946
486.36	24.887
486.70	25.171
487.05	25.017
487.40	24.871
487.75	24.958
488.09	25.155
488.44	25.206
488.79	25.514
489.13	26.042
489.48	25.780
489.83	26.188
490.17	26.067
490.52	25.912
490.87	25.821
491.22	26.695
491.56	25.427
491.91	25.956
492.26	26.641
492.60	25.720
492.95	26.365
493.30	25.598
493.64	26.130
493.99	26.667
494.34	25.874
494.68	26.429
495.03	25.353
495.37	26.693
495.72	25.442
496.07	25.854
496.41	26.745
496.76	25.933
497.11	25.058
497.45	26.062
497.80	26.640
498.14	25.633
498.49	25.038
498.84	26.148
499.18	25.653
499.53	25.496
499.87	25.486
500.22	26.508
500.56	26.021
500.91	25.753
501.26	24.666
501.60	25.234
501.95	25.376
502.29	24.794
502.64	25.338
502.98	26.098
503.33	24.496
503.67	25.253
504.02	26.442
504.36	25.383
504.71	25.101
505.06	24.660
505.40	25.279
505.75	26.134
506.09	25.697
506.44	26.540
506.78	25.969
507.13	25.853
507.47	25.587
507.82	25.053
508.16	25.568
508.51	25.341
508.85	25.536
509.19	24.481
509.54	25.469
509.88	25.405
510.23	25.767
510.57	25.334
510.92	24.467
511.26	25.914
511.61	25.633
511.95	25.644
512.30	26.386
512.64	27.101
512.98	25.154
513.33	27.029
513.67	25.128
514.02	26.316
514.36	26.171
514.70	26.340
515.05	26.851
515.39	26.505
515.74	26.766
516.08	26.181
516.42	26.031
516.77	26.799
517.11	26.291
517.46	26.451
517.80	26.639
518.14	26.271
518.49	25.841
518.83	26.428
519.17	25.955
519.52	24.985
519.86	25.330
520.20	27.157
520.55	26.141
520.89	25.910
521.23	26.536
521.58	25.994
521.92	25.962
522.26	26.480
522.61	25.909
522.95	27.086
523.29	26.938
523.64	27.001
523.98	26.831
524.32	26.031
524.66	25.608
525.01	26.494
525.35	26.960
525.69	26.869
526.04	25.661
526.38	26.913
526.72	25.507
527.06	27.302
527.41	26.385
527.75	25.938
528.09	26.113
528.43	26.941
528.78	24.752
529.12	26.387
529.46	25.536
529.80	25.459
530.15	26.469
530.49	26.061
530.83	25.650
531.17	25.789
531.51	26.471
531.86	25.221
532.20	25.678
532.54	25.732
532.88	26.352
533.22	26.008
533.57	26.147
533.91	24.543
534.25	25.781
534.59	26.106
534.93	24.984
535.27	24.429
535.62	24.627
535.96	25.636
536.30	25.264
536.64	25.982
536.98	24.042
537.32	24.609
537.66	26.718
538.01	24.825
538.35	24.411
538.69	25.433
539.03	25.017
539.37	25.101
539.71	24.267
540.05	24.711
540.39	24.792
540.73	24.407
541.07	25.207
541.42	25.605
541.76	25.533
542.10	25.258
542.44	24.600
542.78	22.505
543.12	23.214
543.46	24.478
543.80	24.011
544.14	22.964
544.48	23.984
544.82	25.632
545.16	25.273
545.50	24.166
545.84	24.150
546.18	24.894
546.52	25.018
546.86	24.659
547.20	24.750
547.54	24.523
547.88	24.185
548.22	23.340
548.56	23.417
548.90	23.787
549.24	23.691
549.58	23.202
549.92	23.016
550.26	23.443
550.60	23.271
550.94	23.824
551.28	24.034
551.62	24.846
551.96	22.932
552.30	24.050
552.64	23.554
552.98	24.262
553.32	22.753
553.66	23.512
554.00	23.723
554.34	24.077
554.68	23.673
555.02	24.256
555.36	23.934
555.69	22.711
556.03	22.984
556.37	23.203
556.71	23.105
557.05	23.415
557.39	22.454
557.73	24.513
558.07	23.906
558.41	23.890
558.75	24.630
559.08	23.877
559.42	23.571
559.76	22.898
560.10	23.318
560.44	23.455
560.78	22.797
561.12	22.003
561.45	23.893
561.79	21.919
562.13	22.924
562.47	23.022
562.81	22.622
563.15	23.061
563.48	22.914
563.82	23.267
564.16	21.588
564.50	21.622
564.84	22.691
565.17	22.334
565.51	23.292
565.85	22.565
566.19	23.143
566.52	23.190
566.86	22.622
567.20	21.606
567.54	21.715
567.88	21.675
568.21	22.568
568.55	21.467
568.89	21.920
569.23	20.896
569.56	20.534
569.90	20.341
570.24	19.576
570.57	20.727
570.91	20.460
571.25	19.895
571.59	19.371
571.92	19.170
572.26	19.233
572.60	19.349
572.93	19.454
573.27	19.404
573.61	19.541
573.95	18.979
574.28	18.829
574.62	18.739
574.96	18.350
575.29	18.980
575.63	18.580
575.97	17.972
576.30	18.189
576.64	18.199
576.98	18.662
577.31	18.973
577.65	18.670
577.98	18.428
578.32	18.352
578.66	18.117
578.99	18.133
579.33	18.336
579.67	18.092
580.00	18.203
580.34	18.607
580.67	18.571
581.01	18.276
581.35	17.980
581.68	17.989
582.02	17.930
582.35	17.883
582.69	18.095
583.02	17.945
583.36	18.122
583.70	18.614
584.03	18.098
584.37	18.379
584.70	17.912
585.04	17.876
585.37	18.280
585.71	18.070
586.04	17.852
586.38	17.498
586.72	18.766
587.05	18.515
587.39	18.507
587.72	18.671
588.06	18.655
588.39	17.887
588.73	18.346
589.06	18.624
589.40	18.942
589.73	18.620
590.07	19.109
590.40	19.543
590.73	18.863
591.07	19.042
591.40	19.323
591.74	19.729
592.07	20.037
592.41	19.832
592.74	19.036
593.08	18.128
593.41	18.254
593.75	18.090
594.08	17.885
594.41	18.377
594.75	17.977
595.08	18.426
595.42	17.777
595.75	18.626
596.09	18.765
596.42	18.520
596.75	19.449
597.09	18.405
597.42	18.609
597.75	19.056
598.09	18.062
598.42	18.502
598.76	17.889
599.09	18.309
599.42	18.302
599.76	18.284
600.09	18.816
600.42	18.575
600.76	17.385
601.09	18.053
601.42	18.057
601.76	17.944
602.09	18.317
602.42	18.492
602.76	18.633
603.09	18.480
603.42	18.311
603.76	17.944
604.09	18.226
604.42	18.570
604.76	18.959
605.09	19.333
605.42	17.743
605.75	17.776
606.09	18.386
606.42	17.598
606.75	18.355
607.09	18.593
607.42	17.767
607.75	17.096
608.08	17.925
608.42	18.319
608.75	19.277
609.08	18.535
609.41	19.239
609.75	18.145
610.08	18.173
610.41	17.681
610.74	18.137
611.07	18.450
611.41	19.201
611.74	18.817
612.07	18.041
612.40	18.490
612.73	18.814
613.07	18.391
613.40	18.490
613.73	17.683
614.06	19.533
614.39	18.500
614.72	19.272
615.06	18.547
615.39	18.723
615.72	18.461
616.05	18.492
616.38	17.892
616.71	18.471
617.05	18.159
617.38	19.233
617.71	18.679
618.04	18.095
618.37	19.861
618.70	19.802
619.03	20.417
619.36	19.175
619.69	19.788
620.03	21.183
620.36	19.528
620.69	19.629
621.02	19.343
621.35	20.498
621.68	19.983
622.01	19.917
622.34	20.271
622.67	19.716
623.00	19.832
623.33	20.046
623.66	19.297
623.99	19.743
624.32	20.076
624.65	19.098
624.99	19.564
625.32	18.726
625.65	20.581
625.98	20.548
626.31	19.368
626.64	19.931
626.97	21.379
627.30	20.841
627.63	21.404
627.96	20.305
628.29	20.537
628.62	21.534
628.95	19.539
629.28	20.464
629.61	19.442
629.94	20.821
630.26	20.356
630.59	20.499
630.92	21.333
631.25	21.641
631.58	22.687
631.91	20.614
632.24	20.642
632.57	20.795
632.90	20.759
633.23	21.647
