SpectraSuite Data File
++++++++++++++++++++++++++++++++++++
Date: Fri May 15 20:41:27 PDT 2015
User: schluterlab
Dark Spectrum Present: Yes
Reference Spectrum Present: Yes
Number of Sampled Component Spectra: 1
Spectrometers: USB2E3373
Integration Time (usec): 3000 (USB2E3373)
Spectra Averaged: 3 (USB2E3373)
Boxcar Smoothing: 0 (USB2E3373)
Correct for Electrical Dark: No (USB2E3373)
Strobe/Lamp Enabled: No (USB2E3373)
Correct for Detector Non-linearity: No (USB2E3373)
Correct for Stray Light: No (USB2E3373)
Number of Pixels in Processed Spectrum: 2048
>>>>>Begin Processed Spectral Data<<<<<
178.53	0.000
178.91	0.000
179.29	87.500
179.67	-550.000
180.04	71.429
180.42	125.000
180.80	-600.000
181.18	266.667
181.56	550.000
181.94	-250.000
182.31	800.000
182.69	-20.000
183.07	-133.333
183.45	-260.000
183.83	50.000
184.20	-45.455
184.58	33.333
184.96	50.000
185.34	66.667
185.72	-450.000
186.09	46.154
186.47	-200.000
186.85	83.333
187.23	155.556
187.61	-300.000
187.98	33.333
188.36	0.000
188.74	-166.667
189.12	11.765
189.49	5.556
189.87	0.000
190.25	-7.143
190.63	150.000
191.00	-366.667
191.38	26.316
191.76	400.000
192.14	175.000
192.51	400.000
192.89	-44.444
193.27	-157.143
193.65	100.000
194.02	72.727
194.40	10.000
194.78	-150.000
195.15	-16.667
195.53	-87.500
195.91	225.000
196.29	0.000
196.66	146.154
197.04	100.000
197.42	55.556
197.79	-766.667
198.17	-107.692
198.55	1300.000
198.92	-233.333
199.30	-400.000
199.68	-60.000
200.05	-366.667
200.43	0.000
200.81	-333.333
201.18	66.667
201.56	800.000
201.94	-550.000
202.31	233.333
202.69	-120.000
203.07	-125.000
203.44	900.000
203.82	0.000
204.19	85.714
204.57	-633.333
204.95	125.000
205.32	-20.000
205.70	-57.143
206.08	-50.000
206.45	77.778
206.83	64.286
207.20	-85.714
207.58	600.000
207.96	-166.667
208.33	-90.000
208.71	-200.000
209.08	-166.667
209.46	-200.000
209.84	60.000
210.21	-1500.000
210.59	142.857
210.96	-16.667
211.34	-100.000
211.71	46.667
212.09	-128.571
212.46	-400.000
212.84	0.000
213.22	130.000
213.59	350.000
213.97	53.846
214.34	36.364
214.72	33.333
215.09	350.000
215.47	15.385
215.84	-18.182
216.22	-633.333
216.59	-75.000
216.97	450.000
217.34	100.000
217.72	-60.000
218.09	62.500
218.47	37.500
218.84	-100.000
219.22	-22.222
219.59	-220.000
219.97	233.333
220.34	350.000
220.72	85.714
221.09	-50.000
221.47	-100.000
221.84	-150.000
222.22	-600.000
222.59	0.000
222.97	33.333
223.34	-300.000
223.72	-14.286
224.09	0.000
224.46	53.571
224.84	66.667
225.21	0.000
225.59	33.333
225.96	-150.000
226.34	500.000
226.71	-114.286
227.08	16.667
227.46	-175.000
227.83	-250.000
228.21	-22.222
228.58	72.727
228.95	0.000
229.33	80.000
229.70	50.000
230.08	-112.500
230.45	-142.857
230.82	-28.571
231.20	26.667
231.57	7.143
231.95	85.714
232.32	-110.000
232.69	-35.714
233.07	66.667
233.44	60.000
233.81	-30.000
234.19	-55.556
234.56	-17.647
234.93	250.000
235.31	250.000
235.68	-40.000
236.05	-38.462
236.43	-20.000
236.80	5.882
237.17	-15.625
237.55	10.000
237.92	-14.815
238.29	33.333
238.67	6.667
239.04	-20.588
239.41	7.317
239.79	-10.000
240.16	21.951
240.53	0.000
240.91	17.391
241.28	20.635
241.65	17.857
242.02	38.356
242.40	10.000
242.77	18.644
243.14	10.606
243.51	16.250
243.89	13.793
244.26	8.046
244.63	20.238
245.00	18.557
245.38	23.711
245.75	7.865
246.12	9.483
246.49	19.008
246.87	26.923
247.24	15.126
247.61	10.526
247.98	10.569
248.36	15.625
248.73	17.763
249.10	13.636
249.47	20.253
249.84	16.993
250.22	17.647
250.59	18.301
250.96	25.822
251.33	14.535
251.70	17.647
252.08	19.797
252.45	21.287
252.82	17.085
253.19	18.433
253.56	17.290
253.94	19.820
254.31	22.609
254.68	19.298
255.05	18.504
255.42	21.834
255.79	16.602
256.16	19.455
256.54	21.269
256.91	17.110
257.28	19.703
257.65	14.981
258.02	19.504
258.39	20.875
258.76	23.443
259.14	22.591
259.51	20.712
259.88	19.244
260.25	22.222
260.62	21.181
260.99	16.271
261.36	16.781
261.73	16.772
262.10	23.100
262.47	16.564
262.85	19.436
263.22	18.154
263.59	20.249
263.96	19.255
264.33	20.000
264.70	16.667
265.07	18.155
265.44	24.363
265.81	18.362
266.18	18.033
266.55	21.337
266.92	18.653
267.29	20.366
267.66	17.391
268.03	20.419
268.40	18.016
268.77	18.984
269.14	20.144
269.51	19.537
269.88	16.708
270.25	15.306
270.62	17.073
270.99	17.136
271.36	17.604
271.73	19.718
272.10	20.681
272.47	19.858
272.84	18.812
273.21	20.650
273.58	21.205
273.95	20.595
274.32	17.783
274.69	17.195
275.06	21.205
275.43	17.914
275.80	19.426
276.17	18.621
276.54	18.415
276.91	16.447
277.28	16.812
277.65	18.802
278.02	18.723
278.39	19.912
278.76	19.916
279.13	15.353
279.50	19.328
279.87	17.495
280.23	16.774
280.60	20.273
280.97	19.192
281.34	19.231
281.71	21.150
282.08	17.791
282.45	16.830
282.82	19.112
283.19	19.342
283.56	19.268
283.92	16.888
284.29	16.731
284.66	17.442
285.03	16.699
285.40	17.958
285.77	17.399
286.14	19.134
286.51	19.373
286.87	18.464
287.24	17.311
287.61	16.226
287.98	19.649
288.35	15.945
288.72	18.214
289.08	17.708
289.45	19.859
289.82	18.182
290.19	17.406
290.56	15.266
290.93	17.677
291.29	14.638
291.66	16.850
292.03	16.427
292.40	15.484
292.77	14.673
293.13	15.097
293.50	15.023
293.87	14.351
294.24	17.465
294.60	14.903
294.97	16.667
295.34	15.798
295.71	14.754
296.08	15.994
296.44	12.660
296.81	13.889
297.18	14.348
297.55	16.125
297.91	15.205
298.28	15.172
298.65	13.026
299.02	14.420
299.38	11.628
299.75	13.655
300.12	14.005
300.48	14.097
300.85	13.688
301.22	13.766
301.59	13.947
301.95	14.684
302.32	16.083
302.69	13.682
303.05	12.005
303.42	15.318
303.79	16.005
304.15	14.576
304.52	11.296
304.89	12.865
305.25	13.680
305.62	12.952
305.99	14.035
306.35	12.601
306.72	12.936
307.09	13.113
307.45	12.859
307.82	14.120
308.19	13.589
308.55	14.068
308.92	14.924
309.29	14.190
309.65	12.917
310.02	14.411
310.38	12.843
310.75	14.754
311.12	14.855
311.48	14.316
311.85	15.079
312.22	12.975
312.58	13.588
312.95	13.874
313.31	13.872
313.68	14.660
314.05	14.796
314.41	15.361
314.78	14.948
315.14	16.238
315.51	15.424
315.87	16.086
316.24	17.594
316.61	15.650
316.97	16.071
317.34	15.820
317.70	15.774
318.07	15.288
318.43	16.569
318.80	16.098
319.16	17.871
319.53	18.993
319.89	17.717
320.26	17.713
320.62	18.355
320.99	17.119
321.35	18.705
321.72	19.522
322.08	20.141
322.45	19.391
322.81	19.352
323.18	19.333
323.54	19.691
323.91	18.598
324.27	20.312
324.64	21.536
325.00	20.894
325.37	21.671
325.73	21.940
326.10	22.434
326.46	22.422
326.83	23.185
327.19	22.755
327.56	24.674
327.92	24.032
328.29	21.250
328.65	22.736
329.01	23.805
329.38	24.424
329.74	23.418
330.11	24.930
330.47	23.377
330.84	23.846
331.20	25.285
331.56	22.407
331.93	24.932
332.29	25.206
332.66	23.891
333.02	24.535
333.38	23.923
333.75	25.549
334.11	23.993
334.48	26.201
334.84	24.451
335.20	25.069
335.57	24.751
335.93	25.294
336.29	24.954
336.66	23.978
337.02	23.048
337.38	25.000
337.75	25.273
338.11	25.338
338.47	25.730
338.84	25.601
339.20	25.229
339.56	25.138
339.93	26.768
340.29	25.046
340.65	26.344
341.02	25.975
341.38	26.106
341.74	24.470
342.11	23.917
342.47	26.601
342.83	26.298
343.20	26.220
343.56	25.826
343.92	27.015
344.28	25.107
344.65	25.648
345.01	24.633
345.37	24.895
345.73	25.105
346.10	25.194
346.46	25.399
346.82	25.368
347.19	24.855
347.55	25.313
347.91	26.214
348.27	24.010
348.63	26.491
349.00	26.579
349.36	26.434
349.72	26.285
350.08	25.902
350.45	26.097
350.81	24.419
351.17	24.430
351.53	25.224
351.89	25.929
352.26	25.280
352.62	26.452
352.98	25.622
353.34	26.087
353.70	25.243
354.07	25.484
354.43	26.021
354.79	26.012
355.15	26.349
355.51	26.108
355.87	25.485
356.24	25.612
356.60	25.707
356.96	27.063
357.32	25.559
357.68	24.394
358.04	26.737
358.40	26.367
358.77	26.236
359.13	26.021
359.49	25.963
359.85	26.599
360.21	25.917
360.57	25.019
360.93	26.399
361.29	26.133
361.66	25.392
362.02	26.970
362.38	27.037
362.74	26.041
363.10	26.862
363.46	26.835
363.82	28.325
364.18	26.199
364.54	25.735
364.90	26.308
365.26	26.856
365.62	28.175
365.98	27.053
366.35	27.021
366.71	27.273
367.07	27.504
367.43	26.815
367.79	26.643
368.15	27.566
368.51	27.094
368.87	27.351
369.23	27.292
369.59	26.822
369.95	27.493
370.31	26.734
370.67	27.015
371.03	27.334
371.39	26.988
371.75	27.766
372.11	27.461
372.47	27.515
372.83	28.318
373.19	28.103
373.55	27.292
373.91	28.078
374.27	27.853
374.63	28.428
374.99	26.879
375.35	27.994
375.71	27.972
376.07	27.317
376.42	28.299
376.78	28.188
377.14	28.707
377.50	28.685
377.86	27.443
378.22	28.398
378.58	28.077
378.94	27.851
379.30	28.072
379.66	29.279
380.02	28.694
380.38	28.241
380.74	28.366
381.09	28.589
381.45	28.685
381.81	28.501
382.17	27.538
382.53	28.420
382.89	27.935
383.25	27.816
383.61	30.122
383.97	27.429
384.32	28.518
384.68	29.288
385.04	28.248
385.40	28.500
385.76	28.931
386.12	29.754
386.48	29.246
386.83	28.218
387.19	29.426
387.55	30.364
387.91	29.218
388.27	29.060
388.62	29.075
388.98	29.957
389.34	29.357
389.70	30.329
390.06	29.201
390.42	29.404
390.77	28.908
391.13	29.004
391.49	30.078
391.85	29.760
392.20	29.253
392.56	28.735
392.92	30.241
393.28	29.363
393.64	29.730
393.99	31.034
394.35	30.234
394.71	30.077
395.07	29.918
395.42	29.144
395.78	29.251
396.14	29.508
396.50	29.613
396.85	30.135
397.21	29.637
397.57	28.840
397.92	29.299
398.28	29.655
398.64	28.434
399.00	29.063
399.35	29.289
399.71	28.949
400.07	30.048
400.42	29.988
400.78	29.639
401.14	29.885
401.49	30.435
401.85	29.616
402.21	30.542
402.57	30.250
402.92	28.984
403.28	29.637
403.63	29.508
403.99	29.209
404.35	30.044
404.70	29.702
405.06	29.436
405.42	30.329
405.77	28.588
406.13	28.405
406.49	30.314
406.84	31.112
407.20	29.982
407.55	29.878
407.91	29.612
408.27	29.382
408.62	30.154
408.98	30.807
409.34	29.368
409.69	28.941
410.05	29.372
410.40	30.741
410.76	30.760
411.11	30.000
411.47	30.769
411.83	28.876
412.18	30.695
412.54	30.150
412.89	29.002
413.25	29.964
413.60	29.876
413.96	29.693
414.31	30.366
414.67	29.763
415.03	30.027
415.38	30.744
415.74	31.205
416.09	31.025
416.45	30.587
416.80	30.337
417.16	31.215
417.51	30.580
417.87	30.117
418.22	30.959
418.58	30.100
418.93	30.094
419.29	29.385
419.64	30.590
420.00	30.856
420.35	29.493
420.71	30.863
421.06	30.325
421.42	29.988
421.77	30.520
422.12	30.420
422.48	30.103
422.83	30.046
423.19	30.192
423.54	30.218
423.90	29.741
424.25	30.884
424.61	30.661
424.96	30.662
425.31	31.369
425.67	30.692
426.02	31.037
426.38	30.996
426.73	31.114
427.09	31.519
427.44	30.824
427.79	30.583
428.15	30.218
428.50	30.466
428.85	31.143
429.21	30.956
429.56	31.051
429.92	30.817
430.27	30.276
430.62	29.692
430.98	30.414
431.33	30.547
431.68	29.409
432.04	31.247
432.39	30.918
432.74	31.690
433.10	31.322
433.45	30.944
433.80	30.412
434.16	30.416
434.51	31.183
434.86	31.591
435.22	30.566
435.57	30.131
435.92	30.539
436.28	30.769
436.63	30.519
436.98	30.301
437.34	30.672
437.69	32.081
438.04	30.826
438.39	31.032
438.75	30.723
439.10	30.843
439.45	31.649
439.81	30.581
440.16	31.532
440.51	31.522
440.86	32.024
441.22	30.486
441.57	29.912
441.92	30.693
442.27	31.208
442.63	31.585
442.98	30.442
443.33	30.774
443.68	30.504
444.03	31.495
444.39	30.398
444.74	31.884
445.09	31.960
445.44	30.655
445.79	32.646
446.15	30.452
446.50	30.616
446.85	32.147
447.20	30.761
447.55	31.696
447.91	31.303
448.26	30.962
448.61	31.146
448.96	31.670
449.31	31.561
449.66	31.707
450.02	31.888
450.37	32.069
450.72	31.386
451.07	32.152
451.42	30.774
451.77	31.947
452.12	30.861
452.47	31.874
452.83	31.331
453.18	32.005
453.53	31.353
453.88	31.026
454.23	31.715
454.58	32.116
454.93	32.410
455.28	31.873
455.63	31.680
455.98	32.171
456.34	32.567
456.69	31.830
457.04	32.892
457.39	31.713
457.74	31.983
458.09	30.724
458.44	31.773
458.79	30.980
459.14	32.037
459.49	32.418
459.84	31.190
460.19	31.007
460.54	32.824
460.89	31.023
461.24	31.242
461.59	31.829
461.94	30.755
462.29	31.785
462.64	31.827
462.99	32.701
463.34	32.128
463.69	31.338
464.04	33.475
464.39	32.080
464.74	31.166
465.09	31.316
465.44	32.141
465.79	31.689
466.14	32.725
466.49	30.707
466.84	32.362
467.19	32.979
467.54	31.737
467.89	32.028
468.24	31.265
468.59	33.206
468.94	31.873
469.29	32.656
469.64	32.604
469.99	33.917
470.34	32.287
470.68	33.408
471.03	33.970
471.38	32.810
471.73	33.333
472.08	31.954
472.43	32.148
472.78	31.597
473.13	33.741
473.48	33.485
473.83	32.939
474.17	32.060
474.52	32.610
474.87	32.606
475.22	33.435
475.57	32.016
475.92	31.706
476.27	32.421
476.61	33.160
476.96	32.571
477.31	33.586
477.66	32.247
478.01	31.668
478.36	31.972
478.70	33.442
479.05	33.242
479.40	32.909
479.75	32.169
480.10	32.616
480.45	32.450
480.79	33.283
481.14	32.736
481.49	31.576
481.84	32.577
482.19	31.993
482.53	32.374
482.88	31.790
483.23	33.109
483.58	31.509
483.92	31.510
484.27	31.404
484.62	32.407
484.97	31.924
485.31	30.311
485.66	29.285
486.01	28.835
486.36	28.743
486.70	29.027
487.05	29.975
487.40	29.860
487.75	30.423
488.09	30.222
488.44	31.465
488.79	31.603
489.13	31.851
489.48	31.894
489.83	31.749
490.17	31.820
490.52	32.656
490.87	31.745
491.22	32.617
491.56	32.780
491.91	31.453
492.26	32.669
492.60	32.150
492.95	32.759
493.30	31.998
493.64	32.564
493.99	32.174
494.34	31.699
494.68	32.000
495.03	32.749
495.37	32.483
495.72	33.115
496.07	31.951
496.41	31.934
496.76	31.875
497.11	32.184
497.45	32.745
497.80	32.795
498.14	31.595
498.49	32.351
498.84	32.884
499.18	33.384
499.53	31.200
499.87	31.615
500.22	32.443
500.56	31.770
500.91	31.576
501.26	31.636
501.60	32.956
501.95	32.994
502.29	31.961
502.64	33.012
502.98	32.610
503.33	31.412
503.67	32.386
504.02	32.454
504.36	33.548
504.71	32.273
505.06	31.907
505.40	31.371
505.75	33.351
506.09	32.032
506.44	32.598
506.78	33.418
507.13	33.557
507.47	32.010
507.82	32.425
508.16	32.964
508.51	32.791
508.85	32.705
509.19	32.571
509.54	33.512
509.88	32.524
510.23	33.244
510.57	32.656
510.92	32.090
511.26	33.552
511.61	33.718
511.95	33.041
512.30	33.703
512.64	33.278
512.98	33.240
513.33	33.912
513.67	33.428
514.02	34.439
514.36	34.629
514.70	33.858
515.05	34.783
515.39	33.589
515.74	35.329
516.08	34.907
516.42	35.571
516.77	34.699
517.11	34.362
517.46	34.351
517.80	35.042
518.14	35.028
518.49	33.894
518.83	34.447
519.17	34.324
519.52	34.695
519.86	34.754
520.20	34.143
520.55	34.271
520.89	35.571
521.23	34.009
521.58	35.773
521.92	36.154
522.26	35.849
522.61	35.130
522.95	36.093
523.29	35.705
523.64	34.816
523.98	35.386
524.32	34.536
524.66	35.659
525.01	35.649
525.35	35.839
525.69	35.219
526.04	34.325
526.38	37.873
526.72	35.971
527.06	34.955
527.41	34.960
527.75	35.121
528.09	35.282
528.43	36.935
528.78	35.842
529.12	35.161
529.46	35.088
529.80	34.136
530.15	36.436
530.49	35.488
530.83	35.978
531.17	35.997
531.51	36.662
531.86	34.942
532.20	35.491
532.54	36.079
532.88	35.661
533.22	35.685
533.57	35.256
533.91	34.922
534.25	36.003
534.59	35.856
534.93	34.172
535.27	33.947
535.62	35.062
535.96	35.290
536.30	35.620
536.64	35.493
536.98	34.007
537.32	35.420
537.66	36.606
538.01	35.524
538.35	34.882
538.69	34.754
539.03	34.450
539.37	34.590
539.71	34.969
540.05	35.370
540.39	35.042
540.73	35.774
541.07	35.359
541.42	34.812
541.76	35.237
542.10	35.788
542.44	34.607
542.78	33.310
543.12	34.135
543.46	35.605
543.80	34.976
544.14	33.511
544.48	34.111
544.82	33.698
545.16	34.973
545.50	34.379
545.84	34.419
546.18	35.106
546.52	36.121
546.86	34.508
547.20	35.980
547.54	32.085
547.88	33.356
548.22	33.728
548.56	32.916
548.90	34.232
549.24	33.471
549.58	33.921
549.92	33.452
550.26	33.626
550.60	35.093
550.94	33.831
551.28	34.235
551.62	36.077
551.96	34.436
552.30	34.211
552.64	33.357
552.98	34.318
553.32	33.096
553.66	32.946
554.00	34.088
554.34	33.900
554.68	34.218
555.02	34.449
555.36	35.228
555.69	32.234
556.03	32.691
556.37	32.384
556.71	33.718
557.05	33.855
557.39	34.424
557.73	33.508
558.07	35.294
558.41	33.614
558.75	33.515
559.08	34.437
559.42	33.968
559.76	33.787
560.10	33.257
560.44	33.730
560.78	32.937
561.12	33.145
561.45	32.748
561.79	33.263
562.13	33.854
562.47	31.655
562.81	34.150
563.15	31.946
563.48	32.603
563.82	32.739
564.16	31.964
564.50	30.878
564.84	32.195
565.17	32.327
565.51	32.719
565.85	32.167
566.19	32.228
566.52	32.306
566.86	32.776
567.20	31.445
567.54	31.083
567.88	31.342
568.21	31.222
568.55	29.837
568.89	29.928
569.23	29.562
569.56	29.159
569.90	29.233
570.24	28.694
570.57	28.182
570.91	28.198
571.25	27.228
571.59	27.063
571.92	26.281
572.26	26.600
572.60	25.860
572.93	27.330
573.27	26.583
573.61	26.730
573.95	26.161
574.28	25.900
574.62	25.909
574.96	25.206
575.29	25.265
575.63	25.369
575.97	25.752
576.30	25.780
576.64	25.722
576.98	25.740
577.31	25.412
577.65	25.161
577.98	25.465
578.32	25.193
578.66	24.393
578.99	24.895
579.33	25.356
579.67	25.385
580.00	25.190
580.34	24.851
580.67	24.951
581.01	25.336
581.35	24.440
581.68	24.424
582.02	24.427
582.35	24.141
582.69	24.289
583.02	24.439
583.36	24.580
583.70	25.052
584.03	25.716
584.37	25.805
584.70	24.890
585.04	24.948
585.37	24.152
585.71	24.735
586.04	23.903
586.38	24.460
586.72	25.079
587.05	25.534
587.39	24.909
587.72	25.314
588.06	24.882
588.39	24.409
588.73	25.427
589.06	25.571
589.40	25.302
589.73	25.739
590.07	26.095
590.40	25.735
590.73	26.277
591.07	26.209
591.40	26.892
591.74	26.968
592.07	26.670
592.41	26.590
592.74	25.289
593.08	24.240
593.41	25.206
593.75	23.716
594.08	24.545
594.41	25.218
594.75	24.695
595.08	25.009
595.42	24.696
595.75	25.235
596.09	25.098
596.42	25.134
596.75	25.933
597.09	25.285
597.42	26.016
597.75	25.928
598.09	25.939
598.42	25.496
598.76	24.753
599.09	25.280
599.42	24.479
599.76	24.266
600.09	24.548
600.42	24.829
600.76	23.848
601.09	24.542
601.42	24.912
601.76	25.010
602.09	24.917
602.42	25.484
602.76	24.703
603.09	24.751
603.42	24.707
603.76	23.790
604.09	24.301
604.42	24.535
604.76	25.768
605.09	25.320
605.42	24.244
605.75	24.562
606.09	24.374
606.42	23.978
606.75	25.671
607.09	24.484
607.42	23.615
607.75	23.934
608.08	24.169
608.42	24.303
608.75	25.060
609.08	24.863
609.41	24.467
609.75	25.756
610.08	24.913
610.41	24.348
610.74	24.281
611.07	24.703
611.41	25.791
611.74	25.906
612.07	25.000
612.40	25.000
612.73	24.972
613.07	24.972
613.40	25.438
613.73	24.678
614.06	25.209
614.39	25.494
614.72	24.482
615.06	24.749
615.39	25.218
615.72	25.081
616.05	24.860
616.38	24.786
616.71	25.933
617.05	24.954
617.38	26.336
617.71	24.403
618.04	26.159
618.37	26.293
618.70	26.403
619.03	26.250
619.36	26.266
619.69	27.066
620.03	27.027
620.36	26.180
620.69	25.696
621.02	25.994
621.35	27.552
621.68	28.231
622.01	26.917
622.34	27.534
622.67	27.681
623.00	26.570
623.33	26.143
623.66	25.879
623.99	25.416
624.32	27.224
624.65	26.391
624.99	26.787
625.32	24.943
625.65	27.416
625.98	28.445
626.31	26.185
626.64	27.210
626.97	27.661
627.30	27.408
627.63	27.643
627.96	26.864
628.29	27.937
628.62	28.614
628.95	28.156
629.28	28.528
629.61	27.119
629.94	28.837
630.26	28.063
630.59	29.553
630.92	28.821
631.25	27.692
631.58	29.736
631.91	28.289
632.24	29.817
632.57	28.182
632.90	29.775
633.23	28.706
633.56	29.345
