SpectraSuite Data File
++++++++++++++++++++++++++++++++++++
Date: Fri May 15 21:07:34 PDT 2015
User: schluterlab
Dark Spectrum Present: Yes
Reference Spectrum Present: Yes
Number of Sampled Component Spectra: 1
Spectrometers: USB2E3373
Integration Time (usec): 3000 (USB2E3373)
Spectra Averaged: 3 (USB2E3373)
Boxcar Smoothing: 0 (USB2E3373)
Correct for Electrical Dark: No (USB2E3373)
Strobe/Lamp Enabled: No (USB2E3373)
Correct for Detector Non-linearity: No (USB2E3373)
Correct for Stray Light: No (USB2E3373)
Number of Pixels in Processed Spectrum: 2048
>>>>>Begin Processed Spectral Data<<<<<
178.53	0.000
178.91	0.000
179.29	25.000
179.67	-500.000
180.04	42.857
180.42	75.000
180.80	-800.000
181.18	66.667
181.56	-150.000
181.94	-200.000
182.31	-900.000
182.69	80.000
183.07	-266.667
183.45	-200.000
183.83	250.000
184.20	-45.455
184.58	188.889
184.96	50.000
185.34	300.000
185.72	-150.000
186.09	69.231
186.47	-400.000
186.85	283.333
187.23	144.444
187.61	300.000
187.98	-166.667
188.36	-66.667
188.74	-333.333
189.12	17.647
189.49	-16.667
189.87	0.000
190.25	-7.143
190.63	-400.000
191.00	-100.000
191.38	-31.579
191.76	300.000
192.14	-100.000
192.51	400.000
192.89	-66.667
193.27	-100.000
193.65	250.000
194.02	154.545
194.40	30.000
194.78	-62.500
195.15	-75.000
195.53	-112.500
195.91	250.000
196.29	-250.000
196.66	46.154
197.04	142.857
197.42	-122.222
197.79	-566.667
198.17	-153.846
198.55	2700.000
198.92	-500.000
199.30	-700.000
199.68	-200.000
200.05	-266.667
200.43	0.000
200.81	-233.333
201.18	-366.667
201.56	2000.000
201.94	-500.000
202.31	66.667
202.69	-200.000
203.07	125.000
203.44	400.000
203.82	0.000
204.19	50.000
204.57	-133.333
204.95	125.000
205.32	40.000
205.70	71.429
206.08	-175.000
206.45	77.778
206.83	57.143
207.20	-185.714
207.58	200.000
207.96	-300.000
208.33	-90.000
208.71	-125.000
209.08	-250.000
209.46	-900.000
209.84	-240.000
210.21	-1000.000
210.59	-28.571
210.96	-100.000
211.34	100.000
211.71	106.667
212.09	-114.286
212.46	-1900.000
212.84	0.000
213.22	50.000
213.59	900.000
213.97	23.077
214.34	27.273
214.72	-216.667
215.09	500.000
215.47	-15.385
215.84	-63.636
216.22	-233.333
216.59	-212.500
216.97	-450.000
217.34	-250.000
217.72	-280.000
218.09	-37.500
218.47	137.500
218.84	-1200.000
219.22	-33.333
219.59	-60.000
219.97	666.667
220.34	425.000
220.72	14.286
221.09	-300.000
221.47	-50.000
221.84	-550.000
222.22	-950.000
222.59	-9.091
222.97	41.667
223.34	-366.667
223.72	14.286
224.09	9.524
224.46	3.571
224.84	433.333
225.21	10.000
225.59	33.333
225.96	-600.000
226.34	150.000
226.71	-100.000
227.08	-166.667
227.46	-75.000
227.83	-800.000
228.21	-44.444
228.58	-36.364
228.95	-112.500
229.33	60.000
229.70	0.000
230.08	-100.000
230.45	-71.429
230.82	0.000
231.20	-66.667
231.57	57.143
231.95	-28.571
232.32	-80.000
232.69	64.286
233.07	-366.667
233.44	-80.000
233.81	-30.000
234.19	22.222
234.56	0.000
234.93	450.000
235.31	-225.000
235.68	-260.000
236.05	-76.923
236.43	-65.000
236.80	-47.059
237.17	28.125
237.55	-40.000
237.92	3.704
238.29	-8.333
238.67	-26.667
239.04	-20.588
239.41	-26.829
239.79	-50.000
240.16	-17.073
240.53	-31.579
240.91	-23.913
241.28	-1.587
241.65	0.000
242.02	9.589
242.40	3.333
242.77	-15.254
243.14	-27.273
243.51	-5.000
243.89	-1.149
244.26	-22.989
244.63	-10.714
245.00	1.031
245.38	-1.031
245.75	-20.225
246.12	-6.034
246.49	1.653
246.87	-10.577
247.24	-2.521
247.61	-11.404
247.98	-4.065
248.36	-3.125
248.73	1.974
249.10	-11.039
249.47	-10.759
249.84	-10.458
250.22	-3.529
250.59	-5.229
250.96	6.103
251.33	-2.907
251.70	-5.294
252.08	0.000
252.45	0.000
252.82	-4.020
253.19	5.991
253.56	-1.869
253.94	-3.153
254.31	0.000
254.68	-0.877
255.05	1.181
255.42	-0.873
255.79	-1.544
256.16	-2.335
256.54	1.119
256.91	-6.084
257.28	0.372
257.65	0.375
258.02	-5.319
258.39	2.020
258.76	2.564
259.14	3.654
259.51	0.971
259.88	-3.093
260.25	-0.980
260.62	0.000
260.99	-3.390
261.36	0.000
261.73	-0.949
262.10	-2.128
262.47	-1.227
262.85	-1.254
263.22	-1.231
263.59	-2.492
263.96	0.311
264.33	-2.727
264.70	-0.595
265.07	0.000
265.44	0.567
265.81	-0.847
266.18	0.546
266.55	4.627
266.92	0.777
267.29	-3.916
267.66	-1.790
268.03	-2.356
268.40	-1.567
268.77	0.802
269.14	0.240
269.51	0.000
269.88	1.247
270.25	-1.531
270.62	-2.195
270.99	-1.535
271.36	0.489
271.73	0.469
272.10	-1.703
272.47	-0.946
272.84	-1.238
273.21	1.160
273.58	-1.446
273.95	0.229
274.32	-1.155
274.69	-2.036
275.06	2.009
275.43	-3.628
275.80	-0.662
276.17	-2.069
276.54	1.927
276.91	-2.193
277.28	-0.437
277.65	2.066
278.02	-1.489
278.39	-2.626
278.76	-0.629
279.13	-2.282
279.50	0.000
279.87	0.216
280.23	-2.581
280.60	1.949
280.97	0.606
281.34	0.385
281.71	2.259
282.08	-0.818
282.45	-1.174
282.82	-2.124
283.19	-1.354
283.56	0.771
283.92	-2.846
284.29	-2.500
284.66	-0.194
285.03	-1.375
285.40	-0.189
285.77	-1.406
286.14	-0.903
286.51	0.000
286.87	-0.914
287.24	-0.921
287.61	-1.235
287.98	1.404
288.35	-0.867
288.72	0.350
289.08	0.694
289.45	2.460
289.82	-2.273
290.19	-0.853
290.56	-2.230
290.93	-2.862
291.29	-2.311
291.66	1.260
292.03	-0.957
292.40	0.968
292.77	0.478
293.13	-4.545
293.50	-0.759
293.87	-0.611
294.24	0.464
294.60	-0.149
294.97	1.042
295.34	-1.074
295.71	0.596
296.08	1.345
296.44	-2.418
296.81	-0.556
297.18	-1.159
297.55	0.813
297.91	1.370
298.28	0.528
298.65	0.000
299.02	1.078
299.38	-1.368
299.75	-1.655
300.12	-1.702
300.48	-0.659
300.85	0.380
301.22	-0.779
301.59	0.132
301.95	-0.127
302.32	2.205
302.69	-0.373
303.05	-0.248
303.42	-0.623
303.79	0.350
304.15	0.836
304.52	-0.713
304.89	-0.702
305.25	-0.605
305.62	-0.233
305.99	0.585
306.35	-0.578
306.72	-1.350
307.09	-0.228
307.45	-0.344
307.82	-0.116
308.19	0.697
308.55	1.418
308.92	0.654
309.29	-1.229
309.65	0.323
310.02	-0.770
310.38	0.988
310.75	0.328
311.12	0.000
311.48	0.636
311.85	0.419
312.22	-0.316
312.58	0.637
312.95	-0.534
313.31	0.104
313.68	0.419
314.05	-1.224
314.41	0.103
314.78	-0.825
315.14	1.747
315.51	0.000
315.87	0.410
316.24	1.820
316.61	1.378
316.97	1.389
317.34	2.051
317.70	0.860
318.07	1.346
318.43	1.765
318.80	1.989
319.16	0.781
319.53	2.279
319.89	1.280
320.26	1.417
320.62	1.605
320.99	0.626
321.35	1.439
321.72	2.181
322.08	1.511
322.45	1.726
322.81	2.652
323.18	1.963
323.54	2.124
323.91	2.337
324.27	3.223
324.64	3.184
325.00	4.288
325.37	4.500
325.73	2.992
326.10	2.816
326.46	4.574
326.83	3.850
327.19	4.621
327.56	4.344
327.92	4.930
328.29	3.304
328.65	4.434
329.01	4.412
329.38	5.161
329.74	3.777
330.11	6.487
330.47	4.360
330.84	3.077
331.20	5.608
331.56	5.556
331.93	5.753
332.29	5.225
332.66	4.887
333.02	5.390
333.38	5.041
333.75	6.227
334.11	5.192
334.48	6.981
334.84	6.502
335.20	5.947
335.57	5.440
335.93	5.781
336.29	5.985
336.66	5.722
337.02	5.204
337.38	5.926
337.75	6.364
338.11	5.951
338.47	6.296
338.84	5.453
339.20	5.302
339.56	5.505
339.93	6.625
340.29	6.147
340.65	6.541
341.02	5.585
341.38	5.575
341.74	5.124
342.11	4.766
342.47	6.050
342.83	5.536
343.20	6.533
343.56	6.957
343.92	5.314
344.28	6.063
344.65	5.009
345.01	4.667
345.37	6.644
345.73	7.197
346.10	6.644
346.46	6.224
346.82	5.646
347.19	4.988
347.55	6.099
347.91	5.906
348.27	5.982
348.63	6.388
349.00	5.578
349.36	5.569
349.72	6.219
350.08	6.066
350.45	5.587
350.81	5.066
351.17	5.863
351.53	6.449
351.89	5.780
352.26	5.280
352.62	6.532
352.98	5.944
353.34	5.958
353.70	6.715
354.07	6.048
354.43	6.565
354.79	4.377
355.15	5.794
355.51	5.142
355.87	5.987
356.24	4.894
356.60	5.416
356.96	5.159
357.32	5.831
357.68	5.317
358.04	5.897
358.40	6.029
358.77	5.582
359.13	5.765
359.49	5.547
359.85	5.538
360.21	5.582
360.57	5.968
360.93	5.976
361.29	4.834
361.66	4.702
362.02	6.288
362.38	6.321
362.74	4.693
363.10	6.095
363.46	5.486
363.82	5.935
364.18	5.830
364.54	5.515
364.90	5.735
365.26	5.531
365.62	6.642
365.98	6.525
366.35	6.264
366.71	5.839
367.07	6.168
367.43	5.536
367.79	5.936
368.15	5.599
368.51	5.899
368.87	4.738
369.23	4.693
369.59	5.394
369.95	5.792
370.31	6.142
370.67	5.299
371.03	4.929
371.39	5.616
371.75	6.007
372.11	5.350
372.47	6.213
372.83	6.104
373.19	6.990
373.55	4.477
373.91	5.904
374.27	5.953
374.63	6.317
374.99	5.532
375.35	6.128
375.71	6.364
376.07	6.320
376.42	5.782
376.78	6.107
377.14	5.552
377.50	6.042
377.86	7.296
378.22	5.616
378.58	5.513
378.94	5.797
379.30	6.363
379.66	6.332
380.02	5.825
380.38	5.478
380.74	5.625
381.09	6.871
381.45	5.688
381.81	5.552
382.17	5.647
382.53	5.184
382.89	5.838
383.25	6.036
383.61	6.402
383.97	4.698
384.32	5.816
384.68	6.006
385.04	5.699
385.40	5.476
385.76	6.164
386.12	6.145
386.48	6.130
386.83	5.770
387.19	6.471
387.55	6.148
387.91	5.746
388.27	5.617
388.62	6.356
388.98	5.709
389.34	6.309
389.70	6.650
390.06	6.042
390.42	6.477
390.77	5.494
391.13	5.296
391.49	5.627
391.85	6.498
392.20	5.650
392.56	5.849
392.92	7.340
393.28	5.483
393.64	5.706
393.99	6.897
394.35	5.693
394.71	6.130
395.07	5.971
395.42	5.647
395.78	6.124
396.14	6.179
396.50	6.468
396.85	6.439
397.21	6.078
397.57	5.768
397.92	6.171
398.28	6.034
398.64	4.819
399.00	6.828
399.35	5.813
399.71	6.491
400.07	5.320
400.42	5.814
400.78	6.491
401.14	5.929
401.49	6.790
401.85	5.911
402.21	5.904
402.57	5.812
402.92	5.144
403.28	6.830
403.63	5.990
403.99	5.867
404.35	6.246
404.70	5.357
405.06	5.758
405.42	5.531
405.77	5.288
406.13	5.879
406.49	5.388
406.84	6.051
407.20	5.719
407.55	5.344
407.91	5.615
408.27	6.055
408.62	6.277
408.98	6.593
409.34	5.948
409.69	5.362
410.05	6.466
410.40	5.494
410.76	5.730
411.11	6.500
411.47	5.983
411.83	5.587
412.18	5.534
412.54	5.993
412.89	5.296
413.25	6.017
413.60	5.280
413.96	5.951
414.31	6.646
414.67	6.094
415.03	5.726
415.38	5.352
415.74	6.254
416.09	6.205
416.45	6.617
416.80	5.882
417.16	6.354
417.51	6.862
417.87	6.258
418.22	6.671
418.58	6.020
418.93	6.332
419.29	5.250
419.64	4.990
420.00	6.675
420.35	6.030
420.71	6.561
421.06	5.832
421.42	5.829
421.77	6.474
422.12	6.640
422.48	6.443
422.83	5.684
423.19	6.716
423.54	4.644
423.90	5.654
424.25	6.429
424.61	6.365
424.96	6.388
425.31	6.239
425.67	5.810
426.02	6.773
426.38	6.262
426.73	6.295
427.09	5.949
427.44	6.353
427.79	6.600
428.15	6.917
428.50	6.602
428.85	6.634
429.21	7.640
429.56	6.307
429.92	6.934
430.27	6.566
430.62	6.168
430.98	6.423
431.33	7.045
431.68	6.436
432.04	6.149
432.39	5.647
432.74	6.675
433.10	7.126
433.45	6.571
433.80	6.210
434.16	6.205
434.51	6.344
434.86	6.620
435.22	7.011
435.57	6.925
435.92	6.347
436.28	6.380
436.63	6.446
436.98	6.547
437.34	5.626
437.69	7.275
438.04	7.123
438.39	6.475
438.75	5.586
439.10	6.169
439.45	7.121
439.81	6.116
440.16	6.116
440.51	8.299
440.86	7.674
441.22	6.731
441.57	6.788
441.92	7.608
442.27	6.541
442.63	7.013
442.98	7.812
443.33	6.511
443.68	6.950
444.03	7.452
444.39	7.477
444.74	6.912
445.09	7.628
445.44	6.838
445.79	7.220
446.15	6.938
446.50	6.656
446.85	6.695
447.20	6.361
447.55	8.147
447.91	7.107
448.26	7.740
448.61	7.484
448.96	6.999
449.31	7.225
449.66	7.259
450.02	7.017
450.37	6.639
450.72	7.159
451.07	7.152
451.42	7.241
451.77	6.510
452.12	6.878
452.47	6.053
452.83	6.419
453.18	7.527
453.53	7.206
453.88	7.165
454.23	6.577
454.58	7.431
454.93	7.152
455.28	6.476
455.63	7.812
455.98	7.937
456.34	7.663
456.69	7.624
457.04	7.876
457.39	6.744
457.74	7.013
458.09	6.416
458.44	6.729
458.79	7.395
459.14	7.380
459.49	7.582
459.84	7.953
460.19	7.585
460.54	6.663
460.89	8.239
461.24	7.764
461.59	7.957
461.94	7.547
462.29	7.901
462.64	7.973
462.99	8.260
463.34	6.954
463.69	7.722
464.04	7.627
464.39	7.338
464.74	7.546
465.09	7.735
465.44	7.444
465.79	7.653
466.14	7.925
466.49	7.303
466.84	7.555
467.19	8.323
467.54	7.663
467.89	6.443
468.24	7.847
468.59	8.254
468.94	7.810
469.29	8.459
469.64	8.886
469.99	8.619
470.34	7.031
470.68	8.576
471.03	8.139
471.38	7.418
471.73	8.894
472.08	8.073
472.43	7.248
472.78	6.785
473.13	7.755
473.48	8.143
473.83	8.655
474.17	8.484
474.52	7.913
474.87	7.455
475.22	7.810
475.57	7.792
475.92	9.106
476.27	8.789
476.61	8.333
476.96	8.254
477.31	8.004
477.66	7.753
478.01	8.422
478.36	7.625
478.70	8.809
479.05	8.407
479.40	8.797
479.75	8.551
480.10	8.141
480.45	8.050
480.79	8.409
481.14	8.299
481.49	8.030
481.84	7.336
482.19	8.466
482.53	8.106
482.88	8.353
483.23	8.493
483.58	8.349
483.92	7.841
484.27	7.931
484.62	8.068
484.97	8.499
485.31	7.840
485.66	7.308
486.01	7.700
486.36	7.545
486.70	7.802
487.05	7.706
487.40	7.756
487.75	8.113
488.09	7.633
488.44	7.840
488.79	7.807
489.13	8.494
489.48	7.653
489.83	7.713
490.17	7.506
490.52	7.575
490.87	8.422
491.22	8.500
491.56	7.780
491.91	8.174
492.26	7.924
492.60	8.589
492.95	8.706
493.30	8.451
493.64	8.301
493.99	8.744
494.34	8.010
494.68	8.571
495.03	7.397
495.37	8.832
495.72	8.178
496.07	8.927
496.41	8.443
496.76	8.383
497.11	7.499
497.45	8.831
497.80	8.375
498.14	8.693
498.49	8.481
498.84	8.234
499.18	8.635
499.53	9.028
499.87	8.025
500.22	8.309
500.56	8.321
500.91	9.187
501.26	9.046
501.60	8.559
501.95	9.025
502.29	9.007
502.64	8.156
502.98	8.831
503.33	7.925
503.67	8.675
504.02	9.335
504.36	9.698
504.71	8.737
505.06	9.009
505.40	9.340
505.75	9.381
506.09	9.579
506.44	9.651
506.78	9.388
507.13	9.049
507.47	8.303
507.82	8.387
508.16	9.086
508.51	9.969
508.85	9.314
509.19	8.568
509.54	9.169
509.88	8.900
510.23	9.575
510.57	9.460
510.92	8.689
511.26	9.329
511.61	9.956
511.95	9.260
512.30	9.424
512.64	9.905
512.98	9.208
513.33	10.297
513.67	9.323
514.02	10.812
514.36	9.886
514.70	10.548
515.05	9.988
515.39	9.858
515.74	10.180
516.08	9.982
516.42	9.953
516.77	10.181
517.11	10.148
517.46	10.712
517.80	11.025
518.14	10.165
518.49	10.276
518.83	10.510
519.17	9.096
519.52	8.881
519.86	10.084
520.20	11.118
520.55	10.131
520.89	10.540
521.23	10.386
521.58	10.284
521.92	10.128
522.26	9.954
522.61	10.065
522.95	12.053
523.29	10.483
523.64	10.038
523.98	10.629
524.32	9.923
524.66	10.435
525.01	11.169
525.35	11.277
525.69	9.630
526.04	9.590
526.38	11.025
526.72	9.680
527.06	10.700
527.41	10.950
527.75	9.987
528.09	10.498
528.43	10.939
528.78	9.967
529.12	10.710
529.46	10.786
529.80	11.020
530.15	11.485
530.49	11.044
530.83	10.944
531.17	9.805
531.51	11.423
531.86	9.925
532.20	10.021
532.54	10.279
532.88	10.404
533.22	10.820
533.57	9.567
533.91	10.509
534.25	11.523
534.59	10.904
534.93	10.636
535.27	9.772
535.62	10.434
535.96	10.502
536.30	11.280
536.64	11.027
536.98	9.338
537.32	10.100
537.66	11.711
538.01	9.860
538.35	10.055
538.69	10.120
539.03	10.116
539.37	10.834
539.71	9.748
540.05	10.251
540.39	11.219
540.73	10.042
541.07	10.014
541.42	10.349
541.76	10.323
542.10	10.186
542.44	10.007
542.78	8.878
543.12	9.821
543.46	11.196
543.80	10.271
544.14	9.413
544.48	10.127
544.82	10.526
545.16	10.861
545.50	10.614
545.84	10.694
546.18	10.567
546.52	10.022
546.86	9.921
547.20	10.658
547.54	9.470
547.88	10.122
548.22	10.256
548.56	9.960
548.90	11.051
549.24	9.848
549.58	9.873
549.92	9.864
550.26	10.549
550.60	9.963
550.94	11.875
551.28	9.815
551.62	9.923
551.96	9.699
552.30	9.649
552.64	8.392
552.98	11.041
553.32	9.986
553.66	8.926
554.00	9.708
554.34	10.487
554.68	9.292
555.02	10.714
555.36	9.873
555.69	9.670
556.03	9.850
556.37	8.185
556.71	9.819
557.05	9.545
557.39	9.814
557.73	10.270
558.07	10.483
558.41	9.188
558.75	10.366
559.08	9.377
559.42	10.635
559.76	10.248
560.10	9.557
560.44	9.680
560.78	9.860
561.12	9.168
561.45	10.401
561.79	9.034
562.13	9.297
562.47	9.065
562.81	9.222
563.15	10.014
563.48	9.972
563.82	9.677
564.16	9.540
564.50	9.122
564.84	9.304
565.17	9.591
565.51	9.631
565.85	9.191
566.19	9.416
566.52	9.718
566.86	10.604
567.20	9.091
567.54	8.881
567.88	8.787
568.21	9.672
568.55	8.804
568.89	8.984
569.23	9.244
569.56	8.669
569.90	8.607
570.24	8.225
570.57	8.218
570.91	8.365
571.25	7.761
571.59	8.128
571.92	8.119
572.26	7.820
572.60	8.341
572.93	7.970
573.27	7.555
573.61	8.144
573.95	8.083
574.28	8.130
574.62	7.882
574.96	7.804
575.29	7.521
575.63	7.644
575.97	7.888
576.30	7.394
576.64	7.311
576.98	7.876
577.31	7.692
577.65	7.844
577.98	7.481
578.32	7.258
578.66	7.157
578.99	7.300
579.33	7.569
579.67	7.545
580.00	7.595
580.34	7.512
580.67	7.443
581.01	7.469
581.35	7.515
581.68	7.479
582.02	7.304
582.35	7.242
582.69	7.519
583.02	7.392
583.36	7.760
583.70	7.892
584.03	7.478
584.37	8.103
584.70	7.390
585.04	7.358
585.37	7.568
585.71	7.233
586.04	7.363
586.38	7.415
586.72	8.006
587.05	7.915
587.39	8.079
587.72	7.627
588.06	7.335
588.39	7.662
588.73	7.601
589.06	7.763
589.40	7.363
589.73	8.288
590.07	7.893
590.40	8.320
590.73	8.031
591.07	8.142
591.40	7.792
591.74	8.462
592.07	8.163
592.41	7.641
592.74	8.045
593.08	7.370
593.41	6.919
593.75	7.622
594.08	7.964
594.41	7.314
594.75	7.519
595.08	7.908
595.42	7.545
595.75	7.323
596.09	7.545
596.42	7.896
596.75	7.726
597.09	8.292
597.42	7.227
597.75	7.513
598.09	7.107
598.42	7.401
598.76	6.907
599.09	7.772
599.42	7.692
599.76	7.186
600.09	7.466
600.42	7.506
600.76	6.984
601.09	7.214
601.42	7.795
601.76	7.503
602.09	7.096
602.42	7.877
602.76	7.598
603.09	7.267
603.42	7.818
603.76	7.177
604.09	7.290
604.42	7.445
604.76	7.388
605.09	7.633
605.42	7.404
605.75	7.268
606.09	7.049
606.42	7.423
606.75	7.316
607.09	7.912
607.42	7.000
607.75	7.593
608.08	7.188
608.42	7.035
608.75	7.952
609.08	7.175
609.41	7.157
609.75	7.964
610.08	7.039
610.41	6.908
610.74	7.167
611.07	7.390
611.41	7.161
611.74	7.676
612.07	6.692
612.40	7.440
612.73	6.610
613.07	7.480
613.40	7.713
613.73	7.387
614.06	7.624
614.39	7.501
614.72	6.835
615.06	7.151
615.39	7.314
615.72	7.643
616.05	7.877
616.38	6.952
616.71	7.034
617.05	7.659
617.38	8.297
617.71	7.170
618.04	7.492
618.37	7.818
618.70	7.327
619.03	8.264
619.36	7.091
619.69	6.975
620.03	8.692
620.36	7.725
620.69	8.423
621.02	7.798
621.35	8.548
621.68	8.588
622.01	7.083
622.34	8.220
622.67	7.729
623.00	8.499
623.33	7.241
623.66	7.105
623.99	6.959
624.32	8.897
624.65	7.068
624.99	8.051
625.32	7.733
625.65	8.484
625.98	8.380
626.31	6.567
626.64	8.752
626.97	7.941
627.30	8.144
627.63	8.666
627.96	7.637
628.29	8.326
628.62	8.555
628.95	8.617
629.28	8.065
629.61	7.577
629.94	8.016
630.26	7.510
630.59	7.804
630.92	9.026
631.25	7.487
631.58	7.819
631.91	8.333
632.24	8.142
632.57	8.523
632.90	8.660
633.23	8.000
633.56	7.809
633.89	7.522
634.22	9.506
634.55	7.116
634.88	8.046
635.20	7.949
635.53	9.333
635.86	8.453
636.19	8.926
636.52	7.015
636.85	7.196
637.18	8.050
637.51	9.057
637.83	8.016
638.16	8.731
638.49	6.676
638.82	11.711
639.15	7.191
639.48	7.840
639.81	8.089
640.13	9.235
640.46	8.601
640.79	7.216
641.12	9.158
641.45	8.408
641.77	9.037
642.10	8.847
642.43	8.682
642.76	8.086
643.09	9.855
643.41	9.709
643.74	8.402
644.07	10.016
644.40	8.446
644.73	10.158
645.05	8.893
645.38	8.818
645.71	7.801
646.04	10.772
646.36	10.106
646.69	8.993
647.02	7.183
647.35	9.142
647.67	8.958
648.00	9.142
648.33	10.751
648.66	7.966
648.98	7.538
649.31	7.769
649.64	8.006
649.96	7.780
650.29	8.177
650.62	9.915
650.94	7.407
651.27	7.821
651.60	8.468
651.92	9.790
652.25	7.815
652.58	9.000
652.90	8.576
653.23	8.739
653.56	6.599
