SpectraSuite Data File
++++++++++++++++++++++++++++++++++++
Date: Fri May 15 20:31:43 PDT 2015
User: schluterlab
Dark Spectrum Present: Yes
Reference Spectrum Present: Yes
Number of Sampled Component Spectra: 1
Spectrometers: USB2E3373
Integration Time (usec): 3000 (USB2E3373)
Spectra Averaged: 3 (USB2E3373)
Boxcar Smoothing: 0 (USB2E3373)
Correct for Electrical Dark: No (USB2E3373)
Strobe/Lamp Enabled: No (USB2E3373)
Correct for Detector Non-linearity: No (USB2E3373)
Correct for Stray Light: No (USB2E3373)
Number of Pixels in Processed Spectrum: 2048
>>>>>Begin Processed Spectral Data<<<<<
178.53	0.000
178.91	0.000
179.29	87.500
179.67	-1000.000
180.04	128.571
180.42	150.000
180.80	0.000
181.18	66.667
181.56	400.000
181.94	0.000
182.31	700.000
182.69	-60.000
183.07	-266.667
183.45	-80.000
183.83	33.333
184.20	9.091
184.58	88.889
184.96	-0.000
185.34	300.000
185.72	-400.000
186.09	53.846
186.47	-100.000
186.85	66.667
187.23	177.778
187.61	300.000
187.98	166.667
188.36	11.111
188.74	-100.000
189.12	47.059
189.49	-33.333
189.87	0.000
190.25	57.143
190.63	50.000
191.00	-333.333
191.38	0.000
191.76	50.000
192.14	-50.000
192.51	-150.000
192.89	-122.222
193.27	-71.429
193.65	250.000
194.02	172.727
194.40	30.000
194.78	-187.500
195.15	-41.667
195.53	-137.500
195.91	200.000
196.29	-25.000
196.66	107.692
197.04	57.143
197.42	-22.222
197.79	-533.333
198.17	-84.615
198.55	900.000
198.92	-533.333
199.30	-200.000
199.68	0.000
200.05	-433.333
200.43	0.000
200.81	133.333
201.18	100.000
201.56	400.000
201.94	-350.000
202.31	66.667
202.69	-140.000
203.07	-0.000
203.44	100.000
203.82	0.000
204.19	-50.000
204.57	-300.000
204.95	150.000
205.32	-60.000
205.70	85.714
206.08	75.000
206.45	200.000
206.83	-14.286
207.20	-142.857
207.58	800.000
207.96	-400.000
208.33	40.000
208.71	-25.000
209.08	-183.333
209.46	-100.000
209.84	40.000
210.21	200.000
210.59	42.857
210.96	-33.333
211.34	-200.000
211.71	66.667
212.09	-71.429
212.46	-1900.000
212.84	0.000
213.22	40.000
213.59	500.000
213.97	46.154
214.34	27.273
214.72	-100.000
215.09	400.000
215.47	38.462
215.84	-18.182
216.22	-266.667
216.59	37.500
216.97	50.000
217.34	-275.000
217.72	-180.000
218.09	-12.500
218.47	112.500
218.84	300.000
219.22	-33.333
219.59	-180.000
219.97	300.000
220.34	100.000
220.72	85.714
221.09	-75.000
221.47	-50.000
221.84	-500.000
222.22	-550.000
222.59	63.636
222.97	66.667
223.34	-366.667
223.72	0.000
224.09	19.048
224.46	10.714
224.84	266.667
225.21	0.000
225.59	33.333
225.96	-50.000
226.34	200.000
226.71	71.429
227.08	50.000
227.46	-75.000
227.83	-650.000
228.21	-11.111
228.58	-109.091
228.95	-150.000
229.33	80.000
229.70	6.250
230.08	-62.500
230.45	-71.429
230.82	14.286
231.20	-26.667
231.57	-14.286
231.95	-28.571
232.32	-70.000
232.69	35.714
233.07	300.000
233.44	-220.000
233.81	30.000
234.19	-11.111
234.56	0.000
234.93	350.000
235.31	-100.000
235.68	-260.000
236.05	15.385
236.43	-65.000
236.80	17.647
237.17	40.625
237.55	5.000
237.92	7.407
238.29	0.000
238.67	43.333
239.04	38.235
239.41	4.878
239.79	16.667
240.16	34.146
240.53	18.421
240.91	19.565
241.28	49.206
241.65	35.714
242.02	26.027
242.40	41.667
242.77	32.203
243.14	10.606
243.51	30.000
243.89	43.678
244.26	21.839
244.63	33.333
245.00	39.175
245.38	31.959
245.75	25.843
246.12	33.621
246.49	24.793
246.87	40.385
247.24	28.571
247.61	28.070
247.98	36.585
248.36	33.750
248.73	26.974
249.10	38.312
249.47	36.076
249.84	36.601
250.22	32.941
250.59	29.412
250.96	37.089
251.33	26.744
251.70	28.824
252.08	37.563
252.45	36.139
252.82	31.156
253.19	38.249
253.56	34.112
253.94	32.883
254.31	34.348
254.68	37.719
255.05	31.890
255.42	37.991
255.79	33.591
256.16	31.907
256.54	31.343
256.91	33.840
257.28	38.662
257.65	34.831
258.02	32.270
258.39	35.017
258.76	34.066
259.14	34.884
259.51	33.010
259.88	34.708
260.25	34.967
260.62	38.194
260.99	30.169
261.36	28.082
261.73	34.177
262.10	37.386
262.47	31.288
262.85	32.915
263.22	33.538
263.59	35.826
263.96	33.230
264.33	34.242
264.70	37.798
265.07	33.631
265.44	35.411
265.81	36.158
266.18	38.798
266.55	34.704
266.92	36.010
267.29	34.726
267.66	33.248
268.03	36.911
268.40	32.898
268.77	37.166
269.14	36.691
269.51	35.476
269.88	33.167
270.25	34.949
270.62	32.683
270.99	33.760
271.36	33.007
271.73	35.211
272.10	34.550
272.47	35.461
272.84	35.149
273.21	35.499
273.58	33.494
273.95	35.011
274.32	33.718
274.69	32.353
275.06	35.938
275.43	35.828
275.80	33.113
276.17	34.253
276.54	33.619
276.91	36.623
277.28	31.441
277.65	35.950
278.02	34.043
278.39	34.136
278.76	33.753
279.13	32.365
279.50	35.084
279.87	33.045
280.23	31.398
280.60	33.723
280.97	33.535
281.34	30.962
281.71	34.086
282.08	33.742
282.45	32.877
282.82	32.819
283.19	33.075
283.56	33.333
283.92	30.171
284.29	31.538
284.66	31.395
285.03	32.613
285.40	31.380
285.77	30.931
286.14	33.213
286.51	32.657
286.87	30.347
287.24	30.387
287.61	31.393
287.98	30.877
288.35	30.676
288.72	32.049
289.08	30.208
289.45	30.756
289.82	28.846
290.19	30.205
290.56	31.732
290.93	29.125
291.29	28.043
291.66	29.764
292.03	29.187
292.40	29.355
292.77	27.751
293.13	25.649
293.50	27.011
293.87	28.397
294.24	28.284
294.60	25.633
294.97	27.827
295.34	25.307
295.71	27.124
296.08	27.205
296.44	24.182
296.81	25.139
297.18	24.928
297.55	26.152
297.91	24.384
298.28	25.858
298.65	23.609
299.02	24.124
299.38	21.888
299.75	24.276
300.12	24.476
300.48	24.242
300.85	23.954
301.22	23.636
301.59	24.605
301.95	25.696
302.32	24.514
302.69	23.383
303.05	22.525
303.42	22.540
303.79	24.065
304.15	24.014
304.52	22.711
304.89	23.509
305.25	23.245
305.62	21.354
305.99	21.988
306.35	21.850
306.72	21.822
307.09	22.805
307.45	22.273
307.82	22.917
308.19	23.345
308.55	23.337
308.92	23.856
309.29	22.458
309.65	23.036
310.02	22.222
310.38	22.173
310.75	20.656
311.12	24.435
311.48	23.012
311.85	22.932
312.22	21.941
312.58	21.656
312.95	22.199
313.31	23.602
313.68	20.942
314.05	22.347
314.41	23.196
314.78	22.784
315.14	22.508
315.51	23.810
315.87	23.361
316.24	23.054
316.61	22.736
316.97	22.321
317.34	22.363
317.70	22.849
318.07	22.692
318.43	24.216
318.80	23.390
319.16	25.684
319.53	23.837
319.89	23.425
320.26	23.583
320.62	24.674
320.99	22.443
321.35	24.358
321.72	24.818
322.08	25.277
322.45	25.076
322.81	25.344
323.18	25.515
323.54	27.124
323.91	26.193
324.27	27.246
324.64	27.528
325.00	28.102
325.37	28.375
325.73	25.929
326.10	27.702
326.46	28.161
326.83	27.822
327.19	28.160
327.56	28.844
327.92	29.049
328.29	27.857
328.65	30.094
329.01	29.044
329.38	30.046
329.74	30.028
330.11	29.564
330.47	30.241
330.84	30.481
331.20	32.034
331.56	29.259
331.93	31.963
332.29	32.172
332.66	31.855
333.02	31.227
333.38	30.981
333.75	31.136
334.11	30.618
334.48	32.548
334.84	33.333
335.20	32.388
335.57	31.460
335.93	33.243
336.29	32.965
336.66	31.517
337.02	31.506
337.38	32.315
337.75	32.364
338.11	32.822
338.47	33.120
338.84	32.717
339.20	33.272
339.56	33.303
339.93	32.229
340.29	33.028
340.65	32.079
341.02	33.156
341.38	32.655
341.74	31.360
342.11	31.716
342.47	31.940
342.83	32.958
343.20	31.969
343.56	32.696
343.92	32.329
344.28	32.707
344.65	32.902
345.01	31.461
345.37	32.044
345.73	31.799
346.10	33.391
346.46	32.464
346.82	31.424
347.19	32.835
347.55	32.581
347.91	32.524
348.27	31.770
348.63	34.157
349.00	32.650
349.36	33.084
349.72	33.416
350.08	33.443
350.45	32.961
350.81	33.140
351.17	31.840
351.53	32.653
351.89	31.214
352.26	30.800
352.62	32.581
352.98	32.289
353.34	32.689
353.70	32.686
354.07	30.887
354.43	32.346
354.79	32.948
355.15	32.381
355.51	31.804
355.87	33.091
356.24	31.892
356.60	33.630
356.96	33.968
357.32	33.067
357.68	32.604
358.04	33.360
358.40	34.244
358.77	33.413
359.13	32.746
359.49	32.049
359.85	32.917
360.21	32.616
360.57	32.441
360.93	33.888
361.29	31.344
361.66	33.386
362.02	33.409
362.38	33.283
362.74	33.308
363.10	34.086
363.46	33.358
363.82	34.636
364.18	34.244
364.54	33.162
364.90	33.477
365.26	34.134
365.62	33.285
365.98	34.238
366.35	34.450
366.71	34.885
367.07	33.599
367.43	33.214
367.79	33.993
368.15	34.386
368.51	34.377
368.87	34.889
369.23	33.646
369.59	34.257
369.95	35.484
370.31	34.682
370.67	35.000
371.03	33.532
371.39	34.427
371.75	35.092
372.11	34.950
372.47	35.281
372.83	34.705
373.19	34.522
373.55	34.079
373.91	35.061
374.27	37.279
374.63	35.750
374.99	34.681
375.35	35.028
375.71	35.944
376.07	36.587
376.42	35.102
376.78	36.443
377.14	35.680
377.50	35.525
377.86	35.408
378.22	36.311
378.58	36.538
378.94	36.484
379.30	35.870
379.66	37.868
380.02	35.868
380.38	34.875
380.74	38.181
381.09	37.853
381.45	36.269
381.81	37.816
382.17	37.690
382.53	37.726
382.89	36.535
383.25	38.830
383.61	38.720
383.97	38.730
384.32	37.961
384.68	36.718
385.04	38.297
385.40	38.332
385.76	40.063
386.12	39.392
386.48	40.166
386.83	39.632
387.19	39.194
387.55	40.402
387.91	38.447
388.27	39.255
388.62	39.333
388.98	40.270
389.34	39.038
389.70	41.641
390.06	40.088
390.42	41.062
390.77	41.661
391.13	40.984
391.49	41.785
391.85	40.481
392.20	40.804
392.56	41.004
392.92	41.339
393.28	41.392
393.64	41.021
393.99	43.386
394.35	42.252
394.71	42.912
395.07	40.855
395.42	41.894
395.78	42.606
396.14	42.812
396.50	42.866
396.85	42.820
397.21	42.607
397.57	42.947
397.92	43.140
398.28	42.874
398.64	42.771
399.00	44.074
399.35	42.381
399.71	43.251
400.07	45.042
400.42	42.840
400.78	44.152
401.14	43.315
401.49	44.669
401.85	43.937
402.21	44.458
402.57	45.625
402.92	43.287
403.28	45.050
403.63	44.893
403.99	44.388
404.35	45.472
404.70	43.750
405.06	45.711
405.42	44.251
405.77	45.090
406.13	45.169
406.49	45.708
406.84	46.149
407.20	46.117
407.55	45.589
407.91	46.457
408.27	46.463
408.62	46.523
408.98	45.903
409.34	46.159
409.69	45.866
410.05	45.320
410.40	45.802
410.76	47.467
411.11	47.250
411.47	48.323
411.83	46.390
412.18	48.198
412.54	48.065
412.89	47.291
413.25	48.135
413.60	46.770
413.96	46.074
414.31	47.378
414.67	47.595
415.03	48.069
415.38	47.258
415.74	49.511
416.09	48.792
416.45	48.818
416.80	47.786
417.16	48.481
417.51	48.568
417.87	47.979
418.22	50.000
418.58	48.896
418.93	49.091
419.29	47.631
419.64	48.412
420.00	51.071
420.35	48.299
420.71	48.420
421.06	49.048
421.42	49.219
421.77	49.942
422.12	48.354
422.48	49.486
422.83	49.478
423.19	49.379
423.54	48.383
423.90	49.352
424.25	50.057
424.61	50.551
424.96	48.374
425.31	50.953
425.67	49.941
426.02	51.413
426.38	50.657
426.73	51.090
427.09	51.266
427.44	50.000
427.79	49.971
428.15	50.303
428.50	50.878
428.85	49.939
429.21	50.934
429.56	50.512
429.92	49.512
430.27	49.373
430.62	49.242
430.98	49.788
431.33	50.526
431.68	50.078
432.04	51.425
432.39	49.572
432.74	50.210
433.10	51.609
433.45	51.075
433.80	51.016
434.16	50.693
434.51	51.022
434.86	51.220
435.22	51.935
435.57	51.029
435.92	52.874
436.28	50.626
436.63	51.055
436.98	51.101
437.34	49.909
437.69	51.699
438.04	50.427
438.39	50.886
438.75	50.759
439.10	51.669
439.45	52.891
439.81	51.315
440.16	53.029
440.51	52.418
440.86	53.353
441.22	52.036
441.57	52.594
441.92	52.308
442.27	53.104
442.63	52.623
442.98	52.728
443.33	52.755
443.68	50.663
444.03	52.956
444.39	52.730
444.74	52.843
445.09	53.563
445.44	53.105
445.79	52.914
446.15	52.093
446.50	52.080
446.85	52.550
447.20	52.033
447.55	53.237
447.91	53.074
448.26	52.874
448.61	52.677
448.96	53.701
449.31	53.988
449.66	52.381
450.02	52.481
450.37	54.179
450.72	52.635
451.07	53.797
451.42	52.060
451.77	52.923
452.12	52.632
452.47	53.123
452.83	53.710
453.18	52.751
453.53	53.729
453.88	54.402
454.23	52.797
454.58	54.093
454.93	54.124
455.28	52.317
455.63	52.263
455.98	53.818
456.34	53.640
456.69	54.384
457.04	54.631
457.39	53.341
457.74	55.079
458.09	52.266
458.44	53.833
458.79	52.717
459.14	53.547
459.49	53.552
459.84	53.243
460.19	52.731
460.54	53.545
460.89	53.977
461.24	52.981
461.59	54.038
461.94	53.522
462.29	54.765
462.64	54.551
462.99	54.232
463.34	52.712
463.69	54.054
464.04	54.600
464.39	53.851
464.74	53.374
465.09	53.837
465.44	53.837
465.79	52.438
466.14	53.307
466.49	54.284
466.84	54.551
467.19	54.380
467.54	53.959
467.89	54.706
468.24	54.380
468.59	54.349
468.94	54.794
469.29	55.016
469.64	53.862
469.99	55.291
470.34	54.539
470.68	55.034
471.03	54.989
471.38	55.635
471.73	54.832
472.08	54.410
472.43	55.101
472.78	54.421
473.13	55.170
473.48	53.811
473.83	54.732
474.17	56.606
474.52	53.989
474.87	55.939
475.22	54.606
475.57	54.771
475.92	56.116
476.27	54.889
476.61	55.903
476.96	53.988
477.31	55.165
477.66	54.438
478.01	54.464
478.36	53.758
478.70	55.411
479.05	55.604
479.40	54.531
479.75	53.441
480.10	55.607
480.45	54.800
480.79	56.647
481.14	55.840
481.49	54.631
481.84	55.454
482.19	53.789
482.53	55.108
482.88	54.797
483.23	55.134
483.58	54.528
483.92	53.437
484.27	53.510
484.62	54.415
484.97	54.353
485.31	52.023
485.66	49.812
486.01	50.756
486.36	50.325
486.70	52.378
487.05	52.893
487.40	52.947
487.75	54.141
488.09	53.276
488.44	53.851
488.79	54.352
489.13	55.729
489.48	54.681
489.83	55.067
490.17	54.112
490.52	54.319
490.87	54.049
491.22	55.731
491.56	55.550
491.91	54.876
492.26	55.955
492.60	56.046
492.95	57.304
493.30	55.789
493.64	56.974
493.99	55.266
494.34	54.612
494.68	55.524
495.03	54.891
495.37	55.790
495.72	56.032
496.07	56.976
496.41	54.906
496.76	55.136
497.11	55.519
497.45	55.752
497.80	57.114
498.14	55.738
498.49	56.577
498.84	56.986
499.18	56.275
499.53	56.151
499.87	55.837
500.22	56.133
500.56	56.833
500.91	56.275
501.26	56.006
501.60	55.976
501.95	56.332
502.29	57.869
502.64	57.674
502.98	57.277
503.33	55.812
503.67	56.048
504.02	56.158
504.36	56.853
504.71	56.162
505.06	55.913
505.40	56.954
505.75	57.835
506.09	56.158
506.44	58.111
506.78	58.520
507.13	58.583
507.47	57.285
507.82	57.425
508.16	56.260
508.51	57.503
508.85	58.032
509.19	58.063
509.54	58.499
509.88	59.277
510.23	59.978
510.57	58.952
510.92	57.516
511.26	59.629
511.61	58.801
511.95	59.123
512.30	57.871
512.64	57.429
512.98	59.405
513.33	59.261
513.67	59.864
514.02	61.041
514.36	61.086
514.70	60.140
515.05	60.693
515.39	60.685
515.74	61.497
516.08	61.686
516.42	62.426
516.77	61.498
517.11	61.721
517.46	62.597
517.80	61.442
518.14	61.666
518.49	60.697
518.83	61.179
519.17	60.825
519.52	61.042
519.86	60.744
520.20	61.725
520.55	61.351
520.89	62.484
521.23	62.761
521.58	62.334
521.92	62.500
522.26	63.305
522.61	63.312
522.95	64.834
523.29	62.834
523.64	62.135
523.98	63.707
524.32	63.209
524.66	63.316
525.01	63.896
525.35	63.901
525.69	63.367
526.04	64.352
526.38	64.981
526.72	62.328
527.06	62.970
527.41	63.588
527.75	63.271
528.09	63.056
528.43	65.024
528.78	64.950
529.12	62.645
529.46	63.288
529.80	62.191
530.15	65.875
530.49	63.906
530.83	63.680
531.17	62.592
531.51	65.048
531.86	63.834
532.20	63.953
532.54	63.581
532.88	64.956
533.22	63.777
533.57	63.499
533.91	63.969
534.25	63.997
534.59	63.182
534.93	61.989
535.27	61.294
535.62	62.087
535.96	64.057
536.30	63.193
536.64	65.472
536.98	64.042
537.32	64.154
537.66	65.147
538.01	64.755
538.35	63.245
538.69	62.517
539.03	63.021
539.37	62.786
539.71	63.327
540.05	62.458
540.39	63.019
540.73	63.668
541.07	62.983
541.42	62.769
541.76	63.661
542.10	62.491
542.44	62.265
542.78	62.010
543.12	61.332
543.46	61.613
543.80	63.081
544.14	61.816
544.48	63.558
544.82	63.090
545.16	62.978
545.50	62.283
545.84	64.306
546.18	64.752
546.52	63.158
546.86	62.257
547.20	62.518
547.54	61.413
547.88	63.655
548.22	61.078
548.56	60.422
548.90	61.860
549.24	61.915
549.58	61.636
549.92	61.115
550.26	61.392
550.60	63.271
550.94	62.883
551.28	64.451
551.62	64.538
551.96	62.180
552.30	62.061
552.64	60.719
552.98	62.588
553.32	61.698
553.66	61.611
554.00	64.015
554.34	63.294
554.68	62.168
555.02	62.351
555.36	61.855
555.69	61.612
556.03	60.100
556.37	61.993
556.71	61.949
557.05	62.640
557.39	60.892
557.73	62.519
558.07	62.066
558.41	63.170
558.75	62.666
559.08	62.175
559.42	62.698
559.76	63.491
560.10	62.232
560.44	62.249
560.78	60.140
561.12	61.848
561.45	61.138
561.79	62.395
562.13	61.178
562.47	61.511
562.81	62.032
563.15	61.354
563.48	61.033
563.82	62.526
564.16	62.117
564.50	60.811
564.84	60.977
565.17	60.496
565.51	62.705
565.85	62.071
566.19	60.544
566.52	62.534
566.86	61.761
567.20	60.274
567.54	60.645
567.88	59.578
568.21	59.842
568.55	57.663
568.89	58.778
569.23	58.353
569.56	56.130
569.90	57.085
570.24	55.303
570.57	55.345
570.91	55.176
571.25	54.324
571.59	54.158
571.92	52.652
572.26	54.046
572.60	52.744
572.93	54.158
573.27	53.762
573.61	53.610
573.95	53.140
574.28	52.278
574.62	52.148
574.96	52.481
575.29	51.868
575.63	51.257
575.97	51.803
576.30	52.235
576.64	51.868
576.98	52.329
577.31	51.855
577.65	51.927
577.98	50.930
578.32	50.407
578.66	50.655
578.99	51.123
579.33	51.287
579.67	50.492
580.00	51.544
580.34	51.667
580.67	50.964
581.01	50.937
581.35	50.000
581.68	50.148
582.02	49.917
582.35	49.935
582.69	50.760
583.02	50.801
583.36	50.887
583.70	51.973
584.03	52.711
584.37	52.795
584.70	51.841
585.04	50.389
585.37	50.295
585.71	49.938
586.04	50.025
586.38	50.200
586.72	50.789
587.05	50.664
587.39	51.076
587.72	52.132
588.06	50.484
588.39	50.669
588.73	51.129
589.06	52.348
589.40	51.469
589.73	52.574
590.07	53.059
590.40	53.057
590.73	53.501
591.07	53.053
591.40	52.315
591.74	52.896
592.07	53.340
592.41	51.988
592.74	51.493
593.08	49.214
593.41	50.708
593.75	51.096
594.08	49.365
594.41	50.473
594.75	50.725
595.08	50.776
595.42	51.049
595.75	52.084
596.09	51.251
596.42	51.964
596.75	53.020
597.09	51.481
597.42	51.220
597.75	52.176
598.09	51.109
598.42	51.218
598.76	50.879
599.09	50.321
599.42	49.678
599.76	49.285
600.09	48.793
600.42	49.773
600.76	48.663
601.09	50.076
601.42	49.275
601.76	49.702
602.09	50.701
602.42	50.969
602.76	50.424
603.09	51.287
603.42	51.589
603.76	50.282
604.09	49.656
604.42	50.212
604.76	50.823
605.09	50.686
605.42	50.339
605.75	50.701
606.09	48.493
606.42	49.333
606.75	49.221
607.09	49.582
607.42	48.294
607.75	49.645
608.08	49.865
608.42	48.789
608.75	50.072
609.08	50.274
609.41	50.558
609.75	49.698
610.08	51.373
610.41	49.469
610.74	49.147
611.07	51.008
611.41	50.701
611.74	51.866
612.07	49.839
612.40	51.860
612.73	51.751
613.07	50.281
613.40	50.875
613.73	50.699
614.06	50.807
614.39	51.100
614.72	49.972
615.06	49.441
615.39	48.908
615.72	49.247
616.05	50.670
616.38	50.370
616.71	49.480
617.05	50.896
617.38	51.226
617.71	51.887
618.04	50.921
618.37	52.585
618.70	51.617
619.03	51.875
619.36	50.868
619.69	53.298
620.03	53.031
620.36	51.431
620.69	52.106
621.02	52.370
621.35	54.606
621.68	53.741
622.01	53.500
622.34	52.674
622.67	52.287
623.00	52.297
623.33	52.744
623.66	51.758
623.99	50.454
624.32	52.776
624.65	51.955
624.99	52.370
625.32	51.478
625.65	52.317
625.98	52.458
626.31	52.369
626.64	52.513
626.97	53.141
627.30	53.853
627.63	52.773
627.96	53.998
628.29	53.932
628.62	54.572
628.95	53.006
629.28	53.024
629.61	51.745
629.94	55.132
630.26	52.767
630.59	55.359
630.92	53.846
631.25	51.897
631.58	53.965
631.91	53.618
632.24	54.358
632.57	53.409
632.90	55.397
633.23	55.059
633.56	59.194
633.89	55.610
