SpectraSuite Data File
++++++++++++++++++++++++++++++++++++
Date: Fri May 15 21:06:09 PDT 2015
User: schluterlab
Dark Spectrum Present: Yes
Reference Spectrum Present: Yes
Number of Sampled Component Spectra: 1
Spectrometers: USB2E3373
Integration Time (usec): 3000 (USB2E3373)
Spectra Averaged: 3 (USB2E3373)
Boxcar Smoothing: 0 (USB2E3373)
Correct for Electrical Dark: No (USB2E3373)
Strobe/Lamp Enabled: No (USB2E3373)
Correct for Detector Non-linearity: No (USB2E3373)
Correct for Stray Light: No (USB2E3373)
Number of Pixels in Processed Spectrum: 2048
>>>>>Begin Processed Spectral Data<<<<<
178.53	0.000
178.91	0.000
179.29	-25.000
179.67	-650.000
180.04	-0.000
180.42	50.000
180.80	-1000.000
181.18	33.333
181.56	400.000
181.94	-50.000
182.31	400.000
182.69	-100.000
183.07	-200.000
183.45	-320.000
183.83	250.000
184.20	18.182
184.58	122.222
184.96	-125.000
185.34	533.333
185.72	-450.000
186.09	100.000
186.47	-400.000
186.85	150.000
187.23	188.889
187.61	600.000
187.98	-600.000
188.36	0.000
188.74	-500.000
189.12	-23.529
189.49	0.000
189.87	0.000
190.25	7.143
190.63	-200.000
191.00	0.000
191.38	-42.105
191.76	-350.000
192.14	250.000
192.51	-100.000
192.89	-55.556
193.27	-142.857
193.65	150.000
194.02	136.364
194.40	-50.000
194.78	-125.000
195.15	-41.667
195.53	-162.500
195.91	450.000
196.29	-50.000
196.66	100.000
197.04	157.143
197.42	-88.889
197.79	-500.000
198.17	-84.615
198.55	2300.000
198.92	-433.333
199.30	-100.000
199.68	-140.000
200.05	-433.333
200.43	0.000
200.81	-200.000
201.18	0.000
201.56	300.000
201.94	-400.000
202.31	200.000
202.69	-320.000
203.07	150.000
203.44	300.000
203.82	0.000
204.19	57.143
204.57	-666.667
204.95	112.500
205.32	-40.000
205.70	-100.000
206.08	-225.000
206.45	133.333
206.83	78.571
207.20	-128.571
207.58	1300.000
207.96	-66.667
208.33	-170.000
208.71	-75.000
209.08	-233.333
209.46	-400.000
209.84	-260.000
210.21	-300.000
210.59	42.857
210.96	-133.333
211.34	-150.000
211.71	6.667
212.09	-128.571
212.46	-1000.000
212.84	0.000
213.22	60.000
213.59	400.000
213.97	84.615
214.34	-27.273
214.72	-233.333
215.09	675.000
215.47	-15.385
215.84	18.182
216.22	-200.000
216.59	-187.500
216.97	300.000
217.34	125.000
217.72	-320.000
218.09	-62.500
218.47	75.000
218.84	-100.000
219.22	-55.556
219.59	-40.000
219.97	500.000
220.34	250.000
220.72	-28.571
221.09	-150.000
221.47	150.000
221.84	0.000
222.22	-550.000
222.59	9.091
222.97	0.000
223.34	-333.333
223.72	-85.714
224.09	28.571
224.46	7.143
224.84	666.667
225.21	-10.000
225.59	-26.667
225.96	-400.000
226.34	450.000
226.71	-142.857
227.08	-116.667
227.46	75.000
227.83	-900.000
228.21	-122.222
228.58	-45.455
228.95	-87.500
229.33	100.000
229.70	6.250
230.08	-87.500
230.45	-157.143
230.82	28.571
231.20	-53.333
231.57	0.000
231.95	-114.286
232.32	-130.000
232.69	14.286
233.07	-100.000
233.44	-120.000
233.81	-100.000
234.19	-155.556
234.56	-35.294
234.93	400.000
235.31	175.000
235.68	-300.000
236.05	-138.462
236.43	-50.000
236.80	17.647
237.17	3.125
237.55	-40.000
237.92	-37.037
238.29	-25.000
238.67	-3.333
239.04	-8.824
239.41	-24.390
239.79	-13.333
240.16	9.756
240.53	-23.684
240.91	-21.739
241.28	9.524
241.65	1.786
242.02	4.110
242.40	-6.667
242.77	0.000
243.14	-4.545
243.51	-3.750
243.89	12.644
244.26	2.299
244.63	8.333
245.00	9.278
245.38	6.186
245.75	-3.371
246.12	4.310
246.49	0.000
246.87	0.000
247.24	3.361
247.61	-5.263
247.98	5.691
248.36	3.125
248.73	13.816
249.10	7.143
249.47	4.430
249.84	10.458
250.22	9.412
250.59	3.268
250.96	16.432
251.33	1.163
251.70	5.294
252.08	7.107
252.45	0.990
252.82	4.020
253.19	4.147
253.56	4.206
253.94	6.306
254.31	6.957
254.68	7.456
255.05	6.299
255.42	9.607
255.79	7.722
256.16	4.669
256.54	13.060
256.91	7.985
257.28	7.063
257.65	6.742
258.02	4.965
258.39	7.071
258.76	9.524
259.14	11.296
259.51	9.385
259.88	8.591
260.25	5.229
260.62	5.903
260.99	6.102
261.36	6.507
261.73	7.911
262.10	7.599
262.47	6.748
262.85	7.210
263.22	9.846
263.59	9.346
263.96	9.317
264.33	8.788
264.70	8.333
265.07	5.357
265.44	12.465
265.81	7.062
266.18	6.284
266.55	10.283
266.92	10.104
267.29	7.572
267.66	7.928
268.03	10.471
268.40	7.050
268.77	8.556
269.14	9.353
269.51	8.997
269.88	5.486
270.25	5.612
270.62	10.488
270.99	5.115
271.36	5.134
271.73	7.746
272.10	7.786
272.47	8.747
272.84	5.198
273.21	8.585
273.58	11.084
273.95	7.551
274.32	5.312
274.69	5.882
275.06	7.366
275.43	7.029
275.80	6.181
276.17	9.195
276.54	5.567
276.91	8.333
277.28	8.734
277.65	9.298
278.02	7.234
278.39	7.877
278.76	7.128
279.13	6.017
279.50	7.563
279.87	8.855
280.23	6.452
280.60	8.772
280.97	10.505
281.34	7.308
281.71	9.856
282.08	8.589
282.45	7.045
282.82	7.143
283.19	10.251
283.56	8.092
283.92	7.780
284.29	7.500
284.66	7.946
285.03	9.037
285.40	8.507
285.77	8.260
286.14	9.747
286.51	9.410
286.87	9.689
287.24	9.024
287.61	7.584
287.98	9.649
288.35	9.705
288.72	11.208
289.08	9.549
289.45	10.896
289.82	10.140
290.19	7.338
290.56	8.405
290.93	9.596
291.29	8.783
291.66	12.283
292.03	10.048
292.40	10.968
292.77	11.802
293.13	8.279
293.50	9.712
293.87	10.534
294.24	10.974
294.60	10.432
294.97	9.524
295.34	10.429
295.71	12.519
296.08	11.211
296.44	8.535
296.81	12.500
297.18	11.739
297.55	13.008
297.91	10.274
298.28	13.193
298.65	11.669
299.02	11.051
299.38	9.713
299.75	12.690
300.12	11.780
300.48	10.804
300.85	13.942
301.22	10.260
301.59	12.500
301.95	12.532
302.32	12.062
302.69	11.816
303.05	11.757
303.42	12.204
303.79	11.799
304.15	13.023
304.52	11.415
304.89	11.930
305.25	11.501
305.62	11.552
305.99	13.567
306.35	12.023
306.72	11.361
307.09	12.429
307.45	11.366
307.82	12.153
308.19	13.937
308.55	13.850
308.92	14.270
309.29	12.514
309.65	12.809
310.02	13.421
310.38	13.172
310.75	13.880
311.12	13.563
311.48	13.362
311.85	13.822
312.22	13.397
312.58	14.013
312.95	13.234
313.31	12.422
313.68	13.613
314.05	13.980
314.41	14.227
314.78	13.402
315.14	15.519
315.51	14.389
315.87	16.189
316.24	14.560
316.61	14.764
316.97	15.278
317.34	14.551
317.70	13.862
318.07	13.173
318.43	13.529
318.80	14.962
319.16	15.039
319.53	16.334
319.89	14.764
320.26	14.271
320.62	15.647
320.99	14.927
321.35	15.930
321.72	14.953
322.08	15.811
322.45	16.345
322.81	16.208
323.18	15.702
323.54	16.409
323.91	16.650
324.27	16.406
324.64	17.509
325.00	17.336
325.37	17.723
325.73	16.682
326.10	16.440
326.46	17.937
326.83	16.885
327.19	17.786
327.56	18.245
327.92	17.606
328.29	16.964
328.65	17.925
329.01	17.831
329.38	18.157
329.74	16.619
330.11	18.072
330.47	18.275
330.84	17.115
331.20	18.251
331.56	17.037
331.93	17.260
332.29	18.607
332.66	19.548
333.02	17.751
333.38	17.874
333.75	18.681
334.11	16.920
334.48	18.132
334.84	17.308
335.20	17.017
335.57	16.228
335.93	17.164
336.29	17.587
336.66	16.621
337.02	16.171
337.38	15.556
337.75	17.000
338.11	15.960
338.47	17.062
338.84	16.913
339.20	15.814
339.56	16.514
339.93	17.905
340.29	17.706
340.65	16.846
341.02	16.844
341.38	16.195
341.74	16.343
342.11	15.945
342.47	16.370
342.83	17.388
343.20	15.592
343.56	16.696
343.92	16.829
344.28	18.190
344.65	15.458
345.01	15.385
345.37	17.410
345.73	16.653
346.10	16.739
346.46	17.578
346.82	16.858
347.19	15.877
347.55	16.040
347.91	17.557
348.27	17.057
348.63	16.525
349.00	17.391
349.36	17.041
349.72	17.164
350.08	17.213
350.45	18.516
350.81	16.694
351.17	16.368
351.53	16.327
351.89	17.093
352.26	17.040
352.62	17.581
352.98	17.028
353.34	16.264
353.70	17.314
354.07	17.097
354.43	17.054
354.79	17.093
355.15	18.571
355.51	17.801
355.87	17.233
356.24	16.476
356.60	17.381
356.96	18.095
357.32	17.492
357.68	16.419
358.04	18.578
358.40	17.444
358.77	17.783
359.13	17.614
359.49	18.259
359.85	17.473
360.21	16.986
360.57	18.133
360.93	17.927
361.29	16.918
361.66	17.947
362.02	17.955
362.38	17.898
362.74	17.562
363.10	18.661
363.46	18.532
363.82	18.107
364.18	18.598
364.54	18.309
364.90	18.065
365.26	18.268
365.62	19.343
365.98	17.669
366.35	18.937
366.71	18.773
367.07	18.723
367.43	17.829
367.79	19.081
368.15	19.239
368.51	18.864
368.87	18.306
369.23	19.639
369.59	19.606
369.95	19.355
370.31	19.653
370.67	20.149
371.03	19.940
371.39	19.694
371.75	18.974
372.11	19.401
372.47	19.379
372.83	19.233
373.19	19.544
373.55	18.773
373.91	19.942
374.27	20.269
374.63	19.383
374.99	19.574
375.35	19.499
375.71	20.350
376.07	19.663
376.42	19.388
376.78	18.859
377.14	18.957
377.50	19.721
377.86	19.411
378.22	19.528
378.58	19.359
378.94	18.904
379.30	19.775
379.66	20.000
380.02	20.172
380.38	18.685
380.74	19.270
381.09	20.859
381.45	19.327
381.81	19.988
382.17	19.924
382.53	19.363
382.89	19.460
383.25	20.348
383.61	19.878
383.97	19.175
384.32	19.637
384.68	19.628
385.04	19.363
385.40	19.166
385.76	20.314
386.12	20.052
386.48	19.349
386.83	20.038
387.19	19.109
387.55	20.201
387.91	18.521
388.27	18.315
388.62	19.006
388.98	19.091
389.34	18.988
389.70	19.391
390.06	17.999
390.42	18.782
390.77	18.051
391.13	18.600
391.49	18.823
391.85	18.324
392.20	18.456
392.56	17.737
392.92	18.321
393.28	17.571
393.64	17.778
393.99	18.871
394.35	17.204
394.71	17.241
395.07	16.845
395.42	16.636
395.78	18.046
396.14	16.898
396.50	16.931
396.85	17.772
397.21	17.481
397.57	16.614
397.92	16.477
398.28	16.322
398.64	15.482
399.00	17.269
399.35	15.181
399.71	15.796
400.07	15.961
400.42	15.973
400.78	15.432
401.14	16.455
401.49	15.724
401.85	14.869
402.21	15.602
402.57	15.000
402.92	14.053
403.28	14.912
403.63	15.448
403.99	13.839
404.35	14.928
404.70	13.274
405.06	14.395
405.42	13.797
405.77	13.713
406.13	14.086
406.49	14.150
406.84	13.753
407.20	13.606
407.55	13.393
407.91	12.834
408.27	12.747
408.62	12.985
408.98	13.185
409.34	13.073
409.69	13.114
410.05	13.485
410.40	13.025
410.76	12.606
411.11	12.375
411.47	12.689
411.83	12.116
412.18	12.806
412.54	12.859
412.89	12.069
413.25	12.756
413.60	12.857
413.96	12.086
414.31	13.049
414.67	12.123
415.03	12.716
415.38	12.141
415.74	12.638
416.09	12.280
416.45	13.842
416.80	13.219
417.16	12.776
417.51	13.058
417.87	12.256
418.22	12.759
418.58	12.910
418.93	13.668
419.29	12.996
419.64	12.054
420.00	14.295
420.35	13.313
420.71	14.156
421.06	13.321
421.42	13.582
421.77	13.584
422.12	13.734
422.48	14.023
422.83	14.617
423.19	13.488
423.54	13.815
423.90	14.605
424.25	15.327
424.61	15.055
424.96	14.866
425.31	15.598
425.67	15.258
426.02	16.313
426.38	15.780
426.73	16.646
427.09	17.342
427.44	16.294
427.79	15.910
428.15	17.233
428.50	16.535
428.85	15.663
429.21	17.657
429.56	17.197
429.92	17.514
430.27	17.494
430.62	17.146
430.98	17.516
431.33	18.559
431.68	18.367
432.04	17.496
432.39	18.140
432.74	18.100
433.10	19.598
433.45	19.235
433.80	19.385
434.16	18.560
434.51	18.495
434.86	19.628
435.22	19.405
435.57	19.651
435.92	19.461
436.28	19.559
436.63	19.852
436.98	19.293
437.34	19.903
437.69	21.467
438.04	19.430
438.39	19.731
438.75	20.340
439.10	20.260
439.45	20.572
439.81	21.101
440.16	21.437
440.51	21.373
440.86	21.873
441.22	21.097
441.57	21.909
441.92	21.721
442.27	22.007
442.63	22.323
442.98	21.597
443.33	21.647
443.68	22.175
444.03	22.802
444.39	22.184
444.74	22.575
445.09	23.274
445.44	22.621
445.79	23.569
446.15	23.403
446.50	22.573
446.85	23.061
447.20	22.732
447.55	22.433
447.91	23.294
448.26	23.051
448.61	23.489
448.96	23.351
449.31	22.717
449.66	23.810
450.02	23.617
450.37	23.059
450.72	23.081
451.07	23.734
451.42	23.283
451.77	24.111
452.12	23.744
452.47	23.245
452.83	23.439
453.18	23.150
453.53	24.273
453.88	23.679
454.23	23.786
454.58	24.874
454.93	24.936
455.28	22.540
455.63	24.241
455.98	24.594
456.34	23.372
456.69	23.761
457.04	24.008
457.39	23.998
457.74	24.426
458.09	23.308
458.44	24.459
458.79	24.034
459.14	23.284
459.49	25.075
459.84	24.929
460.19	24.393
460.54	23.900
460.89	24.205
461.24	24.037
461.59	23.812
461.94	22.956
462.29	24.125
462.64	24.319
462.99	24.374
463.34	25.174
463.69	24.582
464.04	24.818
464.39	23.408
464.74	23.926
465.09	24.329
465.44	24.524
465.79	23.810
466.14	24.743
466.49	24.382
466.84	25.104
467.19	24.280
467.54	23.627
467.89	23.437
468.24	24.392
468.59	24.762
468.94	23.556
469.29	25.311
469.64	24.470
469.99	24.597
470.34	24.232
470.68	25.727
471.03	24.204
471.38	25.036
471.73	24.860
472.08	24.016
472.43	24.094
472.78	25.086
473.13	24.354
473.48	24.235
473.83	24.595
474.17	24.611
474.52	23.740
474.87	24.606
475.22	23.612
475.57	24.337
475.92	25.288
476.27	24.389
476.61	24.942
476.96	23.648
477.31	24.932
477.66	25.169
478.01	24.312
478.36	23.366
478.70	24.850
479.05	24.945
479.40	24.377
479.75	24.922
480.10	23.758
480.45	24.600
480.79	25.176
481.14	23.822
481.49	23.645
481.84	24.517
482.19	23.667
482.53	24.173
482.88	23.819
483.23	23.273
483.58	24.245
483.92	23.136
484.27	23.336
484.62	24.249
484.97	24.046
485.31	23.555
485.66	22.649
486.01	22.844
486.36	23.118
486.70	22.703
487.05	23.163
487.40	22.596
487.75	22.761
488.09	22.559
488.44	22.937
488.79	23.160
489.13	23.157
489.48	23.814
489.83	23.453
490.17	23.730
490.52	23.279
490.87	23.137
491.22	24.594
491.56	23.624
491.91	22.945
492.26	22.995
492.60	23.704
492.95	23.069
493.30	22.960
493.64	23.330
493.99	23.816
494.34	22.670
494.68	23.524
495.03	22.336
495.37	24.387
495.72	22.817
496.07	23.415
496.41	22.689
496.76	22.478
497.11	22.264
497.45	23.294
497.80	23.461
498.14	23.050
498.49	23.311
498.84	23.154
499.18	22.942
499.53	23.016
499.87	21.644
500.22	22.107
500.56	23.449
500.91	22.189
501.26	22.096
501.60	22.135
501.95	22.804
502.29	23.245
502.64	23.118
502.98	22.842
503.33	22.238
503.67	23.229
504.02	22.532
504.36	23.355
504.71	21.869
505.06	22.698
505.40	22.386
505.75	23.093
506.09	22.960
506.44	22.793
506.78	23.265
507.13	23.009
507.47	22.037
507.82	22.543
508.16	22.293
508.51	22.770
508.85	22.292
509.19	21.927
509.54	22.413
509.88	22.546
510.23	21.732
510.57	23.677
510.92	22.281
511.26	22.259
511.61	22.992
511.95	22.795
512.30	23.559
512.64	22.760
512.98	22.291
513.33	22.608
513.67	22.911
514.02	23.169
514.36	23.029
514.70	24.068
515.05	23.561
515.39	23.790
515.74	23.772
516.08	23.730
516.42	23.322
516.77	23.406
517.11	22.611
517.46	23.579
517.80	23.421
518.14	22.474
518.49	23.017
518.83	23.329
519.17	21.710
519.52	22.321
519.86	22.689
520.20	22.722
520.55	22.452
520.89	22.647
521.23	22.799
521.58	23.281
521.92	23.269
522.26	22.707
522.61	23.701
522.95	23.576
523.29	22.046
523.64	22.872
523.98	22.878
524.32	21.843
524.66	23.303
525.01	22.792
525.35	22.294
525.69	23.030
526.04	21.627
526.38	23.411
526.72	22.629
527.06	22.309
527.41	22.032
527.75	20.643
528.09	22.259
528.43	22.012
528.78	21.518
529.12	21.806
529.46	21.442
529.80	21.596
530.15	21.914
530.49	21.481
530.83	21.683
531.17	21.155
531.51	21.067
531.86	20.530
532.20	21.294
532.54	20.967
532.88	21.903
533.22	21.035
533.57	21.560
533.91	21.279
534.25	21.484
534.59	20.654
534.93	20.642
535.27	20.749
535.62	20.220
535.96	20.809
536.30	20.580
536.64	21.020
536.98	20.418
537.32	21.053
537.66	21.178
538.01	20.280
538.35	20.111
538.69	20.506
539.03	18.934
539.37	19.717
539.71	20.041
540.05	19.145
540.39	20.499
540.73	19.456
541.07	19.890
541.42	20.901
541.76	20.440
542.10	20.716
542.44	20.083
542.78	18.376
543.12	20.192
543.46	20.097
543.80	19.986
544.14	18.558
544.48	19.787
544.82	20.096
545.16	21.448
545.50	20.294
545.84	20.113
546.18	20.213
546.52	19.683
546.86	19.698
547.20	19.671
547.54	18.728
547.88	19.158
548.22	19.329
548.56	19.393
548.90	20.889
549.24	20.041
549.58	20.592
549.92	19.085
550.26	18.755
550.60	19.033
550.94	19.268
551.28	20.015
551.62	19.615
551.96	19.850
552.30	19.298
552.64	18.336
552.98	19.691
553.32	19.615
553.66	18.650
554.00	20.365
554.34	19.941
554.68	19.395
555.02	20.387
555.36	19.895
555.69	19.048
556.03	18.772
556.37	18.363
556.71	18.556
557.05	18.419
557.39	18.587
557.73	19.190
558.07	21.192
558.41	18.453
558.75	18.706
559.08	19.701
559.42	19.444
559.76	20.737
560.10	18.119
560.44	19.732
560.78	18.951
561.12	18.406
561.45	19.958
561.79	19.188
562.13	19.092
562.47	18.777
562.81	18.948
563.15	19.252
563.48	18.741
563.82	18.668
564.16	18.384
564.50	18.311
564.84	19.210
565.17	17.975
565.51	19.126
565.85	17.970
566.19	18.103
566.52	19.370
566.86	18.380
567.20	17.684
567.54	17.701
567.88	17.223
568.21	18.043
568.55	17.174
568.89	18.172
569.23	17.236
569.56	17.250
569.90	17.458
570.24	17.119
570.57	17.055
570.91	17.009
571.25	17.034
571.59	16.537
571.92	16.474
572.26	16.304
572.60	16.589
572.93	16.599
573.27	15.956
573.61	15.931
573.95	16.412
574.28	15.651
574.62	15.866
574.96	15.856
575.29	15.825
575.63	15.367
575.97	15.153
576.30	15.687
576.64	15.417
576.98	15.882
577.31	16.122
577.65	15.734
577.98	15.533
578.32	15.099
578.66	15.581
578.99	15.606
579.33	15.738
579.67	15.014
580.00	15.873
580.34	15.547
580.67	15.554
581.01	15.946
581.35	15.461
581.68	15.607
582.02	15.764
582.35	15.562
582.69	15.894
583.02	15.894
583.36	16.016
583.70	15.914
584.03	16.069
584.37	16.827
584.70	16.154
585.04	16.010
585.37	16.216
585.71	15.971
586.04	16.011
586.38	15.924
586.72	16.557
587.05	16.378
587.39	16.327
587.72	16.512
588.06	16.275
588.39	16.747
588.73	16.545
589.06	16.928
589.40	16.315
589.73	17.014
590.07	17.409
590.40	17.337
590.73	17.504
591.07	16.794
591.40	17.453
591.74	17.149
592.07	17.347
592.41	17.403
592.74	16.965
593.08	16.905
593.41	17.133
593.75	16.781
594.08	16.512
594.41	17.431
594.75	16.947
595.08	16.307
595.42	16.710
595.75	17.161
596.09	16.654
596.42	16.990
596.75	17.451
597.09	17.267
597.42	17.028
597.75	16.674
598.09	16.795
598.42	16.561
598.76	15.959
599.09	16.747
599.42	16.521
599.76	15.952
600.09	16.704
600.42	16.869
600.76	16.493
601.09	16.870
601.42	15.903
601.76	16.634
602.09	16.708
602.42	16.976
602.76	16.426
603.09	16.777
603.42	17.140
603.76	15.806
604.09	16.525
604.42	16.582
604.76	16.956
605.09	16.636
605.42	16.704
605.75	15.981
606.09	16.263
606.42	16.347
606.75	16.580
607.09	16.484
607.42	16.128
607.75	16.252
608.08	16.083
608.42	16.400
608.75	16.867
609.08	17.040
609.41	15.838
609.75	15.272
610.08	16.675
610.41	16.232
610.74	15.505
611.07	16.331
611.41	16.710
611.74	17.537
612.07	15.739
612.40	16.958
612.73	16.780
613.07	16.198
613.40	16.247
613.73	16.564
614.06	16.082
614.39	17.597
614.72	15.742
615.06	16.034
615.39	15.830
615.72	15.877
616.05	16.257
616.38	15.385
616.71	16.269
617.05	15.936
617.38	16.908
617.71	15.409
618.04	16.952
618.37	16.772
618.70	16.040
619.03	16.667
619.36	15.412
619.69	17.058
620.03	17.020
620.36	16.667
620.69	16.131
621.02	17.278
621.35	16.680
621.68	16.837
622.01	17.167
622.34	16.121
622.67	17.035
623.00	16.539
623.33	15.777
623.66	16.904
623.99	16.793
624.32	16.122
624.65	15.940
624.99	15.877
625.32	15.694
625.65	16.025
625.98	16.600
626.31	15.378
626.64	15.165
626.97	17.539
627.30	17.426
627.63	16.898
627.96	16.083
628.29	16.096
628.62	16.519
628.95	15.130
629.28	16.431
629.61	16.251
629.94	17.595
630.26	16.403
630.59	17.066
630.92	18.154
631.25	17.231
631.58	16.630
631.91	15.241
632.24	15.596
632.57	17.386
632.90	16.607
633.23	15.765
633.56	16.499
633.89	16.400
634.22	16.790
634.55	15.756
634.88	16.858
635.20	18.205
