SpectraSuite Data File
++++++++++++++++++++++++++++++++++++
Date: Fri May 15 21:11:24 PDT 2015
User: schluterlab
Dark Spectrum Present: Yes
Reference Spectrum Present: Yes
Number of Sampled Component Spectra: 1
Spectrometers: USB2E3373
Integration Time (usec): 3000 (USB2E3373)
Spectra Averaged: 3 (USB2E3373)
Boxcar Smoothing: 0 (USB2E3373)
Correct for Electrical Dark: No (USB2E3373)
Strobe/Lamp Enabled: No (USB2E3373)
Correct for Detector Non-linearity: No (USB2E3373)
Correct for Stray Light: No (USB2E3373)
Number of Pixels in Processed Spectrum: 2048
>>>>>Begin Processed Spectral Data<<<<<
178.53	0.000
178.91	0.000
179.29	12.500
179.67	-300.000
180.04	42.857
180.42	25.000
180.80	-900.000
181.18	66.667
181.56	250.000
181.94	-450.000
182.31	600.000
182.69	-100.000
183.07	-333.333
183.45	-40.000
183.83	183.333
184.20	-54.545
184.58	88.889
184.96	25.000
185.34	200.000
185.72	-400.000
186.09	61.538
186.47	-1500.000
186.85	66.667
187.23	111.111
187.61	800.000
187.98	66.667
188.36	-44.444
188.74	-233.333
189.12	23.529
189.49	55.556
189.87	0.000
190.25	57.143
190.63	-150.000
191.00	-566.667
191.38	0.000
191.76	-400.000
192.14	200.000
192.51	250.000
192.89	-66.667
193.27	-57.143
193.65	183.333
194.02	81.818
194.40	70.000
194.78	-300.000
195.15	-58.333
195.53	-62.500
195.91	150.000
196.29	-350.000
196.66	76.923
197.04	257.143
197.42	-77.778
197.79	-700.000
198.17	-69.231
198.55	1400.000
198.92	-233.333
199.30	-300.000
199.68	-160.000
200.05	-33.333
200.43	0.000
200.81	-100.000
201.18	-66.667
201.56	1600.000
201.94	-300.000
202.31	-66.667
202.69	-140.000
203.07	75.000
203.44	-200.000
203.82	0.000
204.19	7.143
204.57	-666.667
204.95	187.500
205.32	-20.000
205.70	71.429
206.08	50.000
206.45	177.778
206.83	42.857
207.20	-114.286
207.58	1400.000
207.96	-533.333
208.33	-90.000
208.71	-50.000
209.08	-150.000
209.46	-400.000
209.84	-20.000
210.21	-500.000
210.59	42.857
210.96	-83.333
211.34	-225.000
211.71	20.000
212.09	-114.286
212.46	-2000.000
212.84	0.000
213.22	120.000
213.59	950.000
213.97	-38.462
214.34	-45.455
214.72	-33.333
215.09	375.000
215.47	7.692
215.84	-27.273
216.22	-433.333
216.59	-112.500
216.97	-250.000
217.34	-350.000
217.72	-200.000
218.09	50.000
218.47	175.000
218.84	-700.000
219.22	-22.222
219.59	-140.000
219.97	333.333
220.34	550.000
220.72	-71.429
221.09	-200.000
221.47	100.000
221.84	-800.000
222.22	-800.000
222.59	27.273
222.97	16.667
223.34	0.000
223.72	28.571
224.09	9.524
224.46	17.857
224.84	600.000
225.21	60.000
225.59	26.667
225.96	-300.000
226.34	425.000
226.71	42.857
227.08	66.667
227.46	-175.000
227.83	-750.000
228.21	77.778
228.58	54.545
228.95	50.000
229.33	140.000
229.70	-6.250
230.08	-87.500
230.45	-71.429
230.82	57.143
231.20	33.333
231.57	78.571
231.95	42.857
232.32	-120.000
232.69	28.571
233.07	66.667
233.44	-100.000
233.81	-50.000
234.19	-33.333
234.56	-58.824
234.93	550.000
235.31	-50.000
235.68	-20.000
236.05	-53.846
236.43	15.000
236.80	41.176
237.17	43.750
237.55	25.000
237.92	-7.407
238.29	44.444
238.67	56.667
239.04	14.706
239.41	-19.512
239.79	23.333
240.16	34.146
240.53	31.579
240.91	32.609
241.28	39.683
241.65	32.143
242.02	31.507
242.40	51.667
242.77	44.068
243.14	39.394
243.51	20.000
243.89	36.782
244.26	34.483
244.63	44.048
245.00	27.835
245.38	32.990
245.75	33.708
246.12	33.621
246.49	38.017
246.87	47.115
247.24	35.294
247.61	36.842
247.98	43.089
248.36	33.750
248.73	36.842
249.10	33.766
249.47	44.304
249.84	44.444
250.22	42.941
250.59	38.562
250.96	42.723
251.33	38.953
251.70	35.882
252.08	39.086
252.45	40.594
252.82	41.206
253.19	44.700
253.56	33.178
253.94	45.045
254.31	41.304
254.68	41.667
255.05	37.795
255.42	37.991
255.79	40.927
256.16	44.747
256.54	42.164
256.91	39.544
257.28	39.777
257.65	38.202
258.02	41.844
258.39	43.434
258.76	42.491
259.14	43.522
259.51	42.718
259.88	40.893
260.25	42.157
260.62	48.611
260.99	42.034
261.36	40.753
261.73	40.823
262.10	42.553
262.47	44.172
262.85	41.693
263.22	43.385
263.59	43.614
263.96	38.820
264.33	44.545
264.70	40.476
265.07	42.560
265.44	41.360
265.81	44.068
266.18	44.536
266.55	42.931
266.92	41.710
267.29	39.687
267.66	43.734
268.03	41.099
268.40	41.775
268.77	48.663
269.14	40.048
269.51	43.188
269.88	40.150
270.25	39.796
270.62	40.976
270.99	43.990
271.36	41.076
271.73	40.610
272.10	44.526
272.47	43.735
272.84	41.584
273.21	41.531
273.58	46.747
273.95	42.563
274.32	38.568
274.69	36.878
275.06	44.643
275.43	39.002
275.80	39.514
276.17	43.218
276.54	39.186
276.91	40.132
277.28	37.555
277.65	38.636
278.02	40.638
278.39	40.919
278.76	40.671
279.13	36.100
279.50	40.966
279.87	40.605
280.23	38.925
280.60	41.520
280.97	41.414
281.34	39.038
281.71	41.068
282.08	39.877
282.45	39.530
282.82	38.417
283.19	38.104
283.56	40.655
283.92	39.848
284.29	39.423
284.66	36.822
285.03	39.686
285.40	38.374
285.77	39.016
286.14	39.531
286.51	41.328
286.87	35.283
287.24	38.674
287.61	35.450
287.98	38.421
288.35	39.341
288.72	37.478
289.08	37.326
289.45	38.664
289.82	36.189
290.19	39.249
290.56	34.134
290.93	34.848
291.29	34.206
291.66	33.701
292.03	34.290
292.40	36.129
292.77	33.812
293.13	32.630
293.50	31.715
293.87	33.435
294.24	35.240
294.60	32.787
294.97	33.631
295.34	33.129
295.71	32.042
296.08	30.194
296.44	29.445
296.81	30.972
297.18	31.304
297.55	32.656
297.91	33.562
298.28	30.607
298.65	30.801
299.02	30.189
299.38	29.549
299.75	29.793
300.12	28.796
300.48	29.644
300.85	29.785
301.22	28.312
301.59	27.763
301.95	31.013
302.32	31.258
302.69	28.483
303.05	28.094
303.42	29.763
303.79	29.089
304.15	29.032
304.52	28.775
304.89	27.485
305.25	27.603
305.62	26.721
305.99	27.719
306.35	28.092
306.72	27.334
307.09	28.164
307.45	28.588
307.82	28.935
308.19	30.314
308.55	28.680
308.92	28.649
309.29	28.492
309.65	27.879
310.02	28.383
310.38	28.869
310.75	28.852
311.12	27.987
311.48	27.253
311.85	29.319
312.22	27.954
312.58	29.299
312.95	28.388
313.31	28.882
313.68	28.796
314.05	29.184
314.41	30.515
314.78	29.278
315.14	30.421
315.51	30.331
315.87	29.201
316.24	30.536
316.61	30.610
316.97	32.143
317.34	31.543
317.70	30.975
318.07	31.250
318.43	32.745
318.80	31.629
319.16	33.887
319.53	33.143
319.89	32.579
320.26	33.097
320.62	35.105
320.99	34.447
321.35	35.560
321.72	35.618
322.08	35.851
322.45	36.853
322.81	34.479
323.18	35.427
323.54	37.645
323.91	36.319
324.27	38.281
324.64	39.513
325.00	38.047
325.37	40.129
325.73	39.075
326.10	39.782
326.46	40.807
326.83	41.820
327.19	42.720
327.56	42.050
327.92	42.518
328.29	43.929
328.65	43.302
329.01	43.934
329.38	44.516
329.74	43.437
330.11	44.764
330.47	43.878
330.84	46.827
331.20	46.863
331.56	45.926
331.93	47.032
332.29	46.104
332.66	45.882
333.02	46.840
333.38	45.738
333.75	47.161
334.11	46.374
334.48	46.328
334.84	48.077
335.20	49.314
335.57	48.595
335.93	48.600
336.29	48.987
336.66	47.321
337.02	49.071
337.38	48.796
337.75	49.091
338.11	48.693
338.47	49.270
338.84	50.185
339.20	49.909
339.56	50.092
339.93	51.030
340.29	53.486
340.65	52.330
341.02	51.596
341.38	51.681
341.74	51.502
342.11	51.906
342.47	53.826
342.83	52.682
343.20	52.962
343.56	53.391
343.92	52.702
344.28	53.288
344.65	54.663
345.01	53.241
345.37	51.472
345.73	53.473
346.10	55.997
346.46	55.088
346.82	54.583
347.19	53.865
347.55	54.804
347.91	55.340
348.27	53.355
348.63	56.559
349.00	55.455
349.36	54.946
349.72	57.794
350.08	56.148
350.45	55.706
350.81	56.229
351.17	56.189
351.53	55.673
351.89	55.656
352.26	56.400
352.62	57.419
352.98	56.948
353.34	56.441
353.70	56.472
354.07	57.823
354.43	56.765
354.79	58.299
355.15	59.603
355.51	57.991
355.87	58.819
356.24	56.688
356.60	57.316
356.96	58.968
357.32	57.907
357.68	59.265
358.04	57.997
358.40	58.762
358.77	59.410
359.13	59.808
359.49	57.088
359.85	57.956
360.21	60.128
360.57	60.138
360.93	58.548
361.29	57.402
361.66	60.266
362.02	61.212
362.38	61.005
362.74	60.787
363.10	62.302
363.46	60.638
363.82	61.232
364.18	59.483
364.54	60.221
364.90	60.932
365.26	61.645
365.62	62.482
365.98	60.411
366.35	62.127
366.71	62.010
367.07	62.337
367.43	62.401
367.79	59.647
368.15	62.599
368.51	61.690
368.87	61.378
369.23	61.083
369.59	62.536
369.95	62.977
370.31	62.645
370.67	63.507
371.03	63.630
371.39	62.290
371.75	62.344
372.11	62.126
372.47	64.867
372.83	62.527
373.19	62.126
373.55	60.939
373.91	63.715
374.27	64.352
374.63	63.460
374.99	62.128
375.35	63.301
375.71	64.266
376.07	64.256
376.42	64.218
376.78	63.758
377.14	62.830
377.50	64.675
377.86	64.190
378.22	63.944
378.58	65.064
378.94	64.272
379.30	63.880
379.66	65.580
380.02	65.665
380.38	64.029
380.74	65.111
381.09	65.153
381.45	64.587
381.81	64.960
382.17	64.975
382.53	64.460
382.89	65.976
383.25	64.904
383.61	66.585
383.97	65.651
384.32	65.604
384.68	65.511
385.04	63.909
385.40	64.219
385.76	66.415
386.12	66.753
386.48	66.411
386.83	66.265
387.19	64.713
387.55	67.315
387.91	66.137
388.27	65.690
388.62	66.457
388.98	66.605
389.34	66.146
389.70	68.365
390.06	64.632
390.42	65.609
390.77	66.449
391.13	65.132
391.49	66.235
391.85	67.641
392.20	65.662
392.56	65.861
392.92	66.471
393.28	66.863
393.64	65.766
393.99	68.464
394.35	66.793
394.71	68.455
395.07	64.991
395.42	65.513
395.78	65.993
396.14	66.583
396.50	67.787
396.85	66.259
397.21	65.602
397.57	65.266
397.92	65.668
398.28	67.241
398.64	65.241
399.00	66.366
399.35	64.729
399.71	64.675
400.07	66.445
400.42	66.340
400.78	65.279
401.14	66.243
401.49	65.158
401.85	66.179
402.21	64.940
402.57	65.312
402.92	65.747
403.28	65.476
403.63	66.961
403.99	65.689
404.35	66.334
404.70	64.048
405.06	64.395
405.42	64.326
405.77	63.916
406.13	64.668
406.49	64.180
406.84	64.303
407.20	65.021
407.55	63.683
407.91	64.104
408.27	63.416
408.62	63.631
408.98	62.600
409.34	64.312
409.69	63.695
410.05	63.362
410.40	64.630
410.76	63.510
411.11	63.125
411.47	64.234
411.83	62.900
412.18	62.613
412.54	61.985
412.89	62.007
413.25	63.658
413.60	62.360
413.96	61.350
414.31	61.768
414.67	61.450
415.03	62.117
415.38	62.076
415.74	61.498
416.09	62.900
416.45	62.863
416.80	60.278
417.16	62.845
417.51	62.358
417.87	60.821
418.22	62.435
418.58	62.943
418.93	61.505
419.29	60.371
419.64	62.929
420.00	63.161
420.35	61.075
420.71	62.211
421.06	61.449
421.42	61.478
421.77	62.370
422.12	60.556
422.48	61.180
422.83	60.557
423.19	61.287
423.54	61.258
423.90	60.012
424.25	62.457
424.61	61.567
424.96	61.324
425.31	61.987
425.67	61.737
426.02	62.662
426.38	61.490
426.73	63.015
427.09	61.519
427.44	61.294
427.79	61.049
428.15	60.255
428.50	61.599
428.85	60.197
429.21	61.234
429.56	60.270
429.92	60.760
430.27	59.198
430.62	58.913
430.98	59.766
431.33	60.883
431.68	59.184
432.04	59.810
432.39	59.270
432.74	57.907
433.10	59.770
433.45	59.618
433.80	59.954
434.16	59.003
434.51	59.785
434.86	58.769
435.22	57.768
435.57	59.451
435.92	57.425
436.28	57.424
436.63	59.099
436.98	57.532
437.34	57.895
437.69	59.451
438.04	58.746
438.39	57.789
438.75	59.259
439.10	58.461
439.45	59.282
439.81	58.654
440.16	59.561
440.51	58.030
440.86	60.060
441.22	56.561
441.57	58.830
441.92	58.132
442.27	58.426
442.63	58.512
442.98	57.094
443.33	56.539
443.68	57.825
444.03	56.731
444.39	57.698
444.74	58.194
445.09	57.906
445.44	57.493
445.79	58.329
446.15	56.993
446.50	56.018
446.85	57.492
447.20	55.474
447.55	55.804
447.91	57.078
448.26	55.151
448.61	55.095
448.96	56.627
449.31	54.682
449.66	55.052
450.02	55.961
450.37	55.602
450.72	54.296
451.07	54.684
451.42	54.494
451.77	54.792
452.12	55.024
452.47	54.862
452.83	54.888
453.18	54.712
453.53	55.436
453.88	53.795
454.23	54.640
454.58	55.164
454.93	55.863
455.28	52.508
455.63	53.999
455.98	53.698
456.34	53.384
456.69	54.257
457.04	53.875
457.39	53.949
457.74	53.325
458.09	52.266
458.44	52.604
458.79	52.493
459.14	52.403
459.49	52.239
459.84	51.720
460.19	51.396
460.54	52.628
460.89	51.534
461.24	51.677
461.59	51.306
461.94	51.132
462.29	51.267
462.64	52.159
462.99	51.320
463.34	51.113
463.69	51.351
464.04	50.666
464.39	50.091
464.74	49.202
465.09	51.466
465.44	49.567
465.79	49.036
466.14	49.772
466.49	49.799
466.84	50.030
467.19	49.687
467.54	48.978
467.89	49.400
468.24	48.358
468.59	49.397
468.94	48.000
469.29	49.574
469.64	49.419
469.99	49.404
470.34	49.283
470.68	49.739
471.03	49.894
471.38	48.217
471.73	47.829
472.08	47.693
472.43	48.121
472.78	46.950
473.13	47.823
473.48	47.296
473.83	46.700
474.17	46.826
474.52	47.033
474.87	46.788
475.22	47.529
475.57	47.092
475.92	46.626
476.27	46.740
476.61	46.007
476.96	45.901
477.31	46.620
477.66	45.899
478.01	46.210
478.36	46.133
478.70	46.275
479.05	45.275
479.40	45.628
479.75	44.943
480.10	44.086
480.45	45.450
480.79	44.864
481.14	45.594
481.49	44.532
481.84	45.656
482.19	43.545
482.53	44.412
482.88	44.582
483.23	43.522
483.58	44.009
483.92	44.482
484.27	42.571
484.62	43.120
484.97	43.449
485.31	42.124
485.66	41.617
486.01	42.035
486.36	41.746
486.70	42.234
487.05	42.260
487.40	41.675
487.75	41.859
488.09	40.698
488.44	41.506
488.79	41.614
489.13	42.308
489.48	41.898
489.83	42.422
490.17	41.933
490.52	41.940
490.87	41.601
491.22	41.738
491.56	41.556
491.91	41.444
492.26	42.149
492.60	42.131
492.95	42.941
493.30	40.840
493.64	42.485
493.99	41.546
494.34	41.311
494.68	41.667
495.03	41.849
495.37	41.560
495.72	41.848
496.07	41.561
496.41	40.708
496.76	40.719
497.11	40.987
497.45	41.002
497.80	41.625
498.14	41.182
498.49	41.493
498.84	39.770
499.18	41.014
499.53	41.220
499.87	40.418
500.22	40.851
500.56	40.040
500.91	40.010
501.26	40.138
501.60	39.793
501.95	40.126
502.29	40.581
502.64	40.637
502.98	39.122
503.33	39.145
503.67	40.289
504.02	40.176
504.36	41.019
504.71	38.737
505.06	39.054
505.40	39.695
505.75	39.485
506.09	38.824
506.44	40.041
506.78	39.643
507.13	39.762
507.47	38.747
507.82	38.301
508.16	37.929
508.51	39.244
508.85	38.357
509.19	39.063
509.54	39.893
509.88	39.374
510.23	38.999
510.57	39.498
510.92	37.313
511.26	39.935
511.61	39.714
511.95	38.466
512.30	39.191
512.64	38.564
512.98	38.686
513.33	39.060
513.67	39.170
514.02	40.160
514.36	39.714
514.70	39.510
515.05	38.484
515.39	38.312
515.74	38.683
516.08	39.450
516.42	38.280
516.77	39.672
517.11	39.881
517.46	39.437
517.80	39.213
518.14	38.151
518.49	38.161
518.83	38.214
519.17	38.448
519.52	37.715
519.86	37.035
520.20	38.092
520.55	36.773
520.89	38.457
521.23	37.809
521.58	39.243
521.92	37.885
522.26	37.931
522.61	38.247
522.95	38.543
523.29	37.865
523.64	38.310
523.98	40.246
524.32	37.371
524.66	37.260
525.01	38.182
525.35	37.848
525.69	37.845
526.04	37.765
526.38	39.429
526.72	36.625
527.06	36.965
527.41	38.193
527.75	36.796
528.09	37.409
528.43	38.150
528.78	36.964
529.12	37.419
529.46	37.232
529.80	37.365
530.15	37.690
530.49	37.778
530.83	38.030
531.17	37.542
531.51	38.167
531.86	36.574
532.20	37.300
532.54	37.372
532.88	37.988
533.22	37.567
533.57	37.746
533.91	36.423
534.25	37.044
534.59	36.241
534.93	36.123
535.27	35.533
535.62	35.969
535.96	36.138
536.30	36.873
536.64	37.629
536.98	36.794
537.32	37.411
537.66	38.008
538.01	36.503
538.35	36.269
538.69	35.686
539.03	35.817
539.37	36.205
539.71	36.673
540.05	36.456
540.39	35.388
540.73	36.541
541.07	37.017
541.42	36.626
541.76	36.270
542.10	35.375
542.44	35.094
542.78	33.792
543.12	35.234
543.46	35.953
543.80	36.017
544.14	34.112
544.48	34.377
544.82	35.133
545.16	35.861
545.50	35.581
545.84	35.694
546.18	35.674
546.52	34.895
546.86	35.155
547.20	34.907
547.54	34.346
547.88	34.579
548.22	33.596
548.56	34.565
548.90	34.838
549.24	34.160
549.58	34.274
549.92	35.454
550.26	34.652
550.60	35.167
550.94	35.474
551.28	34.467
551.62	34.462
551.96	34.662
552.30	33.699
552.64	34.062
552.98	34.669
553.32	33.951
553.66	34.253
554.00	34.234
554.34	34.564
554.68	34.071
555.02	35.417
555.36	33.657
555.69	34.212
556.03	33.405
556.37	33.808
556.71	34.874
557.05	34.079
557.39	33.011
557.73	34.033
558.07	34.540
558.41	33.461
558.75	33.359
559.08	34.909
559.42	34.921
559.76	35.789
560.10	33.257
560.44	33.135
560.78	33.147
561.12	34.133
561.45	33.169
561.79	33.193
562.13	33.641
562.47	32.734
562.81	33.501
563.15	34.697
563.48	33.522
563.82	33.562
564.16	33.914
564.50	32.230
564.84	33.467
565.17	33.065
565.51	34.426
565.85	34.568
566.19	33.422
566.52	32.842
566.86	33.098
567.20	32.565
567.54	32.360
567.88	32.279
568.21	32.466
568.55	32.554
568.89	32.495
569.23	32.643
569.56	32.093
569.90	32.643
570.24	31.299
570.57	31.091
570.91	31.509
571.25	31.305
571.59	30.489
571.92	30.193
572.26	29.952
572.60	30.419
572.93	30.279
573.27	30.533
573.61	30.698
573.95	30.448
574.28	30.270
574.62	29.519
574.96	29.668
575.29	30.111
575.63	28.971
575.97	29.412
576.30	29.885
576.64	29.245
576.98	29.858
577.31	30.106
577.65	30.229
577.98	29.797
578.32	29.301
578.66	29.207
578.99	29.293
579.33	29.728
579.67	29.220
580.00	30.000
580.34	29.478
580.67	28.338
581.01	29.587
581.35	29.436
581.68	29.207
582.02	29.382
582.35	29.211
582.69	29.256
583.02	29.139
583.36	29.714
583.70	29.958
584.03	30.053
584.37	30.209
584.70	29.093
585.04	28.446
585.37	29.017
585.71	28.956
586.04	29.173
586.38	28.354
586.72	29.412
587.05	29.867
587.39	29.522
587.72	30.016
588.06	29.726
588.39	29.194
588.73	29.151
589.06	30.463
589.40	30.038
589.73	29.828
590.07	30.514
590.40	29.721
590.73	30.560
591.07	29.941
591.40	29.341
591.74	29.683
592.07	30.334
592.41	30.433
592.74	29.590
593.08	29.025
593.41	29.456
593.75	29.277
594.08	29.488
594.41	29.622
594.75	29.580
595.08	29.739
595.42	29.775
595.75	29.666
596.09	30.102
596.42	30.054
596.75	29.618
597.09	30.251
597.42	30.036
597.75	29.317
598.09	30.014
598.42	29.332
598.76	28.614
599.09	28.966
599.42	28.799
599.76	28.969
600.09	28.582
600.42	29.378
600.76	28.455
601.09	28.321
601.42	28.946
601.76	29.496
602.09	28.713
602.42	29.907
602.76	29.796
603.09	29.319
603.42	29.557
603.76	29.194
604.09	29.000
604.42	29.653
604.76	30.040
605.09	29.068
605.42	29.481
605.75	29.335
606.09	29.554
606.42	29.024
606.75	29.091
607.09	29.758
607.42	28.622
607.75	29.307
608.08	28.527
608.42	28.780
608.75	30.169
609.08	29.547
609.41	29.188
609.75	29.385
610.08	29.006
610.41	28.116
610.74	29.108
611.07	29.406
611.41	29.424
611.74	29.104
612.07	28.640
612.40	28.829
612.73	29.492
613.07	28.290
613.40	28.884
613.73	28.707
614.06	29.661
614.39	29.724
614.72	29.020
615.06	29.330
615.39	29.531
615.72	28.525
616.05	28.994
616.38	29.687
616.71	29.664
617.05	29.401
617.38	30.170
617.71	29.308
618.04	30.222
618.37	31.084
618.70	30.693
619.03	30.833
619.36	29.450
619.69	31.387
620.03	31.045
620.36	30.758
620.69	29.764
621.02	29.740
621.35	31.120
621.68	30.612
622.01	30.917
622.34	30.407
622.67	30.757
623.00	30.704
623.33	30.412
623.66	30.591
623.99	29.501
624.32	30.646
624.65	29.699
624.99	30.549
625.32	29.113
625.65	30.401
625.98	30.137
626.31	30.673
626.64	30.243
626.97	32.024
627.30	30.298
627.63	30.156
627.96	31.806
628.29	31.175
628.62	31.170
628.95	30.962
629.28	30.746
629.61	31.505
629.94	31.281
630.26	30.830
630.59	30.593
630.92	32.000
631.25	30.359
631.58	32.379
631.91	30.811
632.24	29.817
632.57	30.682
632.90	31.554
633.23	31.882
